Data from BA17724_Reflection_00005.txt Node
Date: Tue Nov 19 11:57:52 EST 2019
User: vgr7
Spectrometer: USB2G7710
Scans to average: 3
Trigger mode: 4
Integration Time (sec): 2.000000E-2
Electric dark correction enabled: true
Boxcar width: 10
XAxis mode: Wavelengths
Number of Pixels in Spectrum: 2048
>>>>>Begin Spectral Data<<<<<
177.721	113.72
178.105	87.8
178.488	57.78
178.871	64.77
179.254	-18.75
179.636	358.06
180.019	-95.12
180.402	15.15
180.785	-21.43
181.168	78.61
181.55	225
181.933	109.22
182.316	65.4
182.698	54.06
183.081	53.04
183.463	74.3
183.846	75.46
184.228	56.69
184.611	1350
184.993	-180
185.376	66.1
185.758	-900
186.14	-11.54
186.522	-138.81
186.904	-337.5
187.287	-22.53
187.669	-10.71
188.051	41.28
188.433	34.15
188.815	41.45
189.197	32.08
189.579	-18.35
189.961	28.32
190.342	34.98
190.724	42.48
191.106	40.07
191.488	85.07
191.869	94.82
192.251	35.74
192.633	29.38
193.014	49.37
193.396	63.3
193.777	19.89
194.159	62.57
194.54	202.94
194.922	245.27
195.303	975
195.684	730.43
196.065	-607.32
196.447	-315.58
196.828	216.28
197.209	-58.54
197.59	-580.85
197.971	67.11
198.352	42.15
198.733	13.37
199.114	40.83
199.495	-65.82
199.876	-31.58
200.257	-119.01
200.638	-978.95
201.018	-65.73
201.399	-1462.5
201.78	-41.83
202.16	-34.29
202.541	-74.37
202.922	-75.89
203.302	-72.41
203.683	-71.83
204.063	-77.53
204.444	-178.63
204.824	-535.71
205.204	-454.69
205.585	-1542.86
205.965	232.08
206.345	156.94
206.725	116.95
207.106	141.25
207.486	111.57
207.866	103.54
208.246	124.7
208.626	144.18
209.006	149.72
209.386	126.46
209.766	99.11
210.145	83.68
210.525	51.72
210.905	75.85
211.285	67.29
211.664	74.56
212.044	45.65
212.424	47.44
212.803	44.77
213.183	48.07
213.562	40.11
213.942	28.14
214.321	23.8
214.701	15.34
215.08	6.98
215.459	7.35
215.838	17.87
216.218	-7.92
216.597	10.15
216.976	-17.75
217.355	-24.86
217.734	-33.03
218.113	-17.33
218.492	-5.43
218.871	-11.92
219.25	0.69
219.629	-19.94
220.008	5.78
220.387	32.93
220.766	37.76
221.144	35.38
221.523	48.15
221.902	55.58
222.28	54.22
222.659	56
223.037	54.01
223.416	47.23
223.794	42.86
224.173	58.2
224.551	59.9
224.929	64.05
225.308	70.11
225.686	60.13
226.064	45.91
226.442	53.77
226.821	48.95
227.199	38.23
227.577	35.46
227.955	29.91
228.333	23.32
228.711	25.57
229.089	27.24
229.467	29.38
229.845	21.28
230.222	20.64
230.6	17.59
230.978	17.39
231.356	16.59
231.733	12.87
232.111	10.45
232.488	10.2
232.866	12.85
233.243	12.26
233.621	13.85
233.998	15.1
234.376	10.35
234.753	8.27
235.13	11.52
235.508	10.58
235.885	10.35
236.262	7.52
236.639	5.69
237.016	4.74
237.393	3.64
237.77	5.31
238.147	5.76
238.524	5.59
238.901	5.59
239.278	4.99
239.655	5.82
240.032	5.92
240.409	5.27
240.785	4.4
241.162	5.01
241.539	5.51
241.915	5.4
242.292	5.68
242.668	6.56
243.045	6.38
243.421	6.43
243.798	6.16
244.174	6.91
244.551	6.89
244.927	6.84
245.303	6.45
245.679	6.39
246.056	6.5
246.432	6.61
246.808	6.53
247.184	6.64
247.56	6.27
247.936	6.23
248.312	6.49
248.688	6.39
249.064	6.2
249.44	6.11
249.815	6.23
250.191	6.42
250.567	6.32
250.943	6.14
251.318	6.2
251.694	6.39
252.069	6.24
252.445	6.14
252.82	6.44
253.196	6.66
253.571	7.05
253.947	6.98
254.322	6.87
254.697	6.67
255.073	6.76
255.448	6.49
255.823	6.26
256.198	5.69
256.573	5.86
256.948	5.85
257.323	5.77
257.698	5.57
258.073	5.26
258.448	5.02
258.823	4.91
259.198	4.82
259.573	4.56
259.948	4.57
260.322	4.58
260.697	4.34
261.072	4.32
261.446	4.29
261.821	4.33
262.195	4.38
262.57	4.44
262.944	4.26
263.319	4.49
263.693	4.63
264.067	4.86
264.442	4.81
264.816	4.74
265.19	4.71
265.564	4.69
265.938	4.77
266.313	4.9
266.687	4.91
267.061	4.88
267.435	5.16
267.809	5.11
268.183	4.97
268.556	5.09
268.93	5.24
269.304	5.22
269.678	5.17
270.051	5.28
270.425	5.37
270.799	5.44
271.172	5.42
271.546	5.52
271.919	5.48
272.293	5.43
272.666	5.48
273.04	5.45
273.413	5.68
273.787	5.63
274.16	5.51
274.533	5.67
274.906	5.72
275.279	5.51
275.653	5.56
276.026	5.67
276.399	5.7
276.772	5.66
277.145	5.49
277.518	5.52
277.891	5.43
278.263	5.32
278.636	5.43
279.009	5.46
279.382	5.26
279.755	5.33
280.127	5.34
280.5	5.13
280.872	5.03
281.245	4.76
281.617	4.85
281.99	4.81
282.362	4.56
282.735	4.6
283.107	4.7
283.479	4.77
283.852	4.78
284.224	4.7
284.596	4.72
284.968	4.69
285.34	4.49
285.713	4.61
286.085	4.68
286.457	4.58
286.829	4.42
287.201	4.47
287.572	4.54
287.944	4.64
288.316	4.65
288.688	4.83
289.06	4.77
289.431	4.87
289.803	4.93
290.175	5.06
290.546	4.94
290.918	5.12
291.289	4.99
291.661	4.99
292.032	5.06
292.403	5.09
292.775	5.21
293.146	5.25
293.517	4.94
293.889	4.96
294.26	4.99
294.631	5.13
295.002	5.04
295.373	4.98
295.744	4.98
296.115	5.09
296.486	5.09
296.857	5.11
297.228	4.92
297.599	4.92
297.97	5.03
298.34	5.07
298.711	5.16
299.082	5.25
299.452	5.26
299.823	5.15
300.194	5.16
300.564	5.19
300.935	5.26
301.305	5.36
301.676	5.29
302.046	5.28
302.416	5.2
302.787	5.24
303.157	5.02
303.527	5.07
303.897	5.01
304.267	4.83
304.637	5.05
305.008	5.27
305.378	5.22
305.748	5
306.117	5.06
306.487	4.85
306.857	4.81
307.227	4.93
307.597	4.96
307.967	4.96
308.336	4.86
308.706	4.87
309.076	5.01
309.445	5.08
309.815	5.07
310.184	5.12
310.554	5.13
310.923	5.25
311.293	5.01
311.662	5.09
312.031	5.11
312.401	5.03
312.77	5.01
313.139	4.95
313.508	5
313.877	5.03
314.246	4.99
314.616	4.97
314.985	4.88
315.353	4.98
315.722	4.9
316.091	4.87
316.46	4.88
316.829	4.76
317.198	4.85
317.567	4.89
317.935	4.94
318.304	4.87
318.672	4.92
319.041	5.18
319.41	5.19
319.778	5.25
320.147	5.19
320.515	5.11
320.883	5.03
321.252	5.1
321.62	5
321.988	5.15
322.357	5.15
322.725	5.27
323.093	5.16
323.461	5.19
323.829	5.37
324.197	5.27
324.565	5.4
324.933	5.14
325.301	5.06
325.669	5.09
326.037	5.09
326.405	5.12
326.772	5.06
327.14	4.9
327.508	4.89
327.875	4.97
328.243	4.79
328.61	5.04
328.978	4.95
329.346	4.95
329.713	4.9
330.08	4.92
330.448	4.83
330.815	4.88
331.182	4.91
331.55	4.86
331.917	4.79
332.284	4.75
332.651	4.8
333.018	4.85
333.385	4.82
333.752	4.89
334.119	4.91
334.486	4.91
334.853	5.07
335.22	4.99
335.587	4.91
335.954	4.97
336.32	4.78
336.687	4.89
337.054	4.98
337.42	4.79
337.787	4.78
338.153	4.8
338.52	4.92
338.886	5.03
339.253	4.98
339.619	5.29
339.986	5.29
340.352	5.4
340.718	5.34
341.084	5.3
341.451	5.25
341.817	5.15
342.183	5.12
342.549	5.18
342.915	5.24
343.281	5.26
343.647	5.27
344.013	5.31
344.379	5.23
344.745	5.2
345.11	5.32
345.476	5.33
345.842	5.27
346.208	5.24
346.573	5.23
346.939	5.24
347.304	5.03
347.67	4.9
348.035	4.86
348.401	4.91
348.766	4.95
349.132	5.04
349.497	5.03
349.862	5.06
350.228	4.97
350.593	4.9
350.958	5
351.323	5.03
351.688	5.06
352.053	5.16
352.418	5.21
352.783	5.3
353.148	5.32
353.513	5.3
353.878	5.15
354.243	4.97
354.608	5.07
354.972	5.06
355.337	5.23
355.702	5.19
356.066	5.27
356.431	5.27
356.795	5.2
357.16	5.25
357.524	5.14
357.889	5.14
358.253	5.16
358.618	5.08
358.982	5.11
359.346	5.11
359.71	5.05
360.075	5.03
360.439	5.01
360.803	5.03
361.167	4.98
361.531	5.03
361.895	5.08
362.259	5.01
362.623	5.02
362.987	4.99
363.351	5.01
363.714	4.93
364.078	4.91
364.442	4.93
364.806	4.91
365.169	4.95
365.533	4.94
365.896	4.97
366.26	4.94
366.623	4.84
366.987	4.85
367.35	4.87
367.714	4.83
368.077	4.83
368.44	4.79
368.803	4.88
369.167	4.85
369.53	4.89
369.893	4.94
370.256	4.95
370.619	4.86
370.982	4.81
371.345	4.88
371.708	4.85
372.071	4.79
372.434	4.86
372.797	4.94
373.159	4.93
373.522	4.88
373.885	4.89
374.247	4.95
374.61	4.88
374.973	4.85
375.335	4.89
375.698	4.79
376.06	4.81
376.423	4.78
376.785	4.82
377.147	4.8
377.51	4.73
377.872	4.73
378.234	4.82
378.596	4.86
378.958	4.91
379.321	4.94
379.683	5.03
380.045	4.97
380.407	4.92
380.769	4.96
381.13	5.01
381.492	5.04
381.854	5.07
382.216	5.18
382.578	5.23
382.939	5.18
383.301	5.21
383.663	5.22
384.024	5.25
384.386	5.22
384.747	5.19
385.109	5.18
385.47	5.22
385.832	5.16
386.193	5.12
386.554	5.06
386.916	5.07
387.277	5.03
387.638	4.99
387.999	4.98
388.36	4.93
388.721	4.91
389.082	4.91
389.443	4.85
389.804	4.81
390.165	4.79
390.526	4.82
390.887	4.85
391.248	4.83
391.609	4.82
391.969	4.83
392.33	4.87
392.691	4.87
393.051	4.83
393.412	4.79
393.772	4.84
394.133	4.83
394.493	4.8
394.854	4.79
395.214	4.82
395.574	4.83
395.935	4.82
396.295	4.81
396.655	4.8
397.015	4.84
397.376	4.84
397.736	4.81
398.096	4.78
398.456	4.74
398.816	4.77
399.176	4.69
399.535	4.71
399.895	4.66
400.255	4.65
400.615	4.66
400.975	4.68
401.334	4.65
401.694	4.62
402.054	4.64
402.413	4.66
402.773	4.67
403.132	4.65
403.492	4.68
403.851	4.69
404.211	4.66
404.57	4.67
404.929	4.64
405.288	4.66
405.648	4.67
406.007	4.68
406.366	4.67
406.725	4.69
407.084	4.66
407.443	4.69
407.802	4.72
408.161	4.74
408.52	4.76
408.879	4.77
409.238	4.8
409.596	4.77
409.955	4.76
410.314	4.74
410.673	4.77
411.031	4.75
411.39	4.74
411.748	4.77
412.107	4.74
412.465	4.78
412.824	4.75
413.182	4.74
413.54	4.73
413.899	4.7
414.257	4.72
414.615	4.71
414.974	4.69
415.332	4.65
415.69	4.62
416.048	4.63
416.406	4.62
416.764	4.61
417.122	4.6
417.48	4.61
417.838	4.62
418.195	4.59
418.553	4.57
418.911	4.57
419.269	4.55
419.626	4.55
419.984	4.53
420.342	4.52
420.699	4.53
421.057	4.53
421.414	4.53
421.772	4.51
422.129	4.5
422.486	4.5
422.844	4.5
423.201	4.5
423.558	4.51
423.915	4.49
424.273	4.51
424.63	4.53
424.987	4.51
425.344	4.48
425.701	4.47
426.058	4.5
426.415	4.5
426.772	4.5
427.128	4.51
427.485	4.51
427.842	4.52
428.199	4.52
428.555	4.54
428.912	4.54
429.269	4.53
429.625	4.55
429.982	4.56
430.338	4.59
430.695	4.57
431.051	4.54
431.407	4.55
431.764	4.51
432.12	4.5
432.476	4.52
432.832	4.53
433.189	4.52
433.545	4.5
433.901	4.52
434.257	4.53
434.613	4.52
434.969	4.53
435.325	4.52
435.681	4.51
436.036	4.49
436.392	4.49
436.748	4.51
437.104	4.5
437.459	4.47
437.815	4.47
438.171	4.47
438.526	4.46
438.882	4.46
439.237	4.47
439.593	4.49
439.948	4.48
440.304	4.47
440.659	4.48
441.014	4.46
441.369	4.43
441.725	4.42
442.08	4.42
442.435	4.41
442.79	4.41
443.145	4.42
443.5	4.41
443.855	4.42
444.21	4.42
444.565	4.43
444.92	4.45
445.275	4.44
445.629	4.45
445.984	4.46
446.339	4.49
446.693	4.47
447.048	4.44
447.403	4.44
447.757	4.45
448.112	4.46
448.466	4.48
448.82	4.49
449.175	4.5
449.529	4.5
449.883	4.52
450.238	4.5
450.592	4.51
450.946	4.52
451.3	4.52
451.654	4.53
452.008	4.52
452.362	4.5
452.716	4.49
453.07	4.48
453.424	4.48
453.778	4.46
454.132	4.46
454.486	4.47
454.839	4.47
455.193	4.49
455.547	4.49
455.9	4.48
456.254	4.49
456.607	4.47
456.961	4.48
457.314	4.47
457.668	4.48
458.021	4.48
458.375	4.46
458.728	4.45
459.081	4.45
459.434	4.47
459.787	4.49
460.141	4.52
460.494	4.52
460.847	4.53
461.2	4.52
461.553	4.51
461.906	4.51
462.259	4.51
462.611	4.51
462.964	4.51
463.317	4.51
463.67	4.53
464.022	4.56
464.375	4.55
464.728	4.54
465.08	4.56
465.433	4.57
465.785	4.6
466.138	4.61
466.49	4.6
466.843	4.6
467.195	4.6
467.547	4.59
467.899	4.61
468.252	4.62
468.604	4.62
468.956	4.64
469.308	4.61
469.66	4.64
470.012	4.64
470.364	4.64
470.716	4.66
471.068	4.63
471.42	4.62
471.772	4.63
472.123	4.65
472.475	4.67
472.827	4.66
473.178	4.65
473.53	4.63
473.882	4.64
474.233	4.64
474.585	4.63
474.936	4.62
475.288	4.6
475.639	4.62
475.99	4.63
476.342	4.63
476.693	4.66
477.044	4.66
477.395	4.64
477.746	4.62
478.097	4.59
478.448	4.59
478.8	4.58
479.15	4.59
479.501	4.57
479.852	4.55
480.203	4.56
480.554	4.56
480.905	4.55
481.255	4.56
481.606	4.57
481.957	4.58
482.307	4.58
482.658	4.58
483.009	4.57
483.359	4.58
483.709	4.59
484.06	4.59
484.41	4.57
484.761	4.58
485.111	4.59
485.461	4.59
485.811	4.6
486.162	4.6
486.512	4.6
486.862	4.61
487.212	4.61
487.562	4.61
487.912	4.63
488.262	4.63
488.612	4.64
488.961	4.63
489.311	4.61
489.661	4.61
490.011	4.62
490.36	4.62
490.71	4.61
491.06	4.61
491.409	4.61
491.759	4.63
492.108	4.62
492.458	4.62
492.807	4.62
493.157	4.62
493.506	4.62
493.855	4.62
494.204	4.61
494.554	4.64
494.903	4.62
495.252	4.59
495.601	4.59
495.95	4.59
496.299	4.61
496.648	4.65
496.997	4.65
497.346	4.66
497.695	4.67
498.043	4.67
498.392	4.69
498.741	4.69
499.09	4.7
499.438	4.73
499.787	4.74
500.135	4.74
500.484	4.75
500.832	4.77
501.181	4.78
501.529	4.8
501.878	4.8
502.226	4.84
502.574	4.86
502.923	4.86
503.271	4.87
503.619	4.86
503.967	4.83
504.315	4.85
504.663	4.84
505.011	4.84
505.359	4.85
505.707	4.84
506.055	4.85
506.403	4.87
506.751	4.88
507.098	4.89
507.446	4.91
507.794	4.9
508.141	4.91
508.489	4.92
508.837	4.93
509.184	4.93
509.531	4.93
509.879	4.95
510.226	4.96
510.574	4.96
510.921	4.99
511.268	5.01
511.616	5.02
511.963	5.02
512.31	5.02
512.657	5.05
513.004	5.05
513.351	5.08
513.698	5.08
514.045	5.09
514.392	5.1
514.739	5.12
515.086	5.14
515.432	5.17
515.779	5.16
516.126	5.2
516.473	5.2
516.819	5.2
517.166	5.19
517.512	5.22
517.859	5.24
518.205	5.23
518.552	5.24
518.898	5.25
519.245	5.28
519.591	5.27
519.937	5.25
520.283	5.27
520.629	5.25
520.976	5.24
521.322	5.23
521.668	5.23
522.014	5.24
522.36	5.24
522.706	5.24
523.052	5.27
523.398	5.25
523.743	5.26
524.089	5.29
524.435	5.28
524.781	5.27
525.126	5.28
525.472	5.3
525.817	5.3
526.163	5.3
526.509	5.3
526.854	5.33
527.199	5.34
527.545	5.36
527.89	5.37
528.235	5.38
528.581	5.37
528.926	5.37
529.271	5.38
529.616	5.39
529.961	5.4
530.306	5.41
530.651	5.41
530.996	5.43
531.341	5.43
531.686	5.45
532.031	5.48
532.376	5.48
532.721	5.49
533.065	5.49
533.41	5.5
533.755	5.5
534.099	5.51
534.444	5.53
534.788	5.52
535.133	5.53
535.477	5.54
535.822	5.57
536.166	5.58
536.51	5.59
536.855	5.61
537.199	5.58
537.543	5.59
537.887	5.6
538.231	5.6
538.576	5.6
538.92	5.62
539.264	5.62
539.608	5.64
539.951	5.62
540.295	5.65
540.639	5.66
540.983	5.66
541.327	5.67
541.671	5.66
542.014	5.7
542.358	5.7
542.701	5.7
543.045	5.7
543.389	5.71
543.732	5.71
544.075	5.71
544.419	5.72
544.762	5.73
545.105	5.74
545.449	5.75
545.792	5.77
546.135	5.74
546.478	5.73
546.821	5.73
547.165	5.77
547.508	5.76
547.851	5.74
548.194	5.74
548.536	5.74
548.879	5.71
549.222	5.66
549.565	5.65
549.908	5.65
550.25	5.64
550.593	5.62
550.936	5.6
551.278	5.61
551.621	5.6
551.963	5.61
552.306	5.6
552.648	5.58
552.991	5.58
553.333	5.61
553.675	5.64
554.017	5.61
554.36	5.61
554.702	5.62
555.044	5.64
555.386	5.63
555.728	5.63
556.07	5.65
556.412	5.68
556.754	5.68
557.096	5.69
557.438	5.71
557.78	5.73
558.121	5.75
558.463	5.74
558.805	5.76
559.147	5.73
559.488	5.69
559.83	5.71
560.171	5.7
560.513	5.72
560.854	5.7
561.196	5.74
561.537	5.69
561.878	5.69
562.22	5.7
562.561	5.73
562.902	5.71
563.243	5.72
563.584	5.72
563.925	5.75
564.266	5.73
564.607	5.72
564.948	5.7
565.289	5.72
565.63	5.71
565.971	5.71
566.312	5.7
566.653	5.73
566.993	5.73
567.334	5.73
567.675	5.69
568.015	5.7
568.356	5.7
568.696	5.75
569.037	5.75
569.377	5.74
569.718	5.74
570.058	5.75
570.398	5.77
570.739	5.78
571.079	5.75
571.419	5.77
571.759	5.78
572.099	5.8
572.439	5.76
572.779	5.76
573.119	5.76
573.459	5.79
573.799	5.79
574.139	5.8
574.479	5.8
574.819	5.82
575.158	5.81
575.498	5.8
575.838	5.76
576.177	5.72
576.517	5.73
576.856	5.72
577.196	5.76
577.535	5.71
577.875	5.68
578.214	5.7
578.553	5.71
578.893	5.71
579.232	5.7
579.571	5.77
579.91	5.81
580.25	5.82
580.589	5.82
580.928	5.84
581.267	5.83
581.606	5.84
581.945	5.83
582.283	5.83
582.622	5.81
582.961	5.82
583.3	5.85
583.639	5.88
583.977	5.86
584.316	5.84
584.654	5.86
584.993	5.89
585.332	5.89
585.67	5.88
586.008	5.89
586.347	5.9
586.685	5.83
587.024	5.8
587.362	5.84
587.7	5.88
588.038	5.87
588.376	5.87
588.715	5.87
589.053	5.88
589.391	5.93
589.729	5.96
590.067	5.96
590.404	5.98
590.742	5.96
591.08	6.02
591.418	6.04
591.756	6.08
592.093	6.07
592.431	6.11
592.769	6.13
593.106	6.11
593.444	6.14
593.781	6.18
594.119	6.2
594.456	6.17
594.793	6.1
595.131	6.1
595.468	6.13
595.805	6.13
596.143	6.15
596.48	6.18
596.817	6.18
597.154	6.19
597.491	6.2
597.828	6.23
598.165	6.15
598.502	6.09
598.839	6.09
599.176	6.08
599.512	6.07
599.849	6.08
600.186	6.11
600.523	6.12
600.859	6.14
601.196	6.16
601.532	6.17
601.869	6.22
602.205	6.18
602.542	6.2
602.878	6.25
603.215	6.23
603.551	6.21
603.887	6.24
604.223	6.25
604.56	6.25
604.896	6.24
605.232	6.25
605.568	6.31
605.904	6.27
606.24	6.29
606.576	6.31
606.912	6.26
607.248	6.28
607.583	6.26
607.919	6.24
608.255	6.23
608.591	6.28
608.926	6.24
609.262	6.3
609.597	6.29
609.933	6.26
610.268	6.31
610.604	6.28
610.939	6.27
611.275	6.26
611.61	6.27
611.945	6.24
612.281	6.27
612.616	6.3
612.951	6.35
613.286	6.36
613.621	6.37
613.956	6.44
614.291	6.42
614.626	6.45
614.961	6.43
615.296	6.46
615.631	6.41
615.966	6.48
616.3	6.52
616.635	6.5
616.97	6.47
617.304	6.41
617.639	6.46
617.973	6.41
618.308	6.46
618.642	6.44
618.977	6.46
619.311	6.44
619.646	6.44
619.98	6.46
620.314	6.41
620.648	6.36
620.983	6.32
621.317	6.33
621.651	6.28
621.985	6.29
622.319	6.27
622.653	6.31
622.987	6.29
623.321	6.28
623.655	6.29
623.988	6.37
624.322	6.39
624.656	6.4
624.99	6.46
625.323	6.39
625.657	6.44
625.99	6.45
626.324	6.49
626.657	6.49
626.991	6.48
627.324	6.51
627.658	6.52
627.991	6.57
628.324	6.59
628.657	6.6
628.991	6.62
629.324	6.61
629.657	6.58
629.99	6.64
630.323	6.6
630.656	6.66
630.989	6.6
631.322	6.65
631.655	6.62
631.987	6.57
632.32	6.62
632.653	6.59
632.986	6.62
633.318	6.65
633.651	6.65
633.984	6.62
634.316	6.63
634.649	6.63
634.981	6.58
635.313	6.55
635.646	6.59
635.978	6.62
636.31	6.66
636.643	6.66
636.975	6.6
637.307	6.64
637.639	6.62
637.971	6.63
638.303	6.6
638.635	6.6
638.967	6.67
639.299	6.69
639.631	6.68
639.963	6.68
640.295	6.71
640.626	6.66
640.958	6.65
641.29	6.66
641.621	6.73
641.953	6.75
642.285	6.79
642.616	6.88
642.948	6.88
643.279	6.81
643.61	6.83
643.942	6.95
644.273	6.96
644.604	6.83
644.936	6.82
645.267	6.8
645.598	6.84
645.929	6.75
646.26	6.73
646.591	6.79
646.922	6.82
647.253	6.71
647.584	6.74
647.915	6.83
648.245	6.85
648.576	6.72
648.907	6.77
649.238	6.78
649.568	6.72
649.899	6.65
650.229	6.73
650.56	6.72
650.89	6.61
651.221	6.66
651.551	6.81
651.882	6.85
652.212	6.9
652.542	6.91
652.872	6.92
653.203	6.89
653.533	6.89
653.863	6.82
654.193	6.8
654.523	6.76
654.853	6.78
655.183	6.8
655.513	6.92
655.843	6.91
656.172	6.93
656.502	6.86
656.832	6.89
657.162	6.83
657.491	6.81
657.821	6.84
658.15	6.83
658.48	6.82
658.809	6.82
659.139	6.83
659.468	6.83
659.798	6.89
660.127	6.89
660.456	6.83
660.785	6.82
661.115	6.91
661.444	6.95
661.773	6.98
662.102	7.02
662.431	6.93
662.76	6.94
663.089	6.9
663.418	6.98
663.747	7.01
664.076	7.07
664.404	7.16
664.733	7.12
665.062	7.15
665.39	7.08
665.719	7.08
666.048	7.08
666.376	7.11
666.705	7
667.033	7.13
667.362	7.14
667.69	7.16
668.018	7.2
668.347	7.26
668.675	7.2
669.003	7.2
669.331	7.33
669.659	7.26
669.987	7.3
670.315	7.29
670.643	7.29
670.971	7.34
671.299	7.29
671.627	7.28
671.955	7.21
672.283	7.27
672.61	7.27
672.938	7.33
673.266	7.31
673.593	7.42
673.921	7.39
674.249	7.37
674.576	7.51
674.904	7.44
675.231	7.43
675.558	7.38
675.886	7.43
676.213	7.42
676.54	7.52
676.867	7.52
677.195	7.54
677.522	7.51
677.849	7.53
678.176	7.54
678.503	7.51
