Data from BA17718_Reflection_00002.txt Node
Date: Tue Nov 19 11:47:28 EST 2019
User: vgr7
Spectrometer: USB2G7710
Scans to average: 3
Trigger mode: 4
Integration Time (sec): 2.000000E-2
Electric dark correction enabled: true
Boxcar width: 10
XAxis mode: Wavelengths
Number of Pixels in Spectrum: 2048
>>>>>Begin Spectral Data<<<<<
177.721	116.17
178.105	151.09
178.488	249.19
178.871	220.35
179.254	412.5
179.636	-5242.11
180.019	465.11
180.402	11.54
180.785	-51.82
181.168	105.28
181.55	62.58
181.933	72.16
182.316	122.08
182.698	103.59
183.081	116.28
183.463	109.62
183.846	112.43
184.228	118.61
184.611	146.66
184.993	443.18
185.376	-1129.59
185.758	-373.14
186.14	-1443.75
186.522	-567.61
186.904	-760.71
187.287	1010.38
187.669	-6825
188.051	-3593.18
188.433	1386.14
188.815	-4408.93
189.197	-1179.26
189.579	-349.82
189.961	-247.08
190.342	-144.2
190.724	-139.35
191.106	-127.49
191.488	-80.23
191.869	-72.89
192.251	-61.92
192.633	-80.95
193.014	-94.4
193.396	-143.17
193.777	-86.87
194.159	-63.96
194.54	-17.14
194.922	-15.07
195.303	-20.8
195.684	-13.89
196.065	-19.72
196.447	4.3
196.828	3.46
197.209	-0.14
197.59	-9.34
197.971	-9.49
198.352	-23.84
198.733	-13.97
199.114	-9.09
199.495	-38.61
199.876	-45.03
200.257	-54.34
200.638	-66.74
201.018	-77.78
201.399	-79.03
201.78	-81.65
202.16	-103.95
202.541	-137.02
202.922	-121.02
203.302	-114.7
203.683	-120.41
204.063	-101.1
204.444	-105.84
204.824	-126.86
205.204	-137.94
205.585	-155.72
205.965	-215.39
206.345	-192.61
206.725	-209.42
207.106	-202.05
207.486	-168.32
207.866	-178.02
208.246	-206.68
208.626	-306.76
209.006	-329.62
209.386	-183.55
209.766	-478.85
210.145	-164.42
210.525	-154.23
210.905	-154.7
211.285	-102.51
211.664	-80.63
212.044	-117.14
212.424	-97.21
212.803	-143.5
213.183	-120.54
213.562	-192.86
213.942	-69.8
214.321	-102.72
214.701	-103.68
215.08	-114.39
215.459	-49.46
215.838	-38.33
216.218	-46.18
216.597	-23.39
216.976	-18.93
217.355	-38.8
217.734	-56.1
218.113	-24.56
218.492	-29
218.871	-18
219.25	-55.16
219.629	-92.41
220.008	-97.9
220.387	-141.28
220.766	-94.23
221.144	-91.89
221.523	-78.96
221.902	-80.01
222.28	-84.97
222.659	-46.63
223.037	-45.98
223.416	-59.05
223.794	-54.03
224.173	-65.48
224.551	-58.96
224.929	-65.68
225.308	-59.06
225.686	-44.06
226.064	-56.45
226.442	-50.51
226.821	-49.07
227.199	-38.39
227.577	-30.59
227.955	-28.99
228.333	-32.88
228.711	-32.73
229.089	-31.06
229.467	-36.31
229.845	-37.52
230.222	-30.69
230.6	-32.03
230.978	-30.66
231.356	-30.26
231.733	-30.53
232.111	-25.48
232.488	-23.99
232.866	-17.24
233.243	-15.58
233.621	-12.38
233.998	-6.08
234.376	-3.52
234.753	-5.99
235.13	-7.11
235.508	-8.08
235.885	-8.03
236.262	-5.64
236.639	-5.07
237.016	-3.93
237.393	-0.39
237.77	1
238.147	0.57
238.524	1.55
238.901	0.67
239.278	0.74
239.655	0.85
240.032	1.41
240.409	1.8
240.785	1.27
241.162	1.24
241.539	0.52
241.915	0.1
242.292	-0.18
242.668	0.53
243.045	0.48
243.421	0.9
243.798	1.52
244.174	2.1
244.551	2.4
244.927	2.42
245.303	2.2
245.679	2.08
246.056	2.38
246.432	2.1
246.808	2.37
247.184	2.44
247.56	2.5
247.936	2.32
248.312	2.31
248.688	2.62
249.064	2.3
249.44	2.39
249.815	2.44
250.191	2.52
250.567	2.41
250.943	2.52
251.318	2.42
251.694	2.15
252.069	1.82
252.445	1.59
252.82	1.61
253.196	1.78
253.571	1.76
253.947	1.33
254.322	1.6
254.697	1.68
255.073	1.77
255.448	1.96
255.823	2.27
256.198	2.34
256.573	2.03
256.948	2.33
257.323	2.35
257.698	2.4
258.073	2.37
258.448	2.73
258.823	2.79
259.198	3.05
259.573	2.92
259.948	3.02
260.322	3.13
260.697	3.23
261.072	3.06
261.446	3.24
261.821	3.32
262.195	3.24
262.57	3.17
262.944	3.33
263.319	3.36
263.693	3.18
264.067	3.07
264.442	3.07
264.816	3.26
265.19	3.25
265.564	3.21
265.938	3.18
266.313	2.94
266.687	2.88
267.061	2.61
267.435	2.91
267.809	2.68
268.183	2.58
268.556	2.34
268.93	2.37
269.304	2.33
269.678	2.47
270.051	2.46
270.425	2.65
270.799	2.59
271.172	2.39
271.546	2.38
271.919	2.45
272.293	2.57
272.666	2.5
273.04	2.62
273.413	2.65
273.787	2.87
274.16	2.85
274.533	3.02
274.906	2.93
275.279	2.79
275.653	2.86
276.026	2.88
276.399	3.08
276.772	3.22
277.145	2.98
277.518	2.85
277.891	2.84
278.263	2.88
278.636	2.88
279.009	2.95
279.382	2.86
279.755	2.97
280.127	2.94
280.5	2.94
280.872	2.87
281.245	2.95
281.617	2.9
281.99	2.87
282.362	2.65
282.735	2.71
283.107	2.85
283.479	3.08
283.852	3.05
284.224	3.1
284.596	3.1
284.968	3.27
285.34	3.38
285.713	3.44
286.085	3.31
286.457	3.41
286.829	3.35
287.201	3.42
287.572	3.35
287.944	3.42
288.316	3.54
288.688	3.55
289.06	3.54
289.431	3.57
289.803	3.65
290.175	3.7
290.546	3.76
290.918	3.7
291.289	3.53
291.661	3.56
292.032	3.45
292.403	3.37
292.775	3.4
293.146	3.34
293.517	3.18
293.889	3.25
294.26	3.26
294.631	3.4
295.002	3.45
295.373	3.4
295.744	3.44
296.115	3.33
296.486	3.29
296.857	3.39
297.228	3.27
297.599	3.23
297.97	3.41
298.34	3.51
298.711	3.61
299.082	3.74
299.452	3.8
299.823	3.76
300.194	3.89
300.564	3.83
300.935	3.91
301.305	4.06
301.676	3.88
302.046	3.89
302.416	3.77
302.787	3.88
303.157	4.02
303.527	3.95
303.897	4
304.267	4.02
304.637	3.75
305.008	3.94
305.378	3.93
305.748	3.72
306.117	3.61
306.487	3.5
306.857	3.33
307.227	3.29
307.597	3.24
307.967	3.24
308.336	3.27
308.706	3.12
309.076	3.13
309.445	3.23
309.815	3.21
310.184	3.27
310.554	3.21
310.923	3.08
311.293	3.06
311.662	3.14
312.031	3.14
312.401	3.15
312.77	2.99
313.139	3.1
313.508	3.09
313.877	3.07
314.246	2.95
314.616	3.06
314.985	2.98
315.353	3.21
315.722	3.16
316.091	3.07
316.46	3.25
316.829	3.21
317.198	3.33
317.567	3.37
317.935	3.35
318.304	3.43
318.672	3.45
319.041	3.6
319.41	3.33
319.778	3.47
320.147	3.56
320.515	3.78
320.883	3.83
321.252	3.96
321.62	4.15
321.988	4.34
322.357	4.31
322.725	4.39
323.093	4.21
323.461	4.27
323.829	4.18
324.197	3.96
324.565	3.87
324.933	3.85
325.301	3.74
325.669	3.73
326.037	3.75
326.405	3.83
326.772	3.7
327.14	3.69
327.508	3.55
327.875	3.63
328.243	3.46
328.61	3.1
328.978	3.03
329.346	2.95
329.713	2.88
330.08	2.81
330.448	2.7
330.815	2.67
331.182	2.51
331.55	2.6
331.917	2.68
332.284	2.78
332.651	2.84
333.018	2.82
333.385	2.91
333.752	2.8
334.119	2.83
334.486	2.84
334.853	2.88
335.22	2.86
335.587	2.8
335.954	2.73
336.32	2.9
336.687	2.96
337.054	2.87
337.42	2.83
337.787	2.97
338.153	3.09
338.52	3.18
338.886	3.35
339.253	3.5
339.619	3.64
339.986	3.53
340.352	3.55
340.718	3.62
341.084	3.59
341.451	3.67
341.817	3.6
342.183	3.56
342.549	3.79
342.915	3.86
343.281	3.82
343.647	3.8
344.013	3.9
344.379	3.87
344.745	3.88
345.11	3.98
345.476	3.85
345.842	3.77
346.208	3.81
346.573	3.73
346.939	3.68
347.304	3.59
347.67	3.67
348.035	3.59
348.401	3.56
348.766	3.63
349.132	3.64
349.497	3.67
349.862	3.71
350.228	3.71
350.593	3.69
350.958	3.72
351.323	3.75
351.688	3.71
352.053	3.8
352.418	3.88
352.783	3.79
353.148	3.89
353.513	4
353.878	3.87
354.243	3.78
354.608	3.77
354.972	3.67
355.337	3.74
355.702	3.7
356.066	3.65
356.431	3.6
356.795	3.58
357.16	3.5
357.524	3.59
357.889	3.49
358.253	3.5
358.618	3.48
358.982	3.48
359.346	3.47
359.71	3.38
360.075	3.38
360.439	3.49
360.803	3.5
361.167	3.46
361.531	3.53
361.895	3.57
362.259	3.64
362.623	3.72
362.987	3.69
363.351	3.7
363.714	3.79
364.078	3.81
364.442	3.77
364.806	3.88
365.169	3.79
365.533	3.81
365.896	3.82
366.26	3.82
366.623	3.89
366.987	3.94
367.35	4.05
367.714	4.06
368.077	4
368.44	3.97
368.803	4
369.167	3.95
369.53	3.97
369.893	3.95
370.256	3.98
370.619	3.93
370.982	3.94
371.345	3.93
371.708	3.95
372.071	3.94
372.434	3.89
372.797	3.87
373.159	3.83
373.522	3.78
373.885	3.78
374.247	3.74
374.61	3.7
374.973	3.62
375.335	3.64
375.698	3.61
376.06	3.6
376.423	3.6
376.785	3.57
377.147	3.56
377.51	3.52
377.872	3.52
378.234	3.53
378.596	3.62
378.958	3.59
379.321	3.49
379.683	3.56
380.045	3.55
380.407	3.64
380.769	3.59
381.13	3.63
381.492	3.67
381.854	3.69
382.216	3.75
382.578	3.75
382.939	3.71
383.301	3.74
383.663	3.72
384.024	3.69
384.386	3.72
384.747	3.72
385.109	3.73
385.47	3.77
385.832	3.77
386.193	3.7
386.554	3.67
386.916	3.74
387.277	3.67
387.638	3.68
387.999	3.67
388.36	3.75
388.721	3.75
389.082	3.78
389.443	3.79
389.804	3.74
390.165	3.79
390.526	3.82
390.887	3.78
391.248	3.79
391.609	3.82
391.969	3.84
392.33	3.85
392.691	3.86
393.051	3.81
393.412	3.8
393.772	3.83
394.133	3.86
394.493	3.87
394.854	3.9
395.214	3.92
395.574	3.9
395.935	3.86
396.295	3.84
396.655	3.79
397.015	3.77
397.376	3.78
397.736	3.74
398.096	3.73
398.456	3.74
398.816	3.76
399.176	3.74
399.535	3.75
399.895	3.75
400.255	3.74
400.615	3.75
400.975	3.76
401.334	3.74
401.694	3.74
402.054	3.76
402.413	3.76
402.773	3.73
403.132	3.74
403.492	3.78
403.851	3.81
404.211	3.86
404.57	3.92
404.929	3.88
405.288	3.91
405.648	3.92
406.007	3.97
406.366	3.97
406.725	3.95
407.084	3.92
407.443	3.9
407.802	3.9
408.161	3.87
408.52	3.89
408.879	3.89
409.238	3.92
409.596	3.86
409.955	3.87
410.314	3.87
410.673	3.87
411.031	3.84
411.39	3.82
411.748	3.79
412.107	3.74
412.465	3.74
412.824	3.74
413.182	3.71
413.54	3.7
413.899	3.7
414.257	3.71
414.615	3.75
414.974	3.8
415.332	3.81
415.69	3.84
416.048	3.84
416.406	3.82
416.764	3.81
417.122	3.84
417.48	3.87
417.838	3.87
418.195	3.86
418.553	3.87
418.911	3.87
419.269	3.87
419.626	3.88
419.984	3.91
420.342	3.91
420.699	3.91
421.057	3.91
421.414	3.92
421.772	3.94
422.129	3.92
422.486	3.9
422.844	3.9
423.201	3.89
423.558	3.89
423.915	3.91
424.273	3.92
424.63	3.91
424.987	3.88
425.344	3.89
425.701	3.91
426.058	3.93
426.415	3.93
426.772	3.92
427.128	3.91
427.485	3.91
427.842	3.9
428.199	3.9
428.555	3.9
428.912	3.88
429.269	3.84
429.625	3.86
429.982	3.88
430.338	3.87
430.695	3.88
431.051	3.88
431.407	3.86
431.764	3.84
432.12	3.86
432.476	3.87
432.832	3.89
433.189	3.89
433.545	3.88
433.901	3.9
434.257	3.9
434.613	3.89
434.969	3.89
435.325	3.9
435.681	3.88
436.036	3.87
436.392	3.87
436.748	3.91
437.104	3.91
437.459	3.9
437.815	3.89
438.171	3.89
438.526	3.89
438.882	3.92
439.237	3.92
439.593	3.91
439.948	3.91
440.304	3.89
440.659	3.86
441.014	3.87
441.369	3.87
441.725	3.88
442.08	3.89
442.435	3.88
442.79	3.88
443.145	3.88
443.5	3.89
443.855	3.88
444.21	3.86
444.565	3.87
444.92	3.88
445.275	3.89
445.629	3.88
445.984	3.89
446.339	3.89
446.693	3.9
447.048	3.91
447.403	3.9
447.757	3.9
448.112	3.92
448.466	3.9
448.82	3.89
449.175	3.9
449.529	3.92
449.883	3.91
450.238	3.91
450.592	3.94
450.946	3.93
451.3	3.95
451.654	3.95
452.008	3.93
452.362	3.93
452.716	3.91
453.07	3.93
453.424	3.9
453.778	3.87
454.132	3.87
454.486	3.85
454.839	3.86
455.193	3.86
455.547	3.87
455.9	3.88
456.254	3.88
456.607	3.87
456.961	3.84
457.314	3.86
457.668	3.87
458.021	3.86
458.375	3.87
458.728	3.88
459.081	3.89
459.434	3.86
459.787	3.85
460.141	3.87
460.494	3.85
460.847	3.87
461.2	3.87
461.553	3.87
461.906	3.89
462.259	3.89
462.611	3.9
462.964	3.9
463.317	3.91
463.67	3.92
464.022	3.92
464.375	3.94
464.728	3.95
465.08	3.94
465.433	3.97
465.785	3.98
466.138	3.97
466.49	3.97
466.843	4.01
467.195	4.01
467.547	4
467.899	4.02
468.252	4.01
468.604	4.02
468.956	4.04
469.308	4.04
469.66	4.05
470.012	4.05
470.364	4.05
470.716	4.04
471.068	4.04
471.42	4.04
471.772	4.05
472.123	4.04
472.475	4.04
472.827	4.02
473.178	4.01
473.53	4.01
473.882	4.01
474.233	4
474.585	4.01
474.936	4.02
475.288	4.04
475.639	4.05
475.99	4.06
476.342	4.06
476.693	4.06
477.044	4.05
477.395	4.04
477.746	4.06
478.097	4.06
478.448	4.05
478.8	4.05
479.15	4.05
479.501	4.04
479.852	4.05
480.203	4.06
480.554	4.07
480.905	4.05
481.255	4.05
481.606	4.05
481.957	4.05
482.307	4.05
482.658	4.05
483.009	4.05
483.359	4.05
483.709	4.05
484.06	4.06
484.41	4.07
484.761	4.08
485.111	4.08
485.461	4.08
485.811	4.09
486.162	4.1
486.512	4.09
486.862	4.11
487.212	4.12
487.562	4.11
487.912	4.13
488.262	4.15
488.612	4.17
488.961	4.17
489.311	4.18
489.661	4.18
490.011	4.18
490.36	4.19
490.71	4.19
491.06	4.19
491.409	4.18
491.759	4.18
492.108	4.19
492.458	4.19
492.807	4.19
493.157	4.18
493.506	4.2
493.855	4.2
494.204	4.19
494.554	4.19
494.903	4.2
495.252	4.18
495.601	4.17
495.95	4.17
496.299	4.21
496.648	4.23
496.997	4.26
497.346	4.28
497.695	4.26
498.043	4.27
498.392	4.26
498.741	4.26
499.09	4.27
499.438	4.3
499.787	4.33
500.135	4.32
500.484	4.32
500.832	4.33
501.181	4.32
501.529	4.35
501.878	4.37
502.226	4.36
502.574	4.36
502.923	4.35
503.271	4.35
503.619	4.33
503.967	4.31
504.315	4.32
504.663	4.34
505.011	4.35
505.359	4.33
505.707	4.35
506.055	4.36
506.403	4.36
506.751	4.32
507.098	4.31
507.446	4.31
507.794	4.32
508.141	4.3
508.489	4.33
508.837	4.3
509.184	4.3
509.531	4.31
509.879	4.33
510.226	4.37
510.574	4.39
510.921	4.4
511.268	4.43
511.616	4.42
511.963	4.42
512.31	4.42
512.657	4.43
513.004	4.42
513.351	4.43
513.698	4.41
514.045	4.43
514.392	4.44
514.739	4.47
515.086	4.47
515.432	4.51
515.779	4.5
516.126	4.54
516.473	4.54
516.819	4.57
517.166	4.54
517.512	4.52
517.859	4.51
518.205	4.47
518.552	4.45
518.898	4.46
519.245	4.48
519.591	4.5
519.937	4.5
520.283	4.51
520.629	4.52
520.976	4.52
521.322	4.53
521.668	4.53
522.014	4.54
522.36	4.54
522.706	4.52
523.052	4.53
523.398	4.51
523.743	4.51
524.089	4.53
524.435	4.55
524.781	4.58
525.126	4.59
525.472	4.62
525.817	4.63
526.163	4.63
526.509	4.63
526.854	4.63
527.199	4.63
527.545	4.63
527.89	4.63
528.235	4.64
528.581	4.64
528.926	4.65
529.271	4.65
529.616	4.66
529.961	4.67
530.306	4.67
530.651	4.69
530.996	4.7
531.341	4.72
531.686	4.72
532.031	4.72
532.376	4.73
532.721	4.73
533.065	4.73
533.41	4.75
533.755	4.75
534.099	4.76
534.444	4.77
534.788	4.77
535.133	4.79
535.477	4.79
535.822	4.79
536.166	4.81
536.51	4.8
536.855	4.8
537.199	4.79
537.543	4.81
537.887	4.78
538.231	4.77
538.576	4.74
538.92	4.76
539.264	4.76
539.608	4.74
539.951	4.74
540.295	4.75
540.639	4.74
540.983	4.74
541.327	4.73
541.671	4.73
542.014	4.74
542.358	4.75
542.701	4.75
543.045	4.76
543.389	4.76
543.732	4.76
544.075	4.77
544.419	4.79
544.762	4.77
545.105	4.76
545.449	4.77
545.792	4.77
546.135	4.76
546.478	4.77
546.821	4.79
547.165	4.8
547.508	4.79
547.851	4.79
548.194	4.79
548.536	4.82
548.879	4.85
549.222	4.84
549.565	4.82
549.908	4.83
550.25	4.83
550.593	4.82
550.936	4.83
551.278	4.81
551.621	4.8
551.963	4.84
552.306	4.88
552.648	4.91
552.991	4.91
553.333	4.91
553.675	4.9
554.017	4.89
554.36	4.91
554.702	4.95
555.044	4.94
555.386	4.95
555.728	4.96
556.07	4.94
556.412	4.97
556.754	4.96
557.096	5
557.438	5.02
557.78	5.01
558.121	5
558.463	5.01
558.805	5.02
559.147	5.03
559.488	5.03
559.83	4.99
560.171	4.98
560.513	4.99
560.854	4.98
561.196	5.01
561.537	4.99
561.878	4.99
562.22	4.98
562.561	5
562.902	4.99
563.243	5.02
563.584	5.02
563.925	5.05
564.266	5.02
564.607	5.01
564.948	5.04
565.289	5.06
565.63	5.11
565.971	5.11
566.312	5.1
566.653	5.12
566.993	5.12
567.334	5.15
567.675	5.15
568.015	5.17
568.356	5.18
568.696	5.2
569.037	5.17
569.377	5.18
569.718	5.16
570.058	5.16
570.398	5.13
570.739	5.1
571.079	5.09
571.419	5.1
571.759	5.11
572.099	5.07
572.439	5.1
572.779	5.05
573.119	5.05
573.459	5.08
573.799	5.06
574.139	5.07
574.479	5.05
574.819	5.05
575.158	5.04
575.498	5.03
575.838	5.02
576.177	5.02
576.517	5.02
576.856	5.04
577.196	5.05
577.535	5.08
577.875	5.09
578.214	5.09
578.553	5.09
578.893	5.1
579.232	5.16
579.571	5.13
579.91	5.14
580.25	5.14
580.589	5.11
580.928	5.09
581.267	5.07
581.606	5.06
581.945	5.04
582.283	5.05
582.622	5.01
582.961	5.01
583.3	5.03
583.639	5.05
583.977	5.04
584.316	5.08
584.654	5.09
584.993	5.11
585.332	5.09
585.67	5.09
586.008	5.06
586.347	5.05
586.685	5.04
587.024	5.06
587.362	5.02
587.7	5.06
588.038	5.15
588.376	5.16
588.715	5.19
589.053	5.2
589.391	5.23
589.729	5.25
590.067	5.26
590.404	5.28
590.742	5.27
591.08	5.33
591.418	5.29
591.756	5.28
592.093	5.29
592.431	5.35
592.769	5.38
593.106	5.42
593.444	5.45
593.781	5.5
594.119	5.49
594.456	5.49
594.793	5.5
595.131	5.49
595.468	5.51
595.805	5.57
596.143	5.57
596.48	5.56
596.817	5.6
597.154	5.66
597.491	5.62
597.828	5.64
598.165	5.6
598.502	5.58
598.839	5.59
599.176	5.61
599.512	5.55
599.849	5.55
600.186	5.57
600.523	5.5
600.859	5.48
601.196	5.47
601.532	5.5
601.869	5.49
602.205	5.44
602.542	5.42
602.878	5.38
603.215	5.37
603.551	5.39
603.887	5.36
604.223	5.26
604.56	5.29
604.896	5.29
605.232	5.29
605.568	5.33
605.904	5.32
606.24	5.34
606.576	5.35
606.912	5.32
607.248	5.31
607.583	5.33
607.919	5.32
608.255	5.34
608.591	5.36
608.926	5.33
609.262	5.33
609.597	5.34
609.933	5.31
610.268	5.35
610.604	5.34
610.939	5.33
611.275	5.38
611.61	5.36
611.945	5.34
612.281	5.36
612.616	5.3
612.951	5.31
613.286	5.27
613.621	5.31
613.956	5.3
614.291	5.33
614.626	5.34
614.961	5.36
615.296	5.38
615.631	5.4
615.966	5.39
616.3	5.43
616.635	5.46
616.97	5.52
617.304	5.48
617.639	5.5
617.973	5.5
618.308	5.51
618.642	5.55
618.977	5.53
619.311	5.52
619.646	5.58
619.98	5.6
620.314	5.63
620.648	5.64
620.983	5.64
621.317	5.66
621.651	5.69
621.985	5.64
622.319	5.67
622.653	5.68
622.987	5.73
623.321	5.72
623.655	5.74
623.988	5.72
624.322	5.74
624.656	5.73
624.99	5.74
625.323	5.75
625.657	5.74
625.99	5.8
626.324	5.78
626.657	5.76
626.991	5.73
627.324	5.72
627.658	5.64
627.991	5.71
628.324	5.67
628.657	5.67
628.991	5.75
629.324	5.72
629.657	5.7
629.99	5.68
630.323	5.69
630.656	5.69
630.989	5.7
631.322	5.67
631.655	5.71
631.987	5.73
632.32	5.7
632.653	5.71
632.986	5.66
633.318	5.76
633.651	5.77
633.984	5.83
634.316	5.85
634.649	5.93
634.981	5.91
635.313	5.96
635.646	5.96
635.978	5.9
636.31	5.91
636.643	5.88
636.975	5.96
637.307	5.97
637.639	5.92
637.971	5.91
638.303	5.99
638.635	5.98
638.967	5.98
639.299	6.04
639.631	6.02
639.963	6.03
640.295	6.04
640.626	6.02
640.958	5.97
641.29	5.96
641.621	5.93
641.953	5.85
642.285	5.87
642.616	5.85
642.948	5.95
643.279	5.87
643.61	6.01
643.942	5.97
644.273	6.01
644.604	6.08
644.936	6.15
645.267	6.16
645.598	6.21
645.929	6.22
646.26	6.2
646.591	6.25
646.922	6.35
647.253	6.29
647.584	6.34
647.915	6.33
648.245	6.37
648.576	6.37
648.907	6.5
649.238	6.43
649.568	6.48
649.899	6.36
650.229	6.47
650.56	6.41
650.89	6.38
651.221	6.36
651.551	6.36
651.882	6.24
652.212	6.21
652.542	6.16
652.872	6.17
653.203	6.18
653.533	6.26
653.863	6.15
654.193	6.14
654.523	6.09
654.853	6.13
655.183	6.12
655.513	6.16
655.843	6.09
656.172	6.17
656.502	6.05
656.832	6.15
657.162	6.09
657.491	6.02
657.821	6.09
658.15	6.04
658.48	6.01
658.809	6.07
659.139	6.02
659.468	5.99
659.798	6.08
660.127	6.02
660.456	5.96
660.785	6.02
661.115	6.03
661.444	6.08
661.773	6.14
662.102	6.09
662.431	6.14
662.76	6.16
663.089	6.11
663.418	6.19
663.747	6.17
664.076	6.22
664.404	6.34
664.733	6.32
665.062	6.38
665.39	6.46
665.719	6.54
666.048	6.58
666.376	6.7
666.705	6.62
667.033	6.7
667.362	6.74
667.69	6.66
668.018	6.69
668.347	6.63
668.675	6.56
669.003	6.6
669.331	6.52
669.659	6.51
669.987	6.51
670.315	6.52
670.643	6.49
670.971	6.53
671.299	6.46
671.627	6.44
671.955	6.41
672.283	6.34
672.61	6.23
672.938	6.28
673.266	6.22
673.593	6.1
673.921	6.12
674.249	6.07
674.576	6.17
674.904	6.12
675.231	6.06
675.558	6.09
