Data from BA17724_Reflection_00007.txt Node
Date: Tue Nov 19 11:57:57 EST 2019
User: vgr7
Spectrometer: USB2G7710
Scans to average: 3
Trigger mode: 4
Integration Time (sec): 2.000000E-2
Electric dark correction enabled: true
Boxcar width: 10
XAxis mode: Wavelengths
Number of Pixels in Spectrum: 2048
>>>>>Begin Spectral Data<<<<<
177.721	182.29
178.105	410.98
178.488	297.89
178.871	144.32
179.254	156.25
179.636	1212.9
180.019	136.59
180.402	57.58
180.785	14.29
181.168	91.98
181.55	381.25
181.933	231.34
182.316	229.76
182.698	174.2
183.081	307.18
183.463	233.18
183.846	339.26
184.228	489.76
184.611	14350
184.993	2920
185.376	-993.22
185.758	11350
186.14	180.77
186.522	413.43
186.904	1075
187.287	254.15
187.669	260.71
188.051	245.97
188.433	220.54
188.815	247.54
189.197	290.75
189.579	239.63
189.961	215.38
190.342	241.26
190.724	299.12
191.106	192.47
191.488	223.13
191.869	325.39
192.251	184.64
192.633	141
193.014	185.44
193.396	141.28
193.777	307.18
194.159	388.77
194.54	419.85
194.922	475
195.303	1600
195.684	1371.74
196.065	-2131.71
196.447	-971.43
196.828	1774.42
197.209	-1692.68
197.59	-1463.83
197.971	1185.53
198.352	781.82
198.733	552.97
199.114	570.41
199.495	513.27
199.876	307.24
200.257	794.21
200.638	4994.74
201.018	496.07
201.399	5162.5
201.78	446.15
202.16	562.86
202.541	440.34
202.922	408.3
203.302	316.3
203.683	256.34
204.063	126.97
204.444	260.31
204.824	614.29
205.204	639.06
205.585	1010.71
205.965	-76.89
206.345	-33.45
206.725	16.46
207.106	-23.74
207.486	5.79
207.866	25.74
208.246	59.11
208.626	64.44
209.006	49.34
209.386	26.09
209.766	16.96
210.145	26.56
210.525	11.03
210.905	19.03
211.285	27.9
211.664	36.09
212.044	17.77
212.424	37.8
212.803	18.92
213.183	7.18
213.562	-9.09
213.942	-2.31
214.321	-11.46
214.701	-12.62
215.08	-17.11
215.459	-12.56
215.838	-48.92
216.218	-65.37
216.597	-47.02
216.976	-65.74
217.355	-78.3
217.734	-84.06
218.113	-76.89
218.492	-90.17
218.871	-76.82
219.25	-74.94
219.629	-143.11
220.008	-208.35
220.387	-265.85
220.766	-150.34
221.144	-142.79
221.523	-140.77
221.902	-139.85
222.28	-125.9
222.659	-88.59
223.037	-99.61
223.416	-97.87
223.794	-87.64
224.173	-85.73
224.551	-78.03
224.929	-57.44
225.308	-41.64
225.686	-40.65
226.064	-51.19
226.442	-37.97
226.821	-33.05
227.199	-31.35
227.577	-25.17
227.955	-19.17
228.333	-15.25
228.711	-12.55
229.089	-8.24
229.467	-7.84
229.845	-6.77
230.222	-4.67
230.6	-5.6
230.978	-2.43
231.356	-2.8
231.733	-3.43
232.111	-2.81
232.488	-2.53
232.866	-2.19
233.243	-2.91
233.621	0.44
233.998	7.75
234.376	6.02
234.753	5.44
235.13	4.06
235.508	3.91
235.885	3.46
236.262	1.29
236.639	-0.27
237.016	-2.25
237.393	-3.37
237.77	-2.96
238.147	-2.46
238.524	-1.86
238.901	-1.94
239.278	-1.58
239.655	-1.56
240.032	-1.06
240.409	-0.94
240.785	-0.75
241.162	-0.46
241.539	-0.06
241.915	-1.27
242.292	-0.75
242.668	-0.89
243.045	-0.09
243.421	0.57
243.798	0.94
244.174	1.7
244.551	2.2
244.927	2.8
245.303	2.94
245.679	3.14
246.056	3.42
246.432	3.35
246.808	3.24
247.184	3.39
247.56	3.33
247.936	3.47
248.312	3.51
248.688	3.56
249.064	3.58
249.44	3.23
249.815	3.26
250.191	3.6
250.567	3.94
250.943	4.1
251.318	3.98
251.694	4
252.069	3.65
252.445	3.75
252.82	3.69
253.196	3.52
253.571	3.84
253.947	3.58
254.322	3.48
254.697	3.8
255.073	3.9
255.448	4.07
255.823	4.2
256.198	4.4
256.573	4.36
256.948	4.43
257.323	4.59
257.698	4.56
258.073	4.3
258.448	4.18
258.823	4.18
259.198	4.27
259.573	4.02
259.948	4.21
260.322	4.04
260.697	4.15
261.072	4.25
261.446	4.12
261.821	4.21
262.195	4.3
262.57	4.27
262.944	4.17
263.319	4.09
263.693	3.89
264.067	3.94
264.442	3.77
264.816	3.77
265.19	3.87
265.564	3.86
265.938	3.9
266.313	3.74
266.687	3.64
267.061	3.6
267.435	3.8
267.809	3.66
268.183	3.75
268.556	3.51
268.93	3.67
269.304	3.65
269.678	3.57
270.051	3.68
270.425	3.91
270.799	3.78
271.172	3.88
271.546	4.01
271.919	3.88
272.293	4.07
272.666	4.32
273.04	4.38
273.413	4.48
273.787	4.43
274.16	4.56
274.533	4.67
274.906	4.7
275.279	4.71
275.653	4.81
276.026	4.95
276.399	5.18
276.772	5.07
277.145	5.12
277.518	5.04
277.891	4.89
278.263	4.85
278.636	4.94
279.009	5.19
279.382	5.14
279.755	4.88
280.127	4.75
280.5	4.41
280.872	4.35
281.245	4.31
281.617	4.42
281.99	4.33
282.362	4.28
282.735	4.12
283.107	4.07
283.479	4.13
283.852	4.03
284.224	3.96
284.596	4.09
284.968	4.04
285.34	4.04
285.713	4.15
286.085	4.02
286.457	4.13
286.829	4.04
287.201	3.89
287.572	4.03
287.944	4.04
288.316	4.1
288.688	4.06
289.06	3.97
289.431	4.01
289.803	4.26
290.175	4.15
290.546	4.15
290.918	4.11
291.289	4.06
291.661	4.05
292.032	3.94
292.403	3.93
292.775	4.08
293.146	4.12
293.517	3.98
293.889	4.13
294.26	4.12
294.631	4.19
295.002	4.29
295.373	4.38
295.744	4.25
296.115	4.24
296.486	4.29
296.857	4.34
297.228	4.24
297.599	3.85
297.97	4.04
298.34	4.16
298.711	4.44
299.082	4.43
299.452	4.48
299.823	4.56
300.194	4.6
300.564	4.42
300.935	4.55
301.305	4.58
301.676	4.49
302.046	4.39
302.416	4.34
302.787	4.21
303.157	4.13
303.527	4.36
303.897	4.32
304.267	4.28
304.637	4.37
305.008	4.3
305.378	4.63
305.748	4.55
306.117	4.45
306.487	4.25
306.857	4.24
307.227	4.36
307.597	4.33
307.967	4.13
308.336	4.24
308.706	4.21
309.076	4.21
309.445	4.37
309.815	4.49
310.184	4.39
310.554	4.59
310.923	4.55
311.293	4.58
311.662	4.55
312.031	4.46
312.401	4.58
312.77	4.7
313.139	4.55
313.508	4.49
313.877	4.55
314.246	4.58
314.616	4.45
314.985	4.2
315.353	4.42
315.722	4.6
316.091	4.55
316.46	4.65
316.829	4.79
317.198	4.79
317.567	4.97
317.935	5.1
318.304	5.18
318.672	5.26
319.041	5.28
319.41	5.44
319.778	5.68
320.147	5.49
320.515	5.73
320.883	5.91
321.252	6.03
321.62	6.04
321.988	6
322.357	6.21
322.725	6.31
323.093	6.21
323.461	6.12
323.829	6.17
324.197	6.04
324.565	6.01
324.933	5.93
325.301	5.77
325.669	5.59
326.037	5.69
326.405	5.68
326.772	5.64
327.14	5.72
327.508	5.63
327.875	5.63
328.243	5.46
328.61	5.39
328.978	5.41
329.346	5.4
329.713	5.43
330.08	5.46
330.448	5.47
330.815	5.33
331.182	5.31
331.55	5.35
331.917	5.32
332.284	5.42
332.651	5.41
333.018	5.47
333.385	5.64
333.752	5.51
334.119	5.53
334.486	5.49
334.853	5.29
335.22	5.22
335.587	5.15
335.954	5.25
336.32	5.33
336.687	5.34
337.054	5.46
337.42	5.48
337.787	5.39
338.153	5.51
338.52	5.71
338.886	5.93
339.253	5.78
339.619	5.97
339.986	5.98
340.352	6.05
340.718	6.02
341.084	6.13
341.451	6.24
341.817	6.39
342.183	6.54
342.549	6.81
342.915	6.82
343.281	6.93
343.647	6.88
344.013	6.86
344.379	6.83
344.745	6.75
345.11	6.66
345.476	6.74
345.842	6.76
346.208	6.63
346.573	6.61
346.939	6.75
347.304	6.6
347.67	6.54
348.035	6.47
348.401	6.49
348.766	6.4
349.132	6.35
349.497	6.39
349.862	6.38
350.228	6.19
350.593	6.3
350.958	6.53
351.323	6.52
351.688	6.51
352.053	6.61
352.418	6.67
352.783	6.66
353.148	6.68
353.513	6.67
353.878	6.69
354.243	6.61
354.608	6.71
354.972	6.66
355.337	6.63
355.702	6.6
356.066	6.54
356.431	6.55
356.795	6.57
357.16	6.4
357.524	6.31
357.889	6.36
358.253	6.33
358.618	6.19
358.982	6.07
359.346	6.07
359.71	5.96
360.075	5.93
360.439	6.05
360.803	6.05
361.167	6.01
361.531	6.03
361.895	5.93
362.259	5.88
362.623	5.89
362.987	5.89
363.351	5.9
363.714	5.99
364.078	6
364.442	5.96
364.806	6.01
365.169	6.06
365.533	6
365.896	5.96
366.26	5.88
366.623	6
366.987	6.06
367.35	6.06
367.714	6.01
368.077	5.94
368.44	5.93
368.803	5.95
369.167	5.88
369.53	5.94
369.893	5.84
370.256	5.85
370.619	5.84
370.982	5.74
371.345	5.69
371.708	5.65
372.071	5.6
372.434	5.54
372.797	5.46
373.159	5.46
373.522	5.48
373.885	5.5
374.247	5.44
374.61	5.31
374.973	5.35
375.335	5.38
375.698	5.39
376.06	5.34
376.423	5.24
376.785	5.26
377.147	5.28
377.51	5.28
377.872	5.26
378.234	5.26
378.596	5.3
378.958	5.25
379.321	5.2
379.683	5.21
380.045	5.21
380.407	5.21
380.769	5.22
381.13	5.16
381.492	5.2
381.854	5.19
382.216	5.24
382.578	5.25
382.939	5.24
383.301	5.19
383.663	5.14
384.024	5.17
384.386	5.14
384.747	5.16
385.109	5.17
385.47	5.15
385.832	5.08
386.193	5.06
386.554	5.03
386.916	5.05
387.277	5.01
387.638	5.02
387.999	5.04
388.36	5.05
388.721	5.02
389.082	4.99
389.443	4.97
389.804	4.92
390.165	4.87
390.526	4.86
390.887	4.89
391.248	4.88
391.609	4.88
391.969	4.81
392.33	4.73
392.691	4.73
393.051	4.72
393.412	4.73
393.772	4.73
394.133	4.7
394.493	4.65
394.854	4.64
395.214	4.61
395.574	4.59
395.935	4.52
396.295	4.55
396.655	4.55
397.015	4.55
397.376	4.57
397.736	4.53
398.096	4.52
398.456	4.49
398.816	4.47
399.176	4.43
399.535	4.47
399.895	4.44
400.255	4.42
400.615	4.4
400.975	4.38
401.334	4.34
401.694	4.35
402.054	4.33
402.413	4.32
402.773	4.33
403.132	4.3
403.492	4.29
403.851	4.26
404.211	4.22
404.57	4.17
404.929	4.11
405.288	4.11
405.648	4.07
406.007	4.01
406.366	4.03
406.725	3.99
407.084	3.94
407.443	3.98
407.802	4
408.161	4.02
408.52	4.03
408.879	4.05
409.238	4.05
409.596	4.03
409.955	3.98
410.314	3.94
410.673	3.96
411.031	3.96
411.39	3.97
411.748	4.01
412.107	4.02
412.465	4.04
412.824	4.04
413.182	4.07
413.54	4.08
413.899	4.08
414.257	4.12
414.615	4.12
414.974	4.09
415.332	4.03
415.69	4.01
416.048	3.99
416.406	3.99
416.764	4.01
417.122	4
417.48	4.02
417.838	4.03
418.195	4.02
418.553	4.01
418.911	4
419.269	3.98
419.626	3.98
419.984	3.97
420.342	3.98
420.699	3.99
421.057	3.99
421.414	3.97
421.772	3.97
422.129	3.96
422.486	3.97
422.844	3.97
423.201	3.97
423.558	3.97
423.915	3.98
424.273	3.97
424.63	3.98
424.987	4
425.344	4
425.701	3.97
426.058	3.99
426.415	3.99
426.772	3.97
427.128	3.97
427.485	3.97
427.842	3.95
428.199	3.91
428.555	3.9
428.912	3.9
429.269	3.86
429.625	3.86
429.982	3.86
430.338	3.86
430.695	3.86
431.051	3.84
431.407	3.82
431.764	3.8
432.12	3.82
432.476	3.81
432.832	3.79
433.189	3.82
433.545	3.81
433.901	3.78
434.257	3.79
434.613	3.78
434.969	3.78
435.325	3.79
435.681	3.8
436.036	3.8
436.392	3.8
436.748	3.83
437.104	3.84
437.459	3.87
437.815	3.88
438.171	3.91
438.526	3.93
438.882	3.94
439.237	3.94
439.593	3.92
439.948	3.91
440.304	3.91
440.659	3.9
441.014	3.91
441.369	3.92
441.725	3.92
442.08	3.91
442.435	3.91
442.79	3.91
443.145	3.9
443.5	3.9
443.855	3.89
444.21	3.88
444.565	3.88
444.92	3.86
445.275	3.84
445.629	3.82
445.984	3.82
446.339	3.81
446.693	3.81
447.048	3.81
447.403	3.81
447.757	3.81
448.112	3.82
448.466	3.81
448.82	3.81
449.175	3.79
449.529	3.8
449.883	3.8
450.238	3.8
450.592	3.8
450.946	3.81
451.3	3.82
451.654	3.81
452.008	3.81
452.362	3.8
452.716	3.79
453.07	3.8
453.424	3.76
453.778	3.75
454.132	3.75
454.486	3.73
454.839	3.72
455.193	3.73
455.547	3.73
455.9	3.74
456.254	3.75
456.607	3.74
456.961	3.74
457.314	3.73
457.668	3.73
458.021	3.75
458.375	3.76
458.728	3.75
459.081	3.75
459.434	3.76
459.787	3.78
460.141	3.8
460.494	3.79
460.847	3.82
461.2	3.82
461.553	3.84
461.906	3.85
462.259	3.85
462.611	3.82
462.964	3.83
463.317	3.83
463.67	3.82
464.022	3.86
464.375	3.85
464.728	3.87
465.08	3.87
465.433	3.87
465.785	3.86
466.138	3.87
466.49	3.89
466.843	3.89
467.195	3.86
467.547	3.86
467.899	3.89
468.252	3.88
468.604	3.87
468.956	3.87
469.308	3.88
469.66	3.92
470.012	3.96
470.364	3.93
470.716	3.94
471.068	3.97
471.42	3.98
471.772	3.98
472.123	3.97
472.475	3.99
472.827	3.98
473.178	3.99
473.53	4
473.882	3.97
474.233	3.95
474.585	3.95
474.936	3.95
475.288	3.93
475.639	3.92
475.99	3.94
476.342	3.94
476.693	3.94
477.044	3.92
477.395	3.93
477.746	3.95
478.097	3.94
478.448	3.92
478.8	3.9
479.15	3.9
479.501	3.91
479.852	3.91
480.203	3.91
480.554	3.9
480.905	3.91
481.255	3.92
481.606	3.94
481.957	3.96
482.307	3.95
482.658	3.95
483.009	3.95
483.359	3.95
483.709	3.95
484.06	3.95
484.41	3.96
484.761	3.96
485.111	3.96
485.461	3.97
485.811	3.96
486.162	3.96
486.512	3.97
486.862	3.96
487.212	3.96
487.562	3.96
487.912	3.97
488.262	3.96
488.612	3.96
488.961	3.97
489.311	3.97
489.661	3.97
490.011	3.96
490.36	3.97
490.71	3.96
491.06	3.96
491.409	3.97
491.759	3.96
492.108	3.95
492.458	3.95
492.807	3.96
493.157	3.98
493.506	3.99
493.855	3.99
494.204	4.02
494.554	4.01
494.903	4.03
495.252	4.03
495.601	4.05
495.95	4.06
496.299	4.05
496.648	4.06
496.997	4.08
497.346	4.13
497.695	4.14
498.043	4.19
498.392	4.22
498.741	4.24
499.09	4.25
499.438	4.29
499.787	4.34
500.135	4.35
500.484	4.36
500.832	4.39
501.181	4.41
501.529	4.42
501.878	4.48
502.226	4.51
502.574	4.56
502.923	4.58
503.271	4.59
503.619	4.64
503.967	4.65
504.315	4.69
504.663	4.72
505.011	4.76
505.359	4.75
505.707	4.76
506.055	4.8
506.403	4.84
506.751	4.86
507.098	4.87
507.446	4.9
507.794	4.95
508.141	4.97
508.489	5.01
508.837	5.06
509.184	5.06
509.531	5.09
509.879	5.11
510.226	5.15
510.574	5.18
510.921	5.2
511.268	5.25
511.616	5.29
511.963	5.31
512.31	5.35
512.657	5.4
513.004	5.44
513.351	5.46
513.698	5.5
514.045	5.53
514.392	5.56
514.739	5.61
515.086	5.65
515.432	5.7
515.779	5.73
516.126	5.8
516.473	5.86
516.819	5.89
517.166	5.94
517.512	5.99
517.859	6.07
518.205	6.12
518.552	6.16
518.898	6.2
519.245	6.25
519.591	6.28
519.937	6.31
520.283	6.37
520.629	6.42
520.976	6.45
521.322	6.53
521.668	6.59
522.014	6.67
522.36	6.73
522.706	6.83
523.052	6.93
523.398	7
523.743	7.08
524.089	7.19
524.435	7.26
524.781	7.34
525.126	7.41
525.472	7.47
525.817	7.55
526.163	7.63
526.509	7.69
526.854	7.78
527.199	7.86
527.545	7.92
527.89	7.98
528.235	8.05
528.581	8.12
528.926	8.19
529.271	8.26
529.616	8.34
529.961	8.4
530.306	8.46
530.651	8.55
530.996	8.64
531.341	8.74
531.686	8.84
532.031	8.94
532.376	9.05
532.721	9.17
533.065	9.28
533.41	9.39
533.755	9.53
534.099	9.65
534.444	9.77
534.788	9.89
535.133	10.05
535.477	10.19
535.822	10.34
536.166	10.5
536.51	10.68
536.855	10.85
537.199	11.04
537.543	11.25
537.887	11.46
538.231	11.66
538.576	11.85
538.92	12.07
539.264	12.29
539.608	12.48
539.951	12.66
540.295	12.86
540.639	13.07
540.983	13.25
541.327	13.47
541.671	13.65
542.014	13.86
542.358	14.04
542.701	14.23
543.045	14.41
543.389	14.61
543.732	14.79
544.075	15
544.419	15.21
544.762	15.44
545.105	15.67
545.449	15.93
545.792	16.21
546.135	16.48
546.478	16.74
546.821	17.07
547.165	17.38
547.508	17.68
547.851	17.93
548.194	18.22
548.536	18.5
548.879	18.84
549.222	19.13
549.565	19.43
549.908	19.74
550.25	20.09
550.593	20.45
550.936	20.78
551.278	21.13
551.621	21.42
551.963	21.77
552.306	22.15
552.648	22.49
552.991	22.77
553.333	23.09
553.675	23.43
554.017	23.69
554.36	23.97
554.702	24.28
555.044	24.63
555.386	24.92
555.728	25.25
556.07	25.59
556.412	25.93
556.754	26.27
557.096	26.65
557.438	26.98
557.78	27.28
558.121	27.65
558.463	28.01
558.805	28.42
559.147	28.74
559.488	29.06
559.83	29.37
560.171	29.7
560.513	30.11
560.854	30.42
561.196	30.82
561.537	31.23
561.878	31.52
562.22	31.84
562.561	32.24
562.902	32.54
563.243	32.82
563.584	33.14
563.925	33.52
564.266	33.81
564.607	34.12
564.948	34.43
565.289	34.75
565.63	35.01
565.971	35.3
566.312	35.58
566.653	35.82
566.993	36.12
567.334	36.42
567.675	36.64
568.015	36.91
568.356	37.17
568.696	37.46
569.037	37.76
569.377	38.03
569.718	38.27
570.058	38.52
570.398	38.83
570.739	39.03
571.079	39.2
571.419	39.48
571.759	39.71
572.099	39.95
572.439	40.16
572.779	40.4
573.119	40.6
573.459	40.79
573.799	41
574.139	41.15
574.479	41.31
574.819	41.5
575.158	41.76
575.498	41.93
575.838	42.06
576.177	42.3
576.517	42.54
576.856	42.73
577.196	42.97
577.535	43.12
577.875	43.48
578.214	43.68
578.553	43.8
578.893	43.96
579.232	44.12
579.571	44.34
579.91	44.58
580.25	44.75
580.589	45.04
580.928	45.21
581.267	45.44
581.606	45.68
581.945	45.86
582.283	45.88
582.622	46.03
582.961	46.21
583.3	46.4
583.639	46.51
583.977	46.64
584.316	46.78
584.654	47.01
584.993	47.04
585.332	47.3
585.67	47.55
586.008	47.75
586.347	47.9
586.685	48.09
587.024	48.18
587.362	48.32
587.7	48.46
588.038	48.62
588.376	48.71
588.715	48.85
589.053	49.03
589.391	49.32
589.729	49.56
590.067	49.66
590.404	49.67
590.742	49.84
591.08	50.02
591.418	50.2
591.756	50.31
592.093	50.44
592.431	50.55
592.769	50.63
593.106	50.76
593.444	50.93
593.781	51.06
594.119	51.16
594.456	51.27
594.793	51.34
595.131	51.43
595.468	51.61
595.805	51.61
596.143	51.62
596.48	51.66
596.817	51.77
597.154	51.89
597.491	52.02
597.828	52.14
598.165	52.23
598.502	52.27
598.839	52.36
599.176	52.43
599.512	52.49
599.849	52.65
600.186	52.7
600.523	52.8
600.859	52.8
601.196	52.99
601.532	53.2
601.869	53.23
602.205	53.36
602.542	53.44
602.878	53.57
603.215	53.65
603.551	53.72
603.887	53.75
604.223	53.79
604.56	53.83
604.896	53.82
605.232	53.86
605.568	53.91
605.904	54.02
606.24	54.09
606.576	54.18
606.912	54.27
607.248	54.46
607.583	54.47
607.919	54.59
608.255	54.6
608.591	54.56
608.926	54.73
609.262	54.69
609.597	54.71
609.933	54.74
610.268	54.77
610.604	54.84
610.939	54.87
611.275	54.99
611.61	55.05
611.945	55.11
612.281	55.19
612.616	55.27
612.951	55.35
613.286	55.38
613.621	55.47
613.956	55.41
614.291	55.31
614.626	55.51
614.961	55.54
615.296	55.59
615.631	55.64
615.966	55.62
616.3	55.81
616.635	55.82
616.97	55.99
617.304	56.1
617.639	56.06
617.973	56.09
618.308	56.1
618.642	56.19
618.977	56.21
619.311	56.23
619.646	56.28
619.98	56.2
620.314	56.26
620.648	56.29
620.983	56.42
621.317	56.58
621.651	56.52
621.985	56.55
622.319	56.53
622.653	56.55
622.987	56.57
623.321	56.6
623.655	56.69
623.988	56.69
624.322	56.76
624.656	56.89
624.99	56.92
625.323	56.91
625.657	56.95
625.99	57.08
626.324	57.1
626.657	57.21
626.991	57.23
627.324	57.36
627.658	57.32
627.991	57.34
628.324	57.37
628.657	57.35
628.991	57.4
629.324	57.49
629.657	57.57
629.99	57.65
630.323	57.68
630.656	57.67
630.989	57.61
631.322	57.7
631.655	57.65
631.987	57.7
632.32	57.73
632.653	57.82
632.986	57.78
633.318	57.91
633.651	57.83
633.984	57.94
634.316	57.81
634.649	57.87
634.981	57.81
635.313	57.73
635.646	57.86
635.978	57.88
636.31	58.02
636.643	58
636.975	58.02
637.307	58.08
637.639	58.15
637.971	58.25
638.303	58.13
638.635	58.3
638.967	58.42
639.299	58.47
639.631	58.46
639.963	58.43
640.295	58.33
640.626	58.35
640.958	58.47
641.29	58.55
641.621	58.66
641.953	58.73
642.285	58.79
642.616	58.76
642.948	58.81
643.279	58.75
643.61	58.85
643.942	58.92
644.273	58.72
644.604	58.67
644.936	58.8
645.267	58.9
645.598	58.83
645.929	58.67
646.26	58.66
646.591	58.63
646.922	58.66
647.253	58.61
647.584	58.62
647.915	58.55
648.245	58.57
648.576	58.51
648.907	58.59
649.238	58.63
649.568	58.6
649.899	58.48
650.229	58.43
650.56	58.33
650.89	58.45
651.221	58.68
651.551	58.66
651.882	58.64
652.212	58.58
652.542	58.45
652.872	58.53
653.203	58.65
653.533	58.69
653.863	58.81
654.193	58.92
654.523	58.98
654.853	59.02
655.183	59.07
655.513	59.01
655.843	58.86
656.172	58.91
656.502	58.94
656.832	59.06
657.162	59.12
657.491	59.12
657.821	59.04
658.15	58.97
658.48	59.09
658.809	59.04
659.139	59.14
659.468	59.25
659.798	59.25
660.127	59.3
660.456	59.43
660.785	59.46
661.115	59.38
661.444	59.44
661.773	59.32
662.102	59.2
662.431	59.25
662.76	59.4
663.089	59.38
663.418	59.5
663.747	59.57
664.076	59.56
664.404	59.68
664.733	59.67
665.062	59.65
665.39	59.68
665.719	59.7
666.048	59.65
666.376	59.71
666.705	59.73
667.033	59.64
667.362	59.46
667.69	59.43
