Data from BA17726_Reflection_00007.txt Node
Date: Tue Nov 19 11:57:03 EST 2019
User: vgr7
Spectrometer: USB2G7710
Scans to average: 3
Trigger mode: 4
Integration Time (sec): 2.000000E-2
Electric dark correction enabled: true
Boxcar width: 10
XAxis mode: Wavelengths
Number of Pixels in Spectrum: 2048
>>>>>Begin Spectral Data<<<<<
177.721	145.42
178.105	274.24
178.488	135.58
178.871	128.21
179.254	123.66
179.636	102.87
180.019	40.32
180.402	66.67
180.785	-76.81
181.168	-55.2
181.55	-180.11
181.933	-1272.55
182.316	-532.18
182.698	-264.78
183.081	-173.27
183.463	-35.27
183.846	-86.38
184.228	-31.05
184.611	-45.14
184.993	-63.96
185.376	-26.29
185.758	14.92
186.14	10.57
186.522	-12.62
186.904	-2.49
187.287	-28.94
187.669	-22.48
188.051	-121.58
188.433	-10011.11
188.815	-881.98
189.197	1077.01
189.579	-315.3
189.961	-134.16
190.342	-135.17
190.724	-479.23
191.106	807.07
191.488	-1088.41
191.869	-134.89
192.251	-197.83
192.633	-122.78
193.014	-135.21
193.396	-108.22
193.777	-90.48
194.159	-109.43
194.54	-115.3
194.922	-85.32
195.303	-83.46
195.684	-98.58
196.065	-81.37
196.447	-63.9
196.828	-53.5
197.209	-42.37
197.59	-42.57
197.971	-52.08
198.352	-42.21
198.733	-36.91
199.114	-39.64
199.495	-35.32
199.876	-25.85
200.257	-17.69
200.638	-27.38
201.018	-19.33
201.399	-15.55
201.78	-5.43
202.16	-9.43
202.541	-10.77
202.922	-14.74
203.302	-20.65
203.683	-11.7
204.063	-12.18
204.444	-22.43
204.824	-33.33
205.204	-52.18
205.585	-58.1
205.965	-58.38
206.345	-49.97
206.725	-20.18
207.106	-7.16
207.486	-37.54
207.866	-58.22
208.246	-46.37
208.626	-44.86
209.006	-39.9
209.386	-31.56
209.766	-46.55
210.145	-34.15
210.525	-24.94
210.905	-21.13
211.285	-7.92
211.664	-12.85
212.044	-0.85
212.424	15.89
212.803	24.32
213.183	27.32
213.562	32.47
213.942	25.93
214.321	10.65
214.701	2.62
215.08	-5.39
215.459	-3.14
215.838	-1.06
216.218	-7.62
216.597	-10.44
216.976	-12.67
217.355	-23.04
217.734	-10.91
218.113	-8.67
218.492	-11.73
218.871	-14.44
219.25	-11.74
219.629	-9.41
220.008	-15.86
220.387	-15.76
220.766	-12.46
221.144	-16.41
221.523	-25.94
221.902	-27.33
222.28	-22.44
222.659	-14.04
223.037	-7.34
223.416	-7.5
223.794	-6.9
224.173	-6.23
224.551	-11.24
224.929	-16.44
225.308	-10.16
225.686	-17.67
226.064	-18.05
226.442	-13.9
226.821	-13.49
227.199	-14.21
227.577	-18.11
227.955	-17.64
228.333	-18.17
228.711	-16.14
229.089	-13.63
229.467	-14.01
229.845	-13.63
230.222	-13.53
230.6	-15.74
230.978	-17.47
231.356	-14.75
231.733	-13.41
232.111	-10.46
232.488	-9.23
232.866	-6.29
233.243	-4.14
233.621	-2.14
233.998	-1.97
234.376	-1.42
234.753	-0.95
235.13	-1.1
235.508	0.07
235.885	0.14
236.262	0.1
236.639	1.51
237.016	1.78
237.393	4.02
237.77	4.73
238.147	5.02
238.524	6.24
238.901	5.99
239.278	5.75
239.655	6.12
240.032	5.39
240.409	5.57
240.785	5.59
241.162	4.85
241.539	5.05
241.915	4.78
242.292	4.72
242.668	5.23
243.045	5.73
243.421	5.68
243.798	6.02
244.174	6.1
244.551	5.62
244.927	5.56
245.303	5.29
245.679	5.56
246.056	5.48
246.432	5.23
246.808	5.49
247.184	5.5
247.56	5.26
247.936	5.39
248.312	5.47
248.688	5.45
249.064	5.63
249.44	5.47
249.815	5.54
250.191	5.47
250.567	5.39
250.943	5.14
251.318	4.89
251.694	4.71
252.069	4.57
252.445	4.9
252.82	4.89
253.196	4.99
253.571	4.79
253.947	4.79
254.322	4.8
254.697	4.48
255.073	4.17
255.448	4.27
255.823	4.45
256.198	4.38
256.573	4.3
256.948	4.29
257.323	4.68
257.698	4.83
258.073	4.65
258.448	4.6
258.823	4.55
259.198	4.96
259.573	4.85
259.948	4.92
260.322	4.85
260.697	5
261.072	5.09
261.446	5.02
261.821	4.94
262.195	4.73
262.57	4.76
262.944	4.84
263.319	4.86
263.693	4.67
264.067	4.74
264.442	4.74
264.816	4.58
265.19	4.29
265.564	3.89
265.938	3.99
266.313	3.72
266.687	3.81
267.061	3.53
267.435	3.61
267.809	3.61
268.183	3.55
268.556	3.44
268.93	3.49
269.304	3.71
269.678	3.96
270.051	3.92
270.425	3.96
270.799	3.92
271.172	3.95
271.546	4
271.919	3.87
272.293	4.05
272.666	4.19
273.04	4.29
273.413	4.39
273.787	4.37
274.16	4.52
274.533	4.52
274.906	4.59
275.279	4.38
275.653	4.19
276.026	4.17
276.399	4.03
276.772	4.14
277.145	4.04
277.518	3.76
277.891	3.96
278.263	4.05
278.636	4.11
279.009	4.03
279.382	4
279.755	3.96
280.127	3.64
280.5	3.66
280.872	3.69
281.245	3.98
281.617	3.96
281.99	3.96
282.362	3.95
282.735	4.03
283.107	4.19
283.479	4.32
283.852	4.33
284.224	4.42
284.596	4.35
284.968	4.21
285.34	4.43
285.713	4.39
286.085	4.31
286.457	4.38
286.829	4.39
287.201	4.43
287.572	4.49
287.944	4.81
288.316	4.85
288.688	4.92
289.06	4.87
289.431	5.06
289.803	5.17
290.175	5.21
290.546	5.11
290.918	5.22
291.289	5.2
291.661	5.32
292.032	5.43
292.403	5.47
292.775	5.53
293.146	5.59
293.517	5.68
293.889	5.73
294.26	5.76
294.631	5.83
295.002	5.85
295.373	5.94
295.744	5.87
296.115	6
296.486	5.97
296.857	6.09
297.228	6.05
297.599	6.09
297.97	6.2
298.34	6.32
298.711	6.25
299.082	6.39
299.452	6.35
299.823	6.42
300.194	6.43
300.564	6.49
300.935	6.48
301.305	6.43
301.676	6.54
302.046	6.58
302.416	6.69
302.787	6.69
303.157	6.74
303.527	6.86
303.897	6.93
304.267	6.93
304.637	6.99
305.008	7.15
305.378	7.27
305.748	7.46
306.117	7.52
306.487	7.78
306.857	7.77
307.227	8
307.597	8.01
307.967	7.96
308.336	8.03
308.706	8.13
309.076	8.42
309.445	8.45
309.815	8.5
310.184	8.56
310.554	8.6
310.923	8.63
311.293	8.63
311.662	8.65
312.031	8.7
312.401	8.63
312.77	8.63
313.139	8.67
313.508	8.43
313.877	8.52
314.246	8.59
314.616	8.75
314.985	8.68
315.353	8.75
315.722	8.95
316.091	9.07
316.46	9.1
316.829	9.15
317.198	9.21
317.567	9.37
317.935	9.34
318.304	9.67
318.672	9.94
319.041	9.92
319.41	9.94
319.778	10.02
320.147	10.16
320.515	10.38
320.883	10.33
321.252	10.48
321.62	10.61
321.988	10.68
322.357	10.62
322.725	10.66
323.093	10.77
323.461	10.72
323.829	10.82
324.197	10.89
324.565	10.83
324.933	10.96
325.301	10.95
325.669	11.14
326.037	11.01
326.405	10.88
326.772	10.94
327.14	10.93
327.508	11.04
327.875	11.01
328.243	10.94
328.61	11.05
328.978	11.18
329.346	11.07
329.713	11.14
330.08	11.3
330.448	11.46
330.815	11.39
331.182	11.44
331.55	11.48
331.917	11.45
332.284	11.56
332.651	11.41
333.018	11.41
333.385	11.39
333.752	11.52
334.119	11.73
334.486	11.82
334.853	11.77
335.22	11.72
335.587	11.73
335.954	11.59
336.32	11.51
336.687	11.6
337.054	11.63
337.42	11.6
337.787	11.49
338.153	11.52
338.52	11.66
338.886	11.67
339.253	11.59
339.619	11.69
339.986	11.64
340.352	11.84
340.718	11.99
341.084	11.99
341.451	12.09
341.817	11.87
342.183	11.85
342.549	12.14
342.915	12.26
343.281	12.44
343.647	12.54
344.013	12.56
344.379	12.49
344.745	12.57
345.11	12.59
345.476	12.76
345.842	12.75
346.208	12.79
346.573	12.81
346.939	12.93
347.304	12.88
347.67	13
348.035	12.97
348.401	12.9
348.766	12.89
349.132	12.9
349.497	13.05
349.862	13.05
350.228	13
350.593	12.93
350.958	12.94
351.323	13.14
351.688	13.32
352.053	13.4
352.418	13.39
352.783	13.32
353.148	13.26
353.513	13.18
353.878	13.13
354.243	13.01
354.608	12.93
354.972	12.98
355.337	12.86
355.702	12.81
356.066	12.83
356.431	12.8
356.795	12.63
357.16	12.6
357.524	12.63
357.889	12.46
358.253	12.41
358.618	12.23
358.982	12.07
359.346	11.92
359.71	11.85
360.075	11.85
360.439	11.91
360.803	11.93
361.167	11.93
361.531	11.91
361.895	12.06
362.259	12.1
362.623	12.08
362.987	12.05
363.351	12.02
363.714	11.91
364.078	11.92
364.442	11.99
364.806	11.96
365.169	11.85
365.533	11.92
365.896	11.94
366.26	11.94
366.623	11.9
366.987	11.94
367.35	11.87
367.714	11.79
368.077	11.71
368.44	11.59
368.803	11.51
369.167	11.32
369.53	11.14
369.893	11.08
370.256	10.92
370.619	10.93
370.982	10.88
371.345	10.93
371.708	10.92
372.071	10.87
372.434	10.84
372.797	10.85
373.159	10.73
373.522	10.61
373.885	10.53
374.247	10.49
374.61	10.41
374.973	10.37
375.335	10.3
375.698	10.2
376.06	10.16
376.423	10.15
376.785	10.18
377.147	10.11
377.51	10.03
377.872	10.04
378.234	9.98
378.596	9.93
378.958	9.83
379.321	9.71
379.683	9.59
380.045	9.58
380.407	9.52
380.769	9.48
381.13	9.42
381.492	9.41
381.854	9.39
382.216	9.34
382.578	9.38
382.939	9.32
383.301	9.28
383.663	9.19
384.024	9.11
384.386	9.04
384.747	9.04
385.109	9
385.47	8.96
385.832	8.82
386.193	8.79
386.554	8.66
386.916	8.6
387.277	8.56
387.638	8.4
387.999	8.34
388.36	8.28
388.721	8.26
389.082	8.21
389.443	8.14
389.804	8.06
390.165	7.95
390.526	7.91
390.887	7.8
391.248	7.78
391.609	7.82
391.969	7.78
392.33	7.69
392.691	7.66
393.051	7.64
393.412	7.65
393.772	7.58
394.133	7.56
394.493	7.49
394.854	7.46
395.214	7.47
395.574	7.4
395.935	7.37
396.295	7.32
396.655	7.27
397.015	7.26
397.376	7.21
397.736	7.16
398.096	7.13
398.456	7.09
398.816	6.99
399.176	6.84
399.535	6.84
399.895	6.8
400.255	6.71
400.615	6.61
400.975	6.6
401.334	6.57
401.694	6.58
402.054	6.57
402.413	6.56
402.773	6.5
403.132	6.48
403.492	6.46
403.851	6.42
404.211	6.36
404.57	6.28
404.929	6.26
405.288	6.24
405.648	6.23
406.007	6.21
406.366	6.21
406.725	6.21
407.084	6.14
407.443	6.11
407.802	6.11
408.161	6.1
408.52	6.03
408.879	6.03
409.238	5.95
409.596	5.91
409.955	5.84
410.314	5.83
410.673	5.81
411.031	5.79
411.39	5.81
411.748	5.84
412.107	5.8
412.465	5.77
412.824	5.74
413.182	5.66
413.54	5.63
413.899	5.61
414.257	5.58
414.615	5.58
414.974	5.58
415.332	5.55
415.69	5.51
416.048	5.49
416.406	5.42
416.764	5.42
417.122	5.4
417.48	5.38
417.838	5.36
418.195	5.33
418.553	5.28
418.911	5.22
419.269	5.2
419.626	5.19
419.984	5.18
420.342	5.14
420.699	5.13
421.057	5.1
421.414	5.07
421.772	5.04
422.129	5.01
422.486	4.98
422.844	4.95
423.201	4.95
423.558	4.94
423.915	4.93
424.273	4.91
424.63	4.89
424.987	4.89
425.344	4.87
425.701	4.84
426.058	4.84
426.415	4.83
426.772	4.79
427.128	4.77
427.485	4.74
427.842	4.74
428.199	4.72
428.555	4.72
428.912	4.71
429.269	4.7
429.625	4.69
429.982	4.66
430.338	4.66
430.695	4.64
431.051	4.63
431.407	4.61
431.764	4.61
432.12	4.62
432.476	4.59
432.832	4.59
433.189	4.59
433.545	4.59
433.901	4.61
434.257	4.61
434.613	4.59
434.969	4.59
435.325	4.59
435.681	4.61
436.036	4.6
436.392	4.61
436.748	4.59
437.104	4.6
437.459	4.61
437.815	4.58
438.171	4.56
438.526	4.57
438.882	4.58
439.237	4.56
439.593	4.55
439.948	4.53
440.304	4.52
440.659	4.51
441.014	4.5
441.369	4.47
441.725	4.47
442.08	4.48
442.435	4.47
442.79	4.46
443.145	4.45
443.5	4.43
443.855	4.42
444.21	4.43
444.565	4.43
444.92	4.41
445.275	4.41
445.629	4.39
445.984	4.37
446.339	4.38
446.693	4.39
447.048	4.38
447.403	4.38
447.757	4.37
448.112	4.38
448.466	4.38
448.82	4.38
449.175	4.37
449.529	4.36
449.883	4.37
450.238	4.36
450.592	4.33
450.946	4.32
451.3	4.32
451.654	4.31
452.008	4.29
452.362	4.31
452.716	4.31
453.07	4.34
453.424	4.33
453.778	4.31
454.132	4.27
454.486	4.27
454.839	4.28
455.193	4.27
455.547	4.25
455.9	4.24
456.254	4.24
456.607	4.25
456.961	4.24
457.314	4.22
457.668	4.22
458.021	4.25
458.375	4.28
458.728	4.25
459.081	4.24
459.434	4.23
459.787	4.24
460.141	4.25
460.494	4.24
460.847	4.25
461.2	4.24
461.553	4.26
461.906	4.27
462.259	4.25
462.611	4.3
462.964	4.3
463.317	4.3
463.67	4.31
464.022	4.31
464.375	4.31
464.728	4.34
465.08	4.35
465.433	4.37
465.785	4.34
466.138	4.37
466.49	4.42
466.843	4.46
467.195	4.44
467.547	4.42
467.899	4.46
468.252	4.45
468.604	4.47
468.956	4.46
469.308	4.46
469.66	4.49
470.012	4.47
470.364	4.5
470.716	4.54
471.068	4.54
471.42	4.55
471.772	4.56
472.123	4.57
472.475	4.6
472.827	4.6
473.178	4.63
473.53	4.64
473.882	4.65
474.233	4.64
474.585	4.66
474.936	4.69
475.288	4.66
475.639	4.69
475.99	4.68
476.342	4.67
476.693	4.7
477.044	4.7
477.395	4.7
477.746	4.69
478.097	4.67
478.448	4.66
478.8	4.66
479.15	4.65
479.501	4.64
479.852	4.62
480.203	4.61
480.554	4.61
480.905	4.61
481.255	4.61
481.606	4.62
481.957	4.62
482.307	4.61
482.658	4.63
483.009	4.62
483.359	4.63
483.709	4.64
484.06	4.63
484.41	4.63
484.761	4.66
485.111	4.65
485.461	4.65
485.811	4.67
486.162	4.66
486.512	4.67
486.862	4.68
487.212	4.7
487.562	4.71
487.912	4.71
488.262	4.72
488.612	4.74
488.961	4.76
489.311	4.78
489.661	4.78
490.011	4.79
490.36	4.8
490.71	4.81
491.06	4.82
491.409	4.83
491.759	4.84
492.108	4.83
492.458	4.86
492.807	4.89
493.157	4.91
493.506	4.94
493.855	4.96
494.204	4.97
494.554	4.98
494.903	5
495.252	5.05
495.601	5.07
495.95	5.09
496.299	5.1
496.648	5.13
496.997	5.17
497.346	5.22
497.695	5.27
498.043	5.32
498.392	5.39
498.741	5.44
499.09	5.5
499.438	5.55
499.787	5.57
500.135	5.59
500.484	5.66
500.832	5.7
501.181	5.74
501.529	5.82
501.878	5.91
502.226	5.99
502.574	6.05
502.923	6.12
503.271	6.19
503.619	6.27
503.967	6.35
504.315	6.44
504.663	6.54
505.011	6.63
505.359	6.7
505.707	6.74
506.055	6.84
506.403	6.93
506.751	6.99
507.098	7.11
507.446	7.24
507.794	7.31
508.141	7.42
508.489	7.54
508.837	7.62
509.184	7.69
509.531	7.78
509.879	7.87
510.226	7.98
510.574	8.07
510.921	8.17
511.268	8.28
511.616	8.4
511.963	8.51
512.31	8.62
512.657	8.71
513.004	8.85
513.351	8.96
513.698	9.06
514.045	9.21
514.392	9.33
514.739	9.45
515.086	9.6
515.432	9.71
515.779	9.83
516.126	10
516.473	10.14
516.819	10.25
517.166	10.38
517.512	10.49
517.859	10.61
518.205	10.69
518.552	10.78
518.898	10.86
519.245	10.98
519.591	11.08
519.937	11.21
520.283	11.37
520.629	11.47
520.976	11.62
521.322	11.75
521.668	11.91
522.014	12.06
522.36	12.22
522.706	12.42
523.052	12.63
523.398	12.8
523.743	13
524.089	13.24
524.435	13.44
524.781	13.64
525.126	13.85
525.472	14.04
525.817	14.22
526.163	14.38
526.509	14.53
526.854	14.68
527.199	14.81
527.545	14.91
527.89	15.08
528.235	15.22
528.581	15.38
528.926	15.51
529.271	15.66
529.616	15.79
529.961	15.93
530.306	16.09
530.651	16.25
530.996	16.43
531.341	16.61
531.686	16.79
532.031	16.96
532.376	17.14
532.721	17.33
533.065	17.54
533.41	17.77
533.755	18.01
534.099	18.22
534.444	18.46
534.788	18.68
535.133	18.89
535.477	19.12
535.822	19.35
536.166	19.6
536.51	19.86
536.855	20.14
537.199	20.42
537.543	20.7
537.887	21
538.231	21.3
538.576	21.58
538.92	21.9
539.264	22.2
539.608	22.48
539.951	22.75
540.295	23.01
540.639	23.25
540.983	23.48
541.327	23.72
541.671	23.96
542.014	24.21
542.358	24.45
542.701	24.68
543.045	24.91
543.389	25.15
543.732	25.37
544.075	25.65
544.419	25.92
544.762	26.18
545.105	26.46
545.449	26.73
545.792	27.02
546.135	27.32
546.478	27.65
546.821	27.99
547.165	28.3
547.508	28.61
547.851	28.94
548.194	29.25
548.536	29.61
548.879	29.92
549.222	30.23
549.565	30.54
549.908	30.84
550.25	31.18
550.593	31.52
550.936	31.88
551.278	32.22
551.621	32.58
551.963	32.95
552.306	33.24
552.648	33.58
552.991	33.93
553.333	34.21
553.675	34.49
554.017	34.79
554.36	35.13
554.702	35.42
555.044	35.68
555.386	36.02
555.728	36.26
556.07	36.62
556.412	37
556.754	37.33
557.096	37.71
557.438	38.02
557.78	38.36
558.121	38.71
558.463	39.01
558.805	39.33
559.147	39.62
559.488	39.98
559.83	40.25
560.171	40.56
560.513	40.83
560.854	41.12
561.196	41.45
561.537	41.72
561.878	42.02
562.22	42.32
562.561	42.61
562.902	42.96
563.243	43.25
563.584	43.56
563.925	43.86
564.266	44.13
564.607	44.39
564.948	44.62
565.289	44.81
565.63	45.05
565.971	45.26
566.312	45.53
566.653	45.76
566.993	46.07
567.334	46.32
567.675	46.61
568.015	46.85
568.356	47.12
568.696	47.37
569.037	47.6
569.377	47.84
569.718	48.07
570.058	48.28
570.398	48.49
570.739	48.63
571.079	48.77
571.419	48.98
571.759	49.21
572.099	49.49
572.439	49.74
572.779	49.97
573.119	50.16
573.459	50.33
573.799	50.5
574.139	50.73
574.479	50.89
574.819	51.15
575.158	51.4
575.498	51.56
575.838	51.7
576.177	51.92
576.517	52.18
576.856	52.4
577.196	52.57
577.535	52.79
577.875	53.08
578.214	53.44
578.553	53.67
578.893	53.86
579.232	54.04
579.571	54.24
579.91	54.39
580.25	54.63
580.589	54.85
580.928	55.07
581.267	55.24
581.606	55.45
581.945	55.63
582.283	55.79
582.622	55.91
582.961	56.2
583.3	56.39
583.639	56.5
583.977	56.64
584.316	56.85
584.654	57
584.993	57.05
585.332	57.1
585.67	57.24
586.008	57.46
586.347	57.51
586.685	57.6
587.024	57.69
587.362	57.83
587.7	57.96
588.038	58.09
588.376	58.15
588.715	58.31
589.053	58.31
589.391	58.53
589.729	58.66
590.067	58.65
590.404	58.67
590.742	58.85
591.08	58.92
591.418	59.02
591.756	59.13
592.093	59.32
592.431	59.37
592.769	59.5
593.106	59.54
593.444	59.69
593.781	59.88
594.119	60
594.456	60.08
594.793	60.19
595.131	60.28
595.468	60.38
595.805	60.45
596.143	60.58
596.48	60.54
596.817	60.61
597.154	60.76
597.491	60.99
597.828	60.99
598.165	61.14
598.502	61.17
598.839	61.21
599.176	61.28
599.512	61.39
599.849	61.48
600.186	61.62
600.523	61.78
600.859	61.79
601.196	61.97
601.532	62.05
601.869	62.12
602.205	62.16
602.542	62.22
602.878	62.32
603.215	62.38
603.551	62.53
603.887	62.58
604.223	62.68
604.56	62.64
604.896	62.74
605.232	62.67
605.568	62.8
605.904	62.86
606.24	62.98
606.576	63.11
606.912	63.18
607.248	63.25
607.583	63.31
607.919	63.45
608.255	63.39
608.591	63.51
608.926	63.56
609.262	63.65
609.597	63.77
609.933	63.74
610.268	63.83
610.604	63.79
610.939	63.88
611.275	63.83
611.61	63.95
611.945	63.99
612.281	64.17
612.616	64.26
612.951	64.35
613.286	64.37
613.621	64.36
613.956	64.36
614.291	64.34
614.626	64.3
614.961	64.32
615.296	64.48
615.631	64.45
615.966	64.56
616.3	64.64
616.635	64.6
616.97	64.71
617.304	64.76
617.639	64.79
617.973	64.74
618.308	64.81
618.642	64.73
618.977	64.66
619.311	64.66
619.646	64.7
619.98	64.77
620.314	64.77
620.648	64.77
620.983	64.8
621.317	64.88
621.651	64.95
621.985	64.91
622.319	64.94
622.653	64.91
622.987	64.91
623.321	65.07
623.655	65.07
623.988	65.11
624.322	65.12
624.656	65.27
624.99	65.27
625.323	65.39
625.657	65.43
625.99	65.58
626.324	65.66
626.657	65.57
626.991	65.58
627.324	65.69
627.658	65.77
627.991	65.79
628.324	65.8
628.657	65.86
628.991	65.89
629.324	65.9
629.657	65.93
629.99	66.04
630.323	65.92
630.656	65.9
630.989	65.91
631.322	65.93
631.655	65.87
631.987	66.05
632.32	66.04
632.653	66.13
632.986	66.18
633.318	66.15
633.651	66.19
633.984	66.23
634.316	66.04
634.649	66.01
634.981	66.07
635.313	66.22
635.646	66.18
635.978	66.26
636.31	66.28
636.643	66.42
636.975	66.32
637.307	66.31
637.639	66.49
637.971	66.43
638.303	66.42
638.635	66.59
638.967	66.54
639.299	66.6
639.631	66.59
639.963	66.56
640.295	66.74
640.626	66.82
640.958	66.87
641.29	67.05
641.621	67.05
641.953	66.96
642.285	66.94
642.616	66.92
642.948	66.93
643.279	67.01
643.61	67.07
643.942	67.03
644.273	67.12
644.604	67.1
644.936	67.13
645.267	67.12
645.598	67.01
645.929	67
646.26	66.91
646.591	66.9
646.922	66.9
647.253	66.8
647.584	66.83
647.915	66.72
648.245	66.72
648.576	66.83
648.907	66.91
649.238	67.02
649.568	67.06
649.899	67.11
650.229	67.12
650.56	67.15
650.89	67.25
651.221	67.14
651.551	67.2
651.882	67.34
652.212	67.33
652.542	67.33
652.872	67.4
653.203	67.46
653.533	67.61
653.863	67.56
654.193	67.55
654.523	67.48
654.853	67.64
655.183	67.7
655.513	67.76
655.843	67.84
656.172	67.68
656.502	67.6
656.832	67.67
657.162	67.67
657.491	67.6
657.821	67.53
658.15	67.64
658.48	67.59
658.809	67.63
659.139	67.64
659.468	67.58
659.798	67.59
660.127	67.58
660.456	67.46
660.785	67.55
661.115	67.49
661.444	67.6
661.773	67.54
662.102	67.5
662.431	67.42
662.76	67.26
