Data from BA17726_Reflection_00002.txt Node
Date: Tue Nov 19 11:56:47 EST 2019
User: vgr7
Spectrometer: USB2G7710
Scans to average: 3
Trigger mode: 4
Integration Time (sec): 2.000000E-2
Electric dark correction enabled: true
Boxcar width: 10
XAxis mode: Wavelengths
Number of Pixels in Spectrum: 2048
>>>>>Begin Spectral Data<<<<<
177.721	84.64
178.105	130.3
178.488	64.42
178.871	42.95
179.254	24.73
179.636	51.87
180.019	59.93
180.402	-8.33
180.785	-401.45
181.168	-84.89
181.55	-166.11
181.933	-1586.27
182.316	-1026.44
182.698	-497.48
183.081	-257.36
183.463	-489.37
183.846	-294.27
184.228	-170.66
184.611	-85.01
184.993	-130.63
185.376	-133.95
185.758	-111.99
186.14	-176.42
186.522	-106.18
186.904	-122.89
187.287	-162
187.669	-149.61
188.051	-140.85
188.433	-12455.56
188.815	-593.69
189.197	916.09
189.579	-271.58
189.961	-112.12
190.342	-82
190.724	-402.73
191.106	483.84
191.488	-928.99
191.869	-136.61
192.251	-193.89
192.633	-194.81
193.014	-132.32
193.396	-53.98
193.777	-50.03
194.159	-55.08
194.54	-56.28
194.922	-45.06
195.303	-56.07
195.684	-72.94
196.065	-77.38
196.447	-57.94
196.828	-52.69
197.209	-51.67
197.59	-64.84
197.971	-68.52
198.352	-69.75
198.733	-65.31
199.114	-63.95
199.495	-60.11
199.876	-62.44
200.257	-57.57
200.638	-56.8
201.018	-53.98
201.399	-66.47
201.78	-66.44
202.16	-67.82
202.541	-77.13
202.922	-82.16
203.302	-71.2
203.683	-62.47
204.063	-77.47
204.444	-87.47
204.824	-82.1
205.204	-93.91
205.585	-95.14
205.965	-91.54
206.345	-80.84
206.725	-43.58
207.106	-53.94
207.486	-61.4
207.866	-43.84
208.246	-36.65
208.626	-32.3
209.006	-38.47
209.386	-32.19
209.766	-20.12
210.145	-13.16
210.525	-0.23
210.905	-0.79
211.285	9.73
211.664	5.01
212.044	14.77
212.424	12.79
212.803	-1.28
213.183	7.27
213.562	11.4
213.942	-0.84
214.321	-9.46
214.701	-23.26
215.08	-18.61
215.459	-1.7
215.838	-9.96
216.218	-12.55
216.597	-18.53
216.976	-23.5
217.355	-31.03
217.734	-33.88
218.113	-30.94
218.492	-40.07
218.871	-30.09
219.25	-37.24
219.629	-38.68
220.008	-33.54
220.387	-25.39
220.766	-19.13
221.144	-20.38
221.523	-19.18
221.902	-13.39
222.28	-18.03
222.659	-12.88
223.037	-9.56
223.416	-18.8
223.794	-9.24
224.173	-10.32
224.551	-7.3
224.929	-3.34
225.308	0.34
225.686	1.15
226.064	4.95
226.442	10.52
226.821	6.93
227.199	10.58
227.577	13.25
227.955	15.38
228.333	12.73
228.711	13.19
229.089	13.24
229.467	10.45
229.845	10.15
230.222	14.38
230.6	12.6
230.978	12.25
231.356	13.83
231.733	10.63
232.111	9.76
232.488	8.05
232.866	6.47
233.243	6.02
233.621	5.39
233.998	5.37
234.376	3.8
234.753	2.52
235.13	2.43
235.508	1.49
235.885	0.62
236.262	1.73
236.639	1.46
237.016	0.97
237.393	0.57
237.77	0.76
238.147	0.29
238.524	1.27
238.901	0.41
239.278	0.21
239.655	0.76
240.032	1.41
240.409	2.31
240.785	2.51
241.162	3.13
241.539	3
241.915	2.79
242.292	2.96
242.668	3.55
243.045	3.77
243.421	4.01
243.798	4.05
244.174	3.87
244.551	4.01
244.927	4.14
245.303	4.31
245.679	4.51
246.056	4.64
246.432	4.84
246.808	5.24
247.184	5.49
247.56	5.33
247.936	5.4
248.312	5.44
248.688	5.54
249.064	5.28
249.44	5.51
249.815	5.61
250.191	5.64
250.567	5.43
250.943	5.34
251.318	5.45
251.694	5.29
252.069	5.56
252.445	5.7
252.82	5.89
253.196	6.03
253.571	5.87
253.947	5.56
254.322	5.28
254.697	5.06
255.073	4.89
255.448	5.12
255.823	5.02
256.198	4.79
256.573	4.86
256.948	5.18
257.323	4.88
257.698	4.71
258.073	4.48
258.448	4.73
258.823	4.6
259.198	4.56
259.573	4.48
259.948	4.63
260.322	4.51
260.697	4.38
261.072	4.35
261.446	4.47
261.821	4.49
262.195	4.54
262.57	4.59
262.944	4.54
263.319	4.57
263.693	4.67
264.067	4.79
264.442	4.61
264.816	4.41
265.19	4.47
265.564	4.48
265.938	4.86
266.313	4.54
266.687	4.52
267.061	4.52
267.435	4.72
267.809	4.48
268.183	4.65
268.556	4.79
268.93	5.04
269.304	4.85
269.678	5.09
270.051	4.96
270.425	4.9
270.799	4.6
271.172	4.56
271.546	4.52
271.919	4.69
272.293	4.77
272.666	4.76
273.04	4.91
273.413	4.92
273.787	4.82
274.16	4.85
274.533	5.03
274.906	5.02
275.279	4.93
275.653	5.05
276.026	5.12
276.399	5.01
276.772	5
277.145	5.18
277.518	5.03
277.891	5.22
278.263	5.45
278.636	5.94
279.009	5.95
279.382	5.9
279.755	5.75
280.127	5.57
280.5	5.55
280.872	5.38
281.245	5.46
281.617	5.43
281.99	5.56
282.362	5.56
282.735	5.53
283.107	5.51
283.479	5.36
283.852	5.16
284.224	5.15
284.596	5
284.968	4.86
285.34	4.87
285.713	4.77
286.085	4.55
286.457	4.37
286.829	4.32
287.201	4.36
287.572	4.42
287.944	4.51
288.316	4.48
288.688	4.62
289.06	4.66
289.431	4.74
289.803	4.61
290.175	4.63
290.546	4.56
290.918	4.6
291.289	4.62
291.661	4.47
292.032	4.42
292.403	4.36
292.775	4.42
293.146	4.38
293.517	4.48
293.889	4.5
294.26	4.51
294.631	4.6
295.002	4.6
295.373	4.64
295.744	4.71
296.115	4.82
296.486	4.81
296.857	4.87
297.228	4.74
297.599	4.66
297.97	4.64
298.34	4.69
298.711	4.66
299.082	4.7
299.452	4.69
299.823	4.7
300.194	4.81
300.564	4.61
300.935	4.72
301.305	4.7
301.676	4.68
302.046	4.62
302.416	4.6
302.787	4.6
303.157	4.39
303.527	4.36
303.897	4.27
304.267	4.21
304.637	4.09
305.008	4.11
305.378	4.3
305.748	4.17
306.117	4.21
306.487	4.46
306.857	4.46
307.227	4.72
307.597	4.76
307.967	4.72
308.336	5.02
308.706	4.98
309.076	5
309.445	5.06
309.815	5.23
310.184	5.36
310.554	5.4
310.923	5.36
311.293	5.52
311.662	5.61
312.031	5.65
312.401	5.53
312.77	5.54
313.139	5.5
313.508	5.56
313.877	5.61
314.246	5.35
314.616	5.42
314.985	5.39
315.353	5.38
315.722	5.48
316.091	5.36
316.46	5.35
316.829	5.33
317.198	5.4
317.567	5.43
317.935	5.16
318.304	5.15
318.672	5.33
319.041	5.13
319.41	5.05
319.778	4.91
320.147	4.89
320.515	4.92
320.883	4.83
321.252	4.91
321.62	4.68
321.988	4.84
322.357	4.78
322.725	4.74
323.093	4.64
323.461	4.62
323.829	4.7
324.197	4.7
324.565	4.67
324.933	4.64
325.301	4.41
325.669	4.49
326.037	4.42
326.405	4.42
326.772	4.43
327.14	4.45
327.508	4.53
327.875	4.6
328.243	4.53
328.61	4.6
328.978	4.55
329.346	4.75
329.713	4.72
330.08	4.88
330.448	4.97
330.815	5.08
331.182	4.91
331.55	4.93
331.917	4.89
332.284	4.86
332.651	4.83
333.018	4.85
333.385	4.83
333.752	4.79
334.119	4.71
334.486	4.54
334.853	4.36
335.22	4.26
335.587	4.3
335.954	4.35
336.32	4.39
336.687	4.28
337.054	4.15
337.42	4.2
337.787	3.96
338.153	3.87
338.52	3.88
338.886	3.93
339.253	3.74
339.619	3.81
339.986	3.73
340.352	3.72
340.718	3.79
341.084	3.89
341.451	4.02
341.817	4.14
342.183	4.25
342.549	4.37
342.915	4.47
343.281	4.51
343.647	4.44
344.013	4.43
344.379	4.38
344.745	4.35
345.11	4.31
345.476	4.45
345.842	4.37
346.208	4.42
346.573	4.61
346.939	4.78
347.304	4.8
347.67	4.86
348.035	4.86
348.401	4.82
348.766	4.76
349.132	4.74
349.497	4.5
349.862	4.53
350.228	4.52
350.593	4.47
350.958	4.42
351.323	4.57
351.688	4.7
352.053	4.84
352.418	4.96
352.783	5
353.148	4.91
353.513	5.02
353.878	4.95
354.243	4.75
354.608	4.72
354.972	4.59
355.337	4.64
355.702	4.64
356.066	4.67
356.431	4.64
356.795	4.6
357.16	4.69
357.524	4.66
357.889	4.71
358.253	4.68
358.618	4.62
358.982	4.54
359.346	4.47
359.71	4.4
360.075	4.37
360.439	4.29
360.803	4.27
361.167	4.24
361.531	4.3
361.895	4.34
362.259	4.37
362.623	4.44
362.987	4.45
363.351	4.47
363.714	4.52
364.078	4.52
364.442	4.52
364.806	4.58
365.169	4.54
365.533	4.52
365.896	4.6
366.26	4.62
366.623	4.67
366.987	4.7
367.35	4.82
367.714	4.8
368.077	4.81
368.44	4.88
368.803	4.85
369.167	4.78
369.53	4.79
369.893	4.8
370.256	4.72
370.619	4.69
370.982	4.66
371.345	4.59
371.708	4.57
372.071	4.59
372.434	4.53
372.797	4.64
373.159	4.62
373.522	4.62
373.885	4.64
374.247	4.66
374.61	4.63
374.973	4.58
375.335	4.66
375.698	4.66
376.06	4.71
376.423	4.77
376.785	4.77
377.147	4.73
377.51	4.72
377.872	4.77
378.234	4.84
378.596	4.86
378.958	4.95
379.321	4.99
379.683	4.99
380.045	5.04
380.407	4.97
380.769	4.94
381.13	4.9
381.492	4.87
381.854	4.85
382.216	4.83
382.578	4.85
382.939	4.77
383.301	4.81
383.663	4.7
384.024	4.7
384.386	4.71
384.747	4.71
385.109	4.73
385.47	4.71
385.832	4.64
386.193	4.63
386.554	4.59
386.916	4.58
387.277	4.58
387.638	4.48
387.999	4.51
388.36	4.52
388.721	4.53
389.082	4.58
389.443	4.54
389.804	4.58
390.165	4.56
390.526	4.57
390.887	4.5
391.248	4.53
391.609	4.52
391.969	4.5
392.33	4.49
392.691	4.45
393.051	4.45
393.412	4.49
393.772	4.5
394.133	4.52
394.493	4.51
394.854	4.51
395.214	4.56
395.574	4.54
395.935	4.55
396.295	4.52
396.655	4.53
397.015	4.54
397.376	4.5
397.736	4.5
398.096	4.55
398.456	4.57
398.816	4.58
399.176	4.52
399.535	4.51
399.895	4.55
400.255	4.51
400.615	4.5
400.975	4.45
401.334	4.46
401.694	4.43
402.054	4.41
402.413	4.41
402.773	4.42
403.132	4.42
403.492	4.42
403.851	4.44
404.211	4.42
404.57	4.43
404.929	4.42
405.288	4.44
405.648	4.38
406.007	4.41
406.366	4.39
406.725	4.41
407.084	4.45
407.443	4.44
407.802	4.46
408.161	4.48
408.52	4.5
408.879	4.52
409.238	4.52
409.596	4.55
409.955	4.57
410.314	4.56
410.673	4.59
411.031	4.59
411.39	4.6
411.748	4.61
412.107	4.58
412.465	4.58
412.824	4.54
413.182	4.56
413.54	4.58
413.899	4.63
414.257	4.67
414.615	4.64
414.974	4.64
415.332	4.63
415.69	4.63
416.048	4.6
416.406	4.57
416.764	4.59
417.122	4.59
417.48	4.57
417.838	4.58
418.195	4.57
418.553	4.57
418.911	4.54
419.269	4.53
419.626	4.53
419.984	4.53
420.342	4.55
420.699	4.55
421.057	4.55
421.414	4.54
421.772	4.51
422.129	4.51
422.486	4.51
422.844	4.51
423.201	4.49
423.558	4.5
423.915	4.5
424.273	4.47
424.63	4.47
424.987	4.46
425.344	4.45
425.701	4.44
426.058	4.45
426.415	4.46
426.772	4.44
427.128	4.45
427.485	4.47
427.842	4.46
428.199	4.46
428.555	4.45
428.912	4.42
429.269	4.41
429.625	4.41
429.982	4.42
430.338	4.44
430.695	4.47
431.051	4.47
431.407	4.45
431.764	4.44
432.12	4.45
432.476	4.48
432.832	4.47
433.189	4.49
433.545	4.46
433.901	4.46
434.257	4.46
434.613	4.45
434.969	4.46
435.325	4.46
435.681	4.46
436.036	4.46
436.392	4.47
436.748	4.5
437.104	4.52
437.459	4.5
437.815	4.49
438.171	4.49
438.526	4.46
438.882	4.48
439.237	4.5
439.593	4.49
439.948	4.48
440.304	4.46
440.659	4.46
441.014	4.49
441.369	4.48
441.725	4.48
442.08	4.47
442.435	4.45
442.79	4.44
443.145	4.44
443.5	4.42
443.855	4.43
444.21	4.42
444.565	4.38
444.92	4.39
445.275	4.37
445.629	4.37
445.984	4.39
446.339	4.38
446.693	4.37
447.048	4.35
447.403	4.34
447.757	4.35
448.112	4.35
448.466	4.34
448.82	4.37
449.175	4.37
449.529	4.38
449.883	4.39
450.238	4.4
450.592	4.39
450.946	4.42
451.3	4.42
451.654	4.42
452.008	4.43
452.362	4.43
452.716	4.45
453.07	4.43
453.424	4.43
453.778	4.44
454.132	4.42
454.486	4.46
454.839	4.46
455.193	4.47
455.547	4.46
455.9	4.46
456.254	4.44
456.607	4.43
456.961	4.43
457.314	4.43
457.668	4.43
458.021	4.44
458.375	4.42
458.728	4.42
459.081	4.43
459.434	4.42
459.787	4.44
460.141	4.44
460.494	4.46
460.847	4.43
461.2	4.44
461.553	4.45
461.906	4.46
462.259	4.45
462.611	4.45
462.964	4.47
463.317	4.45
463.67	4.45
464.022	4.46
464.375	4.47
464.728	4.48
465.08	4.46
465.433	4.46
465.785	4.49
466.138	4.49
466.49	4.5
466.843	4.51
467.195	4.49
467.547	4.48
467.899	4.48
468.252	4.48
468.604	4.5
468.956	4.51
469.308	4.46
469.66	4.46
470.012	4.48
470.364	4.47
470.716	4.5
471.068	4.5
471.42	4.48
471.772	4.49
472.123	4.48
472.475	4.49
472.827	4.46
473.178	4.43
473.53	4.44
473.882	4.43
474.233	4.41
474.585	4.42
474.936	4.43
475.288	4.41
475.639	4.46
475.99	4.45
476.342	4.45
476.693	4.47
477.044	4.48
477.395	4.46
477.746	4.48
478.097	4.47
478.448	4.48
478.8	4.51
479.15	4.51
479.501	4.5
479.852	4.51
480.203	4.54
480.554	4.55
480.905	4.54
481.255	4.55
481.606	4.56
481.957	4.57
482.307	4.57
482.658	4.59
483.009	4.58
483.359	4.59
483.709	4.59
484.06	4.59
484.41	4.58
484.761	4.59
485.111	4.59
485.461	4.6
485.811	4.59
486.162	4.57
486.512	4.58
486.862	4.59
487.212	4.59
487.562	4.58
487.912	4.58
488.262	4.59
488.612	4.59
488.961	4.59
489.311	4.6
489.661	4.59
490.011	4.59
490.36	4.59
490.71	4.57
491.06	4.57
491.409	4.56
491.759	4.56
492.108	4.56
492.458	4.55
492.807	4.56
493.157	4.57
493.506	4.57
493.855	4.55
494.204	4.54
494.554	4.53
494.903	4.55
495.252	4.56
495.601	4.55
495.95	4.53
496.299	4.52
496.648	4.52
496.997	4.53
497.346	4.51
497.695	4.52
498.043	4.55
498.392	4.56
498.741	4.61
499.09	4.63
499.438	4.63
499.787	4.63
500.135	4.62
500.484	4.63
500.832	4.65
501.181	4.69
501.529	4.72
501.878	4.76
502.226	4.76
502.574	4.74
502.923	4.76
503.271	4.76
503.619	4.77
503.967	4.76
504.315	4.76
504.663	4.75
505.011	4.74
505.359	4.73
505.707	4.73
506.055	4.7
506.403	4.69
506.751	4.68
507.098	4.68
507.446	4.68
507.794	4.7
508.141	4.73
508.489	4.71
508.837	4.69
509.184	4.67
509.531	4.68
509.879	4.68
510.226	4.69
510.574	4.72
510.921	4.74
511.268	4.76
511.616	4.77
511.963	4.79
512.31	4.8
512.657	4.8
513.004	4.8
513.351	4.82
513.698	4.85
514.045	4.84
514.392	4.85
514.739	4.85
515.086	4.85
515.432	4.84
515.779	4.87
516.126	4.92
516.473	4.9
516.819	4.89
517.166	4.9
517.512	4.9
517.859	4.9
518.205	4.87
518.552	4.88
518.898	4.88
519.245	4.87
519.591	4.9
519.937	4.92
520.283	4.96
520.629	4.93
520.976	4.9
521.322	4.94
521.668	4.94
522.014	4.94
522.36	4.92
522.706	4.91
523.052	4.93
523.398	4.91
523.743	4.92
524.089	4.92
524.435	4.93
524.781	4.9
525.126	4.89
525.472	4.91
525.817	4.91
526.163	4.92
526.509	4.92
526.854	4.93
527.199	4.94
527.545	4.93
527.89	4.94
528.235	4.95
528.581	4.97
528.926	4.97
529.271	4.97
529.616	4.97
529.961	4.98
530.306	4.95
530.651	4.96
530.996	4.97
531.341	4.97
531.686	4.97
532.031	5
532.376	5
532.721	5
533.065	5
533.41	5
533.755	5
534.099	5.01
534.444	4.99
534.788	4.98
535.133	4.99
535.477	5
535.822	4.96
536.166	4.97
536.51	4.98
536.855	4.99
537.199	4.98
537.543	5.01
537.887	5.01
538.231	5.02
538.576	5.02
538.92	5.03
539.264	5.04
539.608	5.04
539.951	5.03
540.295	5.05
540.639	5.06
540.983	5.07
541.327	5.06
541.671	5.08
542.014	5.09
542.358	5.08
542.701	5.08
543.045	5.08
543.389	5.08
543.732	5.08
544.075	5.09
544.419	5.08
544.762	5.07
545.105	5.09
545.449	5.08
545.792	5.08
546.135	5.08
546.478	5.04
546.821	5.07
547.165	5.09
547.508	5.08
547.851	5.07
548.194	5.05
548.536	5.07
548.879	5.07
549.222	5.08
549.565	5.06
549.908	5.06
550.25	5.06
550.593	5.07
550.936	5.07
551.278	5.05
551.621	5.05
551.963	5.09
552.306	5.07
552.648	5.1
552.991	5.12
553.333	5.12
553.675	5.14
554.017	5.15
554.36	5.15
554.702	5.14
555.044	5.15
555.386	5.16
555.728	5.12
556.07	5.09
556.412	5.09
556.754	5.11
557.096	5.13
557.438	5.1
557.78	5.09
558.121	5.11
558.463	5.13
558.805	5.15
559.147	5.12
559.488	5.12
559.83	5.11
560.171	5.08
560.513	5.07
560.854	5.1
561.196	5.11
561.537	5.07
561.878	5.09
562.22	5.08
562.561	5.1
562.902	5.13
563.243	5.17
563.584	5.18
563.925	5.2
564.266	5.21
564.607	5.24
564.948	5.23
565.289	5.18
565.63	5.14
565.971	5.15
566.312	5.14
566.653	5.14
566.993	5.15
567.334	5.17
567.675	5.18
568.015	5.16
568.356	5.14
568.696	5.16
569.037	5.16
569.377	5.15
569.718	5.15
570.058	5.14
570.398	5.14
570.739	5.14
571.079	5.11
571.419	5.09
571.759	5.11
572.099	5.09
572.439	5.16
572.779	5.18
573.119	5.16
573.459	5.17
573.799	5.17
574.139	5.17
574.479	5.16
574.819	5.19
575.158	5.19
575.498	5.18
575.838	5.16
576.177	5.18
576.517	5.22
576.856	5.22
577.196	5.2
577.535	5.17
577.875	5.18
578.214	5.2
578.553	5.2
578.893	5.19
579.232	5.24
579.571	5.23
579.91	5.24
580.25	5.27
580.589	5.27
580.928	5.26
581.267	5.26
581.606	5.29
581.945	5.26
582.283	5.29
582.622	5.28
582.961	5.3
583.3	5.32
583.639	5.3
583.977	5.28
584.316	5.31
584.654	5.32
584.993	5.34
585.332	5.35
585.67	5.39
586.008	5.41
586.347	5.41
586.685	5.33
587.024	5.31
587.362	5.28
587.7	5.29
588.038	5.33
588.376	5.34
588.715	5.32
589.053	5.32
589.391	5.31
589.729	5.31
590.067	5.35
590.404	5.33
590.742	5.31
591.08	5.3
591.418	5.28
591.756	5.32
592.093	5.34
592.431	5.33
592.769	5.3
593.106	5.33
593.444	5.31
593.781	5.35
594.119	5.35
594.456	5.38
594.793	5.36
595.131	5.37
595.468	5.39
595.805	5.42
596.143	5.41
596.48	5.43
596.817	5.46
597.154	5.41
597.491	5.43
597.828	5.45
598.165	5.48
598.502	5.49
598.839	5.44
599.176	5.41
599.512	5.39
599.849	5.39
600.186	5.37
600.523	5.4
600.859	5.42
601.196	5.43
601.532	5.41
601.869	5.45
602.205	5.42
602.542	5.38
602.878	5.35
603.215	5.36
603.551	5.34
603.887	5.31
604.223	5.29
604.56	5.25
604.896	5.24
605.232	5.21
605.568	5.2
605.904	5.25
606.24	5.23
606.576	5.28
606.912	5.29
607.248	5.32
607.583	5.31
607.919	5.33
608.255	5.33
608.591	5.37
608.926	5.37
609.262	5.38
609.597	5.4
609.933	5.43
610.268	5.43
610.604	5.47
610.939	5.47
611.275	5.5
611.61	5.53
611.945	5.54
612.281	5.57
612.616	5.6
612.951	5.61
613.286	5.64
613.621	5.63
613.956	5.64
614.291	5.61
614.626	5.57
614.961	5.54
615.296	5.58
615.631	5.58
615.966	5.54
616.3	5.58
616.635	5.57
616.97	5.55
617.304	5.5
617.639	5.45
617.973	5.41
618.308	5.44
618.642	5.39
618.977	5.39
619.311	5.38
619.646	5.35
619.98	5.33
620.314	5.31
620.648	5.3
620.983	5.27
621.317	5.26
621.651	5.28
621.985	5.32
622.319	5.27
622.653	5.25
622.987	5.32
623.321	5.25
623.655	5.29
623.988	5.31
624.322	5.38
624.656	5.39
624.99	5.46
625.323	5.43
625.657	5.51
625.99	5.5
626.324	5.52
626.657	5.52
626.991	5.51
627.324	5.56
627.658	5.57
627.991	5.58
628.324	5.54
628.657	5.52
628.991	5.5
629.324	5.53
629.657	5.52
629.99	5.5
630.323	5.52
630.656	5.45
630.989	5.44
631.322	5.45
631.655	5.45
631.987	5.43
632.32	5.41
632.653	5.37
632.986	5.38
633.318	5.36
633.651	5.43
633.984	5.45
634.316	5.38
634.649	5.35
634.981	5.38
635.313	5.46
635.646	5.46
635.978	5.46
636.31	5.45
636.643	5.44
636.975	5.45
637.307	5.47
637.639	5.52
637.971	5.49
638.303	5.45
638.635	5.47
638.967	5.49
639.299	5.58
639.631	5.58
639.963	5.56
640.295	5.58
640.626	5.55
640.958	5.52
641.29	5.65
641.621	5.69
641.953	5.67
642.285	5.65
642.616	5.69
642.948	5.74
643.279	5.7
643.61	5.75
643.942	5.73
644.273	5.83
644.604	5.86
644.936	5.9
645.267	5.89
645.598	5.85
645.929	5.82
646.26	5.78
646.591	5.83
646.922	5.92
647.253	5.88
647.584	5.92
647.915	5.96
648.245	5.9
648.576	5.92
648.907	5.93
649.238	5.88
649.568	5.95
649.899	5.92
650.229	6.01
650.56	6
650.89	6.06
651.221	5.94
651.551	5.92
651.882	5.9
652.212	5.96
652.542	6.03
652.872	6.05
653.203	6.04
653.533	6.03
653.863	5.98
654.193	5.97
654.523	5.88
654.853	5.89
655.183	5.92
655.513	5.97
655.843	5.99
656.172	6.06
656.502	5.96
656.832	5.98
657.162	5.92
657.491	5.92
657.821	5.87
658.15	5.93
658.48	6.01
658.809	6.01
659.139	6.01
659.468	5.97
659.798	5.94
660.127	5.96
660.456	6
660.785	5.99
661.115	6.09
661.444	6.19
661.773	6.2
662.102	6.09
662.431	6.08
662.76	6.07
663.089	6.17
663.418	6.24
663.747	6.29
664.076	6.36
664.404	6.35
664.733	6.32
665.062	6.33
665.39	6.28
665.719	6.36
666.048	6.28
666.376	6.36
666.705	6.46
667.033	6.41
667.362	6.38
667.69	6.33
668.018	6.29
668.347	6.2
668.675	6.1
669.003	6.15
669.331	6.2
669.659	6.22
669.987	6.1
670.315	6.05
670.643	6.04
670.971	6.06
671.299	6.04
671.627	6.06
671.955	6.04
672.283	6.02
672.61	6
672.938	6.09
673.266	6.02
673.593	5.96
673.921	6.01
674.249	6.02
674.576	6.18
674.904	6.09
675.231	6.18
675.558	6.36
675.886	6.41
676.213	6.26
676.54	6.28
676.867	6.34
677.195	6.43
677.522	6.39
