Data from BA17729_Reflection_00007.txt Node
Date: Tue Nov 19 11:50:47 EST 2019
User: vgr7
Spectrometer: USB2G7710
Scans to average: 3
Trigger mode: 4
Integration Time (sec): 2.000000E-2
Electric dark correction enabled: true
Boxcar width: 10
XAxis mode: Wavelengths
Number of Pixels in Spectrum: 2048
>>>>>Begin Spectral Data<<<<<
177.721	166.28
178.105	190.91
178.488	128
178.871	423.53
179.254	95.12
179.636	166.47
180.019	13.61
180.402	1033.33
180.785	63.38
181.168	79.08
181.55	81.94
181.933	84.03
182.316	63.08
182.698	34.83
183.081	14
183.463	-75.64
183.846	-114.46
184.228	-176.85
184.611	-184.29
184.993	-453.49
185.376	-5135.29
185.758	-341.06
186.14	-189.91
186.522	-154.17
186.904	-207.69
187.287	-240.31
187.669	-612
188.051	-2809.09
188.433	-308.45
188.815	-235.57
189.197	-517.02
189.579	226.48
189.961	202.24
190.342	219.12
190.724	-772.34
191.106	352.75
191.488	173.39
191.869	-13.46
192.251	-176.87
192.633	-482.89
193.014	-458.28
193.396	-384.66
193.777	-131.86
194.159	-100.89
194.54	-111.39
194.922	-208.62
195.303	-108
195.684	-194.46
196.065	-235.5
196.447	-166.53
196.828	-108.39
197.209	-49.95
197.59	-60.28
197.971	-64.92
198.352	-62.79
198.733	-51.82
199.114	-91.35
199.495	-92.64
199.876	-96.37
200.257	-55.19
200.638	-8.68
201.018	-18.26
201.399	-28.42
201.78	-25.7
202.16	-39.44
202.541	-41.9
202.922	-32.03
203.302	-59.92
203.683	-50.16
204.063	-49.23
204.444	-56.47
204.824	-96.17
205.204	-87.18
205.585	-27.5
205.965	-15.15
206.345	-48.23
206.725	-27.54
207.106	9.7
207.486	20.51
207.866	8.33
208.246	17.66
208.626	-3.14
209.006	-9.34
209.386	11.18
209.766	16.72
210.145	24.98
210.525	13.88
210.905	25.77
211.285	32.4
211.664	42.86
212.044	42.01
212.424	48.43
212.803	73.57
213.183	68.73
213.562	51.22
213.942	49.53
214.321	73.03
214.701	64.67
215.08	77.25
215.459	83.35
215.838	91.95
216.218	57.5
216.597	64.03
216.976	51.77
217.355	39.68
217.734	39.65
218.113	37.93
218.492	35.82
218.871	37.88
219.25	17.09
219.629	-25.78
220.008	-93
220.387	-172.99
220.766	-94.56
221.144	-80.42
221.523	-139.66
221.902	-112.18
222.28	-96.65
222.659	-41.44
223.037	-62.35
223.416	-54.8
223.794	-69.23
224.173	-69.17
224.551	-87
224.929	-76.07
225.308	-66.12
225.686	-57.27
226.064	-50.6
226.442	-38.75
226.821	-33.75
227.199	-27.04
227.577	-15.73
227.955	-11.04
228.333	-7.15
228.711	-7.12
229.089	-3.89
229.467	-6.86
229.845	-5.66
230.222	-7.27
230.6	-12.58
230.978	-10.71
231.356	-10.96
231.733	-9.47
232.111	-6.08
232.488	-2.71
232.866	0.49
233.243	0.23
233.621	1.97
233.998	-0.12
234.376	0.72
234.753	0.35
235.13	1.7
235.508	3.27
235.885	2.24
236.262	2.57
236.639	-1.71
237.016	-2.12
237.393	-0.05
237.77	-0.73
238.147	0.59
238.524	3.14
238.901	2.46
239.278	2.34
239.655	2.53
240.032	2.05
240.409	2.26
240.785	2.4
241.162	2.28
241.539	2.42
241.915	2.86
242.292	3.13
242.668	3.57
243.045	3.89
243.421	3.88
243.798	4.54
244.174	4.67
244.551	5.06
244.927	4.89
245.303	4.81
245.679	4.78
246.056	4.65
246.432	4.34
246.808	4.66
247.184	4.81
247.56	4.81
247.936	5.32
248.312	5.37
248.688	5.39
249.064	5.83
249.44	5.71
249.815	5.84
250.191	5.97
250.567	5.62
250.943	5.6
251.318	5.32
251.694	5.01
252.069	5.04
252.445	5.17
252.82	5.7
253.196	5.69
253.571	5.82
253.947	5.59
254.322	5.43
254.697	5.39
255.073	5.23
255.448	5.18
255.823	4.76
256.198	4.85
256.573	4.94
256.948	4.75
257.323	5.12
257.698	5.15
258.073	4.86
258.448	4.96
258.823	4.93
259.198	5.23
259.573	5.29
259.948	5.26
260.322	5.11
260.697	4.96
261.072	5.05
261.446	5.06
261.821	5.2
262.195	5.07
262.57	5.05
262.944	5.03
263.319	5.14
263.693	5.2
264.067	5.12
264.442	5.03
264.816	5.05
265.19	4.88
265.564	4.62
265.938	5.09
266.313	5.28
266.687	5.34
267.061	5.29
267.435	5.34
267.809	5.17
268.183	5.17
268.556	5.17
268.93	5.24
269.304	5.24
269.678	5.37
270.051	5.53
270.425	5.63
270.799	5.47
271.172	5.37
271.546	5.33
271.919	5.31
272.293	5.47
272.666	5.37
273.04	5.43
273.413	5.56
273.787	5.4
274.16	5.29
274.533	5.1
274.906	5.06
275.279	4.87
275.653	4.9
276.026	5.07
276.399	5.03
276.772	4.94
277.145	4.86
277.518	4.7
277.891	4.94
278.263	4.91
278.636	5.23
279.009	5.27
279.382	5.19
279.755	5.08
280.127	5.2
280.5	5.18
280.872	5.22
281.245	5.22
281.617	5.24
281.99	5.25
282.362	5.44
282.735	5.47
283.107	5.58
283.479	5.75
283.852	5.76
284.224	5.85
284.596	5.77
284.968	5.83
285.34	5.99
285.713	5.87
286.085	5.83
286.457	5.76
286.829	5.76
287.201	5.85
287.572	5.91
287.944	5.67
288.316	5.79
288.688	5.76
289.06	5.83
289.431	5.9
289.803	6
290.175	5.93
290.546	5.96
290.918	6.08
291.289	6.06
291.661	6.01
292.032	6.07
292.403	6.17
292.775	6.27
293.146	6.18
293.517	6.26
293.889	6.31
294.26	6.33
294.631	6.35
295.002	6.34
295.373	6.46
295.744	6.65
296.115	6.62
296.486	6.55
296.857	6.64
297.228	6.5
297.599	6.48
297.97	6.68
298.34	6.66
298.711	6.74
299.082	6.75
299.452	6.8
299.823	6.86
300.194	6.95
300.564	6.85
300.935	6.97
301.305	6.92
301.676	6.82
302.046	6.8
302.416	6.88
302.787	6.95
303.157	7
303.527	7.23
303.897	7.29
304.267	7.38
304.637	7.19
305.008	7.37
305.378	7.49
305.748	7.34
306.117	7.34
306.487	7.39
306.857	7.34
307.227	7.51
307.597	7.48
307.967	7.52
308.336	7.57
308.706	7.56
309.076	7.68
309.445	7.86
309.815	8.03
310.184	8.04
310.554	8.14
310.923	8.26
311.293	8.12
311.662	8.23
312.031	8.23
312.401	8.41
312.77	8.32
313.139	8.36
313.508	8.45
313.877	8.52
314.246	8.4
314.616	8.57
314.985	8.36
315.353	8.3
315.722	8.29
316.091	8.27
316.46	8.27
316.829	8.25
317.198	8.35
317.567	8.42
317.935	8.49
318.304	8.41
318.672	8.23
319.041	8.17
319.41	7.95
319.778	8.04
320.147	7.95
320.515	8.23
320.883	8
321.252	7.87
321.62	7.97
321.988	8.26
322.357	8.2
322.725	8.45
323.093	8.5
323.461	8.58
323.829	8.82
324.197	8.83
324.565	8.83
324.933	8.7
325.301	8.53
325.669	8.43
326.037	8.51
326.405	8.51
326.772	8.6
327.14	8.68
327.508	8.77
327.875	8.92
328.243	8.79
328.61	9.06
328.978	9.06
329.346	8.98
329.713	8.99
330.08	9.04
330.448	8.87
330.815	8.91
331.182	8.87
331.55	8.94
331.917	9.09
332.284	9
332.651	9.14
333.018	9.34
333.385	9.53
333.752	9.48
334.119	9.55
334.486	9.51
334.853	9.46
335.22	9.49
335.587	9.46
335.954	9.41
336.32	9.3
336.687	9.46
337.054	9.47
337.42	9.43
337.787	9.49
338.153	9.6
338.52	9.62
338.886	9.7
339.253	9.66
339.619	9.72
339.986	9.93
340.352	9.91
340.718	9.85
341.084	9.84
341.451	10
341.817	10.13
342.183	10.3
342.549	10.39
342.915	10.41
343.281	10.45
343.647	10.56
344.013	10.68
344.379	10.64
344.745	10.6
345.11	10.5
345.476	10.58
345.842	10.69
346.208	10.68
346.573	10.61
346.939	10.53
347.304	10.55
347.67	10.4
348.035	10.33
348.401	10.33
348.766	10.3
349.132	10.31
349.497	10.26
349.862	10.13
350.228	10.15
350.593	10.14
350.958	10.18
351.323	10.2
351.688	10.28
352.053	10.27
352.418	10.53
352.783	10.64
353.148	10.49
353.513	10.38
353.878	10.37
354.243	10.38
354.608	10.45
354.972	10.35
355.337	10.34
355.702	10.37
356.066	10.33
356.431	10.33
356.795	10.28
357.16	10.25
357.524	10.23
357.889	10.24
358.253	10.23
358.618	10.1
358.982	10.07
359.346	9.96
359.71	9.94
360.075	9.9
360.439	9.82
360.803	9.97
361.167	9.96
361.531	9.97
361.895	9.91
362.259	9.87
362.623	9.93
362.987	9.89
363.351	9.88
363.714	9.92
364.078	9.9
364.442	9.79
364.806	9.75
365.169	9.77
365.533	9.73
365.896	9.67
366.26	9.65
366.623	9.56
366.987	9.54
367.35	9.53
367.714	9.34
368.077	9.29
368.44	9.15
368.803	9.11
369.167	9.05
369.53	9.03
369.893	8.95
370.256	8.83
370.619	8.8
370.982	8.72
371.345	8.65
371.708	8.61
372.071	8.6
372.434	8.51
372.797	8.48
373.159	8.42
373.522	8.4
373.885	8.43
374.247	8.43
374.61	8.4
374.973	8.37
375.335	8.37
375.698	8.39
376.06	8.34
376.423	8.33
376.785	8.32
377.147	8.31
377.51	8.28
377.872	8.23
378.234	8.22
378.596	8.2
378.958	8.17
379.321	8.13
379.683	8.14
380.045	8.14
380.407	8.07
380.769	8.02
381.13	7.99
381.492	7.94
381.854	7.95
382.216	7.88
382.578	7.91
382.939	7.89
383.301	7.81
383.663	7.83
384.024	7.74
384.386	7.69
384.747	7.65
385.109	7.69
385.47	7.72
385.832	7.7
386.193	7.7
386.554	7.65
386.916	7.63
387.277	7.58
387.638	7.58
387.999	7.53
388.36	7.54
388.721	7.51
389.082	7.47
389.443	7.45
389.804	7.43
390.165	7.34
390.526	7.27
390.887	7.23
391.248	7.14
391.609	7.14
391.969	7.1
392.33	7.03
392.691	6.96
393.051	6.88
393.412	6.87
393.772	6.83
394.133	6.82
394.493	6.76
394.854	6.76
395.214	6.74
395.574	6.71
395.935	6.7
396.295	6.67
396.655	6.65
397.015	6.59
397.376	6.59
397.736	6.56
398.096	6.6
398.456	6.59
398.816	6.55
399.176	6.51
399.535	6.52
399.895	6.53
400.255	6.48
400.615	6.5
400.975	6.44
401.334	6.43
401.694	6.37
402.054	6.38
402.413	6.33
402.773	6.3
403.132	6.26
403.492	6.22
403.851	6.23
404.211	6.2
404.57	6.21
404.929	6.16
405.288	6.19
405.648	6.18
406.007	6.16
406.366	6.16
406.725	6.16
407.084	6.15
407.443	6.13
407.802	6.16
408.161	6.12
408.52	6.13
408.879	6.13
409.238	6.13
409.596	6.1
409.955	6.08
410.314	6.05
410.673	6.07
411.031	6.04
411.39	5.99
411.748	6.01
412.107	5.98
412.465	5.97
412.824	5.9
413.182	5.87
413.54	5.87
413.899	5.88
414.257	5.86
414.615	5.82
414.974	5.81
415.332	5.77
415.69	5.73
416.048	5.72
416.406	5.67
416.764	5.65
417.122	5.62
417.48	5.61
417.838	5.61
418.195	5.6
418.553	5.59
418.911	5.6
419.269	5.58
419.626	5.55
419.984	5.54
420.342	5.54
420.699	5.52
421.057	5.51
421.414	5.5
421.772	5.47
422.129	5.48
422.486	5.48
422.844	5.48
423.201	5.5
423.558	5.48
423.915	5.48
424.273	5.47
424.63	5.49
424.987	5.49
425.344	5.49
425.701	5.48
426.058	5.47
426.415	5.45
426.772	5.43
427.128	5.44
427.485	5.43
427.842	5.42
428.199	5.43
428.555	5.44
428.912	5.42
429.269	5.4
429.625	5.4
429.982	5.38
430.338	5.35
430.695	5.33
431.051	5.32
431.407	5.34
431.764	5.34
432.12	5.36
432.476	5.36
432.832	5.34
433.189	5.34
433.545	5.33
433.901	5.34
434.257	5.34
434.613	5.32
434.969	5.31
435.325	5.32
435.681	5.29
436.036	5.28
436.392	5.27
436.748	5.29
437.104	5.3
437.459	5.3
437.815	5.31
438.171	5.3
438.526	5.29
438.882	5.27
439.237	5.28
439.593	5.26
439.948	5.25
440.304	5.25
440.659	5.26
441.014	5.26
441.369	5.26
441.725	5.26
442.08	5.25
442.435	5.24
442.79	5.22
443.145	5.23
443.5	5.21
443.855	5.22
444.21	5.21
444.565	5.18
444.92	5.18
445.275	5.16
445.629	5.14
445.984	5.13
446.339	5.11
446.693	5.1
447.048	5.08
447.403	5.05
447.757	5.02
448.112	5
448.466	5
448.82	4.98
449.175	4.98
449.529	4.99
449.883	4.98
450.238	4.98
450.592	4.97
450.946	4.97
451.3	4.95
451.654	4.94
452.008	4.96
452.362	4.94
452.716	4.95
453.07	4.95
453.424	4.96
453.778	4.97
454.132	4.97
454.486	4.97
454.839	4.99
455.193	5.01
455.547	5.02
455.9	5.01
456.254	5.02
456.607	5.02
456.961	5.02
457.314	5.04
457.668	5.03
458.021	5.04
458.375	5.05
458.728	5.05
459.081	5.06
459.434	5.06
459.787	5.07
460.141	5.09
460.494	5.11
460.847	5.11
461.2	5.11
461.553	5.12
461.906	5.14
462.259	5.12
462.611	5.12
462.964	5.14
463.317	5.13
463.67	5.16
464.022	5.14
464.375	5.15
464.728	5.15
465.08	5.17
465.433	5.18
465.785	5.2
466.138	5.21
466.49	5.24
466.843	5.25
467.195	5.27
467.547	5.27
467.899	5.28
468.252	5.32
468.604	5.31
468.956	5.33
469.308	5.3
469.66	5.33
470.012	5.37
470.364	5.38
470.716	5.41
471.068	5.39
471.42	5.42
471.772	5.42
472.123	5.43
472.475	5.44
472.827	5.42
473.178	5.43
473.53	5.44
473.882	5.42
474.233	5.4
474.585	5.4
474.936	5.42
475.288	5.41
475.639	5.39
475.99	5.39
476.342	5.39
476.693	5.39
477.044	5.39
477.395	5.35
477.746	5.36
478.097	5.34
478.448	5.31
478.8	5.29
479.15	5.26
479.501	5.24
479.852	5.23
480.203	5.23
480.554	5.22
480.905	5.22
481.255	5.22
481.606	5.22
481.957	5.22
482.307	5.22
482.658	5.23
483.009	5.24
483.359	5.24
483.709	5.24
484.06	5.27
484.41	5.28
484.761	5.29
485.111	5.29
485.461	5.31
485.811	5.32
486.162	5.33
486.512	5.35
486.862	5.36
487.212	5.38
487.562	5.4
487.912	5.41
488.262	5.42
488.612	5.44
488.961	5.45
489.311	5.46
489.661	5.48
490.011	5.49
490.36	5.51
490.71	5.53
491.06	5.55
491.409	5.54
491.759	5.56
492.108	5.57
492.458	5.58
492.807	5.57
493.157	5.6
493.506	5.64
493.855	5.66
494.204	5.67
494.554	5.68
494.903	5.71
495.252	5.74
495.601	5.77
495.95	5.81
496.299	5.84
496.648	5.88
496.997	5.93
497.346	5.98
497.695	6.01
498.043	6.07
498.392	6.11
498.741	6.16
499.09	6.21
499.438	6.28
499.787	6.33
500.135	6.42
500.484	6.46
500.832	6.51
501.181	6.56
501.529	6.67
501.878	6.75
502.226	6.81
502.574	6.85
502.923	6.9
503.271	6.96
503.619	7
503.967	7.04
504.315	7.09
504.663	7.11
505.011	7.15
505.359	7.17
505.707	7.2
506.055	7.28
506.403	7.34
506.751	7.37
507.098	7.46
507.446	7.49
507.794	7.56
508.141	7.61
508.489	7.67
508.837	7.71
509.184	7.74
509.531	7.79
509.879	7.85
510.226	7.9
510.574	7.96
510.921	8.03
511.268	8.08
511.616	8.14
511.963	8.24
512.31	8.34
512.657	8.41
513.004	8.47
513.351	8.51
513.698	8.57
514.045	8.65
514.392	8.71
514.739	8.79
515.086	8.84
515.432	8.92
515.779	8.99
516.126	9.06
516.473	9.14
516.819	9.2
517.166	9.28
517.512	9.36
517.859	9.43
518.205	9.49
518.552	9.59
518.898	9.64
519.245	9.69
519.591	9.74
519.937	9.8
520.283	9.89
520.629	9.97
520.976	10.05
521.322	10.1
521.668	10.16
522.014	10.25
522.36	10.35
522.706	10.43
523.052	10.56
523.398	10.66
523.743	10.78
524.089	10.92
524.435	11.03
524.781	11.15
525.126	11.24
525.472	11.35
525.817	11.4
526.163	11.49
526.509	11.57
526.854	11.64
527.199	11.71
527.545	11.78
527.89	11.86
528.235	11.93
528.581	12.01
528.926	12.08
529.271	12.17
529.616	12.25
529.961	12.34
530.306	12.42
530.651	12.52
530.996	12.61
531.341	12.7
531.686	12.82
532.031	12.91
532.376	13.03
532.721	13.13
533.065	13.28
533.41	13.4
533.755	13.54
534.099	13.67
534.444	13.81
534.788	13.96
535.133	14.1
535.477	14.23
535.822	14.38
536.166	14.57
536.51	14.72
536.855	14.9
537.199	15.05
537.543	15.22
537.887	15.4
538.231	15.59
538.576	15.79
538.92	15.94
539.264	16.09
539.608	16.27
539.951	16.44
540.295	16.58
540.639	16.73
540.983	16.88
541.327	17.04
541.671	17.2
542.014	17.35
542.358	17.47
542.701	17.63
543.045	17.79
543.389	17.95
543.732	18.11
544.075	18.28
544.419	18.47
544.762	18.66
545.105	18.85
545.449	19.03
545.792	19.24
546.135	19.46
546.478	19.69
546.821	19.93
547.165	20.18
547.508	20.44
547.851	20.74
548.194	20.97
548.536	21.22
548.879	21.46
549.222	21.69
549.565	21.96
549.908	22.28
550.25	22.53
550.593	22.74
550.936	23
551.278	23.27
551.621	23.52
551.963	23.83
552.306	24.07
552.648	24.34
552.991	24.59
553.333	24.85
553.675	25.09
554.017	25.31
554.36	25.54
554.702	25.76
555.044	25.9
555.386	26.17
555.728	26.46
556.07	26.73
556.412	26.99
556.754	27.27
557.096	27.54
557.438	27.84
557.78	28.14
558.121	28.42
558.463	28.71
558.805	29.02
559.147	29.24
559.488	29.48
559.83	29.75
560.171	29.99
560.513	30.27
560.854	30.53
561.196	30.76
561.537	31.06
561.878	31.36
562.22	31.61
562.561	31.82
562.902	32.02
563.243	32.25
563.584	32.52
563.925	32.74
564.266	32.9
564.607	33.05
564.948	33.22
565.289	33.43
565.63	33.56
565.971	33.76
566.312	33.91
566.653	34.13
566.993	34.29
567.334	34.53
567.675	34.69
568.015	34.91
568.356	35.12
568.696	35.28
569.037	35.42
569.377	35.62
569.718	35.78
570.058	35.95
570.398	36.17
570.739	36.32
571.079	36.51
571.419	36.64
571.759	36.9
572.099	37.06
572.439	37.19
572.779	37.35
573.119	37.53
573.459	37.73
573.799	37.86
574.139	38.05
574.479	38.16
574.819	38.33
575.158	38.47
575.498	38.59
575.838	38.79
576.177	38.97
576.517	39.14
576.856	39.36
577.196	39.52
577.535	39.62
577.875	39.78
578.214	39.98
578.553	40.22
578.893	40.28
579.232	40.46
579.571	40.7
579.91	40.93
580.25	41
580.589	41.14
580.928	41.26
581.267	41.43
581.606	41.63
581.945	41.8
582.283	41.97
582.622	42.11
582.961	42.12
583.3	42.24
583.639	42.4
583.977	42.46
584.316	42.61
584.654	42.7
584.993	42.89
585.332	42.91
585.67	42.98
586.008	43.1
586.347	43.24
586.685	43.26
587.024	43.34
587.362	43.48
587.7	43.57
588.038	43.83
588.376	43.94
588.715	44.01
589.053	44.02
589.391	44.05
589.729	44.17
590.067	44.36
590.404	44.45
590.742	44.54
591.08	44.69
591.418	44.88
591.756	45
592.093	45
592.431	45.16
592.769	45.26
593.106	45.35
593.444	45.45
593.781	45.59
594.119	45.72
594.456	45.82
594.793	45.88
595.131	45.82
595.468	45.81
595.805	45.88
596.143	45.98
596.48	46.11
596.817	46.22
597.154	46.24
597.491	46.24
597.828	46.25
598.165	46.28
598.502	46.22
598.839	46.27
599.176	46.46
599.512	46.52
599.849	46.59
600.186	46.65
600.523	46.67
600.859	46.69
601.196	46.69
601.532	46.67
601.869	46.77
602.205	46.85
602.542	46.94
602.878	46.99
603.215	47.01
603.551	46.99
603.887	47.01
604.223	47.08
604.56	47.19
604.896	47.27
605.232	47.28
605.568	47.34
605.904	47.31
606.24	47.26
606.576	47.27
606.912	47.31
607.248	47.44
607.583	47.55
607.919	47.58
608.255	47.61
608.591	47.71
608.926	47.75
609.262	47.81
609.597	47.86
609.933	47.86
610.268	47.92
610.604	48
610.939	48.04
611.275	48.09
611.61	48.09
611.945	48.14
612.281	48.29
612.616	48.44
612.951	48.63
613.286	48.74
613.621	48.84
613.956	48.83
614.291	48.82
614.626	48.86
614.961	48.99
615.296	49.11
615.631	49.2
615.966	49.21
616.3	49.24
616.635	49.31
616.97	49.44
617.304	49.53
617.639	49.52
617.973	49.54
618.308	49.53
618.642	49.58
618.977	49.52
619.311	49.48
619.646	49.46
619.98	49.5
620.314	49.47
620.648	49.49
620.983	49.56
621.317	49.65
621.651	49.68
621.985	49.65
622.319	49.59
622.653	49.64
622.987	49.61
623.321	49.72
623.655	49.74
623.988	49.77
624.322	49.88
624.656	49.94
624.99	49.87
625.323	49.9
625.657	49.91
625.99	50
626.324	49.99
626.657	49.95
626.991	49.93
627.324	49.96
627.658	49.94
627.991	50
628.324	49.94
628.657	49.95
628.991	50.03
629.324	50.17
629.657	50.17
629.99	50.24
630.323	50.21
630.656	50.21
630.989	50.27
631.322	50.19
631.655	50.16
631.987	50.33
632.32	50.33
632.653	50.35
632.986	50.38
633.318	50.48
633.651	50.49
633.984	50.47
634.316	50.51
634.649	50.54
634.981	50.46
635.313	50.56
635.646	50.57
635.978	50.58
636.31	50.52
636.643	50.48
636.975	50.61
637.307	50.57
637.639	50.67
637.971	50.56
638.303	50.54
638.635	50.6
638.967	50.63
639.299	50.71
639.631	50.9
639.963	51.06
640.295	51.06
640.626	51.18
640.958	51.26
641.29	51.2
641.621	51.22
641.953	51.31
642.285	51.31
642.616	51.29
642.948	51.39
643.279	51.31
643.61	51.43
643.942	51.36
644.273	51.47
644.604	51.37
644.936	51.45
645.267	51.52
645.598	51.5
645.929	51.44
646.26	51.41
646.591	51.28
646.922	51.07
647.253	51.03
647.584	51.02
647.915	51
648.245	51.08
648.576	51
648.907	51.05
649.238	51.03
649.568	51.13
649.899	51
650.229	51.2
650.56	51.14
650.89	51.07
651.221	51.13
651.551	51.13
651.882	51.15
652.212	51.15
652.542	51.25
652.872	51.26
653.203	51.16
653.533	51.18
653.863	51.23
654.193	51.21
654.523	51.12
654.853	51.23
655.183	51.32
655.513	51.46
655.843	51.36
656.172	51.41
656.502	51.25
656.832	51.3
657.162	51.26
657.491	51.32
657.821	51.46
658.15	51.41
658.48	51.36
658.809	51.32
659.139	51.28
659.468	51.31
659.798	51.35
660.127	51.35
660.456	51.19
660.785	51.22
661.115	51.27
661.444	51.31
661.773	51.19
662.102	51.2
662.431	51.21
662.76	51.27
663.089	51.22
663.418	51.38
663.747	51.39
664.076	51.21
664.404	51.26
664.733	51.18
665.062	51.14
665.39	51.25
665.719	51.33
666.048	51.3
666.376	51.27
