Data from BA17718_Reflection_00013.txt Node
Date: Tue Nov 19 11:47:53 EST 2019
User: vgr7
Spectrometer: USB2G7710
Scans to average: 3
Trigger mode: 4
Integration Time (sec): 2.000000E-2
Electric dark correction enabled: true
Boxcar width: 10
XAxis mode: Wavelengths
Number of Pixels in Spectrum: 2048
>>>>>Begin Spectral Data<<<<<
177.721	70.43
178.105	63.5
178.488	15.9
178.871	61.06
179.254	180
179.636	-2163.16
180.019	125.18
180.402	15.38
180.785	-60
181.168	-25.33
181.55	45.86
181.933	98.82
182.316	98.81
182.698	98.98
183.081	57.98
183.463	71.66
183.846	104.97
184.228	168.41
184.611	232.31
184.993	695.45
185.376	-1757.14
185.758	-800.83
186.14	-2812.5
186.522	-1275
186.904	-1628.57
187.287	2241.51
187.669	-11700
188.051	-6081.82
188.433	1756.63
188.815	-5775
189.197	-1745.74
189.579	-587.96
189.961	-382.23
190.342	-316.83
190.724	-273.03
191.106	-249.25
191.488	-215.18
191.869	-224.36
192.251	-202.66
192.633	-232.86
193.014	-232.81
193.396	-315.72
193.777	-289.78
194.159	-257.55
194.54	-217.05
194.922	-200.6
195.303	-192.7
195.684	-267.67
196.065	-227.92
196.447	-168.7
196.828	-126.68
197.209	-115.03
197.59	-91.19
197.971	-88.15
198.352	-79.98
198.733	-72.71
199.114	-77.63
199.495	-79.43
199.876	-64.58
200.257	-57.66
200.638	-46.09
201.018	-68
201.399	-53.78
201.78	-38.77
202.16	-60
202.541	-81.26
202.922	-60.99
203.302	-54.09
203.683	-59.17
204.063	-52.86
204.444	-53.78
204.824	-79.79
205.204	-83.7
205.585	-80.43
205.965	-125.98
206.345	-140.26
206.725	-147.36
207.106	-155.34
207.486	-128.24
207.866	-174.02
208.246	-167
208.626	-346.72
209.006	-364.29
209.386	-296.17
209.766	-738.46
210.145	-220.05
210.525	-211.27
210.905	-222.88
211.285	-187.6
211.664	-172.5
212.044	-196.39
212.424	-186.41
212.803	-145.66
213.183	-192.86
213.562	-385.71
213.942	-141.33
214.321	-109.17
214.701	-98.34
215.08	-156.68
215.459	-152.01
215.838	-89.34
216.218	-153.1
216.597	-101.77
216.976	-94.87
217.355	-119.11
217.734	-138.88
218.113	-134.15
218.492	-112.94
218.871	-134.4
219.25	-151.25
219.629	-156.86
220.008	-162.34
220.387	-174.42
220.766	-198.43
221.144	-146.77
221.523	-132.75
221.902	-122.57
222.28	-127.97
222.659	-77.57
223.037	-67.84
223.416	-76.02
223.794	-61.02
224.173	-63.61
224.551	-51.02
224.929	-54.75
225.308	-46.14
225.686	-29.26
226.064	-35.53
226.442	-30.38
226.821	-28.54
227.199	-24.89
227.577	-28.49
227.955	-17.45
228.333	-25.19
228.711	-15.74
229.089	-17.96
229.467	-15.61
229.845	-18
230.222	-20.77
230.6	-25.74
230.978	-22.23
231.356	-22.02
231.733	-25.62
232.111	-24.22
232.488	-24.86
232.866	-19.02
233.243	-15.73
233.621	-17.35
233.998	-13.29
234.376	-13.21
234.753	-12.51
235.13	-12.93
235.508	-10.7
235.885	-12.88
236.262	-11.36
236.639	-11.39
237.016	-11.18
237.393	-10.04
237.77	-8
238.147	-6.6
238.524	-5.08
238.901	-4.43
239.278	-2.31
239.655	-2.63
240.032	-0.91
240.409	-0.2
240.785	0.03
241.162	-0.15
241.539	-0.58
241.915	-1.07
242.292	-0.58
242.668	0.22
243.045	1.08
243.421	1.78
243.798	2.63
244.174	2.72
244.551	2.99
244.927	3.32
245.303	3.36
245.679	3.57
246.056	3.9
246.432	4.09
246.808	4.32
247.184	4.23
247.56	4.55
247.936	4.23
248.312	4.39
248.688	4.48
249.064	4.55
249.44	4.95
249.815	5.12
250.191	5.1
250.567	4.76
250.943	4.69
251.318	4.39
251.694	3.97
252.069	4.08
252.445	3.83
252.82	4.07
253.196	4.08
253.571	4.14
253.947	4
254.322	3.65
254.697	3.43
255.073	3.22
255.448	2.78
255.823	3.22
256.198	3.11
256.573	3.29
256.948	3.28
257.323	3.32
257.698	3.4
258.073	3.45
258.448	3.86
258.823	3.73
259.198	3.8
259.573	3.69
259.948	3.7
260.322	3.81
260.697	3.66
261.072	3.59
261.446	3.49
261.821	3.42
262.195	3.68
262.57	3.73
262.944	3.72
263.319	3.91
263.693	3.82
264.067	3.69
264.442	3.39
264.816	3.33
265.19	3.32
265.564	3.16
265.938	2.91
266.313	2.65
266.687	2.7
267.061	2.98
267.435	3.33
267.809	3.26
268.183	3.3
268.556	3.24
268.93	3.39
269.304	3.26
269.678	3.11
270.051	3.03
270.425	2.98
270.799	2.89
271.172	2.82
271.546	2.92
271.919	2.98
272.293	3.09
272.666	3.23
273.04	3.15
273.413	3.18
273.787	3.4
274.16	3.41
274.533	3.51
274.906	3.36
275.279	3.22
275.653	3.27
276.026	3.15
276.399	3.28
276.772	3.21
277.145	3.36
277.518	3.37
277.891	3.38
278.263	3.47
278.636	3.77
279.009	3.92
279.382	3.67
279.755	3.74
280.127	3.68
280.5	3.59
280.872	3.87
281.245	4.04
281.617	4.02
281.99	3.98
282.362	3.98
282.735	3.83
283.107	3.81
283.479	3.82
283.852	3.92
284.224	3.94
284.596	3.89
284.968	3.91
285.34	4.08
285.713	3.97
286.085	4.05
286.457	3.91
286.829	3.9
287.201	3.94
287.572	3.98
287.944	4.11
288.316	4.07
288.688	3.79
289.06	3.78
289.431	3.76
289.803	3.8
290.175	3.71
290.546	3.76
290.918	3.76
291.289	3.64
291.661	3.64
292.032	3.63
292.403	3.89
292.775	3.83
293.146	3.7
293.517	3.9
293.889	3.79
294.26	3.79
294.631	3.92
295.002	3.96
295.373	3.88
295.744	3.81
296.115	3.85
296.486	4.02
296.857	4
297.228	3.98
297.599	4
297.97	4.11
298.34	4.3
298.711	4.41
299.082	4.57
299.452	4.58
299.823	4.47
300.194	4.32
300.564	4.28
300.935	4.34
301.305	4.09
301.676	4.11
302.046	4.11
302.416	4.08
302.787	4.09
303.157	4.08
303.527	4.21
303.897	4.17
304.267	4.21
304.637	4.04
305.008	4.09
305.378	4.29
305.748	4.15
306.117	4
306.487	3.92
306.857	4.06
307.227	4.15
307.597	4.29
307.967	4.36
308.336	4.32
308.706	4.48
309.076	4.66
309.445	4.83
309.815	4.94
310.184	4.8
310.554	4.82
310.923	4.86
311.293	4.69
311.662	4.78
312.031	4.71
312.401	4.79
312.77	4.67
313.139	4.48
313.508	4.56
313.877	4.5
314.246	4.53
314.616	4.35
314.985	4.24
315.353	4.16
315.722	4.15
316.091	4.2
316.46	4.14
316.829	4.3
317.198	4.27
317.567	4.47
317.935	4.55
318.304	4.65
318.672	4.85
319.041	5.08
319.41	4.86
319.778	5.02
320.147	5.13
320.515	5.33
320.883	5.2
321.252	5.36
321.62	5.35
321.988	5.36
322.357	5.38
322.725	5.48
323.093	5.4
323.461	5.42
323.829	5.64
324.197	5.76
324.565	5.75
324.933	5.66
325.301	5.45
325.669	5.54
326.037	5.5
326.405	5.43
326.772	5.37
327.14	5.5
327.508	5.34
327.875	5.31
328.243	5.26
328.61	5.43
328.978	5.31
329.346	5.4
329.713	5.55
330.08	5.72
330.448	5.64
330.815	5.8
331.182	5.71
331.55	5.71
331.917	5.6
332.284	5.44
332.651	5.32
333.018	5.39
333.385	5.4
333.752	5.37
334.119	5.28
334.486	5.31
334.853	5.25
335.22	5.28
335.587	5.23
335.954	5.23
336.32	5.03
336.687	5.11
337.054	5.21
337.42	5.09
337.787	4.99
338.153	5.05
338.52	5.06
338.886	5.16
339.253	4.94
339.619	4.9
339.986	4.78
340.352	4.88
340.718	4.92
341.084	4.94
341.451	4.96
341.817	4.99
342.183	5.04
342.549	5.16
342.915	5.3
343.281	5.39
343.647	5.44
344.013	5.7
344.379	5.69
344.745	5.62
345.11	5.7
345.476	5.69
345.842	5.65
346.208	5.62
346.573	5.59
346.939	5.66
347.304	5.74
347.67	5.96
348.035	6.07
348.401	5.97
348.766	5.92
349.132	5.94
349.497	6.07
349.862	6.03
350.228	5.95
350.593	5.89
350.958	5.97
351.323	5.88
351.688	5.75
352.053	5.76
352.418	5.83
352.783	5.73
353.148	5.65
353.513	5.69
353.878	5.7
354.243	5.7
354.608	5.77
354.972	5.66
355.337	5.56
355.702	5.47
356.066	5.56
356.431	5.55
356.795	5.53
357.16	5.42
357.524	5.42
357.889	5.44
358.253	5.4
358.618	5.32
358.982	5.29
359.346	5.31
359.71	5.29
360.075	5.3
360.439	5.39
360.803	5.47
361.167	5.4
361.531	5.44
361.895	5.49
362.259	5.54
362.623	5.64
362.987	5.63
363.351	5.6
363.714	5.58
364.078	5.52
364.442	5.47
364.806	5.48
365.169	5.5
365.533	5.54
365.896	5.58
366.26	5.55
366.623	5.59
366.987	5.61
367.35	5.59
367.714	5.47
368.077	5.38
368.44	5.36
368.803	5.39
369.167	5.33
369.53	5.3
369.893	5.21
370.256	5.12
370.619	5.13
370.982	5.07
371.345	5.07
371.708	5.07
372.071	5.08
372.434	5.06
372.797	5
373.159	4.94
373.522	4.94
373.885	4.9
374.247	4.85
374.61	4.79
374.973	4.76
375.335	4.75
375.698	4.64
376.06	4.62
376.423	4.6
376.785	4.59
377.147	4.53
377.51	4.55
377.872	4.52
378.234	4.52
378.596	4.47
378.958	4.4
379.321	4.38
379.683	4.42
380.045	4.39
380.407	4.4
380.769	4.38
381.13	4.33
381.492	4.31
381.854	4.3
382.216	4.31
382.578	4.28
382.939	4.26
383.301	4.31
383.663	4.31
384.024	4.29
384.386	4.31
384.747	4.32
385.109	4.29
385.47	4.28
385.832	4.17
386.193	4.24
386.554	4.23
386.916	4.24
387.277	4.13
387.638	4.16
387.999	4.12
388.36	4.12
388.721	4.07
389.082	4.09
389.443	4.12
389.804	4.11
390.165	4.05
390.526	4.09
390.887	4.1
391.248	4.04
391.609	4.03
391.969	3.99
392.33	3.99
392.691	3.93
393.051	3.91
393.412	3.92
393.772	3.93
394.133	3.88
394.493	3.85
394.854	3.89
395.214	3.85
395.574	3.83
395.935	3.8
396.295	3.82
396.655	3.81
397.015	3.78
397.376	3.73
397.736	3.76
398.096	3.72
398.456	3.65
398.816	3.65
399.176	3.61
399.535	3.6
399.895	3.54
400.255	3.56
400.615	3.58
400.975	3.58
401.334	3.53
401.694	3.58
402.054	3.55
402.413	3.5
402.773	3.52
403.132	3.52
403.492	3.53
403.851	3.55
404.211	3.5
404.57	3.51
404.929	3.52
405.288	3.53
405.648	3.54
406.007	3.57
406.366	3.58
406.725	3.59
407.084	3.6
407.443	3.61
407.802	3.56
408.161	3.55
408.52	3.55
408.879	3.55
409.238	3.55
409.596	3.56
409.955	3.57
410.314	3.51
410.673	3.52
411.031	3.48
411.39	3.46
411.748	3.52
412.107	3.48
412.465	3.47
412.824	3.42
413.182	3.41
413.54	3.41
413.899	3.43
414.257	3.44
414.615	3.4
414.974	3.42
415.332	3.44
415.69	3.44
416.048	3.41
416.406	3.4
416.764	3.39
417.122	3.4
417.48	3.42
417.838	3.44
418.195	3.44
418.553	3.42
418.911	3.4
419.269	3.38
419.626	3.38
419.984	3.39
420.342	3.42
420.699	3.42
421.057	3.4
421.414	3.38
421.772	3.38
422.129	3.38
422.486	3.36
422.844	3.36
423.201	3.34
423.558	3.34
423.915	3.34
424.273	3.34
424.63	3.34
424.987	3.34
425.344	3.34
425.701	3.32
426.058	3.34
426.415	3.35
426.772	3.35
427.128	3.34
427.485	3.33
427.842	3.31
428.199	3.29
428.555	3.29
428.912	3.29
429.269	3.28
429.625	3.28
429.982	3.27
430.338	3.27
430.695	3.3
431.051	3.31
431.407	3.3
431.764	3.28
432.12	3.28
432.476	3.27
432.832	3.25
433.189	3.25
433.545	3.24
433.901	3.21
434.257	3.22
434.613	3.22
434.969	3.22
435.325	3.22
435.681	3.21
436.036	3.2
436.392	3.2
436.748	3.21
437.104	3.2
437.459	3.19
437.815	3.2
438.171	3.18
438.526	3.18
438.882	3.17
439.237	3.17
439.593	3.16
439.948	3.14
440.304	3.14
440.659	3.15
441.014	3.15
441.369	3.16
441.725	3.16
442.08	3.18
442.435	3.18
442.79	3.18
443.145	3.19
443.5	3.19
443.855	3.18
444.21	3.19
444.565	3.21
444.92	3.21
445.275	3.19
445.629	3.19
445.984	3.21
446.339	3.22
446.693	3.22
447.048	3.21
447.403	3.21
447.757	3.2
448.112	3.19
448.466	3.18
448.82	3.18
449.175	3.17
449.529	3.15
449.883	3.14
450.238	3.14
450.592	3.14
450.946	3.14
451.3	3.15
451.654	3.12
452.008	3.11
452.362	3.11
452.716	3.12
453.07	3.12
453.424	3.11
453.778	3.09
454.132	3.09
454.486	3.09
454.839	3.09
455.193	3.13
455.547	3.16
455.9	3.16
456.254	3.17
456.607	3.18
456.961	3.19
457.314	3.19
457.668	3.18
458.021	3.19
458.375	3.2
458.728	3.21
459.081	3.22
459.434	3.2
459.787	3.21
460.141	3.2
460.494	3.21
460.847	3.2
461.2	3.21
461.553	3.22
461.906	3.24
462.259	3.25
462.611	3.23
462.964	3.24
463.317	3.22
463.67	3.21
464.022	3.2
464.375	3.2
464.728	3.21
465.08	3.21
465.433	3.2
465.785	3.2
466.138	3.2
466.49	3.2
466.843	3.22
467.195	3.24
467.547	3.25
467.899	3.25
468.252	3.27
468.604	3.26
468.956	3.26
469.308	3.25
469.66	3.27
470.012	3.28
470.364	3.27
470.716	3.27
471.068	3.29
471.42	3.32
471.772	3.31
472.123	3.32
472.475	3.33
472.827	3.34
473.178	3.32
473.53	3.31
473.882	3.3
474.233	3.31
474.585	3.3
474.936	3.3
475.288	3.29
475.639	3.29
475.99	3.27
476.342	3.3
476.693	3.3
477.044	3.28
477.395	3.28
477.746	3.26
478.097	3.27
478.448	3.26
478.8	3.24
479.15	3.24
479.501	3.24
479.852	3.24
480.203	3.24
480.554	3.26
480.905	3.27
481.255	3.27
481.606	3.25
481.957	3.27
482.307	3.27
482.658	3.29
483.009	3.29
483.359	3.3
483.709	3.3
484.06	3.31
484.41	3.3
484.761	3.31
485.111	3.32
485.461	3.32
485.811	3.32
486.162	3.33
486.512	3.34
486.862	3.34
487.212	3.34
487.562	3.34
487.912	3.35
488.262	3.35
488.612	3.36
488.961	3.37
489.311	3.36
489.661	3.36
490.011	3.35
490.36	3.35
490.71	3.36
491.06	3.36
491.409	3.35
491.759	3.37
492.108	3.37
492.458	3.38
492.807	3.37
493.157	3.39
493.506	3.37
493.855	3.36
494.204	3.38
494.554	3.39
494.903	3.41
495.252	3.39
495.601	3.39
495.95	3.38
496.299	3.38
496.648	3.41
496.997	3.42
497.346	3.43
497.695	3.44
498.043	3.44
498.392	3.45
498.741	3.46
499.09	3.45
499.438	3.48
499.787	3.49
500.135	3.52
500.484	3.52
500.832	3.55
501.181	3.59
501.529	3.59
501.878	3.59
502.226	3.61
502.574	3.63
502.923	3.65
503.271	3.69
503.619	3.71
503.967	3.71
504.315	3.73
504.663	3.76
505.011	3.78
505.359	3.78
505.707	3.8
506.055	3.83
506.403	3.85
506.751	3.83
507.098	3.86
507.446	3.88
507.794	3.9
508.141	3.91
508.489	3.92
508.837	3.96
509.184	3.96
509.531	3.96
509.879	3.99
510.226	4.03
510.574	4.05
510.921	4.06
511.268	4.09
511.616	4.11
511.963	4.13
512.31	4.16
512.657	4.21
513.004	4.23
513.351	4.25
513.698	4.27
514.045	4.31
514.392	4.36
514.739	4.39
515.086	4.44
515.432	4.47
515.779	4.49
516.126	4.52
516.473	4.57
516.819	4.6
517.166	4.64
517.512	4.64
517.859	4.66
518.205	4.68
518.552	4.72
518.898	4.74
519.245	4.76
519.591	4.8
519.937	4.83
520.283	4.86
520.629	4.9
520.976	4.96
521.322	4.99
521.668	5.01
522.014	5.05
522.36	5.11
522.706	5.14
523.052	5.23
523.398	5.29
523.743	5.34
524.089	5.42
524.435	5.5
524.781	5.56
525.126	5.61
525.472	5.67
525.817	5.72
526.163	5.77
526.509	5.84
526.854	5.88
527.199	5.91
527.545	5.97
527.89	6.01
528.235	6.05
528.581	6.09
528.926	6.15
529.271	6.2
529.616	6.25
529.961	6.31
530.306	6.36
530.651	6.42
530.996	6.5
531.341	6.57
531.686	6.63
532.031	6.72
532.376	6.8
532.721	6.88
533.065	6.97
533.41	7.07
533.755	7.14
534.099	7.24
534.444	7.33
534.788	7.43
535.133	7.52
535.477	7.62
535.822	7.73
536.166	7.86
536.51	8.02
536.855	8.15
537.199	8.3
537.543	8.46
537.887	8.64
538.231	8.77
538.576	8.94
538.92	9.1
539.264	9.28
539.608	9.42
539.951	9.58
540.295	9.72
540.639	9.86
540.983	10.03
541.327	10.18
541.671	10.35
542.014	10.49
542.358	10.66
542.701	10.83
543.045	10.98
543.389	11.14
543.732	11.29
544.075	11.46
544.419	11.64
544.762	11.81
545.105	12
545.449	12.22
545.792	12.42
546.135	12.63
546.478	12.82
546.821	13.1
547.165	13.34
547.508	13.59
547.851	13.86
548.194	14.12
548.536	14.4
548.879	14.69
549.222	14.95
549.565	15.18
549.908	15.46
550.25	15.79
550.593	16.09
550.936	16.4
551.278	16.73
551.621	17.05
551.963	17.36
552.306	17.64
552.648	17.97
552.991	18.29
553.333	18.64
553.675	18.98
554.017	19.32
554.36	19.65
554.702	19.94
555.044	20.22
555.386	20.52
555.728	20.83
556.07	21.16
556.412	21.54
556.754	21.94
557.096	22.28
557.438	22.63
557.78	23
558.121	23.34
558.463	23.66
558.805	24.01
559.147	24.38
559.488	24.73
559.83	25.08
560.171	25.38
560.513	25.68
560.854	26.06
561.196	26.42
561.537	26.76
561.878	27.12
562.22	27.49
562.561	27.85
562.902	28.21
563.243	28.5
563.584	28.8
563.925	29.14
564.266	29.54
564.607	29.88
564.948	30.21
565.289	30.57
565.63	30.84
565.971	31.15
566.312	31.43
566.653	31.77
566.993	32.08
567.334	32.43
567.675	32.78
568.015	33.08
568.356	33.36
568.696	33.71
569.037	34
569.377	34.3
569.718	34.61
570.058	34.91
570.398	35.25
570.739	35.54
571.079	35.85
571.419	36.07
571.759	36.28
572.099	36.5
572.439	36.73
572.779	37.08
573.119	37.33
573.459	37.63
573.799	37.9
574.139	38.17
574.479	38.44
574.819	38.62
575.158	38.84
575.498	39.12
575.838	39.34
576.177	39.64
576.517	39.89
576.856	40.17
577.196	40.45
577.535	40.76
577.875	41.07
578.214	41.34
578.553	41.59
578.893	41.95
579.232	42.21
579.571	42.48
579.91	42.69
580.25	43.03
580.589	43.21
580.928	43.4
581.267	43.68
581.606	43.95
581.945	44.27
582.283	44.5
582.622	44.64
582.961	44.9
583.3	45.12
583.639	45.34
583.977	45.54
584.316	45.75
584.654	45.88
584.993	46.1
585.332	46.28
585.67	46.52
586.008	46.7
586.347	46.9
586.685	47.16
587.024	47.39
587.362	47.51
587.7	47.7
588.038	48
588.376	48.1
588.715	48.16
589.053	48.3
589.391	48.49
589.729	48.72
590.067	48.88
590.404	49.04
590.742	49.17
591.08	49.36
591.418	49.6
591.756	49.78
592.093	49.86
592.431	50.06
592.769	50.21
593.106	50.38
593.444	50.61
593.781	50.7
594.119	50.87
594.456	51.02
594.793	51.16
595.131	51.2
595.468	51.41
595.805	51.63
596.143	51.73
596.48	51.91
596.817	52.03
597.154	52.17
597.491	52.32
597.828	52.5
598.165	52.57
598.502	52.6
598.839	52.76
599.176	52.91
599.512	52.94
599.849	53.08
600.186	53.21
600.523	53.27
600.859	53.41
601.196	53.47
601.532	53.62
601.869	53.76
602.205	53.9
602.542	54.03
602.878	54.19
603.215	54.35
603.551	54.47
603.887	54.57
604.223	54.61
604.56	54.64
604.896	54.82
605.232	54.89
605.568	55.02
605.904	55.06
606.24	55.15
606.576	55.35
606.912	55.47
607.248	55.56
607.583	55.62
607.919	55.74
608.255	55.85
608.591	55.94
608.926	56
609.262	56.08
609.597	56.08
609.933	56.1
610.268	56.14
610.604	56.15
610.939	56.25
611.275	56.39
611.61	56.45
611.945	56.47
612.281	56.59
612.616	56.65
612.951	56.82
613.286	56.98
613.621	57.04
613.956	57.06
614.291	57.13
614.626	57.33
614.961	57.54
615.296	57.68
615.631	57.87
615.966	57.89
616.3	58.05
616.635	58.1
616.97	58.21
617.304	58.28
617.639	58.36
617.973	58.4
618.308	58.35
618.642	58.62
618.977	58.61
619.311	58.66
619.646	58.71
619.98	58.65
620.314	58.67
620.648	58.66
620.983	58.83
621.317	58.86
621.651	58.92
621.985	58.91
622.319	58.97
622.653	58.92
622.987	59.08
623.321	59.09
623.655	59.14
623.988	59.22
624.322	59.36
624.656	59.44
624.99	59.48
625.323	59.56
625.657	59.53
625.99	59.58
626.324	59.69
626.657	59.77
626.991	59.83
627.324	59.77
627.658	59.79
627.991	59.81
628.324	59.9
628.657	59.85
628.991	59.72
629.324	59.72
629.657	59.74
629.99	59.78
630.323	59.88
630.656	59.9
630.989	59.89
631.322	59.9
631.655	59.92
631.987	59.91
632.32	59.93
632.653	59.92
632.986	59.98
633.318	59.98
633.651	60.01
633.984	60.03
634.316	60.15
634.649	60.2
634.981	60.3
635.313	60.41
635.646	60.55
635.978	60.73
636.31	60.9
636.643	60.98
636.975	60.98
637.307	60.94
637.639	61.08
637.971	61.11
638.303	61.07
638.635	61.09
638.967	61.24
639.299	61.31
639.631	61.39
639.963	61.44
640.295	61.55
640.626	61.58
640.958	61.71
641.29	61.82
641.621	61.98
641.953	61.9
642.285	61.89
642.616	61.9
642.948	61.94
643.279	61.86
643.61	62.01
643.942	62.12
644.273	62.28
644.604	62.25
644.936	62.26
645.267	62.4
645.598	62.39
645.929	62.44
646.26	62.58
646.591	62.58
646.922	62.65
647.253	62.61
647.584	62.72
647.915	62.66
648.245	62.83
648.576	62.87
648.907	62.83
649.238	62.84
649.568	62.83
649.899	62.72
650.229	62.9
650.56	62.95
650.89	63.09
651.221	63.13
651.551	63.2
651.882	63.35
652.212	63.3
652.542	63.43
652.872	63.28
653.203	63.26
653.533	63.18
653.863	63.06
654.193	63.14
654.523	62.94
654.853	62.99
655.183	62.85
655.513	62.73
655.843	62.75
656.172	62.85
656.502	62.87
656.832	62.87
657.162	62.8
657.491	62.69
657.821	62.68
658.15	62.64
658.48	62.62
658.809	62.56
659.139	62.57
659.468	62.6
659.798	62.72
660.127	62.69
660.456	62.78
660.785	62.77
661.115	62.8
661.444	62.87
661.773	62.99
662.102	63.05
662.431	63.06
662.76	63.24
663.089	63.22
663.418	63.43
663.747	63.55
664.076	63.55
664.404	63.68
664.733	63.65
665.062	63.59
665.39	63.7
665.719	63.72
666.048	63.78
666.376	63.66
