Data from BA17729_Reflection_00004.txt Node
Date: Tue Nov 19 11:50:40 EST 2019
User: vgr7
Spectrometer: USB2G7710
Scans to average: 3
Trigger mode: 4
Integration Time (sec): 2.000000E-2
Electric dark correction enabled: true
Boxcar width: 10
XAxis mode: Wavelengths
Number of Pixels in Spectrum: 2048
>>>>>Begin Spectral Data<<<<<
177.721	-11.02
178.105	25.13
178.488	11.53
178.871	-117.65
179.254	-70.73
179.636	-44.51
180.019	30.89
180.402	466.67
180.785	9.86
181.168	83.26
181.55	43.57
181.933	76.78
182.316	83.95
182.698	97.96
183.081	163.88
183.463	199.15
183.846	247.13
184.228	226.49
184.611	205.37
184.993	458.14
185.376	4982.35
185.758	84.79
186.14	-11.93
186.522	-24.3
186.904	-7.69
187.287	189.01
187.669	188
188.051	2736.36
188.433	212.68
188.815	133.56
189.197	78.72
189.579	-85.77
189.961	36.1
190.342	9.09
190.724	397.87
191.106	-350.55
191.488	-413.76
191.869	-126.91
192.251	-150.81
192.633	-215.51
193.014	-317.18
193.396	-446.01
193.777	-137.55
194.159	-138.62
194.54	-148.63
194.922	-330.86
195.303	-210.4
195.684	-316.83
196.065	-483.06
196.447	-300.8
196.828	-190.93
197.209	-119.87
197.59	-77.48
197.971	-85.04
198.352	-70.29
198.733	-68.86
199.114	-81.23
199.495	-96.52
199.876	-97.44
200.257	-120.97
200.638	-104.66
201.018	-88.24
201.399	-57.66
201.78	-69.74
202.16	-59.36
202.541	-71.77
202.922	-34.09
203.302	-52.62
203.683	-27.21
204.063	-31.27
204.444	-54.92
204.824	-85.65
205.204	-78.9
205.585	-88.62
205.965	-95.75
206.345	-110.95
206.725	-69.78
207.106	-40.33
207.486	-17.97
207.866	-15.77
208.246	-8.66
208.626	-13.62
209.006	-18.75
209.386	-37.19
209.766	-17.38
210.145	-25.24
210.525	-18.86
210.905	8.8
211.285	26.63
211.664	19.16
212.044	32.14
212.424	18.51
212.803	17.64
213.183	-4
213.562	-5.92
213.942	5.55
214.321	-16.66
214.701	-26.89
215.08	-41.04
215.459	-42.56
215.838	-31.94
216.218	-29.23
216.597	-0.08
216.976	-16.8
217.355	-2.12
217.734	-16.12
218.113	5.37
218.492	-1.54
218.871	-30.38
219.25	-55.01
219.629	-77.15
220.008	-112.3
220.387	-86.86
220.766	-34.24
221.144	-13.22
221.523	-38.92
221.902	-30.35
222.28	-4.6
222.659	17.38
223.037	14.63
223.416	4.02
223.794	16.39
224.173	-1.24
224.551	13.08
224.929	18.29
225.308	-5.71
225.686	-6.09
226.064	-5.96
226.442	1.89
226.821	-2.15
227.199	1.59
227.577	4.39
227.955	2.65
228.333	-3.91
228.711	-2.28
229.089	-3.17
229.467	0.54
229.845	-1.61
230.222	-1.36
230.6	-4.81
230.978	-3.87
231.356	-3.08
231.733	-3.3
232.111	0.33
232.488	-3.87
232.866	-4.28
233.243	-2.16
233.621	-0.61
233.998	-3.09
234.376	-1.9
234.753	-0.89
235.13	-1.32
235.508	-1.7
235.885	0.39
236.262	3.58
236.639	3.78
237.016	3.46
237.393	4.33
237.77	5.67
238.147	5.74
238.524	6.72
238.901	6.11
239.278	5.31
239.655	4.07
240.032	3.94
240.409	4.57
240.785	4.79
241.162	5.08
241.539	4.59
241.915	5.28
242.292	5.1
242.668	5.22
243.045	5.76
243.421	5.82
243.798	5.56
244.174	5.33
244.551	5.41
244.927	5.36
245.303	5.19
245.679	5.11
246.056	5
246.432	4.91
246.808	5.17
247.184	5.28
247.56	5.36
247.936	5.23
248.312	5.37
248.688	5.22
249.064	5.2
249.44	5.11
249.815	5.17
250.191	5.08
250.567	5.08
250.943	4.91
251.318	4.75
251.694	4.68
252.069	4.47
252.445	4.42
252.82	4.6
253.196	4.42
253.571	4.62
253.947	4.67
254.322	4.43
254.697	4.44
255.073	4.37
255.448	4.29
255.823	4.29
256.198	4.28
256.573	4.46
256.948	4.59
257.323	4.72
257.698	4.44
258.073	4.56
258.448	4.61
258.823	4.53
259.198	4.54
259.573	4.41
259.948	4.42
260.322	4.24
260.697	4.32
261.072	4.5
261.446	4.31
261.821	4.29
262.195	4.4
262.57	4.47
262.944	4.63
263.319	4.74
263.693	4.75
264.067	4.61
264.442	4.77
264.816	4.65
265.19	4.73
265.564	4.93
265.938	4.91
266.313	4.7
266.687	4.65
267.061	4.55
267.435	4.8
267.809	4.88
268.183	5.04
268.556	4.79
268.93	4.86
269.304	4.9
269.678	4.82
270.051	4.86
270.425	4.84
270.799	4.58
271.172	4.57
271.546	4.86
271.919	4.91
272.293	4.93
272.666	5.1
273.04	4.96
273.413	4.97
273.787	4.97
274.16	5.11
274.533	5.13
274.906	5.18
275.279	4.91
275.653	5
276.026	5.12
276.399	5.28
276.772	5.19
277.145	5.33
277.518	5.46
277.891	5.5
278.263	5.41
278.636	5.77
279.009	5.94
279.382	5.65
279.755	5.61
280.127	5.43
280.5	5.19
280.872	5.28
281.245	5.16
281.617	5.13
281.99	5.16
282.362	5.2
282.735	5.27
283.107	5.3
283.479	5.29
283.852	5.2
284.224	5.09
284.596	4.92
284.968	4.78
285.34	4.64
285.713	4.59
286.085	4.47
286.457	4.26
286.829	4.1
287.201	4.06
287.572	4.18
287.944	4.21
288.316	4.37
288.688	4.31
289.06	4.29
289.431	4.36
289.803	4.44
290.175	4.58
290.546	4.49
290.918	4.68
291.289	4.69
291.661	4.69
292.032	4.69
292.403	4.76
292.775	4.78
293.146	4.94
293.517	4.83
293.889	4.86
294.26	4.9
294.631	5
295.002	5.2
295.373	5.13
295.744	5.08
296.115	5.19
296.486	5.3
296.857	5.5
297.228	5.34
297.599	5.06
297.97	5.04
298.34	5.21
298.711	5.21
299.082	5.1
299.452	4.94
299.823	5.02
300.194	5.01
300.564	5.17
300.935	5.13
301.305	5.35
301.676	5.45
302.046	5.47
302.416	5.46
302.787	5.28
303.157	5.28
303.527	5.4
303.897	5.04
304.267	4.98
304.637	4.8
305.008	4.79
305.378	5.03
305.748	5
306.117	4.9
306.487	4.7
306.857	4.83
307.227	4.94
307.597	4.9
307.967	4.89
308.336	4.76
308.706	4.7
309.076	4.71
309.445	4.84
309.815	4.95
310.184	4.96
310.554	5.07
310.923	5.05
311.293	5
311.662	5.11
312.031	5.15
312.401	5.2
312.77	5.29
313.139	5.29
313.508	5.26
313.877	5.18
314.246	5.28
314.616	5.14
314.985	5.22
315.353	5.12
315.722	5.2
316.091	5.14
316.46	5.14
316.829	5.13
317.198	5.16
317.567	5.1
317.935	5.24
318.304	5.31
318.672	5.38
319.041	5.33
319.41	5.32
319.778	5.06
320.147	4.95
320.515	4.98
320.883	4.87
321.252	4.88
321.62	4.98
321.988	4.95
322.357	4.99
322.725	4.84
323.093	4.91
323.461	4.87
323.829	4.84
324.197	4.96
324.565	4.89
324.933	4.7
325.301	4.59
325.669	4.59
326.037	4.54
326.405	4.5
326.772	4.64
327.14	4.5
327.508	4.58
327.875	4.59
328.243	4.56
328.61	4.61
328.978	4.43
329.346	4.47
329.713	4.61
330.08	4.82
330.448	4.94
330.815	4.91
331.182	4.94
331.55	5.08
331.917	5.01
332.284	5.07
332.651	5.2
333.018	5.18
333.385	4.92
333.752	4.88
334.119	4.91
334.486	4.73
334.853	4.87
335.22	5
335.587	4.91
335.954	4.86
336.32	4.94
336.687	5.12
337.054	5.16
337.42	4.96
337.787	4.81
338.153	4.7
338.52	4.74
338.886	4.8
339.253	4.61
339.619	4.79
339.986	4.61
340.352	4.61
340.718	4.59
341.084	4.79
341.451	4.91
341.817	4.95
342.183	5
342.549	5.04
342.915	5.03
343.281	5.06
343.647	5.05
344.013	4.97
344.379	4.92
344.745	4.79
345.11	4.78
345.476	4.85
345.842	4.92
346.208	4.79
346.573	4.76
346.939	4.81
347.304	4.71
347.67	4.77
348.035	4.72
348.401	4.73
348.766	4.6
349.132	4.47
349.497	4.43
349.862	4.4
350.228	4.38
350.593	4.32
350.958	4.42
351.323	4.48
351.688	4.56
352.053	4.56
352.418	4.62
352.783	4.77
353.148	4.77
353.513	4.79
353.878	4.9
354.243	4.85
354.608	4.95
354.972	4.96
355.337	4.96
355.702	4.95
356.066	4.92
356.431	4.89
356.795	5
357.16	4.92
357.524	5.02
357.889	4.97
358.253	5.01
358.618	4.91
358.982	5.02
359.346	4.94
359.71	4.9
360.075	4.93
360.439	4.93
360.803	4.87
361.167	4.78
361.531	4.84
361.895	4.88
362.259	4.92
362.623	4.94
362.987	4.96
363.351	4.96
363.714	5.04
364.078	5.11
364.442	5.01
364.806	5.08
365.169	5.04
365.533	5.09
365.896	5.13
366.26	5.25
366.623	5.15
366.987	5.17
367.35	5.25
367.714	5.26
368.077	5.23
368.44	5.31
368.803	5.29
369.167	5.12
369.53	5.15
369.893	5.11
370.256	4.98
370.619	5.01
370.982	4.93
371.345	4.95
371.708	5.02
372.071	5.07
372.434	5.04
372.797	5.07
373.159	5.03
373.522	5
373.885	4.96
374.247	4.97
374.61	4.99
374.973	4.97
375.335	4.93
375.698	4.89
376.06	4.83
376.423	4.85
376.785	4.99
377.147	4.97
377.51	4.89
377.872	4.93
378.234	4.91
378.596	4.95
378.958	4.93
379.321	4.84
379.683	4.86
380.045	4.88
380.407	4.8
380.769	4.81
381.13	4.81
381.492	4.78
381.854	4.83
382.216	4.81
382.578	4.8
382.939	4.75
383.301	4.83
383.663	4.83
384.024	4.87
384.386	4.82
384.747	4.77
385.109	4.76
385.47	4.77
385.832	4.72
386.193	4.74
386.554	4.71
386.916	4.69
387.277	4.64
387.638	4.65
387.999	4.67
388.36	4.69
388.721	4.66
389.082	4.67
389.443	4.64
389.804	4.66
390.165	4.7
390.526	4.73
390.887	4.71
391.248	4.67
391.609	4.69
391.969	4.69
392.33	4.68
392.691	4.73
393.051	4.73
393.412	4.79
393.772	4.75
394.133	4.72
394.493	4.75
394.854	4.76
395.214	4.75
395.574	4.79
395.935	4.75
396.295	4.74
396.655	4.76
397.015	4.73
397.376	4.69
397.736	4.66
398.096	4.64
398.456	4.62
398.816	4.65
399.176	4.61
399.535	4.63
399.895	4.68
400.255	4.67
400.615	4.7
400.975	4.67
401.334	4.7
401.694	4.72
402.054	4.72
402.413	4.75
402.773	4.74
403.132	4.7
403.492	4.7
403.851	4.72
404.211	4.69
404.57	4.72
404.929	4.75
405.288	4.77
405.648	4.77
406.007	4.79
406.366	4.8
406.725	4.81
407.084	4.78
407.443	4.75
407.802	4.76
408.161	4.73
408.52	4.71
408.879	4.7
409.238	4.74
409.596	4.73
409.955	4.7
410.314	4.74
410.673	4.75
411.031	4.73
411.39	4.73
411.748	4.73
412.107	4.7
412.465	4.68
412.824	4.63
413.182	4.63
413.54	4.58
413.899	4.57
414.257	4.57
414.615	4.59
414.974	4.6
415.332	4.58
415.69	4.59
416.048	4.64
416.406	4.64
416.764	4.62
417.122	4.62
417.48	4.61
417.838	4.58
418.195	4.58
418.553	4.61
418.911	4.59
419.269	4.6
419.626	4.6
419.984	4.6
420.342	4.62
420.699	4.62
421.057	4.62
421.414	4.64
421.772	4.65
422.129	4.64
422.486	4.63
422.844	4.63
423.201	4.63
423.558	4.61
423.915	4.63
424.273	4.63
424.63	4.63
424.987	4.62
425.344	4.62
425.701	4.61
426.058	4.61
426.415	4.63
426.772	4.62
427.128	4.63
427.485	4.63
427.842	4.63
428.199	4.65
428.555	4.66
428.912	4.64
429.269	4.63
429.625	4.65
429.982	4.66
430.338	4.68
430.695	4.67
431.051	4.63
431.407	4.6
431.764	4.6
432.12	4.61
432.476	4.62
432.832	4.62
433.189	4.61
433.545	4.61
433.901	4.6
434.257	4.61
434.613	4.6
434.969	4.62
435.325	4.63
435.681	4.61
436.036	4.63
436.392	4.64
436.748	4.66
437.104	4.66
437.459	4.65
437.815	4.62
438.171	4.61
438.526	4.64
438.882	4.62
439.237	4.61
439.593	4.62
439.948	4.63
440.304	4.62
440.659	4.63
441.014	4.62
441.369	4.65
441.725	4.63
442.08	4.61
442.435	4.62
442.79	4.6
443.145	4.59
443.5	4.58
443.855	4.55
444.21	4.54
444.565	4.53
444.92	4.53
445.275	4.53
445.629	4.55
445.984	4.53
446.339	4.55
446.693	4.57
447.048	4.55
447.403	4.55
447.757	4.55
448.112	4.55
448.466	4.56
448.82	4.53
449.175	4.52
449.529	4.53
449.883	4.51
450.238	4.51
450.592	4.51
450.946	4.49
451.3	4.51
451.654	4.5
452.008	4.51
452.362	4.5
452.716	4.5
453.07	4.48
453.424	4.51
453.778	4.51
454.132	4.48
454.486	4.49
454.839	4.49
455.193	4.52
455.547	4.5
455.9	4.52
456.254	4.53
456.607	4.56
456.961	4.54
457.314	4.53
457.668	4.53
458.021	4.53
458.375	4.55
458.728	4.53
459.081	4.55
459.434	4.55
459.787	4.57
460.141	4.59
460.494	4.59
460.847	4.58
461.2	4.57
461.553	4.61
461.906	4.61
462.259	4.6
462.611	4.59
462.964	4.6
463.317	4.58
463.67	4.59
464.022	4.57
464.375	4.58
464.728	4.59
465.08	4.6
465.433	4.62
465.785	4.58
466.138	4.61
466.49	4.59
466.843	4.6
467.195	4.58
467.547	4.58
467.899	4.59
468.252	4.61
468.604	4.6
468.956	4.59
469.308	4.6
469.66	4.61
470.012	4.61
470.364	4.61
470.716	4.62
471.068	4.62
471.42	4.63
471.772	4.64
472.123	4.66
472.475	4.64
472.827	4.61
473.178	4.64
473.53	4.64
473.882	4.65
474.233	4.66
474.585	4.64
474.936	4.63
475.288	4.62
475.639	4.62
475.99	4.63
476.342	4.62
476.693	4.6
477.044	4.6
477.395	4.62
477.746	4.59
478.097	4.59
478.448	4.59
478.8	4.6
479.15	4.61
479.501	4.6
479.852	4.62
480.203	4.66
480.554	4.66
480.905	4.66
481.255	4.67
481.606	4.66
481.957	4.66
482.307	4.66
482.658	4.67
483.009	4.67
483.359	4.68
483.709	4.67
484.06	4.68
484.41	4.69
484.761	4.69
485.111	4.7
485.461	4.7
485.811	4.7
486.162	4.7
486.512	4.7
486.862	4.7
487.212	4.7
487.562	4.69
487.912	4.69
488.262	4.69
488.612	4.68
488.961	4.7
489.311	4.7
489.661	4.71
490.011	4.7
490.36	4.71
490.71	4.71
491.06	4.72
491.409	4.72
491.759	4.72
492.108	4.71
492.458	4.7
492.807	4.7
493.157	4.72
493.506	4.73
493.855	4.72
494.204	4.73
494.554	4.75
494.903	4.75
495.252	4.77
495.601	4.79
495.95	4.81
496.299	4.82
496.648	4.84
496.997	4.85
497.346	4.88
497.695	4.88
498.043	4.88
498.392	4.9
498.741	4.91
499.09	4.92
499.438	4.93
499.787	4.95
500.135	4.98
500.484	4.98
500.832	5
501.181	5.02
501.529	5.03
501.878	5.02
502.226	5.03
502.574	5.02
502.923	5.03
503.271	5.02
503.619	5.01
503.967	5.02
504.315	5.01
504.663	5
505.011	4.99
505.359	5
505.707	4.98
506.055	4.98
506.403	5
506.751	5.01
507.098	5.03
507.446	5.04
507.794	5.05
508.141	5.05
508.489	5.06
508.837	5.07
509.184	5.08
509.531	5.08
509.879	5.1
510.226	5.09
510.574	5.12
510.921	5.14
511.268	5.15
511.616	5.16
511.963	5.2
512.31	5.23
512.657	5.23
513.004	5.26
513.351	5.27
513.698	5.26
514.045	5.27
514.392	5.26
514.739	5.27
515.086	5.27
515.432	5.3
515.779	5.3
516.126	5.36
516.473	5.38
516.819	5.4
517.166	5.39
517.512	5.4
517.859	5.41
518.205	5.39
518.552	5.4
518.898	5.4
519.245	5.39
519.591	5.42
519.937	5.42
520.283	5.42
520.629	5.41
520.976	5.43
521.322	5.42
521.668	5.42
522.014	5.43
522.36	5.42
522.706	5.41
523.052	5.42
523.398	5.37
523.743	5.36
524.089	5.37
524.435	5.37
524.781	5.39
525.126	5.41
525.472	5.43
525.817	5.43
526.163	5.44
526.509	5.46
526.854	5.45
527.199	5.47
527.545	5.47
527.89	5.49
528.235	5.51
528.581	5.52
528.926	5.54
529.271	5.55
529.616	5.56
529.961	5.57
530.306	5.57
530.651	5.58
530.996	5.59
531.341	5.61
531.686	5.63
532.031	5.65
532.376	5.66
532.721	5.66
533.065	5.68
533.41	5.68
533.755	5.67
534.099	5.67
534.444	5.66
534.788	5.67
535.133	5.67
535.477	5.65
535.822	5.66
536.166	5.66
536.51	5.65
536.855	5.65
537.199	5.66
537.543	5.67
537.887	5.69
538.231	5.69
538.576	5.7
538.92	5.7
539.264	5.69
539.608	5.68
539.951	5.71
540.295	5.7
540.639	5.71
540.983	5.75
541.327	5.76
541.671	5.77
542.014	5.78
542.358	5.78
542.701	5.8
543.045	5.78
543.389	5.81
543.732	5.82
544.075	5.83
544.419	5.85
544.762	5.85
545.105	5.86
545.449	5.87
545.792	5.86
546.135	5.84
546.478	5.86
546.821	5.89
547.165	5.85
547.508	5.87
547.851	5.89
548.194	5.86
548.536	5.84
548.879	5.85
549.222	5.84
549.565	5.85
549.908	5.86
550.25	5.88
550.593	5.84
550.936	5.85
551.278	5.84
551.621	5.83
551.963	5.83
552.306	5.81
552.648	5.8
552.991	5.82
553.333	5.83
553.675	5.81
554.017	5.8
554.36	5.84
554.702	5.82
555.044	5.82
555.386	5.82
555.728	5.84
556.07	5.83
556.412	5.85
556.754	5.82
557.096	5.82
557.438	5.82
557.78	5.83
558.121	5.82
558.463	5.83
558.805	5.8
559.147	5.78
559.488	5.8
559.83	5.82
560.171	5.8
560.513	5.82
560.854	5.86
561.196	5.88
561.537	5.88
561.878	5.92
562.22	5.92
562.561	5.95
562.902	5.93
563.243	5.94
563.584	5.98
563.925	6
564.266	6.02
564.607	6.04
564.948	6.05
565.289	6.08
565.63	6.07
565.971	6.08
566.312	6.07
566.653	6.11
566.993	6.08
567.334	6.09
567.675	6.08
568.015	6.06
568.356	6.05
568.696	6.03
569.037	6.02
569.377	5.99
569.718	5.96
570.058	6.02
570.398	6
570.739	5.96
571.079	5.96
571.419	5.93
571.759	5.92
572.099	5.9
572.439	5.9
572.779	5.9
573.119	5.93
573.459	5.96
573.799	5.93
574.139	5.95
574.479	5.97
574.819	6.01
575.158	6.02
575.498	6.01
575.838	6.05
576.177	6.01
576.517	6.02
576.856	6.05
577.196	6.04
577.535	6.06
577.875	6.08
578.214	6.11
578.553	6.16
578.893	6.22
579.232	6.26
579.571	6.29
579.91	6.32
580.25	6.32
580.589	6.31
580.928	6.33
581.267	6.35
581.606	6.34
581.945	6.3
582.283	6.33
582.622	6.32
582.961	6.29
583.3	6.35
583.639	6.41
583.977	6.37
584.316	6.38
584.654	6.36
584.993	6.38
585.332	6.31
585.67	6.28
586.008	6.29
586.347	6.27
586.685	6.23
587.024	6.23
587.362	6.21
587.7	6.27
588.038	6.3
588.376	6.28
588.715	6.29
589.053	6.29
589.391	6.28
589.729	6.29
590.067	6.27
590.404	6.25
590.742	6.23
591.08	6.32
591.418	6.33
591.756	6.38
592.093	6.37
592.431	6.4
592.769	6.39
593.106	6.35
593.444	6.34
593.781	6.36
594.119	6.39
594.456	6.37
594.793	6.3
595.131	6.3
595.468	6.32
595.805	6.32
596.143	6.31
596.48	6.3
596.817	6.34
597.154	6.37
597.491	6.38
597.828	6.39
598.165	6.34
598.502	6.3
598.839	6.28
599.176	6.32
599.512	6.32
599.849	6.34
600.186	6.34
600.523	6.38
600.859	6.36
601.196	6.36
601.532	6.37
601.869	6.42
602.205	6.42
602.542	6.44
602.878	6.42
603.215	6.43
603.551	6.43
603.887	6.42
604.223	6.45
604.56	6.46
604.896	6.44
605.232	6.44
605.568	6.45
605.904	6.43
606.24	6.4
606.576	6.43
606.912	6.43
607.248	6.44
607.583	6.42
607.919	6.4
608.255	6.34
608.591	6.38
608.926	6.36
609.262	6.33
609.597	6.31
609.933	6.31
610.268	6.33
610.604	6.33
610.939	6.36
611.275	6.33
611.61	6.36
611.945	6.32
612.281	6.39
612.616	6.43
612.951	6.47
613.286	6.5
613.621	6.43
613.956	6.45
614.291	6.44
614.626	6.45
614.961	6.51
615.296	6.55
615.631	6.52
615.966	6.52
616.3	6.58
616.635	6.59
616.97	6.57
617.304	6.56
617.639	6.54
617.973	6.48
618.308	6.45
618.642	6.42
618.977	6.44
619.311	6.39
619.646	6.4
619.98	6.39
620.314	6.33
620.648	6.4
620.983	6.41
621.317	6.44
621.651	6.46
621.985	6.44
622.319	6.4
622.653	6.43
622.987	6.48
623.321	6.44
623.655	6.44
623.988	6.49
624.322	6.49
624.656	6.48
624.99	6.44
625.323	6.44
625.657	6.43
625.99	6.51
626.324	6.48
626.657	6.4
626.991	6.36
627.324	6.39
627.658	6.35
627.991	6.34
628.324	6.29
628.657	6.27
628.991	6.3
629.324	6.35
629.657	6.33
629.99	6.31
630.323	6.31
630.656	6.3
630.989	6.32
631.322	6.33
631.655	6.35
631.987	6.37
632.32	6.42
632.653	6.39
632.986	6.37
633.318	6.36
633.651	6.43
633.984	6.44
634.316	6.43
634.649	6.49
634.981	6.46
635.313	6.53
635.646	6.52
635.978	6.56
636.31	6.53
636.643	6.54
636.975	6.52
637.307	6.6
637.639	6.57
637.971	6.52
638.303	6.5
638.635	6.55
638.967	6.58
639.299	6.6
639.631	6.64
639.963	6.63
640.295	6.68
640.626	6.71
640.958	6.75
641.29	6.81
641.621	6.71
641.953	6.65
642.285	6.64
642.616	6.68
642.948	6.7
643.279	6.7
643.61	6.73
643.942	6.78
644.273	6.75
644.604	6.8
644.936	6.89
645.267	6.83
645.598	6.87
645.929	6.88
646.26	6.86
646.591	6.91
646.922	6.87
647.253	6.89
647.584	6.87
647.915	6.81
648.245	6.84
648.576	6.87
648.907	6.97
649.238	6.96
649.568	6.94
649.899	6.84
650.229	6.89
650.56	6.9
650.89	6.89
651.221	6.85
651.551	6.87
651.882	6.8
652.212	6.82
652.542	6.84
652.872	6.82
653.203	6.81
653.533	6.79
653.863	6.82
654.193	6.76
654.523	6.83
654.853	6.98
655.183	6.9
655.513	7.03
655.843	6.97
656.172	6.97
656.502	6.96
656.832	7.03
657.162	7
657.491	6.98
657.821	7.01
658.15	7.07
658.48	7.04
658.809	7.07
659.139	7.13
659.468	7.14
659.798	7.18
660.127	7.18
660.456	7.15
660.785	7.21
661.115	7.25
661.444	7.2
661.773	7.18
662.102	7.23
662.431	7.1
662.76	7.13
663.089	7.21
663.418	7.27
663.747	7.17
664.076	7.19
664.404	7.22
664.733	7.19
665.062	7.11
665.39	7.19
665.719	7.14
666.048	7.11
666.376	7.07
666.705	7.01
667.033	7.07
667.362	7.15
667.69	7.1
668.018	7.14
668.347	7.19
668.675	7.15
669.003	7.12
669.331	7.22
669.659	7.3
669.987	7.29
670.315	7.22
670.643	7.22
670.971	7.22
671.299	7.22
671.627	7.21
671.955	7.19
672.283	7.07
672.61	7.2
672.938	7.24
673.266	7.16
673.593	7.12
673.921	7.03
674.249	7.07
674.576	7.12
674.904	7.12
675.231	7.1
675.558	7.07
675.886	7.17
676.213	7.07
676.54	7.03
676.867	6.93
677.195	7.02
677.522	7.17
677.849	7.21
678.176	7.25
678.503	7.2
678.83	7.22
