Data from BA17724_Reflection_00004.txt Node
Date: Tue Nov 19 11:57:50 EST 2019
User: vgr7
Spectrometer: USB2G7710
Scans to average: 3
Trigger mode: 4
Integration Time (sec): 2.000000E-2
Electric dark correction enabled: true
Boxcar width: 10
XAxis mode: Wavelengths
Number of Pixels in Spectrum: 2048
>>>>>Begin Spectral Data<<<<<
177.721	104.99
178.105	130.49
178.488	51.19
178.871	19.32
179.254	50
179.636	470.97
180.019	93.9
180.402	54.55
180.785	-78.57
181.168	93.32
181.55	373.44
181.933	153
182.316	93.08
182.698	108.83
183.081	163.54
183.463	139.72
183.846	234.97
184.228	355.91
184.611	13475
184.993	1340
185.376	-501.69
185.758	10850
186.14	326.92
186.522	719.4
186.904	1437.5
187.287	222.53
187.669	205.36
188.051	204.03
188.433	165.85
188.815	179.63
189.197	198.27
189.579	170.48
189.961	155.94
190.342	252.47
190.724	250.44
191.106	165.07
191.488	204.48
191.869	291.71
192.251	140.75
192.633	122.78
193.014	226.58
193.396	153.9
193.777	304.42
194.159	345.99
194.54	438.24
194.922	380.41
195.303	1700
195.684	1263.04
196.065	-1278.05
196.447	-536.36
196.828	995.35
197.209	-985.37
197.59	-878.72
197.971	863.16
198.352	455.37
198.733	283.17
199.114	381.07
199.495	235.2
199.876	142.76
200.257	418.18
200.638	2205.26
201.018	282.58
201.399	2975
201.78	220.19
202.16	268.57
202.541	211.34
202.922	139.53
203.302	107.84
203.683	128.17
204.063	102.25
204.444	161.07
204.824	650
205.204	514.06
205.585	992.86
205.965	-88.68
206.345	-90.39
206.725	-54.96
207.106	-34.81
207.486	-40.5
207.866	-11.74
208.246	-11.58
208.626	-25
209.006	-14.45
209.386	-14.05
209.766	-33.04
210.145	-26.11
210.525	-4.83
210.905	-10.09
211.285	-1.47
211.664	1.18
212.044	-3.02
212.424	-10.9
212.803	-8.7
213.183	-25.41
213.562	-29.41
213.942	-45.55
214.321	-42.95
214.701	-62.14
215.08	-78.57
215.459	-80.7
215.838	-126.53
216.218	-120.5
216.597	-77.95
216.976	-66.85
217.355	-72.85
217.734	-73.17
218.113	-62.15
218.492	-101.16
218.871	-107.95
219.25	-83.03
219.629	-113.13
220.008	-165.52
220.387	-184.15
220.766	-69.63
221.144	-55.58
221.523	-59.09
221.902	-44.04
222.28	-40.36
222.659	-18.47
223.037	-15.46
223.416	-6.81
223.794	8.88
224.173	8.12
224.551	-1.84
224.929	-16.1
225.308	-20.92
225.686	-8.37
226.064	-12.14
226.442	-5.19
226.821	-5.86
227.199	-13.57
227.577	-9.16
227.955	-2.91
228.333	-4.29
228.711	-10.14
229.089	-13.05
229.467	-8.97
229.845	-7.83
230.222	-7.13
230.6	-12.55
230.978	-14
231.356	-16.57
231.733	-17.51
232.111	-14.91
232.488	-13.07
232.866	-7.68
233.243	-4.64
233.621	-5.58
233.998	-2.48
234.376	-1.33
234.753	-2.53
235.13	-1.4
235.508	-3.61
235.885	-6.29
236.262	-5.91
236.639	-7.13
237.016	-4.77
237.393	-2.69
237.77	-1.63
238.147	-1.26
238.524	0.64
238.901	1.56
239.278	0.98
239.655	1.06
240.032	1.56
240.409	2.13
240.785	1.32
241.162	1.14
241.539	1.07
241.915	0.59
242.292	1.21
242.668	1.87
243.045	2.62
243.421	2.77
243.798	3.55
244.174	3.74
244.551	4.16
244.927	3.97
245.303	3.58
245.679	3.51
246.056	3.63
246.432	3.7
246.808	3.83
247.184	4.47
247.56	4.39
247.936	4.38
248.312	4.65
248.688	4.94
249.064	4.99
249.44	5.04
249.815	5.12
250.191	4.66
250.567	4.6
250.943	4.58
251.318	4.71
251.694	4.31
252.069	4.37
252.445	4.09
252.82	4.01
253.196	4.17
253.571	4.18
253.947	4.13
254.322	4.17
254.697	3.95
255.073	3.85
255.448	3.7
255.823	3.85
256.198	3.34
256.573	3.39
256.948	3.64
257.323	3.53
257.698	3.51
258.073	3.81
258.448	3.84
258.823	3.93
259.198	3.95
259.573	4.08
259.948	3.98
260.322	4.18
260.697	4.52
261.072	4.38
261.446	4.42
261.821	4.43
262.195	4.48
262.57	4.64
262.944	4.53
263.319	4.69
263.693	4.82
264.067	4.95
264.442	5.03
264.816	5.02
265.19	4.93
265.564	4.79
265.938	4.72
266.313	4.58
266.687	4.48
267.061	4.61
267.435	4.75
267.809	4.8
268.183	4.62
268.556	4.26
268.93	4.44
269.304	4.37
269.678	4.51
270.051	4.4
270.425	4.29
270.799	4.3
271.172	4.38
271.546	4.14
271.919	4.26
272.293	4.21
272.666	4.09
273.04	4.25
273.413	4.33
273.787	4.34
274.16	4.33
274.533	4.35
274.906	4.29
275.279	4.21
275.653	4.38
276.026	4.59
276.399	4.71
276.772	4.69
277.145	4.91
277.518	4.7
277.891	4.68
278.263	4.8
278.636	4.88
279.009	4.78
279.382	4.98
279.755	4.94
280.127	4.68
280.5	4.57
280.872	4.63
281.245	4.73
281.617	4.66
281.99	4.77
282.362	4.67
282.735	4.79
283.107	4.84
283.479	4.83
283.852	4.7
284.224	4.74
284.596	4.54
284.968	4.46
285.34	4.47
285.713	4.47
286.085	4.25
286.457	4.21
286.829	4.18
287.201	4.08
287.572	3.92
287.944	4.11
288.316	4.24
288.688	4.27
289.06	4.28
289.431	4.37
289.803	4.47
290.175	4.35
290.546	4.11
290.918	4.13
291.289	4.12
291.661	4.13
292.032	4.01
292.403	4.12
292.775	4.14
293.146	4.25
293.517	4.16
293.889	4.16
294.26	4.26
294.631	4.34
295.002	4.51
295.373	4.63
295.744	4.58
296.115	4.48
296.486	4.49
296.857	4.45
297.228	4.38
297.599	4.31
297.97	4.53
298.34	4.6
298.711	4.53
299.082	4.5
299.452	4.49
299.823	4.55
300.194	4.64
300.564	4.51
300.935	4.53
301.305	4.64
301.676	4.78
302.046	4.73
302.416	4.63
302.787	4.56
303.157	4.65
303.527	4.62
303.897	4.78
304.267	4.7
304.637	4.8
305.008	4.84
305.378	4.84
305.748	4.63
306.117	4.68
306.487	4.71
306.857	4.6
307.227	4.68
307.597	4.59
307.967	4.56
308.336	4.8
308.706	4.67
309.076	4.49
309.445	4.67
309.815	4.52
310.184	4.53
310.554	4.44
310.923	4.26
311.293	4.31
311.662	4.21
312.031	4.1
312.401	3.96
312.77	3.91
313.139	3.89
313.508	4
313.877	4
314.246	3.89
314.616	3.97
314.985	3.88
315.353	3.89
315.722	3.87
316.091	3.71
316.46	3.82
316.829	4.1
317.198	4
317.567	4.13
317.935	4.21
318.304	4.33
318.672	4.46
319.041	4.39
319.41	4.35
319.778	4.52
320.147	4.58
320.515	4.7
320.883	4.59
321.252	4.55
321.62	4.54
321.988	4.66
322.357	4.65
322.725	4.6
323.093	4.66
323.461	4.64
323.829	4.61
324.197	4.41
324.565	4.21
324.933	4
325.301	3.89
325.669	3.89
326.037	3.92
326.405	3.92
326.772	4.11
327.14	4.09
327.508	3.96
327.875	3.97
328.243	3.97
328.61	3.94
328.978	3.89
329.346	3.78
329.713	3.8
330.08	3.85
330.448	3.73
330.815	3.63
331.182	3.61
331.55	3.58
331.917	3.48
332.284	3.66
332.651	3.8
333.018	3.87
333.385	3.86
333.752	3.8
334.119	3.92
334.486	3.65
334.853	3.64
335.22	3.71
335.587	3.7
335.954	3.71
336.32	3.75
336.687	3.81
337.054	3.88
337.42	3.86
337.787	3.66
338.153	3.85
338.52	3.96
338.886	3.97
339.253	3.93
339.619	4.12
339.986	4
340.352	3.96
340.718	4.06
341.084	4.13
341.451	4.14
341.817	4.03
342.183	4.12
342.549	4.1
342.915	4.2
343.281	4.26
343.647	4.18
344.013	4.18
344.379	4.13
344.745	4.07
345.11	4.06
345.476	4.25
345.842	4.17
346.208	4.1
346.573	4.1
346.939	4.2
347.304	4.17
347.67	4.23
348.035	4.18
348.401	4.06
348.766	3.85
349.132	3.83
349.497	3.88
349.862	3.88
350.228	3.93
350.593	3.92
350.958	3.92
351.323	3.87
351.688	3.97
352.053	4.07
352.418	4.06
352.783	4.09
353.148	4.07
353.513	4.1
353.878	4
354.243	3.86
354.608	3.87
354.972	3.82
355.337	3.87
355.702	3.9
356.066	3.91
356.431	4.02
356.795	3.97
357.16	3.97
357.524	4
357.889	3.96
358.253	3.92
358.618	3.95
358.982	4.04
359.346	4.01
359.71	3.95
360.075	4
360.439	4.03
360.803	4.01
361.167	3.98
361.531	4.03
361.895	4.12
362.259	4.07
362.623	4.12
362.987	4.09
363.351	4.07
363.714	4.18
364.078	4.22
364.442	4.24
364.806	4.22
365.169	4.21
365.533	4.23
365.896	4.29
366.26	4.25
366.623	4.24
366.987	4.2
367.35	4.25
367.714	4.24
368.077	4.24
368.44	4.2
368.803	4.18
369.167	4.19
369.53	4.19
369.893	4.21
370.256	4.26
370.619	4.16
370.982	4.21
371.345	4.18
371.708	4.14
372.071	4.06
372.434	4.06
372.797	4.01
373.159	4.05
373.522	4.02
373.885	3.99
374.247	3.98
374.61	3.99
374.973	4.01
375.335	3.98
375.698	3.86
376.06	3.83
376.423	3.8
376.785	3.82
377.147	3.8
377.51	3.8
377.872	3.81
378.234	3.86
378.596	3.83
378.958	3.81
379.321	3.79
379.683	3.88
380.045	3.87
380.407	3.94
380.769	3.92
381.13	3.87
381.492	3.88
381.854	3.89
382.216	4
382.578	3.99
382.939	4.05
383.301	4.08
383.663	4.09
384.024	4.21
384.386	4.23
384.747	4.22
385.109	4.2
385.47	4.17
385.832	4.16
386.193	4.19
386.554	4.18
386.916	4.2
387.277	4.16
387.638	4.16
387.999	4.12
388.36	4.12
388.721	4.11
389.082	4.15
389.443	4.12
389.804	4.05
390.165	4.01
390.526	4.02
390.887	4.01
391.248	4.02
391.609	4
391.969	4.01
392.33	4
392.691	4
393.051	4.03
393.412	4.04
393.772	4.04
394.133	4.02
394.493	4
394.854	3.99
395.214	4
395.574	4.02
395.935	4.01
396.295	4.03
396.655	4.02
397.015	4.04
397.376	4.05
397.736	4.03
398.096	4.03
398.456	4.03
398.816	4.03
399.176	3.98
399.535	3.96
399.895	3.97
400.255	3.94
400.615	3.91
400.975	3.91
401.334	3.89
401.694	3.92
402.054	3.93
402.413	3.95
402.773	3.96
403.132	3.94
403.492	3.97
403.851	3.96
404.211	3.95
404.57	3.92
404.929	3.95
405.288	3.99
405.648	3.98
406.007	4.03
406.366	4.03
406.725	4.07
407.084	4.1
407.443	4.12
407.802	4.16
408.161	4.2
408.52	4.19
408.879	4.21
409.238	4.2
409.596	4.22
409.955	4.21
410.314	4.17
410.673	4.16
411.031	4.12
411.39	4.13
411.748	4.17
412.107	4.18
412.465	4.15
412.824	4.13
413.182	4.14
413.54	4.14
413.899	4.14
414.257	4.14
414.615	4.13
414.974	4.13
415.332	4.13
415.69	4.11
416.048	4.11
416.406	4.1
416.764	4.1
417.122	4.09
417.48	4.11
417.838	4.12
418.195	4.13
418.553	4.14
418.911	4.13
419.269	4.1
419.626	4.11
419.984	4.1
420.342	4.1
420.699	4.09
421.057	4.08
421.414	4.08
421.772	4.05
422.129	4.05
422.486	4.07
422.844	4.06
423.201	4.07
423.558	4.06
423.915	4.06
424.273	4.05
424.63	4.04
424.987	4.04
425.344	4.02
425.701	4.01
426.058	4.03
426.415	4.04
426.772	4.05
427.128	4.04
427.485	4.04
427.842	4.03
428.199	4.03
428.555	4.04
428.912	4.04
429.269	4.05
429.625	4.04
429.982	4.02
430.338	4.01
430.695	3.98
431.051	4.01
431.407	4.01
431.764	4.03
432.12	4.05
432.476	4.07
432.832	4.09
433.189	4.09
433.545	4.08
433.901	4.09
434.257	4.07
434.613	4.07
434.969	4.06
435.325	4.08
435.681	4.06
436.036	4.05
436.392	4.01
436.748	4.03
437.104	4.03
437.459	4.03
437.815	4.04
438.171	4.04
438.526	4.02
438.882	4.02
439.237	4.02
439.593	4.02
439.948	4
440.304	3.98
440.659	3.98
441.014	3.99
441.369	3.98
441.725	3.99
442.08	3.97
442.435	3.99
442.79	3.98
443.145	4
443.5	3.99
443.855	4.02
444.21	4.01
444.565	4.01
444.92	4.01
445.275	3.99
445.629	3.97
445.984	3.96
446.339	3.95
446.693	3.94
447.048	3.92
447.403	3.93
447.757	3.95
448.112	3.94
448.466	3.94
448.82	3.93
449.175	3.92
449.529	3.96
449.883	3.93
450.238	3.94
450.592	3.91
450.946	3.93
451.3	3.9
451.654	3.91
452.008	3.9
452.362	3.91
452.716	3.9
453.07	3.91
453.424	3.93
453.778	3.94
454.132	3.94
454.486	3.97
454.839	3.97
455.193	3.97
455.547	3.99
455.9	4.02
456.254	4.04
456.607	4.05
456.961	4.03
457.314	4.05
457.668	4.06
458.021	4.06
458.375	4.05
458.728	4.08
459.081	4.07
459.434	4.07
459.787	4.08
460.141	4.09
460.494	4.12
460.847	4.1
461.2	4.11
461.553	4.11
461.906	4.1
462.259	4.1
462.611	4.1
462.964	4.08
463.317	4.04
463.67	4.06
464.022	4.07
464.375	4.03
464.728	4.04
465.08	4.03
465.433	4.04
465.785	4.03
466.138	4.02
466.49	4.05
466.843	4.06
467.195	4.06
467.547	4.06
467.899	4.06
468.252	4.08
468.604	4.05
468.956	4.06
469.308	4.04
469.66	4.05
470.012	4.05
470.364	4.07
470.716	4.09
471.068	4.06
471.42	4.04
471.772	4.08
472.123	4.05
472.475	4.07
472.827	4.09
473.178	4.07
473.53	4.06
473.882	4.07
474.233	4.06
474.585	4.05
474.936	4.05
475.288	4.05
475.639	4.05
475.99	4.07
476.342	4.07
476.693	4.1
477.044	4.1
477.395	4.1
477.746	4.08
478.097	4.07
478.448	4.06
478.8	4.08
479.15	4.07
479.501	4.09
479.852	4.09
480.203	4.1
480.554	4.14
480.905	4.18
481.255	4.17
481.606	4.17
481.957	4.17
482.307	4.17
482.658	4.17
483.009	4.18
483.359	4.18
483.709	4.18
484.06	4.18
484.41	4.16
484.761	4.17
485.111	4.17
485.461	4.17
485.811	4.18
486.162	4.17
486.512	4.18
486.862	4.18
487.212	4.18
487.562	4.16
487.912	4.15
488.262	4.14
488.612	4.15
488.961	4.14
489.311	4.14
489.661	4.14
490.011	4.13
490.36	4.13
490.71	4.12
491.06	4.12
491.409	4.12
491.759	4.13
492.108	4.13
492.458	4.14
492.807	4.15
493.157	4.15
493.506	4.16
493.855	4.16
494.204	4.17
494.554	4.16
494.903	4.16
495.252	4.16
495.601	4.16
495.95	4.17
496.299	4.18
496.648	4.2
496.997	4.21
497.346	4.24
497.695	4.24
498.043	4.25
498.392	4.27
498.741	4.26
499.09	4.26
499.438	4.29
499.787	4.28
500.135	4.26
500.484	4.26
500.832	4.28
501.181	4.28
501.529	4.27
501.878	4.32
502.226	4.35
502.574	4.34
502.923	4.34
503.271	4.34
503.619	4.33
503.967	4.32
504.315	4.33
504.663	4.33
505.011	4.33
505.359	4.32
505.707	4.32
506.055	4.33
506.403	4.32
506.751	4.33
507.098	4.33
507.446	4.36
507.794	4.37
508.141	4.36
508.489	4.37
508.837	4.37
509.184	4.33
509.531	4.31
509.879	4.31
510.226	4.31
510.574	4.32
510.921	4.34
511.268	4.34
511.616	4.34
511.963	4.34
512.31	4.37
512.657	4.38
513.004	4.38
513.351	4.37
513.698	4.4
514.045	4.39
514.392	4.37
514.739	4.36
515.086	4.37
515.432	4.38
515.779	4.37
516.126	4.39
516.473	4.4
516.819	4.43
517.166	4.46
517.512	4.45
517.859	4.45
518.205	4.44
518.552	4.47
518.898	4.47
519.245	4.47
519.591	4.47
519.937	4.48
520.283	4.5
520.629	4.51
520.976	4.49
521.322	4.51
521.668	4.52
522.014	4.53
522.36	4.53
522.706	4.52
523.052	4.54
523.398	4.54
523.743	4.55
524.089	4.56
524.435	4.55
524.781	4.54
525.126	4.56
525.472	4.56
525.817	4.58
526.163	4.58
526.509	4.59
526.854	4.59
527.199	4.61
527.545	4.61
527.89	4.63
528.235	4.64
528.581	4.64
528.926	4.65
529.271	4.65
529.616	4.66
529.961	4.67
530.306	4.68
530.651	4.69
530.996	4.71
531.341	4.71
531.686	4.72
532.031	4.74
532.376	4.74
532.721	4.75
533.065	4.73
533.41	4.75
533.755	4.76
534.099	4.76
534.444	4.74
534.788	4.74
535.133	4.74
535.477	4.75
535.822	4.74
536.166	4.76
536.51	4.78
536.855	4.8
537.199	4.8
537.543	4.81
537.887	4.8
538.231	4.79
538.576	4.78
538.92	4.78
539.264	4.8
539.608	4.8
539.951	4.79
540.295	4.8
540.639	4.8
540.983	4.81
541.327	4.82
541.671	4.8
542.014	4.82
542.358	4.81
542.701	4.83
543.045	4.82
543.389	4.83
543.732	4.81
544.075	4.82
544.419	4.81
544.762	4.81
545.105	4.81
545.449	4.82
545.792	4.83
546.135	4.84
546.478	4.82
546.821	4.83
547.165	4.85
547.508	4.85
547.851	4.85
548.194	4.83
548.536	4.82
548.879	4.84
549.222	4.85
549.565	4.82
549.908	4.81
550.25	4.84
550.593	4.8
550.936	4.83
551.278	4.81
551.621	4.8
551.963	4.83
552.306	4.85
552.648	4.86
552.991	4.85
553.333	4.84
553.675	4.88
554.017	4.86
554.36	4.84
554.702	4.83
555.044	4.83
555.386	4.83
555.728	4.87
556.07	4.84
556.412	4.81
556.754	4.81
557.096	4.79
557.438	4.81
557.78	4.81
558.121	4.8
558.463	4.77
558.805	4.78
559.147	4.74
559.488	4.69
559.83	4.68
560.171	4.69
560.513	4.71
560.854	4.71
561.196	4.75
561.537	4.79
561.878	4.79
562.22	4.79
562.561	4.8
562.902	4.8
563.243	4.82
563.584	4.84
563.925	4.86
564.266	4.88
564.607	4.88
564.948	4.89
565.289	4.9
565.63	4.92
565.971	4.91
566.312	4.92
566.653	4.94
566.993	4.91
567.334	4.94
567.675	4.89
568.015	4.89
568.356	4.86
568.696	4.86
569.037	4.87
569.377	4.86
569.718	4.85
570.058	4.84
570.398	4.85
570.739	4.83
571.079	4.83
571.419	4.8
571.759	4.78
572.099	4.76
572.439	4.74
572.779	4.75
573.119	4.77
573.459	4.79
573.799	4.81
574.139	4.82
574.479	4.82
574.819	4.84
575.158	4.83
575.498	4.84
575.838	4.82
576.177	4.82
576.517	4.84
576.856	4.83
577.196	4.83
577.535	4.81
577.875	4.85
578.214	4.84
578.553	4.87
578.893	4.91
579.232	4.92
579.571	4.97
579.91	4.95
580.25	4.94
580.589	4.93
580.928	4.91
581.267	4.94
581.606	4.91
581.945	4.91
582.283	4.89
582.622	4.84
582.961	4.87
583.3	4.87
583.639	4.9
583.977	4.89
584.316	4.91
584.654	4.91
584.993	4.88
585.332	4.88
585.67	4.9
586.008	4.95
586.347	4.94
586.685	4.91
587.024	4.93
587.362	5
587.7	4.98
588.038	5.01
588.376	5
588.715	5.06
589.053	5.08
589.391	5.06
589.729	5.12
590.067	5.11
590.404	5.09
590.742	5.06
591.08	5.09
591.418	5.09
591.756	5.11
592.093	5.11
592.431	5.11
592.769	5.05
593.106	4.99
593.444	5
593.781	5.03
594.119	4.98
594.456	4.97
594.793	4.98
595.131	4.96
595.468	4.94
595.805	4.93
596.143	4.91
596.48	4.97
596.817	4.96
597.154	4.99
597.491	5.01
597.828	5
598.165	5.02
598.502	5
598.839	4.99
599.176	5.01
599.512	5.01
599.849	5.03
600.186	5.04
600.523	5.03
600.859	5.04
601.196	5.09
601.532	5.07
601.869	5.05
602.205	5.06
602.542	5.03
602.878	5
603.215	5.04
603.551	5.02
603.887	5.03
604.223	5.05
604.56	5.03
604.896	5.04
605.232	5.03
605.568	5.04
605.904	5.04
606.24	5.07
606.576	5.09
606.912	5.1
607.248	5.14
607.583	5.16
607.919	5.12
608.255	5.11
608.591	5.12
608.926	5.12
609.262	5.12
609.597	5.15
609.933	5.16
610.268	5.19
610.604	5.21
610.939	5.2
611.275	5.2
611.61	5.21
611.945	5.18
612.281	5.18
612.616	5.18
612.951	5.21
613.286	5.14
613.621	5.19
613.956	5.22
614.291	5.13
614.626	5.15
614.961	5.18
615.296	5.21
615.631	5.19
615.966	5.28
616.3	5.31
616.635	5.31
616.97	5.33
617.304	5.22
617.639	5.26
617.973	5.26
618.308	5.24
618.642	5.24
618.977	5.26
619.311	5.23
619.646	5.25
619.98	5.26
620.314	5.27
620.648	5.27
620.983	5.23
621.317	5.36
621.651	5.38
621.985	5.39
622.319	5.36
622.653	5.38
622.987	5.35
623.321	5.34
623.655	5.35
623.988	5.32
624.322	5.39
624.656	5.35
624.99	5.37
625.323	5.35
625.657	5.38
625.99	5.39
626.324	5.43
626.657	5.4
626.991	5.4
627.324	5.45
627.658	5.44
627.991	5.48
628.324	5.34
628.657	5.33
628.991	5.33
629.324	5.37
629.657	5.31
629.99	5.32
630.323	5.35
630.656	5.35
630.989	5.37
631.322	5.38
631.655	5.34
631.987	5.32
632.32	5.33
632.653	5.3
632.986	5.3
633.318	5.28
633.651	5.31
633.984	5.29
634.316	5.27
634.649	5.25
634.981	5.24
635.313	5.37
635.646	5.31
635.978	5.28
636.31	5.23
636.643	5.25
636.975	5.25
637.307	5.23
637.639	5.19
637.971	5.2
638.303	5.14
638.635	5.16
638.967	5.2
639.299	5.22
639.631	5.21
639.963	5.2
640.295	5.27
640.626	5.22
640.958	5.29
641.29	5.28
641.621	5.31
641.953	5.27
642.285	5.26
642.616	5.35
642.948	5.36
643.279	5.4
643.61	5.49
643.942	5.47
644.273	5.44
644.604	5.42
644.936	5.38
645.267	5.44
645.598	5.45
645.929	5.45
646.26	5.37
646.591	5.39
646.922	5.46
647.253	5.35
647.584	5.34
647.915	5.33
648.245	5.3
648.576	5.26
648.907	5.23
649.238	5.2
649.568	5.14
649.899	5.16
650.229	5.16
650.56	5.21
650.89	5.26
651.221	5.28
651.551	5.34
651.882	5.4
652.212	5.41
652.542	5.33
652.872	5.37
653.203	5.42
653.533	5.43
653.863	5.37
654.193	5.41
654.523	5.49
654.853	5.54
655.183	5.59
655.513	5.62
655.843	5.74
656.172	5.85
656.502	5.84
656.832	5.87
657.162	5.9
657.491	5.78
657.821	5.78
658.15	5.75
658.48	5.81
658.809	5.8
659.139	5.79
659.468	5.93
659.798	5.92
660.127	5.96
660.456	5.94
660.785	5.95
661.115	5.98
661.444	6.04
661.773	5.96
662.102	5.91
662.431	5.9
662.76	5.85
663.089	5.83
663.418	5.82
663.747	5.82
664.076	5.82
664.404	5.83
664.733	5.89
665.062	5.87
665.39	5.8
665.719	5.75
666.048	5.75
666.376	5.62
666.705	5.55
667.033	5.61
667.362	5.63
667.69	5.67
668.018	5.6
668.347	5.5
668.675	5.56
669.003	5.55
669.331	5.54
669.659	5.49
669.987	5.39
670.315	5.45
670.643	5.46
670.971	5.38
671.299	5.4
671.627	5.4
671.955	5.5
672.283	5.52
672.61	5.62
672.938	5.73
673.266	5.8
673.593	5.81
673.921	5.74
674.249	5.68
674.576	5.67
674.904	5.67
675.231	5.66
675.558	5.71
675.886	5.78
676.213	5.77
676.54	5.81
676.867	5.85
677.195	5.88
677.522	5.85
677.849	5.94
