Data from BA17726_Reflection_00003.txt Node
Date: Tue Nov 19 11:56:49 EST 2019
User: vgr7
Spectrometer: USB2G7710
Scans to average: 3
Trigger mode: 4
Integration Time (sec): 2.000000E-2
Electric dark correction enabled: true
Boxcar width: 10
XAxis mode: Wavelengths
Number of Pixels in Spectrum: 2048
>>>>>Begin Spectral Data<<<<<
177.721	89.98
178.105	145.45
178.488	125.52
178.871	73.08
179.254	35.48
179.636	33.19
180.019	18.16
180.402	75
180.785	4.35
181.168	-23.48
181.55	32.77
181.933	-76.47
182.316	-106.9
182.698	62.26
183.081	0.9
183.463	71.01
183.846	3.23
184.228	117.09
184.611	119.14
184.993	170.27
185.376	255.28
185.758	129.29
186.14	134.15
186.522	83.65
186.904	79.1
187.287	58.85
187.669	95.35
188.051	146.24
188.433	6433.33
188.815	532.43
189.197	-865.52
189.579	214.75
189.961	182.64
190.342	93.87
190.724	149.18
191.106	-384.85
191.488	273.91
191.869	79.27
192.251	58.58
192.633	59.8
193.014	35.06
193.396	29.13
193.777	29.55
194.159	35.25
194.54	50.12
194.922	39.61
195.303	42.64
195.684	29.62
196.065	-0.15
196.447	5.49
196.828	8.87
197.209	17.62
197.59	21.02
197.971	3.82
198.352	21.09
198.733	13.65
199.114	11.86
199.495	2.23
199.876	-6.15
200.257	1.28
200.638	2.05
201.018	6.75
201.399	2.47
201.78	4.44
202.16	7.59
202.541	9.65
202.922	-9.3
203.302	-4.43
203.683	-5.96
204.063	2.07
204.444	3.87
204.824	11.41
205.204	19
205.585	20.4
205.965	22.81
206.345	-0.19
206.725	1.33
207.106	20.07
207.486	38.95
207.866	32.46
208.246	21.1
208.626	6.87
209.006	-2.78
209.386	-0.57
209.766	6.31
210.145	-9.06
210.525	-6.29
210.905	12.62
211.285	22.84
211.664	30.72
212.044	35.74
212.424	38.91
212.803	53.26
213.183	35.34
213.562	35.48
213.942	29.59
214.321	28.78
214.701	29.52
215.08	11.04
215.459	23.08
215.838	31.09
216.218	39.87
216.597	31.48
216.976	32.4
217.355	32.89
217.734	32
218.113	31.54
218.492	22.21
218.871	23.89
219.25	27.58
219.629	26.68
220.008	21.62
220.387	19.13
220.766	9.22
221.144	9.16
221.523	7.1
221.902	15.55
222.28	18.29
222.659	23.66
223.037	30.14
223.416	23.88
223.794	22.81
224.173	10.15
224.551	16.72
224.929	11.51
225.308	9.24
225.686	4.57
226.064	9.32
226.442	15.18
226.821	12.91
227.199	7.06
227.577	6.74
227.955	8.47
228.333	9.19
228.711	10.27
229.089	8.19
229.467	7.28
229.845	6.22
230.222	7.21
230.6	5.33
230.978	6.09
231.356	5.04
231.733	5.44
232.111	5.95
232.488	4.32
232.866	7.5
233.243	6.8
233.621	7.58
233.998	5.51
234.376	3.93
234.753	2.65
235.13	3.12
235.508	2.17
235.885	2.73
236.262	1.67
236.639	1.24
237.016	1.23
237.393	1.8
237.77	2.94
238.147	3.38
238.524	4.63
238.901	4.2
239.278	4.49
239.655	4.29
240.032	4.78
240.409	5.3
240.785	5.48
241.162	5.46
241.539	5.44
241.915	5.85
242.292	5.88
242.668	6.5
243.045	6.39
243.421	6.46
243.798	6.15
244.174	6.12
244.551	6.11
244.927	5.89
245.303	5.79
245.679	5.54
246.056	5.38
246.432	5.05
246.808	4.99
247.184	5.19
247.56	5.03
247.936	5.16
248.312	5.15
248.688	4.72
249.064	4.84
249.44	4.93
249.815	4.76
250.191	4.84
250.567	4.68
250.943	4.57
251.318	4.51
251.694	4.61
252.069	4.61
252.445	4.77
252.82	5.29
253.196	5.4
253.571	5.7
253.947	5.78
254.322	5.93
254.697	6.09
255.073	5.87
255.448	5.9
255.823	5.77
256.198	5.63
256.573	5.6
256.948	5.35
257.323	5.43
257.698	5.26
258.073	5.14
258.448	5.09
258.823	5.08
259.198	5.13
259.573	5.06
259.948	5.09
260.322	4.81
260.697	4.64
261.072	4.69
261.446	4.57
261.821	4.35
262.195	4.3
262.57	4.26
262.944	4.18
263.319	4.27
263.693	4.37
264.067	4.25
264.442	4.37
264.816	4.42
265.19	4.18
265.564	4.28
265.938	4.42
266.313	4.29
266.687	4.27
267.061	4.22
267.435	4.28
267.809	4.21
268.183	4.22
268.556	4.27
268.93	4.15
269.304	4.21
269.678	4.51
270.051	4.58
270.425	4.7
270.799	4.69
271.172	4.57
271.546	4.62
271.919	4.7
272.293	4.7
272.666	4.94
273.04	5.07
273.413	5.25
273.787	5.23
274.16	5.2
274.533	5.25
274.906	5.34
275.279	5.3
275.653	5.32
276.026	5.56
276.399	5.54
276.772	5.73
277.145	5.56
277.518	5.38
277.891	5.3
278.263	5.3
278.636	5.42
279.009	5.5
279.382	5.32
279.755	5.32
280.127	5.23
280.5	5.01
280.872	5
281.245	5
281.617	4.9
281.99	4.97
282.362	4.9
282.735	4.98
283.107	4.85
283.479	4.83
283.852	4.82
284.224	4.7
284.596	4.59
284.968	4.62
285.34	4.51
285.713	4.48
286.085	4.41
286.457	4.27
286.829	4.25
287.201	4.25
287.572	4.19
287.944	4.23
288.316	4.28
288.688	4.32
289.06	4.24
289.431	4.18
289.803	4.15
290.175	4.11
290.546	3.95
290.918	3.97
291.289	3.86
291.661	3.75
292.032	3.82
292.403	3.77
292.775	3.82
293.146	3.96
293.517	4.12
293.889	4.13
294.26	4.26
294.631	4.35
295.002	4.43
295.373	4.47
295.744	4.47
296.115	4.46
296.486	4.39
296.857	4.39
297.228	4.41
297.599	4.52
297.97	4.6
298.34	4.69
298.711	4.88
299.082	5.03
299.452	4.89
299.823	4.88
300.194	4.99
300.564	4.94
300.935	4.98
301.305	4.83
301.676	4.69
302.046	4.61
302.416	4.5
302.787	4.41
303.157	4.53
303.527	4.64
303.897	4.52
304.267	4.49
304.637	4.42
305.008	4.45
305.378	4.34
305.748	4.36
306.117	4.17
306.487	4.17
306.857	4.25
307.227	4.57
307.597	4.65
307.967	4.66
308.336	4.5
308.706	4.43
309.076	4.67
309.445	4.76
309.815	4.8
310.184	4.81
310.554	4.77
310.923	4.67
311.293	4.51
311.662	4.61
312.031	4.58
312.401	4.73
312.77	4.68
313.139	4.68
313.508	4.67
313.877	4.76
314.246	4.63
314.616	4.51
314.985	4.43
315.353	4.35
315.722	4.27
316.091	4.48
316.46	4.58
316.829	4.36
317.198	4.46
317.567	4.64
317.935	4.75
318.304	4.83
318.672	4.86
319.041	4.97
319.41	4.97
319.778	4.91
320.147	4.72
320.515	4.81
320.883	4.81
321.252	4.84
321.62	4.76
321.988	4.74
322.357	4.82
322.725	4.77
323.093	4.73
323.461	4.63
323.829	4.55
324.197	4.48
324.565	4.53
324.933	4.37
325.301	4.11
325.669	4.06
326.037	4.17
326.405	4.32
326.772	4.37
327.14	4.25
327.508	4.38
327.875	4.34
328.243	4.41
328.61	4.43
328.978	4.35
329.346	4.35
329.713	4.5
330.08	4.48
330.448	4.51
330.815	4.63
331.182	4.7
331.55	4.71
331.917	4.76
332.284	4.69
332.651	4.83
333.018	4.83
333.385	4.77
333.752	4.74
334.119	4.58
334.486	4.51
334.853	4.55
335.22	4.42
335.587	4.45
335.954	4.24
336.32	4.28
336.687	4.36
337.054	4.37
337.42	4.35
337.787	4.23
338.153	4.18
338.52	4.12
338.886	4.22
339.253	4.28
339.619	4.25
339.986	4.22
340.352	4.16
340.718	4.33
341.084	4.48
341.451	4.61
341.817	4.63
342.183	4.61
342.549	4.66
342.915	4.76
343.281	4.8
343.647	4.94
344.013	4.82
344.379	4.81
344.745	4.84
345.11	4.84
345.476	5.01
345.842	5.04
346.208	5.07
346.573	4.97
346.939	4.97
347.304	4.88
347.67	4.91
348.035	4.86
348.401	4.63
348.766	4.44
349.132	4.23
349.497	4.2
349.862	4.29
350.228	4.32
350.593	4.27
350.958	4.38
351.323	4.28
351.688	4.33
352.053	4.27
352.418	4.27
352.783	4.25
353.148	4.08
353.513	4.07
353.878	4.07
354.243	4.05
354.608	4.12
354.972	4.13
355.337	4.16
355.702	4.3
356.066	4.47
356.431	4.49
356.795	4.56
357.16	4.56
357.524	4.51
357.889	4.45
358.253	4.43
358.618	4.43
358.982	4.42
359.346	4.44
359.71	4.47
360.075	4.51
360.439	4.49
360.803	4.63
361.167	4.62
361.531	4.6
361.895	4.61
362.259	4.53
362.623	4.66
362.987	4.62
363.351	4.56
363.714	4.58
364.078	4.59
364.442	4.55
364.806	4.55
365.169	4.59
365.533	4.6
365.896	4.66
366.26	4.57
366.623	4.6
366.987	4.51
367.35	4.5
367.714	4.36
368.077	4.31
368.44	4.19
368.803	4.22
369.167	4.19
369.53	4.12
369.893	4.19
370.256	4.09
370.619	4.1
370.982	4.04
371.345	4.01
371.708	3.99
372.071	3.99
372.434	3.93
372.797	3.92
373.159	3.97
373.522	3.9
373.885	3.91
374.247	3.9
374.61	3.98
374.973	4.02
375.335	4.19
375.698	4.17
376.06	4.18
376.423	4.17
376.785	4.19
377.147	4.22
377.51	4.16
377.872	4.22
378.234	4.21
378.596	4.19
378.958	4.15
379.321	4.16
379.683	4.12
380.045	4.16
380.407	4.1
380.769	4.11
381.13	4.1
381.492	4.09
381.854	4.08
382.216	4.07
382.578	4.01
382.939	3.96
383.301	3.99
383.663	3.98
384.024	3.96
384.386	3.99
384.747	3.97
385.109	3.95
385.47	3.95
385.832	3.94
386.193	4
386.554	4.05
386.916	4.05
387.277	4.08
387.638	4.1
387.999	4.13
388.36	4.07
388.721	4.11
389.082	4.14
389.443	4.16
389.804	4.13
390.165	4.16
390.526	4.15
390.887	4.18
391.248	4.19
391.609	4.2
391.969	4.16
392.33	4.17
392.691	4.17
393.051	4.13
393.412	4.13
393.772	4.12
394.133	4.08
394.493	4.06
394.854	4.05
395.214	4.09
395.574	4.06
395.935	4.08
396.295	4.08
396.655	4.07
397.015	4.06
397.376	4.1
397.736	4.08
398.096	4.1
398.456	4.04
398.816	4.03
399.176	4
399.535	4.02
399.895	4.01
400.255	4
400.615	4.01
400.975	4.04
401.334	4.03
401.694	4.03
402.054	4.06
402.413	4
402.773	4
403.132	4
403.492	3.98
403.851	3.96
404.211	3.97
404.57	3.97
404.929	3.95
405.288	3.97
405.648	3.95
406.007	3.99
406.366	4.04
406.725	4.03
407.084	4.02
407.443	4.04
407.802	4.07
408.161	4.07
408.52	4.05
408.879	4.07
409.238	4.07
409.596	4.06
409.955	4.08
410.314	4.05
410.673	4.08
411.031	4.08
411.39	4.12
411.748	4.15
412.107	4.1
412.465	4.08
412.824	4.08
413.182	4.06
413.54	4.06
413.899	4.03
414.257	4.07
414.615	4.08
414.974	4.09
415.332	4.08
415.69	4.1
416.048	4.08
416.406	4.05
416.764	4.06
417.122	4.06
417.48	4.08
417.838	4.08
418.195	4.06
418.553	4.05
418.911	4.02
419.269	3.99
419.626	4.03
419.984	4.04
420.342	4.04
420.699	4.05
421.057	4.04
421.414	4.05
421.772	4.05
422.129	4.03
422.486	4.01
422.844	4
423.201	3.99
423.558	3.99
423.915	4.01
424.273	4.01
424.63	4.01
424.987	4.03
425.344	4.01
425.701	4.03
426.058	4.03
426.415	4.04
426.772	4.06
427.128	4.04
427.485	4.05
427.842	4.06
428.199	4.06
428.555	4.06
428.912	4.05
429.269	4.05
429.625	4.06
429.982	4.08
430.338	4.1
430.695	4.1
431.051	4.1
431.407	4.09
431.764	4.1
432.12	4.11
432.476	4.09
432.832	4.1
433.189	4.09
433.545	4.09
433.901	4.1
434.257	4.09
434.613	4.07
434.969	4.07
435.325	4.08
435.681	4.08
436.036	4.07
436.392	4.04
436.748	4.06
437.104	4.08
437.459	4.07
437.815	4.08
438.171	4.1
438.526	4.1
438.882	4.1
439.237	4.09
439.593	4.08
439.948	4.08
440.304	4.07
440.659	4.07
441.014	4.07
441.369	4.07
441.725	4.08
442.08	4.06
442.435	4.05
442.79	4.03
443.145	4.03
443.5	4.03
443.855	4.03
444.21	4.01
444.565	4
444.92	4.01
445.275	3.99
445.629	3.97
445.984	3.97
446.339	3.98
446.693	3.97
447.048	3.97
447.403	3.98
447.757	3.97
448.112	3.97
448.466	3.96
448.82	3.96
449.175	3.93
449.529	3.93
449.883	3.93
450.238	3.95
450.592	3.95
450.946	3.95
451.3	3.97
451.654	3.97
452.008	3.98
452.362	3.98
452.716	3.98
453.07	3.97
453.424	3.97
453.778	3.95
454.132	3.96
454.486	3.95
454.839	3.94
455.193	3.97
455.547	3.96
455.9	3.97
456.254	3.97
456.607	4.01
456.961	4.04
457.314	4.03
457.668	4.02
458.021	4.02
458.375	4.01
458.728	3.99
459.081	3.99
459.434	3.99
459.787	4.01
460.141	4
460.494	4.03
460.847	4.03
461.2	4.05
461.553	4.05
461.906	4.07
462.259	4.08
462.611	4.08
462.964	4.08
463.317	4.09
463.67	4.1
464.022	4.1
464.375	4.11
464.728	4.11
465.08	4.12
465.433	4.13
465.785	4.14
466.138	4.16
466.49	4.18
466.843	4.2
467.195	4.19
467.547	4.21
467.899	4.21
468.252	4.2
468.604	4.19
468.956	4.19
469.308	4.18
469.66	4.16
470.012	4.15
470.364	4.14
470.716	4.13
471.068	4.11
471.42	4.13
471.772	4.12
472.123	4.13
472.475	4.14
472.827	4.15
473.178	4.15
473.53	4.13
473.882	4.14
474.233	4.12
474.585	4.11
474.936	4.08
475.288	4.06
475.639	4.07
475.99	4.07
476.342	4.08
476.693	4.1
477.044	4.1
477.395	4.08
477.746	4.07
478.097	4.07
478.448	4.08
478.8	4.06
479.15	4.04
479.501	4.04
479.852	4.04
480.203	4.03
480.554	4.05
480.905	4.06
481.255	4.05
481.606	4.06
481.957	4.05
482.307	4.06
482.658	4.07
483.009	4.08
483.359	4.08
483.709	4.08
484.06	4.07
484.41	4.07
484.761	4.09
485.111	4.1
485.461	4.11
485.811	4.11
486.162	4.11
486.512	4.11
486.862	4.12
487.212	4.12
487.562	4.13
487.912	4.12
488.262	4.11
488.612	4.11
488.961	4.11
489.311	4.12
489.661	4.12
490.011	4.13
490.36	4.13
490.71	4.11
491.06	4.11
491.409	4.12
491.759	4.14
492.108	4.13
492.458	4.11
492.807	4.12
493.157	4.12
493.506	4.15
493.855	4.15
494.204	4.15
494.554	4.13
494.903	4.14
495.252	4.16
495.601	4.18
495.95	4.21
496.299	4.22
496.648	4.23
496.997	4.25
497.346	4.24
497.695	4.26
498.043	4.29
498.392	4.3
498.741	4.29
499.09	4.29
499.438	4.28
499.787	4.3
500.135	4.29
500.484	4.28
500.832	4.26
501.181	4.29
501.529	4.29
501.878	4.31
502.226	4.34
502.574	4.31
502.923	4.3
503.271	4.26
503.619	4.26
503.967	4.25
504.315	4.23
504.663	4.23
505.011	4.22
505.359	4.21
505.707	4.18
506.055	4.21
506.403	4.21
506.751	4.21
507.098	4.23
507.446	4.22
507.794	4.25
508.141	4.26
508.489	4.24
508.837	4.22
509.184	4.21
509.531	4.17
509.879	4.17
510.226	4.17
510.574	4.2
510.921	4.2
511.268	4.21
511.616	4.24
511.963	4.25
512.31	4.25
512.657	4.23
513.004	4.24
513.351	4.23
513.698	4.23
514.045	4.23
514.392	4.22
514.739	4.24
515.086	4.23
515.432	4.25
515.779	4.27
516.126	4.31
516.473	4.32
516.819	4.32
517.166	4.35
517.512	4.36
517.859	4.36
518.205	4.35
518.552	4.35
518.898	4.35
519.245	4.33
519.591	4.35
519.937	4.39
520.283	4.4
520.629	4.4
520.976	4.42
521.322	4.41
521.668	4.41
522.014	4.41
522.36	4.42
522.706	4.43
523.052	4.43
523.398	4.43
523.743	4.44
524.089	4.44
524.435	4.42
524.781	4.44
525.126	4.43
525.472	4.45
525.817	4.44
526.163	4.44
526.509	4.44
526.854	4.44
527.199	4.45
527.545	4.46
527.89	4.46
528.235	4.46
528.581	4.48
528.926	4.49
529.271	4.49
529.616	4.49
529.961	4.49
530.306	4.49
530.651	4.48
530.996	4.49
531.341	4.51
531.686	4.52
532.031	4.52
532.376	4.53
532.721	4.52
533.065	4.54
533.41	4.54
533.755	4.55
534.099	4.55
534.444	4.53
534.788	4.52
535.133	4.53
535.477	4.54
535.822	4.55
536.166	4.54
536.51	4.53
536.855	4.55
537.199	4.54
537.543	4.54
537.887	4.54
538.231	4.53
538.576	4.5
538.92	4.52
539.264	4.52
539.608	4.52
539.951	4.53
540.295	4.52
540.639	4.52
540.983	4.54
541.327	4.55
541.671	4.57
542.014	4.58
542.358	4.58
542.701	4.57
543.045	4.58
543.389	4.6
543.732	4.6
544.075	4.58
544.419	4.6
544.762	4.61
545.105	4.61
545.449	4.63
545.792	4.65
546.135	4.64
546.478	4.65
546.821	4.68
547.165	4.67
547.508	4.67
547.851	4.65
548.194	4.62
548.536	4.6
548.879	4.61
549.222	4.62
549.565	4.61
549.908	4.6
550.25	4.58
550.593	4.56
550.936	4.6
551.278	4.6
551.621	4.57
551.963	4.59
552.306	4.58
552.648	4.57
552.991	4.59
553.333	4.58
553.675	4.58
554.017	4.55
554.36	4.56
554.702	4.56
555.044	4.6
555.386	4.62
555.728	4.66
556.07	4.63
556.412	4.61
556.754	4.6
557.096	4.63
557.438	4.63
557.78	4.61
558.121	4.59
558.463	4.6
558.805	4.63
559.147	4.6
559.488	4.62
559.83	4.63
560.171	4.59
560.513	4.65
560.854	4.65
561.196	4.64
561.537	4.67
561.878	4.69
562.22	4.71
562.561	4.7
562.902	4.68
563.243	4.69
563.584	4.7
563.925	4.73
564.266	4.72
564.607	4.73
564.948	4.76
565.289	4.79
565.63	4.79
565.971	4.81
566.312	4.81
566.653	4.81
566.993	4.8
567.334	4.85
567.675	4.85
568.015	4.85
568.356	4.85
568.696	4.85
569.037	4.84
569.377	4.83
569.718	4.82
570.058	4.83
570.398	4.83
570.739	4.83
571.079	4.82
571.419	4.8
571.759	4.8
572.099	4.81
572.439	4.79
572.779	4.81
573.119	4.79
573.459	4.8
573.799	4.78
574.139	4.79
574.479	4.76
574.819	4.75
575.158	4.75
575.498	4.76
575.838	4.72
576.177	4.72
576.517	4.72
576.856	4.78
577.196	4.79
577.535	4.79
577.875	4.77
578.214	4.8
578.553	4.83
578.893	4.84
579.232	4.85
579.571	4.88
579.91	4.86
580.25	4.87
580.589	4.85
580.928	4.87
581.267	4.9
581.606	4.91
581.945	4.87
582.283	4.91
582.622	4.92
582.961	4.99
583.3	5.02
583.639	5.05
583.977	5.02
584.316	5
584.654	5.04
584.993	5.12
585.332	5.11
585.67	5.07
586.008	5.05
586.347	5.01
586.685	4.94
587.024	4.96
587.362	4.95
587.7	4.99
588.038	5.01
588.376	4.99
588.715	4.97
589.053	5.03
589.391	4.98
589.729	4.97
590.067	4.95
590.404	4.95
590.742	4.92
591.08	4.92
591.418	4.92
591.756	4.88
592.093	4.8
592.431	4.77
592.769	4.78
593.106	4.82
593.444	4.86
593.781	4.9
594.119	4.89
594.456	4.92
594.793	4.92
595.131	4.92
595.468	4.96
595.805	5
596.143	4.98
596.48	4.99
596.817	4.98
597.154	5
597.491	4.96
597.828	4.96
598.165	4.96
598.502	4.95
598.839	4.96
599.176	4.99
599.512	5.03
599.849	5.07
600.186	5.01
600.523	5
600.859	5
601.196	5.02
601.532	5
601.869	5.02
602.205	4.98
602.542	4.93
602.878	4.93
603.215	4.94
603.551	4.97
603.887	5
604.223	4.99
604.56	5.06
604.896	5.09
605.232	5.11
605.568	5.11
605.904	5.09
606.24	5.13
606.576	5.16
606.912	5.14
607.248	5.19
607.583	5.21
607.919	5.22
608.255	5.21
608.591	5.23
608.926	5.21
609.262	5.21
609.597	5.22
609.933	5.25
610.268	5.3
610.604	5.28
610.939	5.33
611.275	5.35
611.61	5.32
611.945	5.29
612.281	5.28
612.616	5.27
612.951	5.33
613.286	5.34
613.621	5.29
613.956	5.31
614.291	5.31
614.626	5.28
614.961	5.3
615.296	5.33
615.631	5.3
615.966	5.33
616.3	5.38
616.635	5.4
616.97	5.36
617.304	5.31
617.639	5.29
617.973	5.19
618.308	5.17
618.642	5.2
618.977	5.14
619.311	5.16
619.646	5.19
619.98	5.16
620.314	5.12
620.648	5.13
620.983	5.08
621.317	5.07
621.651	5.08
621.985	5.08
622.319	5.03
622.653	5.08
622.987	5.07
623.321	5.15
623.655	5.1
623.988	5.15
624.322	5.15
624.656	5.2
624.99	5.18
625.323	5.2
625.657	5.16
625.99	5.21
626.324	5.23
626.657	5.21
626.991	5.22
627.324	5.25
627.658	5.26
627.991	5.3
628.324	5.29
628.657	5.29
628.991	5.27
629.324	5.29
629.657	5.26
629.99	5.27
630.323	5.18
630.656	5.18
630.989	5.11
631.322	5.09
631.655	5.01
631.987	5.02
632.32	5.04
632.653	5.09
632.986	5.06
633.318	5.05
633.651	5.07
633.984	5.11
634.316	5.14
634.649	5.12
634.981	5.1
635.313	5.13
635.646	5.19
635.978	5.21
636.31	5.21
636.643	5.26
636.975	5.27
637.307	5.29
637.639	5.25
637.971	5.26
638.303	5.32
638.635	5.39
638.967	5.44
639.299	5.42
639.631	5.39
639.963	5.39
640.295	5.38
640.626	5.37
640.958	5.37
641.29	5.31
641.621	5.32
641.953	5.3
642.285	5.34
642.616	5.3
642.948	5.29
643.279	5.33
643.61	5.33
643.942	5.32
644.273	5.41
644.604	5.57
644.936	5.6
645.267	5.53
645.598	5.53
645.929	5.46
646.26	5.43
646.591	5.4
646.922	5.49
647.253	5.54
647.584	5.57
647.915	5.47
648.245	5.52
648.576	5.49
648.907	5.57
649.238	5.56
649.568	5.53
649.899	5.52
650.229	5.53
650.56	5.51
650.89	5.5
651.221	5.44
651.551	5.42
651.882	5.4
652.212	5.45
652.542	5.42
652.872	5.41
653.203	5.48
653.533	5.58
653.863	5.51
654.193	5.46
654.523	5.44
654.853	5.52
655.183	5.52
655.513	5.6
655.843	5.56
656.172	5.58
656.502	5.56
656.832	5.61
657.162	5.62
657.491	5.56
657.821	5.55
658.15	5.59
658.48	5.52
658.809	5.57
659.139	5.6
659.468	5.65
659.798	5.72
660.127	5.68
660.456	5.56
660.785	5.56
661.115	5.63
661.444	5.69
661.773	5.66
662.102	5.63
662.431	5.61
662.76	5.66
663.089	5.66
663.418	5.71
663.747	5.78
664.076	5.75
664.404	5.85
664.733	5.85
665.062	5.84
665.39	5.86
665.719	5.79
666.048	5.76
666.376	5.72
666.705	5.76
667.033	5.79
667.362	5.85
667.69	5.84
668.018	5.75
668.347	5.66
668.675	5.73
669.003	5.78
669.331	5.78
669.659	5.69
669.987	5.65
670.315	5.67
670.643	5.53
670.971	5.57
671.299	5.55
671.627	5.64
671.955	5.64
672.283	5.76
672.61	5.84
672.938	5.84
673.266	5.85
673.593	5.82
673.921	5.82
674.249	5.86
674.576	5.96
674.904	6
675.231	6.02
675.558	6.03
675.886	6.07
676.213	6.12
676.54	6.21
676.867	6.31
677.195	6.34
677.522	6.41
677.849	6.38
678.176	6.36
678.503	6.37
678.83	6.39
679.157	6.4
679.484	6.31
679.81	6.26
680.137	6.37
680.464	6.34
680.791	6.35
681.117	6.38
681.444	6.36
