Data from BA17724_Reflection_00012.txt Node
Date: Tue Nov 19 11:58:08 EST 2019
User: vgr7
Spectrometer: USB2G7710
Scans to average: 3
Trigger mode: 4
Integration Time (sec): 2.000000E-2
Electric dark correction enabled: true
Boxcar width: 10
XAxis mode: Wavelengths
Number of Pixels in Spectrum: 2048
>>>>>Begin Spectral Data<<<<<
177.721	-74.56
178.105	-198.78
178.488	-115.04
178.871	-123.86
179.254	-231.25
179.636	-400
180.019	-153.05
180.402	45.45
180.785	-271.43
181.168	57.22
181.55	350
181.933	76.96
182.316	46.37
182.698	2.83
183.081	6.08
183.463	27.57
183.846	115.34
184.228	155.12
184.611	5225
184.993	620
185.376	-552.54
185.758	7475
186.14	338.46
186.522	808.96
186.904	1175
187.287	175.1
187.669	125
188.051	153.69
188.433	98.88
188.815	74.24
189.197	72.54
189.579	18.88
189.961	82.52
190.342	57.4
190.724	164.16
191.106	134.25
191.488	114.93
191.869	136.27
192.251	70.22
192.633	47.61
193.014	79.43
193.396	43.81
193.777	6.08
194.159	-71.12
194.54	-146.32
194.922	-25
195.303	237.5
195.684	23.91
196.065	39.02
196.447	67.53
196.828	262.79
197.209	-107.32
197.59	-144.68
197.971	152.63
198.352	182.64
198.733	112.38
199.114	141.42
199.495	143.37
199.876	132.89
200.257	294.21
200.638	1100
201.018	173.03
201.399	1662.5
201.78	205.77
202.16	242.86
202.541	198.74
202.922	204.74
203.302	178.37
203.683	191.55
204.063	176.4
204.444	332.82
204.824	1292.86
205.204	1170.31
205.585	3028.57
205.965	-357.55
206.345	-250.53
206.725	-171.19
207.106	-98.19
207.486	-100
207.866	-56.29
208.246	-83.13
208.626	-167.24
209.006	-143.9
209.386	-142.7
209.766	-145.54
210.145	-117.36
210.525	-102.07
210.905	-91.05
211.285	-79.57
211.664	-62.72
212.044	-31.38
212.424	-25.36
212.803	-47.47
213.183	-68.51
213.562	-55.08
213.942	-63.82
214.321	-67.51
214.701	-81.31
215.08	-118.44
215.459	-92.19
215.838	-148.19
216.218	-115.84
216.597	-79.7
216.976	-100.33
217.355	-95.75
217.734	-116.17
218.113	-118.75
218.492	-141.91
218.871	-153.64
219.25	-133.26
219.629	-200.65
220.008	-261.88
220.387	-319.51
220.766	-157.87
221.144	-147.8
221.523	-172.02
221.902	-131.6
222.28	-128.92
222.659	-89.56
223.037	-102.05
223.416	-89.79
223.794	-71.04
224.173	-75.87
224.551	-65.6
224.929	-52.77
225.308	-58.63
225.686	-45.42
226.064	-49.34
226.442	-36.32
226.821	-35.98
227.199	-31.16
227.577	-23.98
227.955	-21.32
228.333	-18.7
228.711	-16
229.089	-16.66
229.467	-20.44
229.845	-23.71
230.222	-18.18
230.6	-21.73
230.978	-16.75
231.356	-13.93
231.733	-10.57
232.111	-12.29
232.488	-12.52
232.866	-9.54
233.243	-8.26
233.621	-5.58
233.998	-4.87
234.376	-3.42
234.753	-0.07
235.13	0.59
235.508	2.5
235.885	2.51
236.262	2.49
236.639	2.16
237.016	3.83
237.393	6.25
237.77	7.7
238.147	6.88
238.524	7.42
238.901	5.87
239.278	5.15
239.655	4.01
240.032	5.15
240.409	5.63
240.785	5.39
241.162	5.88
241.539	5.42
241.915	5.63
242.292	4.98
242.668	4.65
243.045	5.21
243.421	4.77
243.798	4.75
244.174	4.92
244.551	4.9
244.927	5.1
245.303	5.09
245.679	4.79
246.056	4.79
246.432	4.94
246.808	5.33
247.184	5.31
247.56	5.15
247.936	4.84
248.312	4.63
248.688	4.78
249.064	4.55
249.44	4.19
249.815	3.96
250.191	4.1
250.567	4.13
250.943	3.66
251.318	3.7
251.694	3.4
252.069	3.23
252.445	3.05
252.82	2.97
253.196	3.09
253.571	3.32
253.947	3.39
254.322	3.04
254.697	2.8
255.073	2.79
255.448	3.17
255.823	3.49
256.198	3.65
256.573	3.81
256.948	3.81
257.323	4.29
257.698	4.44
258.073	4.14
258.448	4.19
258.823	4.25
259.198	4.34
259.573	4.38
259.948	4.51
260.322	4.59
260.697	4.64
261.072	4.52
261.446	4.51
261.821	4.44
262.195	4.48
262.57	4.42
262.944	4.49
263.319	4.34
263.693	4.46
264.067	4.37
264.442	4.32
264.816	4.44
265.19	4.35
265.564	4.31
265.938	4.56
266.313	4.6
266.687	4.62
267.061	4.48
267.435	4.75
267.809	4.59
268.183	4.58
268.556	4.34
268.93	4.21
269.304	4.04
269.678	4.19
270.051	4.33
270.425	4.38
270.799	4.39
271.172	4.55
271.546	4.57
271.919	4.59
272.293	4.59
272.666	4.64
273.04	4.57
273.413	4.48
273.787	4.62
274.16	4.62
274.533	4.69
274.906	4.72
275.279	4.59
275.653	4.62
276.026	4.44
276.399	4.48
276.772	4.65
277.145	4.56
277.518	4.61
277.891	4.48
278.263	4.68
278.636	4.66
279.009	4.59
279.382	4.49
279.755	4.6
280.127	4.49
280.5	4.25
280.872	4.51
281.245	4.51
281.617	4.39
281.99	4.19
282.362	4.35
282.735	4.35
283.107	4.29
283.479	4.34
283.852	4.48
284.224	4.51
284.596	4.4
284.968	4.49
285.34	4.36
285.713	4.38
286.085	4.23
286.457	4.33
286.829	4.45
287.201	4.35
287.572	4.27
287.944	4.39
288.316	4.47
288.688	4.35
289.06	4.54
289.431	4.57
289.803	4.83
290.175	4.72
290.546	4.74
290.918	4.84
291.289	4.89
291.661	4.8
292.032	4.74
292.403	4.84
292.775	5
293.146	5.11
293.517	5.13
293.889	5.23
294.26	5.13
294.631	5.05
295.002	5.2
295.373	5.2
295.744	5.16
296.115	5.23
296.486	5.31
296.857	5.3
297.228	5.36
297.599	5.21
297.97	5.27
298.34	5.23
298.711	5.22
299.082	5.14
299.452	5.17
299.823	5.17
300.194	5.11
300.564	4.93
300.935	4.85
301.305	4.87
301.676	4.67
302.046	4.69
302.416	4.6
302.787	4.46
303.157	4.59
303.527	4.43
303.897	4.51
304.267	4.47
304.637	4.36
305.008	4.36
305.378	4.37
305.748	4.22
306.117	4.3
306.487	4.33
306.857	4.39
307.227	4.6
307.597	4.55
307.967	4.62
308.336	4.62
308.706	4.69
309.076	4.78
309.445	4.85
309.815	4.89
310.184	4.9
310.554	4.86
310.923	4.76
311.293	4.93
311.662	4.9
312.031	4.88
312.401	4.96
312.77	4.91
313.139	4.9
313.508	4.84
313.877	4.84
314.246	4.74
314.616	4.85
314.985	4.61
315.353	4.58
315.722	4.69
316.091	4.66
316.46	4.63
316.829	4.63
317.198	4.75
317.567	4.79
317.935	4.9
318.304	5.17
318.672	5.16
319.041	5.24
319.41	5.29
319.778	5.29
320.147	5.41
320.515	5.39
320.883	5.72
321.252	5.93
321.62	5.82
321.988	5.82
322.357	5.67
322.725	5.79
323.093	5.93
323.461	5.85
323.829	5.88
324.197	5.84
324.565	5.78
324.933	5.63
325.301	5.47
325.669	5.46
326.037	5.45
326.405	5.65
326.772	5.47
327.14	5.45
327.508	5.48
327.875	5.36
328.243	5.34
328.61	5.02
328.978	4.92
329.346	5.04
329.713	5.03
330.08	5.23
330.448	5.2
330.815	5.11
331.182	5
331.55	5.07
331.917	5
332.284	4.96
332.651	5.07
333.018	5.2
333.385	5.11
333.752	4.93
334.119	4.85
334.486	4.95
334.853	4.86
335.22	4.79
335.587	4.8
335.954	4.87
336.32	5
336.687	5.08
337.054	4.91
337.42	4.93
337.787	4.81
338.153	4.87
338.52	5.06
338.886	5.19
339.253	5.15
339.619	5.39
339.986	5.45
340.352	5.39
340.718	5.44
341.084	5.55
341.451	5.73
341.817	5.59
342.183	5.66
342.549	5.75
342.915	5.88
343.281	5.89
343.647	5.8
344.013	5.8
344.379	5.89
344.745	5.92
345.11	5.94
345.476	5.87
345.842	5.93
346.208	5.87
346.573	5.73
346.939	5.8
347.304	5.63
347.67	5.59
348.035	5.68
348.401	5.64
348.766	5.55
349.132	5.51
349.497	5.64
349.862	5.66
350.228	5.69
350.593	5.62
350.958	5.67
351.323	5.76
351.688	5.8
352.053	5.78
352.418	5.8
352.783	5.86
353.148	5.91
353.513	5.77
353.878	5.84
354.243	5.86
354.608	5.93
354.972	5.98
355.337	6.05
355.702	6.04
356.066	6.11
356.431	6.12
356.795	6.08
357.16	5.98
357.524	5.96
357.889	5.91
358.253	5.92
358.618	5.79
358.982	5.71
359.346	5.7
359.71	5.66
360.075	5.69
360.439	5.69
360.803	5.73
361.167	5.82
361.531	5.76
361.895	5.78
362.259	5.67
362.623	5.62
362.987	5.6
363.351	5.53
363.714	5.47
364.078	5.47
364.442	5.45
364.806	5.41
365.169	5.4
365.533	5.39
365.896	5.43
366.26	5.47
366.623	5.5
366.987	5.46
367.35	5.47
367.714	5.49
368.077	5.49
368.44	5.4
368.803	5.31
369.167	5.26
369.53	5.25
369.893	5.28
370.256	5.3
370.619	5.26
370.982	5.25
371.345	5.27
371.708	5.24
372.071	5.24
372.434	5.29
372.797	5.27
373.159	5.22
373.522	5.11
373.885	5.11
374.247	5.03
374.61	5.01
374.973	4.93
375.335	4.92
375.698	4.85
376.06	4.94
376.423	4.9
376.785	4.93
377.147	4.9
377.51	4.85
377.872	4.82
378.234	4.84
378.596	4.79
378.958	4.78
379.321	4.82
379.683	4.83
380.045	4.75
380.407	4.73
380.769	4.73
381.13	4.77
381.492	4.74
381.854	4.78
382.216	4.82
382.578	4.87
382.939	4.79
383.301	4.77
383.663	4.69
384.024	4.73
384.386	4.69
384.747	4.64
385.109	4.66
385.47	4.62
385.832	4.56
386.193	4.56
386.554	4.49
386.916	4.49
387.277	4.42
387.638	4.48
387.999	4.47
388.36	4.56
388.721	4.51
389.082	4.51
389.443	4.58
389.804	4.56
390.165	4.53
390.526	4.55
390.887	4.56
391.248	4.58
391.609	4.59
391.969	4.55
392.33	4.57
392.691	4.54
393.051	4.54
393.412	4.53
393.772	4.57
394.133	4.56
394.493	4.53
394.854	4.54
395.214	4.53
395.574	4.48
395.935	4.38
396.295	4.4
396.655	4.39
397.015	4.28
397.376	4.23
397.736	4.22
398.096	4.17
398.456	4.13
398.816	4.08
399.176	4.02
399.535	4
399.895	3.99
400.255	3.98
400.615	3.99
400.975	4.02
401.334	3.99
401.694	3.99
402.054	3.96
402.413	4.01
402.773	4.01
403.132	4
403.492	4.01
403.851	4
404.211	3.98
404.57	3.99
404.929	3.99
405.288	3.97
405.648	4
406.007	3.99
406.366	3.98
406.725	4.01
407.084	4.01
407.443	4
407.802	3.99
408.161	3.97
408.52	3.95
408.879	3.95
409.238	3.96
409.596	3.96
409.955	3.92
410.314	3.9
410.673	3.94
411.031	3.92
411.39	3.89
411.748	3.9
412.107	3.92
412.465	3.9
412.824	3.88
413.182	3.88
413.54	3.89
413.899	3.91
414.257	3.92
414.615	3.94
414.974	3.96
415.332	3.98
415.69	3.95
416.048	3.96
416.406	3.9
416.764	3.91
417.122	3.88
417.48	3.87
417.838	3.88
418.195	3.86
418.553	3.84
418.911	3.82
419.269	3.84
419.626	3.83
419.984	3.81
420.342	3.8
420.699	3.8
421.057	3.82
421.414	3.83
421.772	3.81
422.129	3.79
422.486	3.8
422.844	3.77
423.201	3.79
423.558	3.79
423.915	3.8
424.273	3.81
424.63	3.83
424.987	3.83
425.344	3.81
425.701	3.81
426.058	3.82
426.415	3.83
426.772	3.83
427.128	3.84
427.485	3.88
427.842	3.91
428.199	3.9
428.555	3.9
428.912	3.87
429.269	3.85
429.625	3.83
429.982	3.81
430.338	3.83
430.695	3.81
431.051	3.81
431.407	3.81
431.764	3.77
432.12	3.77
432.476	3.76
432.832	3.76
433.189	3.76
433.545	3.76
433.901	3.75
434.257	3.72
434.613	3.69
434.969	3.67
435.325	3.67
435.681	3.68
436.036	3.68
436.392	3.69
436.748	3.74
437.104	3.75
437.459	3.74
437.815	3.74
438.171	3.76
438.526	3.75
438.882	3.75
439.237	3.75
439.593	3.74
439.948	3.74
440.304	3.76
440.659	3.76
441.014	3.74
441.369	3.76
441.725	3.77
442.08	3.79
442.435	3.79
442.79	3.77
443.145	3.77
443.5	3.73
443.855	3.72
444.21	3.7
444.565	3.72
444.92	3.73
445.275	3.72
445.629	3.7
445.984	3.7
446.339	3.7
446.693	3.69
447.048	3.67
447.403	3.68
447.757	3.65
448.112	3.64
448.466	3.63
448.82	3.61
449.175	3.6
449.529	3.59
449.883	3.57
450.238	3.56
450.592	3.55
450.946	3.57
451.3	3.58
451.654	3.57
452.008	3.55
452.362	3.53
452.716	3.54
453.07	3.53
453.424	3.52
453.778	3.51
454.132	3.49
454.486	3.51
454.839	3.49
455.193	3.52
455.547	3.54
455.9	3.56
456.254	3.56
456.607	3.59
456.961	3.61
457.314	3.61
457.668	3.63
458.021	3.64
458.375	3.65
458.728	3.63
459.081	3.63
459.434	3.63
459.787	3.65
460.141	3.66
460.494	3.68
460.847	3.69
461.2	3.7
461.553	3.72
461.906	3.72
462.259	3.71
462.611	3.71
462.964	3.72
463.317	3.73
463.67	3.75
464.022	3.74
464.375	3.72
464.728	3.72
465.08	3.7
465.433	3.69
465.785	3.67
466.138	3.69
466.49	3.68
466.843	3.72
467.195	3.71
467.547	3.68
467.899	3.68
468.252	3.68
468.604	3.71
468.956	3.73
469.308	3.72
469.66	3.74
470.012	3.76
470.364	3.73
470.716	3.75
471.068	3.74
471.42	3.72
471.772	3.73
472.123	3.73
472.475	3.76
472.827	3.79
473.178	3.8
473.53	3.79
473.882	3.8
474.233	3.77
474.585	3.78
474.936	3.8
475.288	3.78
475.639	3.81
475.99	3.76
476.342	3.78
476.693	3.78
477.044	3.8
477.395	3.81
477.746	3.79
478.097	3.75
478.448	3.75
478.8	3.76
479.15	3.75
479.501	3.73
479.852	3.73
480.203	3.73
480.554	3.75
480.905	3.76
481.255	3.76
481.606	3.76
481.957	3.76
482.307	3.76
482.658	3.76
483.009	3.75
483.359	3.77
483.709	3.78
484.06	3.79
484.41	3.79
484.761	3.79
485.111	3.8
485.461	3.82
485.811	3.82
486.162	3.82
486.512	3.83
486.862	3.85
487.212	3.85
487.562	3.84
487.912	3.83
488.262	3.84
488.612	3.84
488.961	3.85
489.311	3.86
489.661	3.85
490.011	3.86
490.36	3.86
490.71	3.86
491.06	3.85
491.409	3.86
491.759	3.85
492.108	3.84
492.458	3.84
492.807	3.82
493.157	3.82
493.506	3.84
493.855	3.83
494.204	3.83
494.554	3.83
494.903	3.84
495.252	3.86
495.601	3.87
495.95	3.87
496.299	3.86
496.648	3.84
496.997	3.85
497.346	3.87
497.695	3.88
498.043	3.87
498.392	3.87
498.741	3.88
499.09	3.87
499.438	3.89
499.787	3.9
500.135	3.92
500.484	3.93
500.832	3.93
501.181	3.98
501.529	3.99
501.878	4.01
502.226	4.03
502.574	4.04
502.923	4.05
503.271	4.04
503.619	4.06
503.967	4.08
504.315	4.11
504.663	4.13
505.011	4.14
505.359	4.15
505.707	4.15
506.055	4.18
506.403	4.22
506.751	4.24
507.098	4.28
507.446	4.32
507.794	4.34
508.141	4.34
508.489	4.36
508.837	4.36
509.184	4.36
509.531	4.37
509.879	4.37
510.226	4.38
510.574	4.41
510.921	4.43
511.268	4.47
511.616	4.5
511.963	4.52
512.31	4.55
512.657	4.58
513.004	4.6
513.351	4.63
513.698	4.66
514.045	4.68
514.392	4.69
514.739	4.71
515.086	4.77
515.432	4.82
515.779	4.84
516.126	4.91
516.473	4.95
516.819	5
517.166	5.04
517.512	5.08
517.859	5.13
518.205	5.15
518.552	5.18
518.898	5.2
519.245	5.24
519.591	5.3
519.937	5.33
520.283	5.38
520.629	5.42
520.976	5.46
521.322	5.53
521.668	5.58
522.014	5.65
522.36	5.68
522.706	5.73
523.052	5.8
523.398	5.86
523.743	5.94
524.089	6
524.435	6.07
524.781	6.15
525.126	6.19
525.472	6.27
525.817	6.32
526.163	6.39
526.509	6.44
526.854	6.48
527.199	6.54
527.545	6.58
527.89	6.64
528.235	6.69
528.581	6.73
528.926	6.77
529.271	6.82
529.616	6.88
529.961	6.93
530.306	7
530.651	7.05
530.996	7.11
531.341	7.19
531.686	7.27
532.031	7.35
532.376	7.45
532.721	7.54
533.065	7.65
533.41	7.73
533.755	7.83
534.099	7.93
534.444	8.03
534.788	8.14
535.133	8.25
535.477	8.36
535.822	8.5
536.166	8.66
536.51	8.82
536.855	8.96
537.199	9.14
537.543	9.29
537.887	9.47
538.231	9.65
538.576	9.84
538.92	10.01
539.264	10.18
539.608	10.36
539.951	10.51
540.295	10.67
540.639	10.82
540.983	10.98
541.327	11.14
541.671	11.32
542.014	11.49
542.358	11.64
542.701	11.79
543.045	11.95
543.389	12.12
543.732	12.29
544.075	12.46
544.419	12.66
544.762	12.89
545.105	13.08
545.449	13.3
545.792	13.52
546.135	13.77
546.478	14.01
546.821	14.26
547.165	14.51
547.508	14.75
547.851	15.05
548.194	15.32
548.536	15.6
548.879	15.87
549.222	16.15
549.565	16.41
549.908	16.7
550.25	16.99
550.593	17.26
550.936	17.54
551.278	17.86
551.621	18.14
551.963	18.38
552.306	18.68
552.648	18.97
552.991	19.23
553.333	19.54
553.675	19.83
554.017	20.09
554.36	20.37
554.702	20.66
555.044	20.97
555.386	21.27
555.728	21.57
556.07	21.88
556.412	22.17
556.754	22.5
557.096	22.86
557.438	23.2
557.78	23.56
558.121	23.89
558.463	24.21
558.805	24.54
559.147	24.86
559.488	25.2
559.83	25.55
560.171	25.9
560.513	26.25
560.854	26.58
561.196	26.95
561.537	27.29
561.878	27.63
562.22	27.96
562.561	28.26
562.902	28.59
563.243	28.92
563.584	29.26
563.925	29.63
564.266	29.94
564.607	30.21
564.948	30.52
565.289	30.76
565.63	31.09
565.971	31.44
566.312	31.73
566.653	32.01
566.993	32.25
567.334	32.5
567.675	32.74
568.015	33.01
568.356	33.28
568.696	33.63
569.037	33.9
569.377	34.16
569.718	34.48
570.058	34.68
570.398	34.98
570.739	35.23
571.079	35.43
571.419	35.67
571.759	35.94
572.099	36.17
572.439	36.46
572.779	36.67
573.119	36.9
573.459	37.15
573.799	37.32
574.139	37.58
574.479	37.84
574.819	38.03
575.158	38.31
575.498	38.57
575.838	38.72
576.177	38.94
576.517	39.16
576.856	39.34
577.196	39.64
577.535	39.81
577.875	40.07
578.214	40.26
578.553	40.51
578.893	40.74
579.232	41.06
579.571	41.31
579.91	41.58
580.25	41.79
580.589	42.09
580.928	42.41
581.267	42.62
581.606	42.84
581.945	43.08
582.283	43.28
582.622	43.5
582.961	43.8
583.3	44.1
583.639	44.36
583.977	44.61
584.316	44.81
584.654	45.05
584.993	45.21
585.332	45.53
585.67	45.78
586.008	46.1
586.347	46.25
586.685	46.47
587.024	46.71
587.362	46.88
587.7	47.08
588.038	47.24
588.376	47.46
588.715	47.64
589.053	47.88
589.391	48.14
589.729	48.32
590.067	48.47
590.404	48.52
590.742	48.69
591.08	49.01
591.418	49.2
591.756	49.34
592.093	49.64
592.431	49.78
592.769	49.95
593.106	49.99
593.444	50.17
593.781	50.31
594.119	50.43
594.456	50.58
594.793	50.66
595.131	50.82
595.468	50.95
595.805	51.06
596.143	51.14
596.48	51.29
596.817	51.37
597.154	51.43
597.491	51.6
597.828	51.74
598.165	51.68
598.502	51.81
598.839	52.03
599.176	52.02
599.512	52.24
599.849	52.32
600.186	52.51
600.523	52.59
600.859	52.66
601.196	52.81
601.532	52.96
601.869	53.03
602.205	53.19
602.542	53.31
602.878	53.5
603.215	53.6
603.551	53.63
603.887	53.76
604.223	53.83
604.56	53.91
604.896	54
605.232	54.15
605.568	54.21
605.904	54.27
606.24	54.44
606.576	54.42
606.912	54.57
607.248	54.62
607.583	54.66
607.919	54.8
608.255	54.88
608.591	54.96
608.926	55.21
609.262	55.19
609.597	55.26
609.933	55.31
610.268	55.39
610.604	55.5
610.939	55.63
611.275	55.83
611.61	55.94
611.945	55.96
612.281	56.12
612.616	56.3
612.951	56.42
613.286	56.55
613.621	56.78
613.956	56.85
614.291	57.07
614.626	57.29
614.961	57.43
615.296	57.56
615.631	57.69
615.966	57.77
616.3	58
616.635	58.22
616.97	58.39
617.304	58.5
617.639	58.55
617.973	58.59
618.308	58.7
618.642	58.75
618.977	58.88
619.311	58.89
619.646	58.89
619.98	59
620.314	59.09
620.648	59.13
620.983	59.21
621.317	59.19
621.651	59.3
621.985	59.35
622.319	59.37
622.653	59.38
622.987	59.26
623.321	59.23
623.655	59.2
623.988	59.18
624.322	59.18
624.656	59.23
624.99	59.25
625.323	59.21
625.657	59.26
625.99	59.35
626.324	59.31
626.657	59.35
626.991	59.33
627.324	59.35
627.658	59.33
627.991	59.43
628.324	59.51
628.657	59.54
628.991	59.6
629.324	59.64
629.657	59.77
629.99	59.9
630.323	60.04
630.656	59.99
630.989	59.96
631.322	60.05
631.655	60.14
631.987	60.17
632.32	60.23
632.653	60.43
632.986	60.47
633.318	60.65
633.651	60.72
633.984	60.84
634.316	60.86
634.649	61
634.981	61
635.313	61.07
635.646	61.18
635.978	61.31
636.31	61.44
636.643	61.44
636.975	61.54
637.307	61.66
637.639	61.79
637.971	61.99
638.303	62.07
638.635	62.05
638.967	62.19
639.299	62.31
639.631	62.33
639.963	62.32
640.295	62.35
640.626	62.32
640.958	62.41
641.29	62.48
641.621	62.48
641.953	62.51
642.285	62.59
642.616	62.51
642.948	62.48
643.279	62.53
643.61	62.66
643.942	62.66
644.273	62.53
644.604	62.72
644.936	62.82
645.267	62.96
645.598	63.03
645.929	63
646.26	63.13
646.591	63.23
646.922	63.28
647.253	63.18
647.584	63.17
647.915	63.07
648.245	63
648.576	62.96
648.907	62.83
649.238	62.91
649.568	62.9
649.899	62.81
650.229	62.81
650.56	62.85
650.89	62.94
651.221	63.14
651.551	63.09
651.882	63.09
652.212	63.02
652.542	63.07
652.872	63.1
653.203	63
653.533	62.92
653.863	62.86
654.193	62.99
654.523	63.1
654.853	63.11
655.183	63.23
655.513	63.29
655.843	63.41
656.172	63.45
656.502	63.52
656.832	63.64
657.162	63.57
657.491	63.45
657.821	63.38
658.15	63.24
658.48	63.27
658.809	63.25
659.139	63.31
659.468	63.38
659.798	63.47
660.127	63.58
660.456	63.62
660.785	63.71
661.115	63.68
661.444	63.78
661.773	63.81
662.102	63.71
662.431	63.79
662.76	63.96
663.089	63.92
663.418	64.02
663.747	64.15
664.076	64.2
664.404	64.41
664.733	64.51
665.062	64.55
665.39	64.65
665.719	64.7
666.048	64.76
666.376	64.66
666.705	64.64
667.033	64.61
667.362	64.64
667.69	64.76
668.018	64.97
668.347	64.92
