Data from BA17724_Reflection_00003.txt Node
Date: Tue Nov 19 11:57:48 EST 2019
User: vgr7
Spectrometer: USB2G7710
Scans to average: 3
Trigger mode: 4
Integration Time (sec): 2.000000E-2
Electric dark correction enabled: true
Boxcar width: 10
XAxis mode: Wavelengths
Number of Pixels in Spectrum: 2048
>>>>>Begin Spectral Data<<<<<
177.721	-24.69
178.105	-113.41
178.488	-68.87
178.871	-71.59
179.254	-318.75
179.636	-1625.81
180.019	-159.15
180.402	36.36
180.785	-321.43
181.168	-33.69
181.55	60.94
181.933	95.39
182.316	55.02
182.698	75.27
183.081	169.06
183.463	81.31
183.846	75.46
184.228	-61.42
184.611	600
184.993	0
185.376	-35.59
185.758	600
186.14	69.23
186.522	-49.25
186.904	-150
187.287	7.11
187.669	-53.57
188.051	-109.73
188.433	-89.73
188.815	-74.47
189.197	-76.3
189.579	-82.18
189.961	-150
190.342	-200.45
190.724	-189.82
191.106	-129.45
191.488	-138.81
191.869	-286.01
192.251	-138.24
192.633	-124.37
193.014	-154.75
193.396	-112.16
193.777	-228.73
194.159	-194.12
194.54	-216.18
194.922	-109.46
195.303	-262.5
195.684	-215.22
196.065	-241.46
196.447	-218.18
196.828	355.81
197.209	-131.71
197.59	-6.38
197.971	106.58
198.352	17.36
198.733	-105.45
199.114	-136.69
199.495	-104.08
199.876	22.7
200.257	116.53
200.638	757.89
201.018	35.39
201.399	225
201.78	-12.98
202.16	17.14
202.541	45.38
202.922	24.9
203.302	2.82
203.683	21.13
204.063	-10.11
204.444	-52.67
204.824	-257.14
205.204	-220.31
205.585	-471.43
205.965	83.49
206.345	18.15
206.725	-21.07
207.106	2.41
207.486	-0
207.866	14.43
208.246	17.38
208.626	-7.76
209.006	-38.84
209.386	-70.62
209.766	-75
210.145	-43.18
210.525	-47.59
210.905	-37.07
211.285	-34.85
211.664	-39.05
212.044	-20.98
212.424	-21.99
212.803	-38.07
213.183	-33.15
213.562	-33.69
213.942	-24.85
214.321	-15.87
214.701	-30.19
215.08	-47.84
215.459	-20.21
215.838	-17.33
216.218	-5.59
216.597	10.15
216.976	17.41
217.355	32.39
217.734	47.82
218.113	44.58
218.492	58.6
218.871	61.59
219.25	38.8
219.629	53
220.008	31.48
220.387	43.9
220.766	56.22
221.144	46.68
221.523	71.59
221.902	55.58
222.28	48.8
222.659	47.29
223.037	46.67
223.416	28.09
223.794	40.54
224.173	26.26
224.551	27.43
224.929	22
225.308	23.23
225.686	8.76
226.064	9.5
226.442	12.03
226.821	12.55
227.199	14.19
227.577	14
227.955	19.33
228.333	16.57
228.711	8.46
229.089	4.69
229.467	-2.46
229.845	-2.54
230.222	-1.84
230.6	-5.37
230.978	-2.54
231.356	-3.57
231.733	-6.37
232.111	-0.87
232.488	0.38
232.866	1.96
233.243	1.65
233.621	4.43
233.998	5.03
234.376	3.62
234.753	1.34
235.13	0.89
235.508	1.73
235.885	-1.92
236.262	-2.21
236.639	-1.24
237.016	1.48
237.393	3.64
237.77	4.59
238.147	5.76
238.524	6.76
238.901	5.38
239.278	4.99
239.655	5.11
240.032	4.59
240.409	3.55
240.785	3.45
241.162	3.64
241.539	3.75
241.915	3.44
242.292	3.91
242.668	4.41
243.045	4.51
243.421	4.78
243.798	5.54
244.174	5.77
244.551	5.83
244.927	5.45
245.303	5.44
245.679	5.46
246.056	5.06
246.432	4.98
246.808	5.53
247.184	5.95
247.56	5.65
247.936	5.62
248.312	5.9
248.688	5.82
249.064	5.76
249.44	5.54
249.815	5.51
250.191	5.29
250.567	5.05
250.943	5.17
251.318	4.83
251.694	4.4
252.069	4.44
252.445	4.33
252.82	4.48
253.196	4.56
253.571	4.45
253.947	4.58
254.322	4.45
254.697	3.96
255.073	3.73
255.448	3.81
255.823	3.71
256.198	3.77
256.573	3.9
256.948	3.84
257.323	4.02
257.698	4.06
258.073	4.1
258.448	4.32
258.823	4.24
259.198	4.34
259.573	4.33
259.948	4.35
260.322	4.35
260.697	4.31
261.072	4.19
261.446	3.99
261.821	3.79
262.195	3.86
262.57	3.82
262.944	3.77
263.319	3.89
263.693	3.93
264.067	3.83
264.442	3.69
264.816	3.7
265.19	3.69
265.564	3.61
265.938	3.6
266.313	3.46
266.687	3.44
267.061	3.29
267.435	3.51
267.809	3.36
268.183	3.37
268.556	3.5
268.93	3.54
269.304	3.57
269.678	3.9
270.051	3.86
270.425	3.89
270.799	3.73
271.172	3.77
271.546	3.77
271.919	3.65
272.293	3.82
272.666	3.81
273.04	3.64
273.413	3.77
273.787	3.73
274.16	3.59
274.533	3.54
274.906	3.7
275.279	3.62
275.653	3.56
276.026	3.73
276.399	3.57
276.772	3.71
277.145	3.8
277.518	3.59
277.891	3.69
278.263	3.91
278.636	4.19
279.009	4.18
279.382	4.15
279.755	4.29
280.127	4.33
280.5	4.22
280.872	4.15
281.245	4.1
281.617	4.16
281.99	4.35
282.362	4.37
282.735	4.25
283.107	4.3
283.479	4.47
283.852	4.34
284.224	4.43
284.596	4.2
284.968	4.12
285.34	4.23
285.713	4.1
286.085	3.94
286.457	3.77
286.829	3.66
287.201	3.73
287.572	3.71
287.944	3.77
288.316	3.8
288.688	4.08
289.06	4.17
289.431	4.44
289.803	4.49
290.175	4.52
290.546	4.59
290.918	4.46
291.289	4.34
291.661	4.32
292.032	4.53
292.403	4.58
292.775	4.68
293.146	4.6
293.517	4.75
293.889	4.85
294.26	5.08
294.631	5.29
295.002	5.27
295.373	5.32
295.744	5.29
296.115	5.35
296.486	5.19
296.857	5.2
297.228	5.01
297.599	4.84
297.97	4.91
298.34	4.95
298.711	5.09
299.082	5.21
299.452	5.22
299.823	5.17
300.194	5.32
300.564	5.31
300.935	5.41
301.305	5.3
301.676	5.22
302.046	4.96
302.416	4.82
302.787	4.89
303.157	4.8
303.527	4.76
303.897	4.82
304.267	4.96
304.637	4.99
305.008	4.92
305.378	5.08
305.748	5.11
306.117	4.97
306.487	4.94
306.857	4.78
307.227	4.89
307.597	4.74
307.967	4.76
308.336	4.82
308.706	4.83
309.076	4.92
309.445	5.08
309.815	5.2
310.184	5.07
310.554	5.03
310.923	5.1
311.293	5.12
311.662	5.18
312.031	5.1
312.401	4.96
312.77	4.94
313.139	4.89
313.508	4.82
313.877	4.89
314.246	4.9
314.616	5
314.985	4.85
315.353	4.81
315.722	4.73
316.091	4.64
316.46	4.62
316.829	4.64
317.198	4.63
317.567	4.71
317.935	4.68
318.304	4.76
318.672	4.69
319.041	4.83
319.41	4.68
319.778	4.67
320.147	4.67
320.515	4.73
320.883	4.67
321.252	4.92
321.62	4.96
321.988	5.11
322.357	5.09
322.725	5.17
323.093	5.19
323.461	5.2
323.829	5.22
324.197	5.15
324.565	5.22
324.933	5.02
325.301	4.88
325.669	4.93
326.037	5.06
326.405	5.23
326.772	5.31
327.14	5.24
327.508	5.26
327.875	5.39
328.243	5.34
328.61	5.5
328.978	5.31
329.346	5.25
329.713	5.2
330.08	5.2
330.448	5.22
330.815	5.34
331.182	5.28
331.55	5.36
331.917	5.26
332.284	5.16
332.651	5.27
333.018	5.23
333.385	5.3
333.752	5.07
334.119	5.13
334.486	4.91
334.853	4.96
335.22	4.91
335.587	4.87
335.954	4.86
336.32	4.77
336.687	4.8
337.054	4.77
337.42	4.66
337.787	4.49
338.153	4.48
338.52	4.42
338.886	4.3
339.253	4.15
339.619	4.26
339.986	4.29
340.352	4.29
340.718	4.44
341.084	4.41
341.451	4.58
341.817	4.48
342.183	4.5
342.549	4.62
342.915	4.69
343.281	4.62
343.647	4.7
344.013	4.75
344.379	4.7
344.745	4.83
345.11	4.81
345.476	4.91
345.842	4.92
346.208	5.01
346.573	5.06
346.939	5.23
347.304	5.28
347.67	5.21
348.035	5.13
348.401	5
348.766	4.95
349.132	4.92
349.497	4.96
349.862	4.95
350.228	4.85
350.593	4.85
350.958	4.92
351.323	4.9
351.688	4.91
352.053	4.89
352.418	4.82
352.783	4.94
353.148	5.03
353.513	5.02
353.878	4.95
354.243	4.98
354.608	5
354.972	5.01
355.337	5.06
355.702	5.11
356.066	5.16
356.431	5.21
356.795	5.15
357.16	5.09
357.524	5.09
357.889	5.06
358.253	5.02
358.618	5.05
358.982	5.05
359.346	5.02
359.71	5.1
360.075	5.19
360.439	5.2
360.803	5.2
361.167	5.26
361.531	5.29
361.895	5.3
362.259	5.26
362.623	5.23
362.987	5.26
363.351	5.23
363.714	5.33
364.078	5.36
364.442	5.34
364.806	5.41
365.169	5.42
365.533	5.42
365.896	5.44
366.26	5.45
366.623	5.41
366.987	5.46
367.35	5.37
367.714	5.31
368.077	5.23
368.44	5.23
368.803	5.12
369.167	5.09
369.53	5.14
369.893	5.08
370.256	5.07
370.619	5.06
370.982	5.05
371.345	4.94
371.708	4.97
372.071	4.91
372.434	4.88
372.797	4.87
373.159	4.88
373.522	4.88
373.885	4.83
374.247	4.91
374.61	4.89
374.973	4.95
375.335	4.96
375.698	4.93
376.06	4.84
376.423	4.92
376.785	4.99
377.147	4.96
377.51	4.98
377.872	5.02
378.234	5.08
378.596	5.11
378.958	5.13
379.321	5.12
379.683	5.2
380.045	5.26
380.407	5.31
380.769	5.29
381.13	5.3
381.492	5.33
381.854	5.31
382.216	5.32
382.578	5.25
382.939	5.26
383.301	5.24
383.663	5.31
384.024	5.22
384.386	5.18
384.747	5.2
385.109	5.17
385.47	5.12
385.832	5.02
386.193	5.04
386.554	5.03
386.916	5
387.277	4.96
387.638	4.89
387.999	4.83
388.36	4.88
388.721	4.84
389.082	4.85
389.443	4.9
389.804	4.92
390.165	4.95
390.526	4.97
390.887	5
391.248	5.02
391.609	5.02
391.969	5.01
392.33	4.97
392.691	4.97
393.051	4.98
393.412	5.02
393.772	5.01
394.133	4.98
394.493	4.97
394.854	4.96
395.214	4.95
395.574	4.95
395.935	4.92
396.295	4.94
396.655	4.93
397.015	4.91
397.376	4.89
397.736	4.88
398.096	4.88
398.456	4.88
398.816	4.86
399.176	4.87
399.535	4.86
399.895	4.87
400.255	4.91
400.615	4.95
400.975	4.94
401.334	4.93
401.694	4.94
402.054	4.96
402.413	4.95
402.773	4.94
403.132	4.94
403.492	4.96
403.851	4.97
404.211	5
404.57	4.97
404.929	4.94
405.288	4.96
405.648	4.98
406.007	5
406.366	4.98
406.725	4.99
407.084	5
407.443	5
407.802	4.96
408.161	4.95
408.52	4.96
408.879	4.97
409.238	4.99
409.596	5
409.955	5.01
410.314	5.02
410.673	5.06
411.031	5.05
411.39	5.05
411.748	5.04
412.107	5.04
412.465	5.06
412.824	5.02
413.182	4.99
413.54	4.96
413.899	4.97
414.257	4.99
414.615	5.01
414.974	5.03
415.332	5.09
415.69	5.06
416.048	5.04
416.406	5.03
416.764	5.05
417.122	5.05
417.48	5.07
417.838	5.07
418.195	5.08
418.553	5.08
418.911	5.07
419.269	5.07
419.626	5.06
419.984	5.06
420.342	5.08
420.699	5.08
421.057	5.08
421.414	5.1
421.772	5.12
422.129	5.09
422.486	5.08
422.844	5.04
423.201	5.06
423.558	5.07
423.915	5.08
424.273	5.06
424.63	5.04
424.987	5.03
425.344	5.02
425.701	5
426.058	5
426.415	4.99
426.772	4.97
427.128	4.98
427.485	4.98
427.842	4.97
428.199	4.98
428.555	4.98
428.912	4.94
429.269	4.9
429.625	4.92
429.982	4.93
430.338	4.96
430.695	4.93
431.051	4.92
431.407	4.9
431.764	4.9
432.12	4.92
432.476	4.94
432.832	4.95
433.189	4.96
433.545	4.95
433.901	4.96
434.257	4.97
434.613	4.94
434.969	4.92
435.325	4.91
435.681	4.89
436.036	4.9
436.392	4.92
436.748	4.91
437.104	4.92
437.459	4.93
437.815	4.9
438.171	4.93
438.526	4.94
438.882	4.93
439.237	4.93
439.593	4.94
439.948	4.92
440.304	4.9
440.659	4.91
441.014	4.91
441.369	4.91
441.725	4.91
442.08	4.92
442.435	4.93
442.79	4.92
443.145	4.94
443.5	4.93
443.855	4.92
444.21	4.96
444.565	4.95
444.92	4.95
445.275	4.96
445.629	4.96
445.984	4.95
446.339	4.96
446.693	4.97
447.048	4.96
447.403	4.97
447.757	4.97
448.112	4.96
448.466	4.97
448.82	4.98
449.175	4.96
449.529	4.97
449.883	4.96
450.238	4.96
450.592	4.96
450.946	4.95
451.3	4.95
451.654	4.92
452.008	4.92
452.362	4.89
452.716	4.89
453.07	4.9
453.424	4.89
453.778	4.9
454.132	4.87
454.486	4.87
454.839	4.89
455.193	4.9
455.547	4.91
455.9	4.92
456.254	4.9
456.607	4.91
456.961	4.91
457.314	4.9
457.668	4.92
458.021	4.93
458.375	4.92
458.728	4.92
459.081	4.92
459.434	4.92
459.787	4.93
460.141	4.93
460.494	4.93
460.847	4.94
461.2	4.92
461.553	4.94
461.906	4.95
462.259	4.93
462.611	4.93
462.964	4.92
463.317	4.92
463.67	4.92
464.022	4.93
464.375	4.93
464.728	4.97
465.08	4.98
465.433	4.97
465.785	5.01
466.138	5.02
466.49	5.04
466.843	5.04
467.195	5.03
467.547	5.04
467.899	5.06
468.252	5.05
468.604	5.06
468.956	5.05
469.308	5.03
469.66	5.04
470.012	5.05
470.364	5.07
470.716	5.08
471.068	5.08
471.42	5.07
471.772	5.09
472.123	5.07
472.475	5.07
472.827	5.08
473.178	5.05
473.53	5.05
473.882	5.04
474.233	5.05
474.585	5.04
474.936	5.03
475.288	5.01
475.639	5.02
475.99	5.02
476.342	5.04
476.693	5.07
477.044	5.05
477.395	5.05
477.746	5.02
478.097	5.02
478.448	5
478.8	4.98
479.15	4.96
479.501	4.97
479.852	4.97
480.203	4.96
480.554	4.98
480.905	4.98
481.255	4.97
481.606	4.97
481.957	4.99
482.307	5
482.658	5.01
483.009	5.02
483.359	5.03
483.709	5.04
484.06	5.04
484.41	5.06
484.761	5.07
485.111	5.07
485.461	5.08
485.811	5.09
486.162	5.1
486.512	5.11
486.862	5.12
487.212	5.12
487.562	5.13
487.912	5.13
488.262	5.13
488.612	5.15
488.961	5.16
489.311	5.15
489.661	5.15
490.011	5.15
490.36	5.15
490.71	5.16
491.06	5.16
491.409	5.16
491.759	5.15
492.108	5.14
492.458	5.14
492.807	5.14
493.157	5.16
493.506	5.16
493.855	5.16
494.204	5.16
494.554	5.17
494.903	5.16
495.252	5.18
495.601	5.2
495.95	5.18
496.299	5.19
496.648	5.21
496.997	5.23
497.346	5.23
497.695	5.22
498.043	5.2
498.392	5.19
498.741	5.2
499.09	5.21
499.438	5.21
499.787	5.22
500.135	5.23
500.484	5.24
500.832	5.26
501.181	5.26
501.529	5.26
501.878	5.26
502.226	5.28
502.574	5.26
502.923	5.26
503.271	5.26
503.619	5.28
503.967	5.27
504.315	5.26
504.663	5.29
505.011	5.29
505.359	5.31
505.707	5.29
506.055	5.29
506.403	5.3
506.751	5.28
507.098	5.29
507.446	5.31
507.794	5.31
508.141	5.32
508.489	5.34
508.837	5.35
509.184	5.38
509.531	5.38
509.879	5.38
510.226	5.4
510.574	5.44
510.921	5.42
511.268	5.42
511.616	5.43
511.963	5.43
512.31	5.45
512.657	5.46
513.004	5.46
513.351	5.44
513.698	5.43
514.045	5.45
514.392	5.45
514.739	5.46
515.086	5.45
515.432	5.46
515.779	5.48
516.126	5.5
516.473	5.47
516.819	5.5
517.166	5.51
517.512	5.51
517.859	5.49
518.205	5.5
518.552	5.51
518.898	5.52
519.245	5.51
519.591	5.51
519.937	5.52
520.283	5.54
520.629	5.57
520.976	5.59
521.322	5.61
521.668	5.61
522.014	5.59
522.36	5.59
522.706	5.57
523.052	5.56
523.398	5.55
523.743	5.57
524.089	5.56
524.435	5.58
524.781	5.6
525.126	5.6
525.472	5.6
525.817	5.62
526.163	5.63
526.509	5.65
526.854	5.65
527.199	5.67
527.545	5.65
527.89	5.65
528.235	5.67
528.581	5.69
528.926	5.68
529.271	5.69
529.616	5.69
529.961	5.7
530.306	5.7
530.651	5.7
530.996	5.7
531.341	5.73
531.686	5.72
532.031	5.72
532.376	5.73
532.721	5.74
533.065	5.74
533.41	5.74
533.755	5.73
534.099	5.73
534.444	5.71
534.788	5.73
535.133	5.72
535.477	5.71
535.822	5.7
536.166	5.7
536.51	5.71
536.855	5.73
537.199	5.72
537.543	5.73
537.887	5.74
538.231	5.73
538.576	5.72
538.92	5.72
539.264	5.74
539.608	5.74
539.951	5.72
540.295	5.73
540.639	5.74
540.983	5.75
541.327	5.77
541.671	5.8
542.014	5.81
542.358	5.83
542.701	5.83
543.045	5.83
543.389	5.83
543.732	5.84
544.075	5.82
544.419	5.82
544.762	5.82
545.105	5.81
545.449	5.82
545.792	5.82
546.135	5.83
546.478	5.81
546.821	5.8
547.165	5.83
547.508	5.84
547.851	5.82
548.194	5.82
548.536	5.8
548.879	5.77
549.222	5.75
549.565	5.72
549.908	5.73
550.25	5.72
550.593	5.75
550.936	5.75
551.278	5.75
551.621	5.77
551.963	5.8
552.306	5.8
552.648	5.81
552.991	5.81
553.333	5.84
553.675	5.84
554.017	5.83
554.36	5.82
554.702	5.82
555.044	5.85
555.386	5.86
555.728	5.87
556.07	5.87
556.412	5.92
556.754	5.93
557.096	5.95
557.438	5.95
557.78	5.92
558.121	5.92
558.463	5.92
558.805	5.92
559.147	5.93
559.488	5.9
559.83	5.93
560.171	5.91
560.513	5.92
560.854	5.92
561.196	5.94
561.537	5.93
561.878	5.92
562.22	5.91
562.561	5.88
562.902	5.91
563.243	5.89
563.584	5.86
563.925	5.89
564.266	5.85
564.607	5.86
564.948	5.86
565.289	5.87
565.63	5.89
565.971	5.92
566.312	5.91
566.653	5.97
566.993	5.95
567.334	5.97
567.675	5.94
568.015	5.95
568.356	5.96
568.696	5.99
569.037	6.01
569.377	5.99
569.718	5.98
570.058	5.96
570.398	5.99
570.739	5.97
571.079	5.98
571.419	6.03
571.759	6.03
572.099	6.04
572.439	6.04
572.779	6.04
573.119	6.01
573.459	6.03
573.799	6
574.139	5.97
574.479	5.97
574.819	5.99
575.158	6.02
575.498	6.03
575.838	6
576.177	5.97
576.517	6.01
576.856	6.02
577.196	6.06
577.535	6.06
577.875	6.08
578.214	6.04
578.553	5.98
578.893	6.01
579.232	6
579.571	6
579.91	6.01
580.25	6
580.589	5.97
580.928	6.01
581.267	6.03
581.606	6.02
581.945	5.99
582.283	5.97
582.622	5.94
582.961	5.95
583.3	5.96
583.639	5.97
583.977	5.97
584.316	5.95
584.654	5.95
584.993	5.95
585.332	6.07
585.67	6.1
586.008	6.06
586.347	6.07
586.685	6.06
587.024	6.09
587.362	6.11
587.7	6.15
588.038	6.14
588.376	6.16
588.715	6.19
589.053	6.12
589.391	6.11
589.729	6.16
590.067	6.17
590.404	6.19
590.742	6.17
591.08	6.21
591.418	6.26
591.756	6.28
592.093	6.3
592.431	6.31
592.769	6.31
593.106	6.32
593.444	6.35
593.781	6.35
594.119	6.31
594.456	6.34
594.793	6.32
595.131	6.36
595.468	6.38
595.805	6.33
596.143	6.37
596.48	6.4
596.817	6.4
597.154	6.41
597.491	6.43
597.828	6.43
598.165	6.42
598.502	6.37
598.839	6.35
599.176	6.35
599.512	6.28
599.849	6.31
600.186	6.29
600.523	6.29
600.859	6.32
601.196	6.3
601.532	6.31
601.869	6.33
602.205	6.27
602.542	6.28
602.878	6.33
603.215	6.35
603.551	6.31
603.887	6.28
604.223	6.25
604.56	6.25
604.896	6.25
605.232	6.25
605.568	6.28
605.904	6.26
606.24	6.24
606.576	6.23
606.912	6.19
607.248	6.22
607.583	6.23
607.919	6.26
608.255	6.31
608.591	6.29
608.926	6.26
609.262	6.31
609.597	6.3
609.933	6.32
610.268	6.38
610.604	6.38
610.939	6.44
611.275	6.47
611.61	6.45
611.945	6.42
612.281	6.48
612.616	6.5
612.951	6.54
613.286	6.56
613.621	6.61
613.956	6.68
614.291	6.61
614.626	6.61
614.961	6.6
615.296	6.56
615.631	6.57
615.966	6.61
616.3	6.62
616.635	6.64
616.97	6.62
617.304	6.56
617.639	6.6
617.973	6.54
618.308	6.58
618.642	6.61
618.977	6.61
619.311	6.55
619.646	6.52
619.98	6.53
620.314	6.52
620.648	6.48
620.983	6.48
621.317	6.55
621.651	6.5
621.985	6.48
622.319	6.55
622.653	6.53
622.987	6.55
623.321	6.55
623.655	6.52
623.988	6.56
624.322	6.56
624.656	6.57
624.99	6.57
625.323	6.53
625.657	6.55
625.99	6.6
626.324	6.58
626.657	6.59
626.991	6.59
627.324	6.57
627.658	6.57
627.991	6.6
628.324	6.6
628.657	6.67
628.991	6.67
629.324	6.64
629.657	6.63
629.99	6.63
630.323	6.65
630.656	6.66
630.989	6.63
631.322	6.66
631.655	6.65
631.987	6.65
632.32	6.64
632.653	6.66
632.986	6.67
633.318	6.72
633.651	6.76
633.984	6.77
634.316	6.84
634.649	6.85
634.981	6.89
635.313	6.91
635.646	6.94
635.978	6.99
636.31	7
636.643	7
636.975	6.93
637.307	6.9
637.639	6.87
637.971	6.88
638.303	6.79
638.635	6.78
638.967	6.87
639.299	6.9
639.631	6.86
639.963	6.81
640.295	6.73
640.626	6.69
640.958	6.64
641.29	6.68
641.621	6.69
641.953	6.57
642.285	6.56
642.616	6.5
642.948	6.49
643.279	6.49
643.61	6.53
643.942	6.71
644.273	6.7
644.604	6.73
644.936	6.74
645.267	6.84
645.598	6.84
645.929	6.76
646.26	6.79
646.591	6.81
646.922	6.87
647.253	7
647.584	7.02
647.915	7.02
648.245	6.96
648.576	6.99
648.907	7.09
649.238	6.99
649.568	7.01
649.899	6.96
650.229	6.92
650.56	6.94
650.89	6.81
651.221	6.82
651.551	6.87
651.882	6.86
652.212	6.86
652.542	6.9
652.872	6.89
653.203	6.97
653.533	6.94
653.863	6.89
654.193	6.87
654.523	6.87
654.853	6.94
655.183	6.95
655.513	7
655.843	7.05
656.172	7.15
656.502	7.07
656.832	7.12
657.162	7.08
657.491	7.13
657.821	7.15
658.15	7.16
658.48	7.13
658.809	7.16
659.139	7.11
659.468	7.12
659.798	7.25
660.127	7.13
660.456	7.16
660.785	7.2
661.115	7.15
661.444	7.18
661.773	7.14
662.102	7.14
662.431	7.03
662.76	6.94
663.089	7
663.418	7.1
663.747	7.1
664.076	7.2
664.404	7.14
664.733	7.13
665.062	7.12
665.39	7.1
665.719	7.09
666.048	7.09
666.376	7.07
666.705	7.01
667.033	7.08
667.362	7.06
667.69	7.08
668.018	7.1
668.347	7.1
668.675	7.19
669.003	7.2
669.331	7.27
669.659	7.19
669.987	7.1
670.315	7.05
670.643	7.05
670.971	7.02
671.299	7.01
671.627	7.03
671.955	7
672.283	7
672.61	6.98
672.938	7.03
673.266	7.05
673.593	7.01
673.921	7.03
674.249	7.03
674.576	7.05
674.904	7.06
675.231	7.08
675.558	7.15
675.886	7.22
676.213	7.22
676.54	7.37
676.867	7.45
677.195	7.51
677.522	7.46
677.849	7.54
678.176	7.61
678.503	7.63
678.83	7.69
679.157	7.67
679.484	7.73
