Data from BA17729_Reflection_00005.txt Node
Date: Tue Nov 19 11:50:43 EST 2019
User: vgr7
Spectrometer: USB2G7710
Scans to average: 3
Trigger mode: 4
Integration Time (sec): 2.000000E-2
Electric dark correction enabled: true
Boxcar width: 10
XAxis mode: Wavelengths
Number of Pixels in Spectrum: 2048
>>>>>Begin Spectral Data<<<<<
177.721	124.44
178.105	97.33
178.488	130.8
178.871	402.94
179.254	200
179.636	128.9
180.019	-43.63
180.402	133.33
180.785	39.44
181.168	76.99
181.55	53.72
181.933	61.54
182.316	23.76
182.698	9.37
183.081	-75.68
183.463	-170.54
183.846	-138.15
184.228	-178.04
184.611	-125.65
184.993	-274.42
185.376	-4635.29
185.758	-354.37
186.14	-152.29
186.522	-171.8
186.904	-221.98
187.287	-447.12
187.669	-616
188.051	-5309.09
188.433	-822.54
188.815	-440.27
189.197	-2123.4
189.579	430.04
189.961	366.77
190.342	248.9
190.724	-846.81
191.106	61.54
191.488	-179.82
191.869	11.61
192.251	69.06
192.633	113.37
193.014	133.74
193.396	-50.31
193.777	-3.13
194.159	-17.09
194.54	-25.41
194.922	-105.41
195.303	-44.8
195.684	-44.36
196.065	-185.02
196.447	-75.35
196.828	-83.36
197.209	-74.33
197.59	-64.58
197.971	-86.24
198.352	-55.66
198.733	-46.79
199.114	-57.77
199.495	-71.83
199.876	-83.03
200.257	-122.51
200.638	-90.9
201.018	-78.8
201.399	-60.52
201.78	-73.34
202.16	-58.17
202.541	-63.93
202.922	-24.03
203.302	-35.7
203.683	-38.03
204.063	-28.48
204.444	-42.14
204.824	-55.5
205.204	-46.33
205.585	-49.1
205.965	-49.25
206.345	-92.13
206.725	-80.75
207.106	-46.74
207.486	-35.44
207.866	-38.55
208.246	-25.18
208.626	-26.03
209.006	-41.56
209.386	-26.49
209.766	-16.39
210.145	-20.47
210.525	-13.52
210.905	-24.6
211.285	-29.02
211.664	-19.51
212.044	9.01
212.424	10.01
212.803	9.34
213.183	-22.55
213.562	-15.33
213.942	0.14
214.321	-1.48
214.701	4.47
215.08	-4.19
215.459	2.71
215.838	-11.42
216.218	-20.12
216.597	-15.32
216.976	2.41
217.355	5.07
217.734	-12.68
218.113	11.05
218.492	4.55
218.871	-2.73
219.25	-6.34
219.629	-33.3
220.008	-124.97
220.387	-207.3
220.766	-109.43
221.144	-51.57
221.523	-75.5
221.902	-48.91
222.28	-13.39
222.659	6.48
223.037	17.77
223.416	10.53
223.794	1.34
224.173	-0.26
224.551	3.21
224.929	-1.48
225.308	-12.08
225.686	-10.01
226.064	-14.65
226.442	-9
226.821	-13.15
227.199	-11.5
227.577	-4.61
227.955	1.88
228.333	2.66
228.711	7.01
229.089	4.3
229.467	4.31
229.845	2
230.222	0.59
230.6	1.87
230.978	-0.86
231.356	-2.92
231.733	0.74
232.111	-1.79
232.488	0.29
232.866	0.8
233.243	0.27
233.621	1.02
233.998	1.84
234.376	2.84
234.753	5.03
235.13	2.65
235.508	-0.03
235.885	1.61
236.262	2.39
236.639	0.8
237.016	1.03
237.393	1.57
237.77	3.33
238.147	3.5
238.524	4.2
238.901	5.22
239.278	6.22
239.655	5.39
240.032	6.44
240.409	5.77
240.785	5.22
241.162	5.48
241.539	5.38
241.915	5.25
242.292	5.19
242.668	5.69
243.045	6.39
243.421	6.87
243.798	6.35
244.174	6.25
244.551	6.02
244.927	5.69
245.303	5.37
245.679	5.07
246.056	5.43
246.432	5.07
246.808	5.1
247.184	5.24
247.56	4.93
247.936	4.8
248.312	4.86
248.688	4.82
249.064	4.73
249.44	4.8
249.815	4.67
250.191	4.5
250.567	4.61
250.943	4.92
251.318	4.79
251.694	4.78
252.069	4.84
252.445	5.09
252.82	5.54
253.196	5.76
253.571	6.03
253.947	5.7
254.322	5.97
254.697	5.92
255.073	5.67
255.448	5.97
255.823	6.22
256.198	6.17
256.573	6.17
256.948	6.13
257.323	6.27
257.698	6.2
258.073	6.09
258.448	5.71
258.823	5.49
259.198	5.41
259.573	5.49
259.948	5.51
260.322	5.31
260.697	5.2
261.072	5.22
261.446	5.25
261.821	5.13
262.195	4.93
262.57	4.77
262.944	4.75
263.319	4.75
263.693	4.56
264.067	4.52
264.442	4.33
264.816	4.44
265.19	4.33
265.564	4.32
265.938	4.48
266.313	4.32
266.687	4.15
267.061	4.31
267.435	4.04
267.809	3.86
268.183	4.07
268.556	3.84
268.93	3.69
269.304	3.54
269.678	3.74
270.051	3.9
270.425	3.94
270.799	3.65
271.172	3.65
271.546	3.86
271.919	3.85
272.293	4.21
272.666	4.2
273.04	4.24
273.413	4.11
273.787	4.11
274.16	4.15
274.533	4.21
274.906	4.3
275.279	4.32
275.653	4.6
276.026	4.64
276.399	4.78
276.772	4.94
277.145	4.93
277.518	4.84
277.891	4.8
278.263	5.08
278.636	5.47
279.009	5.7
279.382	5.59
279.755	5.55
280.127	5.33
280.5	5.36
280.872	5.18
281.245	5.19
281.617	5.03
281.99	5.05
282.362	5.14
282.735	5.08
283.107	5.13
283.479	4.97
283.852	5.04
284.224	5.04
284.596	4.99
284.968	5.01
285.34	4.99
285.713	5.07
286.085	4.85
286.457	4.8
286.829	4.64
287.201	4.63
287.572	4.71
287.944	4.73
288.316	4.73
288.688	4.88
289.06	4.93
289.431	5.01
289.803	5.17
290.175	5.03
290.546	5.03
290.918	5.11
291.289	5.1
291.661	5.04
292.032	5.14
292.403	5.13
292.775	5.21
293.146	5.2
293.517	5.15
293.889	5.22
294.26	5.26
294.631	5.37
295.002	5.37
295.373	5.37
295.744	5.35
296.115	5.32
296.486	5.16
296.857	5.16
297.228	5.14
297.599	5.03
297.97	5.13
298.34	5.17
298.711	5.22
299.082	5.31
299.452	5.19
299.823	5.04
300.194	5.17
300.564	4.98
300.935	4.99
301.305	4.93
301.676	5
302.046	4.89
302.416	4.77
302.787	4.78
303.157	4.66
303.527	4.75
303.897	4.68
304.267	4.71
304.637	4.73
305.008	4.74
305.378	4.78
305.748	4.78
306.117	4.66
306.487	4.45
306.857	4.39
307.227	4.54
307.597	4.62
307.967	4.61
308.336	4.82
308.706	4.96
309.076	5.06
309.445	5.05
309.815	5.12
310.184	5.17
310.554	5.26
310.923	5.26
311.293	5.23
311.662	5.24
312.031	5.3
312.401	5.22
312.77	5.2
313.139	5.31
313.508	5.26
313.877	5.12
314.246	5.17
314.616	5.23
314.985	5.16
315.353	5.2
315.722	5.25
316.091	5.27
316.46	5.16
316.829	5.23
317.198	5.22
317.567	5.4
317.935	5.5
318.304	5.51
318.672	5.7
319.041	5.71
319.41	5.71
319.778	5.76
320.147	5.98
320.515	6.07
320.883	5.9
321.252	5.84
321.62	6.06
321.988	6.12
322.357	6.11
322.725	6.26
323.093	6.1
323.461	6.07
323.829	6.1
324.197	6
324.565	6.01
324.933	5.93
325.301	5.64
325.669	5.62
326.037	5.49
326.405	5.28
326.772	5.25
327.14	5.22
327.508	5.21
327.875	5.11
328.243	5.12
328.61	5.2
328.978	5.15
329.346	5.19
329.713	5.3
330.08	5.32
330.448	5.25
330.815	5.53
331.182	5.37
331.55	5.26
331.917	5.3
332.284	5.22
332.651	5.24
333.018	5.31
333.385	5.39
333.752	5.43
334.119	5.54
334.486	5.55
334.853	5.53
335.22	5.33
335.587	5.27
335.954	5.19
336.32	5.25
336.687	5.31
337.054	5.19
337.42	5.11
337.787	5.11
338.153	5.1
338.52	4.98
338.886	4.96
339.253	4.93
339.619	4.95
339.986	4.86
340.352	4.84
340.718	4.81
341.084	4.66
341.451	4.54
341.817	4.58
342.183	4.52
342.549	4.49
342.915	4.57
343.281	4.61
343.647	4.63
344.013	4.63
344.379	4.72
344.745	4.67
345.11	4.66
345.476	4.61
345.842	4.59
346.208	4.66
346.573	4.8
346.939	4.83
347.304	4.79
347.67	4.9
348.035	4.83
348.401	4.89
348.766	4.94
349.132	5.16
349.497	5.17
349.862	5.13
350.228	5.23
350.593	5.27
350.958	5.37
351.323	5.39
351.688	5.3
352.053	5.25
352.418	5.3
352.783	5.28
353.148	5.39
353.513	5.43
353.878	5.32
354.243	5.23
354.608	5.3
354.972	5.38
355.337	5.37
355.702	5.42
356.066	5.5
356.431	5.5
356.795	5.37
357.16	5.29
357.524	5.38
357.889	5.38
358.253	5.3
358.618	5.19
358.982	5.23
359.346	5.23
359.71	5.24
360.075	5.28
360.439	5.28
360.803	5.18
361.167	5.1
361.531	5.14
361.895	5.11
362.259	5.09
362.623	5.08
362.987	5.05
363.351	5.07
363.714	5.03
364.078	5.05
364.442	5.08
364.806	5.05
365.169	4.98
365.533	4.95
365.896	5.03
366.26	5.04
366.623	5
366.987	5.09
367.35	5.07
367.714	5.1
368.077	5.09
368.44	5.11
368.803	5.1
369.167	5.07
369.53	5.1
369.893	5.12
370.256	5.11
370.619	5.12
370.982	5.04
371.345	5.06
371.708	5.1
372.071	5.04
372.434	5.06
372.797	5.14
373.159	5.09
373.522	5.04
373.885	5.06
374.247	5.1
374.61	5.03
374.973	5.07
375.335	4.99
375.698	4.94
376.06	4.93
376.423	4.96
376.785	4.93
377.147	4.95
377.51	4.89
377.872	4.88
378.234	4.88
378.596	4.93
378.958	4.91
379.321	4.81
379.683	4.86
380.045	4.9
380.407	4.94
380.769	4.95
381.13	4.95
381.492	4.93
381.854	4.93
382.216	4.94
382.578	4.95
382.939	4.97
383.301	5.03
383.663	5.02
384.024	4.99
384.386	5
384.747	4.95
385.109	4.94
385.47	4.93
385.832	4.93
386.193	4.9
386.554	4.88
386.916	4.92
387.277	4.9
387.638	4.88
387.999	4.84
388.36	4.88
388.721	4.91
389.082	4.94
389.443	4.88
389.804	4.9
390.165	4.88
390.526	4.89
390.887	4.89
391.248	4.91
391.609	4.98
391.969	5.02
392.33	5.07
392.691	5.08
393.051	5.13
393.412	5.06
393.772	5.11
394.133	5.13
394.493	5.07
394.854	5.09
395.214	5.04
395.574	5.04
395.935	5.01
396.295	5
396.655	4.96
397.015	5
397.376	5
397.736	4.95
398.096	4.94
398.456	4.92
398.816	4.94
399.176	4.88
399.535	4.83
399.895	4.83
400.255	4.86
400.615	4.82
400.975	4.86
401.334	4.83
401.694	4.8
402.054	4.87
402.413	4.86
402.773	4.9
403.132	4.87
403.492	4.87
403.851	4.88
404.211	4.87
404.57	4.85
404.929	4.84
405.288	4.87
405.648	4.93
406.007	4.95
406.366	4.94
406.725	4.99
407.084	4.98
407.443	4.96
407.802	4.96
408.161	4.97
408.52	4.98
408.879	4.97
409.238	4.99
409.596	4.97
409.955	4.96
410.314	4.96
410.673	4.97
411.031	4.97
411.39	4.95
411.748	4.98
412.107	5.01
412.465	5
412.824	4.98
413.182	4.91
413.54	4.93
413.899	4.92
414.257	4.88
414.615	4.92
414.974	4.88
415.332	4.84
415.69	4.84
416.048	4.86
416.406	4.86
416.764	4.88
417.122	4.86
417.48	4.87
417.838	4.86
418.195	4.86
418.553	4.85
418.911	4.83
419.269	4.83
419.626	4.82
419.984	4.81
420.342	4.81
420.699	4.82
421.057	4.81
421.414	4.82
421.772	4.81
422.129	4.79
422.486	4.81
422.844	4.83
423.201	4.82
423.558	4.81
423.915	4.81
424.273	4.8
424.63	4.82
424.987	4.81
425.344	4.8
425.701	4.79
426.058	4.79
426.415	4.8
426.772	4.81
427.128	4.78
427.485	4.77
427.842	4.76
428.199	4.77
428.555	4.74
428.912	4.71
429.269	4.73
429.625	4.73
429.982	4.74
430.338	4.74
430.695	4.72
431.051	4.73
431.407	4.72
431.764	4.71
432.12	4.69
432.476	4.7
432.832	4.72
433.189	4.72
433.545	4.71
433.901	4.72
434.257	4.72
434.613	4.73
434.969	4.73
435.325	4.76
435.681	4.75
436.036	4.78
436.392	4.79
436.748	4.77
437.104	4.78
437.459	4.77
437.815	4.75
438.171	4.75
438.526	4.75
438.882	4.76
439.237	4.76
439.593	4.76
439.948	4.73
440.304	4.74
440.659	4.76
441.014	4.78
441.369	4.76
441.725	4.74
442.08	4.74
442.435	4.75
442.79	4.71
443.145	4.7
443.5	4.68
443.855	4.68
444.21	4.69
444.565	4.68
444.92	4.69
445.275	4.7
445.629	4.68
445.984	4.68
446.339	4.66
446.693	4.67
447.048	4.66
447.403	4.66
447.757	4.64
448.112	4.64
448.466	4.63
448.82	4.62
449.175	4.64
449.529	4.65
449.883	4.63
450.238	4.66
450.592	4.64
450.946	4.66
451.3	4.67
451.654	4.65
452.008	4.66
452.362	4.66
452.716	4.65
453.07	4.68
453.424	4.65
453.778	4.66
454.132	4.64
454.486	4.66
454.839	4.65
455.193	4.67
455.547	4.66
455.9	4.65
456.254	4.66
456.607	4.66
456.961	4.67
457.314	4.67
457.668	4.68
458.021	4.68
458.375	4.67
458.728	4.66
459.081	4.68
459.434	4.67
459.787	4.69
460.141	4.69
460.494	4.69
460.847	4.69
461.2	4.69
461.553	4.7
461.906	4.71
462.259	4.71
462.611	4.71
462.964	4.71
463.317	4.72
463.67	4.73
464.022	4.72
464.375	4.72
464.728	4.74
465.08	4.73
465.433	4.73
465.785	4.74
466.138	4.75
466.49	4.75
466.843	4.77
467.195	4.74
467.547	4.75
467.899	4.76
468.252	4.77
468.604	4.79
468.956	4.83
469.308	4.8
469.66	4.81
470.012	4.83
470.364	4.83
470.716	4.84
471.068	4.86
471.42	4.88
471.772	4.86
472.123	4.83
472.475	4.86
472.827	4.86
473.178	4.86
473.53	4.87
473.882	4.88
474.233	4.87
474.585	4.89
474.936	4.88
475.288	4.87
475.639	4.87
475.99	4.84
476.342	4.82
476.693	4.85
477.044	4.86
477.395	4.83
477.746	4.83
478.097	4.83
478.448	4.8
478.8	4.79
479.15	4.8
479.501	4.79
479.852	4.79
480.203	4.79
480.554	4.81
480.905	4.81
481.255	4.8
481.606	4.8
481.957	4.8
482.307	4.81
482.658	4.8
483.009	4.8
483.359	4.81
483.709	4.81
484.06	4.81
484.41	4.81
484.761	4.82
485.111	4.82
485.461	4.84
485.811	4.84
486.162	4.84
486.512	4.86
486.862	4.87
487.212	4.87
487.562	4.87
487.912	4.88
488.262	4.88
488.612	4.88
488.961	4.88
489.311	4.88
489.661	4.88
490.011	4.88
490.36	4.89
490.71	4.89
491.06	4.88
491.409	4.88
491.759	4.9
492.108	4.91
492.458	4.92
492.807	4.9
493.157	4.91
493.506	4.92
493.855	4.89
494.204	4.89
494.554	4.91
494.903	4.9
495.252	4.89
495.601	4.89
495.95	4.91
496.299	4.93
496.648	4.93
496.997	4.93
497.346	4.95
497.695	4.97
498.043	4.97
498.392	4.99
498.741	5
499.09	5
499.438	4.99
499.787	5.01
500.135	5.01
500.484	5.02
500.832	5.04
501.181	5.06
501.529	5.09
501.878	5.09
502.226	5.12
502.574	5.13
502.923	5.14
503.271	5.16
503.619	5.16
503.967	5.17
504.315	5.21
504.663	5.23
505.011	5.23
505.359	5.21
505.707	5.24
506.055	5.25
506.403	5.26
506.751	5.26
507.098	5.27
507.446	5.29
507.794	5.29
508.141	5.29
508.489	5.32
508.837	5.31
509.184	5.3
509.531	5.29
509.879	5.31
510.226	5.32
510.574	5.31
510.921	5.31
511.268	5.32
511.616	5.33
511.963	5.32
512.31	5.33
512.657	5.34
513.004	5.34
513.351	5.33
513.698	5.33
514.045	5.36
514.392	5.36
514.739	5.36
515.086	5.36
515.432	5.37
515.779	5.36
516.126	5.39
516.473	5.42
516.819	5.45
517.166	5.46
517.512	5.47
517.859	5.48
518.205	5.47
518.552	5.48
518.898	5.48
519.245	5.5
519.591	5.5
519.937	5.54
520.283	5.55
520.629	5.54
520.976	5.54
521.322	5.54
521.668	5.53
522.014	5.54
522.36	5.55
522.706	5.55
523.052	5.56
523.398	5.56
523.743	5.56
524.089	5.57
524.435	5.59
524.781	5.61
525.126	5.62
525.472	5.65
525.817	5.66
526.163	5.68
526.509	5.68
526.854	5.7
527.199	5.7
527.545	5.71
527.89	5.74
528.235	5.76
528.581	5.76
528.926	5.77
529.271	5.77
529.616	5.77
529.961	5.79
530.306	5.8
530.651	5.81
530.996	5.83
531.341	5.85
531.686	5.85
532.031	5.85
532.376	5.86
532.721	5.84
533.065	5.84
533.41	5.84
533.755	5.86
534.099	5.85
534.444	5.84
534.788	5.84
535.133	5.83
535.477	5.84
535.822	5.84
536.166	5.86
536.51	5.87
536.855	5.89
537.199	5.88
537.543	5.88
537.887	5.89
538.231	5.89
538.576	5.88
538.92	5.9
539.264	5.92
539.608	5.93
539.951	5.95
540.295	5.97
540.639	5.97
540.983	5.99
541.327	5.99
541.671	6.02
542.014	6.04
542.358	6.04
542.701	6.02
543.045	6.04
543.389	6.04
543.732	6.05
544.075	6.07
544.419	6.07
544.762	6.09
545.105	6.1
545.449	6.11
545.792	6.1
546.135	6.1
546.478	6.09
546.821	6.11
547.165	6.11
547.508	6.11
547.851	6.13
548.194	6.13
548.536	6.14
548.879	6.17
549.222	6.18
549.565	6.18
549.908	6.2
550.25	6.19
550.593	6.19
550.936	6.21
551.278	6.19
551.621	6.2
551.963	6.2
552.306	6.22
552.648	6.23
552.991	6.25
553.333	6.25
553.675	6.29
554.017	6.28
554.36	6.28
554.702	6.26
555.044	6.26
555.386	6.26
555.728	6.28
556.07	6.22
556.412	6.2
556.754	6.18
557.096	6.2
557.438	6.22
557.78	6.24
558.121	6.21
558.463	6.22
558.805	6.23
559.147	6.2
559.488	6.18
559.83	6.15
560.171	6.11
560.513	6.1
560.854	6.08
561.196	6.1
561.537	6.1
561.878	6.14
562.22	6.14
562.561	6.15
562.902	6.16
563.243	6.18
563.584	6.19
563.925	6.26
564.266	6.26
564.607	6.27
564.948	6.23
565.289	6.26
565.63	6.27
565.971	6.31
566.312	6.31
566.653	6.31
566.993	6.34
567.334	6.37
567.675	6.41
568.015	6.41
568.356	6.41
568.696	6.44
569.037	6.43
569.377	6.42
569.718	6.41
570.058	6.42
570.398	6.41
570.739	6.39
571.079	6.36
571.419	6.39
571.759	6.35
572.099	6.37
572.439	6.38
572.779	6.35
573.119	6.33
573.459	6.31
573.799	6.34
574.139	6.31
574.479	6.33
574.819	6.33
575.158	6.32
575.498	6.32
575.838	6.31
576.177	6.29
576.517	6.3
576.856	6.32
577.196	6.3
577.535	6.33
577.875	6.34
578.214	6.37
578.553	6.33
578.893	6.39
579.232	6.4
579.571	6.39
579.91	6.47
580.25	6.44
580.589	6.47
580.928	6.47
581.267	6.47
581.606	6.47
581.945	6.45
582.283	6.48
582.622	6.45
582.961	6.41
583.3	6.47
583.639	6.47
583.977	6.47
584.316	6.49
584.654	6.49
584.993	6.53
585.332	6.57
585.67	6.57
586.008	6.52
586.347	6.51
586.685	6.52
587.024	6.48
587.362	6.52
587.7	6.57
588.038	6.56
588.376	6.61
588.715	6.6
589.053	6.57
589.391	6.53
589.729	6.57
590.067	6.61
590.404	6.62
590.742	6.62
591.08	6.61
591.418	6.63
591.756	6.66
592.093	6.65
592.431	6.58
592.769	6.59
593.106	6.62
593.444	6.63
593.781	6.62
594.119	6.63
594.456	6.61
594.793	6.57
595.131	6.59
595.468	6.61
595.805	6.61
596.143	6.63
596.48	6.66
596.817	6.7
597.154	6.7
597.491	6.72
597.828	6.74
598.165	6.75
598.502	6.71
598.839	6.72
599.176	6.73
599.512	6.74
599.849	6.73
600.186	6.72
600.523	6.71
600.859	6.71
601.196	6.73
601.532	6.72
601.869	6.72
602.205	6.71
602.542	6.67
602.878	6.7
603.215	6.71
603.551	6.67
603.887	6.63
604.223	6.6
604.56	6.59
604.896	6.59
605.232	6.58
605.568	6.58
605.904	6.5
606.24	6.47
606.576	6.46
606.912	6.47
607.248	6.51
607.583	6.5
607.919	6.49
608.255	6.47
608.591	6.53
608.926	6.55
609.262	6.54
609.597	6.5
609.933	6.49
610.268	6.5
610.604	6.53
610.939	6.56
611.275	6.59
611.61	6.6
611.945	6.52
612.281	6.57
612.616	6.58
612.951	6.68
613.286	6.7
613.621	6.69
613.956	6.73
614.291	6.73
614.626	6.74
614.961	6.78
615.296	6.82
615.631	6.78
615.966	6.77
616.3	6.77
616.635	6.82
616.97	6.81
617.304	6.79
617.639	6.79
617.973	6.74
618.308	6.72
618.642	6.71
618.977	6.73
619.311	6.67
619.646	6.67
619.98	6.66
620.314	6.67
620.648	6.68
620.983	6.7
621.317	6.75
621.651	6.76
621.985	6.78
622.319	6.77
622.653	6.8
622.987	6.76
623.321	6.77
623.655	6.76
623.988	6.8
624.322	6.81
624.656	6.82
624.99	6.84
625.323	6.83
625.657	6.84
625.99	6.89
626.324	6.89
626.657	6.84
626.991	6.8
627.324	6.79
627.658	6.75
627.991	6.71
628.324	6.62
628.657	6.62
628.991	6.62
629.324	6.62
629.657	6.59
629.99	6.66
630.323	6.66
630.656	6.71
630.989	6.66
631.322	6.67
631.655	6.61
631.987	6.64
632.32	6.71
632.653	6.68
632.986	6.66
633.318	6.66
633.651	6.73
633.984	6.77
634.316	6.76
634.649	6.87
634.981	6.89
635.313	6.96
635.646	6.97
635.978	6.95
636.31	6.99
636.643	7.02
636.975	6.99
637.307	7.02
637.639	6.94
637.971	6.92
638.303	6.83
638.635	6.88
638.967	6.78
639.299	6.79
639.631	6.82
639.963	6.78
640.295	6.82
640.626	6.82
640.958	6.79
641.29	6.88
641.621	6.84
641.953	6.77
642.285	6.68
642.616	6.74
642.948	6.73
643.279	6.64
643.61	6.68
643.942	6.76
644.273	6.73
644.604	6.83
644.936	6.93
645.267	6.98
645.598	7.02
645.929	7.02
646.26	6.95
646.591	6.95
646.922	7.02
647.253	7.02
647.584	7.03
647.915	7.08
648.245	7.05
648.576	7.03
648.907	7.08
649.238	7.17
649.568	7.16
649.899	7.16
650.229	7.22
650.56	7.23
650.89	7.13
651.221	7.13
651.551	7.07
651.882	7.05
652.212	7.09
652.542	7.12
652.872	7.15
653.203	7.19
653.533	7.21
653.863	7.16
654.193	7.17
654.523	7.09
654.853	7.11
655.183	7.05
655.513	7.06
655.843	7.08
656.172	7.03
656.502	6.96
656.832	6.97
657.162	6.97
657.491	6.96
657.821	7.04
658.15	7.05
658.48	7.08
658.809	7.08
659.139	7.13
659.468	7.12
659.798	7.21
660.127	7.19
660.456	7.16
660.785	7.23
661.115	7.24
661.444	7.31
661.773	7.27
662.102	7.31
662.431	7.31
662.76	7.33
663.089	7.48
663.418	7.54
663.747	7.55
664.076	7.54
664.404	7.53
664.733	7.48
665.062	7.54
665.39	7.51
665.719	7.51
666.048	7.53
666.376	7.48
666.705	7.48
667.033	7.5
667.362	7.58
667.69	7.59
668.018	7.6
668.347	7.66
668.675	7.68
669.003	7.65
669.331	7.66
669.659	7.66
669.987	7.52
670.315	7.51
670.643	7.55
670.971	7.56
671.299	7.57
671.627	7.55
671.955	7.44
672.283	7.4
672.61	7.38
672.938	7.29
673.266	7.33
673.593	7.17
673.921	7.16
674.249	7.1
674.576	7.11
674.904	7.16
675.231	7.03
675.558	7.05
675.886	7.02
676.213	7.07
676.54	7.01
676.867	7.02
677.195	7.09
677.522	7.13
677.849	7.15
678.176	7.12
