Data from BA17726_Reflection_00004.txt Node
Date: Tue Nov 19 11:56:52 EST 2019
User: vgr7
Spectrometer: USB2G7710
Scans to average: 3
Trigger mode: 4
Integration Time (sec): 2.000000E-2
Electric dark correction enabled: true
Boxcar width: 10
XAxis mode: Wavelengths
Number of Pixels in Spectrum: 2048
>>>>>Begin Spectral Data<<<<<
177.721	21.51
178.105	-6.06
178.488	12.22
178.871	42.95
179.254	98.92
179.636	58.33
180.019	33.08
180.402	208.33
180.785	55.07
181.168	-30.23
181.55	-153.5
181.933	-1321.57
182.316	-526.44
182.698	-223.9
183.081	-45.65
183.463	-105.31
183.846	-95.34
184.228	4.56
184.611	-1.28
184.993	1.8
185.376	30.64
185.758	19.8
186.14	-37.4
186.522	-4
186.904	18.91
187.287	66.39
187.669	52.71
188.051	35.45
188.433	-1955.56
188.815	-120.72
189.197	2.3
189.579	64.48
189.961	65.56
190.342	31.49
190.724	-66.67
191.106	438.38
191.488	-820.29
191.869	-71.85
192.251	-43
192.633	-56.62
193.014	-60.89
193.396	-42.17
193.777	-35.36
194.159	-8.31
194.54	4.82
194.922	-3.32
195.303	2.07
195.684	-0.11
196.065	7.08
196.447	18.05
196.828	19.6
197.209	21.21
197.59	22.03
197.971	11.02
198.352	-7.48
198.733	-8.71
199.114	-5.73
199.495	-4.32
199.876	-23.24
200.257	-27.95
200.638	-20.74
201.018	-14.86
201.399	-14.18
201.78	-5.2
202.16	-28.51
202.541	-48.8
202.922	-56.88
203.302	-56.18
203.683	-56.51
204.063	-74.02
204.444	-72.41
204.824	-73.38
205.204	-74.03
205.585	-69.43
205.965	-68.38
206.345	-49.65
206.725	-27.45
207.106	-19.3
207.486	-11.93
207.866	0.25
208.246	-6.63
208.626	-24.54
209.006	-18.13
209.386	-14.17
209.766	-17.42
210.145	7.58
210.525	3.26
210.905	13.78
211.285	10.49
211.664	18.74
212.044	30.17
212.424	25.41
212.803	19.59
213.183	5.01
213.562	15.91
213.942	15.11
214.321	11.8
214.701	1.77
215.08	3.36
215.459	-10.77
215.838	-8.67
216.218	-11.16
216.597	-12.03
216.976	-25.7
217.355	-22.88
217.734	-27.08
218.113	-33.8
218.492	-26.84
218.871	-28.88
219.25	-28.7
219.629	-38.25
220.008	-43.44
220.387	-43.08
220.766	-35.93
221.144	-34.15
221.523	-42.99
221.902	-35.89
222.28	-30.87
222.659	-21.56
223.037	-21.87
223.416	-14.99
223.794	-13.8
224.173	-3.53
224.551	-3.47
224.929	0.42
225.308	-1
225.686	1.4
226.064	2.18
226.442	7.39
226.821	6.27
227.199	5.3
227.577	7.87
227.955	14.06
228.333	16.32
228.711	19.32
229.089	19.98
229.467	22.27
229.845	19.15
230.222	16.78
230.6	16.32
230.978	17.92
231.356	15.75
231.733	13.68
232.111	11.51
232.488	10.9
232.866	13.66
233.243	13.38
233.621	14.12
233.998	14.28
234.376	10.36
234.753	10.08
235.13	9.52
235.508	9.01
235.885	7.21
236.262	6.03
236.639	4.6
237.016	3.47
237.393	2.63
237.77	3.18
238.147	3.84
238.524	3.74
238.901	2.47
239.278	2.83
239.655	4.27
240.032	4.61
240.409	5.73
240.785	5.39
241.162	5.19
241.539	5.12
241.915	5.55
242.292	6.37
242.668	7.2
243.045	7.31
243.421	7.42
243.798	7.63
244.174	7.46
244.551	7.2
244.927	7.14
245.303	6.69
245.679	6.63
246.056	6.85
246.432	6.92
246.808	7.15
247.184	7.38
247.56	6.73
247.936	6.5
248.312	6.17
248.688	6.08
249.064	6.11
249.44	6.2
249.815	6.14
250.191	6.07
250.567	5.67
250.943	5.65
251.318	5.44
251.694	5.35
252.069	5.55
252.445	5.8
252.82	5.85
253.196	5.89
253.571	6.27
253.947	5.78
254.322	5.82
254.697	5.86
255.073	5.7
255.448	6.05
255.823	6.2
256.198	6.29
256.573	6.22
256.948	6.17
257.323	5.84
257.698	5.72
258.073	5.45
258.448	5.61
258.823	5.38
259.198	5.63
259.573	5.46
259.948	5.3
260.322	5.09
260.697	5.19
261.072	5.27
261.446	4.99
261.821	5.04
262.195	5.02
262.57	5.05
262.944	5.18
263.319	5.2
263.693	5.04
264.067	5.04
264.442	4.87
264.816	4.79
265.19	4.82
265.564	4.82
265.938	4.81
266.313	4.72
266.687	4.8
267.061	4.53
267.435	4.69
267.809	4.63
268.183	4.8
268.556	4.9
268.93	4.89
269.304	4.9
269.678	4.87
270.051	4.73
270.425	4.65
270.799	4.3
271.172	4.37
271.546	4.58
271.919	4.6
272.293	4.83
272.666	4.88
273.04	4.9
273.413	5
273.787	4.99
274.16	4.86
274.533	5.04
274.906	5.17
275.279	5.12
275.653	5.25
276.026	5.11
276.399	4.78
276.772	4.84
277.145	4.96
277.518	4.9
277.891	5.18
278.263	5.26
278.636	5.57
279.009	5.53
279.382	5.36
279.755	5.28
280.127	5.24
280.5	5.09
280.872	5.05
281.245	4.94
281.617	5
281.99	5.05
282.362	4.95
282.735	4.93
283.107	4.77
283.479	4.69
283.852	4.77
284.224	5.05
284.596	4.99
284.968	4.84
285.34	4.82
285.713	4.71
286.085	4.45
286.457	4.33
286.829	4.28
287.201	4.23
287.572	4.31
287.944	4.35
288.316	4.51
288.688	4.54
289.06	4.63
289.431	4.75
289.803	4.95
290.175	4.86
290.546	4.81
290.918	4.88
291.289	5.05
291.661	5.14
292.032	5.09
292.403	5.1
292.775	5.22
293.146	5.37
293.517	5.3
293.889	5.43
294.26	5.55
294.631	5.62
295.002	5.71
295.373	5.68
295.744	5.57
296.115	5.63
296.486	5.57
296.857	5.59
297.228	5.57
297.599	5.4
297.97	5.52
298.34	5.57
298.711	5.65
299.082	5.61
299.452	5.51
299.823	5.45
300.194	5.56
300.564	5.54
300.935	5.47
301.305	5.39
301.676	5.39
302.046	5.35
302.416	5.3
302.787	5.08
303.157	4.99
303.527	5.11
303.897	4.77
304.267	5.05
304.637	4.98
305.008	4.85
305.378	5
305.748	4.98
306.117	4.87
306.487	4.85
306.857	4.86
307.227	4.83
307.597	4.76
307.967	4.73
308.336	4.67
308.706	4.82
309.076	4.98
309.445	5.13
309.815	4.98
310.184	4.93
310.554	5.19
310.923	5.24
311.293	5.17
311.662	5.38
312.031	5.13
312.401	5.18
312.77	5.3
313.139	5.26
313.508	5.27
313.877	5.43
314.246	5.4
314.616	5.41
314.985	5.37
315.353	5.47
315.722	5.63
316.091	5.72
316.46	5.66
316.829	5.71
317.198	5.71
317.567	5.8
317.935	5.89
318.304	5.97
318.672	5.94
319.041	5.99
319.41	6.04
319.778	6.2
320.147	6.11
320.515	5.98
320.883	5.76
321.252	5.8
321.62	5.58
321.988	5.68
322.357	5.73
322.725	5.91
323.093	5.93
323.461	5.69
323.829	5.56
324.197	5.54
324.565	5.57
324.933	5.51
325.301	5.4
325.669	5.56
326.037	5.38
326.405	5.44
326.772	5.5
327.14	5.31
327.508	5.44
327.875	5.42
328.243	5.48
328.61	5.55
328.978	5.53
329.346	5.55
329.713	5.6
330.08	5.43
330.448	5.35
330.815	5.35
331.182	5.4
331.55	5.54
331.917	5.48
332.284	5.56
332.651	5.52
333.018	5.6
333.385	5.43
333.752	5.58
334.119	5.63
334.486	5.55
334.853	5.65
335.22	5.47
335.587	5.49
335.954	5.41
336.32	5.5
336.687	5.54
337.054	5.6
337.42	5.57
337.787	5.66
338.153	5.75
338.52	5.71
338.886	5.67
339.253	5.56
339.619	5.62
339.986	5.43
340.352	5.34
340.718	5.33
341.084	5.36
341.451	5.31
341.817	5.25
342.183	5.2
342.549	5.21
342.915	5.3
343.281	5.28
343.647	5.32
344.013	5.38
344.379	5.31
344.745	5.35
345.11	5.26
345.476	5.32
345.842	5.21
346.208	5.16
346.573	5.25
346.939	5.31
347.304	5.38
347.67	5.39
348.035	5.45
348.401	5.59
348.766	5.53
349.132	5.55
349.497	5.55
349.862	5.63
350.228	5.61
350.593	5.5
350.958	5.66
351.323	5.57
351.688	5.42
352.053	5.58
352.418	5.59
352.783	5.65
353.148	5.54
353.513	5.52
353.878	5.55
354.243	5.51
354.608	5.43
354.972	5.35
355.337	5.4
355.702	5.44
356.066	5.39
356.431	5.45
356.795	5.43
357.16	5.54
357.524	5.49
357.889	5.56
358.253	5.5
358.618	5.43
358.982	5.46
359.346	5.54
359.71	5.43
360.075	5.48
360.439	5.56
360.803	5.56
361.167	5.54
361.531	5.58
361.895	5.5
362.259	5.56
362.623	5.65
362.987	5.62
363.351	5.57
363.714	5.47
364.078	5.47
364.442	5.45
364.806	5.39
365.169	5.46
365.533	5.48
365.896	5.55
366.26	5.55
366.623	5.61
366.987	5.59
367.35	5.65
367.714	5.61
368.077	5.54
368.44	5.52
368.803	5.53
369.167	5.43
369.53	5.45
369.893	5.49
370.256	5.34
370.619	5.31
370.982	5.3
371.345	5.4
371.708	5.39
372.071	5.42
372.434	5.45
372.797	5.39
373.159	5.29
373.522	5.3
373.885	5.3
374.247	5.24
374.61	5.23
374.973	5.2
375.335	5.15
375.698	5.09
376.06	5.09
376.423	5.1
376.785	5.16
377.147	5.17
377.51	5.12
377.872	5.17
378.234	5.22
378.596	5.25
378.958	5.25
379.321	5.25
379.683	5.21
380.045	5.16
380.407	5.14
380.769	5.2
381.13	5.21
381.492	5.26
381.854	5.27
382.216	5.22
382.578	5.21
382.939	5.2
383.301	5.23
383.663	5.29
384.024	5.33
384.386	5.31
384.747	5.37
385.109	5.41
385.47	5.44
385.832	5.44
386.193	5.4
386.554	5.38
386.916	5.39
387.277	5.38
387.638	5.43
387.999	5.43
388.36	5.41
388.721	5.43
389.082	5.44
389.443	5.45
389.804	5.53
390.165	5.57
390.526	5.58
390.887	5.62
391.248	5.64
391.609	5.65
391.969	5.62
392.33	5.6
392.691	5.57
393.051	5.57
393.412	5.61
393.772	5.66
394.133	5.66
394.493	5.64
394.854	5.67
395.214	5.65
395.574	5.66
395.935	5.67
396.295	5.63
396.655	5.6
397.015	5.6
397.376	5.55
397.736	5.54
398.096	5.55
398.456	5.54
398.816	5.5
399.176	5.46
399.535	5.53
399.895	5.49
400.255	5.5
400.615	5.49
400.975	5.45
401.334	5.41
401.694	5.44
402.054	5.48
402.413	5.48
402.773	5.48
403.132	5.45
403.492	5.46
403.851	5.47
404.211	5.45
404.57	5.44
404.929	5.47
405.288	5.47
405.648	5.44
406.007	5.46
406.366	5.45
406.725	5.5
407.084	5.46
407.443	5.48
407.802	5.44
408.161	5.47
408.52	5.47
408.879	5.5
409.238	5.5
409.596	5.48
409.955	5.47
410.314	5.47
410.673	5.49
411.031	5.49
411.39	5.47
411.748	5.48
412.107	5.45
412.465	5.46
412.824	5.43
413.182	5.44
413.54	5.43
413.899	5.42
414.257	5.39
414.615	5.41
414.974	5.42
415.332	5.42
415.69	5.37
416.048	5.38
416.406	5.36
416.764	5.36
417.122	5.34
417.48	5.34
417.838	5.36
418.195	5.35
418.553	5.34
418.911	5.35
419.269	5.36
419.626	5.37
419.984	5.36
420.342	5.35
420.699	5.35
421.057	5.34
421.414	5.34
421.772	5.36
422.129	5.35
422.486	5.35
422.844	5.35
423.201	5.37
423.558	5.36
423.915	5.35
424.273	5.35
424.63	5.35
424.987	5.34
425.344	5.33
425.701	5.34
426.058	5.33
426.415	5.32
426.772	5.32
427.128	5.3
427.485	5.3
427.842	5.31
428.199	5.32
428.555	5.3
428.912	5.29
429.269	5.29
429.625	5.29
429.982	5.28
430.338	5.27
430.695	5.25
431.051	5.26
431.407	5.25
431.764	5.24
432.12	5.26
432.476	5.3
432.832	5.3
433.189	5.27
433.545	5.28
433.901	5.29
434.257	5.29
434.613	5.31
434.969	5.3
435.325	5.31
435.681	5.29
436.036	5.31
436.392	5.32
436.748	5.31
437.104	5.3
437.459	5.28
437.815	5.3
438.171	5.31
438.526	5.31
438.882	5.33
439.237	5.31
439.593	5.3
439.948	5.28
440.304	5.27
440.659	5.3
441.014	5.28
441.369	5.27
441.725	5.25
442.08	5.25
442.435	5.25
442.79	5.23
443.145	5.25
443.5	5.22
443.855	5.21
444.21	5.22
444.565	5.22
444.92	5.23
445.275	5.23
445.629	5.21
445.984	5.21
446.339	5.2
446.693	5.22
447.048	5.22
447.403	5.23
447.757	5.22
448.112	5.23
448.466	5.23
448.82	5.22
449.175	5.22
449.529	5.21
449.883	5.2
450.238	5.19
450.592	5.17
450.946	5.17
451.3	5.17
451.654	5.16
452.008	5.16
452.362	5.17
452.716	5.16
453.07	5.17
453.424	5.15
453.778	5.15
454.132	5.14
454.486	5.13
454.839	5.09
455.193	5.09
455.547	5.07
455.9	5.06
456.254	5.08
456.607	5.1
456.961	5.11
457.314	5.12
457.668	5.13
458.021	5.11
458.375	5.14
458.728	5.15
459.081	5.16
459.434	5.13
459.787	5.13
460.141	5.13
460.494	5.13
460.847	5.14
461.2	5.16
461.553	5.16
461.906	5.18
462.259	5.19
462.611	5.22
462.964	5.24
463.317	5.27
463.67	5.27
464.022	5.28
464.375	5.31
464.728	5.31
465.08	5.31
465.433	5.36
465.785	5.35
466.138	5.36
466.49	5.36
466.843	5.4
467.195	5.4
467.547	5.42
467.899	5.44
468.252	5.44
468.604	5.44
468.956	5.46
469.308	5.45
469.66	5.49
470.012	5.48
470.364	5.48
470.716	5.48
471.068	5.48
471.42	5.49
471.772	5.44
472.123	5.44
472.475	5.46
472.827	5.45
473.178	5.48
473.53	5.48
473.882	5.47
474.233	5.47
474.585	5.45
474.936	5.43
475.288	5.39
475.639	5.4
475.99	5.37
476.342	5.35
476.693	5.35
477.044	5.32
477.395	5.3
477.746	5.28
478.097	5.27
478.448	5.28
478.8	5.27
479.15	5.28
479.501	5.3
479.852	5.29
480.203	5.29
480.554	5.31
480.905	5.31
481.255	5.31
481.606	5.32
481.957	5.35
482.307	5.34
482.658	5.35
483.009	5.36
483.359	5.36
483.709	5.38
484.06	5.37
484.41	5.38
484.761	5.4
485.111	5.4
485.461	5.42
485.811	5.41
486.162	5.4
486.512	5.4
486.862	5.41
487.212	5.4
487.562	5.42
487.912	5.42
488.262	5.42
488.612	5.43
488.961	5.42
489.311	5.41
489.661	5.42
490.011	5.42
490.36	5.41
490.71	5.41
491.06	5.4
491.409	5.42
491.759	5.43
492.108	5.41
492.458	5.41
492.807	5.39
493.157	5.41
493.506	5.42
493.855	5.44
494.204	5.45
494.554	5.47
494.903	5.46
495.252	5.45
495.601	5.48
495.95	5.49
496.299	5.52
496.648	5.53
496.997	5.56
497.346	5.61
497.695	5.65
498.043	5.68
498.392	5.72
498.741	5.71
499.09	5.71
499.438	5.73
499.787	5.75
500.135	5.78
500.484	5.79
500.832	5.8
501.181	5.81
501.529	5.86
501.878	5.88
502.226	5.89
502.574	5.92
502.923	5.9
503.271	5.9
503.619	5.92
503.967	5.92
504.315	5.91
504.663	5.87
505.011	5.87
505.359	5.86
505.707	5.86
506.055	5.85
506.403	5.86
506.751	5.87
507.098	5.9
507.446	5.92
507.794	5.93
508.141	5.97
508.489	5.98
508.837	5.96
509.184	5.97
509.531	5.98
509.879	5.98
510.226	5.98
510.574	6
510.921	6.01
511.268	6.04
511.616	6.07
511.963	6.09
512.31	6.14
512.657	6.15
513.004	6.14
513.351	6.18
513.698	6.2
514.045	6.21
514.392	6.21
514.739	6.21
515.086	6.22
515.432	6.23
515.779	6.23
516.126	6.25
516.473	6.25
516.819	6.25
517.166	6.26
517.512	6.28
517.859	6.29
518.205	6.28
518.552	6.3
518.898	6.31
519.245	6.32
519.591	6.31
519.937	6.32
520.283	6.34
520.629	6.34
520.976	6.32
521.322	6.35
521.668	6.36
522.014	6.37
522.36	6.38
522.706	6.39
523.052	6.4
523.398	6.37
523.743	6.39
524.089	6.41
524.435	6.43
524.781	6.45
525.126	6.45
525.472	6.45
525.817	6.44
526.163	6.46
526.509	6.46
526.854	6.47
527.199	6.47
527.545	6.48
527.89	6.48
528.235	6.51
528.581	6.5
528.926	6.5
529.271	6.49
529.616	6.48
529.961	6.48
530.306	6.48
530.651	6.49
530.996	6.5
531.341	6.5
531.686	6.5
532.031	6.5
532.376	6.49
532.721	6.49
533.065	6.5
533.41	6.5
533.755	6.5
534.099	6.5
534.444	6.51
534.788	6.51
535.133	6.51
535.477	6.51
535.822	6.52
536.166	6.54
536.51	6.58
536.855	6.62
537.199	6.64
537.543	6.66
537.887	6.66
538.231	6.66
538.576	6.66
538.92	6.66
539.264	6.67
539.608	6.69
539.951	6.68
540.295	6.69
540.639	6.72
540.983	6.72
541.327	6.72
541.671	6.73
542.014	6.75
542.358	6.77
542.701	6.78
543.045	6.78
543.389	6.79
543.732	6.77
544.075	6.75
544.419	6.77
544.762	6.77
545.105	6.79
545.449	6.8
545.792	6.81
546.135	6.83
546.478	6.82
546.821	6.83
547.165	6.87
547.508	6.87
547.851	6.85
548.194	6.85
548.536	6.87
548.879	6.87
549.222	6.87
549.565	6.87
549.908	6.85
550.25	6.86
550.593	6.84
550.936	6.87
551.278	6.85
551.621	6.83
551.963	6.85
552.306	6.85
552.648	6.88
552.991	6.87
553.333	6.89
553.675	6.91
554.017	6.9
554.36	6.9
554.702	6.9
555.044	6.89
555.386	6.93
555.728	6.95
556.07	6.96
556.412	6.95
556.754	6.93
557.096	6.97
557.438	6.98
557.78	7
558.121	6.97
558.463	6.98
558.805	6.99
559.147	6.95
559.488	6.97
559.83	6.94
560.171	6.94
560.513	6.96
560.854	6.99
561.196	6.99
561.537	7
561.878	7.02
562.22	7.07
562.561	7.05
562.902	7.05
563.243	7.05
563.584	7.05
563.925	7.06
564.266	7.01
564.607	7.01
564.948	7.01
565.289	7.06
565.63	7.09
565.971	7.09
566.312	7.11
566.653	7.09
566.993	7.09
567.334	7.11
567.675	7.15
568.015	7.12
568.356	7.13
568.696	7.13
569.037	7.09
569.377	7.07
569.718	7.05
570.058	7
570.398	6.95
570.739	6.94
571.079	6.93
571.419	7
571.759	7
572.099	7.01
572.439	7.02
572.779	7.01
573.119	6.99
573.459	6.99
573.799	6.99
574.139	7.01
574.479	6.99
574.819	6.94
575.158	6.96
575.498	6.94
575.838	6.93
576.177	6.92
576.517	6.93
576.856	6.93
577.196	6.96
577.535	7
577.875	7.01
578.214	7.04
578.553	7.01
578.893	7.03
579.232	7.05
579.571	7.03
579.91	7.01
580.25	7.05
580.589	7.06
580.928	7.08
581.267	7.03
581.606	7.06
581.945	7.06
582.283	7.11
582.622	7.13
582.961	7.14
583.3	7.18
583.639	7.19
583.977	7.18
584.316	7.19
584.654	7.18
584.993	7.2
585.332	7.2
585.67	7.2
586.008	7.19
586.347	7.15
586.685	7.12
587.024	7.14
587.362	7.16
587.7	7.2
588.038	7.22
588.376	7.26
588.715	7.21
589.053	7.2
589.391	7.17
589.729	7.14
590.067	7.16
590.404	7.15
590.742	7.17
591.08	7.22
591.418	7.24
591.756	7.27
592.093	7.25
592.431	7.28
592.769	7.26
593.106	7.26
593.444	7.29
593.781	7.32
594.119	7.31
594.456	7.33
594.793	7.28
595.131	7.24
595.468	7.27
595.805	7.33
596.143	7.37
596.48	7.36
596.817	7.38
597.154	7.36
597.491	7.37
597.828	7.36
598.165	7.36
598.502	7.35
598.839	7.36
599.176	7.39
599.512	7.33
599.849	7.35
600.186	7.35
600.523	7.37
600.859	7.36
601.196	7.42
601.532	7.38
601.869	7.4
602.205	7.45
602.542	7.45
602.878	7.41
603.215	7.36
603.551	7.4
603.887	7.44
604.223	7.42
604.56	7.44
604.896	7.45
605.232	7.44
605.568	7.43
605.904	7.37
606.24	7.39
606.576	7.42
606.912	7.46
607.248	7.48
607.583	7.47
607.919	7.48
608.255	7.45
608.591	7.52
608.926	7.54
609.262	7.48
609.597	7.46
609.933	7.47
610.268	7.53
610.604	7.48
610.939	7.5
611.275	7.54
611.61	7.49
611.945	7.49
612.281	7.53
612.616	7.55
612.951	7.66
613.286	7.62
613.621	7.59
613.956	7.56
614.291	7.57
614.626	7.54
614.961	7.57
615.296	7.58
615.631	7.58
615.966	7.58
616.3	7.6
616.635	7.61
616.97	7.67
617.304	7.61
617.639	7.67
617.973	7.54
618.308	7.57
618.642	7.55
618.977	7.55
619.311	7.53
619.646	7.57
619.98	7.54
620.314	7.63
620.648	7.65
620.983	7.67
621.317	7.67
621.651	7.64
621.985	7.65
622.319	7.63
622.653	7.62
622.987	7.57
623.321	7.65
623.655	7.67
623.988	7.64
624.322	7.71
624.656	7.69
624.99	7.75
625.323	7.73
625.657	7.77
625.99	7.81
626.324	7.81
626.657	7.77
626.991	7.8
627.324	7.75
627.658	7.81
627.991	7.83
628.324	7.8
628.657	7.86
628.991	7.88
629.324	7.84
629.657	7.8
629.99	7.84
630.323	7.81
630.656	7.84
630.989	7.88
631.322	7.87
631.655	7.84
631.987	7.83
632.32	7.85
632.653	7.89
632.986	7.9
633.318	7.91
633.651	8
633.984	7.96
634.316	7.96
634.649	7.91
634.981	7.83
635.313	7.89
635.646	7.91
635.978	7.92
636.31	7.97
636.643	7.98
636.975	7.96
637.307	8.01
637.639	7.95
637.971	7.91
638.303	7.94
638.635	7.98
638.967	8
639.299	8
639.631	8.02
639.963	7.98
640.295	8.06
640.626	7.98
640.958	8.01
641.29	8.07
641.621	8.06
641.953	8.14
642.285	8.15
642.616	8.14
642.948	8.09
643.279	8.08
643.61	8.14
643.942	8.16
644.273	8.14
644.604	8.14
644.936	8.19
645.267	8.14
645.598	8.18
645.929	8.12
646.26	8.18
646.591	8.16
646.922	8.21
647.253	8.07
647.584	8.02
647.915	8.02
648.245	8.07
648.576	8.13
648.907	8.12
649.238	8.03
649.568	7.96
649.899	7.95
650.229	8.05
650.56	7.97
650.89	8.02
651.221	8.02
651.551	8.09
651.882	8.05
652.212	8.06
652.542	8.09
652.872	8.14
653.203	8.15
653.533	8.15
653.863	8.13
654.193	8.17
654.523	8.3
654.853	8.33
655.183	8.28
655.513	8.3
655.843	8.34
656.172	8.42
656.502	8.44
656.832	8.5
657.162	8.41
657.491	8.49
657.821	8.43
658.15	8.46
658.48	8.44
658.809	8.46
659.139	8.56
659.468	8.51
659.798	8.51
660.127	8.46
660.456	8.44
660.785	8.46
661.115	8.49
661.444	8.47
661.773	8.45
662.102	8.47
662.431	8.44
662.76	8.39
663.089	8.46
663.418	8.54
663.747	8.53
664.076	8.49
664.404	8.48
664.733	8.45
665.062	8.43
665.39	8.41
665.719	8.43
666.048	8.33
666.376	8.41
666.705	8.45
667.033	8.44
667.362	8.52
667.69	8.48
668.018	8.48
668.347	8.37
668.675	8.47
669.003	8.43
669.331	8.53
669.659	8.61
669.987	8.63
670.315	8.65
670.643	8.59
670.971	8.65
671.299	8.63
671.627	8.69
671.955	8.62
672.283	8.63
672.61	8.61
672.938	8.57
673.266	8.5
673.593	8.53
673.921	8.53
674.249	8.49
674.576	8.53
674.904	8.51
675.231	8.68
675.558	8.63
675.886	8.64
676.213	8.48
676.54	8.43
676.867	8.35
677.195	8.3
677.522	8.4
677.849	8.47
678.176	8.41
678.503	8.47
678.83	8.5
679.157	8.62
679.484	8.63
