Data from BA17718_Reflection_00003.txt Node
Date: Tue Nov 19 11:47:32 EST 2019
User: vgr7
Spectrometer: USB2G7710
Scans to average: 3
Trigger mode: 4
Integration Time (sec): 2.000000E-2
Electric dark correction enabled: true
Boxcar width: 10
XAxis mode: Wavelengths
Number of Pixels in Spectrum: 2048
>>>>>Begin Spectral Data<<<<<
177.721	-131.98
178.105	-199.27
178.488	-156.91
178.871	-188.5
179.254	-375
179.636	4389.47
180.019	-435.97
180.402	19.23
180.785	-136.36
181.168	-64.91
181.55	26.75
181.933	45.5
182.316	48.69
182.698	49.8
183.081	67.44
183.463	77.73
183.846	125.84
184.228	111.07
184.611	177.99
184.993	518.18
185.376	-1512.24
185.758	-577.69
186.14	-1800
186.522	-661.36
186.904	-942.86
187.287	1420.75
187.669	-5250
188.051	-2195.45
188.433	437.35
188.815	-1864.29
189.197	-437.23
189.579	-160.95
189.961	-104.31
190.342	-67.31
190.724	-88.49
191.106	-65.08
191.488	-60.95
191.869	-64.63
192.251	-62.83
192.633	-71.39
193.014	-67.19
193.396	-90.21
193.777	-52.3
194.159	-42.45
194.54	-40.73
194.922	-61.17
195.303	-63.5
195.684	-97.54
196.065	-50.16
196.447	-19.08
196.828	-16.85
197.209	-37.96
197.59	-11.16
197.971	-6.49
198.352	-18.17
198.733	-5.94
199.114	-17.42
199.495	-13.01
199.876	-0.87
200.257	0.8
200.638	9.86
201.018	1.2
201.399	10.37
201.78	10.94
202.16	6.98
202.541	-11
202.922	-3.04
203.302	-8.79
203.683	-13.76
204.063	-33.04
204.444	-34.01
204.824	-23.94
205.204	-2.76
205.585	-8.01
205.965	-45.91
206.345	-3.9
206.725	-10.04
207.106	7.47
207.486	-11.45
207.866	-24.56
208.246	-23.43
208.626	-45.49
209.006	-61.76
209.386	-42.17
209.766	-138.46
210.145	-38.74
210.525	-8.45
210.905	-25.39
211.285	41.95
211.664	41.25
212.044	70.36
212.424	32.04
212.803	10.4
213.183	-21.43
213.562	-60
213.942	10.4
214.321	-57.59
214.701	-30.64
215.08	3.56
215.459	37
215.838	15.44
216.218	20.45
216.597	21.22
216.976	13.31
217.355	-17.79
217.734	-52.39
218.113	-62.85
218.492	-47.53
218.871	-40.8
219.25	-56.41
219.629	-60.88
220.008	-69.1
220.387	-59.3
220.766	-45.79
221.144	-34.86
221.523	-33.29
221.902	-29.89
222.28	-20.98
222.659	-14.19
223.037	-24.12
223.416	-27.15
223.794	-11.44
224.173	-27.3
224.551	-29.85
224.929	-17.28
225.308	-15.51
225.686	-7.68
226.064	-7.11
226.442	-7.59
226.821	-11.14
227.199	-13.7
227.577	-11.73
227.955	-5.63
228.333	-9.23
228.711	-7.66
229.089	-6.74
229.467	-10.9
229.845	-8.11
230.222	-7.38
230.6	-8.95
230.978	-5.79
231.356	-10.37
231.733	-11.08
232.111	-4.7
232.488	-3.33
232.866	-5.39
233.243	-4.76
233.621	-1.08
233.998	-3.11
234.376	-2.84
234.753	-2.66
235.13	-1.81
235.508	-4.95
235.885	-7.44
236.262	-6.18
236.639	-5.17
237.016	-5.72
237.393	-1.81
237.77	-1.85
238.147	-2.28
238.524	-0.91
238.901	-1.74
239.278	-1.13
239.655	-0.47
240.032	-0.36
240.409	-0.2
240.785	-0.21
241.162	0.45
241.539	0.27
241.915	0.73
242.292	1.34
242.668	1.75
243.045	2.53
243.421	3.95
243.798	4.41
244.174	4.5
244.551	4.39
244.927	4.59
245.303	4.03
245.679	3.92
246.056	4.09
246.432	4.15
246.808	4.4
247.184	5.07
247.56	4.92
247.936	4.91
248.312	4.86
248.688	5.01
249.064	5.17
249.44	4.92
249.815	5.15
250.191	5.13
250.567	5.12
250.943	5.02
251.318	4.56
251.694	4.09
252.069	4.02
252.445	3.95
252.82	3.87
253.196	4.11
253.571	4
253.947	3.92
254.322	3.98
254.697	3.83
255.073	3.5
255.448	3.92
255.823	3.89
256.198	3.98
256.573	3.94
256.948	3.89
257.323	3.93
257.698	3.61
258.073	3.5
258.448	3.62
258.823	3.44
259.198	3.53
259.573	3.71
259.948	3.75
260.322	3.83
260.697	3.85
261.072	3.86
261.446	3.92
261.821	4.01
262.195	3.92
262.57	4.09
262.944	4.14
263.319	3.98
263.693	3.84
264.067	3.94
264.442	3.85
264.816	3.97
265.19	4.11
265.564	4.27
265.938	4.15
266.313	3.85
266.687	3.96
267.061	3.72
267.435	3.59
267.809	3.48
268.183	3.34
268.556	3.41
268.93	3.35
269.304	3.42
269.678	3.46
270.051	3.4
270.425	3.32
270.799	3.08
271.172	2.89
271.546	2.9
271.919	2.88
272.293	2.89
272.666	2.8
273.04	2.79
273.413	2.71
273.787	2.79
274.16	2.85
274.533	2.92
274.906	3.12
275.279	3.26
275.653	3.25
276.026	3.22
276.399	3.2
276.772	3.3
277.145	3.25
277.518	3.01
277.891	3.02
278.263	3.12
278.636	3.33
279.009	3.44
279.382	3.38
279.755	3.45
280.127	3.53
280.5	3.47
280.872	3.43
281.245	3.48
281.617	3.46
281.99	3.69
282.362	3.72
282.735	3.73
283.107	3.63
283.479	3.65
283.852	3.73
284.224	3.93
284.596	3.86
284.968	3.8
285.34	3.93
285.713	4.12
286.085	3.96
286.457	3.95
286.829	3.96
287.201	3.98
287.572	3.91
287.944	3.89
288.316	3.87
288.688	3.97
289.06	4
289.431	4
289.803	3.79
290.175	3.67
290.546	3.58
290.918	3.69
291.289	3.64
291.661	3.63
292.032	3.41
292.403	3.43
292.775	3.6
293.146	3.61
293.517	3.49
293.889	3.49
294.26	3.37
294.631	3.56
295.002	3.59
295.373	3.54
295.744	3.49
296.115	3.52
296.486	3.35
296.857	3.26
297.228	3.22
297.599	3.3
297.97	3.42
298.34	3.55
298.711	3.68
299.082	3.82
299.452	3.82
299.823	3.85
300.194	3.93
300.564	3.79
300.935	3.71
301.305	3.59
301.676	3.58
302.046	3.6
302.416	3.51
302.787	3.59
303.157	3.61
303.527	3.75
303.897	3.68
304.267	3.81
304.637	4.07
305.008	4.13
305.378	4.26
305.748	4.1
306.117	3.97
306.487	3.82
306.857	3.78
307.227	3.94
307.597	3.91
307.967	3.96
308.336	3.98
308.706	4.14
309.076	4.37
309.445	4.5
309.815	4.59
310.184	4.46
310.554	4.35
310.923	4.23
311.293	4.24
311.662	4.32
312.031	4.28
312.401	4.14
312.77	4.12
313.139	4.14
313.508	4.11
313.877	4.13
314.246	4.18
314.616	4.08
314.985	3.92
315.353	4.02
315.722	3.93
316.091	3.93
316.46	3.94
316.829	3.69
317.198	3.65
317.567	3.69
317.935	3.79
318.304	3.98
318.672	4.12
319.041	4.01
319.41	4.01
319.778	4.01
320.147	4.17
320.515	4.25
320.883	4.23
321.252	4.27
321.62	4.19
321.988	4.11
322.357	4.14
322.725	4.11
323.093	4.06
323.461	4.07
323.829	4.11
324.197	3.91
324.565	4
324.933	3.86
325.301	3.59
325.669	3.46
326.037	3.28
326.405	3.19
326.772	3.26
327.14	3.26
327.508	3.23
327.875	2.99
328.243	2.95
328.61	2.8
328.978	2.73
329.346	2.68
329.713	2.69
330.08	2.81
330.448	2.91
330.815	2.88
331.182	2.9
331.55	2.81
331.917	2.8
332.284	2.74
332.651	2.68
333.018	2.77
333.385	2.82
333.752	2.8
334.119	2.93
334.486	2.94
334.853	2.81
335.22	2.86
335.587	2.94
335.954	2.96
336.32	2.93
336.687	3.02
337.054	3.02
337.42	2.97
337.787	2.9
338.153	2.78
338.52	2.78
338.886	2.93
339.253	2.99
339.619	3.04
339.986	3.05
340.352	3.21
340.718	3.41
341.084	3.52
341.451	3.53
341.817	3.47
342.183	3.45
342.549	3.42
342.915	3.56
343.281	3.55
343.647	3.58
344.013	3.69
344.379	3.7
344.745	3.81
345.11	3.8
345.476	3.88
345.842	3.94
346.208	3.84
346.573	3.67
346.939	3.7
347.304	3.81
347.67	3.93
348.035	3.81
348.401	3.68
348.766	3.58
349.132	3.7
349.497	3.85
349.862	3.9
350.228	3.97
350.593	3.9
350.958	3.97
351.323	3.84
351.688	3.94
352.053	3.88
352.418	3.82
352.783	3.82
353.148	3.76
353.513	3.71
353.878	3.74
354.243	3.73
354.608	3.68
354.972	3.56
355.337	3.55
355.702	3.58
356.066	3.74
356.431	3.87
356.795	3.84
357.16	3.79
357.524	3.73
357.889	3.73
358.253	3.65
358.618	3.62
358.982	3.68
359.346	3.58
359.71	3.64
360.075	3.62
360.439	3.69
360.803	3.73
361.167	3.67
361.531	3.74
361.895	3.73
362.259	3.82
362.623	3.87
362.987	3.8
363.351	3.81
363.714	3.76
364.078	3.77
364.442	3.81
364.806	3.78
365.169	3.77
365.533	3.81
365.896	3.83
366.26	3.79
366.623	3.82
366.987	3.87
367.35	3.84
367.714	3.9
368.077	3.9
368.44	3.86
368.803	3.93
369.167	3.92
369.53	3.9
369.893	3.82
370.256	3.79
370.619	3.78
370.982	3.8
371.345	3.78
371.708	3.67
372.071	3.65
372.434	3.62
372.797	3.67
373.159	3.62
373.522	3.63
373.885	3.6
374.247	3.56
374.61	3.49
374.973	3.51
375.335	3.55
375.698	3.42
376.06	3.43
376.423	3.43
376.785	3.45
377.147	3.44
377.51	3.44
377.872	3.44
378.234	3.5
378.596	3.45
378.958	3.45
379.321	3.5
379.683	3.57
380.045	3.56
380.407	3.55
380.769	3.55
381.13	3.58
381.492	3.62
381.854	3.62
382.216	3.68
382.578	3.66
382.939	3.61
383.301	3.68
383.663	3.73
384.024	3.74
384.386	3.74
384.747	3.69
385.109	3.69
385.47	3.75
385.832	3.73
386.193	3.78
386.554	3.74
386.916	3.74
387.277	3.62
387.638	3.62
387.999	3.57
388.36	3.57
388.721	3.55
389.082	3.58
389.443	3.62
389.804	3.6
390.165	3.63
390.526	3.65
390.887	3.71
391.248	3.68
391.609	3.72
391.969	3.68
392.33	3.75
392.691	3.77
393.051	3.72
393.412	3.75
393.772	3.72
394.133	3.75
394.493	3.73
394.854	3.76
395.214	3.78
395.574	3.79
395.935	3.78
396.295	3.79
396.655	3.77
397.015	3.77
397.376	3.79
397.736	3.79
398.096	3.79
398.456	3.73
398.816	3.73
399.176	3.64
399.535	3.68
399.895	3.65
400.255	3.65
400.615	3.66
400.975	3.64
401.334	3.64
401.694	3.63
402.054	3.68
402.413	3.73
402.773	3.7
403.132	3.7
403.492	3.69
403.851	3.69
404.211	3.67
404.57	3.66
404.929	3.68
405.288	3.69
405.648	3.72
406.007	3.74
406.366	3.72
406.725	3.79
407.084	3.78
407.443	3.82
407.802	3.81
408.161	3.82
408.52	3.82
408.879	3.81
409.238	3.81
409.596	3.77
409.955	3.72
410.314	3.73
410.673	3.73
411.031	3.78
411.39	3.76
411.748	3.82
412.107	3.82
412.465	3.79
412.824	3.78
413.182	3.77
413.54	3.78
413.899	3.77
414.257	3.75
414.615	3.74
414.974	3.72
415.332	3.74
415.69	3.73
416.048	3.73
416.406	3.74
416.764	3.74
417.122	3.75
417.48	3.78
417.838	3.78
418.195	3.8
418.553	3.78
418.911	3.78
419.269	3.77
419.626	3.79
419.984	3.8
420.342	3.78
420.699	3.77
421.057	3.77
421.414	3.79
421.772	3.79
422.129	3.78
422.486	3.8
422.844	3.78
423.201	3.78
423.558	3.79
423.915	3.79
424.273	3.8
424.63	3.8
424.987	3.78
425.344	3.79
425.701	3.79
426.058	3.8
426.415	3.8
426.772	3.8
427.128	3.8
427.485	3.8
427.842	3.82
428.199	3.82
428.555	3.8
428.912	3.78
429.269	3.77
429.625	3.78
429.982	3.77
430.338	3.79
430.695	3.8
431.051	3.83
431.407	3.84
431.764	3.82
432.12	3.82
432.476	3.86
432.832	3.86
433.189	3.87
433.545	3.87
433.901	3.9
434.257	3.91
434.613	3.9
434.969	3.87
435.325	3.88
435.681	3.86
436.036	3.85
436.392	3.86
436.748	3.87
437.104	3.89
437.459	3.88
437.815	3.88
438.171	3.89
438.526	3.86
438.882	3.87
439.237	3.89
439.593	3.89
439.948	3.89
440.304	3.87
440.659	3.88
441.014	3.85
441.369	3.86
441.725	3.86
442.08	3.85
442.435	3.87
442.79	3.87
443.145	3.88
443.5	3.89
443.855	3.88
444.21	3.91
444.565	3.89
444.92	3.9
445.275	3.89
445.629	3.89
445.984	3.91
446.339	3.9
446.693	3.9
447.048	3.88
447.403	3.86
447.757	3.85
448.112	3.84
448.466	3.86
448.82	3.86
449.175	3.86
449.529	3.89
449.883	3.89
450.238	3.88
450.592	3.88
450.946	3.9
451.3	3.92
451.654	3.9
452.008	3.89
452.362	3.89
452.716	3.88
453.07	3.88
453.424	3.87
453.778	3.85
454.132	3.85
454.486	3.88
454.839	3.89
455.193	3.92
455.547	3.94
455.9	3.93
456.254	3.92
456.607	3.92
456.961	3.89
457.314	3.86
457.668	3.86
458.021	3.88
458.375	3.87
458.728	3.86
459.081	3.86
459.434	3.87
459.787	3.88
460.141	3.9
460.494	3.89
460.847	3.9
461.2	3.91
461.553	3.93
461.906	3.92
462.259	3.91
462.611	3.92
462.964	3.92
463.317	3.91
463.67	3.91
464.022	3.93
464.375	3.93
464.728	3.94
465.08	3.96
465.433	3.97
465.785	3.96
466.138	3.98
466.49	3.98
466.843	3.99
467.195	3.99
467.547	3.98
467.899	3.96
468.252	3.94
468.604	3.94
468.956	3.95
469.308	3.94
469.66	3.95
470.012	3.95
470.364	3.95
470.716	3.96
471.068	3.96
471.42	3.95
471.772	3.97
472.123	4
472.475	3.99
472.827	3.97
473.178	3.98
473.53	3.97
473.882	3.99
474.233	3.97
474.585	3.99
474.936	3.99
475.288	4.02
475.639	4.04
475.99	4.04
476.342	4.03
476.693	4.02
477.044	4.02
477.395	4.01
477.746	3.99
478.097	3.99
478.448	3.98
478.8	3.97
479.15	3.94
479.501	3.94
479.852	3.94
480.203	3.95
480.554	3.96
480.905	3.95
481.255	3.94
481.606	3.96
481.957	3.96
482.307	3.95
482.658	3.95
483.009	3.96
483.359	3.96
483.709	3.96
484.06	3.98
484.41	3.98
484.761	3.99
485.111	4
485.461	4
485.811	4.01
486.162	4.03
486.512	4.04
486.862	4.05
487.212	4.06
487.562	4.06
487.912	4.06
488.262	4.07
488.612	4.08
488.961	4.07
489.311	4.08
489.661	4.09
490.011	4.09
490.36	4.09
490.71	4.1
491.06	4.12
491.409	4.1
491.759	4.11
492.108	4.09
492.458	4.1
492.807	4.09
493.157	4.1
493.506	4.09
493.855	4.1
494.204	4.09
494.554	4.07
494.903	4.07
495.252	4.09
495.601	4.09
495.95	4.1
496.299	4.11
496.648	4.12
496.997	4.14
497.346	4.15
497.695	4.14
498.043	4.14
498.392	4.11
498.741	4.13
499.09	4.14
499.438	4.17
499.787	4.18
500.135	4.19
500.484	4.18
500.832	4.17
501.181	4.19
501.529	4.19
501.878	4.19
502.226	4.19
502.574	4.19
502.923	4.19
503.271	4.2
503.619	4.21
503.967	4.19
504.315	4.17
504.663	4.16
505.011	4.16
505.359	4.15
505.707	4.16
506.055	4.17
506.403	4.18
506.751	4.17
507.098	4.19
507.446	4.18
507.794	4.22
508.141	4.24
508.489	4.25
508.837	4.25
509.184	4.25
509.531	4.27
509.879	4.28
510.226	4.3
510.574	4.31
510.921	4.31
511.268	4.32
511.616	4.33
511.963	4.35
512.31	4.37
512.657	4.38
513.004	4.39
513.351	4.39
513.698	4.38
514.045	4.39
514.392	4.39
514.739	4.41
515.086	4.41
515.432	4.4
515.779	4.38
516.126	4.42
516.473	4.43
516.819	4.4
517.166	4.39
517.512	4.38
517.859	4.38
518.205	4.39
518.552	4.41
518.898	4.41
519.245	4.41
519.591	4.42
519.937	4.43
520.283	4.46
520.629	4.45
520.976	4.46
521.322	4.47
521.668	4.49
522.014	4.5
522.36	4.49
522.706	4.48
523.052	4.49
523.398	4.48
523.743	4.51
524.089	4.53
524.435	4.53
524.781	4.54
525.126	4.53
525.472	4.51
525.817	4.52
526.163	4.51
526.509	4.5
526.854	4.51
527.199	4.52
527.545	4.51
527.89	4.51
528.235	4.51
528.581	4.51
528.926	4.5
529.271	4.48
529.616	4.5
529.961	4.52
530.306	4.52
530.651	4.52
530.996	4.51
531.341	4.53
531.686	4.54
532.031	4.54
532.376	4.54
532.721	4.55
533.065	4.56
533.41	4.57
533.755	4.58
534.099	4.57
534.444	4.57
534.788	4.57
535.133	4.58
535.477	4.6
535.822	4.61
536.166	4.61
536.51	4.65
536.855	4.63
537.199	4.63
537.543	4.63
537.887	4.66
538.231	4.68
538.576	4.67
538.92	4.65
539.264	4.66
539.608	4.66
539.951	4.67
540.295	4.65
540.639	4.66
540.983	4.66
541.327	4.66
541.671	4.67
542.014	4.67
542.358	4.68
542.701	4.67
543.045	4.68
543.389	4.69
543.732	4.68
544.075	4.7
544.419	4.7
544.762	4.7
545.105	4.69
545.449	4.67
545.792	4.67
546.135	4.67
546.478	4.67
546.821	4.69
547.165	4.69
547.508	4.72
547.851	4.71
548.194	4.71
548.536	4.73
548.879	4.71
549.222	4.72
549.565	4.71
549.908	4.74
550.25	4.71
550.593	4.72
550.936	4.72
551.278	4.71
551.621	4.72
551.963	4.72
552.306	4.72
552.648	4.76
552.991	4.76
553.333	4.76
553.675	4.79
554.017	4.79
554.36	4.8
554.702	4.79
555.044	4.78
555.386	4.82
555.728	4.81
556.07	4.83
556.412	4.82
556.754	4.8
557.096	4.79
557.438	4.8
557.78	4.79
558.121	4.84
558.463	4.83
558.805	4.8
559.147	4.81
559.488	4.81
559.83	4.78
560.171	4.74
560.513	4.76
560.854	4.75
561.196	4.75
561.537	4.78
561.878	4.79
562.22	4.8
562.561	4.81
562.902	4.8
563.243	4.81
563.584	4.82
563.925	4.85
564.266	4.86
564.607	4.86
564.948	4.85
565.289	4.85
565.63	4.86
565.971	4.9
566.312	4.9
566.653	4.95
566.993	4.96
567.334	5
567.675	5.02
568.015	5.04
568.356	5.04
568.696	5.02
569.037	5.03
569.377	5.03
569.718	5.04
570.058	5.06
570.398	5.06
570.739	5.07
571.079	5.05
571.419	5
571.759	5.01
572.099	5.04
572.439	5.03
572.779	5
573.119	4.97
573.459	4.98
573.799	4.96
574.139	4.96
574.479	4.96
574.819	4.96
575.158	4.94
575.498	4.92
575.838	4.91
576.177	4.9
576.517	4.91
576.856	4.92
577.196	4.91
577.535	4.93
577.875	4.95
578.214	4.99
578.553	5.02
578.893	5
579.232	4.98
579.571	4.97
579.91	5.03
580.25	5.07
580.589	5.07
580.928	5.06
581.267	5.08
581.606	5.12
581.945	5.08
582.283	5.11
582.622	5.08
582.961	5.12
583.3	5.15
583.639	5.16
583.977	5.12
584.316	5.13
584.654	5.1
584.993	5.09
585.332	5.09
585.67	5.09
586.008	5.11
586.347	5.08
586.685	5.08
587.024	5.08
587.362	5.09
587.7	5.11
588.038	5.14
588.376	5.14
588.715	5.12
589.053	5.15
589.391	5.18
589.729	5.24
590.067	5.22
590.404	5.19
590.742	5.18
591.08	5.21
591.418	5.26
591.756	5.27
592.093	5.26
592.431	5.25
592.769	5.27
593.106	5.24
593.444	5.34
593.781	5.38
594.119	5.36
594.456	5.31
594.793	5.28
595.131	5.27
595.468	5.27
595.805	5.23
596.143	5.22
596.48	5.2
596.817	5.17
597.154	5.17
597.491	5.21
597.828	5.2
598.165	5.21
598.502	5.16
598.839	5.15
599.176	5.16
599.512	5.13
599.849	5.11
600.186	5.13
600.523	5.1
600.859	5.11
601.196	5.12
601.532	5.13
601.869	5.16
602.205	5.14
602.542	5.14
602.878	5.2
603.215	5.18
603.551	5.21
603.887	5.22
604.223	5.25
604.56	5.22
604.896	5.24
605.232	5.2
605.568	5.22
605.904	5.19
606.24	5.21
606.576	5.26
606.912	5.28
607.248	5.32
607.583	5.33
607.919	5.33
608.255	5.32
608.591	5.36
608.926	5.36
609.262	5.42
609.597	5.4
609.933	5.41
610.268	5.44
610.604	5.41
610.939	5.43
611.275	5.45
611.61	5.49
611.945	5.46
612.281	5.52
612.616	5.52
612.951	5.57
613.286	5.58
613.621	5.6
613.956	5.61
614.291	5.55
614.626	5.53
614.961	5.51
615.296	5.55
615.631	5.53
615.966	5.54
616.3	5.52
616.635	5.51
616.97	5.48
617.304	5.47
617.639	5.46
617.973	5.43
618.308	5.39
618.642	5.33
618.977	5.33
619.311	5.38
619.646	5.36
619.98	5.36
620.314	5.33
620.648	5.37
620.983	5.35
621.317	5.41
621.651	5.41
621.985	5.4
622.319	5.38
622.653	5.41
622.987	5.46
623.321	5.42
623.655	5.41
623.988	5.5
624.322	5.53
624.656	5.53
624.99	5.55
625.323	5.58
625.657	5.61
625.99	5.62
626.324	5.54
626.657	5.59
626.991	5.62
627.324	5.62
627.658	5.55
627.991	5.59
628.324	5.51
628.657	5.53
628.991	5.53
629.324	5.56
629.657	5.52
629.99	5.49
630.323	5.47
630.656	5.51
630.989	5.43
631.322	5.44
631.655	5.42
631.987	5.41
632.32	5.41
632.653	5.39
632.986	5.35
633.318	5.43
633.651	5.45
633.984	5.39
634.316	5.34
634.649	5.4
634.981	5.39
635.313	5.46
635.646	5.43
635.978	5.49
636.31	5.48
636.643	5.52
636.975	5.48
637.307	5.54
637.639	5.59
637.971	5.59
638.303	5.49
638.635	5.56
638.967	5.65
639.299	5.66
639.631	5.64
639.963	5.68
640.295	5.66
640.626	5.61
640.958	5.64
641.29	5.75
641.621	5.71
641.953	5.69
642.285	5.62
642.616	5.66
642.948	5.61
643.279	5.57
643.61	5.57
643.942	5.6
644.273	5.62
644.604	5.59
644.936	5.56
645.267	5.61
645.598	5.63
645.929	5.52
646.26	5.47
646.591	5.57
646.922	5.62
647.253	5.6
647.584	5.59
647.915	5.62
648.245	5.57
648.576	5.56
648.907	5.57
649.238	5.63
649.568	5.58
649.899	5.65
650.229	5.68
650.56	5.68
650.89	5.76
651.221	5.74
651.551	5.77
651.882	5.85
652.212	5.82
652.542	5.81
652.872	5.86
653.203	6
653.533	5.97
653.863	5.94
654.193	5.91
654.523	5.87
654.853	5.91
655.183	5.88
655.513	5.88
655.843	5.88
656.172	5.91
656.502	5.95
656.832	5.84
657.162	5.81
657.491	5.87
657.821	5.78
658.15	5.79
658.48	5.82
658.809	5.75
659.139	5.81
659.468	5.82
659.798	5.83
660.127	5.74
660.456	5.77
660.785	5.78
661.115	5.79
661.444	5.83
661.773	5.82
662.102	5.81
662.431	5.82
662.76	5.87
663.089	5.86
663.418	5.85
663.747	5.9
664.076	5.98
664.404	6.01
664.733	6.07
665.062	6.11
665.39	6.05
665.719	6.08
666.048	6.19
666.376	6.16
666.705	6.07
667.033	6.1
667.362	6.01
667.69	6.04
668.018	6.12
668.347	6.19
668.675	6.26
669.003	6.29
669.331	6.35
669.659	6.28
669.987	6.19
670.315	6.23
670.643	6.26
670.971	6.23
671.299	6.18
671.627	6.24
671.955	6.16
672.283	6.13
672.61	6.25
672.938	6.15
673.266	6.24
673.593	6.37
673.921	6.32
674.249	6.4
674.576	6.43
674.904	6.4
675.231	6.3
675.558	6.19
675.886	6.24
676.213	6.21
676.54	6.26
676.867	6.27
677.195	6.35
677.522	6.33
