Data from BA17726_Reflection_00010.txt Node
Date: Tue Nov 19 11:57:09 EST 2019
User: vgr7
Spectrometer: USB2G7710
Scans to average: 3
Trigger mode: 4
Integration Time (sec): 2.000000E-2
Electric dark correction enabled: true
Boxcar width: 10
XAxis mode: Wavelengths
Number of Pixels in Spectrum: 2048
>>>>>Begin Spectral Data<<<<<
177.721	80.96
178.105	88.64
178.488	59.4
178.871	32.69
179.254	32.26
179.636	39.66
180.019	14.32
180.402	16.67
180.785	-34.78
181.168	-47.77
181.55	-114.29
181.933	-1164.71
182.316	-1227.59
182.698	-796.23
183.081	-327.93
183.463	-631.88
183.846	-496.77
184.228	-425.64
184.611	-280.38
184.993	-259.46
185.376	-244.72
185.758	-174.06
186.14	-224.39
186.522	-116.62
186.904	-146.27
187.287	-194.24
187.669	-200
188.051	-342.2
188.433	-20733.33
188.815	-1886.49
189.197	2358.62
189.579	-973.77
189.961	-515.7
190.342	-375.46
190.724	-859.02
191.106	1478.79
191.488	-2095.65
191.869	-270.47
192.251	-340.83
192.633	-284.42
193.014	-283.12
193.396	-155.91
193.777	-104.5
194.159	-133.81
194.54	-155.61
194.922	-115.81
195.303	-113.18
195.684	-120.13
196.065	-90.58
196.447	-78.16
196.828	-75.58
197.209	-74.27
197.59	-69.5
197.971	-54.75
198.352	-46.12
198.733	-52.28
199.114	-51.8
199.495	-54.62
199.876	-48.97
200.257	-46.92
200.638	-38.32
201.018	-29.15
201.399	-35.72
201.78	-43.34
202.16	-48.28
202.541	-47.78
202.922	-46
203.302	-42.35
203.683	-59.6
204.063	-59.31
204.444	-57.1
204.824	-40.27
205.204	-40.65
205.585	-46.77
205.965	-62.09
206.345	-69.19
206.725	-64.14
207.106	-51.87
207.486	-46.32
207.866	-51.03
208.246	-29.5
208.626	-74.06
209.006	-83.08
209.386	-45.16
209.766	-55.86
210.145	-40.55
210.525	-27.97
210.905	-11.65
211.285	8.47
211.664	23.53
212.044	14.99
212.424	6.37
212.803	9.02
213.183	-0
213.562	-3.87
213.942	-10.56
214.321	-10.29
214.701	-15.93
215.08	-28.08
215.459	-22.3
215.838	-26.18
216.218	-36.45
216.597	-24.46
216.976	-24.23
217.355	-41.42
217.734	-30.1
218.113	-26.73
218.492	-30.31
218.871	-38.87
219.25	-46.05
219.629	-45.35
220.008	-38.95
220.387	-30.32
220.766	-31.17
221.144	-29.93
221.523	-33.88
221.902	-29.83
222.28	-21.01
222.659	-7.22
223.037	-6.79
223.416	-4.84
223.794	4.21
224.173	0.13
224.551	1.65
224.929	4.86
225.308	2.03
225.686	1.23
226.064	-2.02
226.442	-2.89
226.821	-1.31
227.199	-1.61
227.577	-0.64
227.955	0.38
228.333	-1.59
228.711	1.33
229.089	1.12
229.467	2.21
229.845	2.24
230.222	0.28
230.6	-2.82
230.978	-1.16
231.356	0.05
231.733	-1.02
232.111	2.1
232.488	2.6
232.866	1.19
233.243	2.64
233.621	4.6
233.998	4.4
234.376	5.01
234.753	2.75
235.13	1.89
235.508	0.59
235.885	-0.79
236.262	-1.11
236.639	-1.58
237.016	-2.03
237.393	-0.82
237.77	-0.78
238.147	-0.17
238.524	1.62
238.901	1.53
239.278	0.96
239.655	0.52
240.032	0.87
240.409	0.56
240.785	0.44
241.162	0.52
241.539	0.17
241.915	0.41
242.292	0.58
242.668	1.45
243.045	2.39
243.421	3
243.798	3.35
244.174	3.33
244.551	3.2
244.927	3.7
245.303	3.49
245.679	3.59
246.056	3.61
246.432	3.27
246.808	3.49
247.184	3.54
247.56	3.53
247.936	3.68
248.312	4.06
248.688	4.36
249.064	4.13
249.44	4.06
249.815	4.2
250.191	3.98
250.567	4.16
250.943	4.3
251.318	4.19
251.694	4.12
252.069	4.35
252.445	4.47
252.82	4.18
253.196	4.19
253.571	4.31
253.947	4.2
254.322	4.3
254.697	3.95
255.073	4.1
255.448	4.39
255.823	4.36
256.198	3.96
256.573	3.86
256.948	4.04
257.323	4.24
257.698	4.25
258.073	4.23
258.448	4.09
258.823	3.75
259.198	3.74
259.573	3.7
259.948	3.59
260.322	3.6
260.697	3.62
261.072	3.56
261.446	3.55
261.821	3.6
262.195	3.6
262.57	3.92
262.944	3.87
263.319	3.84
263.693	3.79
264.067	3.87
264.442	3.72
264.816	3.72
265.19	3.59
265.564	3.51
265.938	3.65
266.313	3.45
266.687	3.33
267.061	3.15
267.435	3.38
267.809	3.38
268.183	3.41
268.556	3.44
268.93	3.45
269.304	3.54
269.678	3.59
270.051	3.44
270.425	3.32
270.799	3.2
271.172	3.14
271.546	3.05
271.919	2.81
272.293	2.99
272.666	3.01
273.04	2.95
273.413	2.88
273.787	2.86
274.16	2.78
274.533	2.92
274.906	2.97
275.279	2.85
275.653	2.94
276.026	2.96
276.399	2.94
276.772	3
277.145	2.95
277.518	2.65
277.891	2.66
278.263	2.47
278.636	2.61
279.009	2.78
279.382	2.75
279.755	2.88
280.127	2.9
280.5	2.94
280.872	3.09
281.245	3.14
281.617	3.29
281.99	3.28
282.362	3.29
282.735	3.23
283.107	3.16
283.479	3.16
283.852	3.22
284.224	3.24
284.596	3.12
284.968	3.13
285.34	3.26
285.713	3.38
286.085	3.38
286.457	3.4
286.829	3.32
287.201	3.38
287.572	3.45
287.944	3.48
288.316	3.46
288.688	3.47
289.06	3.48
289.431	3.46
289.803	3.81
290.175	3.77
290.546	3.77
290.918	3.79
291.289	3.77
291.661	3.7
292.032	3.63
292.403	3.78
292.775	3.8
293.146	3.87
293.517	3.93
293.889	4.03
294.26	3.97
294.631	4.08
295.002	4.02
295.373	3.97
295.744	4
296.115	4
296.486	4
296.857	4.03
297.228	3.93
297.599	3.8
297.97	3.88
298.34	3.97
298.711	4
299.082	4.09
299.452	4.04
299.823	4.11
300.194	4.1
300.564	4.05
300.935	4.13
301.305	4.07
301.676	4.05
302.046	3.97
302.416	3.9
302.787	3.91
303.157	4.05
303.527	3.97
303.897	3.99
304.267	3.98
304.637	3.99
305.008	4.14
305.378	4.09
305.748	4.02
306.117	3.91
306.487	3.94
306.857	3.97
307.227	4.12
307.597	4.09
307.967	4.08
308.336	4.06
308.706	3.96
309.076	4.04
309.445	4.26
309.815	4.4
310.184	4.37
310.554	4.39
310.923	4.32
311.293	4.28
311.662	4.35
312.031	4.35
312.401	4.37
312.77	4.27
313.139	4.32
313.508	4.42
313.877	4.44
314.246	4.5
314.616	4.49
314.985	4.51
315.353	4.52
315.722	4.58
316.091	4.68
316.46	4.7
316.829	4.69
317.198	4.38
317.567	4.48
317.935	4.65
318.304	4.96
318.672	4.95
319.041	5.09
319.41	5.17
319.778	5.28
320.147	5.08
320.515	5.2
320.883	5.06
321.252	5.26
321.62	5.47
321.988	5.49
322.357	5.62
322.725	5.57
323.093	5.68
323.461	5.77
323.829	5.88
324.197	5.98
324.565	5.93
324.933	6.04
325.301	5.83
325.669	5.69
326.037	5.63
326.405	5.67
326.772	5.54
327.14	5.46
327.508	5.46
327.875	5.62
328.243	5.61
328.61	5.77
328.978	5.63
329.346	5.68
329.713	5.69
330.08	5.66
330.448	5.64
330.815	5.74
331.182	5.69
331.55	5.54
331.917	5.54
332.284	5.62
332.651	5.69
333.018	5.75
333.385	5.78
333.752	5.72
334.119	5.69
334.486	5.83
334.853	5.71
335.22	5.56
335.587	5.53
335.954	5.59
336.32	5.59
336.687	5.65
337.054	5.55
337.42	5.61
337.787	5.55
338.153	5.63
338.52	5.62
338.886	5.58
339.253	5.6
339.619	5.56
339.986	5.55
340.352	5.48
340.718	5.46
341.084	5.52
341.451	5.54
341.817	5.67
342.183	5.7
342.549	5.9
342.915	6.06
343.281	6.26
343.647	6.31
344.013	6.25
344.379	6.19
344.745	6.24
345.11	6.24
345.476	6.39
345.842	6.35
346.208	6.35
346.573	6.43
346.939	6.49
347.304	6.52
347.67	6.58
348.035	6.54
348.401	6.62
348.766	6.58
349.132	6.56
349.497	6.51
349.862	6.44
350.228	6.41
350.593	6.4
350.958	6.49
351.323	6.42
351.688	6.46
352.053	6.4
352.418	6.42
352.783	6.37
353.148	6.24
353.513	6.31
353.878	6.3
354.243	6.24
354.608	6.32
354.972	6.29
355.337	6.26
355.702	6.29
356.066	6.4
356.431	6.43
356.795	6.37
357.16	6.43
357.524	6.46
357.889	6.46
358.253	6.46
358.618	6.27
358.982	6.32
359.346	6.3
359.71	6.36
360.075	6.28
360.439	6.3
360.803	6.3
361.167	6.19
361.531	6.19
361.895	6.2
362.259	6.15
362.623	6.23
362.987	6.2
363.351	6.21
363.714	6.16
364.078	6.15
364.442	6.2
364.806	6.19
365.169	6.12
365.533	6.05
365.896	5.99
366.26	6.01
366.623	5.94
366.987	5.95
367.35	5.9
367.714	5.94
368.077	5.91
368.44	5.93
368.803	5.97
369.167	5.87
369.53	5.79
369.893	5.81
370.256	5.69
370.619	5.7
370.982	5.65
371.345	5.63
371.708	5.59
372.071	5.57
372.434	5.45
372.797	5.47
373.159	5.48
373.522	5.46
373.885	5.4
374.247	5.4
374.61	5.4
374.973	5.41
375.335	5.35
375.698	5.3
376.06	5.25
376.423	5.2
376.785	5.23
377.147	5.21
377.51	5.11
377.872	5.1
378.234	5.08
378.596	5.05
378.958	5.05
379.321	5.02
379.683	5.03
380.045	5
380.407	5
380.769	4.93
381.13	4.86
381.492	4.91
381.854	4.92
382.216	4.88
382.578	4.89
382.939	4.89
383.301	4.91
383.663	4.9
384.024	4.93
384.386	4.96
384.747	4.96
385.109	5.01
385.47	5.05
385.832	5
386.193	5
386.554	4.92
386.916	4.88
387.277	4.85
387.638	4.88
387.999	4.84
388.36	4.84
388.721	4.93
389.082	4.91
389.443	4.85
389.804	4.85
390.165	4.82
390.526	4.81
390.887	4.74
391.248	4.7
391.609	4.66
391.969	4.62
392.33	4.6
392.691	4.55
393.051	4.48
393.412	4.49
393.772	4.54
394.133	4.54
394.493	4.53
394.854	4.45
395.214	4.43
395.574	4.4
395.935	4.42
396.295	4.34
396.655	4.28
397.015	4.31
397.376	4.3
397.736	4.24
398.096	4.21
398.456	4.21
398.816	4.21
399.176	4.17
399.535	4.15
399.895	4.15
400.255	4.16
400.615	4.15
400.975	4.1
401.334	4.03
401.694	4.03
402.054	4.01
402.413	4.03
402.773	4
403.132	4.03
403.492	4.01
403.851	4
404.211	4.02
404.57	4
404.929	3.98
405.288	3.97
405.648	3.96
406.007	3.99
406.366	3.97
406.725	3.98
407.084	3.97
407.443	3.98
407.802	3.94
408.161	3.93
408.52	3.93
408.879	3.94
409.238	3.94
409.596	3.93
409.955	3.94
410.314	3.93
410.673	3.89
411.031	3.88
411.39	3.88
411.748	3.9
412.107	3.89
412.465	3.89
412.824	3.88
413.182	3.9
413.54	3.9
413.899	3.9
414.257	3.92
414.615	3.91
414.974	3.9
415.332	3.9
415.69	3.91
416.048	3.91
416.406	3.88
416.764	3.85
417.122	3.84
417.48	3.83
417.838	3.85
418.195	3.85
418.553	3.83
418.911	3.82
419.269	3.79
419.626	3.79
419.984	3.77
420.342	3.76
420.699	3.75
421.057	3.74
421.414	3.74
421.772	3.74
422.129	3.73
422.486	3.72
422.844	3.69
423.201	3.68
423.558	3.68
423.915	3.69
424.273	3.69
424.63	3.7
424.987	3.7
425.344	3.69
425.701	3.7
426.058	3.71
426.415	3.71
426.772	3.71
427.128	3.7
427.485	3.7
427.842	3.7
428.199	3.71
428.555	3.69
428.912	3.66
429.269	3.63
429.625	3.64
429.982	3.66
430.338	3.67
430.695	3.68
431.051	3.7
431.407	3.69
431.764	3.68
432.12	3.7
432.476	3.67
432.832	3.68
433.189	3.65
433.545	3.64
433.901	3.64
434.257	3.62
434.613	3.58
434.969	3.59
435.325	3.58
435.681	3.56
436.036	3.56
436.392	3.59
436.748	3.59
437.104	3.59
437.459	3.56
437.815	3.55
438.171	3.55
438.526	3.54
438.882	3.54
439.237	3.54
439.593	3.54
439.948	3.55
440.304	3.53
440.659	3.55
441.014	3.54
441.369	3.55
441.725	3.57
442.08	3.6
442.435	3.6
442.79	3.6
443.145	3.6
443.5	3.61
443.855	3.57
444.21	3.59
444.565	3.58
444.92	3.59
445.275	3.6
445.629	3.6
445.984	3.59
446.339	3.58
446.693	3.56
447.048	3.53
447.403	3.51
447.757	3.52
448.112	3.53
448.466	3.54
448.82	3.53
449.175	3.52
449.529	3.51
449.883	3.5
450.238	3.5
450.592	3.5
450.946	3.5
451.3	3.53
451.654	3.48
452.008	3.49
452.362	3.5
452.716	3.49
453.07	3.48
453.424	3.47
453.778	3.48
454.132	3.5
454.486	3.51
454.839	3.52
455.193	3.52
455.547	3.51
455.9	3.51
456.254	3.48
456.607	3.47
456.961	3.48
457.314	3.49
457.668	3.5
458.021	3.51
458.375	3.51
458.728	3.51
459.081	3.51
459.434	3.48
459.787	3.47
460.141	3.48
460.494	3.48
460.847	3.48
461.2	3.49
461.553	3.5
461.906	3.51
462.259	3.47
462.611	3.48
462.964	3.49
463.317	3.51
463.67	3.54
464.022	3.55
464.375	3.53
464.728	3.54
465.08	3.54
465.433	3.52
465.785	3.53
466.138	3.55
466.49	3.58
466.843	3.59
467.195	3.59
467.547	3.59
467.899	3.6
468.252	3.62
468.604	3.61
468.956	3.6
469.308	3.59
469.66	3.65
470.012	3.63
470.364	3.61
470.716	3.59
471.068	3.59
471.42	3.57
471.772	3.58
472.123	3.57
472.475	3.58
472.827	3.59
473.178	3.58
473.53	3.56
473.882	3.56
474.233	3.58
474.585	3.57
474.936	3.58
475.288	3.57
475.639	3.57
475.99	3.56
476.342	3.57
476.693	3.57
477.044	3.56
477.395	3.57
477.746	3.55
478.097	3.54
478.448	3.55
478.8	3.56
479.15	3.56
479.501	3.55
479.852	3.55
480.203	3.57
480.554	3.57
480.905	3.58
481.255	3.58
481.606	3.58
481.957	3.58
482.307	3.57
482.658	3.58
483.009	3.58
483.359	3.59
483.709	3.59
484.06	3.61
484.41	3.62
484.761	3.62
485.111	3.63
485.461	3.64
485.811	3.64
486.162	3.65
486.512	3.66
486.862	3.67
487.212	3.67
487.562	3.65
487.912	3.66
488.262	3.65
488.612	3.66
488.961	3.67
489.311	3.67
489.661	3.68
490.011	3.69
490.36	3.68
490.71	3.69
491.06	3.69
491.409	3.69
491.759	3.69
492.108	3.7
492.458	3.69
492.807	3.69
493.157	3.7
493.506	3.7
493.855	3.69
494.204	3.69
494.554	3.71
494.903	3.75
495.252	3.76
495.601	3.78
495.95	3.78
496.299	3.8
496.648	3.81
496.997	3.82
497.346	3.86
497.695	3.89
498.043	3.91
498.392	3.93
498.741	3.96
499.09	3.97
499.438	3.99
499.787	4.02
500.135	4.05
500.484	4.06
500.832	4.09
501.181	4.13
501.529	4.18
501.878	4.21
502.226	4.2
502.574	4.25
502.923	4.28
503.271	4.27
503.619	4.32
503.967	4.34
504.315	4.36
504.663	4.37
505.011	4.38
505.359	4.4
505.707	4.43
506.055	4.43
506.403	4.44
506.751	4.46
507.098	4.5
507.446	4.55
507.794	4.56
508.141	4.59
508.489	4.63
508.837	4.67
509.184	4.71
509.531	4.75
509.879	4.75
510.226	4.79
510.574	4.85
510.921	4.85
511.268	4.9
511.616	4.96
511.963	4.99
512.31	5.04
512.657	5.07
513.004	5.09
513.351	5.15
513.698	5.23
514.045	5.26
514.392	5.3
514.739	5.33
515.086	5.4
515.432	5.47
515.779	5.49
516.126	5.55
516.473	5.59
516.819	5.64
517.166	5.7
517.512	5.73
517.859	5.77
518.205	5.82
518.552	5.85
518.898	5.88
519.245	5.92
519.591	5.97
519.937	6.03
520.283	6.1
520.629	6.13
520.976	6.17
521.322	6.23
521.668	6.28
522.014	6.34
522.36	6.4
522.706	6.46
523.052	6.55
523.398	6.6
523.743	6.69
524.089	6.8
524.435	6.88
524.781	6.98
525.126	7.06
525.472	7.14
525.817	7.23
526.163	7.29
526.509	7.36
526.854	7.44
527.199	7.5
527.545	7.56
527.89	7.64
528.235	7.7
528.581	7.77
528.926	7.84
529.271	7.9
529.616	7.98
529.961	8.05
530.306	8.11
530.651	8.18
530.996	8.26
531.341	8.33
531.686	8.43
532.031	8.52
532.376	8.61
532.721	8.7
533.065	8.8
533.41	8.93
533.755	9.04
534.099	9.13
534.444	9.22
534.788	9.32
535.133	9.44
535.477	9.57
535.822	9.71
536.166	9.85
536.51	10.01
536.855	10.19
537.199	10.34
537.543	10.55
537.887	10.76
538.231	10.96
538.576	11.15
538.92	11.32
539.264	11.52
539.608	11.7
539.951	11.84
540.295	12.01
540.639	12.15
540.983	12.32
541.327	12.49
541.671	12.66
542.014	12.82
542.358	12.98
542.701	13.14
543.045	13.3
543.389	13.48
543.732	13.61
544.075	13.76
544.419	13.95
544.762	14.09
545.105	14.24
545.449	14.42
545.792	14.61
546.135	14.83
546.478	15.02
546.821	15.24
547.165	15.52
547.508	15.69
547.851	15.92
548.194	16.11
548.536	16.36
548.879	16.58
549.222	16.79
549.565	17
549.908	17.21
550.25	17.42
550.593	17.64
550.936	17.95
551.278	18.16
551.621	18.42
551.963	18.67
552.306	18.89
552.648	19.14
552.991	19.37
553.333	19.58
553.675	19.82
554.017	20.07
554.36	20.26
554.702	20.53
555.044	20.78
555.386	21.05
555.728	21.28
556.07	21.53
556.412	21.79
556.754	22.06
557.096	22.34
557.438	22.64
557.78	22.88
558.121	23.15
558.463	23.4
558.805	23.62
559.147	23.89
559.488	24.23
559.83	24.49
560.171	24.71
560.513	24.96
560.854	25.22
561.196	25.48
561.537	25.75
561.878	26.04
562.22	26.29
562.561	26.55
562.902	26.84
563.243	27.14
563.584	27.37
563.925	27.61
564.266	27.8
564.607	28.04
564.948	28.24
565.289	28.43
565.63	28.68
565.971	28.92
566.312	29.16
566.653	29.33
566.993	29.52
567.334	29.84
567.675	30.07
568.015	30.28
568.356	30.47
568.696	30.65
569.037	30.82
569.377	30.99
569.718	31.16
570.058	31.3
570.398	31.51
570.739	31.68
571.079	31.87
571.419	32.14
571.759	32.29
572.099	32.55
572.439	32.76
572.779	32.92
573.119	33.11
573.459	33.27
573.799	33.47
574.139	33.68
574.479	33.78
574.819	33.96
575.158	34.14
575.498	34.33
575.838	34.53
576.177	34.7
576.517	34.96
576.856	35.24
577.196	35.45
577.535	35.56
577.875	35.8
578.214	36.08
578.553	36.22
578.893	36.45
579.232	36.63
579.571	36.82
579.91	37.07
580.25	37.23
580.589	37.36
580.928	37.53
581.267	37.78
581.606	37.99
581.945	38.18
582.283	38.36
582.622	38.57
582.961	38.82
583.3	38.97
583.639	39.15
583.977	39.25
584.316	39.48
584.654	39.67
584.993	39.79
585.332	39.85
585.67	40
586.008	40.16
586.347	40.23
586.685	40.36
587.024	40.45
587.362	40.64
587.7	40.89
588.038	41.05
588.376	41.1
588.715	41.24
589.053	41.29
589.391	41.47
589.729	41.62
590.067	41.62
590.404	41.8
590.742	41.97
591.08	42.08
591.418	42.2
591.756	42.36
592.093	42.54
592.431	42.65
592.769	42.84
593.106	42.83
593.444	42.99
593.781	43.1
594.119	43.26
594.456	43.39
594.793	43.52
595.131	43.65
595.468	43.7
595.805	43.85
596.143	44.04
596.48	44.04
596.817	44.06
597.154	44.17
597.491	44.23
597.828	44.25
598.165	44.37
598.502	44.39
598.839	44.46
599.176	44.54
599.512	44.63
599.849	44.65
600.186	44.82
600.523	44.97
600.859	45.08
601.196	45.14
601.532	45.22
601.869	45.23
602.205	45.25
602.542	45.35
602.878	45.4
603.215	45.4
603.551	45.49
603.887	45.64
604.223	45.74
604.56	45.81
604.896	45.88
605.232	45.93
605.568	46
605.904	46.07
606.24	46.1
606.576	46.19
606.912	46.25
607.248	46.4
607.583	46.48
607.919	46.55
608.255	46.64
608.591	46.7
608.926	46.85
609.262	46.88
609.597	46.97
609.933	46.99
610.268	47.14
610.604	47.24
610.939	47.27
611.275	47.3
611.61	47.37
611.945	47.41
612.281	47.52
612.616	47.5
612.951	47.62
613.286	47.73
613.621	47.84
613.956	47.85
614.291	47.85
614.626	47.87
614.961	47.9
615.296	47.99
615.631	48.02
615.966	47.98
616.3	48.06
616.635	48.07
616.97	48.18
617.304	48.26
617.639	48.24
617.973	48.3
618.308	48.32
618.642	48.36
618.977	48.39
619.311	48.41
619.646	48.59
619.98	48.64
620.314	48.75
620.648	48.78
620.983	48.95
621.317	49
621.651	49
621.985	49.03
622.319	49.06
622.653	49.13
622.987	49.21
623.321	49.33
623.655	49.4
623.988	49.44
624.322	49.47
624.656	49.56
624.99	49.63
625.323	49.74
625.657	49.77
625.99	49.84
626.324	49.9
626.657	49.81
626.991	49.73
627.324	49.64
627.658	49.68
627.991	49.64
628.324	49.59
628.657	49.64
628.991	49.72
629.324	49.68
629.657	49.66
629.99	49.67
630.323	49.67
630.656	49.68
630.989	49.63
631.322	49.6
631.655	49.61
631.987	49.65
632.32	49.65
632.653	49.66
632.986	49.58
633.318	49.52
633.651	49.68
633.984	49.72
634.316	49.83
634.649	49.76
634.981	49.8
635.313	49.92
635.646	49.9
635.978	49.86
636.31	49.91
636.643	50.03
636.975	50.07
637.307	50.19
637.639	50.24
637.971	50.24
638.303	50.26
638.635	50.4
638.967	50.32
639.299	50.37
639.631	50.36
639.963	50.46
640.295	50.57
640.626	50.66
640.958	50.68
641.29	50.63
641.621	50.82
641.953	50.8
642.285	50.95
642.616	50.98
642.948	51.07
643.279	51.11
643.61	51.07
643.942	51.05
644.273	50.94
644.604	50.98
644.936	51.14
645.267	51.03
645.598	50.83
645.929	50.79
646.26	50.8
646.591	50.92
646.922	50.98
647.253	50.85
647.584	50.69
647.915	50.65
648.245	50.74
648.576	50.6
648.907	50.62
649.238	50.47
649.568	50.45
649.899	50.48
650.229	50.57
650.56	50.62
650.89	50.56
651.221	50.64
651.551	50.71
651.882	50.74
652.212	50.86
652.542	51
652.872	50.97
653.203	51.08
653.533	51.14
653.863	51.13
654.193	51.26
654.523	51.32
654.853	51.46
655.183	51.54
655.513	51.59
655.843	51.72
656.172	51.75
656.502	51.84
656.832	51.84
657.162	51.84
657.491	51.75
657.821	51.75
658.15	51.62
658.48	51.59
658.809	51.52
659.139	51.54
659.468	51.44
659.798	51.54
660.127	51.49
660.456	51.38
660.785	51.32
661.115	51.19
661.444	51.23
661.773	51.25
662.102	51.19
662.431	51.17
662.76	51.11
663.089	51.18
663.418	51.28
663.747	51.32
664.076	51.29
664.404	51.35
664.733	51.48
665.062	51.7
665.39	51.75
665.719	51.75
666.048	51.79
666.376	51.86
666.705	52.03
667.033	51.89
667.362	52.07
667.69	52.11
668.018	52.33
668.347	52.38
668.675	52.33
669.003	52.41
