Data from BA17726_Reflection_00005.txt Node
Date: Tue Nov 19 11:56:57 EST 2019
User: vgr7
Spectrometer: USB2G7710
Scans to average: 3
Trigger mode: 4
Integration Time (sec): 2.000000E-2
Electric dark correction enabled: true
Boxcar width: 10
XAxis mode: Wavelengths
Number of Pixels in Spectrum: 2048
>>>>>Begin Spectral Data<<<<<
177.721	32.2
178.105	46.97
178.488	9.13
178.871	28.21
179.254	30.11
179.636	27.44
180.019	-4.43
180.402	100
180.785	110.14
181.168	-34.95
181.55	-175.91
181.933	-1125.49
182.316	-687.36
182.698	-104.4
183.081	-51.65
183.463	15.46
183.846	-48.75
184.228	-103.7
184.611	-28.39
184.993	-1.8
185.376	-4.55
185.758	-24.83
186.14	-11.38
186.522	-30.34
186.904	-18.91
187.287	-39.23
187.669	-10.85
188.051	-31.98
188.433	-3844.44
188.815	-273.87
189.197	-147.13
189.579	381.42
189.961	68.32
190.342	39.67
190.724	-192.35
191.106	549.49
191.488	-1153.62
191.869	-111.57
192.251	-11.44
192.633	-54.94
193.014	-63.78
193.396	-51.79
193.777	-30.79
194.159	-43.49
194.54	-26.77
194.922	-29.37
195.303	-20.67
195.684	-37.21
196.065	-28.3
196.447	-18.56
196.828	-18.87
197.209	-35.4
197.59	-41.96
197.971	-28.03
198.352	-21.87
198.733	-7.16
199.114	2.25
199.495	2.41
199.876	7.32
200.257	-8.98
200.638	-2.08
201.018	-3.79
201.399	2.66
201.78	6.01
202.16	2.3
202.541	0.71
202.922	5.66
203.302	-5.63
203.683	-9.71
204.063	-14.25
204.444	-4.5
204.824	-12.53
205.204	3.04
205.585	5.75
205.965	-4.35
206.345	-16.89
206.725	-17.33
207.106	-27.59
207.486	-38.6
207.866	-21.64
208.246	-14.64
208.626	-54.84
209.006	-58.1
209.386	-57.18
209.766	-43.84
210.145	-39.53
210.525	-29.84
210.905	-44.01
211.285	-41.96
211.664	-31.81
212.044	-37.66
212.424	-45.86
212.803	-61.66
213.183	-74.19
213.562	-53.33
213.942	-43.93
214.321	-36.33
214.701	-41.81
215.08	-39.16
215.459	-19.13
215.838	-32.5
216.218	-43.23
216.597	-33.42
216.976	-35.94
217.355	-34.07
217.734	-38.56
218.113	-28.63
218.492	-34.59
218.871	-31.85
219.25	-27.61
219.629	-26.03
220.008	-19.42
220.387	-17.57
220.766	-7.82
221.144	-5.61
221.523	-16.97
221.902	-11.15
222.28	-1.82
222.659	0.88
223.037	-1.69
223.416	-2.31
223.794	4.68
224.173	7.02
224.551	7.95
224.929	8.71
225.308	5.05
225.686	4.14
226.064	1.34
226.442	7.55
226.821	16.48
227.199	15.58
227.577	12.38
227.955	14.19
228.333	11.91
228.711	9.63
229.089	12.86
229.467	14.08
229.845	13.05
230.222	11.79
230.6	12.27
230.978	14.05
231.356	12
231.733	10.84
232.111	12.06
232.488	13.03
232.866	14.18
233.243	15.58
233.621	15.21
233.998	13.75
234.376	12.38
234.753	10.14
235.13	10.91
235.508	11.67
235.885	8.53
236.262	8.61
236.639	7.39
237.016	5.64
237.393	6.36
237.77	6.24
238.147	6.64
238.524	6.4
238.901	5.03
239.278	4.69
239.655	3.88
240.032	4.01
240.409	4.14
240.785	4.03
241.162	3.71
241.539	3.79
241.915	4.75
242.292	5.02
242.668	5.55
243.045	5.34
243.421	5.4
243.798	5.76
244.174	5.83
244.551	6.12
244.927	6.12
245.303	6.13
245.679	5.89
246.056	5.91
246.432	6.06
246.808	6.33
247.184	6.46
247.56	6.47
247.936	6.48
248.312	6.46
248.688	6.45
249.064	6.42
249.44	6.53
249.815	6.2
250.191	6.11
250.567	5.75
250.943	5.79
251.318	5.89
251.694	5.68
252.069	5.86
252.445	5.66
252.82	5.8
253.196	5.72
253.571	5.83
253.947	5.69
254.322	5.37
254.697	5.12
255.073	5.04
255.448	5.23
255.823	5.19
256.198	4.84
256.573	4.88
256.948	4.91
257.323	5.09
257.698	5.02
258.073	4.87
258.448	4.97
258.823	4.83
259.198	4.95
259.573	4.91
259.948	4.89
260.322	4.92
260.697	4.97
261.072	4.9
261.446	5.01
261.821	4.98
262.195	4.92
262.57	4.94
262.944	4.84
263.319	4.99
263.693	4.99
264.067	5.1
264.442	4.91
264.816	4.72
265.19	4.62
265.564	4.55
265.938	4.7
266.313	4.46
266.687	4.31
267.061	4.27
267.435	4.41
267.809	4.07
268.183	4
268.556	3.82
268.93	4.13
269.304	4.06
269.678	4.11
270.051	4.17
270.425	4.27
270.799	4.27
271.172	4.12
271.546	4.3
271.919	4.42
272.293	4.61
272.666	4.8
273.04	4.84
273.413	5.09
273.787	5.08
274.16	5.22
274.533	5.45
274.906	5.43
275.279	5.32
275.653	5.58
276.026	5.7
276.399	5.87
276.772	5.73
277.145	5.79
277.518	5.52
277.891	5.68
278.263	5.78
278.636	6.06
279.009	6.15
279.382	5.84
279.755	5.78
280.127	5.9
280.5	5.9
280.872	5.86
281.245	5.77
281.617	5.73
281.99	5.8
282.362	5.84
282.735	5.76
283.107	5.92
283.479	5.95
283.852	5.95
284.224	5.82
284.596	5.77
284.968	5.71
285.34	5.86
285.713	5.82
286.085	5.79
286.457	5.65
286.829	5.52
287.201	5.59
287.572	5.67
287.944	5.63
288.316	5.57
288.688	5.53
289.06	5.58
289.431	5.65
289.803	5.71
290.175	5.53
290.546	5.47
290.918	5.33
291.289	5.25
291.661	5.26
292.032	5.4
292.403	5.45
292.775	5.47
293.146	5.54
293.517	5.4
293.889	5.42
294.26	5.44
294.631	5.57
295.002	5.57
295.373	5.58
295.744	5.55
296.115	5.7
296.486	5.69
296.857	5.66
297.228	5.69
297.599	5.51
297.97	5.79
298.34	5.94
298.711	6.05
299.082	6.1
299.452	5.98
299.823	6.05
300.194	6.05
300.564	5.96
300.935	6.02
301.305	6.12
301.676	6.01
302.046	6.03
302.416	5.99
302.787	5.95
303.157	5.75
303.527	5.82
303.897	5.76
304.267	5.84
304.637	5.75
305.008	5.54
305.378	5.78
305.748	5.51
306.117	5.29
306.487	5.25
306.857	5.26
307.227	5.41
307.597	5.3
307.967	5.2
308.336	5.36
308.706	5.29
309.076	5.43
309.445	5.47
309.815	5.47
310.184	5.31
310.554	5.27
310.923	5.24
311.293	5.12
311.662	4.96
312.031	4.94
312.401	4.99
312.77	5.02
313.139	4.94
313.508	4.88
313.877	4.84
314.246	4.82
314.616	4.78
314.985	4.72
315.353	4.8
315.722	4.91
316.091	4.85
316.46	4.9
316.829	4.73
317.198	4.75
317.567	4.75
317.935	4.93
318.304	5.19
318.672	5.37
319.041	5.4
319.41	5.5
319.778	5.39
320.147	5.4
320.515	5.46
320.883	5.37
321.252	5.57
321.62	5.77
321.988	5.92
322.357	6
322.725	6.08
323.093	6.05
323.461	5.96
323.829	6.03
324.197	6.08
324.565	6.03
324.933	6.16
325.301	5.89
325.669	5.93
326.037	5.73
326.405	5.75
326.772	5.73
327.14	5.73
327.508	5.71
327.875	5.65
328.243	5.7
328.61	5.73
328.978	5.61
329.346	5.71
329.713	5.59
330.08	5.63
330.448	5.47
330.815	5.26
331.182	5.41
331.55	5.2
331.917	5.19
332.284	5.33
332.651	5.14
333.018	5.35
333.385	5.26
333.752	5.36
334.119	5.24
334.486	5.28
334.853	5.26
335.22	5.27
335.587	5.44
335.954	5.48
336.32	5.47
336.687	5.47
337.054	5.16
337.42	5.26
337.787	5.24
338.153	5.28
338.52	5.44
338.886	5.29
339.253	5.35
339.619	5.17
339.986	5.07
340.352	5.04
340.718	5.04
341.084	5.04
341.451	4.98
341.817	5.09
342.183	5.06
342.549	5.24
342.915	5.28
343.281	5.18
343.647	5.08
344.013	5.16
344.379	5.12
344.745	5.26
345.11	5.14
345.476	5.04
345.842	5.1
346.208	5.08
346.573	5.11
346.939	5.24
347.304	5.33
347.67	5.42
348.035	5.46
348.401	5.38
348.766	5.35
349.132	5.35
349.497	5.25
349.862	5.24
350.228	5.13
350.593	5.09
350.958	5.14
351.323	5.18
351.688	5.02
352.053	5.07
352.418	5.21
352.783	5.36
353.148	5.39
353.513	5.3
353.878	5.31
354.243	5.26
354.608	5.21
354.972	5.21
355.337	5.14
355.702	5.22
356.066	5.33
356.431	5.34
356.795	5.45
357.16	5.6
357.524	5.62
357.889	5.6
358.253	5.62
358.618	5.58
358.982	5.53
359.346	5.58
359.71	5.6
360.075	5.56
360.439	5.58
360.803	5.6
361.167	5.59
361.531	5.56
361.895	5.62
362.259	5.66
362.623	5.59
362.987	5.62
363.351	5.5
363.714	5.51
364.078	5.53
364.442	5.54
364.806	5.55
365.169	5.57
365.533	5.55
365.896	5.63
366.26	5.64
366.623	5.65
366.987	5.72
367.35	5.72
367.714	5.7
368.077	5.63
368.44	5.62
368.803	5.61
369.167	5.57
369.53	5.58
369.893	5.57
370.256	5.56
370.619	5.54
370.982	5.55
371.345	5.59
371.708	5.59
372.071	5.5
372.434	5.45
372.797	5.48
373.159	5.56
373.522	5.46
373.885	5.49
374.247	5.56
374.61	5.53
374.973	5.54
375.335	5.52
375.698	5.47
376.06	5.49
376.423	5.52
376.785	5.56
377.147	5.47
377.51	5.39
377.872	5.41
378.234	5.44
378.596	5.44
378.958	5.4
379.321	5.4
379.683	5.45
380.045	5.42
380.407	5.39
380.769	5.38
381.13	5.36
381.492	5.35
381.854	5.32
382.216	5.27
382.578	5.25
382.939	5.28
383.301	5.35
383.663	5.31
384.024	5.36
384.386	5.39
384.747	5.41
385.109	5.42
385.47	5.45
385.832	5.44
386.193	5.44
386.554	5.35
386.916	5.33
387.277	5.26
387.638	5.28
387.999	5.31
388.36	5.28
388.721	5.36
389.082	5.39
389.443	5.39
389.804	5.45
390.165	5.44
390.526	5.42
390.887	5.38
391.248	5.4
391.609	5.37
391.969	5.38
392.33	5.38
392.691	5.37
393.051	5.38
393.412	5.39
393.772	5.44
394.133	5.5
394.493	5.49
394.854	5.56
395.214	5.53
395.574	5.52
395.935	5.5
396.295	5.47
396.655	5.45
397.015	5.46
397.376	5.41
397.736	5.41
398.096	5.44
398.456	5.4
398.816	5.36
399.176	5.38
399.535	5.36
399.895	5.37
400.255	5.42
400.615	5.41
400.975	5.42
401.334	5.4
401.694	5.38
402.054	5.4
402.413	5.38
402.773	5.39
403.132	5.39
403.492	5.39
403.851	5.4
404.211	5.38
404.57	5.36
404.929	5.4
405.288	5.43
405.648	5.37
406.007	5.42
406.366	5.4
406.725	5.38
407.084	5.37
407.443	5.37
407.802	5.32
408.161	5.34
408.52	5.31
408.879	5.33
409.238	5.29
409.596	5.3
409.955	5.3
410.314	5.27
410.673	5.27
411.031	5.3
411.39	5.29
411.748	5.3
412.107	5.26
412.465	5.22
412.824	5.21
413.182	5.24
413.54	5.25
413.899	5.25
414.257	5.25
414.615	5.22
414.974	5.21
415.332	5.22
415.69	5.19
416.048	5.19
416.406	5.15
416.764	5.19
417.122	5.17
417.48	5.15
417.838	5.17
418.195	5.17
418.553	5.15
418.911	5.13
419.269	5.12
419.626	5.13
419.984	5.14
420.342	5.14
420.699	5.14
421.057	5.11
421.414	5.14
421.772	5.16
422.129	5.15
422.486	5.15
422.844	5.13
423.201	5.14
423.558	5.15
423.915	5.15
424.273	5.14
424.63	5.16
424.987	5.17
425.344	5.16
425.701	5.14
426.058	5.13
426.415	5.13
426.772	5.12
427.128	5.13
427.485	5.11
427.842	5.1
428.199	5.08
428.555	5.08
428.912	5.06
429.269	5.03
429.625	5.05
429.982	5.05
430.338	5.07
430.695	5.05
431.051	5.03
431.407	5.05
431.764	5.07
432.12	5.04
432.476	5.03
432.832	5.02
433.189	5.01
433.545	5.01
433.901	5.03
434.257	5.04
434.613	5.05
434.969	5.06
435.325	5.05
435.681	5.05
436.036	5.06
436.392	5.05
436.748	5.06
437.104	5.05
437.459	5.05
437.815	5.04
438.171	5.04
438.526	5.05
438.882	5.05
439.237	5.02
439.593	5.03
439.948	5.02
440.304	5.01
440.659	5.02
441.014	5.03
441.369	5.03
441.725	5.02
442.08	5.02
442.435	5.02
442.79	5.01
443.145	5.03
443.5	5.02
443.855	5.03
444.21	5.05
444.565	5.06
444.92	5.06
445.275	5.08
445.629	5.09
445.984	5.08
446.339	5.06
446.693	5.06
447.048	5.05
447.403	5.06
447.757	5.07
448.112	5.08
448.466	5.08
448.82	5.07
449.175	5.06
449.529	5.05
449.883	5.04
450.238	5.05
450.592	5.03
450.946	5.04
451.3	5.03
451.654	5.01
452.008	5.01
452.362	5
452.716	4.98
453.07	4.94
453.424	4.94
453.778	4.95
454.132	4.96
454.486	4.96
454.839	4.94
455.193	4.94
455.547	4.94
455.9	4.93
456.254	4.94
456.607	4.94
456.961	4.95
457.314	4.96
457.668	4.95
458.021	4.96
458.375	4.95
458.728	4.97
459.081	4.97
459.434	4.98
459.787	5
460.141	5.01
460.494	5.04
460.847	5.04
461.2	5.04
461.553	5.06
461.906	5.09
462.259	5.11
462.611	5.13
462.964	5.13
463.317	5.12
463.67	5.15
464.022	5.15
464.375	5.16
464.728	5.13
465.08	5.17
465.433	5.15
465.785	5.17
466.138	5.17
466.49	5.18
466.843	5.17
467.195	5.17
467.547	5.19
467.899	5.18
468.252	5.18
468.604	5.19
468.956	5.18
469.308	5.18
469.66	5.18
470.012	5.14
470.364	5.13
470.716	5.16
471.068	5.15
471.42	5.17
471.772	5.17
472.123	5.2
472.475	5.19
472.827	5.19
473.178	5.2
473.53	5.19
473.882	5.19
474.233	5.19
474.585	5.19
474.936	5.2
475.288	5.19
475.639	5.19
475.99	5.18
476.342	5.19
476.693	5.16
477.044	5.16
477.395	5.17
477.746	5.18
478.097	5.18
478.448	5.17
478.8	5.15
479.15	5.17
479.501	5.17
479.852	5.16
480.203	5.17
480.554	5.17
480.905	5.16
481.255	5.17
481.606	5.18
481.957	5.17
482.307	5.14
482.658	5.15
483.009	5.16
483.359	5.16
483.709	5.17
484.06	5.19
484.41	5.19
484.761	5.2
485.111	5.2
485.461	5.21
485.811	5.21
486.162	5.22
486.512	5.22
486.862	5.22
487.212	5.24
487.562	5.24
487.912	5.24
488.262	5.24
488.612	5.23
488.961	5.23
489.311	5.24
489.661	5.25
490.011	5.26
490.36	5.25
490.71	5.27
491.06	5.27
491.409	5.26
491.759	5.28
492.108	5.28
492.458	5.28
492.807	5.29
493.157	5.29
493.506	5.3
493.855	5.31
494.204	5.31
494.554	5.3
494.903	5.3
495.252	5.29
495.601	5.32
495.95	5.34
496.299	5.36
496.648	5.36
496.997	5.38
497.346	5.39
497.695	5.41
498.043	5.41
498.392	5.42
498.741	5.42
499.09	5.41
499.438	5.44
499.787	5.43
500.135	5.39
500.484	5.41
500.832	5.41
501.181	5.45
501.529	5.47
501.878	5.48
502.226	5.51
502.574	5.52
502.923	5.5
503.271	5.51
503.619	5.53
503.967	5.52
504.315	5.51
504.663	5.51
505.011	5.51
505.359	5.49
505.707	5.49
506.055	5.49
506.403	5.5
506.751	5.47
507.098	5.51
507.446	5.57
507.794	5.58
508.141	5.58
508.489	5.58
508.837	5.57
509.184	5.58
509.531	5.6
509.879	5.61
510.226	5.63
510.574	5.64
510.921	5.65
511.268	5.71
511.616	5.75
511.963	5.77
512.31	5.78
512.657	5.81
513.004	5.81
513.351	5.82
513.698	5.83
514.045	5.85
514.392	5.85
514.739	5.84
515.086	5.87
515.432	5.9
515.779	5.91
516.126	5.95
516.473	5.96
516.819	5.98
517.166	6
517.512	6.01
517.859	6.01
518.205	6
518.552	5.97
518.898	5.94
519.245	5.94
519.591	5.92
519.937	5.95
520.283	5.97
520.629	5.99
520.976	5.99
521.322	5.98
521.668	6
522.014	6.02
522.36	6
522.706	5.98
523.052	5.98
523.398	5.97
523.743	5.99
524.089	5.98
524.435	6
524.781	6.02
525.126	6.04
525.472	6.06
525.817	6.08
526.163	6.1
526.509	6.1
526.854	6.12
527.199	6.13
527.545	6.15
527.89	6.16
528.235	6.17
528.581	6.2
528.926	6.2
529.271	6.2
529.616	6.2
529.961	6.23
530.306	6.23
530.651	6.24
530.996	6.24
531.341	6.25
531.686	6.25
532.031	6.27
532.376	6.28
532.721	6.3
533.065	6.31
533.41	6.32
533.755	6.33
534.099	6.35
534.444	6.36
534.788	6.35
535.133	6.36
535.477	6.38
535.822	6.38
536.166	6.39
536.51	6.4
536.855	6.42
537.199	6.39
537.543	6.42
537.887	6.42
538.231	6.42
538.576	6.43
538.92	6.43
539.264	6.42
539.608	6.43
539.951	6.42
540.295	6.43
540.639	6.45
540.983	6.46
541.327	6.47
541.671	6.47
542.014	6.48
542.358	6.49
542.701	6.51
543.045	6.49
543.389	6.5
543.732	6.5
544.075	6.51
544.419	6.52
544.762	6.51
545.105	6.52
545.449	6.55
545.792	6.57
546.135	6.58
546.478	6.61
546.821	6.59
547.165	6.62
547.508	6.6
547.851	6.59
548.194	6.57
548.536	6.58
548.879	6.56
549.222	6.53
549.565	6.52
549.908	6.51
550.25	6.5
550.593	6.46
550.936	6.48
551.278	6.46
551.621	6.49
551.963	6.49
552.306	6.52
552.648	6.53
552.991	6.5
553.333	6.48
553.675	6.47
554.017	6.48
554.36	6.48
554.702	6.48
555.044	6.49
555.386	6.51
555.728	6.54
556.07	6.54
556.412	6.55
556.754	6.53
557.096	6.55
557.438	6.56
557.78	6.63
558.121	6.64
558.463	6.69
558.805	6.68
559.147	6.71
559.488	6.69
559.83	6.69
560.171	6.7
560.513	6.72
560.854	6.74
561.196	6.73
561.537	6.72
561.878	6.74
562.22	6.73
562.561	6.74
562.902	6.74
563.243	6.75
563.584	6.79
563.925	6.81
564.266	6.8
564.607	6.83
564.948	6.76
565.289	6.79
565.63	6.76
565.971	6.72
566.312	6.71
566.653	6.71
566.993	6.68
567.334	6.7
567.675	6.71
568.015	6.7
568.356	6.73
568.696	6.74
569.037	6.76
569.377	6.76
569.718	6.75
570.058	6.76
570.398	6.75
570.739	6.72
571.079	6.73
571.419	6.7
571.759	6.7
572.099	6.74
572.439	6.72
572.779	6.71
573.119	6.72
573.459	6.71
573.799	6.71
574.139	6.72
574.479	6.71
574.819	6.72
575.158	6.73
575.498	6.72
575.838	6.71
576.177	6.68
576.517	6.66
576.856	6.71
577.196	6.69
577.535	6.71
577.875	6.72
578.214	6.73
578.553	6.76
578.893	6.79
579.232	6.8
579.571	6.8
579.91	6.81
580.25	6.87
580.589	6.89
580.928	6.85
581.267	6.87
581.606	6.84
581.945	6.78
582.283	6.79
582.622	6.76
582.961	6.82
583.3	6.85
583.639	6.91
583.977	6.87
584.316	6.91
584.654	6.9
584.993	6.91
585.332	6.92
585.67	6.9
586.008	6.87
586.347	6.89
586.685	6.88
587.024	6.86
587.362	6.88
587.7	6.89
588.038	6.93
588.376	6.93
588.715	6.97
589.053	7.02
589.391	7.01
589.729	7.03
590.067	6.98
590.404	6.99
590.742	6.95
591.08	6.97
591.418	6.99
591.756	7.01
592.093	7.01
592.431	7.01
592.769	7
593.106	7
593.444	7.03
593.781	7.07
594.119	7.1
594.456	7.08
594.793	7.11
595.131	7.14
595.468	7.17
595.805	7.21
596.143	7.27
596.48	7.25
596.817	7.23
597.154	7.24
597.491	7.24
597.828	7.26
598.165	7.28
598.502	7.24
598.839	7.23
599.176	7.23
599.512	7.23
599.849	7.27
600.186	7.28
600.523	7.24
600.859	7.22
601.196	7.26
601.532	7.22
601.869	7.23
602.205	7.21
602.542	7.19
602.878	7.15
603.215	7.08
603.551	7.09
603.887	7.08
604.223	7.06
604.56	7.07
604.896	7.08
605.232	7.01
605.568	7.01
605.904	7.01
606.24	7.02
606.576	7.04
606.912	7.02
607.248	7.03
607.583	7.05
607.919	7.07
608.255	7.05
608.591	7.09
608.926	7.08
609.262	7.1
609.597	7.11
609.933	7.08
610.268	7.07
610.604	7.08
610.939	7.16
611.275	7.2
611.61	7.22
611.945	7.24
612.281	7.27
612.616	7.33
612.951	7.37
613.286	7.4
613.621	7.38
613.956	7.43
614.291	7.4
614.626	7.35
614.961	7.36
615.296	7.33
615.631	7.29
615.966	7.28
616.3	7.3
616.635	7.34
616.97	7.38
617.304	7.37
617.639	7.38
617.973	7.35
618.308	7.37
618.642	7.34
618.977	7.28
619.311	7.29
619.646	7.2
619.98	7.15
620.314	7.11
620.648	7.09
620.983	7.09
621.317	7.15
621.651	7.18
621.985	7.19
622.319	7.18
622.653	7.23
622.987	7.21
623.321	7.18
623.655	7.15
623.988	7.21
624.322	7.29
624.656	7.3
624.99	7.25
625.323	7.23
625.657	7.28
625.99	7.31
626.324	7.31
626.657	7.32
626.991	7.35
627.324	7.38
627.658	7.39
627.991	7.41
628.324	7.3
628.657	7.3
628.991	7.28
629.324	7.27
629.657	7.28
629.99	7.26
630.323	7.31
630.656	7.26
630.989	7.24
631.322	7.19
631.655	7.2
631.987	7.24
632.32	7.22
632.653	7.15
632.986	7.15
633.318	7.17
633.651	7.18
633.984	7.17
634.316	7.21
634.649	7.21
634.981	7.16
635.313	7.28
635.646	7.28
635.978	7.28
636.31	7.36
636.643	7.35
636.975	7.43
637.307	7.4
637.639	7.51
637.971	7.48
638.303	7.5
638.635	7.5
638.967	7.57
639.299	7.55
639.631	7.66
639.963	7.68
640.295	7.72
640.626	7.68
640.958	7.72
641.29	7.68
641.621	7.75
641.953	7.76
642.285	7.76
642.616	7.81
642.948	7.78
643.279	7.73
643.61	7.79
643.942	7.76
644.273	7.79
644.604	7.76
644.936	7.78
645.267	7.74
645.598	7.79
645.929	7.71
646.26	7.7
646.591	7.64
646.922	7.61
647.253	7.52
647.584	7.55
647.915	7.54
648.245	7.65
648.576	7.63
648.907	7.62
649.238	7.61
649.568	7.62
649.899	7.64
650.229	7.67
650.56	7.62
650.89	7.64
651.221	7.65
651.551	7.71
651.882	7.71
652.212	7.74
652.542	7.69
652.872	7.7
653.203	7.8
653.533	7.83
653.863	7.88
654.193	7.98
654.523	8.01
654.853	8.02
655.183	7.87
655.513	7.88
655.843	7.94
656.172	7.97
656.502	7.88
656.832	7.86
657.162	7.86
657.491	7.91
657.821	7.9
658.15	7.91
658.48	7.82
658.809	7.87
659.139	7.86
659.468	7.87
659.798	7.95
660.127	7.91
660.456	7.88
660.785	7.93
661.115	7.95
661.444	7.93
661.773	7.98
662.102	8.04
662.431	7.98
662.76	7.98
663.089	7.93
663.418	8.02
663.747	8.1
664.076	8.09
664.404	8.1
664.733	8.07
665.062	8.01
665.39	8.1
665.719	8.1
666.048	8.11
666.376	8.18
666.705	8.28
667.033	8.28
667.362	8.31
667.69	8.29
668.018	8.33
668.347	8.31
668.675	8.27
669.003	8.31
669.331	8.32
669.659	8.31
669.987	8.39
670.315	8.37
670.643	8.36
670.971	8.33
671.299	8.27
671.627	8.34
671.955	8.37
672.283	8.29
672.61	8.36
672.938	8.32
673.266	8.25
673.593	8.1
673.921	8.12
674.249	8.03
674.576	8.02
674.904	7.91
675.231	7.94
675.558	7.98
675.886	7.91
676.213	7.85
676.54	7.84
676.867	7.8
677.195	7.83
677.522	7.8
677.849	7.82
678.176	7.88
678.503	7.9
