Data from BA17726_Reflection_00015.txt Node
Date: Tue Nov 19 11:57:19 EST 2019
User: vgr7
Spectrometer: USB2G7710
Scans to average: 3
Trigger mode: 4
Integration Time (sec): 2.000000E-2
Electric dark correction enabled: true
Boxcar width: 10
XAxis mode: Wavelengths
Number of Pixels in Spectrum: 2048
>>>>>Begin Spectral Data<<<<<
177.721	-56.31
178.105	-115.91
178.488	-32.25
178.871	13.46
179.254	22.58
179.636	54.74
180.019	23.27
180.402	50
180.785	-82.61
181.168	-21.46
181.55	-84.87
181.933	-488.24
182.316	-382.76
182.698	5.66
183.081	-8.11
183.463	-44.93
183.846	3.23
184.228	23.08
184.611	-29.19
184.993	-56.76
185.376	-73.91
185.758	-33.89
186.14	-70.73
186.522	-17.17
186.904	-7.46
187.287	9.47
187.669	11.63
188.051	13.29
188.433	-900
188.815	-8.11
189.197	168.97
189.579	67.21
189.961	17.36
190.342	-4.29
190.724	-195.08
191.106	524.24
191.488	-552.17
191.869	-29.53
192.251	-30.18
192.633	9.55
193.014	17.75
193.396	13.39
193.777	8.02
194.159	23.26
194.54	37.66
194.922	43.16
195.303	17.83
195.684	13.26
196.065	-0.15
196.447	1.66
196.828	0.36
197.209	3.68
197.59	-8.14
197.971	-8.51
198.352	-8.51
198.733	-9.68
199.114	7.51
199.495	-8.4
199.876	-17.01
200.257	-14.98
200.638	-24.87
201.018	-36.12
201.399	-35.14
201.78	-38.63
202.16	-48.97
202.541	-54.67
202.922	-53.34
203.302	-41.63
203.683	-33.77
204.063	-28.28
204.444	-29.12
204.824	-23.49
205.204	-28.13
205.585	-24.38
205.965	-40.65
206.345	-47.45
206.725	-34.72
207.106	-38.54
207.486	-36.84
207.866	-44.47
208.246	-37.22
208.626	-39.69
209.006	-19.91
209.386	-42.31
209.766	-42.34
210.145	-13.67
210.525	-34.27
210.905	-42.86
211.285	-36.16
211.664	-32.03
212.044	-44.58
212.424	-46.08
212.803	-76.96
213.183	-57.89
213.562	-36.77
213.942	-29.81
214.321	-22.65
214.701	-30.75
215.08	-43.62
215.459	-35.7
215.838	-33.51
216.218	-47.09
216.597	-42.24
216.976	-51.01
217.355	-46.69
217.734	-48.69
218.113	-45.07
218.492	-38.73
218.871	-46.56
219.25	-48.09
219.629	-48.34
220.008	-47.27
220.387	-45.13
220.766	-36.53
221.144	-43.71
221.523	-58.47
221.902	-58.64
222.28	-56.42
222.659	-43.65
223.037	-34.4
223.416	-31.49
223.794	-31.23
224.173	-20.23
224.551	-15.77
224.929	-14.52
225.308	-8.38
225.686	-8.26
226.064	-13.35
226.442	-7.47
226.821	-6.35
227.199	-5.62
227.577	-4.03
227.955	0.19
228.333	1.25
228.711	2.21
229.089	3.92
229.467	5.13
229.845	4.16
230.222	4.95
230.6	3.12
230.978	1.87
231.356	2.48
231.733	3.73
232.111	4.32
232.488	5.46
232.866	5.95
233.243	3.6
233.621	4.5
233.998	5.31
234.376	2.37
234.753	1.86
235.13	1.23
235.508	-0.8
235.885	-1.06
236.262	-2.38
236.639	-2.3
237.016	-1.04
237.393	-0.75
237.77	1.11
238.147	1.81
238.524	2.66
238.901	1.08
239.278	0.27
239.655	-0.03
240.032	0.12
240.409	-0.73
240.785	0.06
241.162	0.03
241.539	-0.17
241.915	-0.2
242.292	0.11
242.668	1.02
243.045	1.82
243.421	2.55
243.798	3.02
244.174	3.75
244.551	3.63
244.927	3.65
245.303	3.72
245.679	3.55
246.056	3.51
246.432	3.37
246.808	3.79
247.184	3.92
247.56	3.8
247.936	3.98
248.312	4.33
248.688	4.29
249.064	4.24
249.44	4.13
249.815	4.24
250.191	4.52
250.567	4.45
250.943	4.36
251.318	4.43
251.694	4.26
252.069	4.11
252.445	4.02
252.82	3.93
253.196	3.87
253.571	3.85
253.947	3.53
254.322	3.39
254.697	3.41
255.073	3.29
255.448	3.73
255.823	3.38
256.198	2.95
256.573	2.81
256.948	3.05
257.323	3.46
257.698	3.32
258.073	3.36
258.448	3.34
258.823	3.15
259.198	3.11
259.573	3.03
259.948	3.15
260.322	3.15
260.697	3.21
261.072	3.26
261.446	3.32
261.821	3.16
262.195	3.37
262.57	3.52
262.944	3.72
263.319	3.75
263.693	3.88
264.067	4.18
264.442	4.15
264.816	4.12
265.19	4.11
265.564	4.14
265.938	4
266.313	4.11
266.687	3.92
267.061	3.79
267.435	3.99
267.809	3.82
268.183	3.82
268.556	3.52
268.93	3.59
269.304	3.68
269.678	4
270.051	4.07
270.425	3.98
270.799	3.78
271.172	3.56
271.546	3.42
271.919	3.29
272.293	3.29
272.666	3.25
273.04	3.03
273.413	3.26
273.787	3.15
274.16	3.07
274.533	3.43
274.906	3.56
275.279	3.47
275.653	3.46
276.026	3.67
276.399	3.76
276.772	3.79
277.145	3.68
277.518	3.59
277.891	3.47
278.263	3.42
278.636	3.74
279.009	3.98
279.382	4.04
279.755	4
280.127	4.21
280.5	4.31
280.872	4.43
281.245	4.36
281.617	4.42
281.99	4.42
282.362	4.3
282.735	4.18
283.107	4.32
283.479	4.44
283.852	4.41
284.224	4.45
284.596	4.35
284.968	4.21
285.34	4.06
285.713	4.03
286.085	3.92
286.457	3.76
286.829	3.64
287.201	3.79
287.572	3.92
287.944	3.92
288.316	3.99
288.688	4
289.06	3.86
289.431	3.96
289.803	3.95
290.175	3.85
290.546	3.88
290.918	3.87
291.289	3.7
291.661	3.57
292.032	3.57
292.403	3.66
292.775	3.79
293.146	4.01
293.517	3.92
293.889	3.96
294.26	3.94
294.631	4.08
295.002	4.03
295.373	3.86
295.744	3.79
296.115	3.71
296.486	3.79
296.857	3.99
297.228	3.89
297.599	4
297.97	4.1
298.34	4.14
298.711	4.13
299.082	4.22
299.452	4.18
299.823	4.15
300.194	4.2
300.564	4.29
300.935	4.34
301.305	4.47
301.676	4.58
302.046	4.57
302.416	4.6
302.787	4.48
303.157	4.57
303.527	4.69
303.897	4.72
304.267	4.71
304.637	4.65
305.008	4.76
305.378	4.77
305.748	4.82
306.117	4.92
306.487	4.89
306.857	5.02
307.227	5.3
307.597	5.43
307.967	5.4
308.336	5.4
308.706	5.37
309.076	5.49
309.445	5.55
309.815	5.78
310.184	5.65
310.554	5.68
310.923	5.66
311.293	5.69
311.662	5.64
312.031	5.76
312.401	5.77
312.77	5.79
313.139	5.79
313.508	5.76
313.877	5.85
314.246	5.88
314.616	5.91
314.985	5.9
315.353	5.99
315.722	6.1
316.091	5.96
316.46	5.84
316.829	5.79
317.198	5.81
317.567	5.82
317.935	5.86
318.304	6.12
318.672	6.37
319.041	6.46
319.41	6.61
319.778	6.51
320.147	6.4
320.515	6.42
320.883	6.54
321.252	6.75
321.62	6.58
321.988	6.68
322.357	6.59
322.725	6.45
323.093	6.33
323.461	6.34
323.829	6.54
324.197	6.62
324.565	6.69
324.933	6.58
325.301	6.41
325.669	6.49
326.037	6.38
326.405	6.41
326.772	6.27
327.14	6.23
327.508	6.29
327.875	6.38
328.243	6.41
328.61	6.31
328.978	6.28
329.346	6.42
329.713	6.43
330.08	6.54
330.448	6.66
330.815	6.73
331.182	6.71
331.55	6.66
331.917	6.82
332.284	6.75
332.651	6.96
333.018	7.13
333.385	7.21
333.752	7.21
334.119	7.09
334.486	7.23
334.853	7.24
335.22	7.09
335.587	7.12
335.954	7.19
336.32	7.06
336.687	7.1
337.054	7.01
337.42	7.02
337.787	6.99
338.153	7.07
338.52	7.13
338.886	7.12
339.253	7.14
339.619	7.11
339.986	7.05
340.352	6.99
340.718	6.96
341.084	7.04
341.451	7.05
341.817	7.09
342.183	7.14
342.549	7.25
342.915	7.34
343.281	7.24
343.647	7.14
344.013	7.3
344.379	7.28
344.745	7.43
345.11	7.47
345.476	7.43
345.842	7.26
346.208	7.27
346.573	7.31
346.939	7.32
347.304	7.34
347.67	7.43
348.035	7.39
348.401	7.41
348.766	7.26
349.132	7.35
349.497	7.39
349.862	7.22
350.228	7.15
350.593	7.13
350.958	7.29
351.323	7.35
351.688	7.29
352.053	7.27
352.418	7.24
352.783	7.23
353.148	7.3
353.513	7.45
353.878	7.45
354.243	7.37
354.608	7.36
354.972	7.36
355.337	7.38
355.702	7.5
356.066	7.58
356.431	7.58
356.795	7.52
357.16	7.49
357.524	7.55
357.889	7.6
358.253	7.63
358.618	7.57
358.982	7.57
359.346	7.7
359.71	7.67
360.075	7.61
360.439	7.58
360.803	7.57
361.167	7.52
361.531	7.46
361.895	7.55
362.259	7.6
362.623	7.58
362.987	7.47
363.351	7.35
363.714	7.27
364.078	7.35
364.442	7.29
364.806	7.24
365.169	7.16
365.533	7.16
365.896	7.14
366.26	7.11
366.623	7.04
366.987	6.89
367.35	6.9
367.714	6.84
368.077	6.75
368.44	6.63
368.803	6.57
369.167	6.57
369.53	6.46
369.893	6.43
370.256	6.38
370.619	6.38
370.982	6.31
371.345	6.27
371.708	6.21
372.071	6.17
372.434	6.15
372.797	6.16
373.159	6.12
373.522	6.08
373.885	6.11
374.247	6.08
374.61	6.02
374.973	6.01
375.335	6.01
375.698	6.04
376.06	6.04
376.423	6.09
376.785	6.15
377.147	6.1
377.51	6
377.872	5.97
378.234	5.97
378.596	6.05
378.958	6.06
379.321	5.98
379.683	6
380.045	5.96
380.407	5.93
380.769	5.88
381.13	5.78
381.492	5.71
381.854	5.7
382.216	5.75
382.578	5.67
382.939	5.66
383.301	5.66
383.663	5.62
384.024	5.6
384.386	5.52
384.747	5.47
385.109	5.51
385.47	5.5
385.832	5.47
386.193	5.43
386.554	5.32
386.916	5.4
387.277	5.37
387.638	5.36
387.999	5.32
388.36	5.3
388.721	5.34
389.082	5.34
389.443	5.34
389.804	5.3
390.165	5.29
390.526	5.26
390.887	5.23
391.248	5.18
391.609	5.14
391.969	5.07
392.33	5.07
392.691	5.07
393.051	5.05
393.412	5.01
393.772	4.97
394.133	4.96
394.493	4.86
394.854	4.8
395.214	4.76
395.574	4.74
395.935	4.71
396.295	4.62
396.655	4.59
397.015	4.55
397.376	4.47
397.736	4.41
398.096	4.37
398.456	4.32
398.816	4.32
399.176	4.25
399.535	4.28
399.895	4.28
400.255	4.25
400.615	4.24
400.975	4.26
401.334	4.2
401.694	4.23
402.054	4.25
402.413	4.24
402.773	4.22
403.132	4.2
403.492	4.19
403.851	4.22
404.211	4.19
404.57	4.19
404.929	4.18
405.288	4.2
405.648	4.2
406.007	4.2
406.366	4.17
406.725	4.17
407.084	4.13
407.443	4.12
407.802	4.09
408.161	4.09
408.52	4.05
408.879	4.06
409.238	4.02
409.596	3.99
409.955	3.99
410.314	4.01
410.673	4.05
411.031	4.03
411.39	4.01
411.748	4.01
412.107	3.97
412.465	3.98
412.824	3.93
413.182	3.9
413.54	3.87
413.899	3.9
414.257	3.9
414.615	3.91
414.974	3.89
415.332	3.86
415.69	3.85
416.048	3.87
416.406	3.83
416.764	3.82
417.122	3.8
417.48	3.79
417.838	3.78
418.195	3.74
418.553	3.72
418.911	3.7
419.269	3.69
419.626	3.68
419.984	3.67
420.342	3.68
420.699	3.67
421.057	3.67
421.414	3.65
421.772	3.63
422.129	3.6
422.486	3.59
422.844	3.58
423.201	3.57
423.558	3.56
423.915	3.56
424.273	3.54
424.63	3.54
424.987	3.53
425.344	3.51
425.701	3.48
426.058	3.49
426.415	3.49
426.772	3.47
427.128	3.49
427.485	3.49
427.842	3.48
428.199	3.47
428.555	3.45
428.912	3.42
429.269	3.41
429.625	3.41
429.982	3.4
430.338	3.4
430.695	3.38
431.051	3.36
431.407	3.38
431.764	3.37
432.12	3.38
432.476	3.4
432.832	3.42
433.189	3.44
433.545	3.44
433.901	3.43
434.257	3.44
434.613	3.41
434.969	3.4
435.325	3.4
435.681	3.4
436.036	3.4
436.392	3.4
436.748	3.4
437.104	3.4
437.459	3.38
437.815	3.37
438.171	3.36
438.526	3.36
438.882	3.34
439.237	3.33
439.593	3.32
439.948	3.28
440.304	3.27
440.659	3.29
441.014	3.28
441.369	3.3
441.725	3.29
442.08	3.3
442.435	3.29
442.79	3.29
443.145	3.29
443.5	3.29
443.855	3.28
444.21	3.28
444.565	3.29
444.92	3.29
445.275	3.29
445.629	3.29
445.984	3.28
446.339	3.3
446.693	3.3
447.048	3.3
447.403	3.3
447.757	3.28
448.112	3.27
448.466	3.25
448.82	3.24
449.175	3.23
449.529	3.25
449.883	3.24
450.238	3.23
450.592	3.22
450.946	3.21
451.3	3.23
451.654	3.22
452.008	3.21
452.362	3.2
452.716	3.2
453.07	3.2
453.424	3.21
453.778	3.17
454.132	3.15
454.486	3.15
454.839	3.14
455.193	3.17
455.547	3.17
455.9	3.18
456.254	3.18
456.607	3.18
456.961	3.17
457.314	3.2
457.668	3.22
458.021	3.22
458.375	3.2
458.728	3.2
459.081	3.22
459.434	3.21
459.787	3.22
460.141	3.22
460.494	3.23
460.847	3.23
461.2	3.24
461.553	3.26
461.906	3.26
462.259	3.28
462.611	3.28
462.964	3.27
463.317	3.29
463.67	3.3
464.022	3.29
464.375	3.29
464.728	3.27
465.08	3.26
465.433	3.27
465.785	3.3
466.138	3.31
466.49	3.32
466.843	3.37
467.195	3.39
467.547	3.38
467.899	3.37
468.252	3.39
468.604	3.4
468.956	3.41
469.308	3.39
469.66	3.38
470.012	3.38
470.364	3.41
470.716	3.41
471.068	3.41
471.42	3.43
471.772	3.46
472.123	3.46
472.475	3.46
472.827	3.44
473.178	3.43
473.53	3.43
473.882	3.4
474.233	3.36
474.585	3.37
474.936	3.36
475.288	3.36
475.639	3.35
475.99	3.34
476.342	3.36
476.693	3.37
477.044	3.39
477.395	3.38
477.746	3.35
478.097	3.35
478.448	3.36
478.8	3.35
479.15	3.33
479.501	3.32
479.852	3.32
480.203	3.32
480.554	3.33
480.905	3.33
481.255	3.33
481.606	3.34
481.957	3.34
482.307	3.35
482.658	3.35
483.009	3.35
483.359	3.36
483.709	3.36
484.06	3.37
484.41	3.37
484.761	3.37
485.111	3.38
485.461	3.38
485.811	3.38
486.162	3.38
486.512	3.39
486.862	3.41
487.212	3.41
487.562	3.41
487.912	3.42
488.262	3.41
488.612	3.42
488.961	3.42
489.311	3.43
489.661	3.44
490.011	3.44
490.36	3.46
490.71	3.46
491.06	3.46
491.409	3.45
491.759	3.47
492.108	3.47
492.458	3.49
492.807	3.5
493.157	3.52
493.506	3.52
493.855	3.54
494.204	3.55
494.554	3.57
494.903	3.59
495.252	3.62
495.601	3.65
495.95	3.67
496.299	3.7
496.648	3.73
496.997	3.74
497.346	3.78
497.695	3.79
498.043	3.83
498.392	3.85
498.741	3.88
499.09	3.91
499.438	3.95
499.787	3.96
500.135	3.99
500.484	4.02
500.832	4.07
501.181	4.09
501.529	4.12
501.878	4.16
502.226	4.18
502.574	4.24
502.923	4.27
503.271	4.31
503.619	4.35
503.967	4.37
504.315	4.42
504.663	4.45
505.011	4.52
505.359	4.56
505.707	4.61
506.055	4.66
506.403	4.68
506.751	4.73
507.098	4.79
507.446	4.82
507.794	4.89
508.141	4.93
508.489	4.97
508.837	5.01
509.184	5.08
509.531	5.13
509.879	5.16
510.226	5.23
510.574	5.29
510.921	5.33
511.268	5.4
511.616	5.46
511.963	5.52
512.31	5.56
512.657	5.61
513.004	5.64
513.351	5.71
513.698	5.81
514.045	5.88
514.392	5.93
514.739	6.03
515.086	6.1
515.432	6.2
515.779	6.26
516.126	6.35
516.473	6.42
516.819	6.49
517.166	6.56
517.512	6.64
517.859	6.7
518.205	6.77
518.552	6.83
518.898	6.89
519.245	6.96
519.591	7.06
519.937	7.13
520.283	7.25
520.629	7.31
520.976	7.38
521.322	7.47
521.668	7.57
522.014	7.66
522.36	7.74
522.706	7.84
523.052	7.96
523.398	8.07
523.743	8.17
524.089	8.31
524.435	8.41
524.781	8.53
525.126	8.63
525.472	8.73
525.817	8.83
526.163	8.91
526.509	8.99
526.854	9.06
527.199	9.15
527.545	9.22
527.89	9.3
528.235	9.38
528.581	9.46
528.926	9.53
529.271	9.62
529.616	9.7
529.961	9.78
530.306	9.87
530.651	9.97
530.996	10.07
531.341	10.17
531.686	10.29
532.031	10.4
532.376	10.53
532.721	10.63
533.065	10.76
533.41	10.89
533.755	11.04
534.099	11.17
534.444	11.29
534.788	11.45
535.133	11.58
535.477	11.75
535.822	11.91
536.166	12.09
536.51	12.27
536.855	12.45
537.199	12.64
537.543	12.86
537.887	13.07
538.231	13.3
538.576	13.51
538.92	13.7
539.264	13.88
539.608	14.05
539.951	14.25
540.295	14.43
540.639	14.64
540.983	14.81
541.327	14.99
541.671	15.16
542.014	15.32
542.358	15.49
542.701	15.66
543.045	15.83
543.389	15.99
543.732	16.15
544.075	16.33
544.419	16.52
544.762	16.7
545.105	16.91
545.449	17.1
545.792	17.31
546.135	17.55
546.478	17.79
546.821	18.05
547.165	18.31
547.508	18.56
547.851	18.79
548.194	19.07
548.536	19.34
548.879	19.61
549.222	19.87
549.565	20.15
549.908	20.41
550.25	20.7
550.593	21.01
550.936	21.29
551.278	21.58
551.621	21.89
551.963	22.21
552.306	22.46
552.648	22.77
552.991	23.07
553.333	23.32
553.675	23.61
554.017	23.9
554.36	24.16
554.702	24.45
555.044	24.72
555.386	24.99
555.728	25.25
556.07	25.53
556.412	25.81
556.754	26.07
557.096	26.41
557.438	26.66
557.78	26.94
558.121	27.27
558.463	27.55
558.805	27.87
559.147	28.11
559.488	28.45
559.83	28.69
560.171	28.97
560.513	29.32
560.854	29.62
561.196	29.95
561.537	30.24
561.878	30.56
562.22	30.81
562.561	31.11
562.902	31.46
563.243	31.79
563.584	32.09
563.925	32.43
564.266	32.65
564.607	32.96
564.948	33.2
565.289	33.44
565.63	33.71
565.971	33.95
566.312	34.22
566.653	34.49
566.993	34.76
567.334	35.07
567.675	35.28
568.015	35.56
568.356	35.75
568.696	36
569.037	36.21
569.377	36.49
569.718	36.72
570.058	36.93
570.398	37.18
570.739	37.46
571.079	37.64
571.419	37.87
571.759	38.11
572.099	38.36
572.439	38.63
572.779	38.88
573.119	39.07
573.459	39.32
573.799	39.53
574.139	39.77
574.479	39.92
574.819	40.19
575.158	40.41
575.498	40.68
575.838	40.88
576.177	41.13
576.517	41.38
576.856	41.62
577.196	41.9
577.535	42.08
577.875	42.28
578.214	42.64
578.553	42.92
578.893	43.23
579.232	43.54
579.571	43.83
579.91	44.06
580.25	44.34
580.589	44.52
580.928	44.77
581.267	45.05
581.606	45.39
581.945	45.65
582.283	45.88
582.622	46.13
582.961	46.42
583.3	46.63
583.639	46.86
583.977	47.12
584.316	47.35
584.654	47.57
584.993	47.73
585.332	47.91
585.67	48.1
586.008	48.24
586.347	48.38
586.685	48.44
587.024	48.67
587.362	48.87
587.7	49.12
588.038	49.26
588.376	49.41
588.715	49.55
589.053	49.65
589.391	49.89
589.729	49.95
590.067	50.08
590.404	50.19
590.742	50.37
591.08	50.54
591.418	50.65
591.756	50.89
592.093	51
592.431	51.03
592.769	51.22
593.106	51.33
593.444	51.48
593.781	51.64
594.119	51.81
594.456	51.95
594.793	52.05
595.131	52.18
595.468	52.25
595.805	52.39
596.143	52.61
596.48	52.6
596.817	52.78
597.154	52.94
597.491	53.1
597.828	53.25
598.165	53.36
598.502	53.5
598.839	53.65
599.176	53.84
599.512	54.08
599.849	54.2
600.186	54.3
600.523	54.48
600.859	54.67
601.196	54.86
601.532	54.93
601.869	55.11
602.205	55.19
602.542	55.31
602.878	55.36
603.215	55.41
603.551	55.58
603.887	55.68
604.223	55.82
604.56	55.89
604.896	55.9
605.232	55.91
605.568	55.98
605.904	55.93
606.24	56.04
606.576	56.14
606.912	56.22
607.248	56.3
607.583	56.32
607.919	56.45
608.255	56.45
608.591	56.61
608.926	56.74
609.262	56.87
609.597	57.01
609.933	57.13
610.268	57.19
610.604	57.25
610.939	57.34
611.275	57.29
611.61	57.45
611.945	57.53
612.281	57.68
612.616	57.77
612.951	57.94
613.286	58.09
613.621	58.19
613.956	58.32
614.291	58.51
614.626	58.59
614.961	58.6
615.296	58.76
615.631	58.78
615.966	58.8
616.3	58.84
616.635	58.84
616.97	58.96
617.304	59.05
617.639	59.14
617.973	59.28
618.308	59.34
618.642	59.39
618.977	59.4
619.311	59.41
619.646	59.51
619.98	59.61
620.314	59.58
620.648	59.52
620.983	59.61
621.317	59.76
621.651	59.89
621.985	59.99
622.319	59.97
622.653	60.04
622.987	60.1
623.321	60.14
623.655	60.28
623.988	60.25
624.322	60.31
624.656	60.33
624.99	60.27
625.323	60.47
625.657	60.35
625.99	60.39
626.324	60.55
626.657	60.57
626.991	60.56
627.324	60.64
627.658	60.75
627.991	60.72
628.324	60.55
628.657	60.57
628.991	60.53
629.324	60.69
629.657	60.69
629.99	60.66
630.323	60.75
630.656	60.73
630.989	60.81
631.322	60.83
631.655	60.93
631.987	61.07
632.32	61.04
632.653	61.2
632.986	61.31
633.318	61.32
633.651	61.4
633.984	61.43
634.316	61.5
634.649	61.54
634.981	61.64
635.313	61.82
635.646	61.83
635.978	61.88
636.31	61.78
636.643	61.94
636.975	61.99
637.307	61.99
637.639	61.96
637.971	61.92
638.303	61.99
638.635	62.06
638.967	62.08
639.299	62.09
639.631	62.13
639.963	62.2
640.295	62.17
640.626	62.27
640.958	62.35
641.29	62.37
641.621	62.44
641.953	62.48
642.285	62.62
642.616	62.66
642.948	62.82
643.279	62.93
643.61	62.84
643.942	62.94
644.273	63.09
644.604	63.21
644.936	63.34
645.267	63.32
645.598	63.13
645.929	63.02
646.26	62.98
646.591	63.12
646.922	63.16
647.253	63.15
647.584	63.12
647.915	63.15
648.245	63.11
648.576	63.08
648.907	63.03
649.238	63
649.568	63.07
649.899	63.01
650.229	63.01
650.56	63.12
650.89	63.15
651.221	63.02
651.551	63.07
651.882	63.09
652.212	63.1
652.542	63.28
652.872	63.3
653.203	63.37
653.533	63.33
653.863	63.29
654.193	63.35
654.523	63.37
654.853	63.38
655.183	63.35
655.513	63.37
655.843	63.46
656.172	63.37
656.502	63.31
656.832	63.34
657.162	63.36
657.491	63.27
657.821	63.14
658.15	63.22
658.48	63.1
658.809	63.05
659.139	63.01
659.468	63
659.798	63.09
660.127	63.2
660.456	63.21
660.785	63.24
661.115	63.29
661.444	63.27
661.773	63.28
662.102	63.36
662.431	63.35
662.76	63.33
663.089	63.41
663.418	63.42
663.747	63.54
664.076	63.46
664.404	63.48
664.733	63.62
665.062	63.65
665.39	63.79
665.719	63.87
666.048	63.96
666.376	64.01
666.705	63.96
667.033	63.79
667.362	63.86
667.69	63.8
668.018	63.66
668.347	63.61
