Data from BA17726_Reflection_00008.txt Node
Date: Tue Nov 19 11:57:05 EST 2019
User: vgr7
Spectrometer: USB2G7710
Scans to average: 3
Trigger mode: 4
Integration Time (sec): 2.000000E-2
Electric dark correction enabled: true
Boxcar width: 10
XAxis mode: Wavelengths
Number of Pixels in Spectrum: 2048
>>>>>Begin Spectral Data<<<<<
177.721	81.96
178.105	134.09
178.488	16.47
178.871	-3.85
179.254	-48.39
179.636	-16.38
180.019	-15.09
180.402	41.67
180.785	126.09
181.168	14.98
181.55	32.77
181.933	100
182.316	-72.41
182.698	81.13
183.081	27.93
183.463	114.49
183.846	3.23
184.228	-79.49
184.611	-0.48
184.993	18.92
185.376	6.83
185.758	37.24
186.14	70.73
186.522	12.81
186.904	1.49
187.287	-2.88
187.669	48.84
188.051	71.1
188.433	3100
188.815	45.95
189.197	-37.93
189.579	-211.48
189.961	-114.88
190.342	-53.37
190.724	-293.44
191.106	675.76
191.488	-726.09
191.869	-50.26
192.251	-24.26
192.633	-25.63
193.014	-16.88
193.396	21.26
193.777	31.51
194.159	20.86
194.54	17.71
194.922	11.19
195.303	2.33
195.684	-21.11
196.065	-33.03
196.447	-13.67
196.828	-10.57
197.209	-12.8
197.59	-2.07
197.971	-4.81
198.352	-13.44
198.733	-20.19
199.114	-19.7
199.495	-27.52
199.876	-39.93
200.257	-37.05
200.638	-37.78
201.018	-44.69
201.399	-56.29
201.78	-77.66
202.16	-82.07
202.541	-86.83
202.922	-87.6
203.302	-90.27
203.683	-88.08
204.063	-88.97
204.444	-100.86
204.824	-97.32
205.204	-92.93
205.585	-108.96
205.965	-119.55
206.345	-117.39
206.725	-103.04
207.106	-88.28
207.486	-91.58
207.866	-53.85
208.246	-57.8
208.626	-75.17
209.006	-71.31
209.386	-53.7
209.766	-40.54
210.145	-27.5
210.525	-28.67
210.905	-34.54
211.285	-28.59
211.664	-9.8
212.044	-0.4
212.424	-3.59
212.803	6.51
213.183	-2.26
213.562	14.84
213.942	19.69
214.321	10.98
214.701	12.16
215.08	11.04
215.459	9.25
215.838	-8.53
216.218	-8.23
216.597	-7.55
216.976	-10.62
217.355	-16.97
217.734	-17.86
218.113	-20.62
218.492	-20.29
218.871	-18.22
219.25	-18.8
219.629	-23.61
220.008	-22.72
220.387	-14.08
220.766	-15.8
221.144	-15.41
221.523	-17.88
221.902	-19.18
222.28	-19.84
222.659	-13.12
223.037	-7.78
223.416	-7.27
223.794	-0.35
224.173	-0.84
224.551	-2.19
224.929	-4.68
225.308	0.16
225.686	2
226.064	-0.76
226.442	1.2
226.821	1.97
227.199	4.1
227.577	6.74
227.955	6.21
228.333	3.14
228.711	4.66
229.089	1.28
229.467	0.52
229.845	0.32
230.222	5.23
230.6	4.22
230.978	0.03
231.356	1.2
231.733	3.24
232.111	2.92
232.488	2.72
232.866	5.29
233.243	4.46
233.621	3.88
233.998	5.11
234.376	4.52
234.753	5
235.13	4.82
235.508	4.77
235.885	4.71
236.262	3.69
236.639	3.17
237.016	2.44
237.393	3.22
237.77	4.51
238.147	3.62
238.524	3.87
238.901	4.51
239.278	3.12
239.655	2.85
240.032	2.25
240.409	2.73
240.785	2.98
241.162	2.78
241.539	2.55
241.915	2.65
242.292	2.94
242.668	3.18
243.045	3.53
243.421	4.08
243.798	4.27
244.174	4.77
244.551	4.89
244.927	4.93
245.303	4.85
245.679	4.93
246.056	5.04
246.432	5.05
246.808	5.37
247.184	5.64
247.56	5.79
247.936	6.19
248.312	6.53
248.688	6.54
249.064	6.52
249.44	6.67
249.815	6.79
250.191	6.85
250.567	6.57
250.943	6.67
251.318	6.33
251.694	6.56
252.069	6.61
252.445	6.75
252.82	7.27
253.196	7.46
253.571	7.39
253.947	7.25
254.322	6.98
254.697	6.55
255.073	6.53
255.448	6.3
255.823	6.15
256.198	5.66
256.573	5.63
256.948	5.83
257.323	5.98
257.698	5.98
258.073	6.11
258.448	6.33
258.823	6.08
259.198	6.22
259.573	5.99
259.948	5.98
260.322	5.76
260.697	5.81
261.072	5.72
261.446	5.69
261.821	5.62
262.195	5.73
262.57	5.92
262.944	5.86
263.319	5.92
263.693	6.01
264.067	6.17
264.442	6.03
264.816	5.79
265.19	5.39
265.564	5.21
265.938	5.07
266.313	4.86
266.687	4.87
267.061	4.87
267.435	5.05
267.809	4.88
268.183	5.06
268.556	5.06
268.93	5.28
269.304	5.14
269.678	5.23
270.051	5.24
270.425	5.22
270.799	5.08
271.172	5.05
271.546	5.06
271.919	4.97
272.293	4.98
272.666	5.07
273.04	5.32
273.413	5.4
273.787	5.32
274.16	5.47
274.533	5.58
274.906	5.51
275.279	5.31
275.653	5.51
276.026	5.39
276.399	5.15
276.772	5.07
277.145	5.07
277.518	4.9
277.891	4.91
278.263	4.84
278.636	5.15
279.009	5.18
279.382	5.07
279.755	5.17
280.127	5.23
280.5	5.18
280.872	5.17
281.245	5.27
281.617	5.31
281.99	5.42
282.362	5.25
282.735	5.29
283.107	5.42
283.479	5.38
283.852	5.37
284.224	5.57
284.596	5.53
284.968	5.6
285.34	5.7
285.713	5.81
286.085	5.8
286.457	5.73
286.829	5.68
287.201	5.67
287.572	5.73
287.944	5.85
288.316	6.15
288.688	6.17
289.06	6.09
289.431	6.22
289.803	6.06
290.175	6.25
290.546	6.26
290.918	6.25
291.289	6.19
291.661	6.36
292.032	6.46
292.403	6.37
292.775	6.54
293.146	6.76
293.517	6.71
293.889	6.96
294.26	7.05
294.631	7.21
295.002	7.36
295.373	7.3
295.744	7.33
296.115	7.37
296.486	7.52
296.857	7.79
297.228	7.82
297.599	7.86
297.97	7.93
298.34	8.07
298.711	8.17
299.082	8.37
299.452	8.43
299.823	8.34
300.194	8.54
300.564	8.6
300.935	8.65
301.305	8.75
301.676	8.74
302.046	8.78
302.416	8.76
302.787	8.76
303.157	8.86
303.527	9.09
303.897	9
304.267	8.92
304.637	9.07
305.008	9.13
305.378	9.45
305.748	9.43
306.117	9.48
306.487	9.78
306.857	9.68
307.227	9.9
307.597	10.09
307.967	10.23
308.336	10.14
308.706	10.15
309.076	10.32
309.445	10.54
309.815	10.59
310.184	10.83
310.554	11.01
310.923	11.22
311.293	11.18
311.662	11.3
312.031	11.65
312.401	11.54
312.77	11.56
313.139	11.52
313.508	11.72
313.877	11.87
314.246	11.77
314.616	11.98
314.985	12.01
315.353	12.06
315.722	12.16
316.091	12.27
316.46	12.47
316.829	12.56
317.198	12.51
317.567	12.8
317.935	12.92
318.304	13.26
318.672	13.32
319.041	13.35
319.41	13.37
319.778	13.08
320.147	13.22
320.515	13.42
320.883	13.44
321.252	13.39
321.62	13.34
321.988	13.5
322.357	13.85
322.725	13.93
323.093	14.07
323.461	14.12
323.829	14.28
324.197	14.24
324.565	14.28
324.933	14.14
325.301	13.97
325.669	13.91
326.037	13.84
326.405	13.98
326.772	14.09
327.14	14.12
327.508	14.29
327.875	14.31
328.243	14.39
328.61	14.46
328.978	14.7
329.346	14.71
329.713	14.91
330.08	14.88
330.448	14.83
330.815	14.85
331.182	14.97
331.55	15.07
331.917	15.05
332.284	15.13
332.651	15.44
333.018	15.68
333.385	15.88
333.752	15.87
334.119	15.68
334.486	15.75
334.853	15.73
335.22	15.61
335.587	15.51
335.954	15.37
336.32	15.38
336.687	15.29
337.054	15.39
337.42	15.16
337.787	14.97
338.153	14.96
338.52	14.99
338.886	15.06
339.253	15.16
339.619	15.32
339.986	15.28
340.352	15.2
340.718	15.13
341.084	15.12
341.451	15.3
341.817	15.56
342.183	15.7
342.549	15.75
342.915	15.89
343.281	16
343.647	16.15
344.013	16.31
344.379	16.38
344.745	16.4
345.11	16.44
345.476	16.47
345.842	16.58
346.208	16.63
346.573	16.61
346.939	16.6
347.304	16.71
347.67	16.75
348.035	16.86
348.401	16.88
348.766	16.74
349.132	16.69
349.497	16.58
349.862	16.47
350.228	16.47
350.593	16.55
350.958	16.69
351.323	16.71
351.688	16.66
352.053	16.62
352.418	16.65
352.783	16.71
353.148	16.8
353.513	16.81
353.878	16.75
354.243	16.64
354.608	16.63
354.972	16.54
355.337	16.56
355.702	16.48
356.066	16.59
356.431	16.61
356.795	16.49
357.16	16.48
357.524	16.51
357.889	16.56
358.253	16.47
358.618	16.44
358.982	16.4
359.346	16.39
359.71	16.35
360.075	16.39
360.439	16.41
360.803	16.36
361.167	16.3
361.531	16.33
361.895	16.35
362.259	16.31
362.623	16.24
362.987	16.16
363.351	16.16
363.714	16.1
364.078	16.1
364.442	16.12
364.806	16.09
365.169	16
365.533	15.94
365.896	15.95
366.26	15.84
366.623	15.78
366.987	15.69
367.35	15.69
367.714	15.55
368.077	15.55
368.44	15.48
368.803	15.39
369.167	15.32
369.53	15.3
369.893	15.25
370.256	15.17
370.619	15.1
370.982	15.05
371.345	14.98
371.708	14.88
372.071	14.79
372.434	14.7
372.797	14.65
373.159	14.52
373.522	14.35
373.885	14.38
374.247	14.29
374.61	14.27
374.973	14.26
375.335	14.2
375.698	14.01
376.06	13.99
376.423	13.95
376.785	13.77
377.147	13.6
377.51	13.5
377.872	13.49
378.234	13.41
378.596	13.29
378.958	13.21
379.321	13.16
379.683	13.1
380.045	13.05
380.407	13
380.769	12.97
381.13	12.97
381.492	12.85
381.854	12.73
382.216	12.66
382.578	12.53
382.939	12.46
383.301	12.39
383.663	12.27
384.024	12.22
384.386	12.28
384.747	12.27
385.109	12.24
385.47	12.19
385.832	12.2
386.193	12.15
386.554	12.02
386.916	11.96
387.277	11.84
387.638	11.78
387.999	11.67
388.36	11.6
388.721	11.56
389.082	11.53
389.443	11.55
389.804	11.51
390.165	11.4
390.526	11.34
390.887	11.33
391.248	11.28
391.609	11.19
391.969	11.1
392.33	11.01
392.691	10.96
393.051	10.83
393.412	10.82
393.772	10.73
394.133	10.72
394.493	10.66
394.854	10.67
395.214	10.6
395.574	10.57
395.935	10.5
396.295	10.4
396.655	10.34
397.015	10.25
397.376	10.15
397.736	10.09
398.096	10.02
398.456	9.91
398.816	9.84
399.176	9.73
399.535	9.67
399.895	9.61
400.255	9.51
400.615	9.47
400.975	9.32
401.334	9.2
401.694	9.14
402.054	9.09
402.413	8.98
402.773	8.93
403.132	8.9
403.492	8.85
403.851	8.78
404.211	8.66
404.57	8.61
404.929	8.52
405.288	8.49
405.648	8.43
406.007	8.39
406.366	8.38
406.725	8.37
407.084	8.34
407.443	8.3
407.802	8.28
408.161	8.25
408.52	8.25
408.879	8.28
409.238	8.24
409.596	8.15
409.955	8.14
410.314	8.07
410.673	8.02
411.031	8
411.39	8.03
411.748	8.03
412.107	8
412.465	8.01
412.824	7.96
413.182	7.92
413.54	7.89
413.899	7.8
414.257	7.78
414.615	7.74
414.974	7.71
415.332	7.67
415.69	7.6
416.048	7.56
416.406	7.52
416.764	7.44
417.122	7.47
417.48	7.43
417.838	7.4
418.195	7.37
418.553	7.31
418.911	7.22
419.269	7.18
419.626	7.17
419.984	7.12
420.342	7.11
420.699	7.07
421.057	7.04
421.414	7.02
421.772	6.98
422.129	6.92
422.486	6.88
422.844	6.86
423.201	6.85
423.558	6.82
423.915	6.79
424.273	6.77
424.63	6.74
424.987	6.71
425.344	6.7
425.701	6.67
426.058	6.66
426.415	6.66
426.772	6.63
427.128	6.58
427.485	6.56
427.842	6.51
428.199	6.5
428.555	6.47
428.912	6.43
429.269	6.41
429.625	6.42
429.982	6.4
430.338	6.36
430.695	6.33
431.051	6.29
431.407	6.29
431.764	6.27
432.12	6.24
432.476	6.24
432.832	6.22
433.189	6.19
433.545	6.18
433.901	6.18
434.257	6.18
434.613	6.19
434.969	6.18
435.325	6.19
435.681	6.17
436.036	6.17
436.392	6.17
436.748	6.16
437.104	6.16
437.459	6.17
437.815	6.18
438.171	6.18
438.526	6.18
438.882	6.17
439.237	6.15
439.593	6.16
439.948	6.16
440.304	6.16
440.659	6.15
441.014	6.15
441.369	6.14
441.725	6.12
442.08	6.09
442.435	6.08
442.79	6.08
443.145	6.08
443.5	6.05
443.855	6.05
444.21	6.03
444.565	6.01
444.92	6.01
445.275	5.98
445.629	5.96
445.984	5.94
446.339	5.91
446.693	5.92
447.048	5.88
447.403	5.85
447.757	5.81
448.112	5.8
448.466	5.78
448.82	5.76
449.175	5.75
449.529	5.73
449.883	5.7
450.238	5.67
450.592	5.66
450.946	5.64
451.3	5.62
451.654	5.6
452.008	5.58
452.362	5.52
452.716	5.52
453.07	5.5
453.424	5.53
453.778	5.5
454.132	5.47
454.486	5.47
454.839	5.47
455.193	5.49
455.547	5.48
455.9	5.51
456.254	5.48
456.607	5.5
456.961	5.52
457.314	5.56
457.668	5.56
458.021	5.55
458.375	5.57
458.728	5.58
459.081	5.6
459.434	5.61
459.787	5.65
460.141	5.68
460.494	5.69
460.847	5.67
461.2	5.69
461.553	5.74
461.906	5.77
462.259	5.78
462.611	5.79
462.964	5.82
463.317	5.83
463.67	5.87
464.022	5.89
464.375	5.91
464.728	5.9
465.08	5.93
465.433	5.97
465.785	6
466.138	6.03
466.49	6.09
466.843	6.13
467.195	6.14
467.547	6.12
467.899	6.17
468.252	6.2
468.604	6.22
468.956	6.22
469.308	6.19
469.66	6.23
470.012	6.24
470.364	6.25
470.716	6.27
471.068	6.29
471.42	6.31
471.772	6.33
472.123	6.34
472.475	6.36
472.827	6.35
473.178	6.35
473.53	6.36
473.882	6.36
474.233	6.31
474.585	6.32
474.936	6.34
475.288	6.34
475.639	6.36
475.99	6.36
476.342	6.35
476.693	6.34
477.044	6.32
477.395	6.32
477.746	6.3
478.097	6.29
478.448	6.28
478.8	6.26
479.15	6.23
479.501	6.23
479.852	6.23
480.203	6.22
480.554	6.21
480.905	6.21
481.255	6.19
481.606	6.2
481.957	6.19
482.307	6.19
482.658	6.19
483.009	6.19
483.359	6.19
483.709	6.2
484.06	6.23
484.41	6.24
484.761	6.24
485.111	6.24
485.461	6.24
485.811	6.25
486.162	6.27
486.512	6.28
486.862	6.29
487.212	6.3
487.562	6.32
487.912	6.34
488.262	6.34
488.612	6.37
488.961	6.39
489.311	6.42
489.661	6.45
490.011	6.46
490.36	6.47
490.71	6.49
491.06	6.52
491.409	6.53
491.759	6.57
492.108	6.6
492.458	6.64
492.807	6.68
493.157	6.7
493.506	6.71
493.855	6.76
494.204	6.79
494.554	6.82
494.903	6.89
495.252	6.94
495.601	7.03
495.95	7.05
496.299	7.1
496.648	7.14
496.997	7.2
497.346	7.25
497.695	7.32
498.043	7.39
498.392	7.44
498.741	7.53
499.09	7.6
499.438	7.67
499.787	7.76
500.135	7.81
500.484	7.9
500.832	8.01
501.181	8.1
501.529	8.2
501.878	8.31
502.226	8.4
502.574	8.49
502.923	8.56
503.271	8.67
503.619	8.77
503.967	8.89
504.315	9
504.663	9.13
505.011	9.28
505.359	9.39
505.707	9.5
506.055	9.58
506.403	9.68
506.751	9.79
507.098	9.9
507.446	10.05
507.794	10.17
508.141	10.32
508.489	10.44
508.837	10.56
509.184	10.69
509.531	10.82
509.879	10.96
510.226	11.08
510.574	11.23
510.921	11.4
511.268	11.52
511.616	11.68
511.963	11.82
512.31	11.95
512.657	12.11
513.004	12.24
513.351	12.42
513.698	12.56
514.045	12.72
514.392	12.91
514.739	13.04
515.086	13.23
515.432	13.39
515.779	13.58
516.126	13.76
516.473	13.93
516.819	14.08
517.166	14.23
517.512	14.39
517.859	14.52
518.205	14.65
518.552	14.82
518.898	14.96
519.245	15.12
519.591	15.25
519.937	15.4
520.283	15.59
520.629	15.78
520.976	16
521.322	16.23
521.668	16.41
522.014	16.67
522.36	16.83
522.706	17.03
523.052	17.27
523.398	17.5
523.743	17.76
524.089	18.02
524.435	18.27
524.781	18.54
525.126	18.77
525.472	19
525.817	19.18
526.163	19.37
526.509	19.53
526.854	19.73
527.199	19.88
527.545	20.04
527.89	20.2
528.235	20.36
528.581	20.51
528.926	20.67
529.271	20.82
529.616	21.03
529.961	21.22
530.306	21.39
530.651	21.58
530.996	21.77
531.341	21.99
531.686	22.2
532.031	22.41
532.376	22.64
532.721	22.85
533.065	23.1
533.41	23.36
533.755	23.62
534.099	23.86
534.444	24.11
534.788	24.36
535.133	24.65
535.477	24.92
535.822	25.22
536.166	25.54
536.51	25.87
536.855	26.23
537.199	26.54
537.543	26.92
537.887	27.28
538.231	27.66
538.576	28.04
538.92	28.4
539.264	28.73
539.608	29.03
539.951	29.34
540.295	29.64
540.639	29.89
540.983	30.17
541.327	30.44
541.671	30.75
542.014	31.02
542.358	31.25
542.701	31.51
543.045	31.75
543.389	32.01
543.732	32.29
544.075	32.55
544.419	32.86
544.762	33.1
545.105	33.39
545.449	33.66
545.792	33.93
546.135	34.29
546.478	34.63
546.821	35.05
547.165	35.43
547.508	35.71
547.851	36.05
548.194	36.39
548.536	36.75
548.879	37.09
549.222	37.44
549.565	37.84
549.908	38.15
550.25	38.56
550.593	38.89
550.936	39.24
551.278	39.54
551.621	39.89
551.963	40.28
552.306	40.59
552.648	40.9
552.991	41.3
553.333	41.55
553.675	41.86
554.017	42.1
554.36	42.38
554.702	42.79
555.044	43.16
555.386	43.54
555.728	43.86
556.07	44.15
556.412	44.54
556.754	44.82
557.096	45.19
557.438	45.48
557.78	45.83
558.121	46.19
558.463	46.56
558.805	46.88
559.147	47.24
559.488	47.6
559.83	47.95
560.171	48.19
560.513	48.44
560.854	48.79
561.196	49.13
561.537	49.39
561.878	49.7
562.22	49.99
562.561	50.25
562.902	50.52
563.243	50.86
563.584	51.08
563.925	51.31
564.266	51.49
564.607	51.78
564.948	52
565.289	52.18
565.63	52.35
565.971	52.53
566.312	52.73
566.653	52.95
566.993	53.15
567.334	53.43
567.675	53.69
568.015	53.86
568.356	54.11
568.696	54.34
569.037	54.53
569.377	54.73
569.718	54.91
570.058	55.06
570.398	55.23
570.739	55.4
571.079	55.65
571.419	55.85
571.759	55.99
572.099	56.24
572.439	56.44
572.779	56.67
573.119	56.86
573.459	57.04
573.799	57.19
574.139	57.42
574.479	57.56
574.819	57.79
575.158	57.99
575.498	58.09
575.838	58.24
576.177	58.36
576.517	58.53
576.856	58.76
577.196	58.99
577.535	59.1
577.875	59.26
578.214	59.37
578.553	59.6
578.893	59.84
579.232	59.98
579.571	60.1
579.91	60.2
580.25	60.37
580.589	60.53
580.928	60.65
581.267	60.74
581.606	60.84
581.945	60.96
582.283	61.16
582.622	61.36
582.961	61.57
583.3	61.76
583.639	61.87
583.977	61.95
584.316	62.05
584.654	62.14
584.993	62.28
585.332	62.39
585.67	62.52
586.008	62.61
586.347	62.66
586.685	62.77
587.024	62.93
587.362	63.05
587.7	63.09
588.038	63.29
588.376	63.46
588.715	63.6
589.053	63.61
589.391	63.61
589.729	63.67
590.067	63.71
590.404	63.76
590.742	63.95
591.08	64.02
591.418	64.11
591.756	64.34
592.093	64.37
592.431	64.47
592.769	64.53
593.106	64.58
593.444	64.69
593.781	64.76
594.119	64.86
594.456	64.84
594.793	65.02
595.131	65.06
595.468	65.05
595.805	65.13
596.143	65.3
596.48	65.33
596.817	65.42
597.154	65.5
597.491	65.7
597.828	65.74
598.165	65.84
598.502	65.93
598.839	65.89
599.176	66.04
599.512	66.14
599.849	66.27
600.186	66.27
600.523	66.33
600.859	66.47
601.196	66.58
601.532	66.69
601.869	66.7
602.205	66.75
602.542	66.83
602.878	66.83
603.215	66.82
603.551	66.96
603.887	67.05
604.223	67.11
604.56	67
604.896	67
605.232	67.06
605.568	67.08
605.904	67.18
606.24	67.17
606.576	67.26
606.912	67.29
607.248	67.45
607.583	67.55
607.919	67.63
608.255	67.55
608.591	67.64
608.926	67.72
609.262	67.62
609.597	67.74
609.933	67.84
610.268	67.9
610.604	67.9
610.939	67.88
611.275	67.83
611.61	67.93
611.945	67.93
612.281	67.92
612.616	68.02
612.951	68.06
613.286	68.15
613.621	68.18
613.956	68.1
614.291	67.99
614.626	67.91
614.961	67.86
615.296	68.02
615.631	68.02
615.966	68.11
616.3	68.26
616.635	68.09
616.97	68.03
617.304	68.11
617.639	68.12
617.973	68.17
618.308	68.27
618.642	68.29
618.977	68.23
619.311	68.28
619.646	68.31
619.98	68.36
620.314	68.43
620.648	68.43
620.983	68.51
621.317	68.72
621.651	68.87
621.985	68.93
622.319	68.95
622.653	68.99
622.987	69.05
623.321	69.13
623.655	69.22
623.988	69.35
624.322	69.44
624.656	69.53
624.99	69.44
625.323	69.58
625.657	69.54
625.99	69.67
626.324	69.73
626.657	69.73
626.991	69.67
627.324	69.66
627.658	69.71
627.991	69.73
628.324	69.6
628.657	69.64
628.991	69.66
629.324	69.7
629.657	69.67
629.99	69.62
630.323	69.67
630.656	69.65
630.989	69.56
631.322	69.54
631.655	69.49
631.987	69.64
632.32	69.53
632.653	69.62
632.986	69.66
633.318	69.63
633.651	69.68
633.984	69.77
634.316	69.78
634.649	69.81
634.981	69.86
635.313	70.03
635.646	69.99
635.978	69.95
636.31	69.87
636.643	69.88
636.975	69.87
637.307	69.97
637.639	70.04
637.971	70.13
638.303	70.04
638.635	70.13
638.967	70.08
639.299	70.11
639.631	70.1
639.963	70.16
640.295	70.23
640.626	70.1
640.958	70.17
641.29	70.23
641.621	70.28
641.953	70.22
642.285	70.15
642.616	70.1
642.948	70.12
643.279	70.18
643.61	70.19
643.942	70.25
644.273	70.14
644.604	70.27
644.936	70.3
645.267	70.29
645.598	70.12
645.929	70.02
646.26	70.02
646.591	70.08
646.922	70.11
647.253	70.02
647.584	70.07
647.915	70.02
648.245	70.02
648.576	69.93
648.907	70.05
649.238	70.03
649.568	70.13
649.899	70.18
650.229	70.16
650.56	70.25
650.89	70.1
651.221	70.1
651.551	70.02
651.882	70.12
652.212	70.06
652.542	70.23
652.872	70.33
653.203	70.43
653.533	70.5
653.863	70.38
654.193	70.47
654.523	70.47
654.853	70.64
655.183	70.65
655.513	70.7
655.843	70.75
656.172	70.76
656.502	70.79
656.832	70.95
657.162	71.05
657.491	70.96
657.821	71.06
658.15	71.09
658.48	71.09
658.809	71.04
659.139	71.05
659.468	70.97
659.798	71.03
660.127	71.01
660.456	70.89
660.785	70.91
661.115	70.83
661.444	70.85
661.773	70.73
662.102	70.64
662.431	70.65
