Data from BA17724_Reflection_00001.txt Node
Date: Tue Nov 19 11:57:44 EST 2019
User: vgr7
Spectrometer: USB2G7710
Scans to average: 3
Trigger mode: 4
Integration Time (sec): 2.000000E-2
Electric dark correction enabled: true
Boxcar width: 10
XAxis mode: Wavelengths
Number of Pixels in Spectrum: 2048
>>>>>Begin Spectral Data<<<<<
177.721	168.58
178.105	276.83
178.488	126.39
178.871	67.05
179.254	50
179.636	2261.29
180.019	112.2
180.402	78.79
180.785	328.57
181.168	125.4
181.55	467.19
181.933	235.94
182.316	119.03
182.698	66.43
183.081	113.81
183.463	104.67
183.846	280.98
184.228	367.72
184.611	11600
184.993	1880
185.376	-832.2
185.758	13475
186.14	557.69
186.522	1301.49
186.904	2487.5
187.287	406.32
187.669	275
188.051	289.6
188.433	202.68
188.815	207.73
189.197	241.62
189.579	202.39
189.961	260.84
190.342	393.72
190.724	409.73
191.106	293.49
191.488	277.24
191.869	315.03
192.251	168.97
192.633	102.28
193.014	179.11
193.396	74.77
193.777	146.96
194.159	33.16
194.54	-80.15
194.922	-14.86
195.303	312.5
195.684	676.09
196.065	-839.02
196.447	-575.32
196.828	890.7
197.209	-765.85
197.59	-495.74
197.971	93.42
198.352	-65.29
198.733	90.1
199.114	194.67
199.495	173.98
199.876	93.42
200.257	343.8
200.638	3231.58
201.018	299.44
201.399	4006.25
201.78	277.88
202.16	320
202.541	286.97
202.922	198.81
203.302	112.54
203.683	73.24
204.063	55.06
204.444	86.64
204.824	392.86
205.204	326.56
205.585	992.86
205.965	-109.91
206.345	-143.77
206.725	-22.28
207.106	13.48
207.486	-8.26
207.866	-1.13
208.246	11.41
208.626	7.33
209.006	13.7
209.386	2.37
209.766	-27.68
210.145	-32.79
210.525	-21.38
210.905	-46.31
211.285	-41.52
211.664	-27.22
212.044	-39.89
212.424	-45.61
212.803	-49.24
213.183	-61.88
213.562	-53.48
213.942	-80.27
214.321	-93.95
214.701	-150.8
215.08	-165.78
215.459	-122.05
215.838	-161.73
216.218	-127.48
216.597	-74.45
216.976	-90.29
217.355	-82.66
217.734	-86.93
218.113	-83.37
218.492	-93.4
218.871	-60.26
219.25	-72.63
219.629	-125.28
220.008	-126.98
220.387	-125.61
220.766	-61.42
221.144	-55.58
221.523	-67.61
221.902	-55.46
222.28	-27.71
222.659	-3.97
223.037	0.68
223.416	2.13
223.794	4.25
224.173	11.67
224.551	4.17
224.929	-2.08
225.308	-2.58
225.686	-1.63
226.064	-1.85
226.442	-6.6
226.821	-10.25
227.199	-3.01
227.577	1.57
227.955	-0.61
228.333	-1.14
228.711	-5.19
229.089	-2.68
229.467	-1.33
229.845	0.5
230.222	0.98
230.6	0.16
230.978	-1.28
231.356	-2.69
231.733	-1.43
232.111	-3.29
232.488	-5.44
232.866	1.34
233.243	3.12
233.621	5.36
233.998	5.19
234.376	6.56
234.753	5.96
235.13	4.8
235.508	2.92
235.885	3.12
236.262	2.49
236.639	2.35
237.016	1.94
237.393	3.27
237.77	4.11
238.147	3.39
238.524	3.21
238.901	3.35
239.278	3.01
239.655	2.76
240.032	2.39
240.409	3.37
240.785	2.33
241.162	1.9
241.539	1.07
241.915	1.39
242.292	1.61
242.668	1.71
243.045	2.04
243.421	2.9
243.798	3.47
244.174	3.58
244.551	3.84
244.927	3.88
245.303	3.39
245.679	3.3
246.056	3.54
246.432	3.64
246.808	3.69
247.184	3.92
247.56	3.8
247.936	3.98
248.312	3.96
248.688	3.94
249.064	3.98
249.44	4.52
249.815	4.27
250.191	4.28
250.567	4.21
250.943	4.32
251.318	3.96
251.694	3.79
252.069	3.95
252.445	3.94
252.82	3.92
253.196	4.14
253.571	3.98
253.947	3.73
254.322	3.49
254.697	3.58
255.073	3.55
255.448	3.67
255.823	3.64
256.198	3.87
256.573	4.18
256.948	4.09
257.323	3.82
257.698	4.19
258.073	4.2
258.448	4.38
258.823	4.27
259.198	4.28
259.573	4.03
259.948	4.12
260.322	4.05
260.697	4.12
261.072	4.22
261.446	4.4
261.821	4.63
262.195	4.84
262.57	4.9
262.944	4.89
263.319	5.06
263.693	4.98
264.067	4.77
264.442	4.62
264.816	4.69
265.19	4.97
265.564	4.89
265.938	4.97
266.313	4.94
266.687	5.03
267.061	4.83
267.435	5.32
267.809	5.06
268.183	5.21
268.556	4.97
268.93	4.94
269.304	4.75
269.678	4.62
270.051	4.44
270.425	4.35
270.799	4.13
271.172	3.98
271.546	4.12
271.919	4.26
272.293	4.35
272.666	4.48
273.04	4.32
273.413	4.23
273.787	4.08
274.16	4.04
274.533	3.98
274.906	4.24
275.279	3.99
275.653	4.07
276.026	3.98
276.399	4.18
276.772	4.08
277.145	4.13
277.518	3.97
277.891	4.09
278.263	3.98
278.636	4.35
279.009	4.21
279.382	4
279.755	3.94
280.127	3.74
280.5	3.56
280.872	3.62
281.245	3.56
281.617	3.58
281.99	3.61
282.362	3.71
282.735	3.75
283.107	3.62
283.479	3.68
283.852	3.73
284.224	3.72
284.596	3.73
284.968	3.78
285.34	3.94
285.713	3.84
286.085	3.9
286.457	3.68
286.829	3.78
287.201	3.81
287.572	3.96
287.944	4.22
288.316	4.23
288.688	4.27
289.06	4.26
289.431	4.46
289.803	4.53
290.175	4.4
290.546	4.24
290.918	4.41
291.289	4.23
291.661	4.13
292.032	4.18
292.403	4.23
292.775	4.2
293.146	3.93
293.517	4.01
293.889	3.96
294.26	3.98
294.631	4.05
295.002	4.19
295.373	4.2
295.744	4.12
296.115	4.25
296.486	4.26
296.857	4.42
297.228	4.23
297.599	4.09
297.97	4.06
298.34	4.19
298.711	4.16
299.082	4.31
299.452	4.34
299.823	4.25
300.194	4.26
300.564	4.15
300.935	4.3
301.305	4.23
301.676	4.28
302.046	4.33
302.416	4.3
302.787	4.33
303.157	4.16
303.527	4.16
303.897	4.06
304.267	3.8
304.637	3.8
305.008	3.89
305.378	4.12
305.748	4.28
306.117	4.29
306.487	4.14
306.857	4.27
307.227	4.34
307.597	4.32
307.967	4.19
308.336	4.32
308.706	4.42
309.076	4.56
309.445	4.72
309.815	4.76
310.184	4.72
310.554	4.67
310.923	4.72
311.293	4.58
311.662	4.62
312.031	4.65
312.401	4.44
312.77	4.44
313.139	4.27
313.508	4.17
313.877	4.12
314.246	4.24
314.616	4.26
314.985	4.12
315.353	4.23
315.722	4.23
316.091	4.21
316.46	4.06
316.829	3.87
317.198	3.72
317.567	3.8
317.935	3.8
318.304	3.93
318.672	3.95
319.041	4.14
319.41	4.11
319.778	4.18
320.147	4.25
320.515	4.35
320.883	4.36
321.252	4.48
321.62	4.51
321.988	4.54
322.357	4.45
322.725	4.55
323.093	4.48
323.461	4.7
323.829	4.65
324.197	4.76
324.565	4.89
324.933	4.83
325.301	4.53
325.669	4.61
326.037	4.55
326.405	4.46
326.772	4.5
327.14	4.41
327.508	4.49
327.875	4.46
328.243	4.41
328.61	4.48
328.978	4.46
329.346	4.42
329.713	4.38
330.08	4.45
330.448	4.34
330.815	4.28
331.182	4.18
331.55	4.12
331.917	4.01
332.284	3.86
332.651	3.77
333.018	4.05
333.385	4.05
333.752	4.03
334.119	4.12
334.486	4.16
334.853	4.38
335.22	4.3
335.587	4.35
335.954	4.3
336.32	4.17
336.687	4.3
337.054	4.34
337.42	4.4
337.787	4.22
338.153	4.39
338.52	4.54
338.886	4.61
339.253	4.57
339.619	4.65
339.986	4.74
340.352	4.89
340.718	4.75
341.084	4.8
341.451	4.74
341.817	4.7
342.183	4.6
342.549	4.57
342.915	4.67
343.281	4.73
343.647	4.73
344.013	4.86
344.379	4.73
344.745	4.69
345.11	4.63
345.476	4.62
345.842	4.55
346.208	4.44
346.573	4.31
346.939	4.48
347.304	4.49
347.67	4.41
348.035	4.39
348.401	4.52
348.766	4.46
349.132	4.45
349.497	4.52
349.862	4.58
350.228	4.57
350.593	4.57
350.958	4.6
351.323	4.71
351.688	4.79
352.053	4.89
352.418	4.91
352.783	4.99
353.148	5.02
353.513	5.06
353.878	5.02
354.243	5.05
354.608	5.01
354.972	5.01
355.337	5.05
355.702	5.03
356.066	4.91
356.431	4.89
356.795	4.93
357.16	4.9
357.524	4.87
357.889	4.8
358.253	4.76
358.618	4.72
358.982	4.51
359.346	4.49
359.71	4.38
360.075	4.39
360.439	4.4
360.803	4.46
361.167	4.43
361.531	4.52
361.895	4.57
362.259	4.58
362.623	4.54
362.987	4.5
363.351	4.45
363.714	4.49
364.078	4.5
364.442	4.45
364.806	4.44
365.169	4.44
365.533	4.47
365.896	4.51
366.26	4.41
366.623	4.53
366.987	4.48
367.35	4.5
367.714	4.53
368.077	4.54
368.44	4.53
368.803	4.5
369.167	4.43
369.53	4.45
369.893	4.42
370.256	4.4
370.619	4.44
370.982	4.41
371.345	4.51
371.708	4.53
372.071	4.52
372.434	4.51
372.797	4.54
373.159	4.58
373.522	4.57
373.885	4.63
374.247	4.62
374.61	4.65
374.973	4.67
375.335	4.7
375.698	4.63
376.06	4.62
376.423	4.69
376.785	4.72
377.147	4.59
377.51	4.57
377.872	4.6
378.234	4.59
378.596	4.67
378.958	4.58
379.321	4.57
379.683	4.59
380.045	4.62
380.407	4.62
380.769	4.59
381.13	4.57
381.492	4.58
381.854	4.63
382.216	4.67
382.578	4.7
382.939	4.64
383.301	4.69
383.663	4.65
384.024	4.66
384.386	4.65
384.747	4.7
385.109	4.73
385.47	4.72
385.832	4.7
386.193	4.68
386.554	4.66
386.916	4.58
387.277	4.55
387.638	4.47
387.999	4.47
388.36	4.45
388.721	4.45
389.082	4.44
389.443	4.43
389.804	4.42
390.165	4.38
390.526	4.38
390.887	4.38
391.248	4.36
391.609	4.37
391.969	4.31
392.33	4.33
392.691	4.32
393.051	4.35
393.412	4.4
393.772	4.4
394.133	4.41
394.493	4.42
394.854	4.42
395.214	4.44
395.574	4.41
395.935	4.43
396.295	4.44
396.655	4.44
397.015	4.39
397.376	4.41
397.736	4.43
398.096	4.46
398.456	4.44
398.816	4.45
399.176	4.38
399.535	4.42
399.895	4.42
400.255	4.42
400.615	4.41
400.975	4.41
401.334	4.4
401.694	4.37
402.054	4.4
402.413	4.39
402.773	4.41
403.132	4.4
403.492	4.38
403.851	4.43
404.211	4.45
404.57	4.45
404.929	4.4
405.288	4.41
405.648	4.39
406.007	4.39
406.366	4.38
406.725	4.4
407.084	4.41
407.443	4.4
407.802	4.42
408.161	4.45
408.52	4.45
408.879	4.46
409.238	4.52
409.596	4.53
409.955	4.56
410.314	4.57
410.673	4.58
411.031	4.59
411.39	4.56
411.748	4.59
412.107	4.59
412.465	4.6
412.824	4.58
413.182	4.59
413.54	4.6
413.899	4.62
414.257	4.62
414.615	4.62
414.974	4.63
415.332	4.61
415.69	4.56
416.048	4.56
416.406	4.54
416.764	4.53
417.122	4.53
417.48	4.53
417.838	4.52
418.195	4.52
418.553	4.51
418.911	4.49
419.269	4.49
419.626	4.5
419.984	4.5
420.342	4.49
420.699	4.49
421.057	4.48
421.414	4.49
421.772	4.49
422.129	4.49
422.486	4.48
422.844	4.47
423.201	4.47
423.558	4.46
423.915	4.47
424.273	4.46
424.63	4.47
424.987	4.45
425.344	4.44
425.701	4.43
426.058	4.41
426.415	4.42
426.772	4.4
427.128	4.37
427.485	4.36
427.842	4.37
428.199	4.37
428.555	4.37
428.912	4.35
429.269	4.35
429.625	4.35
429.982	4.35
430.338	4.36
430.695	4.37
431.051	4.38
431.407	4.35
431.764	4.36
432.12	4.37
432.476	4.4
432.832	4.4
433.189	4.42
433.545	4.43
433.901	4.43
434.257	4.44
434.613	4.45
434.969	4.47
435.325	4.46
435.681	4.43
436.036	4.43
436.392	4.45
436.748	4.45
437.104	4.45
437.459	4.42
437.815	4.42
438.171	4.42
438.526	4.43
438.882	4.45
439.237	4.42
439.593	4.41
439.948	4.38
440.304	4.37
440.659	4.39
441.014	4.39
441.369	4.38
441.725	4.4
442.08	4.41
442.435	4.41
442.79	4.41
443.145	4.41
443.5	4.4
443.855	4.38
444.21	4.38
444.565	4.38
444.92	4.39
445.275	4.4
445.629	4.41
445.984	4.41
446.339	4.41
446.693	4.41
447.048	4.38
447.403	4.39
447.757	4.4
448.112	4.38
448.466	4.38
448.82	4.4
449.175	4.39
449.529	4.37
449.883	4.35
450.238	4.35
450.592	4.34
450.946	4.35
451.3	4.35
451.654	4.33
452.008	4.33
452.362	4.33
452.716	4.31
453.07	4.3
453.424	4.29
453.778	4.29
454.132	4.28
454.486	4.32
454.839	4.32
455.193	4.3
455.547	4.31
455.9	4.3
456.254	4.28
456.607	4.27
456.961	4.28
457.314	4.28
457.668	4.3
458.021	4.3
458.375	4.3
458.728	4.3
459.081	4.31
459.434	4.33
459.787	4.32
460.141	4.32
460.494	4.34
460.847	4.35
461.2	4.33
461.553	4.34
461.906	4.34
462.259	4.33
462.611	4.36
462.964	4.37
463.317	4.39
463.67	4.39
464.022	4.4
464.375	4.4
464.728	4.42
465.08	4.41
465.433	4.43
465.785	4.44
466.138	4.42
466.49	4.43
466.843	4.43
467.195	4.42
467.547	4.44
467.899	4.44
468.252	4.43
468.604	4.46
468.956	4.48
469.308	4.46
469.66	4.48
470.012	4.49
470.364	4.48
470.716	4.51
471.068	4.52
471.42	4.51
471.772	4.5
472.123	4.51
472.475	4.53
472.827	4.53
473.178	4.55
473.53	4.57
473.882	4.56
474.233	4.55
474.585	4.55
474.936	4.55
475.288	4.54
475.639	4.56
475.99	4.56
476.342	4.56
476.693	4.58
477.044	4.54
477.395	4.52
477.746	4.5
478.097	4.49
478.448	4.48
478.8	4.49
479.15	4.49
479.501	4.49
479.852	4.46
480.203	4.46
480.554	4.46
480.905	4.45
481.255	4.45
481.606	4.48
481.957	4.49
482.307	4.48
482.658	4.48
483.009	4.47
483.359	4.47
483.709	4.48
484.06	4.47
484.41	4.48
484.761	4.49
485.111	4.5
485.461	4.5
485.811	4.51
486.162	4.51
486.512	4.52
486.862	4.52
487.212	4.54
487.562	4.54
487.912	4.54
488.262	4.54
488.612	4.56
488.961	4.55
489.311	4.56
489.661	4.55
490.011	4.55
490.36	4.55
490.71	4.55
491.06	4.54
491.409	4.54
491.759	4.56
492.108	4.55
492.458	4.55
492.807	4.55
493.157	4.54
493.506	4.54
493.855	4.54
494.204	4.55
494.554	4.53
494.903	4.54
495.252	4.56
495.601	4.56
495.95	4.55
496.299	4.54
496.648	4.55
496.997	4.56
497.346	4.59
497.695	4.6
498.043	4.61
498.392	4.64
498.741	4.66
499.09	4.66
499.438	4.68
499.787	4.68
500.135	4.67
500.484	4.65
500.832	4.67
501.181	4.68
501.529	4.7
501.878	4.71
502.226	4.73
502.574	4.7
502.923	4.71
503.271	4.71
503.619	4.73
503.967	4.73
504.315	4.74
504.663	4.71
505.011	4.71
505.359	4.72
505.707	4.71
506.055	4.71
506.403	4.71
506.751	4.69
507.098	4.71
507.446	4.74
507.794	4.77
508.141	4.78
508.489	4.75
508.837	4.72
509.184	4.72
509.531	4.7
509.879	4.73
510.226	4.74
510.574	4.76
510.921	4.74
511.268	4.74
511.616	4.76
511.963	4.78
512.31	4.77
512.657	4.79
513.004	4.78
513.351	4.79
513.698	4.79
514.045	4.81
514.392	4.8
514.739	4.8
515.086	4.8
515.432	4.82
515.779	4.85
516.126	4.9
516.473	4.92
516.819	4.96
517.166	4.94
517.512	4.95
517.859	4.96
518.205	4.97
518.552	4.98
518.898	4.97
519.245	4.96
519.591	4.97
519.937	4.96
520.283	4.98
520.629	4.96
520.976	4.97
521.322	4.98
521.668	4.97
522.014	4.97
522.36	4.98
522.706	4.96
523.052	4.99
523.398	4.97
523.743	4.98
524.089	4.97
524.435	4.98
524.781	4.99
525.126	4.99
525.472	4.99
525.817	5
526.163	5.02
526.509	5.02
526.854	5.02
527.199	5.03
527.545	5.03
527.89	5.05
528.235	5.06
528.581	5.06
528.926	5.07
529.271	5.07
529.616	5.09
529.961	5.09
530.306	5.09
530.651	5.09
530.996	5.09
531.341	5.11
531.686	5.12
532.031	5.14
532.376	5.15
532.721	5.15
533.065	5.16
533.41	5.17
533.755	5.19
534.099	5.19
534.444	5.2
534.788	5.2
535.133	5.2
535.477	5.19
535.822	5.2
536.166	5.21
536.51	5.2
536.855	5.19
537.199	5.19
537.543	5.19
537.887	5.2
538.231	5.2
538.576	5.18
538.92	5.17
539.264	5.14
539.608	5.15
539.951	5.14
540.295	5.14
540.639	5.14
540.983	5.14
541.327	5.15
541.671	5.16
542.014	5.19
542.358	5.21
542.701	5.23
543.045	5.22
543.389	5.22
543.732	5.23
544.075	5.24
544.419	5.24
544.762	5.24
545.105	5.23
545.449	5.24
545.792	5.27
546.135	5.27
546.478	5.28
546.821	5.28
547.165	5.32
547.508	5.33
547.851	5.32
548.194	5.31
548.536	5.31
548.879	5.28
549.222	5.27
549.565	5.25
549.908	5.22
550.25	5.24
550.593	5.24
550.936	5.25
551.278	5.22
551.621	5.24
551.963	5.26
552.306	5.26
552.648	5.25
552.991	5.23
553.333	5.23
553.675	5.27
554.017	5.24
554.36	5.2
554.702	5.21
555.044	5.23
555.386	5.28
555.728	5.28
556.07	5.29
556.412	5.26
556.754	5.24
557.096	5.26
557.438	5.26
557.78	5.27
558.121	5.27
558.463	5.32
558.805	5.33
559.147	5.32
559.488	5.33
559.83	5.35
560.171	5.36
560.513	5.35
560.854	5.31
561.196	5.34
561.537	5.35
561.878	5.37
562.22	5.37
562.561	5.33
562.902	5.31
563.243	5.31
563.584	5.34
563.925	5.38
564.266	5.38
564.607	5.37
564.948	5.34
565.289	5.35
565.63	5.31
565.971	5.29
566.312	5.29
566.653	5.3
566.993	5.3
567.334	5.28
567.675	5.31
568.015	5.3
568.356	5.27
568.696	5.3
569.037	5.27
569.377	5.23
569.718	5.27
570.058	5.28
570.398	5.27
570.739	5.28
571.079	5.26
571.419	5.25
571.759	5.28
572.099	5.31
572.439	5.3
572.779	5.37
573.119	5.37
573.459	5.4
573.799	5.39
574.139	5.39
574.479	5.4
574.819	5.42
575.158	5.45
575.498	5.46
575.838	5.44
576.177	5.42
576.517	5.49
576.856	5.48
577.196	5.49
577.535	5.51
577.875	5.51
578.214	5.5
578.553	5.47
578.893	5.46
579.232	5.45
579.571	5.45
579.91	5.45
580.25	5.48
580.589	5.46
580.928	5.46
581.267	5.48
581.606	5.48
581.945	5.49
582.283	5.52
582.622	5.58
582.961	5.58
583.3	5.66
583.639	5.64
583.977	5.64
584.316	5.63
584.654	5.65
584.993	5.66
585.332	5.68
585.67	5.72
586.008	5.72
586.347	5.72
586.685	5.74
587.024	5.72
587.362	5.71
587.7	5.76
588.038	5.8
588.376	5.77
588.715	5.75
589.053	5.73
589.391	5.68
589.729	5.67
590.067	5.66
590.404	5.65
590.742	5.64
591.08	5.67
591.418	5.67
591.756	5.67
592.093	5.69
592.431	5.71
592.769	5.68
593.106	5.67
593.444	5.69
593.781	5.69
594.119	5.7
594.456	5.68
594.793	5.65
595.131	5.64
595.468	5.67
595.805	5.68
596.143	5.66
596.48	5.7
596.817	5.68
597.154	5.68
597.491	5.65
597.828	5.65
598.165	5.62
598.502	5.61
598.839	5.66
599.176	5.66
599.512	5.65
599.849	5.71
600.186	5.74
600.523	5.75
600.859	5.76
601.196	5.78
601.532	5.8
601.869	5.79
602.205	5.78
602.542	5.75
602.878	5.78
603.215	5.82
603.551	5.78
603.887	5.79
604.223	5.78
604.56	5.8
604.896	5.81
605.232	5.83
605.568	5.84
605.904	5.79
606.24	5.79
606.576	5.77
606.912	5.75
607.248	5.74
607.583	5.74
607.919	5.71
608.255	5.69
608.591	5.68
608.926	5.64
609.262	5.66
609.597	5.62
609.933	5.6
610.268	5.6
610.604	5.56
610.939	5.58
611.275	5.6
611.61	5.57
611.945	5.54
612.281	5.55
612.616	5.6
612.951	5.63
613.286	5.65
613.621	5.69
613.956	5.71
614.291	5.71
614.626	5.71
614.961	5.79
615.296	5.76
615.631	5.77
615.966	5.84
616.3	5.88
616.635	5.93
616.97	5.9
617.304	5.89
617.639	5.97
617.973	5.9
618.308	5.89
618.642	5.98
618.977	6
619.311	5.96
619.646	5.89
619.98	5.85
620.314	5.85
620.648	5.87
620.983	5.83
621.317	5.85
621.651	5.85
621.985	5.82
622.319	5.87
622.653	5.83
622.987	5.85
623.321	5.85
623.655	5.89
623.988	5.91
624.322	5.94
624.656	5.98
624.99	6.04
625.323	6
625.657	5.98
625.99	5.99
626.324	5.99
626.657	6.05
626.991	6.13
627.324	6.14
627.658	6.08
627.991	6.11
628.324	6.11
628.657	6.13
628.991	6.13
629.324	6.14
629.657	6.18
629.99	6.16
630.323	6.13
630.656	6.12
630.989	6.1
631.322	6.07
631.655	6.07
631.987	6.1
632.32	6.16
632.653	6.12
632.986	6.13
633.318	6.18
633.651	6.19
633.984	6.16
634.316	6.14
634.649	6.18
634.981	6.17
635.313	6.2
635.646	6.2
635.978	6.19
636.31	6.14
636.643	6.22
636.975	6.19
637.307	6.21
637.639	6.25
637.971	6.31
638.303	6.32
638.635	6.35
638.967	6.31
639.299	6.28
639.631	6.36
639.963	6.39
640.295	6.36
640.626	6.35
640.958	6.34
641.29	6.29
641.621	6.28
641.953	6.24
642.285	6.16
642.616	6.14
642.948	6.1
643.279	6.11
643.61	6.09
643.942	6.17
644.273	6.17
644.604	6.15
644.936	6.11
645.267	6.15
645.598	6.02
645.929	6.04
646.26	6.09
646.591	6.07
646.922	6.1
647.253	6.09
647.584	5.99
647.915	5.96
648.245	6.03
648.576	5.97
648.907	5.99
649.238	5.97
649.568	6.02
649.899	6.01
650.229	6.11
650.56	6.02
650.89	6.01
651.221	6
651.551	6.03
651.882	6.06
652.212	6.03
652.542	6.2
652.872	6.21
653.203	6.22
653.533	6.25
653.863	6.19
654.193	6.17
654.523	6.17
654.853	6.19
655.183	6.19
655.513	6.28
655.843	6.35
656.172	6.44
656.502	6.39
656.832	6.4
657.162	6.36
657.491	6.5
657.821	6.44
658.15	6.51
658.48	6.58
658.809	6.61
659.139	6.6
659.468	6.5
659.798	6.58
660.127	6.54
660.456	6.52
660.785	6.51
661.115	6.55
661.444	6.63
661.773	6.69
662.102	6.72
662.431	6.69
662.76	6.72
663.089	6.8
663.418	6.91
663.747	7.01
664.076	7.02
664.404	6.93
664.733	6.95
665.062	6.94
665.39	6.84
665.719	6.9
666.048	6.98
666.376	6.98
666.705	6.88
667.033	6.85
667.362	6.88
667.69	6.87
668.018	6.89
668.347	6.92
668.675	6.92
669.003	6.88
669.331	7.05
669.659	7.04
669.987	6.91
670.315	6.93
670.643	6.94
670.971	6.98
671.299	7.03
671.627	7.1
671.955	6.96
672.283	6.9
672.61	6.84
672.938	6.77
673.266	6.83
673.593	6.77
673.921	6.82
674.249	6.87
674.576	6.95
674.904	6.89
675.231	6.85
675.558	6.84
675.886	6.8
676.213	6.69
676.54	6.75
676.867	6.81
677.195	6.78
677.522	6.71
677.849	6.69
