Data from BA17729_Reflection_00006.txt Node
Date: Tue Nov 19 11:50:45 EST 2019
User: vgr7
Spectrometer: USB2G7710
Scans to average: 3
Trigger mode: 4
Integration Time (sec): 2.000000E-2
Electric dark correction enabled: true
Boxcar width: 10
XAxis mode: Wavelengths
Number of Pixels in Spectrum: 2048
>>>>>Begin Spectral Data<<<<<
177.721	150.54
178.105	137.43
178.488	186.23
178.871	535.29
179.254	163.41
179.636	193.93
180.019	82.72
180.402	-233.33
180.785	-100
181.168	95.82
181.55	23.25
181.933	37.59
182.316	40.61
182.698	-67.01
183.081	-86.73
183.463	-81.3
183.846	-97.01
184.228	-102.86
184.611	-128.63
184.993	-281.4
185.376	-4017.65
185.758	-211.79
186.14	-94.5
186.522	-91.09
186.904	-132.97
187.287	-140.84
187.669	-412
188.051	-2718.18
188.433	43.66
188.815	-148.32
189.197	270.21
189.579	-73.91
189.961	-21.41
190.342	-75.55
190.724	972.34
191.106	-548.35
191.488	-331.19
191.869	-95.25
192.251	-92.18
192.633	-311.76
193.014	-114.72
193.396	-206.75
193.777	3.27
194.159	11.21
194.54	25.52
194.922	77.96
195.303	24.8
195.684	-24.28
196.065	-170.36
196.447	-102.4
196.828	-81.33
197.209	-17.76
197.59	-2.42
197.971	-22.28
198.352	-25.28
198.733	-38.65
199.114	-56.39
199.495	-38.43
199.876	-49.41
200.257	-50.05
200.638	-24.21
201.018	-25.26
201.399	-27.15
201.78	-55.32
202.16	-80.88
202.541	-69.53
202.922	-54.2
203.302	-58.59
203.683	-50.82
204.063	-44.27
204.444	-43.3
204.824	-39.71
205.204	-41.68
205.585	-57.01
205.965	-31.98
206.345	19.04
206.725	42.32
207.106	51.19
207.486	53.42
207.866	65.95
208.246	64.58
208.626	64.15
209.006	63.79
209.386	72.24
209.766	69.18
210.145	85.38
210.525	83.63
210.905	101.06
211.285	95.88
211.664	88.15
212.044	109.87
212.424	95.87
212.803	119.05
213.183	140
213.562	144.6
213.942	163.45
214.321	108.77
214.701	98.56
215.08	68.15
215.459	44.85
215.838	13.92
216.218	4.6
216.597	18.69
216.976	-0.98
217.355	1.99
217.734	-25.29
218.113	-37.77
218.492	-52.72
218.871	-36.52
219.25	-55.01
219.629	-77.15
220.008	-126.78
220.387	-178.83
220.766	-123.45
221.144	-103.07
221.523	-185.26
221.902	-201.62
222.28	-125.1
222.659	-69.86
223.037	-58.85
223.416	-40.56
223.794	-35.79
224.173	-30.63
224.551	-30.75
224.929	-19.66
225.308	-5.71
225.686	-2.73
226.064	0.17
226.442	11.47
226.821	9.99
227.199	8.3
227.577	10.78
227.955	8.3
228.333	8.74
228.711	9.05
229.089	4.94
229.467	3.32
229.845	1.43
230.222	-0.3
230.6	-2.75
230.978	-1.65
231.356	-5.31
231.733	-1.8
232.111	-1.37
232.488	-1.46
232.866	0.93
233.243	-2.16
233.621	1.64
233.998	1.24
234.376	-1.21
234.753	-1.35
235.13	0.95
235.508	-0.14
235.885	2.39
236.262	3.15
236.639	1.93
237.016	3.07
237.393	4.15
237.77	5.19
238.147	4.3
238.524	5.81
238.901	5.99
239.278	5.63
239.655	4.56
240.032	4.3
240.409	4.32
240.785	3.86
241.162	4.28
241.539	4.11
241.915	3.61
242.292	3.53
242.668	3.77
243.045	3.67
243.421	3.81
243.798	3.46
244.174	3.56
244.551	3.87
244.927	3.7
245.303	3.36
245.679	3.31
246.056	3.14
246.432	2.69
246.808	2.87
247.184	2.9
247.56	2.7
247.936	2.9
248.312	2.87
248.688	3.15
249.064	3.14
249.44	3.01
249.815	3.37
250.191	3.58
250.567	3.47
250.943	3.38
251.318	3.25
251.694	3.13
252.069	3.07
252.445	3.16
252.82	3.2
253.196	3.26
253.571	3.01
253.947	3.17
254.322	3.23
254.697	3.36
255.073	3.52
255.448	3.51
255.823	3.3
256.198	3.38
256.573	3.23
256.948	3.14
257.323	3.05
257.698	3.01
258.073	2.87
258.448	2.9
258.823	2.91
259.198	3.03
259.573	3.06
259.948	2.85
260.322	2.53
260.697	2.67
261.072	2.85
261.446	3.18
261.821	3.28
262.195	3.16
262.57	3.06
262.944	2.97
263.319	3.06
263.693	2.83
264.067	2.82
264.442	2.87
264.816	2.81
265.19	2.84
265.564	2.87
265.938	3.11
266.313	3.01
266.687	3.08
267.061	2.92
267.435	3.14
267.809	3.35
268.183	3.48
268.556	3.35
268.93	3.43
269.304	3.37
269.678	3.25
270.051	3.13
270.425	2.99
270.799	2.89
271.172	2.81
271.546	2.97
271.919	3.02
272.293	2.96
272.666	2.95
273.04	2.81
273.413	2.73
273.787	2.49
274.16	2.53
274.533	2.43
274.906	2.56
275.279	2.29
275.653	2.3
276.026	2.53
276.399	2.5
276.772	2.46
277.145	2.28
277.518	2.22
277.891	2.31
278.263	2.57
278.636	2.82
279.009	2.84
279.382	2.8
279.755	2.7
280.127	2.64
280.5	2.81
280.872	2.97
281.245	2.84
281.617	2.87
281.99	2.91
282.362	2.95
282.735	2.83
283.107	2.81
283.479	2.74
283.852	2.69
284.224	2.9
284.596	2.88
284.968	2.88
285.34	2.81
285.713	2.98
286.085	2.88
286.457	2.89
286.829	2.83
287.201	2.82
287.572	2.68
287.944	2.74
288.316	2.88
288.688	2.87
289.06	2.91
289.431	3.11
289.803	3.17
290.175	3.16
290.546	3.16
290.918	3.13
291.289	3.08
291.661	2.94
292.032	2.76
292.403	2.74
292.775	2.93
293.146	3.06
293.517	2.99
293.889	2.88
294.26	2.88
294.631	2.95
295.002	3.05
295.373	3.26
295.744	3.23
296.115	3.26
296.486	3.32
296.857	3.4
297.228	3.25
297.599	3.14
297.97	3.23
298.34	3.35
298.711	3.37
299.082	3.31
299.452	3.38
299.823	3.39
300.194	3.46
300.564	3.29
300.935	3.32
301.305	3.33
301.676	3.36
302.046	3.24
302.416	3.22
302.787	3.19
303.157	3.06
303.527	3.17
303.897	3.09
304.267	3.08
304.637	3.07
305.008	3.23
305.378	3.38
305.748	3.24
306.117	3.09
306.487	3.1
306.857	3.32
307.227	3.31
307.597	3.32
307.967	3.23
308.336	3.28
308.706	3.26
309.076	3.34
309.445	3.44
309.815	3.41
310.184	3.41
310.554	3.35
310.923	3.32
311.293	3.34
311.662	3.22
312.031	3.1
312.401	2.95
312.77	2.82
313.139	2.84
313.508	2.8
313.877	2.88
314.246	2.98
314.616	2.95
314.985	2.8
315.353	2.87
315.722	3.01
316.091	3.08
316.46	3.15
316.829	2.99
317.198	2.9
317.567	3.09
317.935	3.12
318.304	3.19
318.672	3.27
319.041	3.25
319.41	3.21
319.778	3.37
320.147	3.46
320.515	3.53
320.883	3.39
321.252	3.46
321.62	3.41
321.988	3.33
322.357	3.14
322.725	3.27
323.093	3.34
323.461	3.41
323.829	3.39
324.197	3.33
324.565	3.38
324.933	3.42
325.301	3.16
325.669	3.28
326.037	3.36
326.405	3.31
326.772	3.22
327.14	3.23
327.508	3.16
327.875	3.25
328.243	3.15
328.61	3.12
328.978	3.14
329.346	3.15
329.713	3.26
330.08	3.63
330.448	3.53
330.815	3.5
331.182	3.3
331.55	3.26
331.917	3.15
332.284	3.11
332.651	3.11
333.018	3.34
333.385	3.29
333.752	3.14
334.119	3.24
334.486	3.31
334.853	3.25
335.22	3.14
335.587	3.04
335.954	2.92
336.32	3.1
336.687	3.06
337.054	3.01
337.42	3.04
337.787	2.79
338.153	2.93
338.52	2.96
338.886	3.01
339.253	3.03
339.619	3.13
339.986	3.18
340.352	3.21
340.718	3.26
341.084	3.26
341.451	3.32
341.817	3.29
342.183	3.27
342.549	3.4
342.915	3.5
343.281	3.58
343.647	3.69
344.013	3.6
344.379	3.57
344.745	3.55
345.11	3.52
345.476	3.54
345.842	3.43
346.208	3.36
346.573	3.25
346.939	3.22
347.304	3.16
347.67	3.14
348.035	3
348.401	2.98
348.766	2.96
349.132	3
349.497	3.03
349.862	3.03
350.228	3.06
350.593	3.02
350.958	3.04
351.323	3.05
351.688	2.93
352.053	3.03
352.418	3.2
352.783	3.09
353.148	3.07
353.513	3.11
353.878	3.18
354.243	3.23
354.608	3.27
354.972	3.3
355.337	3.31
355.702	3.44
356.066	3.4
356.431	3.46
356.795	3.45
357.16	3.43
357.524	3.36
357.889	3.27
358.253	3.29
358.618	3.27
358.982	3.27
359.346	3.39
359.71	3.38
360.075	3.26
360.439	3.39
360.803	3.49
361.167	3.5
361.531	3.5
361.895	3.54
362.259	3.53
362.623	3.52
362.987	3.52
363.351	3.43
363.714	3.43
364.078	3.32
364.442	3.32
364.806	3.35
365.169	3.39
365.533	3.38
365.896	3.43
366.26	3.4
366.623	3.4
366.987	3.37
367.35	3.34
367.714	3.35
368.077	3.29
368.44	3.25
368.803	3.21
369.167	3.14
369.53	3.07
369.893	3.09
370.256	3.13
370.619	3.1
370.982	3.17
371.345	3.15
371.708	3.19
372.071	3.18
372.434	3.11
372.797	3.14
373.159	3.15
373.522	3.08
373.885	3.18
374.247	3.16
374.61	3.17
374.973	3.18
375.335	3.19
375.698	3.16
376.06	3.11
376.423	3.17
376.785	3.28
377.147	3.25
377.51	3.25
377.872	3.29
378.234	3.36
378.596	3.35
378.958	3.31
379.321	3.34
379.683	3.33
380.045	3.4
380.407	3.37
380.769	3.37
381.13	3.41
381.492	3.37
381.854	3.38
382.216	3.4
382.578	3.39
382.939	3.41
383.301	3.38
383.663	3.42
384.024	3.41
384.386	3.34
384.747	3.36
385.109	3.31
385.47	3.25
385.832	3.21
386.193	3.13
386.554	3.18
386.916	3.18
387.277	3.1
387.638	3.08
387.999	3.09
388.36	3.09
388.721	3.09
389.082	3.11
389.443	3.13
389.804	3.1
390.165	3.12
390.526	3.13
390.887	3.15
391.248	3.14
391.609	3.13
391.969	3.14
392.33	3.1
392.691	3.12
393.051	3.1
393.412	3.07
393.772	3.11
394.133	3.09
394.493	3.04
394.854	3.13
395.214	3.07
395.574	3.05
395.935	3.05
396.295	3.03
396.655	3.03
397.015	3.04
397.376	3.02
397.736	3
398.096	2.98
398.456	2.96
398.816	2.91
399.176	2.88
399.535	2.87
399.895	2.92
400.255	2.95
400.615	3
400.975	3.02
401.334	3.04
401.694	3.06
402.054	3.1
402.413	3.11
402.773	3.16
403.132	3.19
403.492	3.2
403.851	3.22
404.211	3.21
404.57	3.23
404.929	3.25
405.288	3.27
405.648	3.28
406.007	3.31
406.366	3.33
406.725	3.33
407.084	3.33
407.443	3.34
407.802	3.34
408.161	3.33
408.52	3.35
408.879	3.34
409.238	3.35
409.596	3.35
409.955	3.31
410.314	3.32
410.673	3.29
411.031	3.28
411.39	3.28
411.748	3.28
412.107	3.23
412.465	3.2
412.824	3.19
413.182	3.16
413.54	3.16
413.899	3.17
414.257	3.19
414.615	3.2
414.974	3.2
415.332	3.19
415.69	3.19
416.048	3.15
416.406	3.13
416.764	3.1
417.122	3.1
417.48	3.11
417.838	3.1
418.195	3.09
418.553	3.09
418.911	3.07
419.269	3.08
419.626	3.09
419.984	3.1
420.342	3.09
420.699	3.11
421.057	3.11
421.414	3.12
421.772	3.11
422.129	3.09
422.486	3.09
422.844	3.08
423.201	3.1
423.558	3.12
423.915	3.14
424.273	3.16
424.63	3.18
424.987	3.19
425.344	3.18
425.701	3.19
426.058	3.2
426.415	3.2
426.772	3.22
427.128	3.22
427.485	3.22
427.842	3.22
428.199	3.22
428.555	3.22
428.912	3.21
429.269	3.23
429.625	3.23
429.982	3.21
430.338	3.22
430.695	3.19
431.051	3.2
431.407	3.18
431.764	3.13
432.12	3.1
432.476	3.11
432.832	3.12
433.189	3.13
433.545	3.13
433.901	3.13
434.257	3.09
434.613	3.07
434.969	3.05
435.325	3.07
435.681	3.08
436.036	3.07
436.392	3.07
436.748	3.06
437.104	3.07
437.459	3.09
437.815	3.08
438.171	3.09
438.526	3.08
438.882	3.1
439.237	3.12
439.593	3.12
439.948	3.1
440.304	3.08
440.659	3.09
441.014	3.1
441.369	3.12
441.725	3.15
442.08	3.15
442.435	3.16
442.79	3.16
443.145	3.15
443.5	3.16
443.855	3.15
444.21	3.15
444.565	3.17
444.92	3.16
445.275	3.16
445.629	3.15
445.984	3.15
446.339	3.14
446.693	3.16
447.048	3.16
447.403	3.16
447.757	3.18
448.112	3.17
448.466	3.17
448.82	3.16
449.175	3.14
449.529	3.15
449.883	3.14
450.238	3.15
450.592	3.15
450.946	3.15
451.3	3.18
451.654	3.19
452.008	3.16
452.362	3.18
452.716	3.17
453.07	3.17
453.424	3.18
453.778	3.18
454.132	3.16
454.486	3.16
454.839	3.18
455.193	3.2
455.547	3.2
455.9	3.21
456.254	3.2
456.607	3.2
456.961	3.21
457.314	3.23
457.668	3.23
458.021	3.21
458.375	3.22
458.728	3.2
459.081	3.2
459.434	3.2
459.787	3.22
460.141	3.23
460.494	3.25
460.847	3.23
461.2	3.22
461.553	3.23
461.906	3.23
462.259	3.22
462.611	3.21
462.964	3.21
463.317	3.2
463.67	3.22
464.022	3.25
464.375	3.24
464.728	3.25
465.08	3.24
465.433	3.27
465.785	3.28
466.138	3.28
466.49	3.29
466.843	3.28
467.195	3.26
467.547	3.26
467.899	3.26
468.252	3.3
468.604	3.33
468.956	3.32
469.308	3.33
469.66	3.35
470.012	3.36
470.364	3.37
470.716	3.37
471.068	3.38
471.42	3.37
471.772	3.36
472.123	3.37
472.475	3.38
472.827	3.36
473.178	3.35
473.53	3.37
473.882	3.36
474.233	3.39
474.585	3.42
474.936	3.41
475.288	3.4
475.639	3.39
475.99	3.37
476.342	3.39
476.693	3.39
477.044	3.38
477.395	3.38
477.746	3.35
478.097	3.34
478.448	3.3
478.8	3.27
479.15	3.26
479.501	3.24
479.852	3.24
480.203	3.25
480.554	3.25
480.905	3.24
481.255	3.24
481.606	3.24
481.957	3.23
482.307	3.23
482.658	3.24
483.009	3.22
483.359	3.23
483.709	3.24
484.06	3.24
484.41	3.23
484.761	3.24
485.111	3.24
485.461	3.26
485.811	3.27
486.162	3.28
486.512	3.29
486.862	3.29
487.212	3.3
487.562	3.29
487.912	3.3
488.262	3.29
488.612	3.3
488.961	3.3
489.311	3.29
489.661	3.3
490.011	3.29
490.36	3.3
490.71	3.3
491.06	3.3
491.409	3.29
491.759	3.29
492.108	3.3
492.458	3.3
492.807	3.3
493.157	3.31
493.506	3.32
493.855	3.32
494.204	3.33
494.554	3.33
494.903	3.33
495.252	3.34
495.601	3.36
495.95	3.36
496.299	3.36
496.648	3.38
496.997	3.39
497.346	3.42
497.695	3.43
498.043	3.45
498.392	3.46
498.741	3.49
499.09	3.5
499.438	3.52
499.787	3.53
500.135	3.52
500.484	3.53
500.832	3.51
501.181	3.51
501.529	3.53
501.878	3.54
502.226	3.54
502.574	3.54
502.923	3.54
503.271	3.55
503.619	3.58
503.967	3.58
504.315	3.59
504.663	3.58
505.011	3.56
505.359	3.56
505.707	3.55
506.055	3.56
506.403	3.55
506.751	3.53
507.098	3.55
507.446	3.57
507.794	3.57
508.141	3.58
508.489	3.6
508.837	3.6
509.184	3.61
509.531	3.62
509.879	3.63
510.226	3.64
510.574	3.67
510.921	3.67
511.268	3.68
511.616	3.67
511.963	3.69
512.31	3.68
512.657	3.67
513.004	3.68
513.351	3.67
513.698	3.67
514.045	3.67
514.392	3.66
514.739	3.67
515.086	3.66
515.432	3.66
515.779	3.65
516.126	3.66
516.473	3.65
516.819	3.65
517.166	3.66
517.512	3.65
517.859	3.64
518.205	3.62
518.552	3.63
518.898	3.65
519.245	3.66
519.591	3.67
519.937	3.7
520.283	3.71
520.629	3.71
520.976	3.71
521.322	3.72
521.668	3.74
522.014	3.75
522.36	3.77
522.706	3.77
523.052	3.8
523.398	3.8
523.743	3.79
524.089	3.8
524.435	3.77
524.781	3.78
525.126	3.78
525.472	3.77
525.817	3.75
526.163	3.73
526.509	3.72
526.854	3.71
527.199	3.71
527.545	3.7
527.89	3.71
528.235	3.71
528.581	3.7
528.926	3.69
529.271	3.68
529.616	3.68
529.961	3.7
530.306	3.68
530.651	3.67
530.996	3.7
531.341	3.7
531.686	3.73
532.031	3.73
532.376	3.73
532.721	3.74
533.065	3.76
533.41	3.78
533.755	3.8
534.099	3.8
534.444	3.79
534.788	3.78
535.133	3.8
535.477	3.81
535.822	3.83
536.166	3.83
536.51	3.84
536.855	3.84
537.199	3.82
537.543	3.85
537.887	3.85
538.231	3.83
538.576	3.83
538.92	3.84
539.264	3.85
539.608	3.87
539.951	3.88
540.295	3.87
540.639	3.88
540.983	3.87
541.327	3.88
541.671	3.89
542.014	3.92
542.358	3.94
542.701	3.95
543.045	3.97
543.389	4
543.732	4
544.075	4.02
544.419	4.04
544.762	4.03
545.105	4.07
545.449	4.09
545.792	4.12
546.135	4.13
546.478	4.14
546.821	4.16
547.165	4.19
547.508	4.21
547.851	4.22
548.194	4.25
548.536	4.29
548.879	4.31
549.222	4.32
549.565	4.28
549.908	4.28
550.25	4.27
550.593	4.23
550.936	4.28
551.278	4.25
551.621	4.26
551.963	4.34
552.306	4.31
552.648	4.3
552.991	4.31
553.333	4.31
553.675	4.33
554.017	4.33
554.36	4.29
554.702	4.29
555.044	4.28
555.386	4.27
555.728	4.3
556.07	4.29
556.412	4.3
556.754	4.37
557.096	4.38
557.438	4.39
557.78	4.41
558.121	4.36
558.463	4.37
558.805	4.41
559.147	4.37
559.488	4.38
559.83	4.39
560.171	4.36
560.513	4.37
560.854	4.34
561.196	4.31
561.537	4.37
561.878	4.4
562.22	4.44
562.561	4.46
562.902	4.46
563.243	4.48
563.584	4.47
563.925	4.45
564.266	4.46
564.607	4.44
564.948	4.45
565.289	4.44
565.63	4.47
565.971	4.45
566.312	4.46
566.653	4.42
566.993	4.42
567.334	4.42
567.675	4.44
568.015	4.45
568.356	4.46
568.696	4.45
569.037	4.41
569.377	4.43
569.718	4.42
570.058	4.37
570.398	4.38
570.739	4.4
571.079	4.38
571.419	4.37
571.759	4.39
572.099	4.36
572.439	4.38
572.779	4.4
573.119	4.37
573.459	4.35
573.799	4.38
574.139	4.37
574.479	4.42
574.819	4.43
575.158	4.44
575.498	4.45
575.838	4.46
576.177	4.49
576.517	4.48
576.856	4.49
577.196	4.51
577.535	4.48
577.875	4.49
578.214	4.52
578.553	4.53
578.893	4.56
579.232	4.59
579.571	4.59
579.91	4.58
580.25	4.64
580.589	4.7
580.928	4.71
581.267	4.73
581.606	4.72
581.945	4.7
582.283	4.69
582.622	4.69
582.961	4.66
583.3	4.68
583.639	4.7
583.977	4.72
584.316	4.74
584.654	4.77
584.993	4.79
585.332	4.79
585.67	4.75
586.008	4.75
586.347	4.77
586.685	4.79
587.024	4.75
587.362	4.79
587.7	4.82
588.038	4.85
588.376	4.87
588.715	4.89
589.053	4.88
589.391	4.9
589.729	4.91
590.067	4.92
590.404	4.88
590.742	4.83
591.08	4.83
591.418	4.85
591.756	4.84
592.093	4.78
592.431	4.76
592.769	4.75
593.106	4.73
593.444	4.73
593.781	4.75
594.119	4.78
594.456	4.73
594.793	4.71
595.131	4.68
595.468	4.67
595.805	4.65
596.143	4.66
596.48	4.64
596.817	4.65
597.154	4.68
597.491	4.7
597.828	4.7
598.165	4.66
598.502	4.65
598.839	4.66
599.176	4.73
599.512	4.73
599.849	4.74
600.186	4.77
600.523	4.78
600.859	4.73
601.196	4.72
601.532	4.71
601.869	4.71
602.205	4.68
602.542	4.66
602.878	4.71
603.215	4.71
603.551	4.7
603.887	4.7
604.223	4.67
604.56	4.68
604.896	4.72
605.232	4.75
605.568	4.76
605.904	4.72
606.24	4.69
606.576	4.71
606.912	4.71
607.248	4.72
607.583	4.73
607.919	4.76
608.255	4.73
608.591	4.79
608.926	4.79
609.262	4.82
609.597	4.84
609.933	4.83
610.268	4.86
610.604	4.84
610.939	4.87
611.275	4.94
611.61	4.94
611.945	4.9
612.281	4.91
612.616	4.93
612.951	4.99
613.286	4.96
613.621	4.98
613.956	5.02
614.291	5.02
614.626	5.03
614.961	5.07
615.296	5.15
615.631	5.17
615.966	5.18
616.3	5.21
616.635	5.18
616.97	5.11
617.304	5.09
617.639	5.16
617.973	5.09
618.308	5.1
618.642	5.06
618.977	5.04
619.311	5.06
619.646	5.05
619.98	5.04
620.314	5.1
620.648	5.16
620.983	5.16
621.317	5.12
621.651	5.07
621.985	4.98
622.319	4.92
622.653	4.88
622.987	4.85
623.321	4.86
623.655	4.86
623.988	4.89
624.322	4.87
624.656	4.81
624.99	4.83
625.323	4.82
625.657	4.91
625.99	4.99
626.324	4.93
626.657	4.86
626.991	4.87
627.324	4.81
627.658	4.75
627.991	4.77
628.324	4.74
628.657	4.75
628.991	4.79
629.324	4.87
629.657	4.86
629.99	4.9
630.323	4.84
630.656	4.88
630.989	4.93
631.322	4.96
631.655	4.98
631.987	5.03
632.32	4.99
632.653	4.94
632.986	4.84
633.318	4.85
633.651	4.94
633.984	4.94
634.316	5.01
634.649	4.99
634.981	4.96
635.313	5.04
635.646	5.07
635.978	5.08
636.31	5.09
636.643	5.14
636.975	5.14
637.307	5.23
637.639	5.21
637.971	5.11
638.303	5.09
638.635	5.1
638.967	5.12
639.299	5.14
639.631	5.13
639.963	5.28
640.295	5.36
640.626	5.32
640.958	5.34
641.29	5.34
641.621	5.34
641.953	5.35
642.285	5.35
642.616	5.4
642.948	5.37
643.279	5.31
643.61	5.3
643.942	5.25
644.273	5.2
644.604	5.3
644.936	5.41
645.267	5.45
645.598	5.5
645.929	5.43
646.26	5.38
646.591	5.38
646.922	5.36
647.253	5.26
647.584	5.29
647.915	5.32
648.245	5.3
648.576	5.3
648.907	5.34
649.238	5.26
649.568	5.21
649.899	5.2
650.229	5.26
650.56	5.22
650.89	5.29
651.221	5.32
651.551	5.29
651.882	5.24
652.212	5.24
652.542	5.21
652.872	5.19
653.203	5.33
653.533	5.41
653.863	5.43
654.193	5.4
654.523	5.36
654.853	5.33
655.183	5.3
655.513	5.37
655.843	5.33
656.172	5.44
656.502	5.36
656.832	5.34
657.162	5.32
657.491	5.38
657.821	5.37
658.15	5.39
658.48	5.35
658.809	5.35
659.139	5.3
659.468	5.32
659.798	5.36
660.127	5.3
660.456	5.18
660.785	5.18
661.115	5.28
661.444	5.37
661.773	5.4
662.102	5.42
662.431	5.38
662.76	5.43
663.089	5.45
663.418	5.5
663.747	5.6
664.076	5.58
664.404	5.58
664.733	5.53
665.062	5.47
665.39	5.5
665.719	5.56
666.048	5.6
666.376	5.61
666.705	5.63
667.033	5.51
667.362	5.51
667.69	5.51
668.018	5.47
668.347	5.37
668.675	5.38
669.003	5.36
669.331	5.31
669.659	5.26
669.987	5.16
670.315	5.21
670.643	5.2
670.971	5.22
671.299	5.18
671.627	5.23
671.955	5.16
672.283	5.13
672.61	5.01
672.938	5.04
673.266	5.04
673.593	5
673.921	5.1
674.249	5.13
674.576	5.09
674.904	5.06
675.231	5.21
675.558	5.21
675.886	5.27
676.213	5.36
676.54	5.44
676.867	5.46
677.195	5.44
677.522	5.3
677.849	5.33
678.176	5.36
