Data from BA17718_Reflection_00015.txt Node
Date: Tue Nov 19 11:47:58 EST 2019
User: vgr7
Spectrometer: USB2G7710
Scans to average: 3
Trigger mode: 4
Integration Time (sec): 2.000000E-2
Electric dark correction enabled: true
Boxcar width: 10
XAxis mode: Wavelengths
Number of Pixels in Spectrum: 2048
>>>>>Begin Spectral Data<<<<<
177.721	5.73
178.105	-31.39
178.488	-62.44
178.871	25.66
179.254	25
179.636	-926.32
180.019	89.21
180.402	80.77
180.785	-74.55
181.168	-58.31
181.55	9.24
181.933	-3.08
182.316	-21.72
182.698	-13.73
183.081	-13.45
183.463	-15.38
183.846	-40.16
184.228	-47.89
184.611	-71.31
184.993	-104.55
185.376	314.29
185.758	75.21
186.14	-12.5
186.522	-70.45
186.904	-92.86
187.287	156.6
187.669	250
188.051	-240.91
188.433	172.29
188.815	-542.86
189.197	-251.06
189.579	-75.18
189.961	-78.93
190.342	-74.08
190.724	-89.27
191.106	-59.62
191.488	-41.37
191.869	-48.71
192.251	-32.57
192.633	-25.35
193.014	-18.3
193.396	-19.59
193.777	12.83
194.159	-0.38
194.54	3.15
194.922	25.79
195.303	29.93
195.684	20.6
196.065	41.56
196.447	34.54
196.828	39.82
197.209	51.47
197.59	47.86
197.971	42.35
198.352	58.37
198.733	65.38
199.114	64.13
199.495	59.87
199.876	60.91
200.257	48.18
200.638	41.39
201.018	33.8
201.399	24.93
201.78	16.74
202.16	30.23
202.541	37.37
202.922	22.72
203.302	18.74
203.683	7.8
204.063	0.88
204.444	1.14
204.824	-6.91
205.204	-11.94
205.585	-12.45
205.965	-12.1
206.345	-41.23
206.725	-32.04
207.106	-25.44
207.486	-32.82
207.866	-44.13
208.246	-73.8
208.626	-213.52
209.006	-183.61
209.386	-101.28
209.766	-188.46
210.145	-110.16
210.525	-140.85
210.905	-102.19
211.285	-93.93
211.664	-53.75
212.044	-93.3
212.424	-129.37
212.803	-238.15
213.183	-307.14
213.562	-431.43
213.942	-242.49
214.321	-218.05
214.701	-224.23
215.08	-305.04
215.459	-197.59
215.838	-115.07
216.218	-123.14
216.597	-76.05
216.976	-83.08
217.355	-122.41
217.734	-154.53
218.113	-153.52
218.492	-126.74
218.871	-152
219.25	-172.05
219.629	-218.1
220.008	-204.39
220.387	-245.35
220.766	-181.8
221.144	-125.97
221.523	-131.39
221.902	-115.64
222.28	-118.18
222.659	-52.41
223.037	-47.08
223.416	-58.82
223.794	-52.54
224.173	-59.02
224.551	-47.14
224.929	-45.73
225.308	-39.76
225.686	-27.13
226.064	-31.05
226.442	-23.04
226.821	-19.72
227.199	-21.16
227.577	-4.15
227.955	2.63
228.333	5.97
228.711	8.34
229.089	5.38
229.467	3.6
229.845	5.57
230.222	6.31
230.6	2.55
230.978	4.44
231.356	0.75
231.733	-0.21
232.111	0.24
232.488	0.02
232.866	1.32
233.243	2.46
233.621	2.43
233.998	4.43
234.376	3.35
234.753	5.24
235.13	6.9
235.508	1.72
235.885	-3.25
236.262	-2.36
236.639	-0.43
237.016	-1.46
237.393	-1.2
237.77	0.41
238.147	-0.38
238.524	-0.45
238.901	-0.13
239.278	0.54
239.655	1.26
240.032	1.61
240.409	2.83
240.785	3.21
241.162	2.98
241.539	3.22
241.915	3.45
242.292	3.61
242.668	3.1
243.045	3.81
243.421	4.36
243.798	5.14
244.174	5.29
244.551	4.91
244.927	5.18
245.303	5.43
245.679	5
246.056	5.44
246.432	5.88
246.808	5.86
247.184	6.1
247.56	5.71
247.936	5.91
248.312	5.8
248.688	5.63
249.064	5.71
249.44	5.78
249.815	5.84
250.191	5.82
250.567	6.2
250.943	5.98
251.318	5.79
251.694	5.6
252.069	5.52
252.445	5.82
252.82	6.01
253.196	6.08
253.571	6.21
253.947	6.02
254.322	5.86
254.697	5.77
255.073	5.79
255.448	5.82
255.823	5.73
256.198	5.39
256.573	5.8
256.948	5.68
257.323	5.62
257.698	5.45
258.073	5.41
258.448	5.34
258.823	5.33
259.198	5.32
259.573	5.45
259.948	5.37
260.322	5.06
260.697	5.24
261.072	5.07
261.446	5.31
261.821	5.29
262.195	5.08
262.57	5.1
262.944	4.97
263.319	5.06
263.693	5.01
264.067	5.15
264.442	4.78
264.816	4.82
265.19	4.78
265.564	4.72
265.938	4.81
266.313	4.61
266.687	4.49
267.061	4.52
267.435	4.5
267.809	4.44
268.183	4.66
268.556	4.53
268.93	4.79
269.304	4.59
269.678	4.48
270.051	4.64
270.425	4.56
270.799	4.6
271.172	4.53
271.546	4.61
271.919	4.52
272.293	4.58
272.666	4.52
273.04	4.38
273.413	4.48
273.787	4.47
274.16	4.41
274.533	4.55
274.906	4.51
275.279	4.32
275.653	4.6
276.026	4.58
276.399	4.39
276.772	4.33
277.145	4.41
277.518	4.33
277.891	4.16
278.263	4.38
278.636	4.49
279.009	4.51
279.382	4.35
279.755	4.26
280.127	4.34
280.5	4.42
280.872	4.47
281.245	4.38
281.617	4.27
281.99	4.34
282.362	4.36
282.735	4.41
283.107	4.6
283.479	4.52
283.852	4.61
284.224	4.71
284.596	4.54
284.968	4.45
285.34	4.46
285.713	4.54
286.085	4.19
286.457	4.08
286.829	4.1
287.201	4.11
287.572	4.24
287.944	4.3
288.316	4.31
288.688	4.38
289.06	4.43
289.431	4.56
289.803	4.59
290.175	4.56
290.546	4.6
290.918	4.51
291.289	4.32
291.661	4.18
292.032	4.11
292.403	4.35
292.775	4.37
293.146	4.51
293.517	4.49
293.889	4.64
294.26	4.83
294.631	4.85
295.002	4.92
295.373	4.84
295.744	4.85
296.115	4.95
296.486	4.95
296.857	5.1
297.228	5.02
297.599	5
297.97	4.97
298.34	5
298.711	5.07
299.082	5.14
299.452	5.1
299.823	5.05
300.194	4.99
300.564	4.98
300.935	4.93
301.305	4.9
301.676	4.86
302.046	4.69
302.416	4.72
302.787	4.6
303.157	4.71
303.527	4.74
303.897	4.78
304.267	4.75
304.637	4.67
305.008	4.83
305.378	5.05
305.748	5.14
306.117	5.12
306.487	5.23
306.857	5.38
307.227	5.54
307.597	5.64
307.967	5.66
308.336	5.7
308.706	5.57
309.076	5.64
309.445	5.81
309.815	5.87
310.184	5.94
310.554	6.04
310.923	6
311.293	5.97
311.662	5.81
312.031	5.71
312.401	5.77
312.77	5.63
313.139	5.39
313.508	5.34
313.877	5.45
314.246	5.37
314.616	5.28
314.985	5.21
315.353	5.28
315.722	5.27
316.091	5.29
316.46	5.62
316.829	5.65
317.198	5.61
317.567	5.67
317.935	5.67
318.304	5.81
318.672	5.77
319.041	5.82
319.41	5.74
319.778	5.85
320.147	5.78
320.515	5.85
320.883	5.92
321.252	5.96
321.62	5.91
321.988	5.94
322.357	5.97
322.725	5.94
323.093	5.78
323.461	5.81
323.829	5.76
324.197	5.6
324.565	5.62
324.933	5.54
325.301	5.39
325.669	5.36
326.037	5.37
326.405	5.37
326.772	5.27
327.14	5.4
327.508	5.35
327.875	5.25
328.243	5.08
328.61	4.96
328.978	4.94
329.346	4.95
329.713	4.91
330.08	5.02
330.448	5.19
330.815	5.3
331.182	5.17
331.55	5.29
331.917	5.29
332.284	5.41
332.651	5.47
333.018	5.56
333.385	5.59
333.752	5.68
334.119	5.65
334.486	5.84
334.853	5.77
335.22	5.87
335.587	6.02
335.954	6.17
336.32	6.4
336.687	6.55
337.054	6.49
337.42	6.54
337.787	6.51
338.153	6.52
338.52	6.72
338.886	6.92
339.253	6.86
339.619	6.91
339.986	6.81
340.352	6.82
340.718	6.96
341.084	6.97
341.451	6.89
341.817	7
342.183	6.92
342.549	7.04
342.915	7.15
343.281	7.12
343.647	7.14
344.013	6.99
344.379	6.9
344.745	6.97
345.11	6.92
345.476	6.87
345.842	6.74
346.208	6.58
346.573	6.58
346.939	6.56
347.304	6.63
347.67	6.7
348.035	6.75
348.401	6.56
348.766	6.5
349.132	6.49
349.497	6.5
349.862	6.41
350.228	6.43
350.593	6.33
350.958	6.38
351.323	6.23
351.688	6.3
352.053	6.35
352.418	6.22
352.783	6.28
353.148	6.36
353.513	6.49
353.878	6.48
354.243	6.38
354.608	6.51
354.972	6.48
355.337	6.39
355.702	6.28
356.066	6.38
356.431	6.39
356.795	6.3
357.16	6.21
357.524	6.18
357.889	6.13
358.253	6.08
358.618	5.99
358.982	6.02
359.346	6.04
359.71	6.09
360.075	6.12
360.439	6.13
360.803	6.08
361.167	5.97
361.531	5.95
361.895	5.94
362.259	5.81
362.623	5.72
362.987	5.72
363.351	5.75
363.714	5.64
364.078	5.58
364.442	5.63
364.806	5.6
365.169	5.69
365.533	5.63
365.896	5.61
366.26	5.64
366.623	5.69
366.987	5.7
367.35	5.63
367.714	5.64
368.077	5.55
368.44	5.56
368.803	5.54
369.167	5.49
369.53	5.49
369.893	5.4
370.256	5.43
370.619	5.41
370.982	5.39
371.345	5.53
371.708	5.5
372.071	5.49
372.434	5.42
372.797	5.33
373.159	5.37
373.522	5.35
373.885	5.38
374.247	5.32
374.61	5.22
374.973	5.18
375.335	5.17
375.698	5.15
376.06	5.09
376.423	5.12
376.785	5.18
377.147	5.12
377.51	5.16
377.872	5.17
378.234	5.07
378.596	5.06
378.958	5.02
379.321	5.03
379.683	5
380.045	5.09
380.407	5.11
380.769	5.01
381.13	5.01
381.492	4.93
381.854	4.97
382.216	4.97
382.578	4.99
382.939	4.94
383.301	4.92
383.663	4.89
384.024	4.85
384.386	4.79
384.747	4.74
385.109	4.74
385.47	4.74
385.832	4.74
386.193	4.73
386.554	4.61
386.916	4.61
387.277	4.52
387.638	4.5
387.999	4.46
388.36	4.5
388.721	4.51
389.082	4.5
389.443	4.47
389.804	4.42
390.165	4.39
390.526	4.34
390.887	4.35
391.248	4.34
391.609	4.37
391.969	4.37
392.33	4.36
392.691	4.38
393.051	4.33
393.412	4.34
393.772	4.31
394.133	4.32
394.493	4.29
394.854	4.31
395.214	4.32
395.574	4.32
395.935	4.29
396.295	4.29
396.655	4.32
397.015	4.25
397.376	4.28
397.736	4.28
398.096	4.29
398.456	4.25
398.816	4.23
399.176	4.19
399.535	4.16
399.895	4.19
400.255	4.12
400.615	4.1
400.975	4.08
401.334	4.09
401.694	4.07
402.054	4.07
402.413	4.08
402.773	4.03
403.132	4.02
403.492	4.01
403.851	3.98
404.211	3.91
404.57	3.92
404.929	3.88
405.288	3.87
405.648	3.85
406.007	3.85
406.366	3.83
406.725	3.83
407.084	3.85
407.443	3.82
407.802	3.82
408.161	3.84
408.52	3.83
408.879	3.8
409.238	3.82
409.596	3.81
409.955	3.8
410.314	3.78
410.673	3.76
411.031	3.72
411.39	3.69
411.748	3.71
412.107	3.72
412.465	3.74
412.824	3.68
413.182	3.7
413.54	3.72
413.899	3.72
414.257	3.73
414.615	3.66
414.974	3.68
415.332	3.69
415.69	3.67
416.048	3.67
416.406	3.67
416.764	3.68
417.122	3.67
417.48	3.67
417.838	3.64
418.195	3.64
418.553	3.65
418.911	3.63
419.269	3.63
419.626	3.6
419.984	3.6
420.342	3.61
420.699	3.59
421.057	3.57
421.414	3.57
421.772	3.55
422.129	3.55
422.486	3.53
422.844	3.52
423.201	3.51
423.558	3.51
423.915	3.51
424.273	3.48
424.63	3.49
424.987	3.48
425.344	3.47
425.701	3.48
426.058	3.48
426.415	3.49
426.772	3.48
427.128	3.49
427.485	3.47
427.842	3.45
428.199	3.47
428.555	3.45
428.912	3.44
429.269	3.44
429.625	3.48
429.982	3.48
430.338	3.48
430.695	3.47
431.051	3.48
431.407	3.48
431.764	3.49
432.12	3.47
432.476	3.47
432.832	3.48
433.189	3.45
433.545	3.45
433.901	3.44
434.257	3.43
434.613	3.42
434.969	3.44
435.325	3.46
435.681	3.44
436.036	3.47
436.392	3.47
436.748	3.48
437.104	3.46
437.459	3.46
437.815	3.47
438.171	3.49
438.526	3.48
438.882	3.48
439.237	3.48
439.593	3.48
439.948	3.47
440.304	3.47
440.659	3.47
441.014	3.47
441.369	3.49
441.725	3.49
442.08	3.49
442.435	3.48
442.79	3.47
443.145	3.48
443.5	3.46
443.855	3.44
444.21	3.45
444.565	3.45
444.92	3.45
445.275	3.43
445.629	3.42
445.984	3.41
446.339	3.41
446.693	3.39
447.048	3.38
447.403	3.4
447.757	3.39
448.112	3.4
448.466	3.39
448.82	3.38
449.175	3.37
449.529	3.38
449.883	3.36
450.238	3.36
450.592	3.36
450.946	3.37
451.3	3.37
451.654	3.36
452.008	3.35
452.362	3.33
452.716	3.34
453.07	3.33
453.424	3.33
453.778	3.32
454.132	3.33
454.486	3.36
454.839	3.34
455.193	3.35
455.547	3.33
455.9	3.35
456.254	3.36
456.607	3.36
456.961	3.37
457.314	3.38
457.668	3.37
458.021	3.38
458.375	3.38
458.728	3.38
459.081	3.39
459.434	3.37
459.787	3.39
460.141	3.4
460.494	3.41
460.847	3.41
461.2	3.41
461.553	3.42
461.906	3.42
462.259	3.42
462.611	3.43
462.964	3.44
463.317	3.41
463.67	3.43
464.022	3.42
464.375	3.43
464.728	3.43
465.08	3.43
465.433	3.42
465.785	3.45
466.138	3.48
466.49	3.49
466.843	3.53
467.195	3.53
467.547	3.51
467.899	3.54
468.252	3.55
468.604	3.56
468.956	3.55
469.308	3.54
469.66	3.55
470.012	3.55
470.364	3.54
470.716	3.57
471.068	3.54
471.42	3.56
471.772	3.56
472.123	3.59
472.475	3.6
472.827	3.61
473.178	3.6
473.53	3.58
473.882	3.55
474.233	3.54
474.585	3.54
474.936	3.56
475.288	3.54
475.639	3.52
475.99	3.52
476.342	3.52
476.693	3.52
477.044	3.5
477.395	3.49
477.746	3.5
478.097	3.48
478.448	3.49
478.8	3.47
479.15	3.45
479.501	3.44
479.852	3.45
480.203	3.45
480.554	3.45
480.905	3.45
481.255	3.46
481.606	3.46
481.957	3.46
482.307	3.45
482.658	3.46
483.009	3.47
483.359	3.48
483.709	3.48
484.06	3.49
484.41	3.49
484.761	3.5
485.111	3.51
485.461	3.52
485.811	3.52
486.162	3.53
486.512	3.53
486.862	3.53
487.212	3.53
487.562	3.52
487.912	3.52
488.262	3.52
488.612	3.52
488.961	3.53
489.311	3.54
489.661	3.55
490.011	3.53
490.36	3.53
490.71	3.53
491.06	3.53
491.409	3.51
491.759	3.51
492.108	3.51
492.458	3.5
492.807	3.5
493.157	3.5
493.506	3.51
493.855	3.5
494.204	3.5
494.554	3.5
494.903	3.51
495.252	3.53
495.601	3.56
495.95	3.57
496.299	3.57
496.648	3.57
496.997	3.57
497.346	3.6
497.695	3.59
498.043	3.62
498.392	3.61
498.741	3.64
499.09	3.66
499.438	3.69
499.787	3.68
500.135	3.7
500.484	3.71
500.832	3.71
501.181	3.75
501.529	3.83
501.878	3.86
502.226	3.88
502.574	3.9
502.923	3.89
503.271	3.9
503.619	3.9
503.967	3.9
504.315	3.92
504.663	3.94
505.011	3.98
505.359	3.95
505.707	3.99
506.055	4.01
506.403	4.04
506.751	4.05
507.098	4.11
507.446	4.12
507.794	4.15
508.141	4.17
508.489	4.18
508.837	4.15
509.184	4.16
509.531	4.2
509.879	4.21
510.226	4.23
510.574	4.26
510.921	4.29
511.268	4.31
511.616	4.34
511.963	4.35
512.31	4.37
512.657	4.43
513.004	4.45
513.351	4.48
513.698	4.53
514.045	4.54
514.392	4.55
514.739	4.58
515.086	4.64
515.432	4.67
515.779	4.71
516.126	4.77
516.473	4.81
516.819	4.82
517.166	4.85
517.512	4.9
517.859	4.95
518.205	4.97
518.552	5.02
518.898	5.06
519.245	5.1
519.591	5.13
519.937	5.16
520.283	5.18
520.629	5.21
520.976	5.24
521.322	5.3
521.668	5.34
522.014	5.39
522.36	5.42
522.706	5.48
523.052	5.54
523.398	5.58
523.743	5.64
524.089	5.71
524.435	5.79
524.781	5.86
525.126	5.89
525.472	5.94
525.817	5.98
526.163	6.03
526.509	6.09
526.854	6.14
527.199	6.19
527.545	6.24
527.89	6.3
528.235	6.34
528.581	6.38
528.926	6.44
529.271	6.5
529.616	6.56
529.961	6.63
530.306	6.68
530.651	6.75
530.996	6.82
531.341	6.91
531.686	6.96
532.031	7.02
532.376	7.1
532.721	7.18
533.065	7.27
533.41	7.36
533.755	7.45
534.099	7.54
534.444	7.63
534.788	7.72
535.133	7.82
535.477	7.92
535.822	8.05
536.166	8.18
536.51	8.29
536.855	8.41
537.199	8.55
537.543	8.71
537.887	8.87
538.231	9.01
538.576	9.17
538.92	9.36
539.264	9.51
539.608	9.66
539.951	9.83
540.295	9.99
540.639	10.14
540.983	10.28
541.327	10.44
541.671	10.6
542.014	10.75
542.358	10.89
542.701	11.06
543.045	11.2
543.389	11.35
543.732	11.54
544.075	11.73
544.419	11.91
544.762	12.11
545.105	12.28
545.449	12.47
545.792	12.68
546.135	12.91
546.478	13.15
546.821	13.41
547.165	13.67
547.508	13.93
547.851	14.19
548.194	14.47
548.536	14.74
548.879	15.03
549.222	15.33
549.565	15.62
549.908	15.91
550.25	16.23
550.593	16.53
550.936	16.81
551.278	17.12
551.621	17.39
551.963	17.72
552.306	18.06
552.648	18.39
552.991	18.7
553.333	18.99
553.675	19.3
554.017	19.64
554.36	19.98
554.702	20.25
555.044	20.58
555.386	20.89
555.728	21.23
556.07	21.57
556.412	21.93
556.754	22.32
557.096	22.64
557.438	23
557.78	23.44
558.121	23.82
558.463	24.19
558.805	24.57
559.147	24.92
559.488	25.26
559.83	25.65
560.171	25.95
560.513	26.32
560.854	26.7
561.196	27.1
561.537	27.38
561.878	27.77
562.22	28.11
562.561	28.43
562.902	28.85
563.243	29.17
563.584	29.51
563.925	29.86
564.266	30.23
564.607	30.6
564.948	30.87
565.289	31.17
565.63	31.45
565.971	31.76
566.312	32.05
566.653	32.41
566.993	32.69
567.334	33.07
567.675	33.46
568.015	33.82
568.356	34.1
568.696	34.41
569.037	34.69
569.377	35.02
569.718	35.35
570.058	35.57
570.398	35.86
570.739	36.15
571.079	36.42
571.419	36.71
571.759	36.99
572.099	37.25
572.439	37.6
572.779	37.89
573.119	38.19
573.459	38.43
573.799	38.68
574.139	38.93
574.479	39.17
574.819	39.36
575.158	39.55
575.498	39.8
575.838	40.06
576.177	40.36
576.517	40.59
576.856	40.88
577.196	41.18
577.535	41.54
577.875	41.81
578.214	42.05
578.553	42.3
578.893	42.52
579.232	42.78
579.571	43.01
579.91	43.29
580.25	43.53
580.589	43.76
580.928	44.03
581.267	44.34
581.606	44.59
581.945	44.81
582.283	45.1
582.622	45.25
582.961	45.57
583.3	45.8
583.639	46.05
583.977	46.27
584.316	46.5
584.654	46.66
584.993	46.86
585.332	47.07
585.67	47.25
586.008	47.47
586.347	47.71
586.685	47.92
587.024	48.1
587.362	48.3
587.7	48.55
588.038	48.77
588.376	48.94
588.715	49.06
589.053	49.2
589.391	49.34
589.729	49.56
590.067	49.71
590.404	49.84
590.742	50.03
591.08	50.17
591.418	50.39
591.756	50.57
592.093	50.69
592.431	50.93
592.769	51.09
593.106	51.29
593.444	51.52
593.781	51.62
594.119	51.78
594.456	51.94
594.793	52.04
595.131	52.12
595.468	52.29
595.805	52.49
596.143	52.62
596.48	52.75
596.817	52.87
597.154	52.99
597.491	53.15
597.828	53.28
598.165	53.39
598.502	53.46
598.839	53.61
599.176	53.81
599.512	53.87
599.849	54.09
600.186	54.11
600.523	54.12
600.859	54.26
601.196	54.33
601.532	54.44
601.869	54.59
602.205	54.7
602.542	54.77
602.878	54.9
603.215	54.98
603.551	55.09
603.887	55.18
604.223	55.26
604.56	55.28
604.896	55.38
605.232	55.53
605.568	55.65
605.904	55.68
606.24	55.8
606.576	55.93
606.912	55.99
607.248	56.1
607.583	56.23
607.919	56.4
608.255	56.54
608.591	56.6
608.926	56.7
609.262	56.87
609.597	56.9
609.933	56.89
610.268	57.03
610.604	57.08
610.939	57.24
611.275	57.34
611.61	57.43
611.945	57.52
612.281	57.56
612.616	57.63
612.951	57.74
613.286	57.85
613.621	57.94
613.956	58.08
614.291	58.24
614.626	58.35
614.961	58.34
615.296	58.48
615.631	58.65
615.966	58.71
616.3	58.7
616.635	58.78
616.97	58.95
617.304	59.04
617.639	59.14
617.973	59.21
618.308	59.24
618.642	59.48
618.977	59.48
619.311	59.57
619.646	59.62
619.98	59.61
620.314	59.51
620.648	59.62
620.983	59.73
621.317	59.76
621.651	59.86
621.985	59.91
622.319	59.85
622.653	59.92
622.987	59.98
623.321	60.11
623.655	60.33
623.988	60.5
624.322	60.56
624.656	60.57
624.99	60.58
625.323	60.57
625.657	60.54
625.99	60.59
626.324	60.69
626.657	60.71
626.991	60.85
627.324	60.95
627.658	60.9
627.991	60.91
628.324	60.96
628.657	60.95
628.991	60.97
629.324	61.16
629.657	61.2
629.99	61.3
630.323	61.38
630.656	61.34
630.989	61.34
631.322	61.32
631.655	61.45
631.987	61.49
632.32	61.56
632.653	61.49
632.986	61.48
633.318	61.45
633.651	61.53
633.984	61.52
634.316	61.54
634.649	61.58
634.981	61.58
635.313	61.67
635.646	61.7
635.978	61.78
636.31	61.77
636.643	61.71
636.975	61.68
637.307	61.71
637.639	61.77
637.971	61.72
638.303	61.77
638.635	61.74
638.967	61.68
639.299	61.78
639.631	61.9
639.963	62.07
640.295	62.2
640.626	62.17
640.958	62.28
641.29	62.33
641.621	62.36
641.953	62.39
642.285	62.47
642.616	62.51
642.948	62.47
643.279	62.35
643.61	62.45
643.942	62.55
644.273	62.53
644.604	62.59
644.936	62.61
645.267	62.75
645.598	62.82
645.929	62.9
646.26	62.94
646.591	63.16
646.922	63.05
647.253	63.01
647.584	62.97
647.915	62.93
648.245	62.99
648.576	63.1
648.907	63.18
649.238	63.22
649.568	63.32
649.899	63.33
650.229	63.47
650.56	63.61
650.89	63.73
651.221	63.72
651.551	63.88
651.882	64.04
652.212	63.89
652.542	63.9
652.872	63.9
653.203	63.99
653.533	63.8
653.863	63.84
654.193	63.87
654.523	63.93
654.853	63.95
655.183	64.01
655.513	64.05
655.843	63.98
656.172	63.89
656.502	63.83
656.832	63.78
657.162	63.72
657.491	63.71
657.821	63.58
658.15	63.58
658.48	63.53
658.809	63.39
659.139	63.44
659.468	63.44
659.798	63.52
660.127	63.44
660.456	63.56
660.785	63.57
661.115	63.66
661.444	63.77
661.773	63.85
662.102	63.85
662.431	63.82
662.76	63.92
663.089	64.02
663.418	64.23
663.747	64.47
664.076	64.65
664.404	64.79
664.733	64.86
665.062	64.84
665.39	64.85
665.719	65.01
666.048	65.1
666.376	65.15
666.705	65.14
667.033	65.19
667.362	65.08
667.69	65.21
668.018	65.27
668.347	65.22
