Data from BA17724_Reflection_00011.txt Node
Date: Tue Nov 19 11:58:05 EST 2019
User: vgr7
Spectrometer: USB2G7710
Scans to average: 3
Trigger mode: 4
Integration Time (sec): 2.000000E-2
Electric dark correction enabled: true
Boxcar width: 10
XAxis mode: Wavelengths
Number of Pixels in Spectrum: 2048
>>>>>Begin Spectral Data<<<<<
177.721	66.33
178.105	173.17
178.488	111.87
178.871	171.59
179.254	250
179.636	2132.26
180.019	154.88
180.402	-21.21
180.785	-285.71
181.168	-92.51
181.55	-345.31
181.933	-38.25
182.316	-66.09
182.698	-122.61
183.081	-239.78
183.463	-173.36
183.846	-203.68
184.228	-277.95
184.611	-5900
184.993	-560
185.376	328.81
185.758	-1775
186.14	-38.46
186.522	-34.33
186.904	-237.5
187.287	-0.79
187.669	-33.93
188.051	39.6
188.433	100
188.815	142.15
189.197	160.69
189.579	127.93
189.961	100
190.342	120.18
190.724	186.28
191.106	105.14
191.488	72.01
191.869	14.51
192.251	-3.45
192.633	-19.59
193.014	-75.63
193.396	-41.06
193.777	-239.78
194.159	-277.01
194.54	-451.47
194.922	-467.57
195.303	-1475
195.684	-1139.13
196.065	1234.15
196.447	1054.55
196.828	-2272.09
197.209	1965.85
197.59	1025.53
197.971	-511.84
198.352	-147.93
198.733	-18.81
199.114	91.12
199.495	92.35
199.876	90.13
200.257	323.14
200.638	1678.95
201.018	285.39
201.399	2631.25
201.78	179.33
202.16	194.29
202.541	169.33
202.922	153.36
203.302	76.49
203.683	61.97
204.063	35.96
204.444	128.63
204.824	550
205.204	498.44
205.585	475
205.965	-133.49
206.345	-22.78
206.725	5.57
207.106	24.55
207.486	0.83
207.866	2.4
208.246	10.56
208.626	3.02
209.006	15.57
209.386	4.2
209.766	-28.57
210.145	-11.28
210.525	-1.38
210.905	-4.4
211.285	3.87
211.664	11.24
212.044	20.6
212.424	32.02
212.803	31.26
213.183	33.7
213.562	35.83
213.942	48.84
214.321	50.88
214.701	52.08
215.08	50.17
215.459	56.36
215.838	75.63
216.218	65.06
216.597	47.49
216.976	43.08
217.355	50.93
217.734	50.11
218.113	46.93
218.492	32.08
218.871	36.42
219.25	23.79
219.629	-4.54
220.008	-22.06
220.387	-28.05
220.766	-10.81
221.144	-18.57
221.523	-21.45
221.902	2.92
222.28	-1.2
222.659	21.66
223.037	13.41
223.416	23.4
223.794	20.08
224.173	14.83
224.551	21.81
224.929	20.2
225.308	18.48
225.686	18.3
226.064	11.35
226.442	15.8
226.821	13.39
227.199	14.39
227.577	16.21
227.955	14.42
228.333	11.76
228.711	14.02
229.089	14.76
229.467	10.84
229.845	7.52
230.222	3.44
230.6	1.46
230.978	3.41
231.356	2.82
231.733	3.51
232.111	7.07
232.488	7.56
232.866	7.63
233.243	6.65
233.621	5.53
233.998	6.55
234.376	7.41
234.753	5.44
235.13	3.4
235.508	5.59
235.885	5.71
236.262	7.59
236.639	6.3
237.016	5.66
237.393	7.14
237.77	7.5
238.147	8.52
238.524	7.38
238.901	7.31
239.278	6.57
239.655	6.39
240.032	5.7
240.409	5.53
240.785	5.22
241.162	4.62
241.539	5.33
241.915	5.61
242.292	5.99
242.668	6.16
243.045	6.97
243.421	7.02
243.798	6.88
244.174	6.73
244.551	6.52
244.927	6.38
245.303	6.08
245.679	6.13
246.056	6.08
246.432	6.17
246.808	6.07
247.184	6.02
247.56	5.68
247.936	5.79
248.312	5.7
248.688	5.77
249.064	5.84
249.44	5.6
249.815	5.49
250.191	5.27
250.567	5.16
250.943	4.89
251.318	4.49
251.694	4.33
252.069	4.11
252.445	4.17
252.82	4.49
253.196	4.82
253.571	4.53
253.947	4.66
254.322	4.7
254.697	4.82
255.073	4.79
255.448	5.05
255.823	4.8
256.198	4.85
256.573	4.89
256.948	5.06
257.323	5.26
257.698	5.17
258.073	5.05
258.448	5.3
258.823	5.22
259.198	5.35
259.573	5.33
259.948	5.55
260.322	5.44
260.697	5.48
261.072	5.28
261.446	5.41
261.821	5.5
262.195	5.39
262.57	5.48
262.944	5.65
263.319	5.61
263.693	5.81
264.067	5.67
264.442	5.79
264.816	5.64
265.19	5.65
265.564	5.6
265.938	5.52
266.313	5.16
266.687	5.3
267.061	5.21
267.435	5.38
267.809	5.03
268.183	5.02
268.556	4.8
268.93	4.73
269.304	4.65
269.678	4.51
270.051	4.5
270.425	4.47
270.799	4.17
271.172	4.07
271.546	4.15
271.919	4.31
272.293	4.27
272.666	4.46
273.04	4.48
273.413	4.51
273.787	4.53
274.16	4.63
274.533	4.52
274.906	4.61
275.279	4.64
275.653	4.83
276.026	4.97
276.399	4.84
276.772	4.79
277.145	4.94
277.518	4.93
277.891	5.26
278.263	5.2
278.636	5.38
279.009	5.56
279.382	5.3
279.755	5.17
280.127	5.13
280.5	5.01
280.872	4.87
281.245	4.92
281.617	4.93
281.99	4.95
282.362	5.02
282.735	4.77
283.107	4.77
283.479	4.81
283.852	4.93
284.224	5.25
284.596	5.41
284.968	5.2
285.34	5.14
285.713	5.01
286.085	5
286.457	4.83
286.829	4.65
287.201	4.81
287.572	4.88
287.944	4.96
288.316	5.13
288.688	5.13
289.06	5.03
289.431	5.09
289.803	5.24
290.175	5.29
290.546	5.41
290.918	5.35
291.289	5.21
291.661	5.12
292.032	5.1
292.403	5.14
292.775	5.22
293.146	5.4
293.517	5.43
293.889	5.53
294.26	5.61
294.631	5.92
295.002	5.86
295.373	5.76
295.744	5.74
296.115	5.7
296.486	5.72
296.857	5.92
297.228	5.81
297.599	5.62
297.97	5.61
298.34	5.73
298.711	5.78
299.082	5.82
299.452	5.88
299.823	5.74
300.194	5.62
300.564	5.52
300.935	5.38
301.305	5.41
301.676	5.19
302.046	5.33
302.416	5.09
302.787	5.11
303.157	5.22
303.527	5.29
303.897	5.2
304.267	5.41
304.637	5.28
305.008	5.4
305.378	5.51
305.748	5.55
306.117	5.52
306.487	5.5
306.857	5.53
307.227	5.55
307.597	5.62
307.967	5.75
308.336	5.88
308.706	6.02
309.076	6.06
309.445	6.25
309.815	6.26
310.184	6.33
310.554	6.38
310.923	6.24
311.293	6.31
311.662	6.38
312.031	6.29
312.401	6.21
312.77	6.2
313.139	6.16
313.508	6.08
313.877	6.02
314.246	5.95
314.616	6.03
314.985	5.97
315.353	5.96
315.722	5.98
316.091	5.91
316.46	5.87
316.829	5.73
317.198	5.61
317.567	5.5
317.935	5.6
318.304	5.68
318.672	5.87
319.041	5.64
319.41	5.48
319.778	5.25
320.147	5.46
320.515	5.42
320.883	5.52
321.252	5.5
321.62	5.49
321.988	5.49
322.357	5.37
322.725	5.38
323.093	5.46
323.461	5.33
323.829	5.46
324.197	5.45
324.565	5.46
324.933	5.48
325.301	5.28
325.669	5.26
326.037	5.03
326.405	5
326.772	5.02
327.14	4.99
327.508	5.13
327.875	5.05
328.243	5.08
328.61	5.1
328.978	5.15
329.346	5.22
329.713	5.3
330.08	5.44
330.448	5.5
330.815	5.53
331.182	5.71
331.55	5.74
331.917	5.76
332.284	5.85
332.651	5.88
333.018	6.06
333.385	6
333.752	5.97
334.119	6.02
334.486	6.07
334.853	6.31
335.22	6.31
335.587	6.31
335.954	6.34
336.32	6.54
336.687	6.66
337.054	6.68
337.42	6.73
337.787	6.77
338.153	6.7
338.52	6.66
338.886	6.59
339.253	6.48
339.619	6.47
339.986	6.37
340.352	6.54
340.718	6.61
341.084	6.7
341.451	6.81
341.817	6.74
342.183	6.73
342.549	6.64
342.915	6.65
343.281	6.68
343.647	6.77
344.013	6.6
344.379	6.44
344.745	6.44
345.11	6.46
345.476	6.42
345.842	6.51
346.208	6.54
346.573	6.52
346.939	6.61
347.304	6.65
347.67	6.79
348.035	6.6
348.401	6.58
348.766	6.46
349.132	6.51
349.497	6.65
349.862	6.75
350.228	6.75
350.593	6.79
350.958	6.84
351.323	6.74
351.688	6.78
352.053	6.71
352.418	6.82
352.783	6.77
353.148	6.66
353.513	6.59
353.878	6.45
354.243	6.4
354.608	6.42
354.972	6.33
355.337	6.29
355.702	6.31
356.066	6.28
356.431	6.27
356.795	6.2
357.16	6.16
357.524	6.04
357.889	6.05
358.253	5.97
358.618	5.93
358.982	5.97
359.346	5.93
359.71	6.03
360.075	5.98
360.439	5.99
360.803	6.04
361.167	6.04
361.531	6.08
361.895	6.13
362.259	6.11
362.623	6.1
362.987	6.03
363.351	6.04
363.714	6.08
364.078	6.16
364.442	6.2
364.806	6.22
365.169	6.27
365.533	6.24
365.896	6.31
366.26	6.26
366.623	6.23
366.987	6.24
367.35	6.22
367.714	6.18
368.077	6.14
368.44	6.15
368.803	6.02
369.167	6.01
369.53	6
369.893	5.91
370.256	5.94
370.619	5.9
370.982	5.78
371.345	5.76
371.708	5.67
372.071	5.61
372.434	5.47
372.797	5.35
373.159	5.31
373.522	5.21
373.885	5.26
374.247	5.29
374.61	5.22
374.973	5.19
375.335	5.1
375.698	5.09
376.06	5
376.423	5.1
376.785	5.11
377.147	5.07
377.51	5.09
377.872	5.08
378.234	5.14
378.596	5.21
378.958	5.2
379.321	5.16
379.683	5.21
380.045	5.24
380.407	5.29
380.769	5.28
381.13	5.24
381.492	5.17
381.854	5.16
382.216	5.2
382.578	5.18
382.939	5.18
383.301	5.2
383.663	5.22
384.024	5.21
384.386	5.15
384.747	5.1
385.109	5.1
385.47	5.05
385.832	4.98
386.193	4.91
386.554	4.91
386.916	4.95
387.277	4.89
387.638	4.89
387.999	4.85
388.36	4.85
388.721	4.87
389.082	4.88
389.443	4.88
389.804	4.8
390.165	4.81
390.526	4.82
390.887	4.79
391.248	4.77
391.609	4.76
391.969	4.81
392.33	4.77
392.691	4.73
393.051	4.74
393.412	4.77
393.772	4.8
394.133	4.75
394.493	4.7
394.854	4.72
395.214	4.69
395.574	4.71
395.935	4.67
396.295	4.73
396.655	4.71
397.015	4.66
397.376	4.7
397.736	4.67
398.096	4.7
398.456	4.67
398.816	4.67
399.176	4.61
399.535	4.53
399.895	4.54
400.255	4.56
400.615	4.53
400.975	4.52
401.334	4.49
401.694	4.5
402.054	4.48
402.413	4.45
402.773	4.47
403.132	4.45
403.492	4.47
403.851	4.42
404.211	4.41
404.57	4.4
404.929	4.38
405.288	4.41
405.648	4.36
406.007	4.39
406.366	4.37
406.725	4.38
407.084	4.41
407.443	4.41
407.802	4.38
408.161	4.37
408.52	4.35
408.879	4.36
409.238	4.37
409.596	4.39
409.955	4.34
410.314	4.32
410.673	4.32
411.031	4.31
411.39	4.33
411.748	4.32
412.107	4.34
412.465	4.31
412.824	4.28
413.182	4.29
413.54	4.27
413.899	4.27
414.257	4.23
414.615	4.21
414.974	4.25
415.332	4.24
415.69	4.26
416.048	4.3
416.406	4.27
416.764	4.25
417.122	4.24
417.48	4.24
417.838	4.26
418.195	4.22
418.553	4.22
418.911	4.19
419.269	4.18
419.626	4.14
419.984	4.14
420.342	4.13
420.699	4.13
421.057	4.12
421.414	4.11
421.772	4.13
422.129	4.14
422.486	4.13
422.844	4.12
423.201	4.1
423.558	4.08
423.915	4.08
424.273	4.07
424.63	4.08
424.987	4.08
425.344	4.07
425.701	4.08
426.058	4.08
426.415	4.08
426.772	4.07
427.128	4.08
427.485	4.09
427.842	4.09
428.199	4.08
428.555	4.07
428.912	4.06
429.269	4.03
429.625	4
429.982	4.01
430.338	4.02
430.695	4.01
431.051	4.01
431.407	4.01
431.764	4.02
432.12	4.03
432.476	4.02
432.832	4.03
433.189	4.03
433.545	4.04
433.901	4.05
434.257	4.02
434.613	4.02
434.969	4.01
435.325	4.01
435.681	4.02
436.036	4.04
436.392	4.06
436.748	4.08
437.104	4.05
437.459	4.02
437.815	4.03
438.171	4.04
438.526	4.03
438.882	4.03
439.237	4.01
439.593	4
439.948	4
440.304	3.98
440.659	3.98
441.014	3.99
441.369	4
441.725	4.01
442.08	4
442.435	4.01
442.79	4.02
443.145	4
443.5	3.99
443.855	3.98
444.21	3.97
444.565	4
444.92	4.01
445.275	4
445.629	3.98
445.984	3.97
446.339	3.97
446.693	3.97
447.048	3.96
447.403	3.95
447.757	3.94
448.112	3.93
448.466	3.91
448.82	3.9
449.175	3.9
449.529	3.93
449.883	3.91
450.238	3.9
450.592	3.91
450.946	3.91
451.3	3.88
451.654	3.87
452.008	3.86
452.362	3.85
452.716	3.86
453.07	3.88
453.424	3.88
453.778	3.87
454.132	3.87
454.486	3.88
454.839	3.88
455.193	3.88
455.547	3.88
455.9	3.91
456.254	3.91
456.607	3.92
456.961	3.92
457.314	3.9
457.668	3.93
458.021	3.92
458.375	3.93
458.728	3.93
459.081	3.94
459.434	3.94
459.787	3.96
460.141	3.97
460.494	3.97
460.847	3.98
461.2	3.96
461.553	3.95
461.906	3.95
462.259	3.96
462.611	3.94
462.964	3.96
463.317	3.94
463.67	3.94
464.022	3.92
464.375	3.9
464.728	3.91
465.08	3.88
465.433	3.85
465.785	3.84
466.138	3.84
466.49	3.83
466.843	3.85
467.195	3.84
467.547	3.84
467.899	3.84
468.252	3.83
468.604	3.85
468.956	3.87
469.308	3.88
469.66	3.88
470.012	3.9
470.364	3.87
470.716	3.89
471.068	3.88
471.42	3.91
471.772	3.93
472.123	3.95
472.475	3.96
472.827	3.96
473.178	3.96
473.53	3.97
473.882	3.97
474.233	3.95
474.585	3.95
474.936	3.94
475.288	3.93
475.639	3.95
475.99	3.95
476.342	3.94
476.693	3.92
477.044	3.94
477.395	3.93
477.746	3.95
478.097	3.92
478.448	3.93
478.8	3.91
479.15	3.89
479.501	3.89
479.852	3.89
480.203	3.93
480.554	3.94
480.905	3.94
481.255	3.94
481.606	3.94
481.957	3.95
482.307	3.95
482.658	3.96
483.009	3.95
483.359	3.95
483.709	3.96
484.06	3.97
484.41	3.98
484.761	3.99
485.111	3.98
485.461	4
485.811	4
486.162	4.01
486.512	4.02
486.862	4.02
487.212	4.03
487.562	4.02
487.912	4.03
488.262	4.04
488.612	4.05
488.961	4.07
489.311	4.07
489.661	4.06
490.011	4.07
490.36	4.08
490.71	4.08
491.06	4.07
491.409	4.07
491.759	4.05
492.108	4.04
492.458	4.04
492.807	4.04
493.157	4.05
493.506	4.05
493.855	4.04
494.204	4.04
494.554	4.04
494.903	4.05
495.252	4.04
495.601	4.03
495.95	4.03
496.299	4.02
496.648	4.03
496.997	4.04
497.346	4.06
497.695	4.06
498.043	4.09
498.392	4.09
498.741	4.11
499.09	4.14
499.438	4.19
499.787	4.2
500.135	4.19
500.484	4.22
500.832	4.22
501.181	4.24
501.529	4.26
501.878	4.3
502.226	4.3
502.574	4.3
502.923	4.33
503.271	4.35
503.619	4.37
503.967	4.37
504.315	4.36
504.663	4.37
505.011	4.37
505.359	4.38
505.707	4.42
506.055	4.43
506.403	4.44
506.751	4.42
507.098	4.43
507.446	4.46
507.794	4.46
508.141	4.49
508.489	4.52
508.837	4.54
509.184	4.54
509.531	4.56
509.879	4.59
510.226	4.61
510.574	4.66
510.921	4.66
511.268	4.7
511.616	4.76
511.963	4.81
512.31	4.86
512.657	4.88
513.004	4.87
513.351	4.89
513.698	4.92
514.045	4.97
514.392	5.01
514.739	5.04
515.086	5.08
515.432	5.09
515.779	5.12
516.126	5.15
516.473	5.17
516.819	5.21
517.166	5.24
517.512	5.26
517.859	5.27
518.205	5.31
518.552	5.32
518.898	5.34
519.245	5.37
519.591	5.38
519.937	5.39
520.283	5.45
520.629	5.48
520.976	5.52
521.322	5.55
521.668	5.6
522.014	5.63
522.36	5.68
522.706	5.74
523.052	5.82
523.398	5.88
523.743	5.95
524.089	6.03
524.435	6.08
524.781	6.16
525.126	6.21
525.472	6.26
525.817	6.32
526.163	6.36
526.509	6.41
526.854	6.45
527.199	6.51
527.545	6.55
527.89	6.6
528.235	6.65
528.581	6.7
528.926	6.73
529.271	6.8
529.616	6.85
529.961	6.89
530.306	6.92
530.651	6.98
530.996	7.05
531.341	7.11
531.686	7.19
532.031	7.26
532.376	7.35
532.721	7.44
533.065	7.51
533.41	7.6
533.755	7.71
534.099	7.8
534.444	7.9
534.788	8.01
535.133	8.12
535.477	8.22
535.822	8.35
536.166	8.49
536.51	8.63
536.855	8.79
537.199	8.92
537.543	9.1
537.887	9.26
538.231	9.45
538.576	9.63
538.92	9.8
539.264	9.99
539.608	10.15
539.951	10.29
540.295	10.45
540.639	10.61
540.983	10.75
541.327	10.92
541.671	11.05
542.014	11.22
542.358	11.37
542.701	11.54
543.045	11.7
543.389	11.85
543.732	12.01
544.075	12.16
544.419	12.38
544.762	12.57
545.105	12.76
545.449	12.95
545.792	13.17
546.135	13.39
546.478	13.59
546.821	13.83
547.165	14.09
547.508	14.33
547.851	14.6
548.194	14.88
548.536	15.13
548.879	15.43
549.222	15.7
549.565	15.99
549.908	16.23
550.25	16.51
550.593	16.81
550.936	17.1
551.278	17.4
551.621	17.66
551.963	17.95
552.306	18.26
552.648	18.53
552.991	18.78
553.333	19.05
553.675	19.34
554.017	19.61
554.36	19.91
554.702	20.19
555.044	20.45
555.386	20.72
555.728	21.07
556.07	21.33
556.412	21.64
556.754	21.92
557.096	22.29
557.438	22.58
557.78	22.92
558.121	23.29
558.463	23.6
558.805	23.98
559.147	24.32
559.488	24.68
559.83	24.97
560.171	25.33
560.513	25.7
560.854	26.03
561.196	26.34
561.537	26.62
561.878	26.94
562.22	27.29
562.561	27.63
562.902	27.91
563.243	28.23
563.584	28.53
563.925	28.88
564.266	29.14
564.607	29.47
564.948	29.72
565.289	29.97
565.63	30.29
565.971	30.53
566.312	30.75
566.653	30.99
566.993	31.29
567.334	31.58
567.675	31.85
568.015	32.15
568.356	32.42
568.696	32.7
569.037	32.98
569.377	33.21
569.718	33.45
570.058	33.66
570.398	33.93
570.739	34.21
571.079	34.43
571.419	34.72
571.759	34.96
572.099	35.22
572.439	35.45
572.779	35.7
573.119	35.91
573.459	36.11
573.799	36.33
574.139	36.58
574.479	36.79
574.819	37
575.158	37.24
575.498	37.52
575.838	37.82
576.177	38.1
576.517	38.39
576.856	38.65
577.196	39.04
577.535	39.3
577.875	39.53
578.214	39.77
578.553	40.03
578.893	40.29
579.232	40.59
579.571	40.93
579.91	41.19
580.25	41.52
580.589	41.94
580.928	42.28
581.267	42.55
581.606	42.8
581.945	43.06
582.283	43.17
582.622	43.4
582.961	43.57
583.3	43.85
583.639	44.05
583.977	44.3
584.316	44.38
584.654	44.58
584.993	44.84
585.332	45.13
585.67	45.28
586.008	45.49
586.347	45.65
586.685	45.83
587.024	46.05
587.362	46.23
587.7	46.34
588.038	46.52
588.376	46.67
588.715	46.78
589.053	46.94
589.391	47.23
589.729	47.38
590.067	47.51
590.404	47.56
590.742	47.76
591.08	47.89
591.418	48.11
591.756	48.32
592.093	48.51
592.431	48.67
592.769	48.82
593.106	48.93
593.444	49.17
593.781	49.37
594.119	49.49
594.456	49.52
594.793	49.62
595.131	49.67
595.468	49.79
595.805	49.92
596.143	50.02
596.48	50.1
596.817	50.17
597.154	50.32
597.491	50.45
597.828	50.57
598.165	50.68
598.502	50.75
598.839	50.96
599.176	51
599.512	51.06
599.849	51.15
600.186	51.31
600.523	51.33
600.859	51.43
601.196	51.57
601.532	51.84
601.869	51.97
602.205	52.09
602.542	52.24
602.878	52.41
603.215	52.51
603.551	52.6
603.887	52.74
604.223	52.8
604.56	52.88
604.896	52.95
605.232	53.05
605.568	53.18
605.904	53.18
606.24	53.28
606.576	53.39
606.912	53.62
607.248	53.79
607.583	53.85
607.919	53.96
608.255	54.08
608.591	54.13
608.926	54.3
609.262	54.36
609.597	54.44
609.933	54.54
610.268	54.64
610.604	54.75
610.939	54.87
611.275	54.96
611.61	55.07
611.945	55.19
612.281	55.36
612.616	55.53
612.951	55.6
613.286	55.69
613.621	55.91
613.956	55.92
614.291	55.97
614.626	56.24
614.961	56.33
615.296	56.4
615.631	56.4
615.966	56.48
616.3	56.79
616.635	56.83
616.97	56.92
617.304	56.99
617.639	57.05
617.973	57.07
618.308	57.22
618.642	57.32
618.977	57.34
619.311	57.35
619.646	57.27
619.98	57.39
620.314	57.54
620.648	57.57
620.983	57.7
621.317	57.78
621.651	57.82
621.985	57.75
622.319	57.73
622.653	57.77
622.987	57.79
623.321	57.76
623.655	57.79
623.988	57.76
624.322	57.82
624.656	57.8
624.99	57.95
625.323	57.99
625.657	58.04
625.99	58.17
626.324	58.15
626.657	58.25
626.991	58.26
627.324	58.32
627.658	58.33
627.991	58.37
628.324	58.4
628.657	58.39
628.991	58.58
629.324	58.75
629.657	58.93
629.99	58.91
630.323	58.98
630.656	59.06
630.989	59.12
631.322	59.33
631.655	59.48
631.987	59.45
632.32	59.55
632.653	59.6
632.986	59.63
633.318	59.8
633.651	59.93
633.984	59.99
634.316	60.08
634.649	60.11
634.981	60.09
635.313	60.19
635.646	60.38
635.978	60.41
636.31	60.48
636.643	60.49
636.975	60.65
637.307	60.74
637.639	60.88
637.971	61.07
638.303	60.96
638.635	60.99
638.967	61.19
639.299	61.3
639.631	61.47
639.963	61.5
640.295	61.53
640.626	61.51
640.958	61.61
641.29	61.65
641.621	61.78
641.953	61.85
642.285	61.92
642.616	61.8
642.948	61.88
643.279	61.9
643.61	62.16
643.942	62.24
644.273	62.18
644.604	62.14
644.936	62.22
645.267	62.39
645.598	62.43
645.929	62.34
646.26	62.3
646.591	62.22
646.922	62.14
647.253	62.09
647.584	62.15
647.915	62.16
648.245	62.14
648.576	62
648.907	62.09
649.238	62.14
649.568	62.15
649.899	62.12
650.229	62.14
650.56	61.96
650.89	61.96
651.221	62.09
651.551	62.18
651.882	62.17
652.212	62.09
652.542	62.14
652.872	62.15
653.203	62.15
653.533	62.09
653.863	62.13
654.193	62.26
654.523	62.24
654.853	62.3
655.183	62.3
655.513	62.4
655.843	62.28
656.172	62.25
656.502	62.29
656.832	62.35
657.162	62.26
657.491	62.23
657.821	62.25
658.15	62.14
658.48	62.21
658.809	62.25
659.139	62.25
659.468	62.32
659.798	62.53
660.127	62.56
660.456	62.7
660.785	62.9
661.115	62.98
661.444	63.04
661.773	62.95
662.102	62.92
662.431	62.97
662.76	63.25
663.089	63.36
663.418	63.49
663.747	63.46
664.076	63.54
664.404	63.7
664.733	63.71
665.062	63.76
665.39	63.67
665.719	63.69
666.048	63.85
666.376	63.92
666.705	63.9
667.033	63.83
667.362	63.79
667.69	63.7
668.018	63.72
668.347	63.88
668.675	64.02
669.003	64.17
669.331	64.34
669.659	64.16
669.987	64.2
670.315	64.13
