Data from BA17726_Reflection_00011.txt Node
Date: Tue Nov 19 11:57:10 EST 2019
User: vgr7
Spectrometer: USB2G7710
Scans to average: 3
Trigger mode: 4
Integration Time (sec): 2.000000E-2
Electric dark correction enabled: true
Boxcar width: 10
XAxis mode: Wavelengths
Number of Pixels in Spectrum: 2048
>>>>>Begin Spectral Data<<<<<
177.721	101.67
178.105	243.94
178.488	149.11
178.871	154.49
179.254	137.63
179.636	56.18
180.019	66.33
180.402	141.67
180.785	142.03
181.168	28.48
181.55	39.78
181.933	501.96
182.316	508.05
182.698	134.59
183.081	44.44
183.463	54.11
183.846	130.47
184.228	115.67
184.611	123.13
184.993	174.77
185.376	223.19
185.758	170.43
186.14	245.53
186.522	151.32
186.904	206.97
187.287	296.84
187.669	327.13
188.051	388.05
188.433	17711.11
188.815	1257.66
189.197	-1342.53
189.579	671.04
189.961	288.71
190.342	178.73
190.724	441.53
191.106	-985.86
191.488	1701.45
191.869	249.4
192.251	306.11
192.633	189.61
193.014	168.54
193.396	104.81
193.777	87.93
194.159	94.8
194.54	87.12
194.922	60.63
195.303	31.52
195.684	12.98
196.065	26.51
196.447	32.1
196.828	39.04
197.209	47.82
197.59	42.69
197.971	38.14
198.352	54.17
198.733	49.63
199.114	42.15
199.495	33.94
199.876	34.66
200.257	32.44
200.638	44.92
201.018	43.02
201.399	53.98
201.78	55.36
202.16	59.77
202.541	72.18
202.922	81.78
203.302	72.58
203.683	69.32
204.063	63.91
204.444	68.2
204.824	64.88
205.204	76.19
205.585	93.09
205.965	99.71
206.345	80.78
206.725	97.79
207.106	103.26
207.486	129.12
207.866	127.83
208.246	134.02
208.626	137.32
209.006	123.2
209.386	95.89
209.766	85.29
210.145	72.09
210.525	62
210.905	48.45
211.285	60.41
211.664	56.64
212.044	70.33
212.424	55.95
212.803	64.66
213.183	41.1
213.562	39.14
213.942	27.21
214.321	26.64
214.701	16.07
215.08	18.36
215.459	20.34
215.838	8.56
216.218	-1.91
216.597	3.58
216.976	4.16
217.355	17.39
217.734	18.25
218.113	20.81
218.492	17.27
218.871	18.08
219.25	15.24
219.629	18.87
220.008	11.98
220.387	17.57
220.766	19.82
221.144	30.63
221.523	28.83
221.902	38.31
222.28	44.62
222.659	52.69
223.037	45.33
223.416	47.29
223.794	46.55
224.173	41.72
224.551	34.34
224.929	32.23
225.308	19.83
225.686	21.41
226.064	15.79
226.442	13.65
226.821	9.34
227.199	12.48
227.577	9.86
227.955	8.79
228.333	9.51
228.711	9.51
229.089	9.13
229.467	7.23
229.845	5.58
230.222	7.17
230.6	4.73
230.978	7.9
231.356	7.3
231.733	7.1
232.111	7.55
232.488	9.07
232.866	8.13
233.243	9.97
233.621	8.78
233.998	9.88
234.376	9.97
234.753	10.86
235.13	9.71
235.508	8.82
235.885	9.73
236.262	8.39
236.639	8.14
237.016	6.04
237.393	7.59
237.77	8.55
238.147	7.56
238.524	7.46
238.901	4.99
239.278	2.73
239.655	3.51
240.032	3.11
240.409	3.89
240.785	4.77
241.162	4.73
241.539	5.06
241.915	5.03
242.292	5.6
242.668	6.19
243.045	6.34
243.421	6.7
243.798	6.3
244.174	6.88
244.551	6.55
244.927	6.91
245.303	6.57
245.679	6.26
246.056	6.04
246.432	6.02
246.808	6.3
247.184	6.77
247.56	6.65
247.936	6.65
248.312	6.68
248.688	6.46
249.064	6.32
249.44	5.85
249.815	6.12
250.191	6.25
250.567	5.97
250.943	5.81
251.318	5.7
251.694	5.86
252.069	5.55
252.445	5.37
252.82	5.46
253.196	5.31
253.571	5.31
253.947	5.55
254.322	5.3
254.697	5.5
255.073	5.42
255.448	5.38
255.823	5.59
256.198	5.3
256.573	5.34
256.948	5.44
257.323	5.82
257.698	5.63
258.073	5.43
258.448	5.46
258.823	5.29
259.198	5.15
259.573	4.94
259.948	4.99
260.322	4.91
260.697	4.93
261.072	4.89
261.446	4.84
261.821	4.82
262.195	4.78
262.57	4.88
262.944	4.83
263.319	4.88
263.693	4.8
264.067	4.69
264.442	4.54
264.816	4.47
265.19	4.46
265.564	4.31
265.938	4.22
266.313	4.19
266.687	4.29
267.061	4.2
267.435	4.34
267.809	4.24
268.183	4.28
268.556	4.01
268.93	4.34
269.304	4.5
269.678	4.29
270.051	4.59
270.425	4.37
270.799	4.28
271.172	4.23
271.546	4.36
271.919	4.43
272.293	4.61
272.666	4.73
273.04	4.73
273.413	4.78
273.787	4.81
274.16	4.69
274.533	4.84
274.906	4.75
275.279	4.94
275.653	4.87
276.026	4.99
276.399	5.14
276.772	5.01
277.145	4.84
277.518	4.93
277.891	4.75
278.263	4.82
278.636	5
279.009	5.25
279.382	5
279.755	5.22
280.127	5.19
280.5	5.11
280.872	4.94
281.245	4.83
281.617	4.82
281.99	4.94
282.362	4.95
282.735	5.07
283.107	4.97
283.479	4.98
283.852	4.86
284.224	4.94
284.596	4.9
284.968	4.83
285.34	4.81
285.713	4.76
286.085	4.57
286.457	4.54
286.829	4.4
287.201	4.43
287.572	4.29
287.944	4.26
288.316	4.3
288.688	4.47
289.06	4.6
289.431	4.71
289.803	4.68
290.175	4.49
290.546	4.51
290.918	4.5
291.289	4.59
291.661	4.64
292.032	4.54
292.403	4.52
292.775	4.71
293.146	4.83
293.517	4.88
293.889	5.17
294.26	5.21
294.631	5.21
295.002	5.18
295.373	5.12
295.744	5.18
296.115	5.19
296.486	5.13
296.857	5.1
297.228	5.09
297.599	5.08
297.97	5.27
298.34	5.38
298.711	5.35
299.082	5.29
299.452	5.37
299.823	5.44
300.194	5.46
300.564	5.32
300.935	5.44
301.305	5.46
301.676	5.4
302.046	5.45
302.416	5.43
302.787	5.65
303.157	5.77
303.527	5.84
303.897	5.8
304.267	5.88
304.637	5.96
305.008	6
305.378	5.94
305.748	5.97
306.117	5.91
306.487	5.97
306.857	6.04
307.227	6.13
307.597	6.17
307.967	6.28
308.336	6.29
308.706	6.1
309.076	6.28
309.445	6.26
309.815	6.2
310.184	6.14
310.554	6
310.923	5.98
311.293	5.92
311.662	5.95
312.031	5.9
312.401	5.75
312.77	5.65
313.139	5.78
313.508	5.61
313.877	5.77
314.246	5.7
314.616	5.72
314.985	5.66
315.353	5.61
315.722	5.71
316.091	5.84
316.46	5.87
316.829	5.65
317.198	5.64
317.567	5.84
317.935	5.95
318.304	6.1
318.672	6.21
319.041	6.34
319.41	6.23
319.778	6.36
320.147	6.43
320.515	6.67
320.883	6.73
321.252	7.01
321.62	6.97
321.988	7.14
322.357	7.13
322.725	7.12
323.093	7.16
323.461	7.01
323.829	7.13
324.197	7.14
324.565	7.19
324.933	7.07
325.301	6.97
325.669	6.98
326.037	6.98
326.405	6.88
326.772	6.79
327.14	6.87
327.508	6.75
327.875	6.71
328.243	6.58
328.61	6.45
328.978	6.32
329.346	6.07
329.713	5.98
330.08	6.19
330.448	6.16
330.815	6.24
331.182	6.21
331.55	6.1
331.917	6.21
332.284	6.29
332.651	6.3
333.018	6.24
333.385	6.45
333.752	6.33
334.119	6.28
334.486	6.35
334.853	6.31
335.22	6.31
335.587	6.29
335.954	6.27
336.32	6.36
336.687	6.4
337.054	6.48
337.42	6.48
337.787	6.31
338.153	6.53
338.52	6.5
338.886	6.6
339.253	6.64
339.619	6.6
339.986	6.57
340.352	6.87
340.718	6.91
341.084	6.83
341.451	7
341.817	7.13
342.183	7.09
342.549	7.08
342.915	7.14
343.281	7.21
343.647	7.15
344.013	7.22
344.379	7.13
344.745	7.24
345.11	7.23
345.476	7.28
345.842	7.09
346.208	7.06
346.573	7.06
346.939	7.07
347.304	7.06
347.67	7.05
348.035	6.81
348.401	6.74
348.766	6.56
349.132	6.48
349.497	6.47
349.862	6.49
350.228	6.53
350.593	6.58
350.958	6.7
351.323	6.78
351.688	6.78
352.053	6.87
352.418	6.86
352.783	6.9
353.148	6.88
353.513	6.88
353.878	6.92
354.243	6.78
354.608	6.76
354.972	6.68
355.337	6.69
355.702	6.8
356.066	6.89
356.431	7.03
356.795	7.03
357.16	7.08
357.524	7
357.889	6.99
358.253	6.9
358.618	6.81
358.982	6.82
359.346	6.77
359.71	6.8
360.075	6.84
360.439	6.83
360.803	6.78
361.167	6.81
361.531	6.74
361.895	6.81
362.259	6.85
362.623	6.87
362.987	6.82
363.351	6.77
363.714	6.74
364.078	6.68
364.442	6.67
364.806	6.59
365.169	6.59
365.533	6.61
365.896	6.69
366.26	6.67
366.623	6.64
366.987	6.71
367.35	6.62
367.714	6.53
368.077	6.54
368.44	6.54
368.803	6.56
369.167	6.49
369.53	6.5
369.893	6.42
370.256	6.39
370.619	6.39
370.982	6.36
371.345	6.38
371.708	6.38
372.071	6.34
372.434	6.33
372.797	6.35
373.159	6.34
373.522	6.24
373.885	6.24
374.247	6.2
374.61	6.1
374.973	6.16
375.335	6.13
375.698	5.98
376.06	5.93
376.423	5.89
376.785	5.87
377.147	5.78
377.51	5.77
377.872	5.71
378.234	5.69
378.596	5.63
378.958	5.57
379.321	5.51
379.683	5.49
380.045	5.52
380.407	5.49
380.769	5.41
381.13	5.37
381.492	5.35
381.854	5.34
382.216	5.35
382.578	5.27
382.939	5.25
383.301	5.31
383.663	5.3
384.024	5.25
384.386	5.27
384.747	5.23
385.109	5.22
385.47	5.23
385.832	5.18
386.193	5.12
386.554	5.11
386.916	5.1
387.277	5.06
387.638	5.02
387.999	5
388.36	5
388.721	4.97
389.082	4.92
389.443	4.88
389.804	4.84
390.165	4.82
390.526	4.8
390.887	4.76
391.248	4.75
391.609	4.76
391.969	4.74
392.33	4.75
392.691	4.72
393.051	4.73
393.412	4.74
393.772	4.81
394.133	4.79
394.493	4.77
394.854	4.79
395.214	4.78
395.574	4.73
395.935	4.68
396.295	4.7
396.655	4.71
397.015	4.73
397.376	4.69
397.736	4.64
398.096	4.63
398.456	4.61
398.816	4.61
399.176	4.61
399.535	4.58
399.895	4.54
400.255	4.52
400.615	4.49
400.975	4.47
401.334	4.45
401.694	4.45
402.054	4.45
402.413	4.4
402.773	4.35
403.132	4.37
403.492	4.36
403.851	4.34
404.211	4.33
404.57	4.31
404.929	4.31
405.288	4.33
405.648	4.3
406.007	4.3
406.366	4.24
406.725	4.22
407.084	4.19
407.443	4.21
407.802	4.21
408.161	4.22
408.52	4.23
408.879	4.17
409.238	4.17
409.596	4.17
409.955	4.15
410.314	4.16
410.673	4.15
411.031	4.15
411.39	4.17
411.748	4.14
412.107	4.11
412.465	4.12
412.824	4.12
413.182	4.11
413.54	4.08
413.899	4.1
414.257	4.08
414.615	4.08
414.974	4.04
415.332	4.05
415.69	4.01
416.048	3.97
416.406	3.96
416.764	3.95
417.122	3.94
417.48	3.94
417.838	3.91
418.195	3.9
418.553	3.88
418.911	3.85
419.269	3.86
419.626	3.87
419.984	3.84
420.342	3.82
420.699	3.81
421.057	3.81
421.414	3.79
421.772	3.78
422.129	3.77
422.486	3.78
422.844	3.76
423.201	3.77
423.558	3.78
423.915	3.8
424.273	3.79
424.63	3.78
424.987	3.78
425.344	3.79
425.701	3.78
426.058	3.79
426.415	3.79
426.772	3.76
427.128	3.76
427.485	3.76
427.842	3.76
428.199	3.77
428.555	3.76
428.912	3.76
429.269	3.76
429.625	3.76
429.982	3.76
430.338	3.77
430.695	3.74
431.051	3.73
431.407	3.71
431.764	3.71
432.12	3.71
432.476	3.71
432.832	3.7
433.189	3.69
433.545	3.69
433.901	3.71
434.257	3.71
434.613	3.7
434.969	3.69
435.325	3.7
435.681	3.7
436.036	3.7
436.392	3.69
436.748	3.71
437.104	3.72
437.459	3.7
437.815	3.69
438.171	3.69
438.526	3.67
438.882	3.67
439.237	3.65
439.593	3.66
439.948	3.66
440.304	3.66
440.659	3.67
441.014	3.65
441.369	3.62
441.725	3.63
442.08	3.61
442.435	3.62
442.79	3.61
443.145	3.6
443.5	3.6
443.855	3.59
444.21	3.56
444.565	3.55
444.92	3.55
445.275	3.54
445.629	3.53
445.984	3.55
446.339	3.55
446.693	3.55
447.048	3.53
447.403	3.52
447.757	3.52
448.112	3.5
448.466	3.51
448.82	3.52
449.175	3.53
449.529	3.53
449.883	3.52
450.238	3.5
450.592	3.51
450.946	3.5
451.3	3.53
451.654	3.53
452.008	3.54
452.362	3.52
452.716	3.52
453.07	3.54
453.424	3.52
453.778	3.52
454.132	3.53
454.486	3.54
454.839	3.55
455.193	3.56
455.547	3.56
455.9	3.55
456.254	3.55
456.607	3.54
456.961	3.56
457.314	3.57
457.668	3.59
458.021	3.59
458.375	3.6
458.728	3.61
459.081	3.61
459.434	3.6
459.787	3.63
460.141	3.65
460.494	3.64
460.847	3.63
461.2	3.64
461.553	3.64
461.906	3.63
462.259	3.63
462.611	3.65
462.964	3.66
463.317	3.66
463.67	3.68
464.022	3.69
464.375	3.69
464.728	3.69
465.08	3.68
465.433	3.67
465.785	3.67
466.138	3.67
466.49	3.69
466.843	3.71
467.195	3.72
467.547	3.73
467.899	3.74
468.252	3.77
468.604	3.76
468.956	3.76
469.308	3.75
469.66	3.75
470.012	3.75
470.364	3.76
470.716	3.78
471.068	3.76
471.42	3.75
471.772	3.75
472.123	3.76
472.475	3.76
472.827	3.78
473.178	3.79
473.53	3.75
473.882	3.73
474.233	3.7
474.585	3.66
474.936	3.66
475.288	3.65
475.639	3.64
475.99	3.66
476.342	3.66
476.693	3.66
477.044	3.66
477.395	3.64
477.746	3.64
478.097	3.63
478.448	3.63
478.8	3.63
479.15	3.61
479.501	3.58
479.852	3.59
480.203	3.58
480.554	3.59
480.905	3.59
481.255	3.62
481.606	3.63
481.957	3.65
482.307	3.63
482.658	3.63
483.009	3.63
483.359	3.62
483.709	3.62
484.06	3.62
484.41	3.62
484.761	3.63
485.111	3.63
485.461	3.63
485.811	3.64
486.162	3.63
486.512	3.65
486.862	3.66
487.212	3.66
487.562	3.66
487.912	3.66
488.262	3.66
488.612	3.66
488.961	3.66
489.311	3.65
489.661	3.67
490.011	3.67
490.36	3.67
490.71	3.68
491.06	3.69
491.409	3.7
491.759	3.72
492.108	3.71
492.458	3.71
492.807	3.7
493.157	3.71
493.506	3.73
493.855	3.75
494.204	3.75
494.554	3.78
494.903	3.81
495.252	3.84
495.601	3.85
495.95	3.86
496.299	3.88
496.648	3.91
496.997	3.95
497.346	3.97
497.695	3.99
498.043	4.03
498.392	4.06
498.741	4.09
499.09	4.09
499.438	4.12
499.787	4.14
500.135	4.18
500.484	4.19
500.832	4.21
501.181	4.22
501.529	4.27
501.878	4.3
502.226	4.3
502.574	4.31
502.923	4.33
503.271	4.35
503.619	4.4
503.967	4.42
504.315	4.43
504.663	4.46
505.011	4.54
505.359	4.54
505.707	4.53
506.055	4.54
506.403	4.58
506.751	4.61
507.098	4.64
507.446	4.67
507.794	4.71
508.141	4.78
508.489	4.8
508.837	4.8
509.184	4.84
509.531	4.89
509.879	4.92
510.226	4.98
510.574	5.03
510.921	5.03
511.268	5.08
511.616	5.11
511.963	5.12
512.31	5.13
512.657	5.16
513.004	5.22
513.351	5.26
513.698	5.28
514.045	5.32
514.392	5.4
514.739	5.43
515.086	5.46
515.432	5.48
515.779	5.53
516.126	5.59
516.473	5.62
516.819	5.68
517.166	5.74
517.512	5.76
517.859	5.8
518.205	5.86
518.552	5.89
518.898	5.95
519.245	6.01
519.591	6.07
519.937	6.13
520.283	6.19
520.629	6.26
520.976	6.33
521.322	6.4
521.668	6.42
522.014	6.5
522.36	6.58
522.706	6.65
523.052	6.73
523.398	6.83
523.743	6.92
524.089	6.99
524.435	7.06
524.781	7.16
525.126	7.23
525.472	7.31
525.817	7.37
526.163	7.44
526.509	7.5
526.854	7.57
527.199	7.63
527.545	7.68
527.89	7.73
528.235	7.79
528.581	7.87
528.926	7.93
529.271	8.02
529.616	8.08
529.961	8.16
530.306	8.24
530.651	8.31
530.996	8.4
531.341	8.5
531.686	8.58
532.031	8.66
532.376	8.78
532.721	8.88
533.065	8.99
533.41	9.09
533.755	9.21
534.099	9.33
534.444	9.42
534.788	9.54
535.133	9.69
535.477	9.82
535.822	9.96
536.166	10.11
536.51	10.27
536.855	10.44
537.199	10.58
537.543	10.78
537.887	10.95
538.231	11.11
538.576	11.3
538.92	11.51
539.264	11.68
539.608	11.83
539.951	11.98
540.295	12.13
540.639	12.28
540.983	12.42
541.327	12.56
541.671	12.72
542.014	12.87
542.358	13
542.701	13.13
543.045	13.27
543.389	13.44
543.732	13.57
544.075	13.73
544.419	13.9
544.762	14.03
545.105	14.22
545.449	14.39
545.792	14.55
546.135	14.76
546.478	14.95
546.821	15.21
547.165	15.44
547.508	15.64
547.851	15.88
548.194	16.11
548.536	16.35
548.879	16.61
549.222	16.86
549.565	17.1
549.908	17.37
550.25	17.61
550.593	17.82
550.936	18.08
551.278	18.32
551.621	18.57
551.963	18.86
552.306	19.06
552.648	19.34
552.991	19.61
553.333	19.8
553.675	20.08
554.017	20.27
554.36	20.52
554.702	20.81
555.044	21.02
555.386	21.3
555.728	21.51
556.07	21.74
556.412	22.02
556.754	22.3
557.096	22.55
557.438	22.84
557.78	23.12
558.121	23.41
558.463	23.68
558.805	23.97
559.147	24.24
559.488	24.55
559.83	24.77
560.171	24.98
560.513	25.24
560.854	25.48
561.196	25.76
561.537	26.07
561.878	26.32
562.22	26.62
562.561	26.87
562.902	27.12
563.243	27.39
563.584	27.59
563.925	27.8
564.266	28.01
564.607	28.24
564.948	28.5
565.289	28.66
565.63	28.84
565.971	29.07
566.312	29.24
566.653	29.44
566.993	29.67
567.334	29.92
567.675	30.18
568.015	30.38
568.356	30.59
568.696	30.77
569.037	31.01
569.377	31.2
569.718	31.42
570.058	31.63
570.398	31.81
570.739	32.01
571.079	32.24
571.419	32.55
571.759	32.74
572.099	32.92
572.439	33.14
572.779	33.42
573.119	33.57
573.459	33.8
573.799	34.02
574.139	34.22
574.479	34.38
574.819	34.57
575.158	34.85
575.498	35.02
575.838	35.2
576.177	35.38
576.517	35.59
576.856	35.75
577.196	35.98
577.535	36.2
577.875	36.43
578.214	36.67
578.553	36.84
578.893	37.09
579.232	37.3
579.571	37.52
579.91	37.65
580.25	37.83
580.589	37.98
580.928	38.19
581.267	38.33
581.606	38.53
581.945	38.75
582.283	38.82
582.622	39.01
582.961	39.18
583.3	39.32
583.639	39.53
583.977	39.67
584.316	39.89
584.654	40.05
584.993	40.11
585.332	40.19
585.67	40.32
586.008	40.44
586.347	40.6
586.685	40.75
587.024	40.93
587.362	41.16
587.7	41.35
588.038	41.53
588.376	41.78
588.715	41.9
589.053	41.93
589.391	42.16
589.729	42.33
590.067	42.49
590.404	42.68
590.742	42.82
591.08	42.9
591.418	42.98
591.756	43.19
592.093	43.48
592.431	43.59
592.769	43.7
593.106	43.74
593.444	43.89
593.781	43.96
594.119	44.03
594.456	44.12
594.793	44.24
595.131	44.34
595.468	44.3
595.805	44.46
596.143	44.59
596.48	44.59
596.817	44.6
597.154	44.7
597.491	44.73
597.828	44.78
598.165	44.97
598.502	45.05
598.839	45.1
599.176	45.14
599.512	45.3
599.849	45.37
600.186	45.56
600.523	45.62
600.859	45.77
601.196	45.88
601.532	46.02
601.869	46.09
602.205	46.16
602.542	46.31
602.878	46.34
603.215	46.42
603.551	46.58
603.887	46.66
604.223	46.68
604.56	46.73
604.896	46.82
605.232	46.79
605.568	46.87
605.904	46.93
606.24	47.04
606.576	47.12
606.912	47.23
607.248	47.29
607.583	47.36
607.919	47.42
608.255	47.46
608.591	47.5
608.926	47.57
609.262	47.61
609.597	47.75
609.933	47.81
610.268	47.95
610.604	48.02
610.939	48.11
611.275	48.2
611.61	48.35
611.945	48.39
612.281	48.5
612.616	48.56
612.951	48.59
613.286	48.62
613.621	48.67
613.956	48.64
614.291	48.71
614.626	48.75
614.961	48.81
615.296	48.97
615.631	49.01
615.966	49.06
616.3	49.15
616.635	49.04
616.97	49.21
617.304	49.23
617.639	49.21
617.973	49.32
618.308	49.42
618.642	49.41
618.977	49.47
619.311	49.54
619.646	49.64
619.98	49.87
620.314	49.92
620.648	49.95
620.983	50.05
621.317	50.17
621.651	50.33
621.985	50.27
622.319	50.3
622.653	50.35
622.987	50.42
623.321	50.46
623.655	50.52
623.988	50.48
624.322	50.44
624.656	50.58
624.99	50.51
625.323	50.62
625.657	50.67
625.99	50.71
626.324	50.79
626.657	50.81
626.991	50.66
627.324	50.75
627.658	50.84
627.991	50.95
628.324	50.78
628.657	50.68
628.991	50.85
629.324	51.01
629.657	51.1
629.99	51.09
630.323	51.1
630.656	51.16
630.989	51.14
631.322	51.22
631.655	51.16
631.987	51.27
632.32	51.18
632.653	51.13
632.986	51.22
633.318	51.24
633.651	51.34
633.984	51.36
634.316	51.3
634.649	51.31
634.981	51.29
635.313	51.49
635.646	51.59
635.978	51.54
636.31	51.41
636.643	51.33
636.975	51.36
637.307	51.5
637.639	51.6
637.971	51.65
638.303	51.62
638.635	51.72
638.967	51.7
639.299	51.75
639.631	51.89
639.963	51.89
640.295	51.91
640.626	51.86
640.958	51.95
641.29	52.01
641.621	52.1
641.953	52.19
642.285	52.29
642.616	52.36
642.948	52.42
643.279	52.51
643.61	52.61
643.942	52.66
644.273	52.66
644.604	52.73
644.936	52.93
645.267	52.99
645.598	52.97
645.929	52.89
646.26	52.95
646.591	52.93
646.922	53.02
647.253	52.95
647.584	52.98
647.915	52.95
648.245	53.01
648.576	52.97
648.907	52.85
649.238	52.75
649.568	52.8
649.899	52.81
650.229	52.8
650.56	52.87
650.89	52.89
651.221	52.8
651.551	52.73
651.882	52.69
652.212	52.67
652.542	52.68
652.872	52.86
653.203	52.93
653.533	53.01
653.863	52.9
654.193	53.04
654.523	53.05
654.853	53.26
655.183	53.22
655.513	53.23
655.843	53.34
656.172	53.4
656.502	53.37
656.832	53.4
657.162	53.44
657.491	53.45
657.821	53.35
658.15	53.39
658.48	53.37
658.809	53.45
659.139	53.47
659.468	53.44
659.798	53.37
660.127	53.42
660.456	53.36
660.785	53.44
661.115	53.47
661.444	53.49
661.773	53.44
662.102	53.41
662.431	53.29
662.76	53.23
663.089	53.18
663.418	53.32
663.747	53.35
664.076	53.45
664.404	53.47
664.733	53.65
665.062	53.69
665.39	53.82
665.719	53.8
666.048	53.93
666.376	54.01
666.705	54.08
667.033	54.04
667.362	54.23
667.69	54.27
668.018	54.18
668.347	54.17
668.675	54.1
669.003	54.23
669.331	54.52
669.659	54.61
669.987	54.63
