Data from BA17729_Reflection_00001.txt Node
Date: Tue Nov 19 11:50:33 EST 2019
User: vgr7
Spectrometer: USB2G7710
Scans to average: 3
Trigger mode: 4
Integration Time (sec): 2.000000E-2
Electric dark correction enabled: true
Boxcar width: 10
XAxis mode: Wavelengths
Number of Pixels in Spectrum: 2048
>>>>>Begin Spectral Data<<<<<
177.721	87.99
178.105	14.44
178.488	22.17
178.871	158.82
179.254	117.07
179.636	166.47
180.019	139.96
180.402	633.33
180.785	202.82
181.168	-90.38
181.55	51.47
181.933	68.8
182.316	99.2
182.698	56.21
183.081	32.43
183.463	149.58
183.846	121.2
184.228	48.69
184.611	-20.28
184.993	-167.44
185.376	-2400
185.758	-244.11
186.14	-49.54
186.522	-84.6
186.904	-118.68
187.287	-232.46
187.669	-600
188.051	-5945.45
188.433	-329.58
188.815	136.91
189.197	344.68
189.579	42.69
189.961	72.84
190.342	54.55
190.724	-229.79
191.106	270.33
191.488	132.11
191.869	69.66
192.251	72.31
192.633	22.46
193.014	-80.98
193.396	-80.98
193.777	-14.51
194.159	0.67
194.54	-1.31
194.922	40.88
195.303	57.6
195.684	55.07
196.065	62.54
196.447	46.89
196.828	72.26
197.209	39.74
197.59	55.82
197.971	56.96
198.352	28.36
198.733	26.03
199.114	-12.7
199.495	16.26
199.876	-8.32
200.257	11.1
200.638	7.2
201.018	3.78
201.399	6.87
201.78	37.95
202.16	26.29
202.541	17.48
202.922	-1.86
203.302	-5.18
203.683	-29.51
204.063	-13
204.444	5.11
204.824	-17.22
205.204	13.65
205.585	5.69
205.965	-35.08
206.345	-22.58
206.725	-33.63
207.106	-4.03
207.486	4.56
207.866	10.69
208.246	-3.16
208.626	-17.21
209.006	-23.46
209.386	-23.31
209.766	-47.21
210.145	-38.91
210.525	-55.52
210.905	-64.9
211.285	-23.25
211.664	6.27
212.044	2.22
212.424	-9.59
212.803	-2.95
213.183	-8.73
213.562	-2.09
213.942	37.64
214.321	29.53
214.701	35.47
215.08	48.59
215.459	69.3
215.838	3.86
216.218	1.56
216.597	27.68
216.976	3.17
217.355	7.81
217.734	27.04
218.113	57.23
218.492	68.72
218.871	59.39
219.25	41.96
219.629	39.33
220.008	57.18
220.387	78.83
220.766	41.8
221.144	47.77
221.523	49.63
221.902	34.82
222.28	52.72
222.659	58.69
223.037	60.46
223.416	48.3
223.794	88.29
224.173	72.89
224.551	65.3
224.929	65.47
225.308	50.68
225.686	28.46
226.064	11.24
226.442	7.84
226.821	0.76
227.199	1.48
227.577	0.23
227.955	-3.59
228.333	-4.47
228.711	-3.26
229.089	-7.51
229.467	-9.05
229.845	-8.5
230.222	-6.03
230.6	-6.24
230.978	-5.18
231.356	-7.92
231.733	-8.13
232.111	-2.83
232.488	-0.7
232.866	-0.16
233.243	0.87
233.621	4.1
233.998	4.57
234.376	6.61
234.753	7.2
235.13	6.58
235.508	7.39
235.885	8.35
236.262	9.17
236.639	9.51
237.016	9.27
237.393	11.58
237.77	10.33
238.147	7.89
238.524	6.95
238.901	6.44
239.278	6.68
239.655	6.61
240.032	5.74
240.409	5.39
240.785	5.01
241.162	4.63
241.539	4.38
241.915	4.11
242.292	3.94
242.668	4.38
243.045	4.78
243.421	4.79
243.798	4.78
244.174	4.61
244.551	4.49
244.927	4.8
245.303	4.5
245.679	4.52
246.056	4.81
246.432	4.99
246.808	5.02
247.184	5.17
247.56	5.14
247.936	5.28
248.312	5.33
248.688	5.43
249.064	5.44
249.44	5.16
249.815	5.48
250.191	5.63
250.567	5.4
250.943	5.07
251.318	5
251.694	4.79
252.069	4.97
252.445	5.22
252.82	5.27
253.196	5.14
253.571	5.29
253.947	5.26
254.322	5.17
254.697	5.03
255.073	4.87
255.448	4.61
255.823	4.71
256.198	4.72
256.573	4.57
256.948	4.61
257.323	4.79
257.698	4.76
258.073	4.44
258.448	4.62
258.823	4.74
259.198	4.82
259.573	4.62
259.948	4.64
260.322	4.39
260.697	4.3
261.072	4.46
261.446	4.38
261.821	4.21
262.195	4.02
262.57	4.11
262.944	4.1
263.319	4.37
263.693	4.16
264.067	4.04
264.442	3.99
264.816	3.93
265.19	3.87
265.564	3.58
265.938	3.61
266.313	3.52
266.687	3.54
267.061	3.5
267.435	3.85
267.809	3.56
268.183	3.6
268.556	3.49
268.93	3.45
269.304	3.38
269.678	3.48
270.051	3.74
270.425	3.76
270.799	3.73
271.172	3.58
271.546	3.83
271.919	3.98
272.293	4.15
272.666	4.14
273.04	4.14
273.413	4.44
273.787	4.54
274.16	4.61
274.533	4.57
274.906	4.57
275.279	4.56
275.653	4.8
276.026	5.05
276.399	4.96
276.772	4.99
277.145	5.16
277.518	5.16
277.891	5.05
278.263	5.1
278.636	5.44
279.009	5.5
279.382	5.33
279.755	5.16
280.127	5.06
280.5	5.04
280.872	5.1
281.245	4.7
281.617	4.76
281.99	4.58
282.362	4.6
282.735	4.53
283.107	4.53
283.479	4.5
283.852	4.41
284.224	4.55
284.596	4.45
284.968	4.43
285.34	4.45
285.713	4.45
286.085	4.26
286.457	4.03
286.829	3.96
287.201	4.03
287.572	4.11
287.944	4.21
288.316	4.42
288.688	4.46
289.06	4.51
289.431	4.54
289.803	4.66
290.175	4.67
290.546	4.57
290.918	4.58
291.289	4.47
291.661	4.39
292.032	4.45
292.403	4.44
292.775	4.58
293.146	4.59
293.517	4.7
293.889	4.82
294.26	4.82
294.631	4.91
295.002	5.08
295.373	5.16
295.744	5.1
296.115	4.85
296.486	5.01
296.857	5.12
297.228	4.93
297.599	4.93
297.97	5.11
298.34	5.37
298.711	5.38
299.082	5.49
299.452	5.51
299.823	5.51
300.194	5.66
300.564	5.46
300.935	5.52
301.305	5.57
301.676	5.58
302.046	5.5
302.416	5.5
302.787	5.32
303.157	5.08
303.527	5.1
303.897	5.22
304.267	4.99
304.637	4.95
305.008	5.07
305.378	5.15
305.748	5.03
306.117	4.88
306.487	4.87
306.857	4.92
307.227	5.13
307.597	4.96
307.967	4.9
308.336	5.02
308.706	5.06
309.076	4.98
309.445	5.03
309.815	5.02
310.184	5.03
310.554	5
310.923	5.11
311.293	5.1
311.662	5.23
312.031	5.29
312.401	5.29
312.77	5.2
313.139	5.16
313.508	5.13
313.877	5.3
314.246	5.25
314.616	5.14
314.985	5.05
315.353	5.25
315.722	5.39
316.091	5.38
316.46	5.24
316.829	5.26
317.198	5.28
317.567	5.62
317.935	5.59
318.304	5.57
318.672	5.72
319.041	5.65
319.41	5.57
319.778	5.47
320.147	5.39
320.515	5.67
320.883	5.5
321.252	5.52
321.62	5.23
321.988	5.45
322.357	5.56
322.725	5.54
323.093	5.44
323.461	5.34
323.829	5.26
324.197	5.17
324.565	5.2
324.933	5.06
325.301	4.76
325.669	4.73
326.037	4.77
326.405	4.8
326.772	5.03
327.14	4.9
327.508	5
327.875	5.15
328.243	5.02
328.61	5.15
328.978	5.04
329.346	5.18
329.713	5.32
330.08	5.37
330.448	5.32
330.815	5.41
331.182	5.32
331.55	5.38
331.917	5.5
332.284	5.51
332.651	5.68
333.018	5.78
333.385	5.86
333.752	5.9
334.119	5.95
334.486	5.82
334.853	5.83
335.22	5.64
335.587	5.56
335.954	5.39
336.32	5.33
336.687	5.43
337.054	5.39
337.42	5.06
337.787	4.89
338.153	5
338.52	5.04
338.886	5.15
339.253	5.16
339.619	5.18
339.986	5.18
340.352	5.21
340.718	5.29
341.084	5.35
341.451	5.31
341.817	5.24
342.183	5.17
342.549	5.34
342.915	5.53
343.281	5.5
343.647	5.71
344.013	5.88
344.379	5.85
344.745	5.93
345.11	6.02
345.476	6.11
345.842	6.01
346.208	5.9
346.573	5.9
346.939	5.92
347.304	5.95
347.67	5.97
348.035	5.9
348.401	6
348.766	6.03
349.132	6.13
349.497	6.12
349.862	6.1
350.228	5.95
350.593	5.89
350.958	6.08
351.323	6.11
351.688	5.99
352.053	6
352.418	6.1
352.783	6.09
353.148	6.13
353.513	6.11
353.878	6.2
354.243	6.15
354.608	6.16
354.972	6.19
355.337	6.16
355.702	6.18
356.066	6.07
356.431	6.03
356.795	6.08
357.16	6.11
357.524	6.22
357.889	6.27
358.253	6.29
358.618	6.19
358.982	6.16
359.346	6.28
359.71	6.28
360.075	6.18
360.439	6.22
360.803	6.18
361.167	6.22
361.531	6.15
361.895	6.23
362.259	6.25
362.623	6.25
362.987	6.3
363.351	6.24
363.714	6.24
364.078	6.22
364.442	6.13
364.806	6.12
365.169	6.06
365.533	6.1
365.896	6.12
366.26	6.11
366.623	6.1
366.987	6.11
367.35	6.06
367.714	6.02
368.077	5.97
368.44	5.96
368.803	5.9
369.167	5.96
369.53	5.86
369.893	5.8
370.256	5.73
370.619	5.71
370.982	5.7
371.345	5.7
371.708	5.72
372.071	5.71
372.434	5.67
372.797	5.79
373.159	5.76
373.522	5.73
373.885	5.77
374.247	5.79
374.61	5.74
374.973	5.82
375.335	5.92
375.698	5.94
376.06	5.94
376.423	6.03
376.785	6.08
377.147	6.19
377.51	6.22
377.872	6.27
378.234	6.31
378.596	6.37
378.958	6.38
379.321	6.35
379.683	6.42
380.045	6.45
380.407	6.38
380.769	6.4
381.13	6.42
381.492	6.44
381.854	6.5
382.216	6.52
382.578	6.53
382.939	6.52
383.301	6.61
383.663	6.65
384.024	6.6
384.386	6.57
384.747	6.53
385.109	6.51
385.47	6.47
385.832	6.44
386.193	6.47
386.554	6.48
386.916	6.48
387.277	6.42
387.638	6.48
387.999	6.49
388.36	6.51
388.721	6.51
389.082	6.52
389.443	6.5
389.804	6.48
390.165	6.5
390.526	6.51
390.887	6.43
391.248	6.43
391.609	6.49
391.969	6.51
392.33	6.48
392.691	6.5
393.051	6.56
393.412	6.56
393.772	6.56
394.133	6.55
394.493	6.56
394.854	6.58
395.214	6.53
395.574	6.5
395.935	6.51
396.295	6.53
396.655	6.53
397.015	6.52
397.376	6.51
397.736	6.5
398.096	6.48
398.456	6.52
398.816	6.47
399.176	6.42
399.535	6.39
399.895	6.41
400.255	6.43
400.615	6.45
400.975	6.44
401.334	6.43
401.694	6.43
402.054	6.44
402.413	6.46
402.773	6.47
403.132	6.48
403.492	6.45
403.851	6.44
404.211	6.38
404.57	6.36
404.929	6.38
405.288	6.39
405.648	6.39
406.007	6.39
406.366	6.44
406.725	6.48
407.084	6.51
407.443	6.54
407.802	6.51
408.161	6.5
408.52	6.52
408.879	6.51
409.238	6.51
409.596	6.52
409.955	6.52
410.314	6.5
410.673	6.53
411.031	6.53
411.39	6.5
411.748	6.5
412.107	6.51
412.465	6.51
412.824	6.51
413.182	6.48
413.54	6.5
413.899	6.49
414.257	6.46
414.615	6.44
414.974	6.42
415.332	6.43
415.69	6.43
416.048	6.41
416.406	6.4
416.764	6.42
417.122	6.38
417.48	6.39
417.838	6.42
418.195	6.42
418.553	6.45
418.911	6.45
419.269	6.46
419.626	6.46
419.984	6.46
420.342	6.46
420.699	6.46
421.057	6.44
421.414	6.45
421.772	6.46
422.129	6.46
422.486	6.46
422.844	6.46
423.201	6.45
423.558	6.44
423.915	6.46
424.273	6.45
424.63	6.49
424.987	6.47
425.344	6.48
425.701	6.48
426.058	6.46
426.415	6.48
426.772	6.48
427.128	6.5
427.485	6.5
427.842	6.49
428.199	6.53
428.555	6.53
428.912	6.54
429.269	6.55
429.625	6.56
429.982	6.56
430.338	6.56
430.695	6.58
431.051	6.58
431.407	6.6
431.764	6.61
432.12	6.57
432.476	6.61
432.832	6.6
433.189	6.58
433.545	6.58
433.901	6.58
434.257	6.57
434.613	6.55
434.969	6.53
435.325	6.53
435.681	6.54
436.036	6.56
436.392	6.55
436.748	6.53
437.104	6.53
437.459	6.53
437.815	6.55
438.171	6.54
438.526	6.56
438.882	6.56
439.237	6.57
439.593	6.6
439.948	6.59
440.304	6.58
440.659	6.57
441.014	6.56
441.369	6.55
441.725	6.58
442.08	6.6
442.435	6.61
442.79	6.6
443.145	6.57
443.5	6.56
443.855	6.56
444.21	6.57
444.565	6.56
444.92	6.57
445.275	6.56
445.629	6.55
445.984	6.55
446.339	6.54
446.693	6.52
447.048	6.5
447.403	6.49
447.757	6.48
448.112	6.51
448.466	6.52
448.82	6.51
449.175	6.5
449.529	6.47
449.883	6.49
450.238	6.49
450.592	6.5
450.946	6.49
451.3	6.48
451.654	6.48
452.008	6.48
452.362	6.47
452.716	6.49
453.07	6.5
453.424	6.48
453.778	6.47
454.132	6.49
454.486	6.49
454.839	6.52
455.193	6.52
455.547	6.51
455.9	6.51
456.254	6.53
456.607	6.53
456.961	6.53
457.314	6.52
457.668	6.53
458.021	6.55
458.375	6.56
458.728	6.56
459.081	6.56
459.434	6.55
459.787	6.57
460.141	6.55
460.494	6.54
460.847	6.55
461.2	6.55
461.553	6.56
461.906	6.58
462.259	6.56
462.611	6.56
462.964	6.56
463.317	6.57
463.67	6.58
464.022	6.58
464.375	6.59
464.728	6.58
465.08	6.56
465.433	6.55
465.785	6.56
466.138	6.57
466.49	6.58
466.843	6.61
467.195	6.59
467.547	6.61
467.899	6.62
468.252	6.64
468.604	6.62
468.956	6.62
469.308	6.6
469.66	6.62
470.012	6.64
470.364	6.65
470.716	6.66
471.068	6.65
471.42	6.65
471.772	6.65
472.123	6.67
472.475	6.68
472.827	6.66
473.178	6.68
473.53	6.66
473.882	6.65
474.233	6.63
474.585	6.62
474.936	6.65
475.288	6.66
475.639	6.64
475.99	6.67
476.342	6.66
476.693	6.67
477.044	6.66
477.395	6.67
477.746	6.64
478.097	6.63
478.448	6.64
478.8	6.67
479.15	6.67
479.501	6.67
479.852	6.67
480.203	6.69
480.554	6.71
480.905	6.72
481.255	6.73
481.606	6.76
481.957	6.77
482.307	6.74
482.658	6.75
483.009	6.77
483.359	6.76
483.709	6.78
484.06	6.78
484.41	6.79
484.761	6.78
485.111	6.8
485.461	6.81
485.811	6.81
486.162	6.81
486.512	6.81
486.862	6.82
487.212	6.82
487.562	6.82
487.912	6.81
488.262	6.82
488.612	6.83
488.961	6.82
489.311	6.82
489.661	6.84
490.011	6.82
490.36	6.8
490.71	6.81
491.06	6.8
491.409	6.8
491.759	6.81
492.108	6.81
492.458	6.81
492.807	6.8
493.157	6.8
493.506	6.8
493.855	6.78
494.204	6.77
494.554	6.79
494.903	6.79
495.252	6.8
495.601	6.8
495.95	6.82
496.299	6.82
496.648	6.79
496.997	6.8
497.346	6.83
497.695	6.85
498.043	6.87
498.392	6.87
498.741	6.9
499.09	6.9
499.438	6.93
499.787	6.96
500.135	6.97
500.484	6.97
500.832	6.98
501.181	7.01
501.529	7.04
501.878	7.06
502.226	7.06
502.574	7.07
502.923	7.05
503.271	7.04
503.619	7.05
503.967	7.09
504.315	7.11
504.663	7.09
505.011	7.09
505.359	7.09
505.707	7.1
506.055	7.07
506.403	7.07
506.751	7.08
507.098	7.07
507.446	7.08
507.794	7.09
508.141	7.14
508.489	7.17
508.837	7.16
509.184	7.16
509.531	7.16
509.879	7.14
510.226	7.17
510.574	7.18
510.921	7.17
511.268	7.16
511.616	7.16
511.963	7.17
512.31	7.18
512.657	7.19
513.004	7.17
513.351	7.19
513.698	7.2
514.045	7.2
514.392	7.21
514.739	7.22
515.086	7.22
515.432	7.2
515.779	7.2
516.126	7.23
516.473	7.24
516.819	7.24
517.166	7.3
517.512	7.29
517.859	7.32
518.205	7.3
518.552	7.33
518.898	7.35
519.245	7.36
519.591	7.38
519.937	7.39
520.283	7.42
520.629	7.41
520.976	7.41
521.322	7.4
521.668	7.4
522.014	7.43
522.36	7.44
522.706	7.44
523.052	7.43
523.398	7.44
523.743	7.46
524.089	7.49
524.435	7.46
524.781	7.49
525.126	7.49
525.472	7.52
525.817	7.51
526.163	7.51
526.509	7.52
526.854	7.52
527.199	7.54
527.545	7.55
527.89	7.55
528.235	7.55
528.581	7.56
528.926	7.56
529.271	7.56
529.616	7.56
529.961	7.58
530.306	7.58
530.651	7.57
530.996	7.56
531.341	7.57
531.686	7.57
532.031	7.56
532.376	7.56
532.721	7.56
533.065	7.57
533.41	7.58
533.755	7.59
534.099	7.59
534.444	7.57
534.788	7.56
535.133	7.57
535.477	7.58
535.822	7.58
536.166	7.6
536.51	7.59
536.855	7.6
537.199	7.6
537.543	7.61
537.887	7.63
538.231	7.65
538.576	7.65
538.92	7.68
539.264	7.69
539.608	7.69
539.951	7.69
540.295	7.7
540.639	7.69
540.983	7.69
541.327	7.7
541.671	7.7
542.014	7.7
542.358	7.7
542.701	7.7
543.045	7.71
543.389	7.72
543.732	7.73
544.075	7.72
544.419	7.71
544.762	7.7
545.105	7.71
545.449	7.71
545.792	7.7
546.135	7.69
546.478	7.69
546.821	7.72
547.165	7.72
547.508	7.72
547.851	7.75
548.194	7.74
548.536	7.74
548.879	7.71
549.222	7.73
549.565	7.74
549.908	7.75
550.25	7.74
550.593	7.74
550.936	7.76
551.278	7.77
551.621	7.8
551.963	7.83
552.306	7.83
552.648	7.81
552.991	7.82
553.333	7.82
553.675	7.81
554.017	7.81
554.36	7.82
554.702	7.78
555.044	7.75
555.386	7.77
555.728	7.77
556.07	7.82
556.412	7.82
556.754	7.81
557.096	7.82
557.438	7.83
557.78	7.8
558.121	7.83
558.463	7.81
558.805	7.79
559.147	7.8
559.488	7.78
559.83	7.82
560.171	7.83
560.513	7.82
560.854	7.82
561.196	7.83
561.537	7.82
561.878	7.9
562.22	7.94
562.561	7.94
562.902	7.93
563.243	7.94
563.584	7.93
563.925	7.96
564.266	7.97
564.607	7.98
564.948	8.01
565.289	8
565.63	8
565.971	8
566.312	7.98
566.653	8.03
566.993	8.03
567.334	8.03
567.675	8.03
568.015	8.02
568.356	8.02
568.696	8.06
569.037	8.03
569.377	8.04
569.718	8.03
570.058	8.08
570.398	8.06
570.739	8.09
571.079	8.09
571.419	8.09
571.759	8.08
572.099	8.1
572.439	8.07
572.779	8.07
573.119	8.09
573.459	8.1
573.799	8.08
574.139	8.07
574.479	8.05
574.819	8.06
575.158	8.05
575.498	8.02
575.838	8.03
576.177	8.01
576.517	8.01
576.856	8.03
577.196	8.02
577.535	8.04
577.875	8
578.214	8.03
578.553	8.02
578.893	8.06
579.232	8.05
579.571	8.1
579.91	8.1
580.25	8.1
580.589	8.11
580.928	8.14
581.267	8.14
581.606	8.17
581.945	8.13
582.283	8.18
582.622	8.2
582.961	8.19
583.3	8.21
583.639	8.22
583.977	8.25
584.316	8.25
584.654	8.28
584.993	8.29
585.332	8.26
585.67	8.28
586.008	8.28
586.347	8.28
586.685	8.24
587.024	8.27
587.362	8.25
587.7	8.27
588.038	8.28
588.376	8.31
588.715	8.3
589.053	8.37
589.391	8.38
589.729	8.39
590.067	8.37
590.404	8.4
590.742	8.39
591.08	8.36
591.418	8.35
591.756	8.35
592.093	8.38
592.431	8.41
592.769	8.44
593.106	8.4
593.444	8.41
593.781	8.44
594.119	8.45
594.456	8.47
594.793	8.45
595.131	8.41
595.468	8.37
595.805	8.39
596.143	8.36
596.48	8.42
596.817	8.45
597.154	8.47
597.491	8.42
597.828	8.42
598.165	8.4
598.502	8.42
598.839	8.41
599.176	8.39
599.512	8.4
599.849	8.4
600.186	8.43
600.523	8.42
600.859	8.41
601.196	8.44
601.532	8.45
601.869	8.5
602.205	8.49
602.542	8.52
602.878	8.51
603.215	8.52
603.551	8.48
603.887	8.45
604.223	8.42
604.56	8.47
604.896	8.55
605.232	8.57
605.568	8.58
605.904	8.57
606.24	8.59
606.576	8.61
606.912	8.61
607.248	8.63
607.583	8.67
607.919	8.69
608.255	8.67
608.591	8.66
608.926	8.64
609.262	8.69
609.597	8.74
609.933	8.72
610.268	8.74
610.604	8.72
610.939	8.78
611.275	8.84
611.61	8.82
611.945	8.77
612.281	8.78
612.616	8.8
612.951	8.83
613.286	8.87
613.621	8.83
613.956	8.85
614.291	8.86
614.626	8.83
614.961	8.89
615.296	8.96
615.631	9.02
615.966	8.95
616.3	8.97
616.635	8.94
616.97	8.94
617.304	8.87
617.639	8.95
617.973	8.85
618.308	8.86
618.642	8.88
618.977	8.84
619.311	8.87
619.646	8.88
619.98	8.98
620.314	8.92
620.648	8.97
620.983	8.96
621.317	8.9
621.651	8.92
621.985	8.85
622.319	8.77
622.653	8.82
622.987	8.88
623.321	8.85
623.655	8.85
623.988	8.9
624.322	9.04
624.656	9.01
624.99	9.08
625.323	9.06
625.657	9.05
625.99	9.07
626.324	9.01
626.657	9
626.991	8.95
627.324	8.89
627.658	8.86
627.991	8.86
628.324	8.91
628.657	8.89
628.991	8.94
629.324	8.96
629.657	8.85
629.99	8.89
630.323	8.88
630.656	8.89
630.989	8.88
631.322	8.86
631.655	8.81
631.987	8.81
632.32	8.79
632.653	8.79
632.986	8.76
633.318	8.85
633.651	8.82
633.984	8.84
634.316	8.89
634.649	8.89
634.981	8.88
635.313	8.89
635.646	8.97
635.978	8.97
636.31	9
636.643	9.06
636.975	9.09
637.307	9.15
637.639	9.17
637.971	9.16
638.303	9.13
638.635	9.23
638.967	9.23
639.299	9.22
639.631	9.24
639.963	9.32
640.295	9.35
640.626	9.38
640.958	9.35
641.29	9.4
641.621	9.4
641.953	9.33
642.285	9.35
642.616	9.32
642.948	9.31
643.279	9.29
643.61	9.29
643.942	9.28
644.273	9.21
644.604	9.14
644.936	9.14
645.267	9.12
645.598	9.13
645.929	9.17
646.26	9.25
646.591	9.26
646.922	9.28
647.253	9.17
647.584	9.24
647.915	9.3
648.245	9.35
648.576	9.35
648.907	9.38
649.238	9.29
649.568	9.36
649.899	9.32
650.229	9.36
650.56	9.35
650.89	9.39
651.221	9.42
651.551	9.49
651.882	9.53
652.212	9.53
652.542	9.58
652.872	9.59
653.203	9.53
653.533	9.54
653.863	9.59
654.193	9.6
654.523	9.43
654.853	9.42
655.183	9.39
655.513	9.37
655.843	9.38
656.172	9.48
656.502	9.48
656.832	9.58
657.162	9.55
657.491	9.59
657.821	9.55
658.15	9.52
658.48	9.57
658.809	9.59
659.139	9.6
659.468	9.57
659.798	9.55
660.127	9.61
660.456	9.57
660.785	9.53
661.115	9.59
661.444	9.61
661.773	9.55
662.102	9.58
662.431	9.61
662.76	9.68
663.089	9.64
663.418	9.65
663.747	9.6
664.076	9.53
664.404	9.61
664.733	9.62
665.062	9.68
665.39	9.61
665.719	9.55
666.048	9.5
666.376	9.5
666.705	9.52
667.033	9.49
667.362	9.43
667.69	9.44
668.018	9.47
668.347	9.52
668.675	9.53
669.003	9.48
669.331	9.54
669.659	9.42
669.987	9.41
670.315	9.33
670.643	9.35
670.971	9.44
671.299	9.34
671.627	9.33
671.955	9.3
672.283	9.25
672.61	9.33
672.938	9.36
673.266	9.28
673.593	9.21
673.921	9.21
674.249	9.31
674.576	9.31
674.904	9.18
675.231	9.3
675.558	9.45
675.886	9.56
676.213	9.52
676.54	9.69
676.867	9.72
677.195	9.82
677.522	9.89
677.849	9.91
678.176	9.87
678.503	9.97
678.83	9.99
679.157	10.13
679.484	10.15
679.81	10.15
680.137	10.27
