Data from BA17726_Reflection_00006.txt Node
Date: Tue Nov 19 11:57:00 EST 2019
User: vgr7
Spectrometer: USB2G7710
Scans to average: 3
Trigger mode: 4
Integration Time (sec): 2.000000E-2
Electric dark correction enabled: true
Boxcar width: 10
XAxis mode: Wavelengths
Number of Pixels in Spectrum: 2048
>>>>>Begin Spectral Data<<<<<
177.721	23.85
178.105	111.36
178.488	42
178.871	9.62
179.254	48.39
179.636	84.91
180.019	71.87
180.402	183.33
180.785	30.43
181.168	0.81
181.55	-0.84
181.933	-723.53
182.316	-520.69
182.698	-315.09
183.081	-170.27
183.463	-102.9
183.846	-29.03
184.228	5.98
184.611	33.01
184.993	18.92
185.376	93.79
185.758	74.9
186.14	85.37
186.522	31.88
186.904	10.45
187.287	62.96
187.669	118.6
188.051	100
188.433	1766.67
188.815	208.11
189.197	-555.17
189.579	247.54
189.961	124.79
190.342	112.27
190.724	100
191.106	39.39
191.488	-465.22
191.869	-34.72
192.251	-53.85
192.633	-70.85
193.014	-38.53
193.396	-39.11
193.777	-42.86
194.159	-5.52
194.54	5.24
194.922	18.29
195.303	2.33
195.684	-11.29
196.065	-0.15
196.447	4.21
196.828	4.01
197.209	-2.66
197.59	-0.85
197.971	9.99
198.352	-2.34
198.733	0.82
199.114	-3.37
199.495	1.17
199.876	-10.98
200.257	-10.34
200.638	-4.41
201.018	-8.25
201.399	-15.16
201.78	-15.75
202.16	-35.17
202.541	-37.83
202.922	-33.77
203.302	-27.32
203.683	-20.53
204.063	-26.9
204.444	-21.95
204.824	-27.52
205.204	-35.49
205.585	-50.91
205.965	-62.95
206.345	-53.12
206.725	-34.72
207.106	-8.35
207.486	-22.11
207.866	-8.82
208.246	-11.49
208.626	-39.69
209.006	-37.04
209.386	-40.42
209.766	-58.56
210.145	-52.07
210.525	-37.06
210.905	-49.79
211.285	-49.77
211.664	-42.48
212.044	-32.53
212.424	-16.87
212.803	-21.87
213.183	-29.32
213.562	-7.1
213.942	-12.21
214.321	-13.75
214.701	-9.3
215.08	-32.9
215.459	-21
215.838	-27.48
216.218	-29.51
216.597	-6.68
216.976	-19.4
217.355	-16.97
217.734	-2.45
218.113	8.72
218.492	-5.85
218.871	-3.64
219.25	-12.29
219.629	-13.38
220.008	-19.56
220.387	-30.69
220.766	-25.8
221.144	-28.82
221.523	-42.86
221.902	-43.65
222.28	-34.63
222.659	-31.16
223.037	-21.76
223.416	-19.72
223.794	-15.09
224.173	-15.71
224.551	-23.45
224.929	-17.41
225.308	-12.65
225.686	-12.37
226.064	-18.39
226.442	-9.4
226.821	-9.41
227.199	-9
227.577	-9.21
227.955	-9.23
228.333	-8.97
228.711	-11.81
229.089	-7.27
229.467	-5.31
229.845	0.32
230.222	-0.14
230.6	-1.02
230.978	2.66
231.356	3.25
231.733	4.46
232.111	1.98
232.488	1.35
232.866	0.86
233.243	0.62
233.621	1.62
233.998	0.5
234.376	-0.96
234.753	-1.08
235.13	0.85
235.508	0.87
235.885	1.28
236.262	1.33
236.639	1.72
237.016	1.68
237.393	1.66
237.77	-0.07
238.147	1.33
238.524	1.24
238.901	0.88
239.278	0.54
239.655	0.74
240.032	1.38
240.409	1.99
240.785	2.35
241.162	2.98
241.539	2.73
241.915	3.23
242.292	3.22
242.668	3.43
243.045	3.48
243.421	3.53
243.798	3.56
244.174	3.49
244.551	3.35
244.927	3.55
245.303	3.69
245.679	4.01
246.056	3.76
246.432	3.72
246.808	3.47
247.184	3.44
247.56	3.09
247.936	3.41
248.312	3.29
248.688	3.36
249.064	3.21
249.44	3.1
249.815	3.05
250.191	3
250.567	2.78
250.943	2.77
251.318	2.82
251.694	2.87
252.069	3.09
252.445	3.59
252.82	3.3
253.196	3.53
253.571	3.5
253.947	3.43
254.322	3.43
254.697	3.71
255.073	3.54
255.448	4.06
255.823	4.2
256.198	4.11
256.573	3.92
256.948	3.73
257.323	3.79
257.698	3.73
258.073	3.92
258.448	4.06
258.823	3.96
259.198	3.86
259.573	3.67
259.948	3.58
260.322	3.33
260.697	3.59
261.072	3.51
261.446	3.54
261.821	3.47
262.195	3.56
262.57	3.47
262.944	3.54
263.319	3.27
263.693	3
264.067	3.09
264.442	3.07
264.816	3.25
265.19	3.14
265.564	3.27
265.938	2.91
266.313	2.83
266.687	3.11
267.061	3.33
267.435	3.6
267.809	3.59
268.183	3.58
268.556	3.29
268.93	3.34
269.304	3.33
269.678	3.52
270.051	3.37
270.425	3.49
270.799	3.5
271.172	3.68
271.546	3.77
271.919	3.67
272.293	3.86
272.666	3.77
273.04	3.9
273.413	3.8
273.787	3.99
274.16	3.96
274.533	3.92
274.906	3.98
275.279	3.96
275.653	3.96
276.026	4.19
276.399	4.33
276.772	4.25
277.145	4.45
277.518	4.34
277.891	4.47
278.263	4.48
278.636	4.58
279.009	4.5
279.382	4.41
279.755	4.41
280.127	4.3
280.5	4.42
280.872	4.36
281.245	4.49
281.617	4.42
281.99	4.53
282.362	4.44
282.735	4.3
283.107	4.13
283.479	4.22
283.852	4.19
284.224	4.15
284.596	4.14
284.968	3.84
285.34	3.87
285.713	3.84
286.085	3.7
286.457	3.73
286.829	3.69
287.201	3.83
287.572	3.89
287.944	3.89
288.316	3.78
288.688	4.01
289.06	3.88
289.431	4.03
289.803	3.99
290.175	3.97
290.546	4
290.918	4.18
291.289	4.15
291.661	4.22
292.032	4.23
292.403	4.23
292.775	4.41
293.146	4.35
293.517	4.31
293.889	4.37
294.26	4.31
294.631	4.34
295.002	4.38
295.373	4.41
295.744	4.45
296.115	4.59
296.486	4.47
296.857	4.6
297.228	4.66
297.599	4.6
297.97	4.67
298.34	4.63
298.711	4.62
299.082	4.53
299.452	4.32
299.823	4.25
300.194	4.32
300.564	4.21
300.935	4.24
301.305	4.28
301.676	4.15
302.046	4.13
302.416	4.16
302.787	3.95
303.157	3.95
303.527	3.93
303.897	3.78
304.267	3.59
304.637	3.64
305.008	3.54
305.378	3.79
305.748	3.66
306.117	3.73
306.487	3.79
306.857	4.01
307.227	4.21
307.597	4.08
307.967	4.01
308.336	4.04
308.706	3.99
309.076	4.11
309.445	4.27
309.815	4.35
310.184	4.22
310.554	4.29
310.923	4.25
311.293	4.23
311.662	4.14
312.031	4.24
312.401	4.07
312.77	3.97
313.139	3.72
313.508	3.64
313.877	3.59
314.246	3.5
314.616	3.42
314.985	3.42
315.353	3.65
315.722	3.89
316.091	3.97
316.46	4.14
316.829	4.04
317.198	4.16
317.567	4.32
317.935	4.38
318.304	4.54
318.672	4.5
319.041	4.57
319.41	4.76
319.778	4.8
320.147	4.85
320.515	4.94
320.883	4.96
321.252	5.11
321.62	4.99
321.988	4.99
322.357	4.91
322.725	5.02
323.093	4.84
323.461	4.75
323.829	4.69
324.197	4.54
324.565	4.62
324.933	4.3
325.301	4.01
325.669	4.1
326.037	4.04
326.405	4.21
326.772	4.04
327.14	3.94
327.508	3.78
327.875	3.9
328.243	3.69
328.61	3.82
328.978	3.79
329.346	3.84
329.713	4.02
330.08	4.08
330.448	3.88
330.815	4.08
331.182	3.99
331.55	3.95
331.917	3.94
332.284	3.95
332.651	4.13
333.018	4.11
333.385	4.22
333.752	4.28
334.119	4.12
334.486	4.14
334.853	4.28
335.22	4.32
335.587	4.21
335.954	4.28
336.32	4.1
336.687	4.18
337.054	4.19
337.42	3.94
337.787	3.85
338.153	3.89
338.52	3.8
338.886	3.77
339.253	3.82
339.619	3.89
339.986	3.73
340.352	3.69
340.718	3.76
341.084	3.72
341.451	3.74
341.817	3.73
342.183	3.82
342.549	3.77
342.915	3.95
343.281	3.92
343.647	4.05
344.013	4.2
344.379	4.04
344.745	4.22
345.11	4.28
345.476	4.36
345.842	4.25
346.208	4.44
346.573	4.44
346.939	4.45
347.304	4.5
347.67	4.58
348.035	4.58
348.401	4.54
348.766	4.44
349.132	4.35
349.497	4.45
349.862	4.4
350.228	4.47
350.593	4.36
350.958	4.35
351.323	4.24
351.688	4.23
352.053	4.39
352.418	4.31
352.783	4.33
353.148	4.31
353.513	4.34
353.878	4.12
354.243	4.1
354.608	4.15
354.972	4.08
355.337	4.2
355.702	4.28
356.066	4.37
356.431	4.42
356.795	4.4
357.16	4.34
357.524	4.39
357.889	4.43
358.253	4.47
358.618	4.49
358.982	4.55
359.346	4.57
359.71	4.51
360.075	4.45
360.439	4.4
360.803	4.4
361.167	4.4
361.531	4.49
361.895	4.51
362.259	4.5
362.623	4.57
362.987	4.47
363.351	4.46
363.714	4.38
364.078	4.39
364.442	4.41
364.806	4.43
365.169	4.37
365.533	4.34
365.896	4.38
366.26	4.38
366.623	4.42
366.987	4.36
367.35	4.39
367.714	4.47
368.077	4.46
368.44	4.45
368.803	4.47
369.167	4.4
369.53	4.44
369.893	4.44
370.256	4.31
370.619	4.28
370.982	4.26
371.345	4.31
371.708	4.31
372.071	4.36
372.434	4.34
372.797	4.44
373.159	4.32
373.522	4.24
373.885	4.25
374.247	4.2
374.61	4.22
374.973	4.22
375.335	4.15
375.698	4.19
376.06	4.18
376.423	4.2
376.785	4.21
377.147	4.2
377.51	4.18
377.872	4.29
378.234	4.29
378.596	4.27
378.958	4.27
379.321	4.26
379.683	4.23
380.045	4.28
380.407	4.25
380.769	4.28
381.13	4.28
381.492	4.25
381.854	4.23
382.216	4.27
382.578	4.33
382.939	4.36
383.301	4.36
383.663	4.34
384.024	4.33
384.386	4.31
384.747	4.32
385.109	4.32
385.47	4.27
385.832	4.25
386.193	4.21
386.554	4.17
386.916	4.22
387.277	4.22
387.638	4.22
387.999	4.21
388.36	4.21
388.721	4.25
389.082	4.28
389.443	4.27
389.804	4.24
390.165	4.18
390.526	4.19
390.887	4.18
391.248	4.19
391.609	4.2
391.969	4.22
392.33	4.23
392.691	4.22
393.051	4.24
393.412	4.3
393.772	4.33
394.133	4.32
394.493	4.29
394.854	4.28
395.214	4.23
395.574	4.22
395.935	4.24
396.295	4.2
396.655	4.18
397.015	4.22
397.376	4.24
397.736	4.28
398.096	4.25
398.456	4.24
398.816	4.22
399.176	4.15
399.535	4.14
399.895	4.08
400.255	4.05
400.615	4.01
400.975	4.02
401.334	4.03
401.694	4.07
402.054	4.07
402.413	4.02
402.773	4.05
403.132	4.06
403.492	4.05
403.851	4.09
404.211	4.09
404.57	4.07
404.929	4.06
405.288	4.03
405.648	4.04
406.007	4.05
406.366	4.1
406.725	4.11
407.084	4.07
407.443	4.11
407.802	4.13
408.161	4.1
408.52	4.07
408.879	4.06
409.238	4.05
409.596	4.03
409.955	4.07
410.314	4.09
410.673	4.1
411.031	4.08
411.39	4.07
411.748	4.07
412.107	4.05
412.465	4.04
412.824	4.01
413.182	3.99
413.54	4
413.899	3.94
414.257	4
414.615	4.03
414.974	4.04
415.332	4.04
415.69	4.07
416.048	4.06
416.406	4.07
416.764	4.08
417.122	4.07
417.48	4.1
417.838	4.08
418.195	4.06
418.553	4.06
418.911	4.05
419.269	4.06
419.626	4.06
419.984	4.06
420.342	4.1
420.699	4.11
421.057	4.12
421.414	4.15
421.772	4.13
422.129	4.12
422.486	4.11
422.844	4.13
423.201	4.14
423.558	4.14
423.915	4.15
424.273	4.15
424.63	4.18
424.987	4.17
425.344	4.17
425.701	4.18
426.058	4.18
426.415	4.17
426.772	4.16
427.128	4.18
427.485	4.18
427.842	4.13
428.199	4.15
428.555	4.15
428.912	4.13
429.269	4.14
429.625	4.15
429.982	4.14
430.338	4.14
430.695	4.12
431.051	4.11
431.407	4.08
431.764	4.07
432.12	4.04
432.476	4.04
432.832	4.05
433.189	4.04
433.545	4.03
433.901	4.03
434.257	4.01
434.613	3.99
434.969	4
435.325	4.01
435.681	4
436.036	3.99
436.392	4
436.748	4.01
437.104	4
437.459	4
437.815	3.98
438.171	3.99
438.526	3.99
438.882	4
439.237	4.01
439.593	4.01
439.948	4.02
440.304	3.99
440.659	4.01
441.014	4.03
441.369	4.05
441.725	4.06
442.08	4.07
442.435	4.06
442.79	4.06
443.145	4.04
443.5	4.03
443.855	4.02
444.21	4.02
444.565	4.02
444.92	4.03
445.275	4.03
445.629	4.04
445.984	4.04
446.339	4.04
446.693	4.04
447.048	4.03
447.403	4.03
447.757	4.03
448.112	4.05
448.466	4.04
448.82	4.02
449.175	4.02
449.529	4.01
449.883	4
450.238	3.99
450.592	3.99
450.946	3.98
451.3	4
451.654	3.98
452.008	3.95
452.362	3.94
452.716	3.93
453.07	3.91
453.424	3.88
453.778	3.89
454.132	3.89
454.486	3.89
454.839	3.89
455.193	3.9
455.547	3.86
455.9	3.85
456.254	3.86
456.607	3.87
456.961	3.88
457.314	3.92
457.668	3.94
458.021	3.93
458.375	3.94
458.728	3.93
459.081	3.96
459.434	3.96
459.787	3.97
460.141	3.98
460.494	3.98
460.847	4.01
461.2	4
461.553	4.01
461.906	4.02
462.259	4.01
462.611	4
462.964	4.02
463.317	4.01
463.67	4.01
464.022	4.02
464.375	4.02
464.728	3.99
465.08	3.97
465.433	3.99
465.785	4
466.138	4.01
466.49	4.01
466.843	4.02
467.195	4.03
467.547	4.03
467.899	4.05
468.252	4.04
468.604	4.04
468.956	4.04
469.308	4.03
469.66	4.03
470.012	4.06
470.364	4.06
470.716	4.07
471.068	4.07
471.42	4.07
471.772	4.09
472.123	4.11
472.475	4.11
472.827	4.12
473.178	4.12
473.53	4.12
473.882	4.1
474.233	4.11
474.585	4.09
474.936	4.09
475.288	4.09
475.639	4.11
475.99	4.12
476.342	4.1
476.693	4.11
477.044	4.12
477.395	4.12
477.746	4.12
478.097	4.11
478.448	4.11
478.8	4.09
479.15	4.06
479.501	4.05
479.852	4.07
480.203	4.07
480.554	4.06
480.905	4.05
481.255	4.07
481.606	4.08
481.957	4.1
482.307	4.1
482.658	4.11
483.009	4.1
483.359	4.1
483.709	4.11
484.06	4.11
484.41	4.11
484.761	4.12
485.111	4.12
485.461	4.12
485.811	4.13
486.162	4.13
486.512	4.14
486.862	4.14
487.212	4.13
487.562	4.13
487.912	4.13
488.262	4.14
488.612	4.13
488.961	4.13
489.311	4.12
489.661	4.12
490.011	4.1
490.36	4.1
490.71	4.1
491.06	4.09
491.409	4.08
491.759	4.08
492.108	4.07
492.458	4.07
492.807	4.07
493.157	4.09
493.506	4.1
493.855	4.1
494.204	4.11
494.554	4.13
494.903	4.13
495.252	4.14
495.601	4.16
495.95	4.17
496.299	4.16
496.648	4.17
496.997	4.18
497.346	4.21
497.695	4.23
498.043	4.23
498.392	4.28
498.741	4.29
499.09	4.31
499.438	4.34
499.787	4.34
500.135	4.35
500.484	4.36
500.832	4.35
501.181	4.38
501.529	4.4
501.878	4.41
502.226	4.45
502.574	4.45
502.923	4.43
503.271	4.45
503.619	4.47
503.967	4.47
504.315	4.45
504.663	4.47
505.011	4.48
505.359	4.47
505.707	4.47
506.055	4.47
506.403	4.46
506.751	4.47
507.098	4.5
507.446	4.52
507.794	4.52
508.141	4.54
508.489	4.53
508.837	4.5
509.184	4.51
509.531	4.52
509.879	4.53
510.226	4.54
510.574	4.55
510.921	4.57
511.268	4.57
511.616	4.59
511.963	4.6
512.31	4.62
512.657	4.64
513.004	4.64
513.351	4.64
513.698	4.63
514.045	4.62
514.392	4.65
514.739	4.62
515.086	4.63
515.432	4.64
515.779	4.67
516.126	4.74
516.473	4.73
516.819	4.73
517.166	4.74
517.512	4.74
517.859	4.76
518.205	4.75
518.552	4.76
518.898	4.77
519.245	4.77
519.591	4.76
519.937	4.77
520.283	4.79
520.629	4.79
520.976	4.79
521.322	4.79
521.668	4.79
522.014	4.81
522.36	4.82
522.706	4.82
523.052	4.82
523.398	4.78
523.743	4.81
524.089	4.82
524.435	4.8
524.781	4.83
525.126	4.83
525.472	4.86
525.817	4.88
526.163	4.89
526.509	4.9
526.854	4.92
527.199	4.93
527.545	4.93
527.89	4.93
528.235	4.95
528.581	4.96
528.926	4.96
529.271	4.96
529.616	4.97
529.961	4.97
530.306	4.99
530.651	5
530.996	5.02
531.341	5.04
531.686	5.06
532.031	5.06
532.376	5.07
532.721	5.06
533.065	5.05
533.41	5.06
533.755	5.05
534.099	5.05
534.444	5.05
534.788	5.03
535.133	5.04
535.477	5.05
535.822	5.05
536.166	5.06
536.51	5.07
536.855	5.06
537.199	5.05
537.543	5.05
537.887	5.05
538.231	5.04
538.576	5.04
538.92	5.05
539.264	5.06
539.608	5.07
539.951	5.08
540.295	5.11
540.639	5.11
540.983	5.12
541.327	5.14
541.671	5.15
542.014	5.2
542.358	5.2
542.701	5.21
543.045	5.2
543.389	5.23
543.732	5.23
544.075	5.24
544.419	5.27
544.762	5.26
545.105	5.28
545.449	5.27
545.792	5.29
546.135	5.3
546.478	5.31
546.821	5.33
547.165	5.32
547.508	5.3
547.851	5.32
548.194	5.32
548.536	5.31
548.879	5.33
549.222	5.3
549.565	5.32
549.908	5.31
550.25	5.34
550.593	5.29
550.936	5.29
551.278	5.31
551.621	5.29
551.963	5.34
552.306	5.36
552.648	5.36
552.991	5.36
553.333	5.32
553.675	5.32
554.017	5.3
554.36	5.34
554.702	5.35
555.044	5.37
555.386	5.36
555.728	5.37
556.07	5.33
556.412	5.36
556.754	5.34
557.096	5.37
557.438	5.37
557.78	5.38
558.121	5.41
558.463	5.41
558.805	5.44
559.147	5.39
559.488	5.35
559.83	5.38
560.171	5.37
560.513	5.4
560.854	5.39
561.196	5.43
561.537	5.4
561.878	5.41
562.22	5.39
562.561	5.42
562.902	5.42
563.243	5.44
563.584	5.44
563.925	5.44
564.266	5.45
564.607	5.44
564.948	5.43
565.289	5.44
565.63	5.44
565.971	5.45
566.312	5.49
566.653	5.5
566.993	5.49
567.334	5.53
567.675	5.55
568.015	5.52
568.356	5.5
568.696	5.49
569.037	5.5
569.377	5.49
569.718	5.49
570.058	5.49
570.398	5.49
570.739	5.48
571.079	5.49
571.419	5.48
571.759	5.47
572.099	5.5
572.439	5.5
572.779	5.49
573.119	5.47
573.459	5.46
573.799	5.44
574.139	5.46
574.479	5.44
574.819	5.44
575.158	5.44
575.498	5.46
575.838	5.47
576.177	5.45
576.517	5.45
576.856	5.45
577.196	5.45
577.535	5.45
577.875	5.46
578.214	5.49
578.553	5.48
578.893	5.52
579.232	5.5
579.571	5.54
579.91	5.54
580.25	5.56
580.589	5.59
580.928	5.66
581.267	5.66
581.606	5.69
581.945	5.68
582.283	5.73
582.622	5.72
582.961	5.76
583.3	5.77
583.639	5.79
583.977	5.74
584.316	5.73
584.654	5.73
584.993	5.73
585.332	5.67
585.67	5.67
586.008	5.64
586.347	5.68
586.685	5.62
587.024	5.63
587.362	5.63
587.7	5.65
588.038	5.63
588.376	5.61
588.715	5.58
589.053	5.61
589.391	5.57
589.729	5.57
590.067	5.55
590.404	5.59
590.742	5.58
591.08	5.61
591.418	5.61
591.756	5.59
592.093	5.56
592.431	5.62
592.769	5.63
593.106	5.64
593.444	5.67
593.781	5.68
594.119	5.65
594.456	5.66
594.793	5.65
595.131	5.65
595.468	5.66
595.805	5.65
596.143	5.62
596.48	5.64
596.817	5.65
597.154	5.65
597.491	5.64
597.828	5.64
598.165	5.65
598.502	5.66
598.839	5.7
599.176	5.72
599.512	5.67
599.849	5.68
600.186	5.66
600.523	5.66
600.859	5.69
601.196	5.7
601.532	5.67
601.869	5.69
602.205	5.69
602.542	5.66
602.878	5.69
603.215	5.69
603.551	5.69
603.887	5.7
604.223	5.68
604.56	5.68
604.896	5.73
605.232	5.74
605.568	5.75
605.904	5.72
606.24	5.79
606.576	5.83
606.912	5.81
607.248	5.83
607.583	5.83
607.919	5.81
608.255	5.88
608.591	5.9
608.926	5.84
609.262	5.84
609.597	5.88
609.933	5.86
610.268	5.89
610.604	5.87
610.939	5.87
611.275	5.91
611.61	5.88
611.945	5.82
612.281	5.81
612.616	5.81
612.951	5.86
613.286	5.81
613.621	5.78
613.956	5.84
614.291	5.85
614.626	5.87
614.961	5.93
615.296	5.88
615.631	5.93
615.966	5.95
616.3	6
616.635	6
616.97	6.04
617.304	6.05
617.639	6.06
617.973	6.01
618.308	6.03
618.642	6.05
618.977	6.1
619.311	6.14
619.646	6.17
619.98	6.12
620.314	6.07
620.648	6.07
620.983	6.06
621.317	6.02
621.651	5.95
621.985	5.92
622.319	5.92
622.653	5.9
622.987	5.96
623.321	5.97
623.655	5.94
623.988	5.92
624.322	5.93
624.656	5.96
624.99	5.98
625.323	5.92
625.657	5.95
625.99	5.95
626.324	5.93
626.657	5.89
626.991	5.88
627.324	5.89
627.658	5.91
627.991	5.91
628.324	5.96
628.657	6
628.991	5.97
629.324	5.93
629.657	5.85
629.99	5.82
630.323	5.76
630.656	5.77
630.989	5.75
631.322	5.73
631.655	5.72
631.987	5.72
632.32	5.76
632.653	5.72
632.986	5.68
633.318	5.62
633.651	5.69
633.984	5.76
634.316	5.8
634.649	5.76
634.981	5.75
635.313	5.71
635.646	5.69
635.978	5.7
636.31	5.72
636.643	5.78
636.975	5.79
637.307	5.81
637.639	5.83
637.971	5.82
638.303	5.84
638.635	5.87
638.967	5.88
639.299	5.88
639.631	5.89
639.963	5.98
640.295	6.08
640.626	6.04
640.958	6.02
641.29	5.97
641.621	6
641.953	5.97
642.285	6.04
642.616	6.04
642.948	6.05
643.279	6.13
643.61	6.15
643.942	6.14
644.273	6.14
644.604	6.06
644.936	6.14
645.267	6.16
645.598	6.16
645.929	6.14
646.26	6.19
646.591	6.22
646.922	6.22
647.253	6.16
647.584	6.13
647.915	6.1
648.245	6.19
648.576	6.16
648.907	6.22
649.238	6.2
649.568	6.16
649.899	6.21
650.229	6.18
650.56	6.19
650.89	6.27
651.221	6.26
651.551	6.36
651.882	6.37
652.212	6.35
652.542	6.43
652.872	6.5
653.203	6.45
653.533	6.48
653.863	6.37
654.193	6.43
654.523	6.44
654.853	6.52
655.183	6.53
655.513	6.57
655.843	6.58
656.172	6.57
656.502	6.56
656.832	6.54
657.162	6.53
657.491	6.54
657.821	6.54
658.15	6.55
658.48	6.53
658.809	6.53
659.139	6.56
659.468	6.52
659.798	6.55
660.127	6.58
660.456	6.54
660.785	6.53
661.115	6.51
661.444	6.51
661.773	6.47
662.102	6.41
662.431	6.4
662.76	6.39
663.089	6.34
663.418	6.4
663.747	6.35
664.076	6.35
664.404	6.34
664.733	6.29
665.062	6.33
665.39	6.3
665.719	6.3
666.048	6.2
666.376	6.14
666.705	6.13
667.033	6.13
667.362	6.19
667.69	6.4
668.018	6.37
668.347	6.35
668.675	6.4
669.003	6.38
669.331	6.36
669.659	6.36
669.987	6.51
670.315	6.52
670.643	6.6
670.971	6.68
671.299	6.66
671.627	6.76
671.955	6.69
672.283	6.73
672.61	6.72
672.938	6.8
673.266	6.73
673.593	6.64
673.921	6.61
674.249	6.62
674.576	6.53
674.904	6.55
675.231	6.58
675.558	6.59
675.886	6.73
676.213	6.8
676.54	6.8
676.867	6.79
677.195	6.93
677.522	6.97
677.849	6.89
678.176	6.93
678.503	6.89
678.83	6.97
679.157	6.98
