Data from BA17724_Reflection_00015.txt Node
Date: Tue Nov 19 11:58:14 EST 2019
User: vgr7
Spectrometer: USB2G7710
Scans to average: 3
Trigger mode: 4
Integration Time (sec): 2.000000E-2
Electric dark correction enabled: true
Boxcar width: 10
XAxis mode: Wavelengths
Number of Pixels in Spectrum: 2048
>>>>>Begin Spectral Data<<<<<
177.721	41.4
178.105	20.73
178.488	70.98
178.871	2.27
179.254	237.5
179.636	2454.84
180.019	75.61
180.402	48.48
180.785	-35.71
181.168	73.26
181.55	256.25
181.933	146.08
182.316	144.98
182.698	156.54
183.081	180.11
183.463	195.79
183.846	299.39
184.228	414.96
184.611	10100
184.993	1820
185.376	-959.32
185.758	15350
186.14	569.23
186.522	920.9
186.904	1775
187.287	204.74
187.669	125
188.051	178.86
188.433	129.02
188.815	155.04
189.197	159.25
189.579	154.52
189.961	150.7
190.342	151.57
190.724	137.61
191.106	123.97
191.488	165.3
191.869	151.81
192.251	51.41
192.633	44.19
193.014	36.71
193.396	54.13
193.777	80.66
194.159	17.11
194.54	19.12
194.922	-14.86
195.303	237.5
195.684	545.65
196.065	-619.51
196.447	-263.64
196.828	541.86
197.209	-948.78
197.59	-687.23
197.971	409.21
198.352	207.44
198.733	149.5
199.114	105.92
199.495	13.27
199.876	9.54
200.257	120.66
200.638	1021.05
201.018	63.48
201.399	-306.25
201.78	-68.27
202.16	2.86
202.541	34.87
202.922	86.17
203.302	74.92
203.683	73.24
204.063	61.8
204.444	138.17
204.824	264.29
205.204	256.25
205.585	82.14
205.965	-60.38
206.345	-85.05
206.725	-40.44
207.106	-31.79
207.486	-20.66
207.866	-11.74
208.246	19.08
208.626	29.96
209.006	5.25
209.386	10.58
209.766	-27.68
210.145	16.17
210.525	20
210.905	49.57
211.285	64.62
211.664	70.41
212.044	53.69
212.424	62.87
212.803	54.76
213.183	55.8
213.562	42.78
213.942	62.24
214.321	62.85
214.701	45.69
215.08	46.01
215.459	31.85
215.838	22.38
216.218	-1.71
216.597	-7.93
216.976	-4.91
217.355	-18.87
217.734	-16.4
218.113	-39.15
218.492	-44.89
218.871	-58.28
219.25	-76.1
219.629	-139.87
220.008	-194.43
220.387	-260.98
220.766	-127.09
221.144	-115.81
221.523	-127.27
221.902	-133.5
222.28	-105.42
222.659	-54.74
223.037	-56.56
223.416	-54.04
223.794	-42.08
224.173	-41.56
224.551	-37.93
224.929	-40.91
225.308	-32.13
225.686	-25.21
226.064	-20.05
226.442	-13.68
226.821	-12.13
227.199	-2.42
227.577	2.59
227.955	7.21
228.333	11.46
228.711	11.46
229.089	11.3
229.467	8.86
229.845	8.84
230.222	10.93
230.6	7.23
230.978	6.97
231.356	6.24
231.733	2.99
232.111	1.36
232.488	1.65
232.866	2.41
233.243	-0.5
233.621	1.29
233.998	0.4
234.376	-0.4
234.753	-0.97
235.13	-2.73
235.508	-2.14
235.885	-2.6
236.262	-3.81
236.639	-4.22
237.016	-3.39
237.393	-0.96
237.77	0.53
238.147	-0.61
238.524	0.29
238.901	0.51
239.278	0.88
239.655	1.51
240.032	1.39
240.409	1.58
240.785	1.82
241.162	2.93
241.539	3.15
241.915	3.11
242.292	3.27
242.668	3.23
243.045	3.58
243.421	4.01
243.798	3.84
244.174	3.77
244.551	4.16
244.927	4.27
245.303	3.89
245.679	3.84
246.056	3.71
246.432	3.33
246.808	3.56
247.184	3.67
247.56	3.5
247.936	3.58
248.312	3.57
248.688	3.28
249.064	3.31
249.44	2.98
249.815	2.96
250.191	2.79
250.567	2.79
250.943	2.82
251.318	2.44
251.694	2.47
252.069	2.64
252.445	2.52
252.82	2.54
253.196	2.48
253.571	2.17
253.947	2.38
254.322	2.6
254.697	2.43
255.073	2.2
255.448	2.32
255.823	2.32
256.198	2.01
256.573	2.14
256.948	1.98
257.323	1.99
257.698	2.13
258.073	2.05
258.448	2.17
258.823	1.91
259.198	2.01
259.573	1.78
259.948	2.02
260.322	1.91
260.697	1.78
261.072	1.79
261.446	1.97
261.821	1.84
262.195	1.86
262.57	1.76
262.944	1.95
263.319	1.87
263.693	1.85
264.067	2.04
264.442	2.08
264.816	1.92
265.19	2.13
265.564	2.16
265.938	2.24
266.313	2.03
266.687	2.28
267.061	2.17
267.435	2.44
267.809	2.02
268.183	2.03
268.556	1.92
268.93	1.88
269.304	1.82
269.678	1.87
270.051	1.84
270.425	1.78
270.799	1.61
271.172	1.63
271.546	1.71
271.919	1.68
272.293	1.68
272.666	1.8
273.04	1.57
273.413	1.43
273.787	1.48
274.16	1.45
274.533	1.44
274.906	1.43
275.279	1.34
275.653	1.41
276.026	1.29
276.399	1.38
276.772	1.54
277.145	1.41
277.518	1.44
277.891	1.44
278.263	1.59
278.636	1.79
279.009	1.81
279.382	1.73
279.755	1.82
280.127	1.9
280.5	1.76
280.872	1.89
281.245	1.79
281.617	1.83
281.99	2.09
282.362	2.11
282.735	2.13
283.107	2.19
283.479	2.3
283.852	2.32
284.224	2.43
284.596	2.25
284.968	2.39
285.34	2.32
285.713	2.37
286.085	2.27
286.457	2.31
286.829	2.42
287.201	2.58
287.572	2.63
287.944	2.57
288.316	2.61
288.688	2.7
289.06	2.96
289.431	2.86
289.803	2.87
290.175	2.79
290.546	2.81
290.918	2.86
291.289	2.57
291.661	2.6
292.032	2.45
292.403	2.52
292.775	2.43
293.146	2.59
293.517	2.54
293.889	2.53
294.26	2.35
294.631	2.34
295.002	2.32
295.373	2.25
295.744	2.32
296.115	2.41
296.486	2.22
296.857	2.08
297.228	2.15
297.599	1.95
297.97	2.09
298.34	2.14
298.711	2.15
299.082	2.39
299.452	2.37
299.823	2.54
300.194	2.6
300.564	2.63
300.935	2.67
301.305	2.77
301.676	2.86
302.046	2.88
302.416	2.84
302.787	2.67
303.157	2.63
303.527	2.59
303.897	2.53
304.267	2.5
304.637	2.52
305.008	2.6
305.378	2.73
305.748	2.6
306.117	2.6
306.487	2.61
306.857	2.54
307.227	2.69
307.597	2.58
307.967	2.62
308.336	2.82
308.706	2.8
309.076	2.96
309.445	3.14
309.815	3.12
310.184	3.02
310.554	3.14
310.923	3.27
311.293	3.31
311.662	3.49
312.031	3.74
312.401	3.73
312.77	3.53
313.139	3.54
313.508	3.56
313.877	3.57
314.246	3.53
314.616	3.56
314.985	3.35
315.353	3.49
315.722	3.5
316.091	3.39
316.46	3.42
316.829	3.28
317.198	3.1
317.567	3.36
317.935	3.53
318.304	3.59
318.672	3.59
319.041	3.57
319.41	3.4
319.778	3.41
320.147	3.43
320.515	3.7
320.883	3.81
321.252	3.92
321.62	3.99
321.988	4.01
322.357	4.09
322.725	4.32
323.093	4.15
323.461	4.23
323.829	4.25
324.197	4.11
324.565	4.03
324.933	4.12
325.301	3.89
325.669	3.9
326.037	3.96
326.405	4.03
326.772	4.1
327.14	4.07
327.508	4
327.875	4.12
328.243	4.08
328.61	4.1
328.978	3.92
329.346	3.92
329.713	4.09
330.08	4.19
330.448	4.07
330.815	4.25
331.182	4.23
331.55	4.13
331.917	4.18
332.284	4.3
332.651	4.25
333.018	4.32
333.385	4.4
333.752	4.41
334.119	4.42
334.486	4.43
334.853	4.45
335.22	4.39
335.587	4.38
335.954	4.33
336.32	4.11
336.687	4.32
337.054	4.29
337.42	4.09
337.787	3.97
338.153	4.13
338.52	4.2
338.886	4.3
339.253	4.3
339.619	4.36
339.986	4.42
340.352	4.47
340.718	4.52
341.084	4.46
341.451	4.3
341.817	4.15
342.183	4.1
342.549	4.16
342.915	4.23
343.281	4.17
343.647	4.34
344.013	4.66
344.379	4.52
344.745	4.67
345.11	4.72
345.476	4.78
345.842	4.78
346.208	4.78
346.573	4.72
346.939	4.81
347.304	4.75
347.67	4.65
348.035	4.61
348.401	4.61
348.766	4.66
349.132	4.74
349.497	4.78
349.862	4.8
350.228	4.89
350.593	4.85
350.958	4.96
351.323	4.91
351.688	4.91
352.053	5.08
352.418	5.02
352.783	5.12
353.148	5.14
353.513	5.07
353.878	4.99
354.243	4.9
354.608	4.9
354.972	4.92
355.337	4.99
355.702	5.01
356.066	5.01
356.431	4.91
356.795	4.91
357.16	4.98
357.524	4.97
357.889	4.88
358.253	4.95
358.618	4.94
358.982	4.96
359.346	4.93
359.71	4.86
360.075	4.86
360.439	4.83
360.803	4.82
361.167	4.77
361.531	4.79
361.895	4.82
362.259	4.92
362.623	4.99
362.987	4.94
363.351	4.96
363.714	5.02
364.078	5.12
364.442	5.11
364.806	5.06
365.169	5.1
365.533	5.11
365.896	5.09
366.26	5.04
366.623	4.97
366.987	4.89
367.35	4.91
367.714	4.89
368.077	4.85
368.44	4.92
368.803	4.98
369.167	4.93
369.53	4.94
369.893	4.86
370.256	4.77
370.619	4.76
370.982	4.69
371.345	4.69
371.708	4.64
372.071	4.59
372.434	4.57
372.797	4.53
373.159	4.56
373.522	4.53
373.885	4.59
374.247	4.61
374.61	4.55
374.973	4.47
375.335	4.44
375.698	4.43
376.06	4.32
376.423	4.39
376.785	4.4
377.147	4.36
377.51	4.25
377.872	4.22
378.234	4.24
378.596	4.23
378.958	4.17
379.321	4.15
379.683	4.17
380.045	4.12
380.407	4.06
380.769	3.98
381.13	4
381.492	3.89
381.854	3.82
382.216	3.86
382.578	3.86
382.939	3.82
383.301	3.82
383.663	3.8
384.024	3.73
384.386	3.71
384.747	3.73
385.109	3.76
385.47	3.78
385.832	3.72
386.193	3.74
386.554	3.64
386.916	3.6
387.277	3.58
387.638	3.6
387.999	3.63
388.36	3.66
388.721	3.63
389.082	3.64
389.443	3.62
389.804	3.63
390.165	3.6
390.526	3.57
390.887	3.52
391.248	3.49
391.609	3.46
391.969	3.43
392.33	3.38
392.691	3.36
393.051	3.36
393.412	3.33
393.772	3.3
394.133	3.31
394.493	3.31
394.854	3.29
395.214	3.32
395.574	3.3
395.935	3.25
396.295	3.23
396.655	3.24
397.015	3.22
397.376	3.19
397.736	3.21
398.096	3.22
398.456	3.24
398.816	3.27
399.176	3.25
399.535	3.24
399.895	3.24
400.255	3.21
400.615	3.22
400.975	3.25
401.334	3.25
401.694	3.24
402.054	3.22
402.413	3.23
402.773	3.17
403.132	3.13
403.492	3.14
403.851	3.11
404.211	3.11
404.57	3.14
404.929	3.09
405.288	3.1
405.648	3.14
406.007	3.11
406.366	3.07
406.725	3.08
407.084	3.1
407.443	3.09
407.802	3.07
408.161	3
408.52	2.99
408.879	2.97
409.238	2.98
409.596	2.97
409.955	2.93
410.314	2.89
410.673	2.88
411.031	2.86
411.39	2.88
411.748	2.89
412.107	2.88
412.465	2.87
412.824	2.8
413.182	2.76
413.54	2.78
413.899	2.75
414.257	2.72
414.615	2.69
414.974	2.66
415.332	2.63
415.69	2.62
416.048	2.58
416.406	2.56
416.764	2.57
417.122	2.55
417.48	2.55
417.838	2.56
418.195	2.54
418.553	2.52
418.911	2.49
419.269	2.46
419.626	2.45
419.984	2.45
420.342	2.47
420.699	2.45
421.057	2.45
421.414	2.46
421.772	2.45
422.129	2.44
422.486	2.44
422.844	2.45
423.201	2.45
423.558	2.44
423.915	2.46
424.273	2.45
424.63	2.44
424.987	2.43
425.344	2.43
425.701	2.43
426.058	2.43
426.415	2.44
426.772	2.43
427.128	2.42
427.485	2.41
427.842	2.37
428.199	2.37
428.555	2.36
428.912	2.35
429.269	2.33
429.625	2.34
429.982	2.35
430.338	2.33
430.695	2.33
431.051	2.35
431.407	2.33
431.764	2.31
432.12	2.33
432.476	2.37
432.832	2.37
433.189	2.38
433.545	2.37
433.901	2.36
434.257	2.35
434.613	2.35
434.969	2.37
435.325	2.38
435.681	2.37
436.036	2.37
436.392	2.38
436.748	2.39
437.104	2.39
437.459	2.4
437.815	2.4
438.171	2.38
438.526	2.39
438.882	2.41
439.237	2.39
439.593	2.39
439.948	2.37
440.304	2.35
440.659	2.34
441.014	2.34
441.369	2.36
441.725	2.37
442.08	2.35
442.435	2.35
442.79	2.35
443.145	2.35
443.5	2.34
443.855	2.33
444.21	2.33
444.565	2.33
444.92	2.33
445.275	2.32
445.629	2.32
445.984	2.31
446.339	2.3
446.693	2.32
447.048	2.29
447.403	2.29
447.757	2.3
448.112	2.3
448.466	2.32
448.82	2.3
449.175	2.3
449.529	2.33
449.883	2.34
450.238	2.35
450.592	2.36
450.946	2.35
451.3	2.36
451.654	2.33
452.008	2.31
452.362	2.29
452.716	2.32
453.07	2.34
453.424	2.34
453.778	2.35
454.132	2.36
454.486	2.4
454.839	2.41
455.193	2.41
455.547	2.41
455.9	2.38
456.254	2.38
456.607	2.37
456.961	2.36
457.314	2.35
457.668	2.34
458.021	2.32
458.375	2.33
458.728	2.33
459.081	2.36
459.434	2.37
459.787	2.39
460.141	2.38
460.494	2.37
460.847	2.36
461.2	2.36
461.553	2.35
461.906	2.35
462.259	2.36
462.611	2.36
462.964	2.36
463.317	2.39
463.67	2.4
464.022	2.41
464.375	2.38
464.728	2.4
465.08	2.4
465.433	2.43
465.785	2.43
466.138	2.46
466.49	2.46
466.843	2.49
467.195	2.5
467.547	2.53
467.899	2.54
468.252	2.53
468.604	2.53
468.956	2.53
469.308	2.52
469.66	2.53
470.012	2.55
470.364	2.58
470.716	2.57
471.068	2.59
471.42	2.61
471.772	2.63
472.123	2.65
472.475	2.65
472.827	2.65
473.178	2.68
473.53	2.66
473.882	2.66
474.233	2.68
474.585	2.66
474.936	2.64
475.288	2.62
475.639	2.65
475.99	2.65
476.342	2.67
476.693	2.67
477.044	2.67
477.395	2.64
477.746	2.61
478.097	2.62
478.448	2.57
478.8	2.56
479.15	2.55
479.501	2.54
479.852	2.52
480.203	2.5
480.554	2.45
480.905	2.44
481.255	2.42
481.606	2.41
481.957	2.4
482.307	2.38
482.658	2.38
483.009	2.37
483.359	2.37
483.709	2.35
484.06	2.36
484.41	2.35
484.761	2.36
485.111	2.36
485.461	2.37
485.811	2.37
486.162	2.37
486.512	2.36
486.862	2.36
487.212	2.38
487.562	2.39
487.912	2.4
488.262	2.4
488.612	2.42
488.961	2.43
489.311	2.44
489.661	2.45
490.011	2.47
490.36	2.48
490.71	2.49
491.06	2.5
491.409	2.51
491.759	2.54
492.108	2.54
492.458	2.56
492.807	2.55
493.157	2.58
493.506	2.6
493.855	2.62
494.204	2.63
494.554	2.64
494.903	2.67
495.252	2.71
495.601	2.75
495.95	2.77
496.299	2.78
496.648	2.82
496.997	2.85
497.346	2.9
497.695	2.95
498.043	2.98
498.392	3.02
498.741	3.06
499.09	3.07
499.438	3.13
499.787	3.15
500.135	3.21
500.484	3.25
500.832	3.29
501.181	3.35
501.529	3.41
501.878	3.47
502.226	3.52
502.574	3.54
502.923	3.57
503.271	3.63
503.619	3.69
503.967	3.73
504.315	3.78
504.663	3.83
505.011	3.86
505.359	3.91
505.707	3.97
506.055	4.01
506.403	4.04
506.751	4.07
507.098	4.13
507.446	4.17
507.794	4.23
508.141	4.26
508.489	4.32
508.837	4.35
509.184	4.4
509.531	4.46
509.879	4.5
510.226	4.57
510.574	4.64
510.921	4.68
511.268	4.75
511.616	4.83
511.963	4.87
512.31	4.94
512.657	4.98
513.004	5.04
513.351	5.11
513.698	5.17
514.045	5.22
514.392	5.3
514.739	5.38
515.086	5.43
515.432	5.51
515.779	5.58
516.126	5.67
516.473	5.73
516.819	5.78
517.166	5.87
517.512	5.94
517.859	5.99
518.205	6.05
518.552	6.12
518.898	6.17
519.245	6.26
519.591	6.37
519.937	6.45
520.283	6.55
520.629	6.63
520.976	6.72
521.322	6.84
521.668	6.91
522.014	6.99
522.36	7.08
522.706	7.17
523.052	7.26
523.398	7.32
523.743	7.4
524.089	7.48
524.435	7.53
524.781	7.55
525.126	7.6
525.472	7.66
525.817	7.7
526.163	7.75
526.509	7.8
526.854	7.83
527.199	7.88
527.545	7.94
527.89	8.01
528.235	8.1
528.581	8.18
528.926	8.26
529.271	8.35
529.616	8.45
529.961	8.55
530.306	8.66
530.651	8.8
530.996	8.93
531.341	9.07
531.686	9.23
532.031	9.41
532.376	9.6
532.721	9.8
533.065	10.01
533.41	10.22
533.755	10.44
534.099	10.67
534.444	10.93
534.788	11.14
535.133	11.38
535.477	11.63
535.822	11.85
536.166	12.09
536.51	12.34
536.855	12.59
537.199	12.84
537.543	13.04
537.887	13.27
538.231	13.48
538.576	13.71
538.92	13.95
539.264	14.2
539.608	14.41
539.951	14.6
540.295	14.84
540.639	15.09
540.983	15.31
541.327	15.53
541.671	15.75
542.014	16.02
542.358	16.24
542.701	16.48
543.045	16.76
543.389	17.08
543.732	17.39
544.075	17.75
544.419	18.12
544.762	18.56
545.105	19.01
545.449	19.54
545.792	20.07
546.135	20.67
546.478	21.26
546.821	21.88
547.165	22.56
547.508	23.18
547.851	23.79
548.194	24.42
548.536	25.06
548.879	25.73
549.222	26.37
549.565	26.98
549.908	27.61
550.25	28.26
550.593	28.91
550.936	29.6
551.278	30.22
551.621	30.87
551.963	31.55
552.306	32.19
552.648	32.84
552.991	33.42
553.333	33.94
553.675	34.48
554.017	35.05
554.36	35.61
554.702	36.2
555.044	36.76
555.386	37.37
555.728	37.95
556.07	38.52
556.412	39.1
556.754	39.74
557.096	40.41
557.438	40.97
557.78	41.51
558.121	42.05
558.463	42.63
558.805	43.2
559.147	43.71
559.488	44.19
559.83	44.65
560.171	45.19
560.513	45.66
560.854	46.07
561.196	46.47
561.537	46.76
561.878	46.94
562.22	47.27
562.561	47.51
562.902	47.78
563.243	47.97
563.584	48.22
563.925	48.56
564.266	48.79
564.607	49.06
564.948	49.39
565.289	49.66
565.63	49.9
565.971	50.21
566.312	50.39
566.653	50.62
566.993	50.81
567.334	50.93
567.675	51.14
568.015	51.36
568.356	51.49
568.696	51.74
569.037	52.16
569.377	52.34
569.718	52.6
570.058	52.76
570.398	53.12
570.739	53.31
571.079	53.52
571.419	53.81
571.759	54.1
572.099	54.31
572.439	54.63
572.779	54.88
573.119	55.08
573.459	55.44
573.799	55.74
574.139	56.11
574.479	56.48
574.819	56.96
575.158	57.47
575.498	58.08
575.838	58.58
576.177	59.06
576.517	59.8
576.856	60.47
577.196	61.23
577.535	61.91
577.875	62.71
578.214	63.42
578.553	64.05
578.893	64.82
579.232	65.63
579.571	66.32
579.91	67.16
580.25	67.9
580.589	68.68
580.928	69.39
581.267	70.1
581.606	70.74
581.945	71.25
582.283	71.7
582.622	72.14
582.961	72.66
583.3	73.07
583.639	73.27
583.977	73.62
584.316	73.89
584.654	73.99
584.993	74.15
585.332	74.22
585.67	74.39
586.008	74.37
586.347	74.22
586.685	74.25
587.024	74.2
587.362	74.18
587.7	74.06
588.038	74.03
588.376	73.94
588.715	73.97
589.053	73.97
589.391	73.98
589.729	73.97
590.067	74.01
590.404	73.93
590.742	73.96
591.08	73.95
591.418	73.85
591.756	73.77
592.093	73.65
592.431	73.56
592.769	73.27
593.106	73.12
593.444	73.15
593.781	73
594.119	72.92
594.456	72.81
594.793	72.82
595.131	72.78
595.468	72.84
595.805	72.77
596.143	72.82
596.48	72.89
596.817	72.96
597.154	72.99
597.491	73.13
597.828	73.24
598.165	73.31
598.502	73.42
598.839	73.66
599.176	73.78
599.512	73.84
599.849	73.99
600.186	74.04
600.523	73.89
600.859	73.8
601.196	73.77
601.532	73.72
601.869	73.57
602.205	73.54
602.542	73.5
602.878	73.49
603.215	73.4
603.551	73.32
603.887	73.15
604.223	73.06
604.56	72.93
604.896	72.78
605.232	72.61
605.568	72.6
605.904	72.52
606.24	72.47
606.576	72.58
606.912	72.76
607.248	73.04
607.583	73.33
607.919	73.66
608.255	73.99
608.591	74.34
608.926	74.8
609.262	75.16
609.597	75.5
609.933	75.93
610.268	76.32
610.604	76.65
610.939	77.19
611.275	77.63
611.61	78.12
611.945	78.65
612.281	79.2
612.616	79.78
612.951	80.3
613.286	80.93
613.621	81.53
613.956	82.04
614.291	82.41
614.626	83.14
614.961	83.69
615.296	84.08
615.631	84.47
615.966	84.7
616.3	85.09
616.635	85.32
616.97	85.58
617.304	85.66
617.639	85.83
617.973	85.82
618.308	85.85
618.642	85.91
618.977	86
619.311	86.16
619.646	86.13
619.98	86.19
620.314	86.27
620.648	86.29
620.983	86.31
621.317	86.34
621.651	86.06
621.985	85.65
622.319	85.31
622.653	84.94
622.987	84.6
623.321	84.13
623.655	83.58
623.988	83.03
624.322	82.68
624.656	82.27
624.99	81.97
625.323	81.64
625.657	81.42
625.99	81.23
626.324	80.94
626.657	80.83
626.991	80.69
627.324	80.54
627.658	80.49
627.991	80.57
628.324	80.59
628.657	80.62
628.991	80.83
629.324	81.08
629.657	81.36
629.99	81.63
630.323	81.93
630.656	82.31
630.989	82.66
631.322	82.92
631.655	83.23
631.987	83.48
632.32	83.71
632.653	83.93
632.986	84.1
633.318	84.31
633.651	84.42
633.984	84.6
634.316	84.77
634.649	84.78
634.981	84.75
635.313	84.98
635.646	85.35
635.978	85.69
636.31	86.01
636.643	86.24
636.975	86.53
637.307	86.91
637.639	87.21
637.971	87.46
638.303	87.76
638.635	88.11
638.967	88.6
639.299	89.07
639.631	89.38
639.963	89.58
640.295	89.99
640.626	90.22
640.958	90.46
641.29	90.73
641.621	91.12
641.953	91.24
642.285	91.33
642.616	91.21
642.948	91.21
643.279	91.05
643.61	91.15
643.942	91.14
644.273	90.85
644.604	90.79
644.936	90.72
645.267	90.66
645.598	90.68
645.929	90.29
646.26	89.96
646.591	89.74
646.922	89.6
647.253	89.18
647.584	89.07
647.915	88.7
648.245	88.42
648.576	88.11
648.907	87.88
649.238	87.81
649.568	87.64
649.899	87.32
650.229	87.35
650.56	87.11
650.89	87.09
651.221	87.12
651.551	87.08
651.882	87.16
652.212	87.01
652.542	86.75
652.872	86.62
653.203	86.63
653.533	86.46
653.863	86.09
654.193	85.84
654.523	85.36
654.853	85.05
655.183	84.65
655.513	84.05
655.843	83.63
656.172	83.2
656.502	82.82
656.832	82.6
657.162	81.93
657.491	81.55
657.821	81.22
658.15	80.78
658.48	80.61
658.809	80.26
659.139	80.32
659.468	80.43
659.798	80.56
660.127	80.6
660.456	80.73
660.785	81.02
661.115	81.41
661.444	81.77
661.773	82.06
662.102	82.43
662.431	83.01
662.76	83.68
663.089	84.12
663.418	84.7
663.747	85.13
664.076	85.81
664.404	86.28
664.733	86.52
665.062	86.94
665.39	87.09
665.719	87.35
666.048	87.33
666.376	87.31
666.705	87.22
667.033	87.03
667.362	86.91
667.69	86.88
668.018	86.71
668.347	86.72
