Data from BA17726_Reflection_00001.txt Node
Date: Tue Nov 19 11:56:45 EST 2019
User: vgr7
Spectrometer: USB2G7710
Scans to average: 3
Trigger mode: 4
Integration Time (sec): 2.000000E-2
Electric dark correction enabled: true
Boxcar width: 10
XAxis mode: Wavelengths
Number of Pixels in Spectrum: 2048
>>>>>Begin Spectral Data<<<<<
177.721	0.8
178.105	-81.82
178.488	-49.65
178.871	-38.46
179.254	-58.06
179.636	-9.91
180.019	42.46
180.402	191.67
180.785	-43.48
181.168	-21.46
181.55	-55.46
181.933	-811.76
182.316	-572.41
182.698	-173.58
183.081	-21.62
183.463	92.75
183.846	105.38
184.228	112.82
184.611	21.05
184.993	-37.84
185.376	-33.54
185.758	10.04
186.14	-34.15
186.522	-13.08
186.904	11.94
187.287	7.41
187.669	41.86
188.051	56.65
188.433	2266.67
188.815	302.7
189.197	-262.07
189.579	157.38
189.961	120.66
190.342	72.39
190.724	-39.34
191.106	206.06
191.488	-356.52
191.869	-37.31
192.251	-56.8
192.633	-3.02
193.014	11.26
193.396	-6.3
193.777	1.17
194.159	19.66
194.54	23.94
194.922	12.08
195.303	7.75
195.684	5.89
196.065	26.01
196.447	21.46
196.828	13.12
197.209	24.59
197.59	20.41
197.971	5.67
198.352	15.54
198.733	10.74
199.114	18.93
199.495	21.89
199.876	30.64
200.257	19.28
200.638	27.34
201.018	21.22
201.399	31.26
201.78	34.72
202.16	28.97
202.541	28.79
202.922	22.51
203.302	27.75
203.683	31.79
204.063	17.93
204.444	14.63
204.824	28.19
205.204	40.35
205.585	56.05
205.965	76.84
206.345	89.6
206.725	108.54
207.106	90.23
207.486	82.11
207.866	65.29
208.246	73.41
208.626	56.76
209.006	66.81
209.386	38.33
209.766	39.64
210.145	34.72
210.525	33.57
210.905	36.89
211.285	35.7
211.664	35.29
212.044	44.44
212.424	56.84
212.803	52.42
213.183	30.08
213.562	34.84
213.942	24.64
214.321	13.45
214.701	11.64
215.08	6.22
215.459	15.73
215.838	9.13
216.218	4.26
216.597	5.03
216.976	4.74
217.355	17.07
217.734	12.51
218.113	17.28
218.492	17.8
218.871	16.19
219.25	15.79
219.629	7.5
220.008	8.55
220.387	3.61
220.766	6.72
221.144	4.32
221.523	-5.78
221.902	0.16
222.28	3.11
222.659	10.83
223.037	18.5
223.416	17.99
223.794	21.05
224.173	17.58
224.551	20.56
224.929	20.47
225.308	15.38
225.686	17.65
226.064	14.61
226.442	10.6
226.821	7
227.199	6.84
227.577	9.72
227.955	8.66
228.333	4.84
228.711	6.94
229.089	5.73
229.467	6.51
229.845	4.9
230.222	5.66
230.6	2.98
230.978	2.27
231.356	2.87
231.733	4.58
232.111	4.9
232.488	3.97
232.866	5.18
233.243	5.63
233.621	5.01
233.998	4.4
234.376	3.64
234.753	4.32
235.13	4.92
235.508	4.86
235.885	4.08
236.262	4.62
236.639	2.61
237.016	3.12
237.393	4
237.77	3.4
238.147	2.72
238.524	2.82
238.901	2.84
239.278	2.7
239.655	3.06
240.032	3.48
240.409	3.87
240.785	3.15
241.162	3.07
241.539	2.76
241.915	2.68
242.292	3.57
242.668	3.76
243.045	4.01
243.421	4.27
243.798	4.64
244.174	5.15
244.551	5.45
244.927	5.78
245.303	5.62
245.679	5.76
246.056	5.84
246.432	5.93
246.808	5.75
247.184	5.86
247.56	5.23
247.936	5.36
248.312	5.83
248.688	6.15
249.064	6.06
249.44	6.06
249.815	6.21
250.191	6.24
250.567	6.21
250.943	6.43
251.318	6.26
251.694	6.25
252.069	6.12
252.445	6.05
252.82	6.1
253.196	6
253.571	6.06
253.947	6.19
254.322	6.08
254.697	6.6
255.073	6.39
255.448	6.75
255.823	6.69
256.198	6.06
256.573	5.93
256.948	6.14
257.323	6.25
257.698	6.15
258.073	5.89
258.448	5.94
258.823	5.53
259.198	5.7
259.573	5.76
259.948	5.67
260.322	5.59
260.697	5.48
261.072	5.47
261.446	5.44
261.821	5.28
262.195	5.27
262.57	5.19
262.944	5.25
263.319	5.33
263.693	5.24
264.067	5.26
264.442	5.15
264.816	5.11
265.19	4.97
265.564	4.97
265.938	4.84
266.313	4.87
266.687	5.06
267.061	4.92
267.435	4.89
267.809	4.87
268.183	5.05
268.556	5.05
268.93	5.1
269.304	5.02
269.678	5.29
270.051	5.28
270.425	5.38
270.799	5.3
271.172	5.23
271.546	5.48
271.919	5.52
272.293	5.66
272.666	5.58
273.04	5.71
273.413	5.7
273.787	5.85
274.16	5.76
274.533	5.79
274.906	5.8
275.279	5.76
275.653	5.84
276.026	5.68
276.399	5.76
276.772	5.97
277.145	6.18
277.518	5.99
277.891	5.92
278.263	5.77
278.636	5.87
279.009	5.92
279.382	5.71
279.755	5.73
280.127	5.59
280.5	5.66
280.872	5.62
281.245	5.76
281.617	5.8
281.99	5.74
282.362	5.68
282.735	5.58
283.107	5.58
283.479	5.66
283.852	5.82
284.224	5.8
284.596	5.64
284.968	5.39
285.34	5.45
285.713	5.62
286.085	5.57
286.457	5.5
286.829	5.46
287.201	5.58
287.572	5.59
287.944	5.7
288.316	5.78
288.688	5.85
289.06	5.73
289.431	5.65
289.803	5.74
290.175	5.62
290.546	5.7
290.918	5.62
291.289	5.43
291.661	5.37
292.032	5.46
292.403	5.42
292.775	5.61
293.146	5.69
293.517	5.5
293.889	5.48
294.26	5.52
294.631	5.5
295.002	5.36
295.373	5.27
295.744	5.32
296.115	5.24
296.486	5.16
296.857	5.22
297.228	5.18
297.599	5.25
297.97	5.26
298.34	5.19
298.711	5.3
299.082	5.44
299.452	5.46
299.823	5.4
300.194	5.54
300.564	5.52
300.935	5.46
301.305	5.47
301.676	5.62
302.046	5.62
302.416	5.55
302.787	5.59
303.157	5.53
303.527	5.54
303.897	5.35
304.267	5.3
304.637	5.23
305.008	5.32
305.378	5.26
305.748	5.22
306.117	5.17
306.487	5.12
306.857	5.15
307.227	5.14
307.597	5.16
307.967	5.1
308.336	5.09
308.706	5.06
309.076	5.26
309.445	5.07
309.815	5.11
310.184	5.21
310.554	5.22
310.923	5.18
311.293	5.06
311.662	5.23
312.031	5.37
312.401	5.39
312.77	5.35
313.139	5.2
313.508	5.33
313.877	5.43
314.246	5.35
314.616	5.37
314.985	5.29
315.353	5.19
315.722	5.13
316.091	5.09
316.46	5.09
316.829	5.05
317.198	5.12
317.567	5.14
317.935	5.09
318.304	4.98
318.672	5.08
319.041	4.99
319.41	4.96
319.778	4.98
320.147	5
320.515	5.12
320.883	5.25
321.252	5.39
321.62	5.36
321.988	5.41
322.357	5.39
322.725	5.57
323.093	5.59
323.461	5.73
323.829	5.85
324.197	5.8
324.565	5.75
324.933	5.67
325.301	5.49
325.669	5.48
326.037	5.57
326.405	5.78
326.772	5.72
327.14	5.73
327.508	5.59
327.875	5.56
328.243	5.6
328.61	5.48
328.978	5.35
329.346	5.34
329.713	5.4
330.08	5.45
330.448	5.38
330.815	5.29
331.182	5.11
331.55	4.9
331.917	4.92
332.284	5.01
332.651	5.08
333.018	5.2
333.385	5.31
333.752	5.32
334.119	5.11
334.486	5.34
334.853	5.31
335.22	5.31
335.587	5.35
335.954	5.27
336.32	5.4
336.687	5.5
337.054	5.47
337.42	5.43
337.787	5.35
338.153	5.48
338.52	5.57
338.886	5.56
339.253	5.62
339.619	5.57
339.986	5.43
340.352	5.36
340.718	5.32
341.084	5.33
341.451	5.26
341.817	5.25
342.183	5.17
342.549	5.23
342.915	5.29
343.281	5.26
343.647	5.35
344.013	5.28
344.379	5.1
344.745	5.14
345.11	5.18
345.476	5.27
345.842	5.04
346.208	5.14
346.573	5.21
346.939	5.23
347.304	5.19
347.67	5.22
348.035	5.21
348.401	5.2
348.766	5.15
349.132	5.22
349.497	5.31
349.862	5.29
350.228	5.3
350.593	5.3
350.958	5.33
351.323	5.32
351.688	5.38
352.053	5.51
352.418	5.46
352.783	5.33
353.148	5.31
353.513	5.35
353.878	5.21
354.243	5.14
354.608	5.14
354.972	5.11
355.337	5.1
355.702	5.13
356.066	5.16
356.431	5.06
356.795	5.06
357.16	5.06
357.524	5.06
357.889	4.94
358.253	4.93
358.618	4.91
358.982	4.9
359.346	4.9
359.71	4.9
360.075	4.95
360.439	5.02
360.803	5.04
361.167	5.04
361.531	5.06
361.895	5.1
362.259	5.17
362.623	5.25
362.987	5.21
363.351	5.26
363.714	5.31
364.078	5.33
364.442	5.3
364.806	5.27
365.169	5.3
365.533	5.37
365.896	5.4
366.26	5.35
366.623	5.28
366.987	5.31
367.35	5.3
367.714	5.27
368.077	5.3
368.44	5.25
368.803	5.29
369.167	5.23
369.53	5.18
369.893	5.17
370.256	5.17
370.619	5.24
370.982	5.18
371.345	5.13
371.708	5.23
372.071	5.28
372.434	5.24
372.797	5.17
373.159	5.11
373.522	5.02
373.885	5.09
374.247	5.09
374.61	5.05
374.973	5.04
375.335	5.04
375.698	4.92
376.06	4.88
376.423	4.88
376.785	4.87
377.147	4.92
377.51	4.86
377.872	4.82
378.234	4.88
378.596	4.88
378.958	4.92
379.321	4.83
379.683	4.86
380.045	4.88
380.407	4.86
380.769	4.85
381.13	4.88
381.492	4.87
381.854	4.87
382.216	4.9
382.578	4.93
382.939	4.93
383.301	4.96
383.663	4.92
384.024	4.89
384.386	4.94
384.747	4.9
385.109	4.88
385.47	4.92
385.832	4.84
386.193	4.85
386.554	4.78
386.916	4.82
387.277	4.77
387.638	4.75
387.999	4.76
388.36	4.8
388.721	4.83
389.082	4.82
389.443	4.84
389.804	4.82
390.165	4.82
390.526	4.82
390.887	4.84
391.248	4.87
391.609	4.89
391.969	4.88
392.33	4.86
392.691	4.92
393.051	4.88
393.412	4.91
393.772	4.93
394.133	4.94
394.493	4.91
394.854	4.9
395.214	4.91
395.574	4.93
395.935	4.93
396.295	4.9
396.655	4.89
397.015	4.91
397.376	4.89
397.736	4.91
398.096	4.91
398.456	4.88
398.816	4.91
399.176	4.9
399.535	4.87
399.895	4.95
400.255	4.89
400.615	4.88
400.975	4.85
401.334	4.85
401.694	4.81
402.054	4.85
402.413	4.86
402.773	4.86
403.132	4.85
403.492	4.86
403.851	4.84
404.211	4.87
404.57	4.87
404.929	4.88
405.288	4.87
405.648	4.88
406.007	4.89
406.366	4.88
406.725	4.86
407.084	4.89
407.443	4.87
407.802	4.87
408.161	4.89
408.52	4.91
408.879	4.9
409.238	4.93
409.596	4.92
409.955	4.91
410.314	4.91
410.673	4.9
411.031	4.87
411.39	4.88
411.748	4.87
412.107	4.84
412.465	4.83
412.824	4.81
413.182	4.81
413.54	4.83
413.899	4.82
414.257	4.83
414.615	4.82
414.974	4.81
415.332	4.8
415.69	4.81
416.048	4.79
416.406	4.78
416.764	4.81
417.122	4.79
417.48	4.81
417.838	4.81
418.195	4.8
418.553	4.8
418.911	4.79
419.269	4.79
419.626	4.78
419.984	4.77
420.342	4.77
420.699	4.75
421.057	4.74
421.414	4.76
421.772	4.78
422.129	4.77
422.486	4.75
422.844	4.76
423.201	4.74
423.558	4.76
423.915	4.77
424.273	4.78
424.63	4.78
424.987	4.78
425.344	4.77
425.701	4.79
426.058	4.81
426.415	4.82
426.772	4.8
427.128	4.82
427.485	4.83
427.842	4.82
428.199	4.82
428.555	4.82
428.912	4.8
429.269	4.77
429.625	4.78
429.982	4.8
430.338	4.81
430.695	4.81
431.051	4.81
431.407	4.8
431.764	4.76
432.12	4.78
432.476	4.76
432.832	4.78
433.189	4.76
433.545	4.74
433.901	4.73
434.257	4.74
434.613	4.72
434.969	4.73
435.325	4.72
435.681	4.74
436.036	4.72
436.392	4.73
436.748	4.75
437.104	4.72
437.459	4.7
437.815	4.67
438.171	4.67
438.526	4.66
438.882	4.64
439.237	4.65
439.593	4.62
439.948	4.62
440.304	4.61
440.659	4.63
441.014	4.63
441.369	4.65
441.725	4.66
442.08	4.65
442.435	4.66
442.79	4.68
443.145	4.69
443.5	4.69
443.855	4.68
444.21	4.66
444.565	4.68
444.92	4.69
445.275	4.71
445.629	4.71
445.984	4.72
446.339	4.72
446.693	4.73
447.048	4.73
447.403	4.72
447.757	4.74
448.112	4.72
448.466	4.73
448.82	4.7
449.175	4.69
449.529	4.71
449.883	4.7
450.238	4.67
450.592	4.65
450.946	4.67
451.3	4.67
451.654	4.67
452.008	4.66
452.362	4.65
452.716	4.67
453.07	4.68
453.424	4.67
453.778	4.67
454.132	4.66
454.486	4.68
454.839	4.68
455.193	4.67
455.547	4.67
455.9	4.64
456.254	4.65
456.607	4.66
456.961	4.64
457.314	4.67
457.668	4.66
458.021	4.67
458.375	4.67
458.728	4.66
459.081	4.66
459.434	4.67
459.787	4.68
460.141	4.67
460.494	4.66
460.847	4.66
461.2	4.68
461.553	4.68
461.906	4.7
462.259	4.69
462.611	4.7
462.964	4.71
463.317	4.74
463.67	4.76
464.022	4.76
464.375	4.78
464.728	4.77
465.08	4.78
465.433	4.78
465.785	4.77
466.138	4.78
466.49	4.78
466.843	4.78
467.195	4.77
467.547	4.76
467.899	4.76
468.252	4.74
468.604	4.75
468.956	4.75
469.308	4.72
469.66	4.73
470.012	4.73
470.364	4.73
470.716	4.7
471.068	4.69
471.42	4.7
471.772	4.68
472.123	4.69
472.475	4.7
472.827	4.72
473.178	4.74
473.53	4.75
473.882	4.78
474.233	4.76
474.585	4.77
474.936	4.79
475.288	4.8
475.639	4.84
475.99	4.79
476.342	4.8
476.693	4.82
477.044	4.81
477.395	4.81
477.746	4.78
478.097	4.81
478.448	4.8
478.8	4.82
479.15	4.83
479.501	4.81
479.852	4.82
480.203	4.83
480.554	4.82
480.905	4.83
481.255	4.82
481.606	4.85
481.957	4.86
482.307	4.85
482.658	4.84
483.009	4.83
483.359	4.84
483.709	4.84
484.06	4.85
484.41	4.83
484.761	4.84
485.111	4.86
485.461	4.85
485.811	4.86
486.162	4.85
486.512	4.86
486.862	4.86
487.212	4.85
487.562	4.84
487.912	4.84
488.262	4.85
488.612	4.84
488.961	4.84
489.311	4.83
489.661	4.83
490.011	4.83
490.36	4.82
490.71	4.83
491.06	4.83
491.409	4.82
491.759	4.83
492.108	4.83
492.458	4.81
492.807	4.81
493.157	4.81
493.506	4.83
493.855	4.82
494.204	4.83
494.554	4.83
494.903	4.84
495.252	4.83
495.601	4.81
495.95	4.83
496.299	4.8
496.648	4.8
496.997	4.79
497.346	4.82
497.695	4.84
498.043	4.84
498.392	4.86
498.741	4.85
499.09	4.85
499.438	4.85
499.787	4.86
500.135	4.87
500.484	4.88
500.832	4.87
501.181	4.88
501.529	4.88
501.878	4.9
502.226	4.9
502.574	4.92
502.923	4.92
503.271	4.93
503.619	4.92
503.967	4.93
504.315	4.97
504.663	4.96
505.011	4.95
505.359	4.95
505.707	4.93
506.055	4.94
506.403	4.93
506.751	4.93
507.098	4.96
507.446	4.94
507.794	4.93
508.141	4.91
508.489	4.91
508.837	4.91
509.184	4.91
509.531	4.91
509.879	4.89
510.226	4.93
510.574	4.92
510.921	4.93
511.268	4.93
511.616	4.93
511.963	4.93
512.31	4.94
512.657	4.93
513.004	4.93
513.351	4.94
513.698	4.95
514.045	4.96
514.392	4.94
514.739	4.96
515.086	4.97
515.432	5
515.779	5.03
516.126	5.08
516.473	5.08
516.819	5.1
517.166	5.11
517.512	5.08
517.859	5.1
518.205	5.12
518.552	5.13
518.898	5.12
519.245	5.14
519.591	5.14
519.937	5.16
520.283	5.16
520.629	5.16
520.976	5.16
521.322	5.17
521.668	5.18
522.014	5.19
522.36	5.19
522.706	5.17
523.052	5.15
523.398	5.12
523.743	5.11
524.089	5.11
524.435	5.14
524.781	5.16
525.126	5.14
525.472	5.15
525.817	5.15
526.163	5.16
526.509	5.15
526.854	5.17
527.199	5.18
527.545	5.18
527.89	5.19
528.235	5.19
528.581	5.21
528.926	5.21
529.271	5.22
529.616	5.23
529.961	5.24
530.306	5.25
530.651	5.27
530.996	5.3
531.341	5.31
531.686	5.3
532.031	5.31
532.376	5.32
532.721	5.32
533.065	5.33
533.41	5.33
533.755	5.33
534.099	5.34
534.444	5.34
534.788	5.34
535.133	5.35
535.477	5.37
535.822	5.36
536.166	5.36
536.51	5.37
536.855	5.37
537.199	5.36
537.543	5.37
537.887	5.33
538.231	5.31
538.576	5.31
538.92	5.33
539.264	5.33
539.608	5.33
539.951	5.33
540.295	5.34
540.639	5.36
540.983	5.37
541.327	5.36
541.671	5.37
542.014	5.39
542.358	5.41
542.701	5.39
543.045	5.39
543.389	5.4
543.732	5.38
544.075	5.39
544.419	5.4
544.762	5.39
545.105	5.41
545.449	5.41
545.792	5.42
546.135	5.42
546.478	5.44
546.821	5.46
547.165	5.47
547.508	5.44
547.851	5.43
548.194	5.42
548.536	5.42
548.879	5.42
549.222	5.41
549.565	5.38
549.908	5.38
550.25	5.38
550.593	5.36
550.936	5.39
551.278	5.36
551.621	5.35
551.963	5.39
552.306	5.38
552.648	5.4
552.991	5.4
553.333	5.37
553.675	5.36
554.017	5.34
554.36	5.31
554.702	5.34
555.044	5.34
555.386	5.35
555.728	5.35
556.07	5.33
556.412	5.35
556.754	5.32
557.096	5.33
557.438	5.32
557.78	5.3
558.121	5.31
558.463	5.34
558.805	5.36
559.147	5.33
559.488	5.33
559.83	5.34
560.171	5.32
560.513	5.34
560.854	5.31
561.196	5.36
561.537	5.41
561.878	5.41
562.22	5.45
562.561	5.42
562.902	5.44
563.243	5.48
563.584	5.45
563.925	5.51
564.266	5.5
564.607	5.5
564.948	5.54
565.289	5.51
565.63	5.49
565.971	5.49
566.312	5.45
566.653	5.49
566.993	5.47
567.334	5.48
567.675	5.5
568.015	5.53
568.356	5.45
568.696	5.43
569.037	5.44
569.377	5.39
569.718	5.4
570.058	5.39
570.398	5.38
570.739	5.39
571.079	5.38
571.419	5.37
571.759	5.37
572.099	5.36
572.439	5.39
572.779	5.41
573.119	5.44
573.459	5.48
573.799	5.45
574.139	5.5
574.479	5.47
574.819	5.47
575.158	5.46
575.498	5.53
575.838	5.51
576.177	5.49
576.517	5.54
576.856	5.59
577.196	5.6
577.535	5.59
577.875	5.6
578.214	5.55
578.553	5.58
578.893	5.61
579.232	5.62
579.571	5.63
579.91	5.63
580.25	5.59
580.589	5.58
580.928	5.58
581.267	5.56
581.606	5.59
581.945	5.6
582.283	5.62
582.622	5.58
582.961	5.62
583.3	5.62
583.639	5.62
583.977	5.58
584.316	5.65
584.654	5.68
584.993	5.67
585.332	5.77
585.67	5.78
586.008	5.76
586.347	5.73
586.685	5.72
587.024	5.73
587.362	5.74
587.7	5.75
588.038	5.81
588.376	5.81
588.715	5.78
589.053	5.79
589.391	5.8
589.729	5.85
590.067	5.79
590.404	5.81
590.742	5.83
591.08	5.84
591.418	5.75
591.756	5.74
592.093	5.69
592.431	5.66
592.769	5.66
593.106	5.64
593.444	5.68
593.781	5.71
594.119	5.69
594.456	5.7
594.793	5.69
595.131	5.69
595.468	5.69
595.805	5.7
596.143	5.69
596.48	5.67
596.817	5.7
597.154	5.76
597.491	5.74
597.828	5.67
598.165	5.69
598.502	5.74
598.839	5.77
599.176	5.84
599.512	5.86
599.849	5.87
600.186	5.9
600.523	5.91
600.859	5.89
601.196	5.9
601.532	5.87
601.869	5.88
602.205	5.81
602.542	5.77
602.878	5.79
603.215	5.79
603.551	5.77
603.887	5.74
604.223	5.72
604.56	5.73
604.896	5.81
605.232	5.81
605.568	5.8
605.904	5.78
606.24	5.8
606.576	5.79
606.912	5.82
607.248	5.85
607.583	5.82
607.919	5.81
608.255	5.81
608.591	5.85
608.926	5.8
609.262	5.81
609.597	5.85
609.933	5.85
610.268	5.88
610.604	5.91
610.939	5.92
611.275	5.92
611.61	5.94
611.945	5.85
612.281	5.89
612.616	5.89
612.951	5.9
613.286	5.9
613.621	5.91
613.956	5.88
614.291	5.81
614.626	5.8
614.961	5.8
615.296	5.83
615.631	5.83
615.966	5.89
616.3	5.98
616.635	5.98
616.97	5.89
617.304	5.86
617.639	5.9
617.973	5.9
618.308	5.88
618.642	5.81
618.977	5.82
619.311	5.79
619.646	5.78
619.98	5.78
620.314	5.74
620.648	5.71
620.983	5.71
621.317	5.74
621.651	5.8
621.985	5.84
622.319	5.84
622.653	5.82
622.987	5.81
623.321	5.83
623.655	5.84
623.988	5.98
624.322	5.93
624.656	5.9
624.99	5.9
625.323	5.91
625.657	6
625.99	6.08
626.324	6.06
626.657	6.04
626.991	6.03
627.324	6.02
627.658	6.08
627.991	6.06
628.324	6.06
628.657	6
628.991	5.98
629.324	5.97
629.657	5.93
629.99	5.93
630.323	5.9
630.656	5.89
630.989	5.89
631.322	5.95
631.655	5.91
631.987	5.93
632.32	6.02
632.653	6.02
632.986	5.98
633.318	6.08
633.651	6.1
633.984	6.12
634.316	6.15
634.649	6.13
634.981	6.18
635.313	6.25
635.646	6.22
635.978	6.31
636.31	6.36
636.643	6.44
636.975	6.41
637.307	6.45
637.639	6.44
637.971	6.39
638.303	6.34
638.635	6.42
638.967	6.37
639.299	6.29
639.631	6.25
639.963	6.22
640.295	6.18
640.626	6.22
640.958	6.19
641.29	6.16
641.621	6.15
641.953	6.13
642.285	6.06
642.616	6.17
642.948	6.03
643.279	5.97
643.61	5.95
643.942	6.05
644.273	6.05
644.604	6.1
644.936	6.08
645.267	6.1
645.598	6.07
645.929	6.11
646.26	6.12
646.591	6.16
646.922	6.26
647.253	6.15
647.584	6.13
647.915	6.16
648.245	6.17
648.576	6.18
648.907	6.17
649.238	6.16
649.568	6.18
649.899	6.22
650.229	6.25
650.56	6.31
650.89	6.36
651.221	6.29
651.551	6.29
651.882	6.28
652.212	6.3
652.542	6.38
652.872	6.4
653.203	6.44
653.533	6.45
653.863	6.42
654.193	6.45
654.523	6.45
654.853	6.56
655.183	6.58
655.513	6.6
655.843	6.59
656.172	6.63
656.502	6.58
656.832	6.6
657.162	6.59
657.491	6.58
657.821	6.49
658.15	6.49
658.48	6.46
658.809	6.56
659.139	6.54
659.468	6.48
659.798	6.49
660.127	6.46
660.456	6.48
660.785	6.51
661.115	6.53
661.444	6.55
661.773	6.5
662.102	6.52
662.431	6.49
662.76	6.52
663.089	6.55
663.418	6.52
663.747	6.55
664.076	6.54
664.404	6.49
664.733	6.47
665.062	6.58
665.39	6.61
665.719	6.6
666.048	6.67
666.376	6.72
666.705	6.66
667.033	6.67
667.362	6.57
667.69	6.57
668.018	6.59
668.347	6.6
668.675	6.47
669.003	6.42
669.331	6.57
669.659	6.56
669.987	6.59
670.315	6.71
670.643	6.73
670.971	6.72
671.299	6.71
671.627	6.78
671.955	6.67
672.283	6.61
672.61	6.52
672.938	6.5
673.266	6.44
673.593	6.47
673.921	6.42
674.249	6.54
674.576	6.51
674.904	6.47
675.231	6.44
675.558	6.57
675.886	6.63
676.213	6.47
676.54	6.56
676.867	6.51
677.195	6.5
677.522	6.58
677.849	6.67
678.176	6.7
678.503	6.7
678.83	6.74
679.157	6.78
679.484	6.84
679.81	6.88
680.137	6.94
680.464	7
