Data from BA17718_Reflection_00008.txt Node
Date: Tue Nov 19 11:47:43 EST 2019
User: vgr7
Spectrometer: USB2G7710
Scans to average: 3
Trigger mode: 4
Integration Time (sec): 2.000000E-2
Electric dark correction enabled: true
Boxcar width: 10
XAxis mode: Wavelengths
Number of Pixels in Spectrum: 2048
>>>>>Begin Spectral Data<<<<<
177.721	-96.86
178.105	-97.08
178.488	-69.35
178.871	15.04
179.254	55
179.636	-3136.84
180.019	143.17
180.402	23.08
180.785	-52.73
181.168	32.72
181.55	47.45
181.933	43.13
182.316	3.34
182.698	17.01
183.081	21.22
183.463	-3.24
183.846	25.45
184.228	63.78
184.611	125.07
184.993	345.45
185.376	-359.18
185.758	-209.92
186.14	-875
186.522	-292.05
186.904	35.71
187.287	-69.81
187.669	1300
188.051	-240.91
188.433	172.29
188.815	-917.86
189.197	-219.15
189.579	-86.13
189.961	-25.63
190.342	-21.86
190.724	-34.86
191.106	-14.6
191.488	-39.53
191.869	-21.18
192.251	-5.33
192.633	23.51
193.014	47.95
193.396	41.91
193.777	21.84
194.159	39.77
194.54	32.95
194.922	-7.95
195.303	-2.92
195.684	-7.75
196.065	-16.88
196.447	-6.61
196.828	-2.31
197.209	-5.61
197.59	0.57
197.971	-26.1
198.352	-32.46
198.733	-34.79
199.114	-49.87
199.495	-48.06
199.876	-52.03
200.257	-56.78
200.638	-65.19
201.018	-110.63
201.399	-95.18
201.78	-83.93
202.16	-98.14
202.541	-98.57
202.922	-80.77
203.302	-81.17
203.683	-99.54
204.063	-94.27
204.444	-93.76
204.824	-115.43
205.204	-104.94
205.585	-109.66
205.965	-132.21
206.345	-133.77
206.725	-95.42
207.106	-92.17
207.486	-62.6
207.866	-65.48
208.246	-96.47
208.626	-219.67
209.006	-177.31
209.386	-177.96
209.766	-419.23
210.145	-143.13
210.525	-187.32
210.905	-191.54
211.285	-141.42
211.664	-46.25
212.044	-12.11
212.424	5.34
212.803	21.97
213.183	-66.07
213.562	-37.14
213.942	0.29
214.321	-3.15
214.701	-42.52
215.08	-24.63
215.459	-32.71
215.838	-40.63
216.218	-33.26
216.597	1.13
216.976	29.26
217.355	28.34
217.734	35.75
218.113	73.59
218.492	76.02
218.871	66.4
219.25	50.08
219.629	12.25
220.008	6.76
220.387	9.3
220.766	0.2
221.144	31.13
221.523	16.78
221.902	11.1
222.28	39.16
222.659	50.2
223.037	24.47
223.416	21.27
223.794	23.73
224.173	18.61
224.551	14.26
224.929	0.07
225.308	-7.21
225.686	-7.94
226.064	-16.84
226.442	-20
226.821	-13.46
227.199	-9.96
227.577	-1.76
227.955	0.94
228.333	-3.72
228.711	0.25
229.089	-1.57
229.467	-6.88
229.845	-8.77
230.222	-7.08
230.6	-14.24
230.978	-8.53
231.356	-5.68
231.733	-4.14
232.111	-4.1
232.488	-2.75
232.866	0.35
233.243	4.29
233.621	7.55
233.998	7.26
234.376	7.72
234.753	7.36
235.13	5.34
235.508	4.47
235.885	1.96
236.262	1.96
236.639	-0.63
237.016	-0.33
237.393	3.17
237.77	3.64
238.147	1.57
238.524	2.46
238.901	1.74
239.278	0.01
239.655	-0.11
240.032	1.24
240.409	1.72
240.785	2.01
241.162	2.08
241.539	1.31
241.915	1.05
242.292	1.32
242.668	1.5
243.045	2.2
243.421	2.61
243.798	2.97
244.174	3.6
244.551	4.11
244.927	4.26
245.303	3.79
245.679	3.59
246.056	3.62
246.432	3.72
246.808	3.95
247.184	4.45
247.56	4.34
247.936	4.33
248.312	4.07
248.688	3.92
249.064	3.94
249.44	4.1
249.815	4.06
250.191	3.93
250.567	4.1
250.943	4.18
251.318	3.84
251.694	3.58
252.069	3.31
252.445	3.26
252.82	3.14
253.196	3.43
253.571	3.75
253.947	4.27
254.322	4.11
254.697	3.93
255.073	3.9
255.448	3.94
255.823	3.75
256.198	3.55
256.573	3.25
256.948	3.13
257.323	3.24
257.698	3.39
258.073	3.58
258.448	3.48
258.823	3.39
259.198	3.44
259.573	3.44
259.948	3.34
260.322	3.09
260.697	3.16
261.072	2.97
261.446	3.06
261.821	2.75
262.195	2.73
262.57	2.81
262.944	2.84
263.319	2.76
263.693	2.88
264.067	3.04
264.442	3.09
264.816	3.22
265.19	3.07
265.564	3.19
265.938	3.09
266.313	3.12
266.687	2.87
267.061	2.89
267.435	3.18
267.809	3.19
268.183	3.34
268.556	3.28
268.93	3.53
269.304	3.26
269.678	3.4
270.051	3.56
270.425	3.48
270.799	3.24
271.172	3.22
271.546	3.06
271.919	3.12
272.293	3.35
272.666	3.35
273.04	3.49
273.413	3.46
273.787	3.39
274.16	3.15
274.533	3.4
274.906	3.46
275.279	3.43
275.653	3.48
276.026	3.58
276.399	3.53
276.772	3.37
277.145	3.49
277.518	3.38
277.891	3.28
278.263	3.52
278.636	3.82
279.009	4.09
279.382	4.18
279.755	4.11
280.127	4.13
280.5	4.08
280.872	4.02
281.245	3.98
281.617	4.02
281.99	4.15
282.362	3.91
282.735	3.66
283.107	3.64
283.479	3.61
283.852	3.59
284.224	3.63
284.596	3.56
284.968	3.65
285.34	3.68
285.713	3.67
286.085	3.74
286.457	3.73
286.829	3.7
287.201	3.66
287.572	3.79
287.944	3.74
288.316	3.63
288.688	3.49
289.06	3.41
289.431	3.42
289.803	3.43
290.175	3.6
290.546	3.8
290.918	3.8
291.289	3.85
291.661	3.87
292.032	3.86
292.403	4.01
292.775	4.06
293.146	4.02
293.517	4.04
293.889	3.83
294.26	3.76
294.631	3.86
295.002	3.79
295.373	3.86
295.744	3.85
296.115	4.07
296.486	4.24
296.857	4.39
297.228	4.43
297.599	4.45
297.97	4.63
298.34	4.69
298.711	4.75
299.082	4.64
299.452	4.51
299.823	4.49
300.194	4.54
300.564	4.44
300.935	4.59
301.305	4.5
301.676	4.58
302.046	4.57
302.416	4.39
302.787	4.55
303.157	4.47
303.527	4.53
303.897	4.5
304.267	4.47
304.637	4.37
305.008	4.45
305.378	4.55
305.748	4.39
306.117	4.37
306.487	4.45
306.857	4.63
307.227	5.04
307.597	5.09
307.967	5.03
308.336	5.14
308.706	5.16
309.076	5.39
309.445	5.41
309.815	5.49
310.184	5.59
310.554	5.47
310.923	5.52
311.293	5.61
311.662	5.61
312.031	5.71
312.401	5.86
312.77	5.8
313.139	5.74
313.508	5.75
313.877	5.76
314.246	5.67
314.616	5.73
314.985	5.63
315.353	5.84
315.722	6.02
316.091	6.12
316.46	6.14
316.829	6.04
317.198	6.13
317.567	6.36
317.935	6.45
318.304	6.68
318.672	6.71
319.041	6.67
319.41	6.66
319.778	6.53
320.147	6.71
320.515	6.84
320.883	6.78
321.252	6.99
321.62	7.21
321.988	7.18
322.357	7.2
322.725	7.26
323.093	7.1
323.461	7.17
323.829	7.22
324.197	7.19
324.565	7.3
324.933	7.37
325.301	7.12
325.669	7.24
326.037	7.34
326.405	7.33
326.772	7.36
327.14	7.4
327.508	7.56
327.875	7.38
328.243	7.45
328.61	7.54
328.978	7.43
329.346	7.43
329.713	7.55
330.08	7.55
330.448	7.67
330.815	7.75
331.182	7.61
331.55	7.57
331.917	7.77
332.284	7.89
332.651	7.81
333.018	8
333.385	8.09
333.752	7.99
334.119	8.07
334.486	8.09
334.853	8.15
335.22	8.04
335.587	8.13
335.954	8.1
336.32	8.11
336.687	8.23
337.054	8.12
337.42	8.05
337.787	7.96
338.153	7.84
338.52	8.01
338.886	8.14
339.253	8.18
339.619	8.05
339.986	7.95
340.352	8.01
340.718	8.02
341.084	7.97
341.451	8.07
341.817	8.22
342.183	8.25
342.549	8.4
342.915	8.52
343.281	8.57
343.647	8.56
344.013	8.78
344.379	8.77
344.745	8.9
345.11	8.97
345.476	9.09
345.842	9.01
346.208	9
346.573	9.02
346.939	9.06
347.304	9.16
347.67	9.18
348.035	9.08
348.401	9.13
348.766	9.05
349.132	9.06
349.497	8.91
349.862	8.93
350.228	8.8
350.593	8.74
350.958	8.77
351.323	8.66
351.688	8.54
352.053	8.54
352.418	8.5
352.783	8.47
353.148	8.47
353.513	8.49
353.878	8.34
354.243	8.34
354.608	8.31
354.972	8.27
355.337	8.31
355.702	8.4
356.066	8.38
356.431	8.38
356.795	8.35
357.16	8.3
357.524	8.26
357.889	8.26
358.253	8.39
358.618	8.32
358.982	8.36
359.346	8.38
359.71	8.35
360.075	8.32
360.439	8.37
360.803	8.39
361.167	8.33
361.531	8.37
361.895	8.33
362.259	8.31
362.623	8.32
362.987	8.29
363.351	8.22
363.714	8.11
364.078	8.13
364.442	8.05
364.806	8.06
365.169	8.01
365.533	7.96
365.896	7.89
366.26	7.81
366.623	7.8
366.987	7.67
367.35	7.6
367.714	7.58
368.077	7.48
368.44	7.41
368.803	7.46
369.167	7.45
369.53	7.41
369.893	7.35
370.256	7.21
370.619	7.18
370.982	7.13
371.345	7.13
371.708	7.08
372.071	7
372.434	6.97
372.797	7.02
373.159	7
373.522	6.83
373.885	6.8
374.247	6.75
374.61	6.8
374.973	6.78
375.335	6.71
375.698	6.72
376.06	6.68
376.423	6.63
376.785	6.56
377.147	6.49
377.51	6.44
377.872	6.48
378.234	6.39
378.596	6.39
378.958	6.35
379.321	6.27
379.683	6.3
380.045	6.26
380.407	6.17
380.769	6.07
381.13	6.04
381.492	6.01
381.854	6.01
382.216	5.95
382.578	5.95
382.939	5.92
383.301	5.83
383.663	5.78
384.024	5.75
384.386	5.68
384.747	5.63
385.109	5.59
385.47	5.58
385.832	5.56
386.193	5.52
386.554	5.45
386.916	5.43
387.277	5.33
387.638	5.28
387.999	5.27
388.36	5.24
388.721	5.26
389.082	5.3
389.443	5.2
389.804	5.14
390.165	5.09
390.526	5.08
390.887	5.05
391.248	4.98
391.609	4.99
391.969	5
392.33	4.98
392.691	4.93
393.051	4.86
393.412	4.82
393.772	4.79
394.133	4.8
394.493	4.77
394.854	4.8
395.214	4.77
395.574	4.71
395.935	4.74
396.295	4.7
396.655	4.64
397.015	4.68
397.376	4.6
397.736	4.52
398.096	4.51
398.456	4.49
398.816	4.5
399.176	4.41
399.535	4.36
399.895	4.36
400.255	4.39
400.615	4.36
400.975	4.33
401.334	4.32
401.694	4.31
402.054	4.29
402.413	4.26
402.773	4.2
403.132	4.15
403.492	4.11
403.851	4.11
404.211	4.1
404.57	4.1
404.929	4.1
405.288	4.1
405.648	4.07
406.007	4.03
406.366	4.02
406.725	4
407.084	3.99
407.443	3.94
407.802	3.87
408.161	3.91
408.52	3.86
408.879	3.86
409.238	3.82
409.596	3.83
409.955	3.78
410.314	3.78
410.673	3.79
411.031	3.78
411.39	3.77
411.748	3.73
412.107	3.68
412.465	3.7
412.824	3.7
413.182	3.69
413.54	3.71
413.899	3.71
414.257	3.73
414.615	3.71
414.974	3.69
415.332	3.7
415.69	3.66
416.048	3.67
416.406	3.65
416.764	3.62
417.122	3.6
417.48	3.6
417.838	3.6
418.195	3.59
418.553	3.57
418.911	3.52
419.269	3.51
419.626	3.48
419.984	3.48
420.342	3.46
420.699	3.46
421.057	3.44
421.414	3.43
421.772	3.41
422.129	3.39
422.486	3.39
422.844	3.39
423.201	3.38
423.558	3.36
423.915	3.35
424.273	3.36
424.63	3.36
424.987	3.35
425.344	3.33
425.701	3.32
426.058	3.31
426.415	3.32
426.772	3.32
427.128	3.33
427.485	3.32
427.842	3.29
428.199	3.27
428.555	3.26
428.912	3.24
429.269	3.22
429.625	3.23
429.982	3.23
430.338	3.22
430.695	3.22
431.051	3.21
431.407	3.21
431.764	3.21
432.12	3.2
432.476	3.2
432.832	3.23
433.189	3.23
433.545	3.22
433.901	3.22
434.257	3.21
434.613	3.2
434.969	3.22
435.325	3.25
435.681	3.26
436.036	3.25
436.392	3.26
436.748	3.27
437.104	3.28
437.459	3.26
437.815	3.26
438.171	3.25
438.526	3.26
438.882	3.26
439.237	3.25
439.593	3.23
439.948	3.23
440.304	3.22
440.659	3.23
441.014	3.22
441.369	3.22
441.725	3.22
442.08	3.21
442.435	3.21
442.79	3.17
443.145	3.16
443.5	3.16
443.855	3.15
444.21	3.15
444.565	3.13
444.92	3.14
445.275	3.11
445.629	3.1
445.984	3.11
446.339	3.11
446.693	3.09
447.048	3.1
447.403	3.08
447.757	3.1
448.112	3.1
448.466	3.1
448.82	3.09
449.175	3.1
449.529	3.08
449.883	3.06
450.238	3.07
450.592	3.06
450.946	3.03
451.3	3.05
451.654	3.03
452.008	3.04
452.362	3.04
452.716	3.05
453.07	3.07
453.424	3.06
453.778	3.05
454.132	3.06
454.486	3.06
454.839	3.07
455.193	3.04
455.547	3.03
455.9	3.04
456.254	3.05
456.607	3.05
456.961	3.05
457.314	3.06
457.668	3.06
458.021	3.08
458.375	3.09
458.728	3.07
459.081	3.07
459.434	3.07
459.787	3.06
460.141	3.07
460.494	3.06
460.847	3.04
461.2	3.05
461.553	3.06
461.906	3.08
462.259	3.08
462.611	3.07
462.964	3.09
463.317	3.08
463.67	3.07
464.022	3.06
464.375	3.04
464.728	3.06
465.08	3.06
465.433	3.07
465.785	3.09
466.138	3.11
466.49	3.13
466.843	3.13
467.195	3.14
467.547	3.11
467.899	3.12
468.252	3.15
468.604	3.14
468.956	3.15
469.308	3.13
469.66	3.15
470.012	3.15
470.364	3.14
470.716	3.17
471.068	3.18
471.42	3.19
471.772	3.22
472.123	3.22
472.475	3.22
472.827	3.2
473.178	3.2
473.53	3.2
473.882	3.18
474.233	3.17
474.585	3.18
474.936	3.18
475.288	3.19
475.639	3.18
475.99	3.16
476.342	3.16
476.693	3.16
477.044	3.13
477.395	3.13
477.746	3.13
478.097	3.12
478.448	3.13
478.8	3.11
479.15	3.1
479.501	3.09
479.852	3.08
480.203	3.09
480.554	3.09
480.905	3.09
481.255	3.11
481.606	3.13
481.957	3.14
482.307	3.14
482.658	3.14
483.009	3.14
483.359	3.15
483.709	3.16
484.06	3.16
484.41	3.18
484.761	3.19
485.111	3.2
485.461	3.21
485.811	3.21
486.162	3.22
486.512	3.23
486.862	3.24
487.212	3.26
487.562	3.25
487.912	3.26
488.262	3.27
488.612	3.27
488.961	3.28
489.311	3.29
489.661	3.29
490.011	3.3
490.36	3.31
490.71	3.33
491.06	3.33
491.409	3.33
491.759	3.34
492.108	3.34
492.458	3.32
492.807	3.32
493.157	3.33
493.506	3.34
493.855	3.33
494.204	3.34
494.554	3.36
494.903	3.38
495.252	3.4
495.601	3.43
495.95	3.44
496.299	3.47
496.648	3.49
496.997	3.51
497.346	3.53
497.695	3.54
498.043	3.56
498.392	3.59
498.741	3.61
499.09	3.64
499.438	3.66
499.787	3.69
500.135	3.76
500.484	3.81
500.832	3.84
501.181	3.9
501.529	3.94
501.878	3.96
502.226	4.01
502.574	4.02
502.923	4.03
503.271	4.06
503.619	4.11
503.967	4.12
504.315	4.17
504.663	4.22
505.011	4.26
505.359	4.29
505.707	4.35
506.055	4.42
506.403	4.45
506.751	4.5
507.098	4.55
507.446	4.61
507.794	4.64
508.141	4.7
508.489	4.74
508.837	4.78
509.184	4.84
509.531	4.87
509.879	4.93
510.226	4.99
510.574	5.05
510.921	5.12
511.268	5.18
511.616	5.23
511.963	5.27
512.31	5.35
512.657	5.41
513.004	5.46
513.351	5.51
513.698	5.57
514.045	5.62
514.392	5.7
514.739	5.74
515.086	5.84
515.432	5.91
515.779	5.98
516.126	6.08
516.473	6.13
516.819	6.21
517.166	6.29
517.512	6.36
517.859	6.45
518.205	6.49
518.552	6.56
518.898	6.61
519.245	6.7
519.591	6.78
519.937	6.86
520.283	6.95
520.629	7.02
520.976	7.1
521.322	7.22
521.668	7.31
522.014	7.43
522.36	7.52
522.706	7.62
523.052	7.74
523.398	7.86
523.743	8
524.089	8.16
524.435	8.28
524.781	8.42
525.126	8.53
525.472	8.65
525.817	8.73
526.163	8.83
526.509	8.91
526.854	8.98
527.199	9.05
527.545	9.14
527.89	9.24
528.235	9.34
528.581	9.43
528.926	9.52
529.271	9.62
529.616	9.71
529.961	9.8
530.306	9.89
530.651	9.99
530.996	10.1
531.341	10.21
531.686	10.32
532.031	10.45
532.376	10.59
532.721	10.72
533.065	10.87
533.41	11.04
533.755	11.19
534.099	11.36
534.444	11.52
534.788	11.68
535.133	11.82
535.477	11.99
535.822	12.18
536.166	12.36
536.51	12.54
536.855	12.74
537.199	12.97
537.543	13.22
537.887	13.44
538.231	13.68
538.576	13.91
538.92	14.16
539.264	14.34
539.608	14.53
539.951	14.73
540.295	14.93
540.639	15.11
540.983	15.33
541.327	15.51
541.671	15.7
542.014	15.9
542.358	16.07
542.701	16.25
543.045	16.41
543.389	16.6
543.732	16.83
544.075	17.07
544.419	17.28
544.762	17.5
545.105	17.75
545.449	17.98
545.792	18.24
546.135	18.52
546.478	18.8
546.821	19.1
547.165	19.4
547.508	19.73
547.851	20.04
548.194	20.31
548.536	20.62
548.879	20.96
549.222	21.27
549.565	21.63
549.908	21.96
550.25	22.3
550.593	22.65
550.936	22.97
551.278	23.27
551.621	23.63
551.963	23.97
552.306	24.28
552.648	24.67
552.991	24.98
553.333	25.28
553.675	25.6
554.017	25.95
554.36	26.29
554.702	26.58
555.044	26.87
555.386	27.21
555.728	27.58
556.07	27.9
556.412	28.22
556.754	28.58
557.096	28.86
557.438	29.23
557.78	29.56
558.121	29.93
558.463	30.26
558.805	30.6
559.147	30.98
559.488	31.31
559.83	31.58
560.171	31.94
560.513	32.31
560.854	32.69
561.196	33.03
561.537	33.33
561.878	33.63
562.22	34.01
562.561	34.3
562.902	34.68
563.243	35.01
563.584	35.35
563.925	35.66
564.266	36.07
564.607	36.38
564.948	36.71
565.289	37
565.63	37.29
565.971	37.56
566.312	37.79
566.653	38.11
566.993	38.36
567.334	38.66
567.675	38.91
568.015	39.19
568.356	39.43
568.696	39.74
569.037	40.08
569.377	40.37
569.718	40.61
570.058	40.83
570.398	41.08
570.739	41.38
571.079	41.67
571.419	41.88
571.759	42.18
572.099	42.4
572.439	42.62
572.779	42.9
573.119	43.13
573.459	43.37
573.799	43.61
574.139	43.89
574.479	44.09
574.819	44.35
575.158	44.53
575.498	44.76
575.838	44.99
576.177	45.17
576.517	45.38
576.856	45.7
577.196	45.94
577.535	46.19
577.875	46.32
578.214	46.46
578.553	46.66
578.893	46.83
579.232	47.01
579.571	47.23
579.91	47.36
580.25	47.55
580.589	47.77
580.928	47.98
581.267	48.15
581.606	48.3
581.945	48.5
582.283	48.72
582.622	48.89
582.961	49.06
583.3	49.21
583.639	49.37
583.977	49.48
584.316	49.65
584.654	49.84
584.993	50.07
585.332	50.25
585.67	50.37
586.008	50.49
586.347	50.76
586.685	50.93
587.024	51.2
587.362	51.34
587.7	51.5
588.038	51.58
588.376	51.77
588.715	51.89
589.053	51.9
589.391	51.99
589.729	52.1
590.067	52.2
590.404	52.34
590.742	52.4
591.08	52.54
591.418	52.7
591.756	52.92
592.093	53.03
592.431	53.27
592.769	53.43
593.106	53.65
593.444	53.72
593.781	53.82
594.119	53.86
594.456	53.97
594.793	54
595.131	54.1
595.468	54.18
595.805	54.33
596.143	54.51
596.48	54.63
596.817	54.72
597.154	54.84
597.491	55.03
597.828	55.18
598.165	55.26
598.502	55.27
598.839	55.31
599.176	55.34
599.512	55.33
599.849	55.43
600.186	55.41
600.523	55.55
600.859	55.64
601.196	55.63
601.532	55.79
601.869	55.95
602.205	56.08
602.542	56.16
602.878	56.33
603.215	56.44
603.551	56.49
603.887	56.61
604.223	56.67
604.56	56.59
604.896	56.69
605.232	56.72
605.568	56.8
605.904	56.82
606.24	56.94
606.576	57.04
606.912	57.15
607.248	57.28
607.583	57.28
607.919	57.38
608.255	57.54
608.591	57.56
608.926	57.58
609.262	57.6
609.597	57.73
609.933	57.71
610.268	57.74
610.604	57.82
610.939	57.85
611.275	57.86
611.61	58.06
611.945	58.07
612.281	58.12
612.616	58.24
612.951	58.36
613.286	58.42
613.621	58.47
613.956	58.52
614.291	58.5
614.626	58.57
614.961	58.62
615.296	58.73
615.631	58.73
615.966	58.73
616.3	58.78
616.635	58.74
616.97	58.86
617.304	58.87
617.639	58.94
617.973	58.96
618.308	59.04
618.642	59.05
618.977	59.05
619.311	59.11
619.646	59.02
619.98	58.94
620.314	58.95
620.648	58.97
620.983	58.98
621.317	59.04
621.651	59.01
621.985	59.03
622.319	59.04
622.653	59.03
622.987	59.1
623.321	59.16
623.655	59.11
623.988	59.05
624.322	59.13
624.656	59.09
624.99	59.18
625.323	59.22
625.657	59.23
625.99	59.36
626.324	59.44
626.657	59.49
626.991	59.64
627.324	59.63
627.658	59.62
627.991	59.61
628.324	59.6
628.657	59.65
628.991	59.64
629.324	59.59
629.657	59.63
629.99	59.64
630.323	59.7
630.656	59.75
630.989	59.8
631.322	59.78
631.655	59.77
631.987	59.71
632.32	59.66
632.653	59.62
632.986	59.58
633.318	59.52
633.651	59.58
633.984	59.52
634.316	59.49
634.649	59.59
634.981	59.72
635.313	59.91
635.646	59.94
635.978	59.93
636.31	60.1
636.643	60.22
636.975	60.24
637.307	60.22
637.639	60.23
637.971	60.26
638.303	60.26
638.635	60.37
638.967	60.43
639.299	60.49
639.631	60.56
639.963	60.54
640.295	60.67
640.626	60.68
640.958	60.74
641.29	60.9
641.621	60.89
641.953	60.79
642.285	60.78
642.616	60.81
642.948	60.8
643.279	60.74
643.61	60.82
643.942	60.93
644.273	60.99
644.604	61.06
644.936	61.13
645.267	61.1
645.598	61.1
645.929	61.18
646.26	61.3
646.591	61.31
646.922	61.37
647.253	61.39
647.584	61.34
647.915	61.32
648.245	61.32
648.576	61.37
648.907	61.32
649.238	61.25
649.568	61.27
649.899	61.31
650.229	61.42
650.56	61.35
650.89	61.39
651.221	61.41
651.551	61.47
651.882	61.43
652.212	61.47
652.542	61.51
652.872	61.46
653.203	61.37
653.533	61.3
653.863	61.35
654.193	61.31
654.523	61.33
654.853	61.37
655.183	61.44
655.513	61.34
655.843	61.39
656.172	61.55
656.502	61.61
656.832	61.51
657.162	61.45
657.491	61.45
657.821	61.37
658.15	61.37
658.48	61.44
658.809	61.38
659.139	61.43
659.468	61.4
659.798	61.44
660.127	61.44
660.456	61.49
660.785	61.46
661.115	61.49
661.444	61.5
661.773	61.58
662.102	61.52
662.431	61.53
662.76	61.48
663.089	61.33
663.418	61.31
663.747	61.57
664.076	61.68
664.404	61.75
664.733	61.74
665.062	61.63
665.39	61.48
665.719	61.43
666.048	61.5
666.376	61.51
666.705	61.47
667.033	61.49
667.362	61.67
667.69	61.68
668.018	61.84
668.347	62
668.675	61.97
