Data from BA28473_Reflection_00005.txt Node
Date: Mon Nov 18 15:28:13 EST 2019
User: vgr7
Spectrometer: USB2G7710
Scans to average: 3
Trigger mode: 4
Integration Time (sec): 2.000000E-2
Electric dark correction enabled: true
Boxcar width: 10
XAxis mode: Wavelengths
Number of Pixels in Spectrum: 2048
>>>>>Begin Spectral Data<<<<<
177.721	-189.32
178.105	-147.39
178.488	-230.26
178.871	-329.86
179.254	-330.87
179.636	-91.01
180.019	-556.49
180.402	237.5
180.785	1788.31
181.168	-34.62
181.55	-199.56
181.933	148.07
182.316	146.92
182.698	92.76
183.081	110.46
183.463	51.29
183.846	42.47
184.228	49.98
184.611	74.84
184.993	205.26
185.376	108.48
185.758	105.23
186.14	116.82
186.522	90.13
186.904	71.22
187.287	70.44
187.669	18.11
188.051	36.43
188.433	31.7
188.815	53.43
189.197	14.95
189.579	-66.44
189.961	-144.5
190.342	-144.8
190.724	124.28
191.106	229.18
191.488	-0.8
191.869	7.15
192.251	-39.28
192.633	36.56
193.014	-43.2
193.396	50.8
193.777	57.78
194.159	82.98
194.54	-36.82
194.922	-41.78
195.303	-27.19
195.684	-87.37
196.065	70.83
196.447	141.78
196.828	753.06
197.209	289.35
197.59	-669.23
197.971	-167.72
198.352	-51.62
198.733	-84.31
199.114	-25.45
199.495	-18.44
199.876	-22.26
200.257	-28.62
200.638	-36.5
201.018	-38.72
201.399	-29.63
201.78	-29.32
202.16	-37.99
202.541	-56.84
202.922	-88.31
203.302	-114.46
203.683	-109.39
204.063	-144.78
204.444	-122.51
204.824	-72.05
205.204	-59.73
205.585	-63.86
205.965	-78.53
206.345	-117.75
206.725	-142.17
207.106	-337.03
207.486	-371.78
207.866	-455.42
208.246	-295.23
208.626	-167.37
209.006	-125.76
209.386	-131.83
209.766	-124.06
210.145	-174.39
210.525	-129.43
210.905	-56.53
211.285	-42.16
211.664	-49.19
212.044	-30.34
212.424	-18.15
212.803	-76.22
213.183	-84.76
213.562	-9.4
213.942	23.61
214.321	31.86
214.701	-3.53
215.08	-10.28
215.459	18.93
215.838	18.93
216.218	-17.26
216.597	-9.94
216.976	5.73
217.355	0.65
217.734	13.24
218.113	37.56
218.492	28.73
218.871	10.04
219.25	23.8
219.629	17.26
220.008	-2.55
220.387	8.49
220.766	22.04
221.144	17.15
221.523	-15.01
221.902	2.77
222.28	8.35
222.659	21.05
223.037	26.44
223.416	10.44
223.794	3.63
224.173	13.81
224.551	17.69
224.929	10.28
225.308	10.38
225.686	7.4
226.064	9.05
226.442	9.82
226.821	11.59
227.199	11.68
227.577	11.61
227.955	9.45
228.333	5.71
228.711	3.83
229.089	9.43
229.467	8.46
229.845	6.27
230.222	8.93
230.6	5.92
230.978	3.56
231.356	4.3
231.733	3.75
232.111	3.98
232.488	2.84
232.866	3.4
233.243	5.44
233.621	4.53
233.998	4.46
234.376	2.78
234.753	0.74
235.13	-0.18
235.508	1.06
235.885	0.46
236.262	-0.12
236.639	0.62
237.016	-0.3
237.393	2.17
237.77	2.27
238.147	2.26
238.524	2.39
238.901	4.06
239.278	4.47
239.655	5.13
240.032	5.36
240.409	4.86
240.785	5.58
241.162	5.3
241.539	5.7
241.915	5.84
242.292	5.75
242.668	5.88
243.045	5.77
243.421	5.36
243.798	5.28
244.174	5.13
244.551	5.19
244.927	5.55
245.303	5.42
245.679	5.41
246.056	5.2
246.432	5.4
246.808	5.16
247.184	4.86
247.56	4.6
247.936	4.44
248.312	4.55
248.688	4.18
249.064	4.06
249.44	3.89
249.815	3.72
250.191	3.89
250.567	3.9
250.943	3.71
251.318	3.98
251.694	3.96
252.069	4.21
252.445	4.17
252.82	3.89
253.196	3.78
253.571	3.55
253.947	3.04
254.322	3.1
254.697	3.13
255.073	3.31
255.448	3.44
255.823	3.44
256.198	3.44
256.573	3.46
256.948	3.6
257.323	3.7
257.698	3.88
258.073	3.72
258.448	3.75
258.823	4
259.198	3.71
259.573	3.84
259.948	3.82
260.322	3.71
260.697	3.64
261.072	3.55
261.446	3.67
261.821	3.86
262.195	4.06
262.57	3.91
262.944	3.77
263.319	3.72
263.693	3.66
264.067	3.79
264.442	3.88
264.816	3.69
265.19	3.71
265.564	3.6
265.938	3.57
266.313	3.6
266.687	3.55
267.061	3.66
267.435	3.48
267.809	3.52
268.183	3.6
268.556	3.73
268.93	3.83
269.304	3.83
269.678	4
270.051	3.76
270.425	3.94
270.799	4.14
271.172	4.22
271.546	4.34
271.919	4.16
272.293	4.24
272.666	4.32
273.04	4.19
273.413	4.13
273.787	4.2
274.16	4.08
274.533	4.04
274.906	4.05
275.279	4.13
275.653	3.97
276.026	4.07
276.399	4.09
276.772	4.06
277.145	3.98
277.518	3.83
277.891	3.83
278.263	3.66
278.636	3.67
279.009	3.57
279.382	3.73
279.755	3.74
280.127	3.68
280.5	3.81
280.872	3.9
281.245	3.94
281.617	3.81
281.99	3.94
282.362	4.01
282.735	3.97
283.107	3.96
283.479	4.07
283.852	3.97
284.224	3.9
284.596	3.92
284.968	4.02
285.34	4.11
285.713	4.16
286.085	4.22
286.457	4.23
286.829	4.29
287.201	4.16
287.572	4.12
287.944	4.08
288.316	3.99
288.688	3.95
289.06	3.84
289.431	4.03
289.803	4.06
290.175	3.96
290.546	4.05
290.918	4.21
291.289	4.17
291.661	4.17
292.032	4.25
292.403	4.25
292.775	4.21
293.146	4.12
293.517	4.02
293.889	4.09
294.26	3.97
294.631	3.86
295.002	3.77
295.373	3.73
295.744	3.79
296.115	3.8
296.486	3.79
296.857	3.9
297.228	3.8
297.599	3.76
297.97	3.9
298.34	3.88
298.711	3.8
299.082	3.85
299.452	3.83
299.823	3.75
300.194	3.68
300.564	3.74
300.935	3.86
301.305	3.84
301.676	3.79
302.046	3.83
302.416	3.94
302.787	4.11
303.157	4.13
303.527	4.02
303.897	4.08
304.267	4.14
304.637	4.15
305.008	4.17
305.378	4.25
305.748	4.09
306.117	4.04
306.487	4.06
306.857	4.05
307.227	4.11
307.597	4.1
307.967	4.26
308.336	4.15
308.706	4.07
309.076	4.14
309.445	4.04
309.815	3.89
310.184	3.84
310.554	3.72
310.923	3.69
311.293	3.73
311.662	3.65
312.031	3.57
312.401	3.54
312.77	3.5
313.139	3.52
313.508	3.55
313.877	3.57
314.246	3.56
314.616	3.42
314.985	3.26
315.353	3.25
315.722	3.17
316.091	3.18
316.46	3.23
316.829	3.26
317.198	3.41
317.567	3.55
317.935	3.35
318.304	3.53
318.672	3.53
319.041	3.55
319.41	3.47
319.778	3.52
320.147	3.48
320.515	3.53
320.883	3.47
321.252	3.52
321.62	3.48
321.988	3.49
322.357	3.47
322.725	3.63
323.093	3.7
323.461	3.7
323.829	3.58
324.197	3.51
324.565	3.49
324.933	3.52
325.301	3.45
325.669	3.57
326.037	3.36
326.405	3.45
326.772	3.56
327.14	3.65
327.508	3.62
327.875	3.52
328.243	3.56
328.61	3.56
328.978	3.52
329.346	3.57
329.713	3.43
330.08	3.49
330.448	3.43
330.815	3.16
331.182	3.11
331.55	3.24
331.917	3.2
332.284	3.38
332.651	3.26
333.018	3.47
333.385	3.45
333.752	3.57
334.119	3.49
334.486	3.4
334.853	3.36
335.22	3.46
335.587	3.55
335.954	3.44
336.32	3.29
336.687	3.36
337.054	3.35
337.42	3.37
337.787	3.47
338.153	3.36
338.52	3.65
338.886	3.56
339.253	3.48
339.619	3.55
339.986	3.37
340.352	3.34
340.718	3.27
341.084	3.33
341.451	3.31
341.817	3.41
342.183	3.4
342.549	3.39
342.915	3.34
343.281	3.31
343.647	3.4
344.013	3.46
344.379	3.37
344.745	3.37
345.11	3.48
345.476	3.47
345.842	3.63
346.208	3.57
346.573	3.63
346.939	3.73
347.304	3.65
347.67	3.61
348.035	3.62
348.401	3.61
348.766	3.59
349.132	3.62
349.497	3.6
349.862	3.57
350.228	3.65
350.593	3.61
350.958	3.62
351.323	3.62
351.688	3.59
352.053	3.64
352.418	3.7
352.783	3.65
353.148	3.59
353.513	3.54
353.878	3.56
354.243	3.6
354.608	3.47
354.972	3.52
355.337	3.61
355.702	3.6
356.066	3.69
356.431	3.7
356.795	3.68
357.16	3.68
357.524	3.69
357.889	3.66
358.253	3.69
358.618	3.68
358.982	3.67
359.346	3.62
359.71	3.64
360.075	3.59
360.439	3.61
360.803	3.65
361.167	3.6
361.531	3.54
361.895	3.48
362.259	3.56
362.623	3.54
362.987	3.5
363.351	3.59
363.714	3.56
364.078	3.52
364.442	3.46
364.806	3.44
365.169	3.43
365.533	3.45
365.896	3.43
366.26	3.44
366.623	3.48
366.987	3.51
367.35	3.46
367.714	3.48
368.077	3.47
368.44	3.41
368.803	3.43
369.167	3.45
369.53	3.42
369.893	3.42
370.256	3.45
370.619	3.5
370.982	3.43
371.345	3.37
371.708	3.41
372.071	3.48
372.434	3.44
372.797	3.47
373.159	3.35
373.522	3.4
373.885	3.45
374.247	3.5
374.61	3.52
374.973	3.55
375.335	3.53
375.698	3.5
376.06	3.53
376.423	3.55
376.785	3.59
377.147	3.7
377.51	3.67
377.872	3.74
378.234	3.69
378.596	3.73
378.958	3.71
379.321	3.7
379.683	3.71
380.045	3.72
380.407	3.67
380.769	3.71
381.13	3.73
381.492	3.67
381.854	3.62
382.216	3.7
382.578	3.67
382.939	3.68
383.301	3.7
383.663	3.7
384.024	3.66
384.386	3.64
384.747	3.63
385.109	3.66
385.47	3.57
385.832	3.58
386.193	3.58
386.554	3.59
386.916	3.56
387.277	3.56
387.638	3.59
387.999	3.63
388.36	3.66
388.721	3.62
389.082	3.61
389.443	3.57
389.804	3.51
390.165	3.51
390.526	3.47
390.887	3.45
391.248	3.49
391.609	3.52
391.969	3.52
392.33	3.5
392.691	3.5
393.051	3.5
393.412	3.51
393.772	3.44
394.133	3.49
394.493	3.49
394.854	3.48
395.214	3.44
395.574	3.44
395.935	3.45
396.295	3.5
396.655	3.53
397.015	3.54
397.376	3.54
397.736	3.6
398.096	3.63
398.456	3.63
398.816	3.59
399.176	3.57
399.535	3.54
399.895	3.49
400.255	3.49
400.615	3.52
400.975	3.51
401.334	3.52
401.694	3.47
402.054	3.49
402.413	3.5
402.773	3.47
403.132	3.44
403.492	3.41
403.851	3.36
404.211	3.35
404.57	3.36
404.929	3.38
405.288	3.36
405.648	3.33
406.007	3.31
406.366	3.31
406.725	3.33
407.084	3.35
407.443	3.38
407.802	3.37
408.161	3.33
408.52	3.3
408.879	3.31
409.238	3.36
409.596	3.38
409.955	3.37
410.314	3.39
410.673	3.4
411.031	3.41
411.39	3.44
411.748	3.43
412.107	3.44
412.465	3.4
412.824	3.38
413.182	3.4
413.54	3.45
413.899	3.44
414.257	3.45
414.615	3.42
414.974	3.45
415.332	3.41
415.69	3.42
416.048	3.43
416.406	3.46
416.764	3.43
417.122	3.42
417.48	3.4
417.838	3.41
418.195	3.41
418.553	3.4
418.911	3.39
419.269	3.39
419.626	3.38
419.984	3.37
420.342	3.39
420.699	3.39
421.057	3.38
421.414	3.38
421.772	3.38
422.129	3.39
422.486	3.4
422.844	3.43
423.201	3.42
423.558	3.43
423.915	3.42
424.273	3.43
424.63	3.42
424.987	3.43
425.344	3.44
425.701	3.46
426.058	3.47
426.415	3.46
426.772	3.47
427.128	3.47
427.485	3.48
427.842	3.48
428.199	3.48
428.555	3.48
428.912	3.5
429.269	3.52
429.625	3.49
429.982	3.48
430.338	3.46
430.695	3.48
431.051	3.46
431.407	3.47
431.764	3.49
432.12	3.48
432.476	3.48
432.832	3.48
433.189	3.46
433.545	3.47
433.901	3.48
434.257	3.48
434.613	3.5
434.969	3.51
435.325	3.5
435.681	3.52
436.036	3.53
436.392	3.5
436.748	3.49
437.104	3.5
437.459	3.48
437.815	3.5
438.171	3.51
438.526	3.51
438.882	3.49
439.237	3.49
439.593	3.49
439.948	3.48
440.304	3.48
440.659	3.47
441.014	3.45
441.369	3.45
441.725	3.46
442.08	3.44
442.435	3.42
442.79	3.42
443.145	3.4
443.5	3.39
443.855	3.4
444.21	3.42
444.565	3.45
444.92	3.46
445.275	3.44
445.629	3.42
445.984	3.43
446.339	3.44
446.693	3.42
447.048	3.41
447.403	3.42
447.757	3.42
448.112	3.42
448.466	3.43
448.82	3.42
449.175	3.42
449.529	3.42
449.883	3.43
450.238	3.42
450.592	3.43
450.946	3.43
451.3	3.43
451.654	3.41
452.008	3.39
452.362	3.37
452.716	3.38
453.07	3.39
453.424	3.37
453.778	3.36
454.132	3.37
454.486	3.39
454.839	3.4
455.193	3.39
455.547	3.39
455.9	3.39
456.254	3.41
456.607	3.41
456.961	3.42
457.314	3.42
457.668	3.42
458.021	3.41
458.375	3.42
458.728	3.41
459.081	3.43
459.434	3.42
459.787	3.44
460.141	3.43
460.494	3.44
460.847	3.45
461.2	3.45
461.553	3.46
461.906	3.45
462.259	3.44
462.611	3.45
462.964	3.47
463.317	3.47
463.67	3.46
464.022	3.46
464.375	3.45
464.728	3.45
465.08	3.46
465.433	3.48
465.785	3.48
466.138	3.49
466.49	3.46
466.843	3.47
467.195	3.46
467.547	3.49
467.899	3.48
468.252	3.48
468.604	3.5
468.956	3.46
469.308	3.47
469.66	3.46
470.012	3.46
470.364	3.46
470.716	3.46
471.068	3.46
471.42	3.46
471.772	3.47
472.123	3.48
472.475	3.49
472.827	3.49
473.178	3.47
473.53	3.46
473.882	3.47
474.233	3.47
474.585	3.45
474.936	3.45
475.288	3.45
475.639	3.48
475.99	3.46
476.342	3.5
476.693	3.51
477.044	3.52
477.395	3.53
477.746	3.51
478.097	3.52
478.448	3.5
478.8	3.5
479.15	3.48
479.501	3.49
479.852	3.47
480.203	3.46
480.554	3.48
480.905	3.49
481.255	3.49
481.606	3.49
481.957	3.51
482.307	3.52
482.658	3.51
483.009	3.5
483.359	3.51
483.709	3.51
484.06	3.51
484.41	3.51
484.761	3.5
485.111	3.5
485.461	3.5
485.811	3.51
486.162	3.52
486.512	3.52
486.862	3.52
487.212	3.53
487.562	3.55
487.912	3.56
488.262	3.56
488.612	3.56
488.961	3.57
489.311	3.57
489.661	3.56
490.011	3.56
490.36	3.57
490.71	3.56
491.06	3.56
491.409	3.56
491.759	3.55
492.108	3.57
492.458	3.56
492.807	3.56
493.157	3.56
493.506	3.56
493.855	3.57
494.204	3.56
494.554	3.55
494.903	3.53
495.252	3.53
495.601	3.52
495.95	3.54
496.299	3.53
496.648	3.51
496.997	3.52
497.346	3.53
497.695	3.52
498.043	3.51
498.392	3.52
498.741	3.53
499.09	3.54
499.438	3.55
499.787	3.58
500.135	3.61
500.484	3.63
500.832	3.64
501.181	3.66
501.529	3.67
501.878	3.67
502.226	3.68
502.574	3.67
502.923	3.66
503.271	3.66
503.619	3.69
503.967	3.71
504.315	3.68
504.663	3.69
505.011	3.71
505.359	3.68
505.707	3.68
506.055	3.66
506.403	3.66
506.751	3.67
507.098	3.66
507.446	3.66
507.794	3.63
508.141	3.63
508.489	3.62
508.837	3.62
509.184	3.62
509.531	3.63
509.879	3.65
510.226	3.66
510.574	3.66
510.921	3.66
511.268	3.67
511.616	3.7
511.963	3.7
512.31	3.7
512.657	3.73
513.004	3.72
513.351	3.74
513.698	3.73
514.045	3.71
514.392	3.71
514.739	3.7
515.086	3.71
515.432	3.71
515.779	3.72
516.126	3.73
516.473	3.74
516.819	3.75
517.166	3.74
517.512	3.73
517.859	3.73
518.205	3.72
518.552	3.73
518.898	3.71
519.245	3.72
519.591	3.71
519.937	3.72
520.283	3.73
520.629	3.73
520.976	3.73
521.322	3.75
521.668	3.77
522.014	3.78
522.36	3.77
522.706	3.78
523.052	3.76
523.398	3.75
523.743	3.75
524.089	3.74
524.435	3.73
524.781	3.75
525.126	3.77
525.472	3.8
525.817	3.79
526.163	3.8
526.509	3.81
526.854	3.83
527.199	3.84
527.545	3.84
527.89	3.84
528.235	3.86
528.581	3.85
528.926	3.83
529.271	3.83
529.616	3.83
529.961	3.83
530.306	3.85
530.651	3.85
530.996	3.87
531.341	3.88
531.686	3.89
532.031	3.89
532.376	3.89
532.721	3.89
533.065	3.89
533.41	3.89
533.755	3.89
534.099	3.9
534.444	3.89
534.788	3.9
535.133	3.91
535.477	3.91
535.822	3.93
536.166	3.95
536.51	3.97
536.855	3.98
537.199	3.99
537.543	4
537.887	4.01
538.231	3.99
538.576	4
538.92	4
539.264	4
539.608	4
539.951	3.97
540.295	3.98
540.639	3.98
540.983	3.97
541.327	3.97
541.671	3.95
542.014	3.95
542.358	3.96
542.701	3.97
543.045	3.98
543.389	3.98
543.732	3.98
544.075	3.98
544.419	3.97
544.762	3.97
545.105	3.98
545.449	4
545.792	3.98
546.135	4
546.478	4
546.821	4
547.165	4.03
547.508	4.03
547.851	4.04
548.194	4.04
548.536	4.02
548.879	4.07
549.222	4.08
549.565	4.09
549.908	4.08
550.25	4.08
550.593	4.06
550.936	4.04
551.278	4.04
551.621	4.06
551.963	4.08
552.306	4.06
552.648	4.06
552.991	4.07
553.333	4.06
553.675	4.04
554.017	4.04
554.36	4.05
554.702	4.07
555.044	4.06
555.386	4.05
555.728	4.07
556.07	4.09
556.412	4.09
556.754	4.04
557.096	4.03
557.438	4.04
557.78	4.05
558.121	4.06
558.463	4.05
558.805	4.05
559.147	4.01
559.488	4.02
559.83	4.02
560.171	4.02
560.513	4.04
560.854	4.08
561.196	4.06
561.537	4.08
561.878	4.01
562.22	4.03
562.561	4.04
562.902	4.04
563.243	4.01
563.584	4.02
563.925	4.07
564.266	4.08
564.607	4.07
564.948	4.1
565.289	4.12
565.63	4.12
565.971	4.11
566.312	4.11
566.653	4.11
566.993	4.1
567.334	4.09
567.675	4.09
568.015	4.09
568.356	4.11
568.696	4.11
569.037	4.14
569.377	4.15
569.718	4.14
570.058	4.15
570.398	4.16
570.739	4.15
571.079	4.13
571.419	4.13
571.759	4.14
572.099	4.1
572.439	4.08
572.779	4.09
573.119	4.11
573.459	4.15
573.799	4.16
574.139	4.2
574.479	4.21
574.819	4.19
575.158	4.16
575.498	4.16
575.838	4.17
576.177	4.15
576.517	4.14
576.856	4.16
577.196	4.14
577.535	4.13
577.875	4.12
578.214	4.14
578.553	4.16
578.893	4.16
579.232	4.21
579.571	4.21
579.91	4.22
580.25	4.19
580.589	4.2
580.928	4.19
581.267	4.14
581.606	4.15
581.945	4.15
582.283	4.17
582.622	4.15
582.961	4.14
583.3	4.14
583.639	4.16
583.977	4.15
584.316	4.15
584.654	4.16
584.993	4.14
585.332	4.12
585.67	4.11
586.008	4.08
586.347	4.05
586.685	4.03
587.024	4.03
587.362	4.02
587.7	3.98
588.038	3.98
588.376	3.98
588.715	3.98
589.053	4
589.391	4
589.729	4.04
590.067	4.04
590.404	4.07
590.742	4.08
591.08	4.07
591.418	4.1
591.756	4.1
592.093	4.16
592.431	4.15
592.769	4.13
593.106	4.17
593.444	4.18
593.781	4.15
594.119	4.16
594.456	4.18
594.793	4.18
595.131	4.19
595.468	4.21
595.805	4.21
596.143	4.22
596.48	4.23
596.817	4.23
597.154	4.26
597.491	4.25
597.828	4.23
598.165	4.23
598.502	4.21
598.839	4.19
599.176	4.16
599.512	4.18
599.849	4.21
600.186	4.21
600.523	4.22
600.859	4.3
601.196	4.29
601.532	4.28
601.869	4.28
602.205	4.27
602.542	4.27
602.878	4.3
603.215	4.28
603.551	4.25
603.887	4.26
604.223	4.25
604.56	4.28
604.896	4.28
605.232	4.3
605.568	4.3
605.904	4.29
606.24	4.31
606.576	4.3
606.912	4.28
607.248	4.28
607.583	4.28
607.919	4.23
608.255	4.26
608.591	4.29
608.926	4.28
609.262	4.32
609.597	4.33
609.933	4.32
610.268	4.33
610.604	4.38
610.939	4.36
611.275	4.35
611.61	4.3
611.945	4.32
612.281	4.28
612.616	4.24
612.951	4.26
613.286	4.26
613.621	4.29
613.956	4.26
614.291	4.24
614.626	4.23
614.961	4.26
615.296	4.23
615.631	4.21
615.966	4.21
616.3	4.2
616.635	4.2
616.97	4.22
617.304	4.24
617.639	4.21
617.973	4.24
618.308	4.24
618.642	4.3
618.977	4.25
619.311	4.3
619.646	4.37
619.98	4.39
620.314	4.38
620.648	4.37
620.983	4.46
621.317	4.44
621.651	4.42
621.985	4.44
622.319	4.48
622.653	4.49
622.987	4.5
623.321	4.5
623.655	4.46
623.988	4.47
624.322	4.42
624.656	4.45
624.99	4.43
625.323	4.43
625.657	4.44
625.99	4.48
626.324	4.5
626.657	4.53
626.991	4.54
627.324	4.55
627.658	4.56
627.991	4.51
628.324	4.54
628.657	4.57
628.991	4.56
629.324	4.53
629.657	4.56
629.99	4.59
630.323	4.58
630.656	4.63
630.989	4.63
631.322	4.69
631.655	4.66
631.987	4.67
632.32	4.64
632.653	4.6
632.986	4.58
633.318	4.59
633.651	4.54
633.984	4.52
634.316	4.47
634.649	4.46
634.981	4.45
635.313	4.45
635.646	4.5
635.978	4.51
636.31	4.52
636.643	4.45
636.975	4.46
637.307	4.48
637.639	4.4
637.971	4.41
638.303	4.38
638.635	4.43
638.967	4.44
639.299	4.52
639.631	4.55
639.963	4.49
640.295	4.48
640.626	4.47
640.958	4.49
641.29	4.57
641.621	4.61
641.953	4.68
642.285	4.67
642.616	4.64
642.948	4.61
643.279	4.59
643.61	4.64
643.942	4.62
644.273	4.57
644.604	4.59
644.936	4.53
645.267	4.53
645.598	4.52
645.929	4.45
646.26	4.42
646.591	4.42
646.922	4.44
647.253	4.44
647.584	4.45
647.915	4.46
648.245	4.49
648.576	4.48
648.907	4.44
649.238	4.38
649.568	4.39
649.899	4.39
650.229	4.43
650.56	4.43
650.89	4.42
651.221	4.5
651.551	4.54
651.882	4.57
652.212	4.62
652.542	4.65
652.872	4.66
653.203	4.65
653.533	4.67
653.863	4.75
654.193	4.84
654.523	4.86
654.853	4.82
655.183	4.7
655.513	4.66
655.843	4.62
656.172	4.7
656.502	4.69
656.832	4.71
657.162	4.74
657.491	4.78
657.821	4.82
658.15	4.72
658.48	4.7
658.809	4.69
659.139	4.69
659.468	4.62
659.798	4.63
660.127	4.67
660.456	4.74
660.785	4.71
661.115	4.66
661.444	4.62
661.773	4.66
662.102	4.72
662.431	4.82
662.76	4.87
663.089	4.79
663.418	4.8
663.747	4.72
664.076	4.64
664.404	4.59
664.733	4.59
665.062	4.58
665.39	4.63
665.719	4.65
666.048	4.61
666.376	4.63
666.705	4.62
667.033	4.58
667.362	4.5
667.69	4.51
668.018	4.5
668.347	4.58
668.675	4.57
669.003	4.65
669.331	4.57
669.659	4.51
669.987	4.54
670.315	4.49
670.643	4.55
670.971	4.59
671.299	4.58
671.627	4.5
671.955	4.57
672.283	4.56
672.61	4.59
672.938	4.65
673.266	4.65
673.593	4.8
673.921	4.77
674.249	4.73
674.576	4.74
674.904	4.72
675.231	4.69
675.558	4.69
675.886	4.64
676.213	4.72
676.54	4.86
676.867	4.94
677.195	4.98
677.522	4.98
677.849	5.02
678.176	5.01
678.503	5.02
