Data from BA28306_Reflection_00012.txt Node
Date: Mon Nov 18 15:53:57 EST 2019
User: vgr7
Spectrometer: USB2G7710
Scans to average: 3
Trigger mode: 4
Integration Time (sec): 2.000000E-2
Electric dark correction enabled: true
Boxcar width: 10
XAxis mode: Wavelengths
Number of Pixels in Spectrum: 2048
>>>>>Begin Spectral Data<<<<<
177.721	-560.19
178.105	-103.82
178.488	-299.35
178.871	-428.3
179.254	-1174.73
179.636	-47.96
180.019	198.42
180.402	181.82
180.785	-41.83
181.168	-106.33
181.55	-76.07
181.933	170.76
182.316	138.97
182.698	169.55
183.081	201.24
183.463	385.18
183.846	1054.31
184.228	-1004.97
184.611	-1534.78
184.993	-281.79
185.376	-139.06
185.758	-418.34
186.14	-215.48
186.522	-196.44
186.904	-169.12
187.287	-184.92
187.669	-108.37
188.051	-111.59
188.433	-39.74
188.815	3.41
189.197	-2.8
189.579	17.13
189.961	29.3
190.342	53.94
190.724	73.57
191.106	77.23
191.488	71.86
191.869	106.04
192.251	124.16
192.633	111.95
193.014	58.73
193.396	42.24
193.777	19.09
194.159	-2.02
194.54	14.05
194.922	16.5
195.303	25.68
195.684	38.42
196.065	42.9
196.447	53.84
196.828	36.65
197.209	88.71
197.59	65.45
197.971	48.43
198.352	38.63
198.733	10.34
199.114	55.66
199.495	29.05
199.876	4.8
200.257	29.2
200.638	38.46
201.018	38.74
201.399	43.93
201.78	67.36
202.16	48.19
202.541	44.03
202.922	5.92
203.302	-85.58
203.683	-117.77
204.063	-286.95
204.444	-213.34
204.824	-124.32
205.204	-158.89
205.585	-124.1
205.965	-74.02
206.345	-81.07
206.725	-66.6
207.106	-107.43
207.486	-162.61
207.866	-144.54
208.246	-148.43
208.626	-159.24
209.006	-75.59
209.386	-112.03
209.766	-142.1
210.145	-124.23
210.525	-111.48
210.905	-74.35
211.285	-36.88
211.664	-25.43
212.044	-1.06
212.424	-0.02
212.803	-15.3
213.183	-6.76
213.562	-8.86
213.942	-10.79
214.321	-9.28
214.701	-11.54
215.08	-9.97
215.459	4.83
215.838	17.08
216.218	25.99
216.597	23.99
216.976	19.95
217.355	26.52
217.734	41.82
218.113	57.15
218.492	64.76
218.871	39.02
219.25	42.63
219.629	41.9
220.008	31.34
220.387	27.3
220.766	33.04
221.144	33.74
221.523	21.99
221.902	5.38
222.28	-1.94
222.659	-4.64
223.037	1.42
223.416	-13.74
223.794	-24.92
224.173	-34.28
224.551	-28.73
224.929	-34.74
225.308	-32.16
225.686	-23.55
226.064	-24.87
226.442	-16.85
226.821	-13.38
227.199	-17.23
227.577	-18.24
227.955	-14.12
228.333	-11.41
228.711	-7.65
229.089	-7.06
229.467	-7.56
229.845	-3.84
230.222	-3.23
230.6	-4.87
230.978	-5.56
231.356	-2.76
231.733	-0.98
232.111	1.29
232.488	2.76
232.866	1.83
233.243	2.07
233.621	-0.3
233.998	-0.11
234.376	-2.04
234.753	-1.92
235.13	-1.31
235.508	-0.95
235.885	-0.97
236.262	-3.22
236.639	-3.23
237.016	-2.34
237.393	0.9
237.77	2
238.147	2.33
238.524	3.42
238.901	4.25
239.278	4.45
239.655	4.43
240.032	4.43
240.409	3.6
240.785	4.43
241.162	4.08
241.539	4.73
241.915	4.95
242.292	4.86
242.668	4.72
243.045	5
243.421	4.73
243.798	4.63
244.174	4.74
244.551	4.78
244.927	4.92
245.303	4.83
245.679	4.61
246.056	4.6
246.432	4.54
246.808	4.3
247.184	4.16
247.56	4.17
247.936	3.95
248.312	4.18
248.688	4.21
249.064	4.32
249.44	4.4
249.815	4.62
250.191	4.71
250.567	4.8
250.943	4.5
251.318	4.85
251.694	4.84
252.069	4.89
252.445	4.79
252.82	4.49
253.196	4.27
253.571	4.59
253.947	4.74
254.322	4.97
254.697	5.29
255.073	5.09
255.448	4.99
255.823	5.05
256.198	4.99
256.573	4.75
256.948	4.84
257.323	4.76
257.698	4.73
258.073	4.86
258.448	4.98
258.823	5.12
259.198	4.81
259.573	4.87
259.948	4.72
260.322	4.92
260.697	5.02
261.072	4.92
261.446	4.69
261.821	4.59
262.195	4.5
262.57	4.26
262.944	4.25
263.319	4.25
263.693	4.21
264.067	4.28
264.442	4.32
264.816	4.14
265.19	3.84
265.564	3.84
265.938	3.65
266.313	3.47
266.687	3.49
267.061	3.65
267.435	3.62
267.809	3.62
268.183	3.42
268.556	3.29
268.93	3.36
269.304	3.48
269.678	3.64
270.051	3.6
270.425	3.77
270.799	3.9
271.172	3.99
271.546	4.01
271.919	3.85
272.293	3.77
272.666	3.84
273.04	4.1
273.413	3.97
273.787	4.06
274.16	4.03
274.533	3.92
274.906	3.82
275.279	3.69
275.653	3.8
276.026	3.74
276.399	3.69
276.772	3.81
277.145	3.74
277.518	3.63
277.891	3.68
278.263	3.64
278.636	3.62
279.009	3.54
279.382	3.64
279.755	3.65
280.127	3.84
280.5	4.04
280.872	4.04
281.245	4.03
281.617	3.96
281.99	4.07
282.362	4.16
282.735	4.14
283.107	4.16
283.479	4.14
283.852	4.22
284.224	4.22
284.596	4.09
284.968	4.19
285.34	4.22
285.713	4.25
286.085	4.28
286.457	4.3
286.829	4.3
287.201	4.37
287.572	4.43
287.944	4.3
288.316	4.31
288.688	4.22
289.06	4.27
289.431	4.37
289.803	4.35
290.175	4.39
290.546	4.45
290.918	4.5
291.289	4.52
291.661	4.45
292.032	4.46
292.403	4.59
292.775	4.59
293.146	4.45
293.517	4.35
293.889	4.42
294.26	4.37
294.631	4.35
295.002	4.22
295.373	4.26
295.744	4.19
296.115	4.07
296.486	4.01
296.857	4.01
297.228	4.06
297.599	3.91
297.97	3.89
298.34	3.97
298.711	4.01
299.082	3.94
299.452	3.94
299.823	4.09
300.194	4.14
300.564	4.1
300.935	4.31
301.305	4.34
301.676	4.3
302.046	4.39
302.416	4.44
302.787	4.45
303.157	4.35
303.527	4.4
303.897	4.43
304.267	4.64
304.637	4.56
305.008	4.47
305.378	4.76
305.748	4.85
306.117	4.84
306.487	4.82
306.857	4.98
307.227	5.03
307.597	5.05
307.967	4.96
308.336	5.11
308.706	5.07
309.076	5.06
309.445	5.07
309.815	5
310.184	4.93
310.554	5.05
310.923	4.97
311.293	5.03
311.662	4.98
312.031	4.92
312.401	4.96
312.77	4.98
313.139	5.04
313.508	5.01
313.877	4.96
314.246	4.95
314.616	4.81
314.985	4.85
315.353	4.78
315.722	4.91
316.091	4.7
316.46	4.49
316.829	4.49
317.198	4.47
317.567	4.51
317.935	4.64
318.304	4.49
318.672	4.6
319.041	4.7
319.41	4.61
319.778	4.7
320.147	4.81
320.515	4.7
320.883	4.5
321.252	4.55
321.62	4.61
321.988	4.53
322.357	4.55
322.725	4.51
323.093	4.54
323.461	4.49
323.829	4.61
324.197	4.77
324.565	4.83
324.933	4.81
325.301	4.87
325.669	4.88
326.037	4.87
326.405	4.92
326.772	4.97
327.14	5.12
327.508	5.16
327.875	5.08
328.243	5.34
328.61	5.38
328.978	5.51
329.346	5.45
329.713	5.56
330.08	5.7
330.448	5.75
330.815	5.55
331.182	5.54
331.55	5.59
331.917	5.56
332.284	5.72
332.651	5.71
333.018	5.63
333.385	5.67
333.752	5.73
334.119	5.74
334.486	5.69
334.853	5.64
335.22	5.57
335.587	5.56
335.954	5.47
336.32	5.47
336.687	5.43
337.054	5.58
337.42	5.65
337.787	5.62
338.153	5.66
338.52	5.91
338.886	5.88
339.253	5.81
339.619	5.86
339.986	5.71
340.352	5.82
340.718	5.8
341.084	5.65
341.451	5.72
341.817	5.7
342.183	5.63
342.549	5.64
342.915	5.6
343.281	5.61
343.647	5.5
344.013	5.52
344.379	5.43
344.745	5.36
345.11	5.31
345.476	5.41
345.842	5.42
346.208	5.35
346.573	5.42
346.939	5.44
347.304	5.45
347.67	5.48
348.035	5.36
348.401	5.37
348.766	5.42
349.132	5.35
349.497	5.26
349.862	5.38
350.228	5.45
350.593	5.46
350.958	5.41
351.323	5.5
351.688	5.42
352.053	5.33
352.418	5.37
352.783	5.45
353.148	5.35
353.513	5.26
353.878	5.27
354.243	5.21
354.608	5.25
354.972	5.21
355.337	5.23
355.702	5.3
356.066	5.3
356.431	5.26
356.795	5.32
357.16	5.32
357.524	5.22
357.889	5.17
358.253	5.19
358.618	5.24
358.982	5.17
359.346	5.15
359.71	5.25
360.075	5.22
360.439	5.17
360.803	5.16
361.167	5.2
361.531	5.16
361.895	5.2
362.259	5.19
362.623	5.13
362.987	5.12
363.351	5.1
363.714	5.11
364.078	5.14
364.442	5.08
364.806	5.11
365.169	5.13
365.533	5.15
365.896	5.13
366.26	5.12
366.623	5.13
366.987	5.18
367.35	5.16
367.714	5.2
368.077	5.2
368.44	5.2
368.803	5.15
369.167	5.06
369.53	4.99
369.893	4.97
370.256	5.08
370.619	5.01
370.982	4.94
371.345	4.93
371.708	4.9
372.071	4.89
372.434	4.87
372.797	4.88
373.159	4.79
373.522	4.74
373.885	4.75
374.247	4.82
374.61	4.81
374.973	4.79
375.335	4.75
375.698	4.75
376.06	4.73
376.423	4.79
376.785	4.88
377.147	4.94
377.51	4.88
377.872	4.8
378.234	4.79
378.596	4.78
378.958	4.77
379.321	4.8
379.683	4.74
380.045	4.72
380.407	4.67
380.769	4.71
381.13	4.7
381.492	4.68
381.854	4.61
382.216	4.54
382.578	4.46
382.939	4.37
383.301	4.35
383.663	4.3
384.024	4.21
384.386	4.23
384.747	4.17
385.109	4.15
385.47	4.12
385.832	4.12
386.193	4.16
386.554	4.16
386.916	4.12
387.277	4.16
387.638	4.16
387.999	4.16
388.36	4.13
388.721	4.15
389.082	4.09
389.443	4.05
389.804	4.05
390.165	4.07
390.526	4.11
390.887	4.04
391.248	4.07
391.609	4.09
391.969	4.05
392.33	4
392.691	4
393.051	4.02
393.412	4.01
393.772	3.95
394.133	3.9
394.493	3.88
394.854	3.84
395.214	3.83
395.574	3.8
395.935	3.82
396.295	3.82
396.655	3.81
397.015	3.82
397.376	3.84
397.736	3.8
398.096	3.77
398.456	3.8
398.816	3.76
399.176	3.73
399.535	3.71
399.895	3.74
400.255	3.72
400.615	3.68
400.975	3.64
401.334	3.68
401.694	3.65
402.054	3.61
402.413	3.62
402.773	3.57
403.132	3.54
403.492	3.49
403.851	3.46
404.211	3.47
404.57	3.46
404.929	3.42
405.288	3.42
405.648	3.42
406.007	3.42
406.366	3.42
406.725	3.42
407.084	3.43
407.443	3.42
407.802	3.44
408.161	3.43
408.52	3.43
408.879	3.4
409.238	3.42
409.596	3.43
409.955	3.41
410.314	3.45
410.673	3.44
411.031	3.46
411.39	3.46
411.748	3.46
412.107	3.46
412.465	3.46
412.824	3.45
413.182	3.42
413.54	3.39
413.899	3.39
414.257	3.36
414.615	3.3
414.974	3.31
415.332	3.29
415.69	3.3
416.048	3.28
416.406	3.27
416.764	3.26
417.122	3.28
417.48	3.27
417.838	3.28
418.195	3.29
418.553	3.27
418.911	3.26
419.269	3.26
419.626	3.24
419.984	3.24
420.342	3.25
420.699	3.26
421.057	3.28
421.414	3.26
421.772	3.26
422.129	3.26
422.486	3.25
422.844	3.27
423.201	3.26
423.558	3.28
423.915	3.29
424.273	3.3
424.63	3.29
424.987	3.29
425.344	3.29
425.701	3.27
426.058	3.28
426.415	3.28
426.772	3.28
427.128	3.3
427.485	3.29
427.842	3.27
428.199	3.28
428.555	3.26
428.912	3.26
429.269	3.28
429.625	3.28
429.982	3.27
430.338	3.24
430.695	3.25
431.051	3.22
431.407	3.22
431.764	3.23
432.12	3.22
432.476	3.22
432.832	3.21
433.189	3.25
433.545	3.24
433.901	3.24
434.257	3.23
434.613	3.22
434.969	3.24
435.325	3.26
435.681	3.25
436.036	3.24
436.392	3.25
436.748	3.23
437.104	3.22
437.459	3.24
437.815	3.25
438.171	3.22
438.526	3.23
438.882	3.23
439.237	3.21
439.593	3.21
439.948	3.2
440.304	3.19
440.659	3.19
441.014	3.21
441.369	3.2
441.725	3.19
442.08	3.2
442.435	3.19
442.79	3.18
443.145	3.18
443.5	3.19
443.855	3.18
444.21	3.18
444.565	3.2
444.92	3.2
445.275	3.19
445.629	3.19
445.984	3.2
446.339	3.21
446.693	3.2
447.048	3.2
447.403	3.21
447.757	3.22
448.112	3.21
448.466	3.18
448.82	3.18
449.175	3.18
449.529	3.17
449.883	3.16
450.238	3.16
450.592	3.16
450.946	3.16
451.3	3.16
451.654	3.15
452.008	3.13
452.362	3.12
452.716	3.11
453.07	3.11
453.424	3.1
453.778	3.09
454.132	3.1
454.486	3.07
454.839	3.07
455.193	3.06
455.547	3.06
455.9	3.09
456.254	3.09
456.607	3.09
456.961	3.09
457.314	3.09
457.668	3.08
458.021	3.06
458.375	3.07
458.728	3.05
459.081	3.06
459.434	3.05
459.787	3.06
460.141	3.07
460.494	3.08
460.847	3.09
461.2	3.09
461.553	3.09
461.906	3.09
462.259	3.1
462.611	3.09
462.964	3.1
463.317	3.09
463.67	3.1
464.022	3.09
464.375	3.1
464.728	3.11
465.08	3.14
465.433	3.16
465.785	3.17
466.138	3.21
466.49	3.21
466.843	3.23
467.195	3.23
467.547	3.24
467.899	3.24
468.252	3.22
468.604	3.24
468.956	3.23
469.308	3.24
469.66	3.22
470.012	3.24
470.364	3.21
470.716	3.2
471.068	3.19
471.42	3.2
471.772	3.22
472.123	3.22
472.475	3.21
472.827	3.2
473.178	3.21
473.53	3.19
473.882	3.19
474.233	3.21
474.585	3.2
474.936	3.18
475.288	3.17
475.639	3.16
475.99	3.14
476.342	3.14
476.693	3.13
477.044	3.14
477.395	3.14
477.746	3.14
478.097	3.15
478.448	3.16
478.8	3.14
479.15	3.14
479.501	3.15
479.852	3.13
480.203	3.14
480.554	3.14
480.905	3.14
481.255	3.15
481.606	3.15
481.957	3.16
482.307	3.17
482.658	3.17
483.009	3.18
483.359	3.19
483.709	3.19
484.06	3.2
484.41	3.21
484.761	3.21
485.111	3.21
485.461	3.21
485.811	3.22
486.162	3.22
486.512	3.22
486.862	3.22
487.212	3.22
487.562	3.22
487.912	3.22
488.262	3.23
488.612	3.23
488.961	3.23
489.311	3.23
489.661	3.24
490.011	3.25
490.36	3.24
490.71	3.25
491.06	3.24
491.409	3.25
491.759	3.25
492.108	3.24
492.458	3.26
492.807	3.26
493.157	3.26
493.506	3.28
493.855	3.27
494.204	3.28
494.554	3.3
494.903	3.32
495.252	3.33
495.601	3.32
495.95	3.33
496.299	3.33
496.648	3.32
496.997	3.33
497.346	3.35
497.695	3.35
498.043	3.36
498.392	3.38
498.741	3.38
499.09	3.36
499.438	3.39
499.787	3.38
500.135	3.4
500.484	3.41
500.832	3.43
501.181	3.47
501.529	3.48
501.878	3.48
502.226	3.5
502.574	3.51
502.923	3.51
503.271	3.52
503.619	3.55
503.967	3.56
504.315	3.57
504.663	3.58
505.011	3.61
505.359	3.64
505.707	3.67
506.055	3.69
506.403	3.74
506.751	3.78
507.098	3.8
507.446	3.84
507.794	3.85
508.141	3.86
508.489	3.88
508.837	3.9
509.184	3.95
509.531	3.97
509.879	3.99
510.226	4.05
510.574	4.07
510.921	4.09
511.268	4.12
511.616	4.15
511.963	4.19
512.31	4.21
512.657	4.23
513.004	4.24
513.351	4.28
513.698	4.33
514.045	4.35
514.392	4.38
514.739	4.38
515.086	4.42
515.432	4.45
515.779	4.48
516.126	4.51
516.473	4.53
516.819	4.56
517.166	4.58
517.512	4.61
517.859	4.64
518.205	4.67
518.552	4.7
518.898	4.75
519.245	4.77
519.591	4.82
519.937	4.84
520.283	4.92
520.629	4.97
520.976	4.98
521.322	5.03
521.668	5.07
522.014	5.13
522.36	5.19
522.706	5.24
523.052	5.32
523.398	5.39
523.743	5.45
524.089	5.53
524.435	5.6
524.781	5.67
525.126	5.74
525.472	5.79
525.817	5.86
526.163	5.89
526.509	5.95
526.854	5.99
527.199	6.05
527.545	6.08
527.89	6.14
528.235	6.19
528.581	6.25
528.926	6.31
529.271	6.37
529.616	6.42
529.961	6.48
530.306	6.55
530.651	6.61
530.996	6.69
531.341	6.76
531.686	6.85
532.031	6.93
532.376	7.02
532.721	7.1
533.065	7.21
533.41	7.33
533.755	7.43
534.099	7.54
534.444	7.64
534.788	7.76
535.133	7.85
535.477	7.97
535.822	8.08
536.166	8.22
536.51	8.37
536.855	8.55
537.199	8.73
537.543	8.91
537.887	9.08
538.231	9.26
538.576	9.46
538.92	9.64
539.264	9.82
539.608	10
539.951	10.18
540.295	10.32
540.639	10.49
540.983	10.67
541.327	10.86
541.671	11.03
542.014	11.18
542.358	11.37
542.701	11.56
543.045	11.74
543.389	11.92
543.732	12.12
544.075	12.31
544.419	12.49
544.762	12.69
545.105	12.92
545.449	13.15
545.792	13.39
546.135	13.65
546.478	13.9
546.821	14.17
547.165	14.45
547.508	14.76
547.851	15.02
548.194	15.29
548.536	15.6
548.879	15.93
549.222	16.26
549.565	16.6
549.908	16.92
550.25	17.25
550.593	17.58
550.936	17.93
551.278	18.29
551.621	18.66
551.963	18.99
552.306	19.34
552.648	19.71
552.991	20.03
553.333	20.35
553.675	20.69
554.017	21.03
554.36	21.36
554.702	21.65
555.044	22.02
555.386	22.4
555.728	22.71
556.07	23.08
556.412	23.41
556.754	23.76
557.096	24.09
557.438	24.43
557.78	24.84
558.121	25.24
558.463	25.62
558.805	25.94
559.147	26.32
559.488	26.68
559.83	27.04
560.171	27.41
560.513	27.83
560.854	28.16
561.196	28.5
561.537	28.84
561.878	29.19
562.22	29.54
562.561	29.81
562.902	30.17
563.243	30.45
563.584	30.79
563.925	31.11
564.266	31.46
564.607	31.76
564.948	32.05
565.289	32.32
565.63	32.59
565.971	32.87
566.312	33.14
566.653	33.39
566.993	33.65
567.334	33.88
567.675	34.08
568.015	34.39
568.356	34.63
568.696	34.92
569.037	35.18
569.377	35.44
569.718	35.73
570.058	35.97
570.398	36.24
570.739	36.51
571.079	36.76
571.419	37.03
571.759	37.28
572.099	37.49
572.439	37.71
572.779	37.95
573.119	38.17
573.459	38.42
573.799	38.64
574.139	38.84
574.479	39.06
574.819	39.32
575.158	39.5
575.498	39.76
575.838	39.96
576.177	40.16
576.517	40.4
576.856	40.64
577.196	40.89
577.535	41.1
577.875	41.29
578.214	41.5
578.553	41.71
578.893	41.91
579.232	42.16
579.571	42.35
579.91	42.57
580.25	42.77
580.589	42.97
580.928	43.21
581.267	43.39
581.606	43.58
581.945	43.78
582.283	43.94
582.622	44.13
582.961	44.32
583.3	44.55
583.639	44.74
583.977	44.89
584.316	45
584.654	45.2
584.993	45.37
585.332	45.58
585.67	45.67
586.008	45.91
586.347	46.01
586.685	46.2
587.024	46.3
587.362	46.48
587.7	46.59
588.038	46.72
588.376	46.9
588.715	47.1
589.053	47.22
589.391	47.4
589.729	47.52
590.067	47.63
590.404	47.82
590.742	47.93
591.08	48.03
591.418	48.17
591.756	48.3
592.093	48.46
592.431	48.53
592.769	48.73
593.106	48.8
593.444	48.95
593.781	49.09
594.119	49.21
594.456	49.3
594.793	49.47
595.131	49.59
595.468	49.72
595.805	49.8
596.143	49.93
596.48	50.04
596.817	50.14
597.154	50.28
597.491	50.33
597.828	50.41
598.165	50.51
598.502	50.58
598.839	50.63
599.176	50.79
599.512	50.89
599.849	50.98
600.186	51.09
600.523	51.2
600.859	51.29
601.196	51.41
601.532	51.62
601.869	51.67
602.205	51.79
602.542	51.87
602.878	52
603.215	52.11
603.551	52.2
603.887	52.32
604.223	52.38
604.56	52.52
604.896	52.61
605.232	52.67
605.568	52.71
605.904	52.84
606.24	52.8
606.576	52.85
606.912	52.89
607.248	52.97
607.583	53.08
607.919	53.16
608.255	53.24
608.591	53.32
608.926	53.45
609.262	53.55
609.597	53.62
609.933	53.73
610.268	53.75
610.604	53.89
610.939	53.93
611.275	53.91
611.61	53.95
611.945	54
612.281	54.13
612.616	54.34
612.951	54.46
613.286	54.61
613.621	54.8
613.956	54.96
614.291	55.06
614.626	55.19
614.961	55.23
615.296	55.26
615.631	55.24
615.966	55.28
616.3	55.28
616.635	55.3
616.97	55.3
617.304	55.42
617.639	55.35
617.973	55.43
618.308	55.54
618.642	55.56
618.977	55.58
619.311	55.6
619.646	55.73
619.98	55.75
620.314	55.87
620.648	55.85
620.983	55.8
621.317	55.85
621.651	55.79
621.985	55.81
622.319	55.87
622.653	56
622.987	56.11
623.321	56.11
623.655	56.22
623.988	56.25
624.322	56.25
624.656	56.38
624.99	56.45
625.323	56.54
625.657	56.57
625.99	56.66
626.324	56.64
626.657	56.66
626.991	56.61
627.324	56.65
627.658	56.67
627.991	56.83
628.324	56.86
628.657	56.96
628.991	57.06
629.324	57.13
629.657	57.07
629.99	57.01
630.323	57.13
630.656	57.15
630.989	57.21
631.322	57.2
631.655	57.08
631.987	57.06
632.32	56.99
632.653	57.05
632.986	57.07
633.318	57.27
633.651	57.27
633.984	57.28
634.316	57.29
634.649	57.29
634.981	57.31
635.313	57.35
635.646	57.42
635.978	57.4
636.31	57.53
636.643	57.62
636.975	57.69
637.307	57.63
637.639	57.69
637.971	57.66
638.303	57.72
638.635	57.9
638.967	58
639.299	58.13
639.631	58.1
639.963	58.16
640.295	58.05
640.626	58.08
640.958	58.26
641.29	58.17
641.621	58.24
641.953	58.23
642.285	58.37
642.616	58.33
642.948	58.36
643.279	58.39
643.61	58.42
643.942	58.5
644.273	58.6
644.604	58.66
644.936	58.77
645.267	58.94
645.598	58.95
645.929	58.94
646.26	58.99
646.591	59.07
646.922	59.11
647.253	59.06
647.584	59.07
647.915	59.03
648.245	59.08
648.576	59.1
648.907	59.11
649.238	59.01
649.568	59.06
649.899	59.14
650.229	59.13
650.56	59.26
650.89	59.23
651.221	59.27
651.551	59.21
651.882	59.26
652.212	59.18
652.542	59.18
652.872	59.16
653.203	59.27
653.533	59.29
653.863	59.31
654.193	59.39
654.523	59.4
654.853	59.37
655.183	59.43
655.513	59.5
655.843	59.63
656.172	59.74
656.502	59.72
656.832	59.81
657.162	59.91
657.491	59.71
657.821	59.84
658.15	59.86
658.48	59.87
658.809	59.87
659.139	59.86
659.468	59.91
659.798	59.97
660.127	59.92
660.456	59.87
660.785	59.89
661.115	59.97
661.444	59.94
661.773	60.08
662.102	60.19
662.431	60.18
662.76	60.1
663.089	60.07
663.418	60.13
663.747	60.09
664.076	59.91
664.404	60.05
664.733	59.99
665.062	59.95
665.39	60.11
665.719	60.12
666.048	60.18
666.376	60.16
666.705	60.2
667.033	60.14
667.362	60.26
667.69	60.28
668.018	60.38
668.347	60.52
668.675	60.5
