Data from BA28467_Reflection_00001.txt Node
Date: Mon Nov 18 15:32:53 EST 2019
User: vgr7
Spectrometer: USB2G7710
Scans to average: 3
Trigger mode: 4
Integration Time (sec): 2.000000E-2
Electric dark correction enabled: true
Boxcar width: 10
XAxis mode: Wavelengths
Number of Pixels in Spectrum: 2048
>>>>>Begin Spectral Data<<<<<
177.721	-189.12
178.105	-123.35
178.488	-53.8
178.871	-111.86
179.254	34.67
179.636	-52.17
180.019	1302.53
180.402	116.67
180.785	-389.36
181.168	-818.92
181.55	-822.08
181.933	318.32
182.316	320.11
182.698	277.48
183.081	315.06
183.463	671.7
183.846	1143.6
184.228	1549.83
184.611	2061.7
184.993	1833.59
185.376	-2221.59
185.758	-2105.02
186.14	-1154.36
186.522	-505.66
186.904	-608.59
187.287	-3556.49
187.669	-1088.61
188.051	1636.44
188.433	-819.06
188.815	-384.72
189.197	-563.62
189.579	-367.32
189.961	-390.51
190.342	-264.62
190.724	-153.83
191.106	-160.68
191.488	-149.68
191.869	-106.31
192.251	-119.92
192.633	-147.22
193.014	-178.6
193.396	-274.48
193.777	-323.86
194.159	-308.53
194.54	-250.62
194.922	-139.44
195.303	-245.94
195.684	-115.99
196.065	-64.59
196.447	-135.54
196.828	-707.83
197.209	-181.81
197.59	-593.74
197.971	1865.22
198.352	-4602.13
198.733	253.52
199.114	231.24
199.495	109.56
199.876	47.37
200.257	-15.54
200.638	17.03
201.018	25.01
201.399	50.14
201.78	37.72
202.16	31.81
202.541	1.44
202.922	-37.9
203.302	-42.86
203.683	-24.27
204.063	-55.13
204.444	-180.51
204.824	-135.56
205.204	-224.27
205.585	-74.8
205.965	-48.28
206.345	-58.22
206.725	-98.46
207.106	-291.84
207.486	-501.09
207.866	-402.8
208.246	-1857.2
208.626	2295.98
209.006	1263.38
209.386	344.61
209.766	519.5
210.145	5707.59
210.525	-3352.55
210.905	-817.38
211.285	-306.79
211.664	-434.84
212.044	-246.05
212.424	-150.29
212.803	-186.71
213.183	-157.04
213.562	-137.47
213.942	-111.38
214.321	-85.92
214.701	-91.89
215.08	-67.78
215.459	-56.61
215.838	-64.12
216.218	-54
216.597	-56.46
216.976	-64.08
217.355	-73.77
217.734	-75.22
218.113	-102.57
218.492	-94.12
218.871	-109.74
219.25	-115.33
219.629	-75.37
220.008	-95.54
220.387	-75.44
220.766	-53.14
221.144	-82.72
221.523	-89.19
221.902	-101.03
222.28	-148.35
222.659	-105.96
223.037	-103.77
223.416	-90.01
223.794	-95.52
224.173	-74.94
224.551	-48.68
224.929	-57.79
225.308	-29.26
225.686	-17.14
226.064	-19.04
226.442	-18.35
226.821	-11.45
227.199	-12.75
227.577	-20.06
227.955	-16.72
228.333	-19.62
228.711	-23.78
229.089	-19.84
229.467	-19.97
229.845	-22.58
230.222	-19.87
230.6	-18.39
230.978	-17.74
231.356	-15.42
231.733	-12.59
232.111	-10.11
232.488	-10.96
232.866	-7.09
233.243	-9.92
233.621	-10.21
233.998	-6.93
234.376	-5.72
234.753	-5.71
235.13	-5.65
235.508	-2.54
235.885	-3.56
236.262	-4.42
236.639	-1.18
237.016	0.28
237.393	1.49
237.77	3.05
238.147	3.01
238.524	3.03
238.901	3.6
239.278	4.01
239.655	4.71
240.032	4.29
240.409	4.71
240.785	4.35
241.162	4.72
241.539	4.63
241.915	4.59
242.292	4.37
242.668	4.27
243.045	4.81
243.421	4.57
243.798	4.84
244.174	4.8
244.551	4.68
244.927	4.46
245.303	4.35
245.679	4.59
246.056	4.47
246.432	4.25
246.808	4.09
247.184	4.07
247.56	3.68
247.936	3.63
248.312	3.47
248.688	3.64
249.064	3.56
249.44	3.65
249.815	3.81
250.191	3.95
250.567	3.94
250.943	3.63
251.318	3.61
251.694	3.55
252.069	3.68
252.445	3.72
252.82	3.97
253.196	3.78
253.571	3.49
253.947	3.49
254.322	3.7
254.697	3.79
255.073	3.59
255.448	3.77
255.823	3.69
256.198	3.82
256.573	3.71
256.948	3.86
257.323	3.62
257.698	3.44
258.073	3.46
258.448	3.39
258.823	3.49
259.198	3.43
259.573	3.42
259.948	3.23
260.322	3.25
260.697	3.25
261.072	3.18
261.446	3.17
261.821	3.14
262.195	3.13
262.57	3.13
262.944	3.16
263.319	3.12
263.693	3.18
264.067	3.23
264.442	3.25
264.816	3.06
265.19	3.21
265.564	3.22
265.938	3
266.313	3.1
266.687	3.05
267.061	3.25
267.435	3.21
267.809	3.42
268.183	3.35
268.556	3.1
268.93	3.31
269.304	3.29
269.678	3.43
270.051	3.49
270.425	3.48
270.799	3.47
271.172	3.56
271.546	3.57
271.919	3.37
272.293	3.28
272.666	3.4
273.04	3.51
273.413	3.5
273.787	3.43
274.16	3.32
274.533	3.25
274.906	3.06
275.279	3.11
275.653	3.07
276.026	3.07
276.399	3.21
276.772	3.27
277.145	3.27
277.518	3.38
277.891	3.36
278.263	3.44
278.636	3.38
279.009	3.18
279.382	3.28
279.755	3.4
280.127	3.49
280.5	3.54
280.872	3.42
281.245	3.42
281.617	3.73
281.99	3.88
282.362	3.85
282.735	3.77
283.107	3.79
283.479	3.83
283.852	3.94
284.224	3.99
284.596	3.88
284.968	3.91
285.34	3.88
285.713	3.92
286.085	3.97
286.457	4.03
286.829	4.16
287.201	4.06
287.572	4.06
287.944	3.97
288.316	3.98
288.688	3.95
289.06	3.99
289.431	3.87
289.803	3.88
290.175	3.95
290.546	4.1
290.918	4.01
291.289	3.99
291.661	3.85
292.032	3.88
292.403	3.9
292.775	3.9
293.146	3.81
293.517	3.78
293.889	3.8
294.26	3.81
294.631	3.71
295.002	3.71
295.373	3.79
295.744	3.84
296.115	3.78
296.486	3.61
296.857	3.48
297.228	3.51
297.599	3.54
297.97	3.49
298.34	3.49
298.711	3.55
299.082	3.54
299.452	3.61
299.823	3.62
300.194	3.6
300.564	3.63
300.935	3.68
301.305	3.76
301.676	3.69
302.046	3.61
302.416	3.81
302.787	3.86
303.157	3.64
303.527	3.74
303.897	3.63
304.267	3.84
304.637	3.88
305.008	3.82
305.378	3.71
305.748	3.78
306.117	3.67
306.487	3.69
306.857	3.65
307.227	3.72
307.597	3.68
307.967	3.75
308.336	3.79
308.706	3.76
309.076	3.65
309.445	3.57
309.815	3.55
310.184	3.43
310.554	3.4
310.923	3.57
311.293	3.49
311.662	3.56
312.031	3.54
312.401	3.68
312.77	3.74
313.139	3.8
313.508	3.68
313.877	3.85
314.246	3.79
314.616	3.94
314.985	3.86
315.353	3.7
315.722	3.65
316.091	3.54
316.46	3.59
316.829	3.6
317.198	3.65
317.567	3.66
317.935	3.63
318.304	3.72
318.672	3.71
319.041	3.68
319.41	3.77
319.778	3.75
320.147	3.64
320.515	3.54
320.883	3.45
321.252	3.59
321.62	3.55
321.988	3.53
322.357	3.39
322.725	3.41
323.093	3.61
323.461	3.72
323.829	3.7
324.197	3.72
324.565	3.72
324.933	3.83
325.301	4.03
325.669	4.08
326.037	3.92
326.405	3.82
326.772	3.89
327.14	3.95
327.508	3.98
327.875	3.97
328.243	3.96
328.61	4.02
328.978	4.08
329.346	4.12
329.713	4.14
330.08	4.23
330.448	4.17
330.815	4.2
331.182	4.13
331.55	4.05
331.917	3.98
332.284	3.99
332.651	3.91
333.018	3.86
333.385	3.89
333.752	4.14
334.119	4.25
334.486	4.27
334.853	4.16
335.22	4.2
335.587	4.23
335.954	4.28
336.32	4.23
336.687	4.18
337.054	4.14
337.42	4.32
337.787	4.21
338.153	4.23
338.52	4.23
338.886	4.22
339.253	4.33
339.619	4.36
339.986	4.37
340.352	4.36
340.718	4.29
341.084	4.26
341.451	4.14
341.817	4.09
342.183	3.98
342.549	4.05
342.915	4.05
343.281	3.99
343.647	3.93
344.013	3.91
344.379	3.84
344.745	3.77
345.11	3.61
345.476	3.66
345.842	3.63
346.208	3.53
346.573	3.59
346.939	3.6
347.304	3.58
347.67	3.53
348.035	3.54
348.401	3.59
348.766	3.68
349.132	3.73
349.497	3.76
349.862	3.82
350.228	3.81
350.593	3.75
350.958	3.93
351.323	4.03
351.688	4.07
352.053	4.15
352.418	4.24
352.783	4.42
353.148	4.4
353.513	4.33
353.878	4.38
354.243	4.36
354.608	4.34
354.972	4.32
355.337	4.45
355.702	4.52
356.066	4.51
356.431	4.45
356.795	4.45
357.16	4.45
357.524	4.41
357.889	4.38
358.253	4.46
358.618	4.34
358.982	4.25
359.346	4.2
359.71	4.17
360.075	4.18
360.439	4.11
360.803	4.13
361.167	4.21
361.531	4.17
361.895	4.15
362.259	4.2
362.623	4.22
362.987	4.15
363.351	4.12
363.714	4.13
364.078	4.13
364.442	4.06
364.806	4.02
365.169	4.05
365.533	4.07
365.896	3.99
366.26	3.97
366.623	3.97
366.987	4.01
367.35	4.05
367.714	4.02
368.077	3.99
368.44	3.99
368.803	3.98
369.167	3.99
369.53	3.91
369.893	3.94
370.256	3.92
370.619	3.87
370.982	3.78
371.345	3.78
371.708	3.77
372.071	3.84
372.434	3.87
372.797	3.84
373.159	3.75
373.522	3.83
373.885	3.88
374.247	3.95
374.61	3.98
374.973	3.92
375.335	3.91
375.698	3.94
376.06	3.95
376.423	3.95
376.785	4.04
377.147	4.13
377.51	4.12
377.872	4.18
378.234	4.21
378.596	4.3
378.958	4.25
379.321	4.28
379.683	4.33
380.045	4.33
380.407	4.39
380.769	4.44
381.13	4.44
381.492	4.47
381.854	4.47
382.216	4.49
382.578	4.54
382.939	4.52
383.301	4.52
383.663	4.45
384.024	4.45
384.386	4.41
384.747	4.43
385.109	4.4
385.47	4.38
385.832	4.39
386.193	4.37
386.554	4.41
386.916	4.37
387.277	4.32
387.638	4.34
387.999	4.33
388.36	4.33
388.721	4.28
389.082	4.28
389.443	4.28
389.804	4.23
390.165	4.22
390.526	4.24
390.887	4.21
391.248	4.28
391.609	4.27
391.969	4.26
392.33	4.25
392.691	4.29
393.051	4.26
393.412	4.28
393.772	4.27
394.133	4.23
394.493	4.24
394.854	4.24
395.214	4.21
395.574	4.2
395.935	4.19
396.295	4.23
396.655	4.22
397.015	4.2
397.376	4.23
397.736	4.24
398.096	4.25
398.456	4.27
398.816	4.25
399.176	4.24
399.535	4.25
399.895	4.24
400.255	4.23
400.615	4.25
400.975	4.23
401.334	4.21
401.694	4.24
402.054	4.22
402.413	4.22
402.773	4.27
403.132	4.25
403.492	4.27
403.851	4.27
404.211	4.29
404.57	4.29
404.929	4.28
405.288	4.27
405.648	4.27
406.007	4.27
406.366	4.27
406.725	4.3
407.084	4.28
407.443	4.29
407.802	4.29
408.161	4.27
408.52	4.24
408.879	4.3
409.238	4.3
409.596	4.31
409.955	4.33
410.314	4.31
410.673	4.34
411.031	4.32
411.39	4.31
411.748	4.32
412.107	4.33
412.465	4.35
412.824	4.36
413.182	4.34
413.54	4.39
413.899	4.41
414.257	4.41
414.615	4.4
414.974	4.4
415.332	4.39
415.69	4.42
416.048	4.42
416.406	4.41
416.764	4.42
417.122	4.41
417.48	4.41
417.838	4.42
418.195	4.4
418.553	4.42
418.911	4.41
419.269	4.41
419.626	4.42
419.984	4.42
420.342	4.43
420.699	4.42
421.057	4.42
421.414	4.41
421.772	4.42
422.129	4.43
422.486	4.44
422.844	4.46
423.201	4.46
423.558	4.48
423.915	4.49
424.273	4.49
424.63	4.49
424.987	4.49
425.344	4.49
425.701	4.49
426.058	4.49
426.415	4.5
426.772	4.49
427.128	4.49
427.485	4.48
427.842	4.46
428.199	4.48
428.555	4.47
428.912	4.47
429.269	4.47
429.625	4.46
429.982	4.44
430.338	4.42
430.695	4.42
431.051	4.39
431.407	4.4
431.764	4.39
432.12	4.42
432.476	4.43
432.832	4.42
433.189	4.45
433.545	4.44
433.901	4.45
434.257	4.42
434.613	4.43
434.969	4.44
435.325	4.47
435.681	4.45
436.036	4.46
436.392	4.46
436.748	4.47
437.104	4.45
437.459	4.45
437.815	4.47
438.171	4.47
438.526	4.49
438.882	4.46
439.237	4.47
439.593	4.47
439.948	4.48
440.304	4.48
440.659	4.47
441.014	4.51
441.369	4.49
441.725	4.51
442.08	4.5
442.435	4.5
442.79	4.5
443.145	4.51
443.5	4.51
443.855	4.51
444.21	4.51
444.565	4.54
444.92	4.56
445.275	4.55
445.629	4.55
445.984	4.55
446.339	4.56
446.693	4.56
447.048	4.55
447.403	4.54
447.757	4.55
448.112	4.54
448.466	4.52
448.82	4.53
449.175	4.52
449.529	4.53
449.883	4.52
450.238	4.49
450.592	4.5
450.946	4.49
451.3	4.5
451.654	4.5
452.008	4.5
452.362	4.49
452.716	4.47
453.07	4.48
453.424	4.49
453.778	4.49
454.132	4.48
454.486	4.49
454.839	4.49
455.193	4.47
455.547	4.49
455.9	4.51
456.254	4.5
456.607	4.5
456.961	4.51
457.314	4.52
457.668	4.54
458.021	4.52
458.375	4.54
458.728	4.53
459.081	4.52
459.434	4.51
459.787	4.51
460.141	4.53
460.494	4.52
460.847	4.52
461.2	4.51
461.553	4.52
461.906	4.5
462.259	4.51
462.611	4.53
462.964	4.53
463.317	4.51
463.67	4.52
464.022	4.55
464.375	4.53
464.728	4.54
465.08	4.57
465.433	4.58
465.785	4.59
466.138	4.61
466.49	4.62
466.843	4.62
467.195	4.63
467.547	4.63
467.899	4.63
468.252	4.62
468.604	4.61
468.956	4.61
469.308	4.6
469.66	4.61
470.012	4.61
470.364	4.61
470.716	4.64
471.068	4.64
471.42	4.63
471.772	4.66
472.123	4.67
472.475	4.67
472.827	4.67
473.178	4.66
473.53	4.63
473.882	4.63
474.233	4.63
474.585	4.59
474.936	4.57
475.288	4.57
475.639	4.59
475.99	4.61
476.342	4.59
476.693	4.6
477.044	4.6
477.395	4.62
477.746	4.62
478.097	4.6
478.448	4.6
478.8	4.6
479.15	4.58
479.501	4.57
479.852	4.56
480.203	4.57
480.554	4.57
480.905	4.58
481.255	4.6
481.606	4.62
481.957	4.65
482.307	4.68
482.658	4.68
483.009	4.68
483.359	4.68
483.709	4.7
484.06	4.7
484.41	4.72
484.761	4.72
485.111	4.72
485.461	4.73
485.811	4.73
486.162	4.73
486.512	4.75
486.862	4.77
487.212	4.77
487.562	4.78
487.912	4.78
488.262	4.79
488.612	4.78
488.961	4.79
489.311	4.78
489.661	4.77
490.011	4.78
490.36	4.79
490.71	4.8
491.06	4.8
491.409	4.8
491.759	4.77
492.108	4.77
492.458	4.78
492.807	4.78
493.157	4.78
493.506	4.78
493.855	4.77
494.204	4.76
494.554	4.77
494.903	4.76
495.252	4.77
495.601	4.76
495.95	4.76
496.299	4.73
496.648	4.72
496.997	4.72
497.346	4.74
497.695	4.72
498.043	4.72
498.392	4.71
498.741	4.71
499.09	4.74
499.438	4.76
499.787	4.74
500.135	4.76
500.484	4.76
500.832	4.78
501.181	4.8
501.529	4.79
501.878	4.78
502.226	4.8
502.574	4.81
502.923	4.81
503.271	4.83
503.619	4.87
503.967	4.91
504.315	4.91
504.663	4.91
505.011	4.93
505.359	4.92
505.707	4.93
506.055	4.95
506.403	4.94
506.751	4.94
507.098	4.96
507.446	4.96
507.794	4.95
508.141	4.93
508.489	4.91
508.837	4.93
509.184	4.95
509.531	4.95
509.879	4.95
510.226	4.95
510.574	4.93
510.921	4.92
511.268	4.92
511.616	4.94
511.963	4.95
512.31	4.94
512.657	4.95
513.004	4.94
513.351	4.94
513.698	4.95
514.045	4.96
514.392	4.96
514.739	4.97
515.086	4.98
515.432	5
515.779	5.01
516.126	5.03
516.473	5.03
516.819	5.03
517.166	5.03
517.512	5.06
517.859	5.07
518.205	5.08
518.552	5.07
518.898	5.06
519.245	5.06
519.591	5.07
519.937	5.07
520.283	5.08
520.629	5.08
520.976	5.07
521.322	5.08
521.668	5.08
522.014	5.08
522.36	5.08
522.706	5.1
523.052	5.1
523.398	5.09
523.743	5.08
524.089	5.08
524.435	5.09
524.781	5.09
525.126	5.11
525.472	5.11
525.817	5.12
526.163	5.14
526.509	5.14
526.854	5.14
527.199	5.15
527.545	5.15
527.89	5.16
528.235	5.17
528.581	5.17
528.926	5.17
529.271	5.16
529.616	5.17
529.961	5.18
530.306	5.18
530.651	5.18
530.996	5.19
531.341	5.19
531.686	5.2
532.031	5.2
532.376	5.2
532.721	5.19
533.065	5.19
533.41	5.19
533.755	5.19
534.099	5.19
534.444	5.18
534.788	5.18
535.133	5.19
535.477	5.19
535.822	5.18
536.166	5.18
536.51	5.19
536.855	5.19
537.199	5.18
537.543	5.18
537.887	5.19
538.231	5.18
538.576	5.19
538.92	5.19
539.264	5.18
539.608	5.19
539.951	5.19
540.295	5.21
540.639	5.21
540.983	5.21
541.327	5.22
541.671	5.24
542.014	5.25
542.358	5.25
542.701	5.26
543.045	5.26
543.389	5.26
543.732	5.26
544.075	5.26
544.419	5.26
544.762	5.28
545.105	5.28
545.449	5.29
545.792	5.27
546.135	5.27
546.478	5.28
546.821	5.29
547.165	5.28
547.508	5.28
547.851	5.27
548.194	5.28
548.536	5.29
548.879	5.27
549.222	5.25
549.565	5.24
549.908	5.25
550.25	5.27
550.593	5.27
550.936	5.27
551.278	5.29
551.621	5.27
551.963	5.29
552.306	5.28
552.648	5.29
552.991	5.32
553.333	5.32
553.675	5.33
554.017	5.31
554.36	5.32
554.702	5.31
555.044	5.33
555.386	5.34
555.728	5.33
556.07	5.38
556.412	5.35
556.754	5.37
557.096	5.35
557.438	5.34
557.78	5.35
558.121	5.38
558.463	5.36
558.805	5.37
559.147	5.33
559.488	5.34
559.83	5.34
560.171	5.33
560.513	5.38
560.854	5.36
561.196	5.35
561.537	5.38
561.878	5.41
562.22	5.38
562.561	5.34
562.902	5.35
563.243	5.33
563.584	5.36
563.925	5.37
564.266	5.36
564.607	5.39
564.948	5.4
565.289	5.41
565.63	5.42
565.971	5.41
566.312	5.44
566.653	5.43
566.993	5.43
567.334	5.45
567.675	5.44
568.015	5.46
568.356	5.48
568.696	5.49
569.037	5.47
569.377	5.49
569.718	5.53
570.058	5.5
570.398	5.51
570.739	5.55
571.079	5.54
571.419	5.56
571.759	5.56
572.099	5.55
572.439	5.54
572.779	5.51
573.119	5.54
573.459	5.56
573.799	5.6
574.139	5.62
574.479	5.62
574.819	5.62
575.158	5.63
575.498	5.64
575.838	5.61
576.177	5.59
576.517	5.59
576.856	5.61
577.196	5.61
577.535	5.6
577.875	5.58
578.214	5.6
578.553	5.6
578.893	5.56
579.232	5.6
579.571	5.64
579.91	5.66
580.25	5.63
580.589	5.57
580.928	5.55
581.267	5.56
581.606	5.55
581.945	5.55
582.283	5.54
582.622	5.53
582.961	5.56
583.3	5.57
583.639	5.6
583.977	5.59
584.316	5.63
584.654	5.6
584.993	5.6
585.332	5.58
585.67	5.56
586.008	5.57
586.347	5.54
586.685	5.47
587.024	5.47
587.362	5.49
587.7	5.52
588.038	5.54
588.376	5.55
588.715	5.54
589.053	5.56
589.391	5.58
589.729	5.61
590.067	5.63
590.404	5.69
590.742	5.67
591.08	5.64
591.418	5.61
591.756	5.64
592.093	5.64
592.431	5.63
592.769	5.67
593.106	5.69
593.444	5.71
593.781	5.72
594.119	5.79
594.456	5.76
594.793	5.76
595.131	5.76
595.468	5.72
595.805	5.73
596.143	5.74
596.48	5.74
596.817	5.72
597.154	5.71
597.491	5.7
597.828	5.69
598.165	5.71
598.502	5.75
598.839	5.75
599.176	5.74
599.512	5.78
599.849	5.76
600.186	5.75
600.523	5.76
600.859	5.8
601.196	5.75
601.532	5.75
601.869	5.74
602.205	5.73
602.542	5.75
602.878	5.71
603.215	5.72
603.551	5.74
603.887	5.74
604.223	5.75
604.56	5.75
604.896	5.75
605.232	5.76
605.568	5.75
605.904	5.74
606.24	5.77
606.576	5.77
606.912	5.79
607.248	5.78
607.583	5.81
607.919	5.78
608.255	5.79
608.591	5.84
608.926	5.86
609.262	5.88
609.597	5.89
609.933	5.95
610.268	5.95
610.604	5.92
610.939	5.92
611.275	5.92
611.61	5.88
611.945	5.91
612.281	5.91
612.616	5.9
612.951	5.92
613.286	5.93
613.621	5.93
613.956	5.91
614.291	5.92
614.626	5.87
614.961	5.87
615.296	5.87
615.631	5.88
615.966	5.87
616.3	5.84
616.635	5.83
616.97	5.8
617.304	5.8
617.639	5.86
617.973	5.88
618.308	5.91
618.642	5.95
618.977	5.94
619.311	5.95
619.646	5.98
619.98	5.98
620.314	6.02
620.648	6.05
620.983	6.05
621.317	6.06
621.651	6.13
621.985	6.15
622.319	6.15
622.653	6.17
622.987	6.21
623.321	6.19
623.655	6.22
623.988	6.27
624.322	6.24
624.656	6.21
624.99	6.2
625.323	6.16
625.657	6.16
625.99	6.13
626.324	6.13
626.657	6.11
626.991	6.15
627.324	6.11
627.658	6.12
627.991	6.17
628.324	6.21
628.657	6.18
628.991	6.18
629.324	6.16
629.657	6.1
629.99	6.09
630.323	6.1
630.656	6.14
630.989	6.13
631.322	6.17
631.655	6.18
631.987	6.16
632.32	6.16
632.653	6.23
632.986	6.31
633.318	6.33
633.651	6.34
633.984	6.35
634.316	6.34
634.649	6.33
634.981	6.29
635.313	6.23
635.646	6.24
635.978	6.32
636.31	6.33
636.643	6.4
636.975	6.43
637.307	6.46
637.639	6.37
637.971	6.34
638.303	6.28
638.635	6.28
638.967	6.25
639.299	6.31
639.631	6.22
639.963	6.12
640.295	6.15
640.626	6.18
640.958	6.07
641.29	6.04
641.621	6.05
641.953	6.04
642.285	6.05
642.616	6.02
642.948	6.01
643.279	6
643.61	5.96
643.942	5.93
644.273	5.95
644.604	5.97
644.936	5.96
645.267	6.08
645.598	6.07
645.929	6.17
646.26	6.17
646.591	6.22
646.922	6.24
647.253	6.19
647.584	6.17
647.915	6.21
648.245	6.23
648.576	6.21
648.907	6.18
649.238	6.2
649.568	6.25
649.899	6.19
650.229	6.24
650.56	6.27
650.89	6.28
651.221	6.23
651.551	6.2
651.882	6.22
652.212	6.15
652.542	6.14
652.872	6.07
653.203	6.01
653.533	6
653.863	6
654.193	6
654.523	6.01
654.853	6.05
655.183	6.04
655.513	6.05
655.843	6.11
656.172	6.1
656.502	6.12
656.832	6.14
657.162	6.16
657.491	6.11
657.821	6.13
658.15	6.16
658.48	6.17
658.809	6.21
659.139	6.25
659.468	6.29
659.798	6.38
660.127	6.44
660.456	6.44
660.785	6.47
661.115	6.5
661.444	6.51
661.773	6.47
662.102	6.55
662.431	6.59
662.76	6.56
663.089	6.61
663.418	6.56
663.747	6.51
664.076	6.48
664.404	6.48
664.733	6.44
665.062	6.45
665.39	6.45
665.719	6.44
666.048	6.38
666.376	6.37
666.705	6.32
667.033	6.27
667.362	6.2
667.69	6.17
668.018	6.19
668.347	6.19
668.675	6.23
669.003	6.23
669.331	6.28
669.659	6.24
669.987	6.2
670.315	6.24
670.643	6.32
670.971	6.3
671.299	6.4
671.627	6.57
671.955	6.55
672.283	6.61
672.61	6.53
672.938	6.57
673.266	6.64
673.593	6.68
673.921	6.65
674.249	6.7
