Data from BA28474_Reflection_00008.txt Node
Date: Mon Nov 18 15:30:46 EST 2019
User: vgr7
Spectrometer: USB2G7710
Scans to average: 3
Trigger mode: 4
Integration Time (sec): 2.000000E-2
Electric dark correction enabled: true
Boxcar width: 10
XAxis mode: Wavelengths
Number of Pixels in Spectrum: 2048
>>>>>Begin Spectral Data<<<<<
177.721	-7.97
178.105	-34.08
178.488	-96.87
178.871	-68.6
179.254	-243.28
179.636	35.11
180.019	307.55
180.402	77.78
180.785	72.11
181.168	2.99
181.55	-15.58
181.933	202.7
182.316	44
182.698	31.94
183.081	21.35
183.463	-3.73
183.846	111.15
184.228	13100
184.611	-370.97
184.993	-155.06
185.376	-35.8
185.758	-59.62
186.14	-69.76
186.522	-76.75
186.904	-74.77
187.287	-92.63
187.669	-42.02
188.051	-106.17
188.433	-60.06
188.815	-34.33
189.197	-58.47
189.579	-32.63
189.961	-33.43
190.342	-33.14
190.724	-19.86
191.106	-33.26
191.488	-15.18
191.869	26.1
192.251	32.5
192.633	51.68
193.014	-0.12
193.396	-30.89
193.777	-9.91
194.159	8.88
194.54	21.42
194.922	9.89
195.303	0.3
195.684	3.17
196.065	25.58
196.447	22.09
196.828	-2.08
197.209	1.56
197.59	-14.65
197.971	-11.61
198.352	7.23
198.733	2.46
199.114	-5.69
199.495	-10.75
199.876	-27.33
200.257	-19.51
200.638	-15.51
201.018	-14.9
201.399	-12.27
201.78	-22.27
202.16	-49.56
202.541	-84.74
202.922	-134.47
203.302	-115.36
203.683	-145.44
204.063	-159.26
204.444	-156.83
204.824	-137.44
205.204	-105.37
205.585	-129.2
205.965	-134.41
206.345	-134.75
206.725	-187.13
207.106	-316.91
207.486	-318.55
207.866	-1062.16
208.246	-475.29
208.626	-485.9
209.006	-143.24
209.386	-166.06
209.766	-134.97
210.145	-89.05
210.525	-69.97
210.905	-46.14
211.285	-23.95
211.664	-24.9
212.044	-14.39
212.424	-17.53
212.803	-20.17
213.183	-18.35
213.562	-9.22
213.942	-12.77
214.321	-16.1
214.701	-12.35
215.08	-4.63
215.459	1.45
215.838	2.52
216.218	5.02
216.597	6.99
216.976	-5.55
217.355	-5.3
217.734	-11.58
218.113	-5.15
218.492	1.73
218.871	1.85
219.25	-29.29
219.629	-36.84
220.008	-53.15
220.387	-41.06
220.766	-28.67
221.144	-52.98
221.523	-48.75
221.902	-41.19
222.28	-57.53
222.659	-41.48
223.037	-24.77
223.416	-23.56
223.794	-23.97
224.173	-42.32
224.551	-35.05
224.929	-26.91
225.308	-15.61
225.686	-16.74
226.064	-19.37
226.442	-17.94
226.821	-16.14
227.199	-12.93
227.577	-8.58
227.955	-7.68
228.333	-5.69
228.711	-5.05
229.089	-1.24
229.467	-4.03
229.845	-5.34
230.222	-5.16
230.6	-6.37
230.978	-5.87
231.356	-1.91
231.733	0.48
232.111	4.22
232.488	5.29
232.866	5.62
233.243	4.48
233.621	4.76
233.998	6.13
234.376	4.95
234.753	3.83
235.13	4.64
235.508	4.48
235.885	5.97
236.262	5.45
236.639	5.4
237.016	5.79
237.393	7.43
237.77	8.13
238.147	10.01
238.524	8.28
238.901	7.25
239.278	6.07
239.655	5.47
240.032	5.28
240.409	4.6
240.785	4.51
241.162	4.33
241.539	4.82
241.915	4.67
242.292	4.74
242.668	5.12
243.045	5.08
243.421	4.85
243.798	4.72
244.174	4.49
244.551	4.31
244.927	4.07
245.303	4.02
245.679	3.58
246.056	3.33
246.432	3.68
246.808	3.77
247.184	3.52
247.56	3.41
247.936	3.43
248.312	3.39
248.688	3.41
249.064	3.55
249.44	3.51
249.815	3.54
250.191	3.51
250.567	3.51
250.943	3.45
251.318	3.58
251.694	3.6
252.069	3.63
252.445	4.06
252.82	4.2
253.196	3.94
253.571	4.42
253.947	4.5
254.322	4.61
254.697	4.46
255.073	4.63
255.448	4.59
255.823	4.38
256.198	4.38
256.573	4.44
256.948	4.25
257.323	4.56
257.698	4.65
258.073	4.73
258.448	4.66
258.823	4.6
259.198	4.42
259.573	4.43
259.948	4.33
260.322	4.15
260.697	4.12
261.072	4.17
261.446	4.15
261.821	3.99
262.195	3.98
262.57	3.97
262.944	4.03
263.319	3.95
263.693	3.96
264.067	3.96
264.442	4.02
264.816	4.03
265.19	3.64
265.564	3.58
265.938	3.42
266.313	3.27
266.687	3.23
267.061	3.23
267.435	3.21
267.809	3.36
268.183	3.27
268.556	3.17
268.93	3.23
269.304	3.17
269.678	3.28
270.051	3.22
270.425	3.25
270.799	3.28
271.172	3.27
271.546	3.37
271.919	3.32
272.293	3.32
272.666	3.4
273.04	3.51
273.413	3.43
273.787	3.66
274.16	3.78
274.533	3.92
274.906	4.18
275.279	4.19
275.653	4.15
276.026	4.25
276.399	4.16
276.772	4.12
277.145	3.99
277.518	4.02
277.891	4.17
278.263	4.02
278.636	3.91
279.009	4.13
279.382	4.09
279.755	4.17
280.127	4.16
280.5	4.33
280.872	4.49
281.245	4.42
281.617	4.28
281.99	4.28
282.362	4.24
282.735	3.96
283.107	3.67
283.479	3.69
283.852	3.58
284.224	3.78
284.596	3.81
284.968	3.96
285.34	4.03
285.713	3.9
286.085	4.07
286.457	4.11
286.829	4.05
287.201	3.95
287.572	3.99
287.944	3.92
288.316	3.78
288.688	3.67
289.06	3.83
289.431	3.91
289.803	3.82
290.175	3.76
290.546	3.94
290.918	4.13
291.289	4.18
291.661	4.34
292.032	4.34
292.403	4.41
292.775	4.52
293.146	4.32
293.517	4.34
293.889	4.38
294.26	4.29
294.631	4.38
295.002	4.49
295.373	4.48
295.744	4.65
296.115	4.73
296.486	4.6
296.857	4.51
297.228	4.42
297.599	4.58
297.97	4.58
298.34	4.56
298.711	4.67
299.082	4.67
299.452	4.81
299.823	4.86
300.194	4.82
300.564	4.77
300.935	4.88
301.305	5.02
301.676	5.12
302.046	5.42
302.416	5.53
302.787	5.62
303.157	5.72
303.527	5.59
303.897	5.64
304.267	5.92
304.637	6.19
305.008	6.4
305.378	6.55
305.748	6.64
306.117	6.63
306.487	6.7
306.857	6.81
307.227	6.75
307.597	6.76
307.967	6.83
308.336	6.71
308.706	6.76
309.076	6.86
309.445	6.8
309.815	6.67
310.184	6.64
310.554	6.65
310.923	6.73
311.293	6.85
311.662	6.87
312.031	6.94
312.401	6.84
312.77	6.97
313.139	7.01
313.508	7.14
313.877	7.22
314.246	7.3
314.616	7.29
314.985	7.24
315.353	7.38
315.722	7.57
316.091	7.73
316.46	7.92
316.829	8.01
317.198	8.24
317.567	8.35
317.935	8.57
318.304	8.72
318.672	8.71
319.041	8.78
319.41	8.66
319.778	8.61
320.147	8.77
320.515	8.77
320.883	8.65
321.252	8.63
321.62	8.62
321.988	8.59
322.357	8.76
322.725	8.92
323.093	8.98
323.461	8.95
323.829	9.19
324.197	9.31
324.565	9.28
324.933	9.21
325.301	9.36
325.669	9.23
326.037	9.27
326.405	9.3
326.772	9.32
327.14	9.7
327.508	9.73
327.875	9.77
328.243	9.84
328.61	9.97
328.978	10.05
329.346	10.26
329.713	10.37
330.08	10.45
330.448	10.46
330.815	10.46
331.182	10.54
331.55	10.54
331.917	10.49
332.284	10.64
332.651	10.76
333.018	10.86
333.385	10.9
333.752	11.09
334.119	11.22
334.486	11.19
334.853	11.18
335.22	11.25
335.587	11.3
335.954	11.43
336.32	11.4
336.687	11.54
337.054	11.42
337.42	11.52
337.787	11.41
338.153	11.55
338.52	11.68
338.886	11.62
339.253	11.56
339.619	11.65
339.986	11.64
340.352	11.73
340.718	11.71
341.084	11.77
341.451	11.65
341.817	11.71
342.183	11.87
342.549	11.81
342.915	11.92
343.281	11.92
343.647	11.91
344.013	11.95
344.379	11.91
344.745	12.03
345.11	12.01
345.476	12.22
345.842	12.12
346.208	12.04
346.573	12.11
346.939	12.28
347.304	12.2
347.67	12.18
348.035	12.14
348.401	12.13
348.766	12.04
349.132	12.09
349.497	12.14
349.862	12.12
350.228	12.22
350.593	12.15
350.958	12.16
351.323	12.1
351.688	12.05
352.053	12.05
352.418	12.05
352.783	12.06
353.148	11.91
353.513	11.88
353.878	11.91
354.243	11.96
354.608	11.8
354.972	11.77
355.337	11.81
355.702	11.87
356.066	11.9
356.431	12
356.795	12
357.16	11.94
357.524	11.91
357.889	11.84
358.253	11.9
358.618	11.94
358.982	11.91
359.346	11.86
359.71	11.84
360.075	11.83
360.439	11.84
360.803	11.85
361.167	11.86
361.531	11.84
361.895	11.78
362.259	11.81
362.623	11.88
362.987	11.8
363.351	11.75
363.714	11.8
364.078	11.71
364.442	11.66
364.806	11.63
365.169	11.59
365.533	11.53
365.896	11.48
366.26	11.39
366.623	11.36
366.987	11.39
367.35	11.41
367.714	11.32
368.077	11.21
368.44	11.2
368.803	11.1
369.167	11
369.53	10.91
369.893	10.89
370.256	10.79
370.619	10.76
370.982	10.66
371.345	10.46
371.708	10.47
372.071	10.38
372.434	10.27
372.797	10.17
373.159	10.15
373.522	10.03
373.885	10.02
374.247	9.92
374.61	9.9
374.973	9.74
375.335	9.73
375.698	9.68
376.06	9.6
376.423	9.66
376.785	9.65
377.147	9.62
377.51	9.56
377.872	9.52
378.234	9.48
378.596	9.4
378.958	9.36
379.321	9.25
379.683	9.24
380.045	9.2
380.407	9.13
380.769	9.09
381.13	9.11
381.492	8.96
381.854	8.97
382.216	8.86
382.578	8.82
382.939	8.72
383.301	8.65
383.663	8.52
384.024	8.42
384.386	8.37
384.747	8.35
385.109	8.28
385.47	8.24
385.832	8.16
386.193	8.15
386.554	8.12
386.916	8.11
387.277	8.05
387.638	8
387.999	7.97
388.36	7.86
388.721	7.77
389.082	7.74
389.443	7.62
389.804	7.56
390.165	7.51
390.526	7.49
390.887	7.43
391.248	7.4
391.609	7.38
391.969	7.29
392.33	7.24
392.691	7.19
393.051	7.09
393.412	7.05
393.772	6.97
394.133	6.91
394.493	6.81
394.854	6.76
395.214	6.67
395.574	6.63
395.935	6.65
396.295	6.62
396.655	6.58
397.015	6.56
397.376	6.54
397.736	6.5
398.096	6.45
398.456	6.39
398.816	6.35
399.176	6.21
399.535	6.17
399.895	6.13
400.255	6.07
400.615	6.07
400.975	6.02
401.334	5.98
401.694	5.97
402.054	5.92
402.413	5.87
402.773	5.84
403.132	5.79
403.492	5.68
403.851	5.6
404.211	5.57
404.57	5.54
404.929	5.46
405.288	5.41
405.648	5.37
406.007	5.32
406.366	5.33
406.725	5.36
407.084	5.36
407.443	5.31
407.802	5.29
408.161	5.28
408.52	5.25
408.879	5.22
409.238	5.19
409.596	5.19
409.955	5.17
410.314	5.19
410.673	5.2
411.031	5.19
411.39	5.22
411.748	5.19
412.107	5.18
412.465	5.15
412.824	5.12
413.182	5.1
413.54	5.08
413.899	5.02
414.257	4.98
414.615	4.94
414.974	4.93
415.332	4.9
415.69	4.84
416.048	4.81
416.406	4.79
416.764	4.76
417.122	4.73
417.48	4.71
417.838	4.69
418.195	4.64
418.553	4.62
418.911	4.58
419.269	4.57
419.626	4.54
419.984	4.53
420.342	4.51
420.699	4.48
421.057	4.47
421.414	4.46
421.772	4.44
422.129	4.41
422.486	4.41
422.844	4.41
423.201	4.4
423.558	4.38
423.915	4.36
424.273	4.34
424.63	4.32
424.987	4.29
425.344	4.27
425.701	4.25
426.058	4.24
426.415	4.22
426.772	4.19
427.128	4.18
427.485	4.16
427.842	4.14
428.199	4.16
428.555	4.14
428.912	4.12
429.269	4.11
429.625	4.12
429.982	4.07
430.338	4.03
430.695	4.03
431.051	4.03
431.407	4.05
431.764	4.05
432.12	4.05
432.476	4.06
432.832	4.04
433.189	4.04
433.545	4.04
433.901	4.04
434.257	4.06
434.613	4.04
434.969	4.05
435.325	4.06
435.681	4.05
436.036	4.07
436.392	4.08
436.748	4.08
437.104	4.06
437.459	4.06
437.815	4.07
438.171	4.07
438.526	4.07
438.882	4.06
439.237	4.04
439.593	4.04
439.948	4.02
440.304	4.02
440.659	4.02
441.014	4.01
441.369	3.98
441.725	3.96
442.08	3.96
442.435	3.96
442.79	3.96
443.145	3.95
443.5	3.91
443.855	3.89
444.21	3.88
444.565	3.88
444.92	3.88
445.275	3.86
445.629	3.84
445.984	3.81
446.339	3.78
446.693	3.77
447.048	3.74
447.403	3.74
447.757	3.75
448.112	3.74
448.466	3.72
448.82	3.72
449.175	3.73
449.529	3.71
449.883	3.68
450.238	3.66
450.592	3.65
450.946	3.65
451.3	3.65
451.654	3.64
452.008	3.63
452.362	3.61
452.716	3.61
453.07	3.6
453.424	3.62
453.778	3.62
454.132	3.61
454.486	3.61
454.839	3.6
455.193	3.57
455.547	3.56
455.9	3.57
456.254	3.59
456.607	3.58
456.961	3.61
457.314	3.61
457.668	3.61
458.021	3.6
458.375	3.61
458.728	3.6
459.081	3.61
459.434	3.61
459.787	3.62
460.141	3.62
460.494	3.63
460.847	3.64
461.2	3.65
461.553	3.66
461.906	3.69
462.259	3.7
462.611	3.73
462.964	3.75
463.317	3.75
463.67	3.75
464.022	3.77
464.375	3.77
464.728	3.79
465.08	3.82
465.433	3.85
465.785	3.86
466.138	3.88
466.49	3.9
466.843	3.91
467.195	3.92
467.547	3.95
467.899	3.98
468.252	3.99
468.604	4.01
468.956	4.02
469.308	4.01
469.66	4.03
470.012	4.06
470.364	4.06
470.716	4.08
471.068	4.1
471.42	4.1
471.772	4.12
472.123	4.14
472.475	4.14
472.827	4.15
473.178	4.15
473.53	4.16
473.882	4.16
474.233	4.16
474.585	4.14
474.936	4.15
475.288	4.12
475.639	4.13
475.99	4.13
476.342	4.15
476.693	4.17
477.044	4.18
477.395	4.16
477.746	4.13
478.097	4.13
478.448	4.13
478.8	4.12
479.15	4.09
479.501	4.09
479.852	4.08
480.203	4.07
480.554	4.06
480.905	4.06
481.255	4.05
481.606	4.04
481.957	4.06
482.307	4.07
482.658	4.06
483.009	4.05
483.359	4.04
483.709	4.05
484.06	4.04
484.41	4.04
484.761	4.03
485.111	4.04
485.461	4.03
485.811	4.02
486.162	4.03
486.512	4.04
486.862	4.04
487.212	4.04
487.562	4.04
487.912	4.04
488.262	4.04
488.612	4.05
488.961	4.06
489.311	4.05
489.661	4.05
490.011	4.06
490.36	4.06
490.71	4.08
491.06	4.07
491.409	4.07
491.759	4.07
492.108	4.09
492.458	4.1
492.807	4.11
493.157	4.14
493.506	4.15
493.855	4.16
494.204	4.17
494.554	4.2
494.903	4.22
495.252	4.25
495.601	4.29
495.95	4.33
496.299	4.36
496.648	4.41
496.997	4.44
497.346	4.53
497.695	4.58
498.043	4.61
498.392	4.66
498.741	4.71
499.09	4.77
499.438	4.82
499.787	4.88
500.135	4.97
500.484	5.02
500.832	5.09
501.181	5.16
501.529	5.25
501.878	5.34
502.226	5.42
502.574	5.52
502.923	5.6
503.271	5.68
503.619	5.77
503.967	5.87
504.315	5.96
504.663	6.02
505.011	6.11
505.359	6.22
505.707	6.35
506.055	6.48
506.403	6.6
506.751	6.72
507.098	6.84
507.446	6.95
507.794	7.05
508.141	7.17
508.489	7.29
508.837	7.41
509.184	7.52
509.531	7.64
509.879	7.77
510.226	7.89
510.574	7.98
510.921	8.12
511.268	8.21
511.616	8.34
511.963	8.47
512.31	8.6
512.657	8.73
513.004	8.85
513.351	9
513.698	9.15
514.045	9.29
514.392	9.45
514.739	9.61
515.086	9.78
515.432	9.94
515.779	10.09
516.126	10.24
516.473	10.41
516.819	10.55
517.166	10.68
517.512	10.8
517.859	10.97
518.205	11.08
518.552	11.21
518.898	11.34
519.245	11.47
519.591	11.62
519.937	11.76
520.283	11.91
520.629	12.04
520.976	12.2
521.322	12.39
521.668	12.57
522.014	12.74
522.36	12.96
522.706	13.17
523.052	13.4
523.398	13.65
523.743	13.87
524.089	14.1
524.435	14.33
524.781	14.61
525.126	14.82
525.472	15.03
525.817	15.23
526.163	15.41
526.509	15.6
526.854	15.75
527.199	15.9
527.545	16.06
527.89	16.22
528.235	16.39
528.581	16.55
528.926	16.71
529.271	16.89
529.616	17.03
529.961	17.2
530.306	17.38
530.651	17.56
530.996	17.78
531.341	17.99
531.686	18.22
532.031	18.41
532.376	18.65
532.721	18.88
533.065	19.12
533.41	19.37
533.755	19.61
534.099	19.9
534.444	20.17
534.788	20.42
535.133	20.68
535.477	20.94
535.822	21.23
536.166	21.53
536.51	21.85
536.855	22.2
537.199	22.54
537.543	22.88
537.887	23.25
538.231	23.6
538.576	23.95
538.92	24.3
539.264	24.64
539.608	24.95
539.951	25.29
540.295	25.58
540.639	25.86
540.983	26.14
541.327	26.4
541.671	26.66
542.014	26.93
542.358	27.19
542.701	27.44
543.045	27.68
543.389	27.94
543.732	28.22
544.075	28.48
544.419	28.74
544.762	29.02
545.105	29.27
545.449	29.57
545.792	29.88
546.135	30.19
546.478	30.55
546.821	30.93
547.165	31.24
547.508	31.6
547.851	31.97
548.194	32.33
548.536	32.67
548.879	33.04
549.222	33.39
549.565	33.73
549.908	34.09
550.25	34.47
550.593	34.85
550.936	35.18
551.278	35.5
551.621	35.9
551.963	36.21
552.306	36.53
552.648	36.84
552.991	37.12
553.333	37.38
553.675	37.65
554.017	37.88
554.36	38.17
554.702	38.42
555.044	38.68
555.386	38.93
555.728	39.25
556.07	39.51
556.412	39.75
556.754	40.08
557.096	40.36
557.438	40.64
557.78	40.91
558.121	41.22
558.463	41.49
558.805	41.74
559.147	42
559.488	42.3
559.83	42.56
560.171	42.81
560.513	43.1
560.854	43.34
561.196	43.57
561.537	43.8
561.878	44.04
562.22	44.3
562.561	44.5
562.902	44.7
563.243	44.93
563.584	45.14
563.925	45.28
564.266	45.41
564.607	45.59
564.948	45.72
565.289	45.88
565.63	46.06
565.971	46.2
566.312	46.46
566.653	46.61
566.993	46.78
567.334	46.92
567.675	47.12
568.015	47.32
568.356	47.46
568.696	47.54
569.037	47.65
569.377	47.76
569.718	47.89
570.058	47.95
570.398	48.05
570.739	48.21
571.079	48.34
571.419	48.55
571.759	48.69
572.099	48.86
572.439	48.99
572.779	49.15
573.119	49.29
573.459	49.36
573.799	49.49
574.139	49.54
574.479	49.64
574.819	49.73
575.158	49.74
575.498	49.82
575.838	50.01
576.177	50.15
576.517	50.26
576.856	50.41
577.196	50.64
577.535	50.79
577.875	50.93
578.214	51.06
578.553	51.13
578.893	51.19
579.232	51.32
579.571	51.49
579.91	51.54
580.25	51.67
580.589	51.71
580.928	51.79
581.267	51.95
581.606	52.12
581.945	52.27
582.283	52.41
582.622	52.61
582.961	52.65
583.3	52.75
583.639	52.91
583.977	52.95
584.316	53.01
584.654	53.1
584.993	53.13
585.332	53.2
585.67	53.28
586.008	53.35
586.347	53.35
586.685	53.31
587.024	53.47
587.362	53.49
587.7	53.57
588.038	53.66
588.376	53.69
588.715	53.76
589.053	53.8
589.391	53.84
589.729	53.94
590.067	54.02
590.404	54.13
590.742	54.17
591.08	54.24
591.418	54.3
591.756	54.37
592.093	54.39
592.431	54.47
592.769	54.6
593.106	54.68
593.444	54.76
593.781	54.85
594.119	54.86
594.456	54.91
594.793	55
595.131	55.05
595.468	55.13
595.805	55.17
596.143	55.12
596.48	55.22
596.817	55.26
597.154	55.3
597.491	55.27
597.828	55.29
598.165	55.37
598.502	55.43
598.839	55.53
599.176	55.67
599.512	55.65
599.849	55.7
600.186	55.68
600.523	55.7
600.859	55.7
601.196	55.76
601.532	55.8
601.869	55.83
602.205	55.83
602.542	55.84
602.878	55.85
603.215	55.94
603.551	55.99
603.887	55.95
604.223	56
604.56	56.05
604.896	56.12
605.232	56.14
605.568	56.15
605.904	56.09
606.24	56.1
606.576	56.17
606.912	56.06
607.248	56.18
607.583	56.17
607.919	56.29
608.255	56.26
608.591	56.36
608.926	56.42
609.262	56.52
609.597	56.57
609.933	56.59
610.268	56.65
610.604	56.65
610.939	56.72
611.275	56.81
611.61	56.9
611.945	56.91
612.281	56.99
612.616	57.04
612.951	57.19
613.286	57.29
613.621	57.36
613.956	57.5
614.291	57.48
614.626	57.68
614.961	57.64
615.296	57.75
615.631	57.79
615.966	57.77
616.3	57.79
616.635	57.86
616.97	57.95
617.304	57.88
617.639	57.94
617.973	57.93
618.308	57.88
618.642	57.84
618.977	57.85
619.311	57.92
619.646	57.93
619.98	57.94
620.314	57.95
620.648	57.97
620.983	58.11
621.317	58.18
621.651	58.14
621.985	58.23
622.319	58.29
622.653	58.34
622.987	58.34
623.321	58.28
623.655	58.22
623.988	58.25
624.322	58.31
624.656	58.33
624.99	58.22
625.323	58.17
625.657	58.25
625.99	58.33
626.324	58.31
626.657	58.32
626.991	58.23
627.324	58.27
627.658	58.28
627.991	58.25
628.324	58.28
628.657	58.25
628.991	58.15
629.324	58.11
629.657	58
629.99	58.02
630.323	58.03
630.656	58.09
630.989	58.17
631.322	58.13
631.655	58.1
631.987	58.24
632.32	58.34
632.653	58.29
632.986	58.13
633.318	58.12
633.651	58.08
633.984	58.15
634.316	58.08
634.649	58.07
634.981	58.02
635.313	57.92
635.646	57.98
635.978	58.02
636.31	58.03
636.643	58.12
636.975	58.12
637.307	58.14
637.639	58.17
637.971	58.12
638.303	58.18
638.635	58.17
638.967	58.22
639.299	58.24
639.631	58.19
639.963	58.25
640.295	58.3
640.626	58.43
640.958	58.41
641.29	58.53
641.621	58.47
641.953	58.5
642.285	58.56
642.616	58.52
642.948	58.63
643.279	58.62
643.61	58.67
643.942	58.77
644.273	58.83
644.604	58.79
644.936	58.79
645.267	58.85
645.598	58.86
645.929	58.78
646.26	58.75
646.591	58.86
646.922	59.02
647.253	58.94
647.584	58.84
647.915	58.87
648.245	58.77
648.576	58.9
648.907	58.89
649.238	58.99
649.568	58.96
649.899	59.02
650.229	59.01
650.56	59.02
650.89	59.07
651.221	59.14
651.551	59.1
651.882	59.12
652.212	59.13
652.542	59.2
652.872	59.33
653.203	59.3
653.533	59.27
653.863	59.25
654.193	59.28
654.523	59.36
654.853	59.43
655.183	59.44
655.513	59.45
655.843	59.49
656.172	59.56
656.502	59.63
656.832	59.65
657.162	59.74
657.491	59.75
657.821	59.69
658.15	59.61
658.48	59.7
658.809	59.7
659.139	59.74
659.468	59.65
659.798	59.53
660.127	59.66
660.456	59.68
660.785	59.7
661.115	59.69
661.444	59.66
661.773	59.63
662.102	59.62
662.431	59.56
662.76	59.55
663.089	59.62
663.418	59.67
663.747	59.53
664.076	59.48
