Data from BA28420_Reflection_00015.txt Node
Date: Mon Nov 18 16:08:45 EST 2019
User: vgr7
Spectrometer: USB2G7710
Scans to average: 3
Trigger mode: 4
Integration Time (sec): 2.000000E-2
Electric dark correction enabled: true
Boxcar width: 10
XAxis mode: Wavelengths
Number of Pixels in Spectrum: 2048
>>>>>Begin Spectral Data<<<<<
177.721	-11.99
178.105	417.46
178.488	-976.02
178.871	-59.13
179.254	-108.07
179.636	-3.17
180.019	92.53
180.402	-16.67
180.785	-229.97
181.168	-280.34
181.55	-474.71
181.933	131.15
182.316	135.94
182.698	192.15
183.081	233.33
183.463	166.51
183.846	112.37
184.228	88.41
184.611	135.09
184.993	107.35
185.376	133.21
185.758	-16788.89
186.14	553.07
186.522	796.52
186.904	-610.62
187.287	1244.65
187.669	-1314.14
188.051	239.62
188.433	293.67
188.815	115.93
189.197	108.31
189.579	195.73
189.961	102.74
190.342	134.14
190.724	102.5
191.106	119.78
191.488	252.14
191.869	345.86
192.251	682.38
192.633	328.16
193.014	155.44
193.396	121.22
193.777	80.16
194.159	96.23
194.54	82.48
194.922	63.94
195.303	47.67
195.684	66.86
196.065	52.97
196.447	26.48
196.828	121.51
197.209	118.37
197.59	127.14
197.971	203.95
198.352	-250.09
198.733	-320.22
199.114	-336.78
199.495	-148.64
199.876	-118.2
200.257	-78.31
200.638	-59.28
201.018	-56.77
201.399	-42.18
201.78	-35.84
202.16	-34.19
202.541	-67.19
202.922	-101.05
203.302	-112.5
203.683	-87.86
204.063	-110.45
204.444	-95.49
204.824	-55.87
205.204	-70.08
205.585	-83.21
205.965	-85.62
206.345	-112.58
206.725	-135.9
207.106	-147.78
207.486	-379.82
207.866	-256.42
208.246	-368.18
208.626	-447.34
209.006	-286.83
209.386	-445.27
209.766	-472.62
210.145	-923.35
210.525	-356.4
210.905	-224.44
211.285	-243.86
211.664	-346.65
212.044	-505.65
212.424	-424.52
212.803	-799.82
213.183	-400.51
213.562	-259.79
213.942	-184.81
214.321	-163.47
214.701	-188.32
215.08	-166.67
215.459	-123.61
215.838	-154.06
216.218	-137.77
216.597	-100.95
216.976	-103.09
217.355	-59.49
217.734	-52
218.113	-22.55
218.492	-27.68
218.871	-37.55
219.25	-8.26
219.629	-1.86
220.008	-9.75
220.387	-13.81
220.766	-4.77
221.144	-21.51
221.523	-29.82
221.902	-48.7
222.28	-32.86
222.659	-10.71
223.037	-15.11
223.416	-20.62
223.794	-14.69
224.173	-9.88
224.551	-7.8
224.929	-6.85
225.308	-9.53
225.686	-7.19
226.064	-15.98
226.442	-7.55
226.821	-3.68
227.199	-6.38
227.577	-10
227.955	-8.8
228.333	-8.92
228.711	-7.04
229.089	-1.87
229.467	-2.06
229.845	-0.83
230.222	-0.39
230.6	-3.4
230.978	0.42
231.356	0.14
231.733	2.79
232.111	0.87
232.488	2.11
232.866	3.95
233.243	4.57
233.621	2.83
233.998	5.48
234.376	4.1
234.753	3.41
235.13	4.48
235.508	5.87
235.885	4.75
236.262	4.12
236.639	2.96
237.016	3.49
237.393	4.7
237.77	4.57
238.147	4.37
238.524	5.04
238.901	4.52
239.278	5.59
239.655	4.92
240.032	5.34
240.409	4.62
240.785	4.93
241.162	5.15
241.539	5.35
241.915	4.86
242.292	5.24
242.668	5.82
243.045	6.01
243.421	6.17
243.798	6.42
244.174	6.63
244.551	6.75
244.927	6.74
245.303	6.83
245.679	6.84
246.056	6.81
246.432	6.7
246.808	6.68
247.184	6.49
247.56	6.49
247.936	6.44
248.312	6.65
248.688	6.65
249.064	6.58
249.44	6.59
249.815	6.61
250.191	6.4
250.567	6.32
250.943	6.02
251.318	5.93
251.694	5.9
252.069	5.91
252.445	5.78
252.82	5.67
253.196	5.37
253.571	5.33
253.947	5.64
254.322	5.56
254.697	5.53
255.073	5.31
255.448	4.99
255.823	4.9
256.198	4.95
256.573	4.74
256.948	4.83
257.323	4.99
257.698	4.99
258.073	5.02
258.448	4.86
258.823	5.09
259.198	5.01
259.573	5.01
259.948	4.78
260.322	4.77
260.697	4.76
261.072	4.82
261.446	4.71
261.821	4.47
262.195	4.62
262.57	4.68
262.944	4.82
263.319	4.85
263.693	4.9
264.067	4.94
264.442	5.14
264.816	5.05
265.19	4.89
265.564	5.06
265.938	4.84
266.313	4.77
266.687	4.8
267.061	4.78
267.435	4.75
267.809	4.91
268.183	4.97
268.556	4.92
268.93	5
269.304	5.11
269.678	5.2
270.051	5.12
270.425	5.16
270.799	5.11
271.172	5.2
271.546	5.22
271.919	5.03
272.293	4.98
272.666	4.99
273.04	5.18
273.413	5.05
273.787	5.15
274.16	5.09
274.533	4.94
274.906	4.91
275.279	4.89
275.653	4.9
276.026	4.73
276.399	4.75
276.772	4.62
277.145	4.53
277.518	4.42
277.891	4.46
278.263	4.44
278.636	4.39
279.009	4.34
279.382	4.44
279.755	4.38
280.127	4.36
280.5	4.34
280.872	4.38
281.245	4.4
281.617	4.55
281.99	4.8
282.362	4.87
282.735	4.75
283.107	4.66
283.479	4.78
283.852	4.81
284.224	4.85
284.596	4.95
284.968	5.13
285.34	5.28
285.713	5.33
286.085	5.36
286.457	5.45
286.829	5.57
287.201	5.54
287.572	5.6
287.944	5.52
288.316	5.59
288.688	5.44
289.06	5.4
289.431	5.44
289.803	5.45
290.175	5.46
290.546	5.74
290.918	5.77
291.289	5.73
291.661	5.85
292.032	5.9
292.403	5.77
292.775	5.83
293.146	5.7
293.517	5.72
293.889	5.78
294.26	5.76
294.631	5.78
295.002	5.78
295.373	5.84
295.744	5.98
296.115	5.93
296.486	5.92
296.857	5.97
297.228	5.95
297.599	5.95
297.97	5.96
298.34	5.91
298.711	6.04
299.082	6.03
299.452	6.16
299.823	6.23
300.194	6.44
300.564	6.29
300.935	6.32
301.305	6.17
301.676	6.19
302.046	6.19
302.416	6.17
302.787	6.27
303.157	6.28
303.527	6.22
303.897	6.18
304.267	6.29
304.637	6.44
305.008	6.59
305.378	6.66
305.748	6.78
306.117	6.83
306.487	6.8
306.857	6.9
307.227	6.83
307.597	6.86
307.967	6.94
308.336	6.99
308.706	7.13
309.076	7.34
309.445	7.4
309.815	7.5
310.184	7.62
310.554	7.61
310.923	7.69
311.293	7.87
311.662	8.11
312.031	8.25
312.401	8.15
312.77	8.23
313.139	8.33
313.508	8.38
313.877	8.43
314.246	8.54
314.616	8.55
314.985	8.66
315.353	8.67
315.722	8.64
316.091	8.8
316.46	8.91
316.829	8.97
317.198	9.06
317.567	9.17
317.935	9.22
318.304	9.39
318.672	9.41
319.041	9.44
319.41	9.38
319.778	9.42
320.147	9.62
320.515	9.48
320.883	9.54
321.252	9.48
321.62	9.53
321.988	9.6
322.357	9.77
322.725	9.71
323.093	9.74
323.461	9.9
323.829	9.94
324.197	9.88
324.565	9.89
324.933	9.83
325.301	9.64
325.669	9.68
326.037	9.61
326.405	9.72
326.772	9.7
327.14	9.83
327.508	9.7
327.875	9.74
328.243	9.86
328.61	9.81
328.978	9.89
329.346	9.96
329.713	9.92
330.08	9.94
330.448	10
330.815	10.04
331.182	10.08
331.55	10.24
331.917	10.27
332.284	10.39
332.651	10.5
333.018	10.65
333.385	10.57
333.752	10.66
334.119	10.68
334.486	10.75
334.853	10.67
335.22	10.81
335.587	10.81
335.954	10.8
336.32	10.83
336.687	10.89
337.054	10.91
337.42	11.04
337.787	11.07
338.153	11.22
338.52	11.37
338.886	11.37
339.253	11.29
339.619	11.4
339.986	11.34
340.352	11.36
340.718	11.4
341.084	11.49
341.451	11.6
341.817	11.62
342.183	11.56
342.549	11.69
342.915	11.77
343.281	11.75
343.647	11.88
344.013	11.99
344.379	12.05
344.745	12.06
345.11	12.05
345.476	12.11
345.842	12.1
346.208	12.03
346.573	12.02
346.939	12.1
347.304	12.14
347.67	12.16
348.035	12.18
348.401	12.22
348.766	12.28
349.132	12.21
349.497	12.18
349.862	12.28
350.228	12.26
350.593	12.14
350.958	12.18
351.323	12.16
351.688	12.08
352.053	12.01
352.418	12.1
352.783	12.13
353.148	12.03
353.513	12.12
353.878	12.13
354.243	12.2
354.608	12.29
354.972	12.25
355.337	12.31
355.702	12.37
356.066	12.48
356.431	12.43
356.795	12.52
357.16	12.64
357.524	12.55
357.889	12.5
358.253	12.57
358.618	12.66
358.982	12.6
359.346	12.64
359.71	12.65
360.075	12.67
360.439	12.66
360.803	12.72
361.167	12.66
361.531	12.63
361.895	12.51
362.259	12.35
362.623	12.4
362.987	12.34
363.351	12.26
363.714	12.17
364.078	12.19
364.442	12.12
364.806	12.03
365.169	12.07
365.533	12.06
365.896	12.07
366.26	11.98
366.623	12.01
366.987	11.95
367.35	11.94
367.714	11.81
368.077	11.8
368.44	11.73
368.803	11.73
369.167	11.76
369.53	11.76
369.893	11.78
370.256	11.74
370.619	11.73
370.982	11.74
371.345	11.69
371.708	11.64
372.071	11.65
372.434	11.66
372.797	11.6
373.159	11.59
373.522	11.54
373.885	11.55
374.247	11.57
374.61	11.54
374.973	11.51
375.335	11.56
375.698	11.46
376.06	11.43
376.423	11.39
376.785	11.34
377.147	11.4
377.51	11.4
377.872	11.36
378.234	11.36
378.596	11.32
378.958	11.28
379.321	11.23
379.683	11.14
380.045	11.16
380.407	11.14
380.769	11.15
381.13	11.11
381.492	11.01
381.854	10.9
382.216	10.91
382.578	10.91
382.939	10.84
383.301	10.83
383.663	10.76
384.024	10.71
384.386	10.69
384.747	10.63
385.109	10.58
385.47	10.53
385.832	10.55
386.193	10.53
386.554	10.53
386.916	10.49
387.277	10.49
387.638	10.43
387.999	10.41
388.36	10.35
388.721	10.32
389.082	10.3
389.443	10.28
389.804	10.22
390.165	10.11
390.526	10.09
390.887	10.07
391.248	10.08
391.609	10.06
391.969	10.04
392.33	9.99
392.691	9.97
393.051	9.91
393.412	9.82
393.772	9.75
394.133	9.72
394.493	9.72
394.854	9.65
395.214	9.62
395.574	9.56
395.935	9.51
396.295	9.51
396.655	9.48
397.015	9.43
397.376	9.39
397.736	9.37
398.096	9.31
398.456	9.27
398.816	9.21
399.176	9.13
399.535	9.1
399.895	9.04
400.255	9.01
400.615	8.94
400.975	8.92
401.334	8.89
401.694	8.85
402.054	8.82
402.413	8.79
402.773	8.71
403.132	8.72
403.492	8.71
403.851	8.63
404.211	8.59
404.57	8.56
404.929	8.57
405.288	8.51
405.648	8.46
406.007	8.46
406.366	8.42
406.725	8.44
407.084	8.41
407.443	8.41
407.802	8.39
408.161	8.42
408.52	8.38
408.879	8.36
409.238	8.37
409.596	8.34
409.955	8.3
410.314	8.31
410.673	8.25
411.031	8.23
411.39	8.24
411.748	8.22
412.107	8.2
412.465	8.16
412.824	8.21
413.182	8.18
413.54	8.15
413.899	8.14
414.257	8.09
414.615	8.05
414.974	8.01
415.332	7.96
415.69	7.92
416.048	7.9
416.406	7.88
416.764	7.81
417.122	7.8
417.48	7.78
417.838	7.73
418.195	7.71
418.553	7.68
418.911	7.65
419.269	7.62
419.626	7.61
419.984	7.58
420.342	7.54
420.699	7.53
421.057	7.5
421.414	7.48
421.772	7.45
422.129	7.42
422.486	7.39
422.844	7.37
423.201	7.34
423.558	7.31
423.915	7.29
424.273	7.28
424.63	7.24
424.987	7.23
425.344	7.22
425.701	7.2
426.058	7.18
426.415	7.17
426.772	7.15
427.128	7.14
427.485	7.1
427.842	7.08
428.199	7.07
428.555	7.07
428.912	7.07
429.269	7.06
429.625	7.06
429.982	7.05
430.338	7.05
430.695	7.05
431.051	7.04
431.407	7.01
431.764	7
432.12	7
432.476	6.99
432.832	6.99
433.189	7
433.545	6.98
433.901	6.98
434.257	6.97
434.613	6.96
434.969	7.01
435.325	7.01
435.681	6.99
436.036	6.98
436.392	6.97
436.748	6.97
437.104	6.97
437.459	6.98
437.815	6.96
438.171	6.95
438.526	6.96
438.882	6.99
439.237	6.98
439.593	6.99
439.948	6.98
440.304	6.97
440.659	6.95
441.014	6.96
441.369	6.93
441.725	6.91
442.08	6.91
442.435	6.87
442.79	6.85
443.145	6.84
443.5	6.84
443.855	6.81
444.21	6.79
444.565	6.78
444.92	6.77
445.275	6.76
445.629	6.76
445.984	6.73
446.339	6.7
446.693	6.68
447.048	6.65
447.403	6.63
447.757	6.6
448.112	6.58
448.466	6.55
448.82	6.54
449.175	6.53
449.529	6.52
449.883	6.5
450.238	6.5
450.592	6.49
450.946	6.44
451.3	6.43
451.654	6.42
452.008	6.39
452.362	6.38
452.716	6.36
453.07	6.36
453.424	6.34
453.778	6.34
454.132	6.33
454.486	6.31
454.839	6.29
455.193	6.31
455.547	6.32
455.9	6.33
456.254	6.35
456.607	6.36
456.961	6.36
457.314	6.37
457.668	6.37
458.021	6.37
458.375	6.41
458.728	6.43
459.081	6.43
459.434	6.46
459.787	6.47
460.141	6.5
460.494	6.5
460.847	6.54
461.2	6.55
461.553	6.56
461.906	6.6
462.259	6.63
462.611	6.67
462.964	6.7
463.317	6.73
463.67	6.76
464.022	6.78
464.375	6.78
464.728	6.83
465.08	6.84
465.433	6.86
465.785	6.88
466.138	6.88
466.49	6.91
466.843	6.89
467.195	6.92
467.547	6.95
467.899	6.97
468.252	6.96
468.604	6.99
468.956	7.01
469.308	7.03
469.66	7.03
470.012	7.03
470.364	7.05
470.716	7.05
471.068	7.05
471.42	7.05
471.772	7.1
472.123	7.11
472.475	7.13
472.827	7.14
473.178	7.11
473.53	7.13
473.882	7.14
474.233	7.18
474.585	7.18
474.936	7.15
475.288	7.13
475.639	7.14
475.99	7.11
476.342	7.09
476.693	7.09
477.044	7.09
477.395	7.09
477.746	7.08
478.097	7.04
478.448	7.03
478.8	7.01
479.15	6.98
479.501	6.98
479.852	6.98
480.203	6.97
480.554	6.99
480.905	6.98
481.255	6.98
481.606	6.97
481.957	6.97
482.307	6.97
482.658	6.99
483.009	6.99
483.359	6.99
483.709	7.01
484.06	7.01
484.41	7.02
484.761	7.02
485.111	7.02
485.461	7.04
485.811	7.04
486.162	7.06
486.512	7.07
486.862	7.07
487.212	7.08
487.562	7.09
487.912	7.1
488.262	7.12
488.612	7.14
488.961	7.16
489.311	7.17
489.661	7.2
490.011	7.21
490.36	7.22
490.71	7.25
491.06	7.25
491.409	7.27
491.759	7.31
492.108	7.35
492.458	7.37
492.807	7.4
493.157	7.44
493.506	7.49
493.855	7.53
494.204	7.56
494.554	7.62
494.903	7.65
495.252	7.7
495.601	7.76
495.95	7.82
496.299	7.85
496.648	7.9
496.997	7.97
497.346	8.06
497.695	8.14
498.043	8.19
498.392	8.27
498.741	8.36
499.09	8.4
499.438	8.46
499.787	8.53
500.135	8.6
500.484	8.67
500.832	8.75
501.181	8.83
501.529	8.94
501.878	9.04
502.226	9.16
502.574	9.24
502.923	9.34
503.271	9.41
503.619	9.53
503.967	9.63
504.315	9.71
504.663	9.8
505.011	9.9
505.359	10.02
505.707	10.12
506.055	10.2
506.403	10.33
506.751	10.45
507.098	10.57
507.446	10.69
507.794	10.8
508.141	10.91
508.489	11.01
508.837	11.12
509.184	11.22
509.531	11.32
509.879	11.44
510.226	11.56
510.574	11.71
510.921	11.8
511.268	11.93
511.616	12.06
511.963	12.16
512.31	12.32
512.657	12.44
513.004	12.6
513.351	12.78
513.698	12.91
514.045	13.06
514.392	13.23
514.739	13.37
515.086	13.55
515.432	13.68
515.779	13.84
516.126	14.03
516.473	14.19
516.819	14.34
517.166	14.45
517.512	14.57
517.859	14.71
518.205	14.87
518.552	15.03
518.898	15.18
519.245	15.33
519.591	15.45
519.937	15.59
520.283	15.74
520.629	15.91
520.976	16.09
521.322	16.29
521.668	16.45
522.014	16.68
522.36	16.85
522.706	17.1
523.052	17.35
523.398	17.59
523.743	17.86
524.089	18.13
524.435	18.4
524.781	18.66
525.126	18.9
525.472	19.09
525.817	19.31
526.163	19.52
526.509	19.7
526.854	19.87
527.199	20.05
527.545	20.2
527.89	20.36
528.235	20.53
528.581	20.71
528.926	20.88
529.271	21.05
529.616	21.23
529.961	21.39
530.306	21.57
530.651	21.76
530.996	21.95
531.341	22.17
531.686	22.4
532.031	22.63
532.376	22.86
532.721	23.1
533.065	23.33
533.41	23.55
533.755	23.82
534.099	24.1
534.444	24.38
534.788	24.65
535.133	24.9
535.477	25.16
535.822	25.42
536.166	25.75
536.51	26.11
536.855	26.48
537.199	26.88
537.543	27.27
537.887	27.67
538.231	28.03
538.576	28.41
538.92	28.8
539.264	29.13
539.608	29.48
539.951	29.81
540.295	30.11
540.639	30.43
540.983	30.72
541.327	30.99
541.671	31.27
542.014	31.56
542.358	31.85
542.701	32.16
543.045	32.47
543.389	32.72
543.732	32.95
544.075	33.23
544.419	33.5
544.762	33.78
545.105	34.07
545.449	34.38
545.792	34.69
546.135	34.99
546.478	35.34
546.821	35.68
547.165	36.08
547.508	36.5
547.851	36.9
548.194	37.28
548.536	37.68
548.879	38.12
549.222	38.51
549.565	38.86
549.908	39.2
550.25	39.54
550.593	39.95
550.936	40.33
551.278	40.68
551.621	41.12
551.963	41.52
552.306	41.86
552.648	42.23
552.991	42.61
553.333	42.9
553.675	43.26
554.017	43.57
554.36	43.88
554.702	44.18
555.044	44.42
555.386	44.75
555.728	45.06
556.07	45.31
556.412	45.66
556.754	45.99
557.096	46.3
557.438	46.64
557.78	47.01
558.121	47.45
558.463	47.74
558.805	47.96
559.147	48.21
559.488	48.5
559.83	48.82
560.171	49.11
560.513	49.49
560.854	49.85
561.196	50.16
561.537	50.42
561.878	50.64
562.22	50.89
562.561	51.09
562.902	51.36
563.243	51.65
563.584	51.82
563.925	52.12
564.266	52.39
564.607	52.59
564.948	52.79
565.289	52.94
565.63	53.17
565.971	53.36
566.312	53.61
566.653	53.85
566.993	54.01
567.334	54.18
567.675	54.33
568.015	54.41
568.356	54.55
568.696	54.74
569.037	54.96
569.377	55.16
569.718	55.4
570.058	55.55
570.398	55.67
570.739	55.85
571.079	55.97
571.419	56.08
571.759	56.24
572.099	56.39
572.439	56.53
572.779	56.68
573.119	56.9
573.459	57.05
573.799	57.17
574.139	57.31
574.479	57.43
574.819	57.59
575.158	57.74
575.498	57.96
575.838	58.07
576.177	58.18
576.517	58.32
576.856	58.43
577.196	58.59
577.535	58.7
577.875	58.86
578.214	58.96
578.553	59.14
578.893	59.3
579.232	59.4
579.571	59.51
579.91	59.66
580.25	59.76
580.589	59.83
580.928	59.91
581.267	60.02
581.606	60.23
581.945	60.29
582.283	60.41
582.622	60.51
582.961	60.65
583.3	60.78
583.639	61.01
583.977	61.08
584.316	61.17
584.654	61.32
584.993	61.37
585.332	61.54
585.67	61.55
586.008	61.66
586.347	61.78
586.685	61.9
587.024	62
587.362	61.99
587.7	62.11
588.038	62.21
588.376	62.35
588.715	62.35
589.053	62.46
589.391	62.55
589.729	62.55
590.067	62.58
590.404	62.6
590.742	62.63
591.08	62.8
591.418	62.86
591.756	62.97
592.093	63.12
592.431	63.19
592.769	63.31
593.106	63.43
593.444	63.56
593.781	63.71
594.119	63.79
594.456	63.98
594.793	64.14
595.131	64.27
595.468	64.34
595.805	64.43
596.143	64.49
596.48	64.52
596.817	64.65
597.154	64.72
597.491	64.83
597.828	64.93
598.165	64.95
598.502	65.06
598.839	65.09
599.176	65.11
599.512	65.23
599.849	65.36
600.186	65.32
600.523	65.31
600.859	65.25
601.196	65.28
601.532	65.32
601.869	65.28
602.205	65.33
602.542	65.36
602.878	65.34
603.215	65.43
603.551	65.47
603.887	65.5
604.223	65.59
604.56	65.67
604.896	65.68
605.232	65.72
605.568	65.79
605.904	65.82
606.24	65.91
606.576	65.9
606.912	65.92
607.248	66.03
607.583	66.06
607.919	66.17
608.255	66.25
608.591	66.25
608.926	66.37
609.262	66.41
609.597	66.46
609.933	66.64
610.268	66.63
610.604	66.71
610.939	66.73
611.275	66.72
611.61	66.69
611.945	66.71
612.281	66.74
612.616	66.71
612.951	66.72
613.286	66.75
613.621	66.79
613.956	66.73
614.291	66.71
614.626	66.74
614.961	66.68
615.296	66.74
615.631	66.87
615.966	66.82
616.3	66.8
616.635	66.82
616.97	66.7
617.304	66.78
617.639	66.85
617.973	66.88
618.308	67.02
618.642	67.11
618.977	67.13
619.311	67.07
619.646	67.05
619.98	67.16
620.314	67.11
620.648	67.06
620.983	67.22
621.317	67.33
621.651	67.53
621.985	67.66
622.319	67.69
622.653	67.67
622.987	67.57
623.321	67.57
623.655	67.7
623.988	67.91
624.322	67.88
624.656	67.93
624.99	68.02
625.323	68
625.657	67.98
625.99	68.02
626.324	68.05
626.657	68.2
626.991	68.21
627.324	68.29
627.658	68.43
627.991	68.48
628.324	68.41
628.657	68.29
628.991	68.29
629.324	68.27
629.657	68.3
629.99	68.47
630.323	68.58
630.656	68.52
630.989	68.46
631.322	68.47
631.655	68.4
631.987	68.37
632.32	68.4
632.653	68.37
632.986	68.4
633.318	68.49
633.651	68.52
633.984	68.52
634.316	68.53
634.649	68.48
634.981	68.49
635.313	68.65
635.646	68.75
635.978	68.78
636.31	68.89
636.643	68.88
636.975	68.86
637.307	68.73
637.639	68.79
637.971	68.88
638.303	68.96
638.635	69.07
638.967	69.09
639.299	69.16
639.631	69.24
639.963	69.25
640.295	69.26
640.626	69.22
640.958	69.32
641.29	69.3
641.621	69.38
641.953	69.33
642.285	69.24
642.616	69.11
642.948	69.11
643.279	69.07
643.61	69.17
643.942	69.21
644.273	69.41
644.604	69.3
644.936	69.13
645.267	69.21
645.598	69.34
645.929	69.38
646.26	69.32
646.591	69.29
646.922	69.3
647.253	69.35
647.584	69.39
647.915	69.26
648.245	69.41
648.576	69.39
648.907	69.38
649.238	69.45
649.568	69.63
649.899	69.71
650.229	69.72
650.56	69.8
650.89	69.86
651.221	69.89
651.551	70.01
651.882	70.17
652.212	70.19
652.542	70.18
652.872	70.25
653.203	70.23
653.533	70.27
653.863	70.21
654.193	70.29
654.523	70.34
654.853	70.47
655.183	70.52
655.513	70.56
655.843	70.63
656.172	70.72
656.502	70.75
656.832	70.6
657.162	70.57
657.491	70.47
657.821	70.46
658.15	70.26
658.48	70.36
658.809	70.35
659.139	70.3
659.468	70.15
659.798	70.05
660.127	70.15
660.456	70.11
660.785	70.31
661.115	70.33
661.444	70.21
