Data from BA28468_Reflection_00006.txt Node
Date: Mon Nov 18 15:14:51 EST 2019
User: vgr7
Spectrometer: USB2G7710
Scans to average: 3
Trigger mode: 4
Integration Time (sec): 2.000000E-2
Electric dark correction enabled: true
Boxcar width: 10
XAxis mode: Wavelengths
Number of Pixels in Spectrum: 2048
>>>>>Begin Spectral Data<<<<<
177.721	106
178.105	2528.57
178.488	-40.88
178.871	-33.89
179.254	-3.9
179.636	1705.26
180.019	-125.93
180.402	14.55
180.785	63.76
181.168	-4.97
181.55	-52.51
181.933	-1641.18
182.316	-362.34
182.698	-195.22
183.081	-98.54
183.463	-28.73
183.846	-3900
184.228	33.77
184.611	146.02
184.993	66.7
185.376	89.38
185.758	71.42
186.14	63.08
186.522	54.16
186.904	39.9
187.287	41.15
187.669	44.06
188.051	38.36
188.433	26.42
188.815	28.56
189.197	33.93
189.579	34.18
189.961	44.46
190.342	25.44
190.724	13.68
191.106	21.76
191.488	19.1
191.869	30.96
192.251	9.75
192.633	-1.91
193.014	-3.69
193.396	-16.43
193.777	-17.88
194.159	-13.43
194.54	-8.54
194.922	2.09
195.303	-3.48
195.684	7.13
196.065	4.65
196.447	3.19
196.828	-0.62
197.209	2.14
197.59	5.2
197.971	-0.2
198.352	7.22
198.733	9.51
199.114	2.64
199.495	8.16
199.876	-0.79
200.257	11.95
200.638	12.68
201.018	0.45
201.399	0.45
201.78	-6.69
202.16	-11.21
202.541	-7.53
202.922	-11.93
203.302	-8.25
203.683	-21.26
204.063	-18.88
204.444	-24.05
204.824	-28.92
205.204	-30.69
205.585	-24.4
205.965	-4.27
206.345	-9.87
206.725	-28.07
207.106	-38.46
207.486	-48.88
207.866	-51.97
208.246	-44.75
208.626	-34.27
209.006	-14.72
209.386	-22.97
209.766	-3.74
210.145	8.23
210.525	-2.94
210.905	-13.4
211.285	-7.87
211.664	-2.79
212.044	-6.99
212.424	-7.06
212.803	-0.43
213.183	3.9
213.562	0.68
213.942	-3.88
214.321	2.29
214.701	5.03
215.08	-0.77
215.459	0.48
215.838	2.66
216.218	0.67
216.597	-5.78
216.976	-10.77
217.355	-4.71
217.734	-12.08
218.113	-18.21
218.492	-8.69
218.871	-8.93
219.25	-12.47
219.629	-6.79
220.008	-10.36
220.387	-10.03
220.766	-15.44
221.144	-19.87
221.523	-21.76
221.902	-28.45
222.28	-27.33
222.659	-19.76
223.037	-11.73
223.416	-10.94
223.794	-7.2
224.173	-9.09
224.551	-9.53
224.929	-10.42
225.308	-10.69
225.686	-5.88
226.064	-2.22
226.442	-4.94
226.821	-4.8
227.199	-6.9
227.577	-8.64
227.955	-8.18
228.333	-5.59
228.711	-4.48
229.089	-1.69
229.467	-3.31
229.845	-2.76
230.222	-3.63
230.6	-6.06
230.978	-6.94
231.356	-5.83
231.733	-4.92
232.111	-3.4
232.488	-2.4
232.866	-0.74
233.243	0.49
233.621	0.09
233.998	0.39
234.376	0.39
234.753	0.64
235.13	2.05
235.508	1.83
235.885	2.41
236.262	2.27
236.639	2.03
237.016	2.14
237.393	3.95
237.77	4.24
238.147	4.57
238.524	5.08
238.901	6.75
239.278	6.6
239.655	6.74
240.032	6.22
240.409	6.53
240.785	6.12
241.162	5.89
241.539	6.26
241.915	5.76
242.292	5.36
242.668	5.62
243.045	5.45
243.421	5.56
243.798	5.37
244.174	5.51
244.551	5.49
244.927	5.35
245.303	5.11
245.679	5.3
246.056	5.33
246.432	5.36
246.808	5.18
247.184	5.21
247.56	4.97
247.936	5.13
248.312	4.85
248.688	4.91
249.064	4.8
249.44	4.64
249.815	4.66
250.191	5.03
250.567	4.95
250.943	4.99
251.318	5.12
251.694	5.26
252.069	5.21
252.445	5.28
252.82	5.28
253.196	5.2
253.571	5.2
253.947	5.32
254.322	5.41
254.697	5.2
255.073	4.78
255.448	4.73
255.823	4.42
256.198	4.8
256.573	4.72
256.948	5
257.323	5.02
257.698	5.22
258.073	5.07
258.448	5.09
258.823	5.08
259.198	4.87
259.573	4.82
259.948	4.84
260.322	4.93
260.697	4.88
261.072	4.91
261.446	4.99
261.821	4.83
262.195	4.78
262.57	4.95
262.944	4.99
263.319	4.94
263.693	5.02
264.067	4.89
264.442	5.08
264.816	4.9
265.19	4.91
265.564	4.92
265.938	4.85
266.313	4.8
266.687	4.63
267.061	4.83
267.435	4.82
267.809	4.66
268.183	4.5
268.556	4.64
268.93	4.63
269.304	4.42
269.678	4.55
270.051	4.57
270.425	4.45
270.799	4.66
271.172	4.78
271.546	4.79
271.919	4.89
272.293	4.73
272.666	4.8
273.04	4.96
273.413	4.82
273.787	4.84
274.16	4.87
274.533	4.98
274.906	4.84
275.279	4.87
275.653	4.92
276.026	5.07
276.399	5.05
276.772	5.14
277.145	5.24
277.518	5.37
277.891	5.39
278.263	5.32
278.636	5.16
279.009	5.13
279.382	5.33
279.755	5.19
280.127	5.32
280.5	5.29
280.872	5.21
281.245	5.24
281.617	5.23
281.99	5.28
282.362	5.3
282.735	5.21
283.107	5.23
283.479	5.24
283.852	5.06
284.224	4.98
284.596	4.91
284.968	4.87
285.34	4.79
285.713	4.81
286.085	4.89
286.457	5.03
286.829	5.04
287.201	4.87
287.572	4.97
287.944	4.99
288.316	5.06
288.688	4.98
289.06	4.9
289.431	4.97
289.803	5
290.175	4.98
290.546	5.13
290.918	5.18
291.289	5.16
291.661	5.38
292.032	5.4
292.403	5.44
292.775	5.53
293.146	5.55
293.517	5.59
293.889	5.65
294.26	5.6
294.631	5.62
295.002	5.64
295.373	5.6
295.744	5.51
296.115	5.5
296.486	5.42
296.857	5.45
297.228	5.55
297.599	5.54
297.97	5.64
298.34	5.59
298.711	5.54
299.082	5.66
299.452	5.6
299.823	5.71
300.194	5.77
300.564	5.63
300.935	5.6
301.305	5.6
301.676	5.52
302.046	5.58
302.416	5.69
302.787	5.78
303.157	5.76
303.527	5.84
303.897	5.83
304.267	5.92
304.637	6.03
305.008	5.92
305.378	5.88
305.748	5.82
306.117	5.74
306.487	5.74
306.857	5.67
307.227	5.81
307.597	5.69
307.967	5.6
308.336	5.73
308.706	5.69
309.076	5.71
309.445	5.76
309.815	5.65
310.184	5.66
310.554	5.67
310.923	5.73
311.293	5.64
311.662	5.7
312.031	5.68
312.401	5.7
312.77	5.63
313.139	5.6
313.508	5.62
313.877	5.8
314.246	5.77
314.616	5.76
314.985	5.68
315.353	5.73
315.722	5.85
316.091	5.75
316.46	5.76
316.829	5.73
317.198	5.76
317.567	5.75
317.935	5.66
318.304	5.62
318.672	5.59
319.041	5.74
319.41	5.68
319.778	5.64
320.147	5.58
320.515	5.55
320.883	5.57
321.252	5.56
321.62	5.65
321.988	5.58
322.357	5.47
322.725	5.3
323.093	5.32
323.461	5.14
323.829	5.36
324.197	5.41
324.565	5.42
324.933	5.41
325.301	5.55
325.669	5.63
326.037	5.7
326.405	5.72
326.772	5.69
327.14	5.73
327.508	5.89
327.875	5.8
328.243	5.84
328.61	5.84
328.978	5.85
329.346	5.77
329.713	5.77
330.08	5.76
330.448	5.76
330.815	5.61
331.182	5.74
331.55	5.59
331.917	5.63
332.284	5.79
332.651	5.73
333.018	5.71
333.385	5.62
333.752	5.56
334.119	5.58
334.486	5.48
334.853	5.47
335.22	5.44
335.587	5.51
335.954	5.55
336.32	5.53
336.687	5.61
337.054	5.56
337.42	5.65
337.787	5.82
338.153	5.95
338.52	6.07
338.886	5.95
339.253	5.96
339.619	5.92
339.986	5.77
340.352	5.87
340.718	5.84
341.084	5.82
341.451	5.91
341.817	5.91
342.183	5.9
342.549	5.91
342.915	5.84
343.281	5.85
343.647	5.87
344.013	5.9
344.379	5.78
344.745	5.8
345.11	5.81
345.476	5.72
345.842	5.64
346.208	5.58
346.573	5.74
346.939	5.83
347.304	5.79
347.67	5.68
348.035	5.57
348.401	5.43
348.766	5.45
349.132	5.35
349.497	5.31
349.862	5.47
350.228	5.41
350.593	5.41
350.958	5.42
351.323	5.37
351.688	5.39
352.053	5.44
352.418	5.48
352.783	5.43
353.148	5.46
353.513	5.56
353.878	5.64
354.243	5.59
354.608	5.56
354.972	5.61
355.337	5.77
355.702	5.88
356.066	6.03
356.431	5.9
356.795	5.94
357.16	5.94
357.524	5.84
357.889	5.87
358.253	5.9
358.618	5.91
358.982	5.91
359.346	5.9
359.71	5.86
360.075	5.82
360.439	5.77
360.803	5.76
361.167	5.74
361.531	5.68
361.895	5.65
362.259	5.61
362.623	5.61
362.987	5.53
363.351	5.53
363.714	5.51
364.078	5.65
364.442	5.62
364.806	5.56
365.169	5.59
365.533	5.57
365.896	5.56
366.26	5.57
366.623	5.51
366.987	5.52
367.35	5.58
367.714	5.58
368.077	5.61
368.44	5.62
368.803	5.6
369.167	5.64
369.53	5.62
369.893	5.63
370.256	5.61
370.619	5.68
370.982	5.63
371.345	5.57
371.708	5.55
372.071	5.54
372.434	5.6
372.797	5.6
373.159	5.66
373.522	5.69
373.885	5.68
374.247	5.78
374.61	5.75
374.973	5.73
375.335	5.78
375.698	5.84
376.06	5.77
376.423	5.76
376.785	5.79
377.147	5.83
377.51	5.8
377.872	5.83
378.234	5.78
378.596	5.79
378.958	5.8
379.321	5.81
379.683	5.83
380.045	5.82
380.407	5.79
380.769	5.72
381.13	5.7
381.492	5.68
381.854	5.61
382.216	5.59
382.578	5.59
382.939	5.54
383.301	5.51
383.663	5.55
384.024	5.54
384.386	5.5
384.747	5.51
385.109	5.55
385.47	5.49
385.832	5.54
386.193	5.53
386.554	5.55
386.916	5.49
387.277	5.51
387.638	5.53
387.999	5.55
388.36	5.57
388.721	5.6
389.082	5.57
389.443	5.54
389.804	5.56
390.165	5.56
390.526	5.57
390.887	5.57
391.248	5.56
391.609	5.56
391.969	5.57
392.33	5.51
392.691	5.53
393.051	5.61
393.412	5.58
393.772	5.56
394.133	5.57
394.493	5.55
394.854	5.54
395.214	5.54
395.574	5.54
395.935	5.58
396.295	5.56
396.655	5.57
397.015	5.63
397.376	5.68
397.736	5.66
398.096	5.64
398.456	5.67
398.816	5.68
399.176	5.71
399.535	5.7
399.895	5.71
400.255	5.71
400.615	5.66
400.975	5.68
401.334	5.68
401.694	5.66
402.054	5.7
402.413	5.73
402.773	5.7
403.132	5.7
403.492	5.66
403.851	5.65
404.211	5.67
404.57	5.66
404.929	5.63
405.288	5.62
405.648	5.63
406.007	5.61
406.366	5.61
406.725	5.63
407.084	5.65
407.443	5.67
407.802	5.67
408.161	5.65
408.52	5.64
408.879	5.64
409.238	5.65
409.596	5.64
409.955	5.62
410.314	5.64
410.673	5.63
411.031	5.64
411.39	5.65
411.748	5.63
412.107	5.6
412.465	5.61
412.824	5.61
413.182	5.62
413.54	5.62
413.899	5.63
414.257	5.6
414.615	5.59
414.974	5.61
415.332	5.61
415.69	5.59
416.048	5.57
416.406	5.56
416.764	5.56
417.122	5.57
417.48	5.56
417.838	5.56
418.195	5.56
418.553	5.56
418.911	5.58
419.269	5.6
419.626	5.61
419.984	5.61
420.342	5.62
420.699	5.63
421.057	5.62
421.414	5.61
421.772	5.62
422.129	5.62
422.486	5.62
422.844	5.63
423.201	5.64
423.558	5.65
423.915	5.65
424.273	5.67
424.63	5.67
424.987	5.67
425.344	5.68
425.701	5.69
426.058	5.68
426.415	5.67
426.772	5.66
427.128	5.65
427.485	5.66
427.842	5.65
428.199	5.64
428.555	5.64
428.912	5.63
429.269	5.64
429.625	5.64
429.982	5.62
430.338	5.6
430.695	5.61
431.051	5.6
431.407	5.6
431.764	5.59
432.12	5.57
432.476	5.57
432.832	5.54
433.189	5.53
433.545	5.52
433.901	5.52
434.257	5.51
434.613	5.52
434.969	5.52
435.325	5.52
435.681	5.51
436.036	5.49
436.392	5.51
436.748	5.51
437.104	5.5
437.459	5.5
437.815	5.48
438.171	5.47
438.526	5.48
438.882	5.49
439.237	5.5
439.593	5.52
439.948	5.53
440.304	5.55
440.659	5.55
441.014	5.56
441.369	5.55
441.725	5.57
442.08	5.55
442.435	5.56
442.79	5.58
443.145	5.59
443.5	5.6
443.855	5.6
444.21	5.6
444.565	5.6
444.92	5.59
445.275	5.6
445.629	5.61
445.984	5.59
446.339	5.58
446.693	5.55
447.048	5.54
447.403	5.53
447.757	5.52
448.112	5.51
448.466	5.5
448.82	5.5
449.175	5.5
449.529	5.51
449.883	5.49
450.238	5.47
450.592	5.47
450.946	5.49
451.3	5.48
451.654	5.48
452.008	5.49
452.362	5.48
452.716	5.48
453.07	5.48
453.424	5.49
453.778	5.51
454.132	5.52
454.486	5.5
454.839	5.49
455.193	5.48
455.547	5.49
455.9	5.5
456.254	5.53
456.607	5.53
456.961	5.54
457.314	5.55
457.668	5.56
458.021	5.54
458.375	5.52
458.728	5.53
459.081	5.54
459.434	5.53
459.787	5.54
460.141	5.54
460.494	5.55
460.847	5.56
461.2	5.55
461.553	5.57
461.906	5.58
462.259	5.58
462.611	5.6
462.964	5.62
463.317	5.61
463.67	5.59
464.022	5.57
464.375	5.54
464.728	5.54
465.08	5.54
465.433	5.55
465.785	5.55
466.138	5.55
466.49	5.57
466.843	5.55
467.195	5.55
467.547	5.56
467.899	5.53
468.252	5.52
468.604	5.53
468.956	5.53
469.308	5.54
469.66	5.53
470.012	5.53
470.364	5.5
470.716	5.52
471.068	5.54
471.42	5.56
471.772	5.59
472.123	5.6
472.475	5.61
472.827	5.6
473.178	5.61
473.53	5.58
473.882	5.56
474.233	5.59
474.585	5.59
474.936	5.58
475.288	5.62
475.639	5.64
475.99	5.62
476.342	5.61
476.693	5.61
477.044	5.62
477.395	5.63
477.746	5.63
478.097	5.63
478.448	5.61
478.8	5.62
479.15	5.6
479.501	5.6
479.852	5.59
480.203	5.6
480.554	5.62
480.905	5.64
481.255	5.65
481.606	5.66
481.957	5.67
482.307	5.68
482.658	5.67
483.009	5.68
483.359	5.69
483.709	5.69
484.06	5.69
484.41	5.7
484.761	5.7
485.111	5.7
485.461	5.7
485.811	5.71
486.162	5.7
486.512	5.71
486.862	5.71
487.212	5.71
487.562	5.72
487.912	5.71
488.262	5.71
488.612	5.7
488.961	5.69
489.311	5.68
489.661	5.68
490.011	5.68
490.36	5.66
490.71	5.66
491.06	5.67
491.409	5.67
491.759	5.67
492.108	5.67
492.458	5.67
492.807	5.68
493.157	5.67
493.506	5.67
493.855	5.66
494.204	5.66
494.554	5.67
494.903	5.66
495.252	5.65
495.601	5.65
495.95	5.67
496.299	5.68
496.648	5.69
496.997	5.7
497.346	5.7
497.695	5.72
498.043	5.72
498.392	5.69
498.741	5.68
499.09	5.67
499.438	5.68
499.787	5.68
500.135	5.7
500.484	5.7
500.832	5.72
501.181	5.74
501.529	5.73
501.878	5.73
502.226	5.72
502.574	5.72
502.923	5.72
503.271	5.7
503.619	5.7
503.967	5.7
504.315	5.69
504.663	5.69
505.011	5.7
505.359	5.7
505.707	5.7
506.055	5.68
506.403	5.7
506.751	5.71
507.098	5.71
507.446	5.7
507.794	5.69
508.141	5.71
508.489	5.72
508.837	5.72
509.184	5.74
509.531	5.76
509.879	5.77
510.226	5.78
510.574	5.8
510.921	5.8
511.268	5.81
511.616	5.83
511.963	5.83
512.31	5.84
512.657	5.85
513.004	5.86
513.351	5.86
513.698	5.86
514.045	5.84
514.392	5.84
514.739	5.85
515.086	5.88
515.432	5.86
515.779	5.87
516.126	5.9
516.473	5.9
516.819	5.91
517.166	5.92
517.512	5.93
517.859	5.94
518.205	5.93
518.552	5.94
518.898	5.92
519.245	5.93
519.591	5.92
519.937	5.92
520.283	5.92
520.629	5.94
520.976	5.96
521.322	5.98
521.668	5.99
522.014	5.99
522.36	5.98
522.706	5.98
523.052	5.97
523.398	5.96
523.743	5.98
524.089	5.97
524.435	5.98
524.781	5.98
525.126	5.99
525.472	5.99
525.817	6
526.163	6.01
526.509	6.01
526.854	6.02
527.199	6.05
527.545	6.05
527.89	6.04
528.235	6.03
528.581	6.03
528.926	6.05
529.271	6.06
529.616	6.07
529.961	6.08
530.306	6.09
530.651	6.08
530.996	6.08
531.341	6.08
531.686	6.07
532.031	6.07
532.376	6.06
532.721	6.08
533.065	6.07
533.41	6.08
533.755	6.08
534.099	6.09
534.444	6.07
534.788	6.09
535.133	6.1
535.477	6.11
535.822	6.11
536.166	6.09
536.51	6.08
536.855	6.08
537.199	6.07
537.543	6.05
537.887	6.07
538.231	6.09
538.576	6.1
538.92	6.11
539.264	6.12
539.608	6.12
539.951	6.1
540.295	6.11
540.639	6.12
540.983	6.12
541.327	6.12
541.671	6.11
542.014	6.11
542.358	6.11
542.701	6.11
543.045	6.12
543.389	6.14
543.732	6.13
544.075	6.13
544.419	6.14
544.762	6.14
545.105	6.14
545.449	6.14
545.792	6.13
546.135	6.14
546.478	6.16
546.821	6.16
547.165	6.18
547.508	6.19
547.851	6.16
548.194	6.17
548.536	6.18
548.879	6.2
549.222	6.2
549.565	6.2
549.908	6.21
550.25	6.23
550.593	6.22
550.936	6.22
551.278	6.23
551.621	6.24
551.963	6.27
552.306	6.28
552.648	6.27
552.991	6.27
553.333	6.25
553.675	6.23
554.017	6.25
554.36	6.26
554.702	6.25
555.044	6.25
555.386	6.25
555.728	6.27
556.07	6.27
556.412	6.25
556.754	6.26
557.096	6.25
557.438	6.22
557.78	6.23
558.121	6.26
558.463	6.27
558.805	6.26
559.147	6.24
559.488	6.23
559.83	6.23
560.171	6.22
560.513	6.26
560.854	6.27
561.196	6.27
561.537	6.27
561.878	6.28
562.22	6.27
562.561	6.26
562.902	6.26
563.243	6.28
563.584	6.3
563.925	6.3
564.266	6.3
564.607	6.3
564.948	6.31
565.289	6.29
565.63	6.28
565.971	6.27
566.312	6.28
566.653	6.26
566.993	6.25
567.334	6.27
567.675	6.27
568.015	6.29
568.356	6.27
568.696	6.27
569.037	6.28
569.377	6.28
569.718	6.27
570.058	6.25
570.398	6.21
570.739	6.21
571.079	6.21
571.419	6.21
571.759	6.24
572.099	6.24
572.439	6.24
572.779	6.24
573.119	6.27
573.459	6.29
573.799	6.29
574.139	6.3
574.479	6.29
574.819	6.29
575.158	6.26
575.498	6.28
575.838	6.26
576.177	6.24
576.517	6.25
576.856	6.29
577.196	6.29
577.535	6.3
577.875	6.28
578.214	6.28
578.553	6.3
578.893	6.28
579.232	6.25
579.571	6.27
579.91	6.26
580.25	6.25
580.589	6.28
580.928	6.28
581.267	6.29
581.606	6.29
581.945	6.31
582.283	6.29
582.622	6.29
582.961	6.31
583.3	6.32
583.639	6.33
583.977	6.31
584.316	6.33
584.654	6.34
584.993	6.41
585.332	6.41
585.67	6.42
586.008	6.42
586.347	6.44
586.685	6.41
587.024	6.44
587.362	6.44
587.7	6.4
588.038	6.38
588.376	6.39
588.715	6.4
589.053	6.37
589.391	6.4
589.729	6.41
590.067	6.43
590.404	6.43
590.742	6.42
591.08	6.39
591.418	6.38
591.756	6.42
592.093	6.38
592.431	6.41
592.769	6.39
593.106	6.39
593.444	6.38
593.781	6.4
594.119	6.43
594.456	6.41
594.793	6.41
595.131	6.44
595.468	6.44
595.805	6.44
596.143	6.46
596.48	6.46
596.817	6.44
597.154	6.44
597.491	6.43
597.828	6.42
598.165	6.46
598.502	6.46
598.839	6.43
599.176	6.46
599.512	6.46
599.849	6.45
600.186	6.44
600.523	6.47
600.859	6.49
601.196	6.46
601.532	6.49
601.869	6.49
602.205	6.49
602.542	6.5
602.878	6.5
603.215	6.49
603.551	6.51
603.887	6.52
604.223	6.5
604.56	6.51
604.896	6.54
605.232	6.58
605.568	6.58
605.904	6.58
606.24	6.57
606.576	6.57
606.912	6.6
607.248	6.63
607.583	6.63
607.919	6.6
608.255	6.62
608.591	6.61
608.926	6.63
609.262	6.66
609.597	6.68
609.933	6.68
610.268	6.71
610.604	6.71
610.939	6.7
611.275	6.72
611.61	6.72
611.945	6.74
612.281	6.71
612.616	6.72
612.951	6.76
613.286	6.75
613.621	6.75
613.956	6.74
614.291	6.71
614.626	6.7
614.961	6.7
615.296	6.69
615.631	6.7
615.966	6.66
616.3	6.6
616.635	6.55
616.97	6.5
617.304	6.44
617.639	6.5
617.973	6.49
618.308	6.47
618.642	6.47
618.977	6.43
619.311	6.4
619.646	6.43
619.98	6.43
620.314	6.43
620.648	6.45
620.983	6.46
621.317	6.46
621.651	6.49
621.985	6.52
622.319	6.55
622.653	6.56
622.987	6.62
623.321	6.61
623.655	6.64
623.988	6.72
624.322	6.73
624.656	6.74
624.99	6.79
625.323	6.8
625.657	6.84
625.99	6.86
626.324	6.9
626.657	6.87
626.991	6.86
627.324	6.85
627.658	6.83
627.991	6.86
628.324	6.87
628.657	6.85
628.991	6.81
629.324	6.76
629.657	6.73
629.99	6.68
630.323	6.72
630.656	6.7
630.989	6.72
631.322	6.71
631.655	6.66
631.987	6.66
632.32	6.67
632.653	6.63
632.986	6.66
633.318	6.65
633.651	6.68
633.984	6.62
634.316	6.66
634.649	6.68
634.981	6.7
635.313	6.7
635.646	6.72
635.978	6.77
636.31	6.77
636.643	6.85
636.975	6.88
637.307	6.9
637.639	6.93
637.971	6.93
638.303	6.93
638.635	6.9
638.967	6.94
639.299	6.93
639.631	6.9
639.963	6.84
640.295	6.82
640.626	6.84
640.958	6.94
641.29	6.88
641.621	6.9
641.953	6.84
642.285	6.83
642.616	6.83
642.948	6.78
643.279	6.87
643.61	6.85
643.942	6.85
644.273	6.83
644.604	6.85
644.936	6.77
645.267	6.79
645.598	6.83
645.929	6.81
646.26	6.78
646.591	6.82
646.922	6.83
647.253	6.81
647.584	6.76
647.915	6.73
648.245	6.72
648.576	6.67
648.907	6.69
649.238	6.68
649.568	6.72
649.899	6.78
650.229	6.73
650.56	6.74
650.89	6.74
651.221	6.79
651.551	6.77
651.882	6.77
652.212	6.85
652.542	6.89
652.872	6.91
653.203	6.96
653.533	7
653.863	6.96
654.193	7.02
654.523	7.02
654.853	7.04
655.183	7.09
655.513	7.13
655.843	7.13
656.172	7.13
656.502	7.16
656.832	7.13
657.162	7.15
657.491	7.14
657.821	7.19
658.15	7.12
658.48	7.07
658.809	7.07
659.139	7.02
659.468	6.97
659.798	6.92
660.127	6.89
660.456	6.9
660.785	6.96
661.115	6.96
661.444	7
661.773	7
662.102	7.03
662.431	7.04
662.76	7.04
663.089	7.08
663.418	7.02
663.747	7.01
664.076	7.01
664.404	6.99
664.733	6.98
665.062	6.96
665.39	7.07
665.719	7.09
666.048	7.16
666.376	7.21
666.705	7.21
667.033	7.21
667.362	7.21
667.69	7.21
668.018	7.27
668.347	7.28
668.675	7.35
669.003	7.35
669.331	7.37
669.659	7.36
669.987	7.29
670.315	7.32
670.643	7.31
670.971	7.28
671.299	7.32
671.627	7.29
671.955	7.37
672.283	7.34
672.61	7.38
672.938	7.35
673.266	7.31
673.593	7.41
673.921	7.49
674.249	7.5
674.576	7.45
674.904	7.38
675.231	7.34
675.558	7.31
675.886	7.35
676.213	7.28
676.54	7.32
676.867	7.45
677.195	7.38
677.522	7.37
677.849	7.46
678.176	7.45
678.503	7.53
678.83	7.55
679.157	7.53
679.484	7.55
679.81	7.47
