Data from BA28300_Reflection_00011.txt Node
Date: Mon Nov 18 15:58:23 EST 2019
User: vgr7
Spectrometer: USB2G7710
Scans to average: 3
Trigger mode: 4
Integration Time (sec): 2.000000E-2
Electric dark correction enabled: true
Boxcar width: 10
XAxis mode: Wavelengths
Number of Pixels in Spectrum: 2048
>>>>>Begin Spectral Data<<<<<
177.721	-168.93
178.105	-488.24
178.488	165.51
178.871	-19.29
179.254	-104.15
179.636	56.19
180.019	-144.79
180.402	97.22
180.785	10.06
181.168	172.96
181.55	287.97
181.933	145.73
182.316	176.34
182.698	133.02
183.081	165.16
183.463	278.9
183.846	285.13
184.228	230.69
184.611	447.65
184.993	-3716.9
185.376	-14429.41
185.758	1033.58
186.14	830.1
186.522	576.09
186.904	533.26
187.287	1007.34
187.669	-402.28
188.051	-3385.98
188.433	7748.65
188.815	-358.61
189.197	-408.08
189.579	-315.83
189.961	-771.38
190.342	-1225.99
190.724	-420.49
191.106	-426.23
191.488	-300.27
191.869	-321.9
192.251	-554.6
192.633	-685.95
193.014	732.65
193.396	492.19
193.777	-1013.88
194.159	1751.43
194.54	-14782.35
194.922	1066.85
195.303	-2068.54
195.684	-2787.32
196.065	-192.64
196.447	-192.06
196.828	-481.99
197.209	-223.4
197.59	-606.74
197.971	-376.92
198.352	-73.38
198.733	-70.34
199.114	-63.69
199.495	-81.9
199.876	-37.74
200.257	-40.03
200.638	-5.18
201.018	10.75
201.399	7.55
201.78	-17.06
202.16	-27.97
202.541	-91.36
202.922	-279.93
203.302	-673.02
203.683	-730.73
204.063	-453.51
204.444	-334.68
204.824	-398.5
205.204	-497.45
205.585	-277.71
205.965	-230.35
206.345	-455.09
206.725	-1045.88
207.106	-3841.18
207.486	-1251.59
207.866	-6201.2
208.246	-1019.91
208.626	-607.25
209.006	-312.55
209.386	-404.15
209.766	-413.17
210.145	-273.72
210.525	-195.41
210.905	-94.24
211.285	-51.9
211.664	-26.16
212.044	-13.2
212.424	-8.61
212.803	-36.68
213.183	-17.18
213.562	-38.14
213.942	-17.84
214.321	3.25
214.701	-3.47
215.08	-2.08
215.459	-11.7
215.838	12.21
216.218	-2.78
216.597	-19.11
216.976	-26.62
217.355	-10.69
217.734	-44.29
218.113	-35.28
218.492	-17.94
218.871	-28.86
219.25	-22.09
219.629	-25.54
220.008	-36.43
220.387	-23.39
220.766	-11.59
221.144	-33.62
221.523	-21.25
221.902	-31.39
222.28	-39.2
222.659	-41.39
223.037	-42.41
223.416	-45.8
223.794	-50.68
224.173	-38.22
224.551	-25.82
224.929	-23.17
225.308	-15.68
225.686	-0.86
226.064	-0.76
226.442	-4.83
226.821	-0.13
227.199	-2.46
227.577	-5.36
227.955	-1.73
228.333	-5.17
228.711	-5.69
229.089	-2.26
229.467	-4.4
229.845	-1.36
230.222	-0.82
230.6	1.66
230.978	1.1
231.356	4.94
231.733	3.72
232.111	4.07
232.488	2.12
232.866	0.92
233.243	-0.93
233.621	-3.16
233.998	-3.37
234.376	-3.89
234.753	-5.3
235.13	-4.88
235.508	-3.52
235.885	-4.82
236.262	-2.97
236.639	-2.11
237.016	-2.32
237.393	0.38
237.77	0.9
238.147	2.65
238.524	2.9
238.901	4.55
239.278	4.26
239.655	4.58
240.032	4.26
240.409	4.15
240.785	4.42
241.162	4.66
241.539	4.43
241.915	4.48
242.292	4.27
242.668	4.5
243.045	4.28
243.421	4.67
243.798	4.49
244.174	4.52
244.551	4.19
244.927	4.39
245.303	4.08
245.679	4.28
246.056	3.96
246.432	4.11
246.808	3.88
247.184	3.59
247.56	3.59
247.936	3.59
248.312	3.55
248.688	3.59
249.064	3.77
249.44	3.98
249.815	4.01
250.191	4.14
250.567	4.29
250.943	4.21
251.318	3.92
251.694	4.02
252.069	3.75
252.445	4.12
252.82	3.81
253.196	4.04
253.571	3.6
253.947	3.88
254.322	3.75
254.697	3.56
255.073	3.46
255.448	3.28
255.823	3.29
256.198	3.35
256.573	3.41
256.948	3.46
257.323	3.52
257.698	3.48
258.073	3.63
258.448	3.59
258.823	3.56
259.198	3.66
259.573	3.76
259.948	3.76
260.322	3.63
260.697	3.63
261.072	3.42
261.446	3.44
261.821	3.45
262.195	3.54
262.57	3.57
262.944	3.75
263.319	3.8
263.693	3.79
264.067	3.96
264.442	3.98
264.816	3.93
265.19	3.96
265.564	3.93
265.938	3.71
266.313	3.47
266.687	3.68
267.061	3.58
267.435	3.56
267.809	3.61
268.183	3.64
268.556	3.8
268.93	4.1
269.304	3.97
269.678	4.05
270.051	3.86
270.425	3.98
270.799	4.14
271.172	4.24
271.546	4.26
271.919	4.08
272.293	4.02
272.666	3.93
273.04	3.86
273.413	3.95
273.787	3.94
274.16	3.93
274.533	3.89
274.906	3.92
275.279	3.74
275.653	3.8
276.026	3.75
276.399	3.8
276.772	3.72
277.145	3.66
277.518	3.44
277.891	3.56
278.263	3.5
278.636	3.41
279.009	3.26
279.382	3.49
279.755	3.58
280.127	3.76
280.5	3.87
280.872	3.86
281.245	3.75
281.617	4
281.99	4.23
282.362	4.17
282.735	4.26
283.107	4.44
283.479	4.55
283.852	4.7
284.224	4.6
284.596	4.45
284.968	4.59
285.34	4.63
285.713	4.61
286.085	4.6
286.457	4.49
286.829	4.54
287.201	4.44
287.572	4.4
287.944	4.4
288.316	4.33
288.688	4.24
289.06	4.29
289.431	4.21
289.803	4.27
290.175	4.29
290.546	4.29
290.918	4.32
291.289	4.4
291.661	4.42
292.032	4.53
292.403	4.65
292.775	4.65
293.146	4.77
293.517	4.67
293.889	4.74
294.26	4.75
294.631	4.74
295.002	4.62
295.373	4.63
295.744	4.51
296.115	4.52
296.486	4.49
296.857	4.56
297.228	4.6
297.599	4.41
297.97	4.45
298.34	4.43
298.711	4.44
299.082	4.21
299.452	4.07
299.823	4.19
300.194	4.16
300.564	4.06
300.935	3.97
301.305	4.02
301.676	4.01
302.046	4.12
302.416	4.22
302.787	4.41
303.157	4.37
303.527	4.41
303.897	4.5
304.267	4.73
304.637	4.68
305.008	4.62
305.378	4.91
305.748	4.9
306.117	4.88
306.487	4.84
306.857	4.91
307.227	5.07
307.597	4.95
307.967	5
308.336	5.26
308.706	5.33
309.076	5.34
309.445	5.36
309.815	5.46
310.184	5.47
310.554	5.34
310.923	5.41
311.293	5.53
311.662	5.55
312.031	5.47
312.401	5.46
312.77	5.7
313.139	5.68
313.508	5.75
313.877	5.7
314.246	5.73
314.616	5.72
314.985	5.74
315.353	5.65
315.722	5.7
316.091	5.61
316.46	5.57
316.829	5.72
317.198	5.79
317.567	5.59
317.935	5.57
318.304	5.69
318.672	5.75
319.041	5.67
319.41	5.62
319.778	5.67
320.147	5.97
320.515	5.76
320.883	5.58
321.252	5.63
321.62	5.72
321.988	5.74
322.357	5.88
322.725	5.89
323.093	6.13
323.461	6.2
323.829	6.14
324.197	6.29
324.565	6.27
324.933	6.35
325.301	6.55
325.669	6.57
326.037	6.48
326.405	6.49
326.772	6.6
327.14	6.72
327.508	6.79
327.875	6.61
328.243	6.63
328.61	6.76
328.978	6.78
329.346	6.95
329.713	6.99
330.08	6.98
330.448	6.92
330.815	6.83
331.182	6.8
331.55	6.84
331.917	6.85
332.284	6.88
332.651	6.72
333.018	6.6
333.385	6.65
333.752	6.7
334.119	6.66
334.486	6.51
334.853	6.48
335.22	6.46
335.587	6.48
335.954	6.45
336.32	6.47
336.687	6.49
337.054	6.41
337.42	6.52
337.787	6.63
338.153	6.65
338.52	6.72
338.886	6.65
339.253	6.72
339.619	6.72
339.986	6.72
340.352	6.78
340.718	6.9
341.084	6.89
341.451	6.97
341.817	7.12
342.183	7.21
342.549	7.24
342.915	7.17
343.281	7.22
343.647	7.28
344.013	7.22
344.379	7.12
344.745	7.14
345.11	7
345.476	6.98
345.842	7.03
346.208	6.89
346.573	7.04
346.939	7.15
347.304	7.1
347.67	7.04
348.035	7.05
348.401	6.93
348.766	6.92
349.132	6.89
349.497	6.74
349.862	6.77
350.228	6.68
350.593	6.69
350.958	6.66
351.323	6.64
351.688	6.66
352.053	6.76
352.418	6.8
352.783	6.84
353.148	6.85
353.513	6.9
353.878	6.99
354.243	7
354.608	6.95
354.972	6.96
355.337	7.04
355.702	7.11
356.066	7.21
356.431	7.21
356.795	7.27
357.16	7.3
357.524	7.26
357.889	7.28
358.253	7.3
358.618	7.34
358.982	7.34
359.346	7.25
359.71	7.26
360.075	7.22
360.439	7.26
360.803	7.24
361.167	7.17
361.531	7.15
361.895	7.06
362.259	6.99
362.623	6.99
362.987	6.95
363.351	6.87
363.714	6.93
364.078	6.89
364.442	6.8
364.806	6.81
365.169	6.79
365.533	6.78
365.896	6.78
366.26	6.73
366.623	6.7
366.987	6.75
367.35	6.7
367.714	6.66
368.077	6.59
368.44	6.64
368.803	6.6
369.167	6.53
369.53	6.46
369.893	6.52
370.256	6.5
370.619	6.49
370.982	6.51
371.345	6.36
371.708	6.35
372.071	6.36
372.434	6.29
372.797	6.23
373.159	6.21
373.522	6.21
373.885	6.17
374.247	6.12
374.61	6.04
374.973	6.01
375.335	5.98
375.698	5.99
376.06	5.83
376.423	5.82
376.785	5.9
377.147	5.95
377.51	5.86
377.872	5.86
378.234	5.83
378.596	5.76
378.958	5.72
379.321	5.68
379.683	5.68
380.045	5.68
380.407	5.68
380.769	5.64
381.13	5.58
381.492	5.56
381.854	5.6
382.216	5.6
382.578	5.56
382.939	5.61
383.301	5.57
383.663	5.56
384.024	5.51
384.386	5.45
384.747	5.44
385.109	5.39
385.47	5.36
385.832	5.35
386.193	5.36
386.554	5.37
386.916	5.35
387.277	5.31
387.638	5.29
387.999	5.24
388.36	5.25
388.721	5.21
389.082	5.17
389.443	5.09
389.804	5.07
390.165	5.04
390.526	4.98
390.887	4.96
391.248	4.97
391.609	4.98
391.969	4.95
392.33	4.93
392.691	4.96
393.051	4.91
393.412	4.87
393.772	4.83
394.133	4.8
394.493	4.8
394.854	4.77
395.214	4.76
395.574	4.77
395.935	4.75
396.295	4.76
396.655	4.75
397.015	4.76
397.376	4.75
397.736	4.74
398.096	4.73
398.456	4.7
398.816	4.66
399.176	4.65
399.535	4.64
399.895	4.59
400.255	4.54
400.615	4.55
400.975	4.56
401.334	4.55
401.694	4.53
402.054	4.51
402.413	4.5
402.773	4.44
403.132	4.38
403.492	4.35
403.851	4.33
404.211	4.35
404.57	4.32
404.929	4.32
405.288	4.29
405.648	4.24
406.007	4.23
406.366	4.23
406.725	4.23
407.084	4.23
407.443	4.24
407.802	4.27
408.161	4.24
408.52	4.19
408.879	4.18
409.238	4.17
409.596	4.13
409.955	4.11
410.314	4.15
410.673	4.17
411.031	4.16
411.39	4.14
411.748	4.08
412.107	4.12
412.465	4.09
412.824	4.09
413.182	4.12
413.54	4.1
413.899	4.08
414.257	4.05
414.615	4.02
414.974	3.98
415.332	3.95
415.69	3.94
416.048	3.92
416.406	3.91
416.764	3.9
417.122	3.92
417.48	3.88
417.838	3.87
418.195	3.86
418.553	3.88
418.911	3.88
419.269	3.9
419.626	3.87
419.984	3.87
420.342	3.86
420.699	3.83
421.057	3.84
421.414	3.83
421.772	3.85
422.129	3.84
422.486	3.84
422.844	3.84
423.201	3.82
423.558	3.82
423.915	3.81
424.273	3.81
424.63	3.79
424.987	3.8
425.344	3.79
425.701	3.78
426.058	3.76
426.415	3.75
426.772	3.73
427.128	3.7
427.485	3.69
427.842	3.69
428.199	3.71
428.555	3.69
428.912	3.68
429.269	3.65
429.625	3.63
429.982	3.63
430.338	3.62
430.695	3.63
431.051	3.65
431.407	3.66
431.764	3.65
432.12	3.64
432.476	3.64
432.832	3.65
433.189	3.66
433.545	3.66
433.901	3.66
434.257	3.67
434.613	3.7
434.969	3.71
435.325	3.7
435.681	3.7
436.036	3.71
436.392	3.72
436.748	3.71
437.104	3.72
437.459	3.74
437.815	3.73
438.171	3.72
438.526	3.72
438.882	3.71
439.237	3.72
439.593	3.73
439.948	3.72
440.304	3.7
440.659	3.7
441.014	3.7
441.369	3.69
441.725	3.68
442.08	3.68
442.435	3.68
442.79	3.69
443.145	3.68
443.5	3.67
443.855	3.66
444.21	3.65
444.565	3.64
444.92	3.63
445.275	3.63
445.629	3.63
445.984	3.62
446.339	3.62
446.693	3.59
447.048	3.58
447.403	3.58
447.757	3.57
448.112	3.56
448.466	3.53
448.82	3.54
449.175	3.55
449.529	3.55
449.883	3.54
450.238	3.51
450.592	3.51
450.946	3.49
451.3	3.49
451.654	3.5
452.008	3.49
452.362	3.49
452.716	3.48
453.07	3.49
453.424	3.49
453.778	3.49
454.132	3.5
454.486	3.49
454.839	3.48
455.193	3.5
455.547	3.5
455.9	3.52
456.254	3.49
456.607	3.48
456.961	3.45
457.314	3.44
457.668	3.47
458.021	3.46
458.375	3.49
458.728	3.49
459.081	3.47
459.434	3.47
459.787	3.47
460.141	3.47
460.494	3.46
460.847	3.47
461.2	3.46
461.553	3.47
461.906	3.49
462.259	3.52
462.611	3.52
462.964	3.53
463.317	3.51
463.67	3.54
464.022	3.57
464.375	3.58
464.728	3.6
465.08	3.6
465.433	3.61
465.785	3.6
466.138	3.62
466.49	3.66
466.843	3.67
467.195	3.71
467.547	3.72
467.899	3.72
468.252	3.72
468.604	3.72
468.956	3.73
469.308	3.73
469.66	3.71
470.012	3.71
470.364	3.72
470.716	3.74
471.068	3.73
471.42	3.71
471.772	3.74
472.123	3.73
472.475	3.75
472.827	3.74
473.178	3.76
473.53	3.74
473.882	3.71
474.233	3.72
474.585	3.68
474.936	3.65
475.288	3.64
475.639	3.64
475.99	3.67
476.342	3.65
476.693	3.67
477.044	3.68
477.395	3.67
477.746	3.66
478.097	3.64
478.448	3.64
478.8	3.63
479.15	3.59
479.501	3.61
479.852	3.58
480.203	3.58
480.554	3.59
480.905	3.58
481.255	3.59
481.606	3.59
481.957	3.61
482.307	3.62
482.658	3.64
483.009	3.64
483.359	3.64
483.709	3.65
484.06	3.65
484.41	3.66
484.761	3.66
485.111	3.67
485.461	3.67
485.811	3.67
486.162	3.69
486.512	3.7
486.862	3.7
487.212	3.71
487.562	3.72
487.912	3.72
488.262	3.72
488.612	3.73
488.961	3.74
489.311	3.74
489.661	3.74
490.011	3.74
490.36	3.73
490.71	3.74
491.06	3.75
491.409	3.74
491.759	3.74
492.108	3.75
492.458	3.75
492.807	3.77
493.157	3.79
493.506	3.78
493.855	3.8
494.204	3.81
494.554	3.83
494.903	3.82
495.252	3.84
495.601	3.86
495.95	3.89
496.299	3.89
496.648	3.9
496.997	3.92
497.346	3.96
497.695	3.99
498.043	4.02
498.392	4.02
498.741	4.04
499.09	4.07
499.438	4.08
499.787	4.1
500.135	4.12
500.484	4.14
500.832	4.17
501.181	4.18
501.529	4.22
501.878	4.26
502.226	4.31
502.574	4.33
502.923	4.37
503.271	4.4
503.619	4.46
503.967	4.51
504.315	4.55
504.663	4.59
505.011	4.64
505.359	4.68
505.707	4.75
506.055	4.8
506.403	4.84
506.751	4.92
507.098	4.99
507.446	5.02
507.794	5.05
508.141	5.12
508.489	5.17
508.837	5.23
509.184	5.28
509.531	5.33
509.879	5.42
510.226	5.46
510.574	5.5
510.921	5.52
511.268	5.57
511.616	5.63
511.963	5.69
512.31	5.75
512.657	5.82
513.004	5.89
513.351	5.98
513.698	6.05
514.045	6.09
514.392	6.16
514.739	6.25
515.086	6.33
515.432	6.39
515.779	6.45
516.126	6.5
516.473	6.58
516.819	6.67
517.166	6.72
517.512	6.79
517.859	6.86
518.205	6.94
518.552	7.02
518.898	7.07
519.245	7.14
519.591	7.2
519.937	7.25
520.283	7.31
520.629	7.38
520.976	7.46
521.322	7.54
521.668	7.62
522.014	7.71
522.36	7.84
522.706	7.95
523.052	8.1
523.398	8.24
523.743	8.36
524.089	8.49
524.435	8.59
524.781	8.72
525.126	8.84
525.472	8.94
525.817	9.05
526.163	9.14
526.509	9.25
526.854	9.34
527.199	9.42
527.545	9.52
527.89	9.61
528.235	9.71
528.581	9.82
528.926	9.91
529.271	10.01
529.616	10.12
529.961	10.21
530.306	10.31
530.651	10.42
530.996	10.54
531.341	10.67
531.686	10.82
532.031	10.97
532.376	11.13
532.721	11.29
533.065	11.44
533.41	11.6
533.755	11.76
534.099	11.95
534.444	12.14
534.788	12.3
535.133	12.48
535.477	12.64
535.822	12.83
536.166	13.04
536.51	13.25
536.855	13.49
537.199	13.75
537.543	14.02
537.887	14.26
538.231	14.53
538.576	14.79
538.92	15.05
539.264	15.29
539.608	15.53
539.951	15.76
540.295	15.96
540.639	16.19
540.983	16.42
541.327	16.64
541.671	16.88
542.014	17.11
542.358	17.33
542.701	17.58
543.045	17.81
543.389	18.07
543.732	18.31
544.075	18.55
544.419	18.8
544.762	19.05
545.105	19.32
545.449	19.61
545.792	19.9
546.135	20.19
546.478	20.54
546.821	20.86
547.165	21.22
547.508	21.6
547.851	21.95
548.194	22.27
548.536	22.6
548.879	22.95
549.222	23.3
549.565	23.65
549.908	23.99
550.25	24.34
550.593	24.67
550.936	25.03
551.278	25.35
551.621	25.73
551.963	26.1
552.306	26.45
552.648	26.78
552.991	27.2
553.333	27.54
553.675	27.87
554.017	28.21
554.36	28.54
554.702	28.85
555.044	29.17
555.386	29.55
555.728	29.84
556.07	30.16
556.412	30.45
556.754	30.76
557.096	31.09
557.438	31.39
557.78	31.69
558.121	32.03
558.463	32.41
558.805	32.72
559.147	33.04
559.488	33.37
559.83	33.67
560.171	33.92
560.513	34.27
560.854	34.57
561.196	34.9
561.537	35.21
561.878	35.47
562.22	35.79
562.561	36.1
562.902	36.46
563.243	36.74
563.584	37.04
563.925	37.36
564.266	37.59
564.607	37.86
564.948	38.16
565.289	38.44
565.63	38.63
565.971	38.81
566.312	39.11
566.653	39.33
566.993	39.59
567.334	39.79
567.675	40.03
568.015	40.24
568.356	40.44
568.696	40.64
569.037	40.93
569.377	41.15
569.718	41.32
570.058	41.51
570.398	41.74
570.739	41.9
571.079	42.13
571.419	42.4
571.759	42.6
572.099	42.8
572.439	42.95
572.779	43.16
573.119	43.39
573.459	43.5
573.799	43.71
574.139	43.85
574.479	44.07
574.819	44.18
575.158	44.35
575.498	44.52
575.838	44.74
576.177	44.86
576.517	45.05
576.856	45.21
577.196	45.4
577.535	45.56
577.875	45.82
578.214	45.98
578.553	46.11
578.893	46.3
579.232	46.48
579.571	46.74
579.91	46.87
580.25	47.02
580.589	47.24
580.928	47.39
581.267	47.52
581.606	47.68
581.945	47.89
582.283	48.06
582.622	48.24
582.961	48.33
583.3	48.51
583.639	48.63
583.977	48.87
584.316	49.04
584.654	49.13
584.993	49.32
585.332	49.5
585.67	49.58
586.008	49.75
586.347	49.89
586.685	50
587.024	50.16
587.362	50.33
587.7	50.45
588.038	50.66
588.376	50.74
588.715	50.83
589.053	50.98
589.391	51.11
589.729	51.21
590.067	51.34
590.404	51.49
590.742	51.62
591.08	51.66
591.418	51.73
591.756	51.9
592.093	51.95
592.431	51.97
592.769	52.11
593.106	52.18
593.444	52.25
593.781	52.34
594.119	52.51
594.456	52.53
594.793	52.56
595.131	52.55
595.468	52.74
595.805	52.85
596.143	52.9
596.48	52.94
596.817	53.05
597.154	53.17
597.491	53.25
597.828	53.33
598.165	53.46
598.502	53.49
598.839	53.54
599.176	53.61
599.512	53.75
599.849	53.89
600.186	53.97
600.523	54.14
600.859	54.22
601.196	54.24
601.532	54.34
601.869	54.47
602.205	54.6
602.542	54.68
602.878	54.78
603.215	54.84
603.551	54.98
603.887	55.04
604.223	55.06
604.56	55.17
604.896	55.17
605.232	55.28
605.568	55.41
605.904	55.46
606.24	55.5
606.576	55.58
606.912	55.6
607.248	55.74
607.583	55.74
607.919	55.76
608.255	55.87
608.591	56.04
608.926	56.16
609.262	56.23
609.597	56.28
609.933	56.28
610.268	56.34
610.604	56.4
610.939	56.47
611.275	56.59
611.61	56.54
611.945	56.67
612.281	56.67
612.616	56.76
612.951	56.94
613.286	57.08
613.621	57.16
613.956	57.3
614.291	57.24
614.626	57.34
614.961	57.45
615.296	57.48
615.631	57.5
615.966	57.54
616.3	57.62
616.635	57.62
616.97	57.69
617.304	57.78
617.639	57.79
617.973	57.93
618.308	57.89
618.642	57.92
618.977	58.04
619.311	58.04
619.646	57.98
619.98	57.96
620.314	58.07
620.648	58.12
620.983	58.08
621.317	58.17
621.651	58.17
621.985	58.2
622.319	58.24
622.653	58.29
622.987	58.28
623.321	58.27
623.655	58.36
623.988	58.43
624.322	58.49
624.656	58.54
624.99	58.44
625.323	58.43
625.657	58.51
625.99	58.5
626.324	58.52
626.657	58.59
626.991	58.68
627.324	58.63
627.658	58.6
627.991	58.7
628.324	58.76
628.657	58.84
628.991	58.99
629.324	59.02
629.657	58.99
629.99	59.04
630.323	59.05
630.656	59.07
630.989	59.1
631.322	59.09
631.655	59.11
631.987	59.12
632.32	59.21
632.653	59.3
632.986	59.39
633.318	59.56
633.651	59.65
633.984	59.65
634.316	59.72
634.649	59.77
634.981	59.72
635.313	59.76
635.646	59.84
635.978	59.79
636.31	59.85
636.643	59.97
636.975	60.03
637.307	60.21
637.639	60.16
637.971	60.21
638.303	60.3
638.635	60.36
638.967	60.43
639.299	60.49
639.631	60.51
639.963	60.48
640.295	60.4
640.626	60.41
640.958	60.47
641.29	60.42
641.621	60.5
641.953	60.67
642.285	60.75
642.616	60.78
642.948	60.81
643.279	60.85
643.61	60.76
643.942	60.84
644.273	60.83
644.604	60.93
644.936	61.09
645.267	61
645.598	60.99
645.929	61.04
646.26	61.08
646.591	61.01
646.922	61.05
647.253	61.05
647.584	61.01
647.915	60.94
648.245	60.99
648.576	60.86
648.907	60.93
649.238	60.95
649.568	60.95
649.899	60.94
650.229	61.1
650.56	61.11
650.89	61.07
651.221	61.08
651.551	61.02
651.882	60.94
652.212	61.08
652.542	61.1
652.872	61.16
653.203	61.27
653.533	61.49
653.863	61.56
654.193	61.67
654.523	61.85
654.853	61.84
655.183	61.92
655.513	62.18
655.843	62.1
656.172	62.05
656.502	62.04
656.832	62.09
657.162	62.09
657.491	62.25
657.821	62.35
658.15	62.44
658.48	62.58
658.809	62.66
659.139	62.58
659.468	62.54
659.798	62.58
660.127	62.59
660.456	62.5
660.785	62.49
661.115	62.52
661.444	62.44
661.773	62.59
662.102	62.6
662.431	62.58
662.76	62.61
663.089	62.59
663.418	62.6
663.747	62.48
664.076	62.42
664.404	62.45
664.733	62.39
665.062	62.43
665.39	62.41
665.719	62.3
666.048	62.41
