Data from BA28417_Reflection_00014.txt Node
Date: Mon Nov 18 16:11:25 EST 2019
User: vgr7
Spectrometer: USB2G7710
Scans to average: 3
Trigger mode: 4
Integration Time (sec): 2.000000E-2
Electric dark correction enabled: true
Boxcar width: 10
XAxis mode: Wavelengths
Number of Pixels in Spectrum: 2048
>>>>>Begin Spectral Data<<<<<
177.721	116.92
178.105	114.16
178.488	47.3
178.871	42.88
179.254	34.58
179.636	-293.7
180.019	-17.33
180.402	166.67
180.785	300.9
181.168	-1194.12
181.55	-95.07
181.933	177.73
182.316	145.7
182.698	155.22
183.081	182.35
183.463	266.85
183.846	176.59
184.228	304.57
184.611	303.69
184.993	675.64
185.376	1442.21
185.758	1601.99
186.14	2791.28
186.522	629.24
186.904	1186.46
187.287	1049.9
187.669	-5355.7
188.051	-1006.78
188.433	-428.05
188.815	-148.18
189.197	-178.69
189.579	-209.37
189.961	-218.2
190.342	-201.42
190.724	-157.94
191.106	-198
191.488	-174.64
191.869	-130.48
192.251	-116.62
192.633	-123.4
193.014	-248.56
193.396	-550.21
193.777	-348.66
194.159	-286.77
194.54	-146.61
194.922	-147.5
195.303	-93.61
195.684	-93.4
196.065	-66.95
196.447	-63.68
196.828	-148.81
197.209	-136.04
197.59	-167.06
197.971	-148.69
198.352	-111.76
198.733	-91.19
199.114	-85.77
199.495	-102.8
199.876	-123.18
200.257	-105.49
200.638	-86.19
201.018	-81.79
201.399	-56.97
201.78	-54.17
202.16	-68.4
202.541	-106.09
202.922	-122.86
203.302	-133.77
203.683	-191.35
204.063	-240.68
204.444	-262.42
204.824	-236.51
205.204	-190.06
205.585	-199.96
205.965	-179.71
206.345	-215
206.725	-281.24
207.106	-285.44
207.486	-416.92
207.866	-338.19
208.246	-260.57
208.626	-288.08
209.006	-193.65
209.386	-312.85
209.766	-348.51
210.145	-258.28
210.525	-178.14
210.905	-124.85
211.285	-128.89
211.664	-82.24
212.044	-81.79
212.424	-78.28
212.803	-98.39
213.183	-109.37
213.562	-69.86
213.942	-67.21
214.321	-54.32
214.701	-62.91
215.08	-84.59
215.459	-65.78
215.838	-71.55
216.218	-75.99
216.597	-62.55
216.976	-66.59
217.355	-32.28
217.734	-33.73
218.113	-30.25
218.492	-32.77
218.871	-139.72
219.25	-156.59
219.629	-219.08
220.008	-347.72
220.387	-654.51
220.766	-2178.35
221.144	1401.68
221.523	976.83
221.902	770.64
222.28	754.08
222.659	493.26
223.037	16276.47
223.416	5951.06
223.794	-425.16
224.173	-310.95
224.551	-162.6
224.929	-126.39
225.308	-86.83
225.686	-74.13
226.064	-52.01
226.442	-43.53
226.821	-35.17
227.199	-30.83
227.577	-31.87
227.955	-29.06
228.333	-28.23
228.711	-20.95
229.089	-11.89
229.467	-12.59
229.845	-14.43
230.222	-10.28
230.6	-13.28
230.978	-12.03
231.356	-9.07
231.733	-7.68
232.111	-5.2
232.488	-4.48
232.866	-2.69
233.243	-5.01
233.621	-4.81
233.998	-4.28
234.376	-3.15
234.753	-3.54
235.13	-3.15
235.508	-2.16
235.885	-0.59
236.262	0.17
236.639	0.13
237.016	-0.59
237.393	1.34
237.77	3.03
238.147	3.52
238.524	4.17
238.901	4.78
239.278	4.73
239.655	5.12
240.032	5.13
240.409	4.65
240.785	4.36
241.162	4.98
241.539	4.98
241.915	4.5
242.292	4.19
242.668	4.54
243.045	4.35
243.421	4.75
243.798	4.33
244.174	4.4
244.551	4.53
244.927	4.61
245.303	4.9
245.679	4.78
246.056	4.48
246.432	4.62
246.808	4.52
247.184	4.45
247.56	4.25
247.936	4.33
248.312	4.51
248.688	4.58
249.064	4.49
249.44	4.65
249.815	4.72
250.191	4.81
250.567	4.77
250.943	4.9
251.318	4.93
251.694	5.02
252.069	4.98
252.445	4.99
252.82	4.65
253.196	4.33
253.571	4.4
253.947	4.63
254.322	4.79
254.697	4.73
255.073	4.38
255.448	4.37
255.823	4.1
256.198	4.2
256.573	4.22
256.948	3.9
257.323	3.92
257.698	3.92
258.073	3.9
258.448	3.8
258.823	3.75
259.198	3.54
259.573	3.53
259.948	3.51
260.322	3.46
260.697	3.51
261.072	3.51
261.446	3.5
261.821	3.45
262.195	3.42
262.57	3.47
262.944	3.63
263.319	3.74
263.693	3.8
264.067	3.58
264.442	3.49
264.816	3.63
265.19	3.53
265.564	3.54
265.938	3.43
266.313	3.47
266.687	3.52
267.061	3.75
267.435	3.78
267.809	3.91
268.183	4.08
268.556	4.19
268.93	4.24
269.304	4.21
269.678	4.25
270.051	4.16
270.425	4.03
270.799	3.98
271.172	3.78
271.546	3.78
271.919	3.7
272.293	3.67
272.666	3.79
273.04	3.78
273.413	3.72
273.787	3.86
274.16	3.81
274.533	3.79
274.906	3.77
275.279	3.79
275.653	3.69
276.026	3.41
276.399	3.31
276.772	3.29
277.145	3.22
277.518	3.15
277.891	3.18
278.263	3.14
278.636	3.17
279.009	3.37
279.382	3.48
279.755	3.42
280.127	3.61
280.5	3.54
280.872	3.69
281.245	3.7
281.617	3.76
281.99	3.8
282.362	3.83
282.735	3.69
283.107	3.65
283.479	3.7
283.852	3.85
284.224	3.82
284.596	3.86
284.968	4.02
285.34	4.02
285.713	3.96
286.085	4.03
286.457	4.12
286.829	3.99
287.201	3.89
287.572	3.91
287.944	3.81
288.316	3.96
288.688	3.94
289.06	3.94
289.431	3.81
289.803	3.91
290.175	3.94
290.546	4.17
290.918	4.17
291.289	4.21
291.661	4.34
292.032	4.55
292.403	4.59
292.775	4.63
293.146	4.75
293.517	4.85
293.889	4.95
294.26	4.95
294.631	5.13
295.002	5.17
295.373	5.3
295.744	5.35
296.115	5.33
296.486	5.18
296.857	5.25
297.228	5.44
297.599	5.46
297.97	5.48
298.34	5.36
298.711	5.47
299.082	5.46
299.452	5.4
299.823	5.39
300.194	5.32
300.564	5.31
300.935	5.41
301.305	5.45
301.676	5.48
302.046	5.45
302.416	5.47
302.787	5.52
303.157	5.5
303.527	5.63
303.897	5.67
304.267	5.89
304.637	6.02
305.008	6.01
305.378	6.1
305.748	6.19
306.117	6.33
306.487	6.48
306.857	6.67
307.227	6.67
307.597	6.74
307.967	6.82
308.336	6.85
308.706	6.87
309.076	6.98
309.445	7.04
309.815	7.14
310.184	7.2
310.554	7.33
310.923	7.5
311.293	7.49
311.662	7.46
312.031	7.48
312.401	7.53
312.77	7.66
313.139	7.68
313.508	7.7
313.877	7.64
314.246	7.63
314.616	7.53
314.985	7.63
315.353	7.56
315.722	7.86
316.091	7.89
316.46	7.89
316.829	8.02
317.198	8.1
317.567	8.17
317.935	8.07
318.304	8.06
318.672	8
319.041	8.13
319.41	8.22
319.778	8.33
320.147	8.38
320.515	8.44
320.883	8.66
321.252	8.89
321.62	9.09
321.988	9.05
322.357	9.26
322.725	9.43
323.093	9.64
323.461	9.67
323.829	9.92
324.197	10.11
324.565	10.14
324.933	10.19
325.301	10.15
325.669	10.19
326.037	10.3
326.405	10.49
326.772	10.53
327.14	10.58
327.508	10.6
327.875	10.52
328.243	10.47
328.61	10.4
328.978	10.31
329.346	10.38
329.713	10.45
330.08	10.35
330.448	10.29
330.815	10.28
331.182	10.22
331.55	9.99
331.917	10.02
332.284	10.06
332.651	9.98
333.018	10.01
333.385	10.19
333.752	10.2
334.119	10.15
334.486	10.12
334.853	10.18
335.22	10.21
335.587	10.34
335.954	10.48
336.32	10.61
336.687	10.61
337.054	10.58
337.42	10.7
337.787	10.85
338.153	10.96
338.52	11.03
338.886	11.05
339.253	11.23
339.619	11.21
339.986	11.14
340.352	11.35
340.718	11.57
341.084	11.61
341.451	11.67
341.817	11.76
342.183	11.85
342.549	11.84
342.915	11.85
343.281	11.9
343.647	11.89
344.013	11.91
344.379	11.88
344.745	11.93
345.11	11.99
345.476	12
345.842	11.97
346.208	12.09
346.573	12.2
346.939	12.3
347.304	12.25
347.67	12.32
348.035	12.21
348.401	12.22
348.766	12.29
349.132	12.28
349.497	12.27
349.862	12.36
350.228	12.4
350.593	12.44
350.958	12.41
351.323	12.39
351.688	12.38
352.053	12.52
352.418	12.54
352.783	12.42
353.148	12.29
353.513	12.37
353.878	12.29
354.243	12.24
354.608	12.15
354.972	12.22
355.337	12.17
355.702	12.27
356.066	12.35
356.431	12.26
356.795	12.31
357.16	12.19
357.524	12.07
357.889	11.99
358.253	12.01
358.618	12.06
358.982	11.94
359.346	11.83
359.71	11.75
360.075	11.67
360.439	11.67
360.803	11.71
361.167	11.63
361.531	11.56
361.895	11.47
362.259	11.41
362.623	11.37
362.987	11.35
363.351	11.34
363.714	11.26
364.078	11.22
364.442	11.14
364.806	11.11
365.169	11.1
365.533	11.09
365.896	11.07
366.26	10.93
366.623	10.9
366.987	10.87
367.35	10.83
367.714	10.82
368.077	10.78
368.44	10.74
368.803	10.67
369.167	10.65
369.53	10.61
369.893	10.58
370.256	10.51
370.619	10.52
370.982	10.35
371.345	10.18
371.708	10.11
372.071	10.05
372.434	9.98
372.797	9.87
373.159	9.86
373.522	9.71
373.885	9.67
374.247	9.68
374.61	9.65
374.973	9.54
375.335	9.48
375.698	9.41
376.06	9.25
376.423	9.22
376.785	9.17
377.147	9.12
377.51	9.06
377.872	9.01
378.234	8.87
378.596	8.87
378.958	8.78
379.321	8.79
379.683	8.75
380.045	8.72
380.407	8.72
380.769	8.63
381.13	8.62
381.492	8.56
381.854	8.51
382.216	8.44
382.578	8.45
382.939	8.38
383.301	8.35
383.663	8.39
384.024	8.34
384.386	8.33
384.747	8.27
385.109	8.22
385.47	8.12
385.832	8.1
386.193	8.09
386.554	8.09
386.916	7.98
387.277	7.95
387.638	7.91
387.999	7.8
388.36	7.77
388.721	7.7
389.082	7.67
389.443	7.61
389.804	7.54
390.165	7.47
390.526	7.45
390.887	7.39
391.248	7.34
391.609	7.29
391.969	7.21
392.33	7.2
392.691	7.2
393.051	7.17
393.412	7.16
393.772	7.06
394.133	7.02
394.493	6.97
394.854	6.9
395.214	6.87
395.574	6.9
395.935	6.8
396.295	6.79
396.655	6.72
397.015	6.68
397.376	6.69
397.736	6.63
398.096	6.6
398.456	6.57
398.816	6.51
399.176	6.43
399.535	6.37
399.895	6.31
400.255	6.23
400.615	6.19
400.975	6.12
401.334	6.08
401.694	6.05
402.054	6.02
402.413	6.02
402.773	5.95
403.132	5.87
403.492	5.89
403.851	5.83
404.211	5.83
404.57	5.77
404.929	5.74
405.288	5.73
405.648	5.66
406.007	5.63
406.366	5.6
406.725	5.6
407.084	5.6
407.443	5.6
407.802	5.56
408.161	5.54
408.52	5.51
408.879	5.5
409.238	5.45
409.596	5.43
409.955	5.38
410.314	5.39
410.673	5.32
411.031	5.28
411.39	5.27
411.748	5.24
412.107	5.22
412.465	5.15
412.824	5.13
413.182	5.13
413.54	5.11
413.899	5.14
414.257	5.12
414.615	5.07
414.974	5.01
415.332	4.99
415.69	4.95
416.048	4.91
416.406	4.89
416.764	4.89
417.122	4.88
417.48	4.86
417.838	4.84
418.195	4.85
418.553	4.84
418.911	4.82
419.269	4.81
419.626	4.79
419.984	4.79
420.342	4.75
420.699	4.73
421.057	4.71
421.414	4.66
421.772	4.64
422.129	4.63
422.486	4.62
422.844	4.6
423.201	4.6
423.558	4.59
423.915	4.56
424.273	4.54
424.63	4.51
424.987	4.5
425.344	4.47
425.701	4.46
426.058	4.45
426.415	4.44
426.772	4.4
427.128	4.39
427.485	4.38
427.842	4.38
428.199	4.36
428.555	4.33
428.912	4.34
429.269	4.32
429.625	4.32
429.982	4.3
430.338	4.28
430.695	4.27
431.051	4.26
431.407	4.28
431.764	4.26
432.12	4.25
432.476	4.24
432.832	4.25
433.189	4.24
433.545	4.22
433.901	4.2
434.257	4.22
434.613	4.21
434.969	4.21
435.325	4.22
435.681	4.21
436.036	4.21
436.392	4.2
436.748	4.19
437.104	4.2
437.459	4.21
437.815	4.22
438.171	4.21
438.526	4.22
438.882	4.21
439.237	4.23
439.593	4.23
439.948	4.23
440.304	4.23
440.659	4.23
441.014	4.24
441.369	4.22
441.725	4.2
442.08	4.19
442.435	4.19
442.79	4.15
443.145	4.16
443.5	4.16
443.855	4.13
444.21	4.13
444.565	4.11
444.92	4.11
445.275	4.1
445.629	4.08
445.984	4.05
446.339	4.03
446.693	4
447.048	3.99
447.403	3.97
447.757	3.95
448.112	3.93
448.466	3.92
448.82	3.92
449.175	3.92
449.529	3.92
449.883	3.89
450.238	3.9
450.592	3.88
450.946	3.87
451.3	3.86
451.654	3.86
452.008	3.85
452.362	3.82
452.716	3.82
453.07	3.84
453.424	3.85
453.778	3.85
454.132	3.84
454.486	3.84
454.839	3.84
455.193	3.85
455.547	3.83
455.9	3.84
456.254	3.85
456.607	3.85
456.961	3.84
457.314	3.85
457.668	3.85
458.021	3.84
458.375	3.84
458.728	3.86
459.081	3.85
459.434	3.86
459.787	3.87
460.141	3.88
460.494	3.89
460.847	3.89
461.2	3.9
461.553	3.93
461.906	3.94
462.259	3.97
462.611	3.99
462.964	4.03
463.317	4.04
463.67	4.07
464.022	4.08
464.375	4.1
464.728	4.13
465.08	4.15
465.433	4.18
465.785	4.19
466.138	4.21
466.49	4.22
466.843	4.23
467.195	4.24
467.547	4.28
467.899	4.28
468.252	4.31
468.604	4.32
468.956	4.32
469.308	4.33
469.66	4.34
470.012	4.35
470.364	4.34
470.716	4.34
471.068	4.34
471.42	4.36
471.772	4.36
472.123	4.37
472.475	4.38
472.827	4.38
473.178	4.41
473.53	4.41
473.882	4.42
474.233	4.43
474.585	4.44
474.936	4.42
475.288	4.41
475.639	4.42
475.99	4.43
476.342	4.43
476.693	4.43
477.044	4.42
477.395	4.4
477.746	4.39
478.097	4.39
478.448	4.37
478.8	4.35
479.15	4.33
479.501	4.32
479.852	4.32
480.203	4.31
480.554	4.3
480.905	4.29
481.255	4.29
481.606	4.29
481.957	4.3
482.307	4.29
482.658	4.29
483.009	4.28
483.359	4.28
483.709	4.29
484.06	4.29
484.41	4.29
484.761	4.29
485.111	4.29
485.461	4.29
485.811	4.29
486.162	4.31
486.512	4.32
486.862	4.32
487.212	4.32
487.562	4.33
487.912	4.34
488.262	4.35
488.612	4.36
488.961	4.36
489.311	4.37
489.661	4.39
490.011	4.4
490.36	4.4
490.71	4.41
491.06	4.43
491.409	4.45
491.759	4.47
492.108	4.48
492.458	4.52
492.807	4.54
493.157	4.57
493.506	4.59
493.855	4.6
494.204	4.63
494.554	4.67
494.903	4.7
495.252	4.73
495.601	4.78
495.95	4.83
496.299	4.89
496.648	4.93
496.997	4.97
497.346	5.03
497.695	5.1
498.043	5.16
498.392	5.19
498.741	5.25
499.09	5.3
499.438	5.37
499.787	5.42
500.135	5.5
500.484	5.58
500.832	5.66
501.181	5.73
501.529	5.81
501.878	5.89
502.226	5.99
502.574	6.09
502.923	6.16
503.271	6.23
503.619	6.32
503.967	6.41
504.315	6.51
504.663	6.61
505.011	6.72
505.359	6.83
505.707	6.93
506.055	7.04
506.403	7.15
506.751	7.27
507.098	7.38
507.446	7.5
507.794	7.61
508.141	7.73
508.489	7.84
508.837	7.98
509.184	8.08
509.531	8.19
509.879	8.3
510.226	8.42
510.574	8.54
510.921	8.67
511.268	8.8
511.616	8.94
511.963	9.07
512.31	9.18
512.657	9.34
513.004	9.48
513.351	9.62
513.698	9.78
514.045	9.93
514.392	10.1
514.739	10.24
515.086	10.42
515.432	10.59
515.779	10.74
516.126	10.86
516.473	11.04
516.819	11.2
517.166	11.36
517.512	11.51
517.859	11.67
518.205	11.78
518.552	11.91
518.898	12.02
519.245	12.17
519.591	12.3
519.937	12.43
520.283	12.59
520.629	12.76
520.976	12.92
521.322	13.09
521.668	13.27
522.014	13.43
522.36	13.62
522.706	13.79
523.052	14.04
523.398	14.3
523.743	14.52
524.089	14.76
524.435	14.98
524.781	15.21
525.126	15.45
525.472	15.67
525.817	15.88
526.163	16.06
526.509	16.22
526.854	16.4
527.199	16.56
527.545	16.72
527.89	16.86
528.235	17.03
528.581	17.22
528.926	17.38
529.271	17.57
529.616	17.77
529.961	17.96
530.306	18.16
530.651	18.36
530.996	18.57
531.341	18.79
531.686	19.02
532.031	19.24
532.376	19.47
532.721	19.72
533.065	19.96
533.41	20.24
533.755	20.53
534.099	20.82
534.444	21.1
534.788	21.36
535.133	21.63
535.477	21.91
535.822	22.19
536.166	22.51
536.51	22.82
536.855	23.15
537.199	23.51
537.543	23.88
537.887	24.26
538.231	24.65
538.576	25.08
538.92	25.47
539.264	25.84
539.608	26.16
539.951	26.5
540.295	26.84
540.639	27.15
540.983	27.44
541.327	27.74
541.671	28.05
542.014	28.4
542.358	28.72
542.701	29.04
543.045	29.34
543.389	29.66
543.732	29.99
544.075	30.3
544.419	30.61
544.762	30.93
545.105	31.25
545.449	31.6
545.792	31.92
546.135	32.27
546.478	32.67
546.821	33.12
547.165	33.53
547.508	33.95
547.851	34.38
548.194	34.84
548.536	35.23
548.879	35.64
549.222	36.03
549.565	36.45
549.908	36.8
550.25	37.22
550.593	37.56
550.936	37.97
551.278	38.37
551.621	38.81
551.963	39.23
552.306	39.66
552.648	40.06
552.991	40.49
553.333	40.89
553.675	41.26
554.017	41.64
554.36	42.06
554.702	42.45
555.044	42.82
555.386	43.1
555.728	43.51
556.07	43.88
556.412	44.23
556.754	44.58
557.096	45.03
557.438	45.39
557.78	45.83
558.121	46.21
558.463	46.59
558.805	46.93
559.147	47.22
559.488	47.59
559.83	47.96
560.171	48.22
560.513	48.54
560.854	48.84
561.196	49.12
561.537	49.38
561.878	49.58
562.22	49.84
562.561	50.17
562.902	50.53
563.243	50.78
563.584	51.06
563.925	51.31
564.266	51.61
564.607	51.93
564.948	52.2
565.289	52.42
565.63	52.67
565.971	52.89
566.312	53.18
566.653	53.37
566.993	53.54
567.334	53.81
567.675	53.98
568.015	54.27
568.356	54.49
568.696	54.75
569.037	55
569.377	55.28
569.718	55.54
570.058	55.69
570.398	55.89
570.739	56.15
571.079	56.41
571.419	56.58
571.759	56.76
572.099	56.94
572.439	57.15
572.779	57.33
573.119	57.58
573.459	57.74
573.799	57.98
574.139	58.18
574.479	58.3
574.819	58.54
575.158	58.7
575.498	58.9
575.838	59.09
576.177	59.26
576.517	59.4
576.856	59.52
577.196	59.71
577.535	59.9
577.875	60.04
578.214	60.12
578.553	60.31
578.893	60.43
579.232	60.6
579.571	60.77
579.91	60.96
580.25	61.01
580.589	61.2
580.928	61.34
581.267	61.52
581.606	61.74
581.945	61.88
582.283	62.02
582.622	62.16
582.961	62.24
583.3	62.39
583.639	62.55
583.977	62.66
584.316	62.75
584.654	62.88
584.993	62.99
585.332	63.2
585.67	63.33
586.008	63.47
586.347	63.6
586.685	63.7
587.024	63.8
587.362	63.91
587.7	64
588.038	64.13
588.376	64.17
588.715	64.23
589.053	64.36
589.391	64.4
589.729	64.5
590.067	64.72
590.404	64.83
590.742	64.86
591.08	64.99
591.418	65.06
591.756	65.11
592.093	65.18
592.431	65.21
592.769	65.29
593.106	65.47
593.444	65.48
593.781	65.58
594.119	65.71
594.456	65.76
594.793	65.82
595.131	65.81
595.468	65.84
595.805	65.89
596.143	65.92
596.48	66.02
596.817	66.03
597.154	66.01
597.491	66.06
597.828	66.08
598.165	66.09
598.502	66.2
598.839	66.31
599.176	66.35
599.512	66.44
599.849	66.48
600.186	66.45
600.523	66.59
600.859	66.67
601.196	66.63
601.532	66.72
601.869	66.72
602.205	66.89
602.542	67.03
602.878	67.08
603.215	67.08
603.551	67.06
603.887	67.12
604.223	67.11
604.56	67.15
604.896	67.25
605.232	67.33
605.568	67.41
605.904	67.43
606.24	67.53
606.576	67.57
606.912	67.64
607.248	67.61
607.583	67.64
607.919	67.65
608.255	67.86
608.591	67.95
608.926	68.1
609.262	68.08
609.597	68.1
609.933	68.22
610.268	68.31
610.604	68.37
610.939	68.38
611.275	68.44
611.61	68.55
611.945	68.56
612.281	68.55
612.616	68.56
612.951	68.55
613.286	68.61
613.621	68.67
613.956	68.7
614.291	68.89
614.626	68.9
614.961	68.9
615.296	68.82
615.631	68.86
615.966	68.99
616.3	69.06
616.635	69.1
616.97	68.98
617.304	68.92
617.639	68.95
617.973	69.17
618.308	69.27
618.642	69.28
618.977	69.32
619.311	69.4
619.646	69.39
619.98	69.58
620.314	69.63
620.648	69.71
620.983	69.72
621.317	69.7
621.651	69.76
621.985	69.88
622.319	69.92
622.653	69.98
622.987	69.9
623.321	69.89
623.655	69.91
623.988	70.06
624.322	70.19
624.656	70.29
624.99	70.17
625.323	70.18
625.657	70.22
625.99	70.23
626.324	70.23
626.657	70.28
626.991	70.2
627.324	70.17
627.658	70.15
627.991	70.26
628.324	70.29
628.657	70.27
628.991	70.29
629.324	70.31
629.657	70.22
629.99	70.25
630.323	70.25
630.656	70.26
630.989	70.31
631.322	70.3
631.655	70.33
631.987	70.36
632.32	70.33
632.653	70.22
632.986	70.28
633.318	70.28
633.651	70.3
633.984	70.3
634.316	70.36
634.649	70.35
634.981	70.38
635.313	70.42
635.646	70.52
635.978	70.58
636.31	70.48
636.643	70.51
636.975	70.44
637.307	70.51
637.639	70.49
637.971	70.44
638.303	70.49
638.635	70.41
638.967	70.46
639.299	70.51
639.631	70.49
639.963	70.49
640.295	70.54
640.626	70.58
640.958	70.68
641.29	70.55
641.621	70.62
641.953	70.45
642.285	70.43
642.616	70.43
642.948	70.35
643.279	70.49
643.61	70.49
643.942	70.49
644.273	70.47
644.604	70.47
644.936	70.51
645.267	70.46
645.598	70.48
645.929	70.42
646.26	70.46
646.591	70.61
646.922	70.75
647.253	70.78
647.584	70.79
647.915	70.75
648.245	70.78
648.576	70.81
648.907	70.8
649.238	70.78
649.568	70.83
649.899	70.81
650.229	70.75
650.56	70.78
650.89	70.88
651.221	71
651.551	71.19
651.882	71.18
652.212	71.1
652.542	71.2
652.872	71.23
653.203	71.26
653.533	71.24
653.863	71.13
654.193	71.18
654.523	71.1
654.853	71.13
655.183	71.23
655.513	71.27
655.843	71.4
656.172	71.36
656.502	71.34
656.832	71.32
657.162	71.32
657.491	71.34
657.821	71.32
658.15	71.2
658.48	71.11
658.809	71.19
659.139	71.36
659.468	71.33
659.798	71.28
660.127	71.18
660.456	71.1
660.785	71.13
661.115	71.09
661.444	71.17
661.773	71.23
