Data from BA28524_Reflection_00011.txt Node
Date: Tue Nov 19 11:49:54 EST 2019
User: vgr7
Spectrometer: USB2G7710
Scans to average: 3
Trigger mode: 4
Integration Time (sec): 2.000000E-2
Electric dark correction enabled: true
Boxcar width: 10
XAxis mode: Wavelengths
Number of Pixels in Spectrum: 2048
>>>>>Begin Spectral Data<<<<<
177.721	15.49
178.105	-177.78
178.488	161.22
178.871	-800
179.254	300
179.636	314.29
180.019	50.41
180.402	29.41
180.785	28
181.168	-294.74
181.55	-167.61
181.933	-18.88
182.316	-9
182.698	44.88
183.081	15.06
183.463	84.73
183.846	10.83
184.228	-23.29
184.611	-229.67
184.993	-877.78
185.376	-527.12
185.758	-3081.82
186.14	-5300
186.522	-8900
186.904	5300
187.287	666.04
187.669	347.62
188.051	241.1
188.433	235.34
188.815	162.8
189.197	149.59
189.579	100
189.961	111.7
190.342	100
190.724	81.9
191.106	58.46
191.488	123.47
191.869	87.65
192.251	181.76
192.633	54.77
193.014	15.71
193.396	75.12
193.777	190.91
194.159	184.75
194.54	234.75
194.922	108.97
195.303	157.14
195.684	190.91
196.065	242.86
196.447	913.95
196.828	774.42
197.209	294.24
197.59	368.29
197.971	690.16
198.352	352.25
198.733	398.7
199.114	365.31
199.495	154.95
199.876	269.49
200.257	71.83
200.638	330.77
201.018	-429.41
201.399	57.75
201.78	7.98
202.16	-72.41
202.541	-34.72
202.922	100
203.302	148.78
203.683	-300
204.063	433.33
204.444	-118.39
204.824	-38.46
205.204	-2.56
205.585	-14.75
205.965	-31.15
206.345	15.34
206.725	67.74
207.106	111.41
207.486	215.15
207.866	100
208.246	114.13
208.626	74.17
209.006	110.83
209.386	133.82
209.766	124.49
210.145	145.98
210.525	261.29
210.905	149.83
211.285	123.75
211.664	124.1
212.044	115.66
212.424	163.36
212.803	165.83
213.183	161.97
213.562	210.77
213.942	208.64
214.321	238.79
214.701	254.81
215.08	339.26
215.459	229.96
215.838	247.41
216.218	210.7
216.597	162.36
216.976	123.97
217.355	146.36
217.734	190.65
218.113	223.03
218.492	156.21
218.871	175.95
219.25	142.64
219.629	127.48
220.008	111.93
220.387	80.18
220.766	74.97
221.144	68.71
221.523	63.43
221.902	51.97
222.28	49.69
222.659	43.57
223.037	43.4
223.416	31.95
223.794	34.83
224.173	29.67
224.551	30.09
224.929	34.69
225.308	26.73
225.686	24.95
226.064	23.03
226.442	20.23
226.821	13.98
227.199	14.08
227.577	16.46
227.955	14.86
228.333	14.83
228.711	15.85
229.089	14.2
229.467	17.08
229.845	15.84
230.222	16.87
230.6	14.77
230.978	15.24
231.356	17.33
231.733	16.07
232.111	15.82
232.488	15.81
232.866	13.03
233.243	10.67
233.621	7.12
233.998	7.2
234.376	9.77
234.753	10.01
235.13	8.95
235.508	8.8
235.885	7.89
236.262	8.86
236.639	6.8
237.016	8.6
237.393	6.4
237.77	7.63
238.147	6.47
238.524	5.66
238.901	4.94
239.278	3.73
239.655	4.57
240.032	5.71
240.409	5.5
240.785	5.6
241.162	6.56
241.539	7.15
241.915	7.24
242.292	6.49
242.668	6.24
243.045	6.49
243.421	6.23
243.798	6.99
244.174	6.48
244.551	6.52
244.927	6.26
245.303	6.2
245.679	6.05
246.056	6.04
246.432	6.25
246.808	6.69
247.184	6.77
247.56	6.48
247.936	6.01
248.312	5.89
248.688	5.83
249.064	5.82
249.44	5.71
249.815	5.67
250.191	5.7
250.567	5.8
250.943	5.81
251.318	5.89
251.694	5.51
252.069	5.85
252.445	6.16
252.82	6.35
253.196	6.35
253.571	6.58
253.947	6.55
254.322	6.76
254.697	6.02
255.073	6.19
255.448	6.35
255.823	6.45
256.198	6.41
256.573	6.46
256.948	6.3
257.323	6.5
257.698	6.18
258.073	6.13
258.448	6.1
258.823	5.9
259.198	5.9
259.573	5.9
259.948	5.88
260.322	5.63
260.697	5.57
261.072	5.46
261.446	5.31
261.821	5.37
262.195	5.23
262.57	5.41
262.944	5.55
263.319	5.52
263.693	5.42
264.067	5.54
264.442	5.47
264.816	5.3
265.19	5.21
265.564	5.07
265.938	5.08
266.313	4.98
266.687	5.05
267.061	5.16
267.435	5.36
267.809	5.3
268.183	5.36
268.556	5.31
268.93	5.53
269.304	5.43
269.678	5.38
270.051	5.44
270.425	5.55
270.799	5.02
271.172	5.13
271.546	5.31
271.919	5.3
272.293	5.32
272.666	5.56
273.04	5.44
273.413	5.63
273.787	5.58
274.16	5.68
274.533	5.85
274.906	5.68
275.279	5.4
275.653	5.51
276.026	5.43
276.399	5.5
276.772	5.51
277.145	5.83
277.518	5.81
277.891	5.79
278.263	5.81
278.636	6.35
279.009	6.24
279.382	6.01
279.755	6.05
280.127	6.23
280.5	6.12
280.872	6.11
281.245	6.22
281.617	6.21
281.99	6.07
282.362	6.04
282.735	6.08
283.107	6.1
283.479	6
283.852	6.09
284.224	5.9
284.596	5.79
284.968	5.73
285.34	5.9
285.713	6.04
286.085	5.83
286.457	5.72
286.829	5.68
287.201	5.8
287.572	5.75
287.944	5.74
288.316	5.82
288.688	5.91
289.06	5.81
289.431	5.96
289.803	6.11
290.175	6.06
290.546	6.15
290.918	6.19
291.289	6.15
291.661	6.08
292.032	6.24
292.403	6.31
292.775	6.27
293.146	6.22
293.517	6.2
293.889	6.26
294.26	6.18
294.631	6.31
295.002	6.45
295.373	6.5
295.744	6.36
296.115	6.29
296.486	6.3
296.857	6.34
297.228	6.27
297.599	6.12
297.97	6.2
298.34	6.15
298.711	6.25
299.082	6.28
299.452	6.36
299.823	6.29
300.194	6.4
300.564	6.44
300.935	6.45
301.305	6.38
301.676	6.49
302.046	6.56
302.416	6.47
302.787	6.38
303.157	6.35
303.527	6.53
303.897	6.59
304.267	6.52
304.637	6.51
305.008	6.57
305.378	6.78
305.748	6.75
306.117	6.75
306.487	6.79
306.857	7.02
307.227	7.17
307.597	7.31
307.967	7.09
308.336	7.22
308.706	7.22
309.076	7.44
309.445	7.55
309.815	7.41
310.184	7.28
310.554	7.35
310.923	7.4
311.293	7.4
311.662	7.54
312.031	7.62
312.401	7.63
312.77	7.71
313.139	7.77
313.508	7.78
313.877	7.97
314.246	8
314.616	7.79
314.985	7.58
315.353	7.53
315.722	7.83
316.091	7.68
316.46	7.7
316.829	7.62
317.198	7.63
317.567	7.92
317.935	8.18
318.304	8.35
318.672	8.51
319.041	8.61
319.41	8.46
319.778	8.47
320.147	8.58
320.515	8.61
320.883	8.55
321.252	8.59
321.62	8.51
321.988	8.41
322.357	8.6
322.725	8.71
323.093	8.66
323.461	8.56
323.829	8.66
324.197	8.71
324.565	8.78
324.933	8.75
325.301	8.72
325.669	8.69
326.037	8.58
326.405	8.5
326.772	8.47
327.14	8.54
327.508	8.51
327.875	8.52
328.243	8.55
328.61	8.65
328.978	8.63
329.346	8.64
329.713	8.82
330.08	8.8
330.448	8.76
330.815	8.74
331.182	8.79
331.55	8.76
331.917	8.71
332.284	8.67
332.651	8.62
333.018	8.62
333.385	8.68
333.752	8.84
334.119	8.85
334.486	8.75
334.853	8.65
335.22	8.72
335.587	8.61
335.954	8.54
336.32	8.27
336.687	8.34
337.054	8.35
337.42	8.2
337.787	8.1
338.153	8.17
338.52	8.26
338.886	8.22
339.253	8.02
339.619	7.99
339.986	7.91
340.352	7.98
340.718	8.04
341.084	8.11
341.451	8
341.817	7.95
342.183	7.97
342.549	8.05
342.915	8.1
343.281	8.19
343.647	8.21
344.013	8.49
344.379	8.4
344.745	8.53
345.11	8.57
345.476	8.73
345.842	8.78
346.208	8.75
346.573	8.78
346.939	8.99
347.304	9.09
347.67	9.15
348.035	9.11
348.401	9.09
348.766	8.97
349.132	8.93
349.497	8.87
349.862	8.94
350.228	8.9
350.593	8.83
350.958	8.91
351.323	8.8
351.688	8.66
352.053	8.66
352.418	8.52
352.783	8.46
353.148	8.24
353.513	8.29
353.878	8.28
354.243	8.19
354.608	8.11
354.972	8.05
355.337	7.98
355.702	7.99
356.066	7.98
356.431	7.99
356.795	7.97
357.16	8.06
357.524	7.95
357.889	7.9
358.253	7.91
358.618	7.82
358.982	7.82
359.346	7.82
359.71	7.74
360.075	7.7
360.439	7.7
360.803	7.8
361.167	7.68
361.531	7.58
361.895	7.58
362.259	7.56
362.623	7.55
362.987	7.53
363.351	7.5
363.714	7.43
364.078	7.43
364.442	7.42
364.806	7.4
365.169	7.38
365.533	7.37
365.896	7.33
366.26	7.25
366.623	7.2
366.987	7.23
367.35	7.29
367.714	7.23
368.077	7.29
368.44	7.21
368.803	7.17
369.167	7.19
369.53	7.09
369.893	7.02
370.256	7
370.619	7.01
370.982	6.92
371.345	6.86
371.708	6.84
372.071	6.78
372.434	6.66
372.797	6.73
373.159	6.66
373.522	6.58
373.885	6.55
374.247	6.54
374.61	6.38
374.973	6.3
375.335	6.3
375.698	6.17
376.06	6.13
376.423	6.07
376.785	6.12
377.147	6.19
377.51	6.15
377.872	6.12
378.234	6.07
378.596	6.09
378.958	6.1
379.321	6.02
379.683	6.06
380.045	6.03
380.407	6
380.769	6.03
381.13	6.03
381.492	6.03
381.854	5.98
382.216	6
382.578	6.01
382.939	6.02
383.301	5.97
383.663	5.98
384.024	5.96
384.386	5.9
384.747	5.84
385.109	5.84
385.47	5.81
385.832	5.76
386.193	5.72
386.554	5.65
386.916	5.65
387.277	5.61
387.638	5.63
387.999	5.6
388.36	5.55
388.721	5.52
389.082	5.56
389.443	5.54
389.804	5.54
390.165	5.51
390.526	5.44
390.887	5.45
391.248	5.44
391.609	5.45
391.969	5.43
392.33	5.38
392.691	5.35
393.051	5.29
393.412	5.25
393.772	5.2
394.133	5.24
394.493	5.16
394.854	5.08
395.214	5.04
395.574	4.98
395.935	4.94
396.295	4.92
396.655	4.83
397.015	4.84
397.376	4.8
397.736	4.76
398.096	4.74
398.456	4.7
398.816	4.62
399.176	4.55
399.535	4.52
399.895	4.51
400.255	4.47
400.615	4.48
400.975	4.48
401.334	4.5
401.694	4.46
402.054	4.5
402.413	4.54
402.773	4.51
403.132	4.52
403.492	4.53
403.851	4.5
404.211	4.46
404.57	4.46
404.929	4.41
405.288	4.42
405.648	4.43
406.007	4.43
406.366	4.46
406.725	4.48
407.084	4.46
407.443	4.47
407.802	4.46
408.161	4.5
408.52	4.47
408.879	4.49
409.238	4.5
409.596	4.47
409.955	4.42
410.314	4.43
410.673	4.4
411.031	4.39
411.39	4.4
411.748	4.46
412.107	4.42
412.465	4.43
412.824	4.39
413.182	4.37
413.54	4.38
413.899	4.34
414.257	4.32
414.615	4.32
414.974	4.31
415.332	4.3
415.69	4.24
416.048	4.25
416.406	4.17
416.764	4.16
417.122	4.15
417.48	4.16
417.838	4.14
418.195	4.13
418.553	4.12
418.911	4.13
419.269	4.09
419.626	4.11
419.984	4.08
420.342	4.09
420.699	4.1
421.057	4.08
421.414	4.07
421.772	4.09
422.129	4.07
422.486	4.09
422.844	4.09
423.201	4.1
423.558	4.09
423.915	4.1
424.273	4.1
424.63	4.11
424.987	4.11
425.344	4.12
425.701	4.11
426.058	4.12
426.415	4.11
426.772	4.12
427.128	4.11
427.485	4.13
427.842	4.12
428.199	4.11
428.555	4.12
428.912	4.13
429.269	4.09
429.625	4.09
429.982	4.06
430.338	4.07
430.695	4.06
431.051	4.06
431.407	4.06
431.764	4.06
432.12	4.05
432.476	4.04
432.832	4.01
433.189	4.02
433.545	3.98
433.901	3.96
434.257	3.98
434.613	3.96
434.969	3.94
435.325	3.96
435.681	3.96
436.036	3.95
436.392	3.94
436.748	3.96
437.104	3.96
437.459	3.96
437.815	3.95
438.171	3.95
438.526	3.96
438.882	3.96
439.237	3.95
439.593	3.95
439.948	3.95
440.304	3.95
440.659	3.97
441.014	3.98
441.369	3.99
441.725	3.96
442.08	3.96
442.435	3.96
442.79	3.93
443.145	3.92
443.5	3.9
443.855	3.9
444.21	3.91
444.565	3.92
444.92	3.91
445.275	3.9
445.629	3.9
445.984	3.88
446.339	3.87
446.693	3.87
447.048	3.85
447.403	3.83
447.757	3.84
448.112	3.8
448.466	3.8
448.82	3.79
449.175	3.79
449.529	3.78
449.883	3.78
450.238	3.79
450.592	3.8
450.946	3.8
451.3	3.8
451.654	3.78
452.008	3.77
452.362	3.76
452.716	3.75
453.07	3.74
453.424	3.75
453.778	3.74
454.132	3.75
454.486	3.75
454.839	3.75
455.193	3.76
455.547	3.79
455.9	3.8
456.254	3.81
456.607	3.82
456.961	3.83
457.314	3.82
457.668	3.82
458.021	3.81
458.375	3.81
458.728	3.8
459.081	3.83
459.434	3.82
459.787	3.83
460.141	3.84
460.494	3.86
460.847	3.85
461.2	3.86
461.553	3.87
461.906	3.87
462.259	3.88
462.611	3.87
462.964	3.88
463.317	3.89
463.67	3.89
464.022	3.9
464.375	3.93
464.728	3.96
465.08	3.95
465.433	3.95
465.785	4.01
466.138	4.05
466.49	4.04
466.843	4.04
467.195	4.05
467.547	4.03
467.899	4.03
468.252	4.03
468.604	4.04
468.956	4.06
469.308	4.06
469.66	4.09
470.012	4.11
470.364	4.11
470.716	4.11
471.068	4.13
471.42	4.14
471.772	4.12
472.123	4.11
472.475	4.15
472.827	4.15
473.178	4.11
473.53	4.08
473.882	4.05
474.233	4.06
474.585	4.06
474.936	4.08
475.288	4.05
475.639	4.07
475.99	4.08
476.342	4.07
476.693	4.06
477.044	4.05
477.395	4.02
477.746	4
478.097	3.97
478.448	3.93
478.8	3.91
479.15	3.91
479.501	3.88
479.852	3.86
480.203	3.87
480.554	3.88
480.905	3.88
481.255	3.9
481.606	3.89
481.957	3.9
482.307	3.91
482.658	3.91
483.009	3.89
483.359	3.89
483.709	3.89
484.06	3.9
484.41	3.91
484.761	3.91
485.111	3.92
485.461	3.92
485.811	3.93
486.162	3.95
486.512	3.95
486.862	3.97
487.212	3.98
487.562	3.99
487.912	4
488.262	4.01
488.612	4.01
488.961	4.01
489.311	4.01
489.661	4.01
490.011	4.02
490.36	4.04
490.71	4.05
491.06	4.06
491.409	4.06
491.759	4.05
492.108	4.06
492.458	4.09
492.807	4.1
493.157	4.13
493.506	4.12
493.855	4.13
494.204	4.13
494.554	4.14
494.903	4.14
495.252	4.14
495.601	4.16
495.95	4.18
496.299	4.2
496.648	4.24
496.997	4.25
497.346	4.3
497.695	4.33
498.043	4.35
498.392	4.37
498.741	4.4
499.09	4.43
499.438	4.46
499.787	4.46
500.135	4.47
500.484	4.49
500.832	4.53
501.181	4.55
501.529	4.58
501.878	4.61
502.226	4.65
502.574	4.67
502.923	4.7
503.271	4.73
503.619	4.78
503.967	4.78
504.315	4.82
504.663	4.81
505.011	4.83
505.359	4.86
505.707	4.9
506.055	4.95
506.403	4.98
506.751	5
507.098	5.05
507.446	5.12
507.794	5.15
508.141	5.16
508.489	5.2
508.837	5.22
509.184	5.27
509.531	5.32
509.879	5.37
510.226	5.39
510.574	5.43
510.921	5.49
511.268	5.54
511.616	5.61
511.963	5.67
512.31	5.73
512.657	5.79
513.004	5.83
513.351	5.89
513.698	5.96
514.045	6.02
514.392	6.08
514.739	6.13
515.086	6.17
515.432	6.23
515.779	6.3
516.126	6.39
516.473	6.44
516.819	6.49
517.166	6.53
517.512	6.6
517.859	6.66
518.205	6.7
518.552	6.75
518.898	6.8
519.245	6.86
519.591	6.9
519.937	6.95
520.283	7.03
520.629	7.08
520.976	7.15
521.322	7.21
521.668	7.28
522.014	7.34
522.36	7.42
522.706	7.51
523.052	7.6
523.398	7.69
523.743	7.77
524.089	7.86
524.435	7.98
524.781	8.08
525.126	8.16
525.472	8.25
525.817	8.32
526.163	8.38
526.509	8.45
526.854	8.52
527.199	8.57
527.545	8.62
527.89	8.69
528.235	8.76
528.581	8.81
528.926	8.88
529.271	8.97
529.616	9.06
529.961	9.14
530.306	9.22
530.651	9.29
530.996	9.39
531.341	9.5
531.686	9.6
532.031	9.69
532.376	9.81
532.721	9.92
533.065	10.05
533.41	10.18
533.755	10.3
534.099	10.41
534.444	10.55
534.788	10.67
535.133	10.8
535.477	10.93
535.822	11.1
536.166	11.27
536.51	11.43
536.855	11.6
537.199	11.77
537.543	11.99
537.887	12.2
538.231	12.42
538.576	12.58
538.92	12.76
539.264	12.94
539.608	13.11
539.951	13.26
540.295	13.41
540.639	13.55
540.983	13.72
541.327	13.89
541.671	14.05
542.014	14.22
542.358	14.4
542.701	14.56
543.045	14.72
543.389	14.86
543.732	15.01
544.075	15.19
544.419	15.37
544.762	15.53
545.105	15.68
545.449	15.87
545.792	16.07
546.135	16.27
546.478	16.51
546.821	16.72
547.165	16.99
547.508	17.25
547.851	17.53
548.194	17.77
548.536	18.03
548.879	18.3
549.222	18.55
549.565	18.78
549.908	19.04
550.25	19.32
550.593	19.59
550.936	19.88
551.278	20.15
551.621	20.43
551.963	20.72
552.306	21.02
552.648	21.28
552.991	21.6
553.333	21.88
553.675	22.17
554.017	22.44
554.36	22.69
554.702	22.93
555.044	23.17
555.386	23.46
555.728	23.75
556.07	24.01
556.412	24.31
556.754	24.56
557.096	24.85
557.438	25.13
557.78	25.38
558.121	25.65
558.463	25.9
558.805	26.19
559.147	26.5
559.488	26.75
559.83	27.03
560.171	27.26
560.513	27.55
560.854	27.81
561.196	28.11
561.537	28.42
561.878	28.74
562.22	29
562.561	29.26
562.902	29.52
563.243	29.79
563.584	30.06
563.925	30.34
564.266	30.56
564.607	30.83
564.948	31.09
565.289	31.31
565.63	31.52
565.971	31.74
566.312	31.96
566.653	32.19
566.993	32.4
567.334	32.64
567.675	32.84
568.015	33.04
568.356	33.24
568.696	33.37
569.037	33.57
569.377	33.79
569.718	34.02
570.058	34.23
570.398	34.45
570.739	34.63
571.079	34.83
571.419	35.07
571.759	35.23
572.099	35.47
572.439	35.67
572.779	35.9
573.119	36.09
573.459	36.27
573.799	36.43
574.139	36.61
574.479	36.81
574.819	37.04
575.158	37.23
575.498	37.48
575.838	37.73
576.177	37.86
576.517	38.02
576.856	38.21
577.196	38.39
577.535	38.57
577.875	38.75
578.214	38.94
578.553	39.13
578.893	39.35
579.232	39.56
579.571	39.77
579.91	39.92
580.25	40.02
580.589	40.21
580.928	40.47
581.267	40.73
581.606	40.87
581.945	40.98
582.283	41.15
582.622	41.24
582.961	41.42
583.3	41.64
583.639	41.87
583.977	41.97
584.316	42.1
584.654	42.25
584.993	42.45
585.332	42.61
585.67	42.74
586.008	42.89
586.347	43.03
586.685	43.14
587.024	43.38
587.362	43.61
587.7	43.63
588.038	43.69
588.376	43.78
588.715	43.97
589.053	44.06
589.391	44.22
589.729	44.32
590.067	44.39
590.404	44.48
590.742	44.55
591.08	44.64
591.418	44.82
591.756	44.92
592.093	45.2
592.431	45.32
592.769	45.49
593.106	45.54
593.444	45.63
593.781	45.83
594.119	45.94
594.456	45.99
594.793	46.19
595.131	46.37
595.468	46.46
595.805	46.48
596.143	46.58
596.48	46.6
596.817	46.74
597.154	46.84
597.491	47.02
597.828	47.12
598.165	47.24
598.502	47.3
598.839	47.35
599.176	47.4
599.512	47.55
599.849	47.63
600.186	47.81
600.523	47.9
600.859	47.86
601.196	47.84
601.532	47.96
601.869	48.04
602.205	48.16
602.542	48.24
602.878	48.37
603.215	48.55
603.551	48.73
603.887	48.8
604.223	48.87
604.56	48.85
604.896	48.97
605.232	49.01
605.568	49.14
605.904	49.28
606.24	49.32
606.576	49.35
606.912	49.35
607.248	49.46
607.583	49.53
607.919	49.7
608.255	49.9
608.591	50
608.926	50.07
609.262	50.09
609.597	50.17
609.933	50.2
610.268	50.25
610.604	50.28
610.939	50.37
611.275	50.48
611.61	50.59
611.945	50.6
612.281	50.72
612.616	50.8
612.951	50.84
613.286	50.84
613.621	50.93
613.956	51.09
614.291	51.03
614.626	51.24
614.961	51.23
615.296	51.24
615.631	51.39
615.966	51.54
616.3	51.59
616.635	51.63
616.97	51.77
617.304	51.8
617.639	51.81
617.973	51.88
618.308	51.89
618.642	51.94
618.977	51.97
619.311	52.05
619.646	51.99
619.98	52.1
620.314	52.16
620.648	52.21
620.983	52.2
621.317	52.33
621.651	52.3
621.985	52.4
622.319	52.48
622.653	52.41
622.987	52.37
623.321	52.46
623.655	52.58
623.988	52.53
624.322	52.61
624.656	52.63
624.99	52.67
625.323	52.75
625.657	52.86
625.99	52.89
626.324	52.94
626.657	52.99
626.991	53.08
627.324	53.12
627.658	53.17
627.991	53.26
628.324	53.2
628.657	53.29
628.991	53.24
629.324	53.29
629.657	53.38
629.99	53.45
630.323	53.42
630.656	53.38
630.989	53.5
631.322	53.42
631.655	53.49
631.987	53.5
632.32	53.54
632.653	53.62
632.986	53.74
633.318	53.72
633.651	53.77
633.984	53.69
634.316	53.68
634.649	53.7
634.981	53.64
635.313	53.77
635.646	53.81
635.978	53.97
636.31	53.98
636.643	53.96
636.975	54.13
637.307	54.2
637.639	54.27
637.971	54.3
638.303	54.34
638.635	54.31
638.967	54.34
639.299	54.32
639.631	54.17
639.963	54.17
640.295	54.24
640.626	54.3
640.958	54.42
641.29	54.5
641.621	54.47
641.953	54.53
642.285	54.44
642.616	54.4
642.948	54.26
643.279	54.25
643.61	54.2
643.942	54.04
644.273	54
644.604	54.05
644.936	54.01
645.267	54.12
645.598	54.23
645.929	54.19
646.26	54.29
646.591	54.49
646.922	54.57
647.253	54.55
647.584	54.62
647.915	54.55
648.245	54.51
648.576	54.63
648.907	54.72
649.238	54.75
649.568	54.77
649.899	54.93
650.229	54.99
650.56	55.12
650.89	55.2
651.221	55.34
651.551	55.33
651.882	55.35
652.212	55.31
652.542	55.44
652.872	55.51
653.203	55.4
653.533	55.41
653.863	55.51
654.193	55.51
654.523	55.5
654.853	55.59
655.183	55.76
655.513	55.76
655.843	55.8
656.172	55.87
656.502	55.88
656.832	55.92
657.162	55.93
657.491	55.95
657.821	55.91
658.15	55.91
658.48	55.88
658.809	55.99
659.139	56.09
659.468	56
659.798	55.9
660.127	55.98
660.456	55.99
660.785	55.85
661.115	55.77
661.444	55.74
661.773	55.74
662.102	55.74
662.431	55.76
662.76	55.69
663.089	55.85
663.418	55.93
663.747	56.01
664.076	56.02
664.404	56.1
664.733	56.08
665.062	56.1
665.39	56.15
665.719	56.09
666.048	56.05
666.376	55.96
666.705	56.13
667.033	56.2
667.362	56.25
667.69	56.36
668.018	56.53
668.347	56.61
668.675	56.66
669.003	56.69
669.331	56.68
669.659	56.61
