Data from BA28469_Reflection_00009.txt Node
Date: Mon Nov 18 15:18:04 EST 2019
User: vgr7
Spectrometer: USB2G7710
Scans to average: 3
Trigger mode: 4
Integration Time (sec): 2.000000E-2
Electric dark correction enabled: true
Boxcar width: 10
XAxis mode: Wavelengths
Number of Pixels in Spectrum: 2048
>>>>>Begin Spectral Data<<<<<
177.721	-151.04
178.105	11766.67
178.488	59.32
178.871	87.91
179.254	102.2
179.636	-7733.33
180.019	177.71
180.402	157.89
180.785	102.77
181.168	78.18
181.55	503.76
181.933	114.65
182.316	170.03
182.698	158.02
183.081	408.5
183.463	309.1
183.846	269.45
184.228	796.17
184.611	313.33
184.993	28988.89
185.376	-1148.95
185.758	-757.81
186.14	-502.15
186.522	-2101.26
186.904	-831.57
187.287	1327.14
187.669	-566.67
188.051	-736.69
188.433	-196.46
188.815	-122.89
189.197	-92.24
189.579	-66.48
189.961	-72.29
190.342	-67.63
190.724	-54.1
191.106	-72.54
191.488	-79.71
191.869	-60.64
192.251	-55.88
192.633	-59.07
193.014	-63.02
193.396	-86.02
193.777	-79.85
194.159	-116.19
194.54	-90.48
194.922	-90.91
195.303	-82.03
195.684	-86.15
196.065	-88.26
196.447	-101.81
196.828	-114.63
197.209	-99.45
197.59	-141.64
197.971	-156.26
198.352	-126.75
198.733	-199.06
199.114	-124.48
199.495	-113.01
199.876	-130.9
200.257	-133.02
200.638	-109.25
201.018	-108.37
201.399	-108.37
201.78	-105.42
202.16	-131.96
202.541	-249.01
202.922	-280.95
203.302	-271.2
203.683	-260.74
204.063	-238.66
204.444	-221.65
204.824	-226.63
205.204	-214.2
205.585	-144.76
205.965	-145.11
206.345	-148.81
206.725	-139.88
207.106	-183.72
207.486	-176.4
207.866	-181.6
208.246	-172.07
208.626	-228.9
209.006	-216.3
209.386	-240.53
209.766	-189.48
210.145	-147.84
210.525	-112.32
210.905	-112.54
211.285	-99.78
211.664	-84.88
212.044	-73.53
212.424	-72.34
212.803	-79.38
213.183	-69.35
213.562	-72.13
213.942	-49.67
214.321	-44.3
214.701	-46.5
215.08	-44.01
215.459	-51.85
215.838	-47.6
216.218	-40.68
216.597	-24.81
216.976	-16.51
217.355	-7.92
217.734	-13.42
218.113	-0.76
218.492	-0.27
218.871	-4.22
219.25	1
219.629	-6.97
220.008	-17.63
220.387	-12.8
220.766	-2.81
221.144	-26.31
221.523	-32.05
221.902	-55.39
222.28	-59.69
222.659	-53.13
223.037	-44.5
223.416	-29.05
223.794	-23.78
224.173	-28.69
224.551	-25.16
224.929	-31.12
225.308	-27.88
225.686	-20.97
226.064	-19
226.442	-21.88
226.821	-12.12
227.199	-14.21
227.577	-15.01
227.955	-11.84
228.333	-8.71
228.711	-8.33
229.089	-5.74
229.467	-5.7
229.845	-3.6
230.222	-3.08
230.6	-1.99
230.978	-2.67
231.356	-0.85
231.733	-0.77
232.111	-0.8
232.488	-1.05
232.866	0.45
233.243	-0.29
233.621	-0.37
233.998	-0.51
234.376	-0.03
234.753	-0.98
235.13	-1.92
235.508	0.21
235.885	1.43
236.262	-0.55
236.639	-1.2
237.016	-0.66
237.393	0.6
237.77	1.56
238.147	1.21
238.524	0.78
238.901	1.45
239.278	1.8
239.655	1.82
240.032	2.42
240.409	2.36
240.785	2.3
241.162	3.06
241.539	2.77
241.915	3.17
242.292	3.03
242.668	3.06
243.045	3.42
243.421	2.79
243.798	2.21
244.174	2.27
244.551	2.69
244.927	2.78
245.303	3.09
245.679	2.99
246.056	3.15
246.432	3.17
246.808	3.18
247.184	2.84
247.56	2.72
247.936	2.56
248.312	2.64
248.688	2.65
249.064	2.63
249.44	2.88
249.815	2.91
250.191	3.1
250.567	3.13
250.943	3.16
251.318	3.61
251.694	3.8
252.069	3.81
252.445	3.72
252.82	3.82
253.196	3.32
253.571	2.99
253.947	2.98
254.322	3.05
254.697	2.95
255.073	2.8
255.448	2.71
255.823	2.5
256.198	2.4
256.573	2.39
256.948	2.33
257.323	2.37
257.698	2.33
258.073	2.36
258.448	2.32
258.823	2.42
259.198	2.08
259.573	2.15
259.948	2.17
260.322	2.2
260.697	1.99
261.072	2.1
261.446	2.18
261.821	2.1
262.195	2.16
262.57	2.16
262.944	2.32
263.319	2.39
263.693	2.49
264.067	2.63
264.442	2.69
264.816	2.59
265.19	2.6
265.564	2.59
265.938	2.32
266.313	2.21
266.687	2.23
267.061	2.66
267.435	2.54
267.809	2.56
268.183	2.57
268.556	2.76
268.93	2.75
269.304	2.87
269.678	2.96
270.051	2.88
270.425	2.84
270.799	2.88
271.172	2.9
271.546	2.84
271.919	2.67
272.293	2.67
272.666	2.71
273.04	2.5
273.413	2.43
273.787	2.56
274.16	2.6
274.533	2.58
274.906	2.29
275.279	2.42
275.653	2.5
276.026	2.47
276.399	2.35
276.772	2.42
277.145	2.26
277.518	2.21
277.891	2.22
278.263	2.31
278.636	2.21
279.009	2.26
279.382	2.51
279.755	2.65
280.127	2.71
280.5	2.63
280.872	2.83
281.245	2.82
281.617	2.86
281.99	3.1
282.362	3.21
282.735	3.27
283.107	3.24
283.479	3.2
283.852	3.24
284.224	3.35
284.596	3.24
284.968	3.36
285.34	3.26
285.713	3.27
286.085	3.26
286.457	3.49
286.829	3.49
287.201	3.3
287.572	3.22
287.944	3.1
288.316	3.15
288.688	3.1
289.06	3.16
289.431	3.12
289.803	3.02
290.175	2.89
290.546	2.9
290.918	2.87
291.289	2.82
291.661	2.81
292.032	2.86
292.403	3.06
292.775	3.11
293.146	3.22
293.517	3.19
293.889	3.27
294.26	3.07
294.631	3.11
295.002	3.09
295.373	3.11
295.744	3.18
296.115	3.19
296.486	3.12
296.857	3.11
297.228	3.25
297.599	3.24
297.97	3.25
298.34	3.31
298.711	3.34
299.082	3.37
299.452	3.33
299.823	3.37
300.194	3.18
300.564	3.11
300.935	3.15
301.305	3.23
301.676	3.15
302.046	3.17
302.416	3.26
302.787	3.37
303.157	3.35
303.527	3.39
303.897	3.4
304.267	3.55
304.637	3.68
305.008	3.65
305.378	3.73
305.748	3.79
306.117	3.73
306.487	3.71
306.857	3.66
307.227	3.73
307.597	3.63
307.967	3.77
308.336	3.86
308.706	3.81
309.076	3.8
309.445	3.77
309.815	3.73
310.184	3.5
310.554	3.54
310.923	3.54
311.293	3.47
311.662	3.54
312.031	3.5
312.401	3.4
312.77	3.4
313.139	3.39
313.508	3.34
313.877	3.36
314.246	3.43
314.616	3.45
314.985	3.39
315.353	3.41
315.722	3.46
316.091	3.4
316.46	3.47
316.829	3.44
317.198	3.56
317.567	3.57
317.935	3.67
318.304	3.75
318.672	3.73
319.041	3.84
319.41	3.71
319.778	3.85
320.147	3.98
320.515	3.98
320.883	3.93
321.252	4.08
321.62	4.17
321.988	4.21
322.357	4.4
322.725	4.37
323.093	4.42
323.461	4.24
323.829	4.26
324.197	4.27
324.565	4.27
324.933	4.27
325.301	4.43
325.669	4.46
326.037	4.3
326.405	4.4
326.772	4.55
327.14	4.69
327.508	4.56
327.875	4.48
328.243	4.38
328.61	4.53
328.978	4.38
329.346	4.38
329.713	4.19
330.08	4.19
330.448	4.29
330.815	4.18
331.182	4.32
331.55	4.41
331.917	4.4
332.284	4.48
332.651	4.5
333.018	4.47
333.385	4.52
333.752	4.73
334.119	4.76
334.486	4.62
334.853	4.54
335.22	4.59
335.587	4.7
335.954	4.91
336.32	4.81
336.687	4.88
337.054	4.87
337.42	4.92
337.787	4.91
338.153	4.8
338.52	4.91
338.886	4.86
339.253	4.89
339.619	4.92
339.986	4.97
340.352	4.97
340.718	4.9
341.084	4.86
341.451	4.74
341.817	4.75
342.183	4.82
342.549	4.8
342.915	4.85
343.281	4.8
343.647	4.73
344.013	4.79
344.379	4.72
344.745	4.77
345.11	4.75
345.476	4.72
345.842	4.79
346.208	4.82
346.573	4.9
346.939	5.01
347.304	4.98
347.67	4.92
348.035	4.93
348.401	5.03
348.766	4.99
349.132	5.09
349.497	5.01
349.862	5.11
350.228	5.15
350.593	5.11
350.958	5.07
351.323	5.14
351.688	5.21
352.053	5.28
352.418	5.3
352.783	5.42
353.148	5.45
353.513	5.38
353.878	5.34
354.243	5.39
354.608	5.25
354.972	5.24
355.337	5.34
355.702	5.38
356.066	5.35
356.431	5.38
356.795	5.37
357.16	5.41
357.524	5.31
357.889	5.32
358.253	5.37
358.618	5.47
358.982	5.41
359.346	5.31
359.71	5.27
360.075	5.26
360.439	5.27
360.803	5.22
361.167	5.25
361.531	5.24
361.895	5.19
362.259	5.17
362.623	5.21
362.987	5.12
363.351	5.11
363.714	5.11
364.078	5.14
364.442	5.08
364.806	5.06
365.169	5.08
365.533	5.04
365.896	5.02
366.26	4.97
366.623	4.98
366.987	4.96
367.35	5.02
367.714	4.97
368.077	4.89
368.44	4.88
368.803	4.86
369.167	4.85
369.53	4.74
369.893	4.78
370.256	4.73
370.619	4.74
370.982	4.65
371.345	4.64
371.708	4.61
372.071	4.61
372.434	4.56
372.797	4.46
373.159	4.44
373.522	4.42
373.885	4.38
374.247	4.37
374.61	4.38
374.973	4.31
375.335	4.28
375.698	4.27
376.06	4.28
376.423	4.28
376.785	4.23
377.147	4.26
377.51	4.22
377.872	4.22
378.234	4.24
378.596	4.28
378.958	4.25
379.321	4.18
379.683	4.2
380.045	4.22
380.407	4.22
380.769	4.21
381.13	4.21
381.492	4.17
381.854	4.18
382.216	4.16
382.578	4.13
382.939	4.09
383.301	4.08
383.663	4.05
384.024	4.04
384.386	4.05
384.747	4.04
385.109	4
385.47	3.93
385.832	3.88
386.193	3.86
386.554	3.81
386.916	3.82
387.277	3.76
387.638	3.74
387.999	3.7
388.36	3.7
388.721	3.68
389.082	3.69
389.443	3.61
389.804	3.56
390.165	3.53
390.526	3.52
390.887	3.48
391.248	3.47
391.609	3.45
391.969	3.43
392.33	3.4
392.691	3.4
393.051	3.41
393.412	3.42
393.772	3.38
394.133	3.4
394.493	3.4
394.854	3.4
395.214	3.39
395.574	3.39
395.935	3.37
396.295	3.34
396.655	3.29
397.015	3.29
397.376	3.27
397.736	3.27
398.096	3.28
398.456	3.28
398.816	3.28
399.176	3.28
399.535	3.26
399.895	3.26
400.255	3.25
400.615	3.21
400.975	3.18
401.334	3.17
401.694	3.15
402.054	3.13
402.413	3.1
402.773	3.08
403.132	3.07
403.492	3.09
403.851	3.07
404.211	3.08
404.57	3.07
404.929	3.1
405.288	3.08
405.648	3.07
406.007	3.08
406.366	3.04
406.725	3.06
407.084	3.08
407.443	3.07
407.802	3.06
408.161	3.05
408.52	3.04
408.879	3.03
409.238	3.02
409.596	3.01
409.955	3.01
410.314	3.02
410.673	3.02
411.031	2.99
411.39	2.99
411.748	2.96
412.107	2.99
412.465	2.97
412.824	2.99
413.182	2.96
413.54	2.94
413.899	2.96
414.257	2.92
414.615	2.91
414.974	2.91
415.332	2.89
415.69	2.89
416.048	2.89
416.406	2.89
416.764	2.87
417.122	2.87
417.48	2.86
417.838	2.86
418.195	2.87
418.553	2.88
418.911	2.88
419.269	2.87
419.626	2.86
419.984	2.87
420.342	2.87
420.699	2.86
421.057	2.86
421.414	2.84
421.772	2.84
422.129	2.84
422.486	2.84
422.844	2.85
423.201	2.84
423.558	2.85
423.915	2.84
424.273	2.85
424.63	2.84
424.987	2.83
425.344	2.83
425.701	2.81
426.058	2.79
426.415	2.77
426.772	2.78
427.128	2.77
427.485	2.76
427.842	2.74
428.199	2.76
428.555	2.76
428.912	2.77
429.269	2.78
429.625	2.76
429.982	2.76
430.338	2.76
430.695	2.75
431.051	2.75
431.407	2.74
431.764	2.73
432.12	2.73
432.476	2.74
432.832	2.72
433.189	2.73
433.545	2.74
433.901	2.74
434.257	2.73
434.613	2.74
434.969	2.74
435.325	2.74
435.681	2.74
436.036	2.75
436.392	2.74
436.748	2.74
437.104	2.74
437.459	2.73
437.815	2.73
438.171	2.73
438.526	2.73
438.882	2.74
439.237	2.75
439.593	2.75
439.948	2.74
440.304	2.75
440.659	2.75
441.014	2.74
441.369	2.74
441.725	2.73
442.08	2.73
442.435	2.72
442.79	2.73
443.145	2.71
443.5	2.69
443.855	2.69
444.21	2.68
444.565	2.67
444.92	2.67
445.275	2.66
445.629	2.66
445.984	2.66
446.339	2.65
446.693	2.63
447.048	2.63
447.403	2.64
447.757	2.63
448.112	2.63
448.466	2.63
448.82	2.63
449.175	2.64
449.529	2.64
449.883	2.64
450.238	2.63
450.592	2.64
450.946	2.64
451.3	2.63
451.654	2.63
452.008	2.63
452.362	2.62
452.716	2.63
453.07	2.63
453.424	2.62
453.778	2.61
454.132	2.6
454.486	2.6
454.839	2.59
455.193	2.57
455.547	2.56
455.9	2.58
456.254	2.57
456.607	2.56
456.961	2.56
457.314	2.55
457.668	2.55
458.021	2.53
458.375	2.55
458.728	2.56
459.081	2.58
459.434	2.58
459.787	2.59
460.141	2.58
460.494	2.58
460.847	2.59
461.2	2.58
461.553	2.6
461.906	2.61
462.259	2.62
462.611	2.65
462.964	2.66
463.317	2.66
463.67	2.67
464.022	2.67
464.375	2.64
464.728	2.65
465.08	2.66
465.433	2.68
465.785	2.67
466.138	2.66
466.49	2.66
466.843	2.66
467.195	2.67
467.547	2.69
467.899	2.7
468.252	2.7
468.604	2.74
468.956	2.73
469.308	2.75
469.66	2.71
470.012	2.73
470.364	2.72
470.716	2.72
471.068	2.72
471.42	2.72
471.772	2.76
472.123	2.77
472.475	2.77
472.827	2.78
473.178	2.79
473.53	2.79
473.882	2.78
474.233	2.78
474.585	2.76
474.936	2.75
475.288	2.75
475.639	2.78
475.99	2.75
476.342	2.76
476.693	2.75
477.044	2.77
477.395	2.75
477.746	2.76
478.097	2.76
478.448	2.76
478.8	2.77
479.15	2.75
479.501	2.76
479.852	2.76
480.203	2.76
480.554	2.76
480.905	2.77
481.255	2.77
481.606	2.77
481.957	2.78
482.307	2.79
482.658	2.79
483.009	2.78
483.359	2.78
483.709	2.79
484.06	2.79
484.41	2.8
484.761	2.8
485.111	2.79
485.461	2.79
485.811	2.8
486.162	2.8
486.512	2.82
486.862	2.81
487.212	2.81
487.562	2.81
487.912	2.81
488.262	2.81
488.612	2.82
488.961	2.82
489.311	2.82
489.661	2.82
490.011	2.82
490.36	2.82
490.71	2.83
491.06	2.81
491.409	2.81
491.759	2.81
492.108	2.82
492.458	2.83
492.807	2.82
493.157	2.82
493.506	2.81
493.855	2.8
494.204	2.78
494.554	2.78
494.903	2.78
495.252	2.79
495.601	2.8
495.95	2.79
496.299	2.79
496.648	2.79
496.997	2.79
497.346	2.82
497.695	2.82
498.043	2.82
498.392	2.83
498.741	2.83
499.09	2.83
499.438	2.84
499.787	2.86
500.135	2.87
500.484	2.89
500.832	2.91
501.181	2.92
501.529	2.96
501.878	2.98
502.226	3
502.574	3.02
502.923	3.03
503.271	3.03
503.619	3.06
503.967	3.08
504.315	3.09
504.663	3.11
505.011	3.14
505.359	3.15
505.707	3.18
506.055	3.22
506.403	3.25
506.751	3.28
507.098	3.29
507.446	3.33
507.794	3.36
508.141	3.38
508.489	3.41
508.837	3.44
509.184	3.46
509.531	3.5
509.879	3.54
510.226	3.6
510.574	3.64
510.921	3.65
511.268	3.68
511.616	3.71
511.963	3.73
512.31	3.8
512.657	3.82
513.004	3.86
513.351	3.92
513.698	3.95
514.045	3.97
514.392	4.01
514.739	4.03
515.086	4.08
515.432	4.12
515.779	4.17
516.126	4.23
516.473	4.28
516.819	4.32
517.166	4.34
517.512	4.37
517.859	4.4
518.205	4.45
518.552	4.5
518.898	4.51
519.245	4.57
519.591	4.57
519.937	4.61
520.283	4.64
520.629	4.67
520.976	4.73
521.322	4.78
521.668	4.82
522.014	4.9
522.36	4.96
522.706	5.03
523.052	5.08
523.398	5.15
523.743	5.24
524.089	5.31
524.435	5.38
524.781	5.47
525.126	5.55
525.472	5.62
525.817	5.68
526.163	5.77
526.509	5.83
526.854	5.9
527.199	5.98
527.545	6.03
527.89	6.1
528.235	6.16
528.581	6.23
528.926	6.29
529.271	6.36
529.616	6.43
529.961	6.5
530.306	6.58
530.651	6.65
530.996	6.72
531.341	6.8
531.686	6.89
532.031	6.98
532.376	7.07
532.721	7.17
533.065	7.27
533.41	7.38
533.755	7.48
534.099	7.6
534.444	7.68
534.788	7.81
535.133	7.91
535.477	8.03
535.822	8.15
536.166	8.29
536.51	8.43
536.855	8.6
537.199	8.77
537.543	8.94
537.887	9.13
538.231	9.31
538.576	9.5
538.92	9.69
539.264	9.86
539.608	10.02
539.951	10.18
540.295	10.34
540.639	10.5
540.983	10.66
541.327	10.81
541.671	10.99
542.014	11.15
542.358	11.31
542.701	11.48
543.045	11.65
543.389	11.83
543.732	12.01
544.075	12.18
544.419	12.37
544.762	12.56
545.105	12.77
545.449	12.99
545.792	13.2
546.135	13.43
546.478	13.7
546.821	13.98
547.165	14.27
547.508	14.57
547.851	14.85
548.194	15.13
548.536	15.42
548.879	15.74
549.222	16.05
549.565	16.37
549.908	16.66
550.25	16.96
550.593	17.26
550.936	17.61
551.278	17.93
551.621	18.26
551.963	18.62
552.306	18.92
552.648	19.23
552.991	19.58
553.333	19.87
553.675	20.13
554.017	20.43
554.36	20.72
554.702	20.99
555.044	21.25
555.386	21.58
555.728	21.88
556.07	22.2
556.412	22.49
556.754	22.8
557.096	23.14
557.438	23.51
557.78	23.85
558.121	24.15
558.463	24.48
558.805	24.86
559.147	25.15
559.488	25.47
559.83	25.81
560.171	26.12
560.513	26.47
560.854	26.79
561.196	27.14
561.537	27.45
561.878	27.79
562.22	28.1
562.561	28.42
562.902	28.72
563.243	28.96
563.584	29.3
563.925	29.59
564.266	29.86
564.607	30.15
564.948	30.5
565.289	30.79
565.63	31.04
565.971	31.27
566.312	31.53
566.653	31.86
566.993	32.09
567.334	32.35
567.675	32.6
568.015	32.89
568.356	33.14
568.696	33.4
569.037	33.64
569.377	33.92
569.718	34.12
570.058	34.39
570.398	34.67
570.739	34.88
571.079	35.1
571.419	35.33
571.759	35.5
572.099	35.66
572.439	35.87
572.779	36.06
573.119	36.31
573.459	36.52
573.799	36.63
574.139	36.83
574.479	37.01
574.819	37.23
575.158	37.46
575.498	37.57
575.838	37.76
576.177	37.99
576.517	38.16
576.856	38.41
577.196	38.58
577.535	38.78
577.875	38.95
578.214	39.13
578.553	39.33
578.893	39.59
579.232	39.81
579.571	39.94
579.91	40.15
580.25	40.27
580.589	40.37
580.928	40.59
581.267	40.76
581.606	40.88
581.945	41.01
582.283	41.13
582.622	41.39
582.961	41.55
583.3	41.68
583.639	41.9
583.977	42.05
584.316	42.21
584.654	42.37
584.993	42.53
585.332	42.7
585.67	42.87
586.008	42.96
586.347	43.02
586.685	43.24
587.024	43.43
587.362	43.56
587.7	43.75
588.038	43.88
588.376	44.03
588.715	44.17
589.053	44.3
589.391	44.46
589.729	44.5
590.067	44.62
590.404	44.72
590.742	44.8
591.08	44.81
591.418	44.9
591.756	45.03
592.093	45.22
592.431	45.3
592.769	45.35
593.106	45.48
593.444	45.6
593.781	45.69
594.119	45.8
594.456	45.86
594.793	46
595.131	46.09
595.468	46.16
595.805	46.25
596.143	46.25
596.48	46.28
596.817	46.39
597.154	46.49
597.491	46.53
597.828	46.61
598.165	46.68
598.502	46.78
598.839	46.85
599.176	46.89
599.512	46.98
599.849	47.07
600.186	47.15
600.523	47.27
600.859	47.37
601.196	47.42
601.532	47.53
601.869	47.53
602.205	47.67
602.542	47.73
602.878	47.79
603.215	47.91
603.551	47.99
603.887	48.03
604.223	48.09
604.56	48.26
604.896	48.27
605.232	48.44
605.568	48.5
605.904	48.52
606.24	48.58
606.576	48.66
606.912	48.77
607.248	48.83
607.583	48.88
607.919	48.9
608.255	48.92
608.591	48.94
608.926	49.08
609.262	49.06
609.597	49.11
609.933	49.18
610.268	49.23
610.604	49.26
610.939	49.35
611.275	49.39
611.61	49.33
611.945	49.43
612.281	49.45
612.616	49.52
612.951	49.54
613.286	49.59
613.621	49.7
613.956	49.65
614.291	49.59
614.626	49.63
614.961	49.72
615.296	49.83
615.631	49.98
615.966	49.97
616.3	50
616.635	50.05
616.97	50.09
617.304	50.17
617.639	50.23
617.973	50.23
618.308	50.27
618.642	50.31
618.977	50.26
619.311	50.23
619.646	50.2
619.98	50.28
620.314	50.26
620.648	50.27
620.983	50.38
621.317	50.51
621.651	50.59
621.985	50.53
622.319	50.55
622.653	50.54
622.987	50.56
623.321	50.61
623.655	50.71
623.988	50.84
624.322	50.95
624.656	50.99
624.99	51.03
625.323	51.08
625.657	51.18
625.99	51.29
626.324	51.29
626.657	51.35
626.991	51.4
627.324	51.46
627.658	51.53
627.991	51.63
628.324	51.78
628.657	51.79
628.991	51.82
629.324	51.79
629.657	51.8
629.99	51.81
630.323	51.92
630.656	51.96
630.989	51.97
631.322	51.91
631.655	51.91
631.987	52
632.32	52.05
632.653	52.11
632.986	52.18
633.318	52.25
633.651	52.29
633.984	52.28
634.316	52.25
634.649	52.24
634.981	52.09
635.313	51.99
635.646	52.01
635.978	52.16
636.31	52.23
636.643	52.3
636.975	52.33
637.307	52.37
637.639	52.38
637.971	52.36
638.303	52.42
638.635	52.44
638.967	52.46
639.299	52.51
639.631	52.42
639.963	52.42
640.295	52.44
640.626	52.41
640.958	52.51
641.29	52.64
641.621	52.66
641.953	52.73
642.285	52.78
642.616	52.75
642.948	52.67
643.279	52.73
643.61	52.8
643.942	52.82
644.273	52.69
644.604	52.73
644.936	52.72
645.267	52.85
645.598	52.98
645.929	53.03
646.26	52.97
646.591	53
646.922	53.02
647.253	53.12
647.584	53.16
647.915	53.17
648.245	53.16
648.576	53.08
648.907	53.23
649.238	53.29
649.568	53.36
649.899	53.46
650.229	53.4
650.56	53.39
650.89	53.47
651.221	53.51
651.551	53.49
651.882	53.57
652.212	53.37
652.542	53.21
652.872	53.21
653.203	53.33
653.533	53.41
653.863	53.39
654.193	53.51
654.523	53.61
654.853	53.56
655.183	53.5
655.513	53.68
655.843	53.78
656.172	53.72
656.502	53.74
656.832	53.6
657.162	53.67
657.491	53.74
657.821	53.75
658.15	53.77
658.48	53.79
658.809	53.81
659.139	53.92
659.468	54.09
659.798	54.1
660.127	54.03
660.456	54
660.785	54.07
661.115	54.06
661.444	54.05
661.773	54.12
662.102	54.23
662.431	54.18
662.76	54.06
663.089	54.05
663.418	54.1
663.747	54.22
664.076	54.34
664.404	54.36
664.733	54.26
665.062	54.28
665.39	54.23
665.719	54.15
666.048	54.09
666.376	53.98
666.705	54.03
667.033	54
