Data from BA28305_Reflection_00010.txt Node
Date: Mon Nov 18 15:57:07 EST 2019
User: vgr7
Spectrometer: USB2G7710
Scans to average: 3
Trigger mode: 4
Integration Time (sec): 2.000000E-2
Electric dark correction enabled: true
Boxcar width: 10
XAxis mode: Wavelengths
Number of Pixels in Spectrum: 2048
>>>>>Begin Spectral Data<<<<<
177.721	365.4
178.105	573.68
178.488	529.91
178.871	-189.47
179.254	-35.34
179.636	-16.07
180.019	227.17
180.402	221.74
180.785	-113.46
181.168	-93.4
181.55	-60.92
181.933	57.4
182.316	62.67
182.698	53.71
183.081	35.44
183.463	39.34
183.846	8.82
184.228	13.33
184.611	15.34
184.993	-12.85
185.376	-42.63
185.758	-58.46
186.14	-13.06
186.522	-6.44
186.904	69.85
187.287	25.56
187.669	-40.13
188.051	8.05
188.433	-101.18
188.815	-113.59
189.197	-488.24
189.579	151.28
189.961	181.63
190.342	200.56
190.724	95.04
191.106	37.17
191.488	94.27
191.869	47.07
192.251	42.68
192.633	27.89
193.014	22.5
193.396	2.12
193.777	-18.16
194.159	-3.23
194.54	45.8
194.922	91.77
195.303	52.57
195.684	-60.28
196.065	11.65
196.447	27.49
196.828	-2.67
197.209	-55.6
197.59	-101.68
197.971	-81.05
198.352	-46.69
198.733	-61.94
199.114	-40.77
199.495	-44.14
199.876	-42.7
200.257	-33.09
200.638	-57.82
201.018	-84.68
201.399	-31.03
201.78	-41.87
202.16	-74.97
202.541	-151.79
202.922	-348.38
203.302	-533.2
203.683	-311.09
204.063	-348.04
204.444	-432.95
204.824	-676.37
205.204	-1116
205.585	-1124.81
205.965	-631.71
206.345	-3460.98
206.725	1160.87
207.106	344.03
207.486	179.89
207.866	258.79
208.246	219.16
208.626	303.39
209.006	789.66
209.386	398.41
209.766	656.29
210.145	-276.31
210.525	-157.05
210.905	-64.92
211.285	-24.55
211.664	-21.06
212.044	-18.79
212.424	-46.61
212.803	-54.82
213.183	-44.35
213.562	-29.53
213.942	-27.05
214.321	-14.98
214.701	-3.59
215.08	-12.11
215.459	-8.35
215.838	-5.11
216.218	-8.15
216.597	-6.92
216.976	-3.06
217.355	-7.32
217.734	-1.04
218.113	12.41
218.492	15.88
218.871	10.74
219.25	22.46
219.629	31.97
220.008	33.41
220.387	49.5
220.766	52.1
221.144	68.6
221.523	22.24
221.902	28.78
222.28	-39.53
222.659	-36.55
223.037	-3.09
223.416	-48.76
223.794	-52.73
224.173	-18.25
224.551	6.2
224.929	-38.59
225.308	-17.37
225.686	-22.88
226.064	-20.17
226.442	-22.8
226.821	-16.07
227.199	-22.33
227.577	-25.51
227.955	-29.45
228.333	-31.47
228.711	-22.68
229.089	-14.23
229.467	-10.73
229.845	-10.85
230.222	-7.34
230.6	-9.05
230.978	-12.59
231.356	-8.58
231.733	-5.86
232.111	-4.28
232.488	-5.18
232.866	-3.02
233.243	-4.01
233.621	-4.25
233.998	-2.44
234.376	-3.09
234.753	-3.18
235.13	-1.2
235.508	1.14
235.885	1.74
236.262	0.45
236.639	-0.86
237.016	0.07
237.393	1.25
237.77	2.96
238.147	2.77
238.524	3.49
238.901	4.86
239.278	4.18
239.655	4.38
240.032	3.55
240.409	3.44
240.785	4.01
241.162	4.01
241.539	3.97
241.915	3.24
242.292	3.12
242.668	3.45
243.045	3.35
243.421	2.72
243.798	2.73
244.174	2.83
244.551	2.97
244.927	2.74
245.303	3.2
245.679	3.43
246.056	3.41
246.432	3.22
246.808	2.97
247.184	3.08
247.56	2.88
247.936	3.14
248.312	3.43
248.688	3.38
249.064	3.71
249.44	3.72
249.815	3.96
250.191	4.22
250.567	4.22
250.943	4.28
251.318	4.72
251.694	4.96
252.069	5.12
252.445	5.07
252.82	5.24
253.196	4.71
253.571	4.41
253.947	4.29
254.322	4.49
254.697	4.52
255.073	4.13
255.448	3.94
255.823	3.75
256.198	3.74
256.573	3.65
256.948	3.5
257.323	3.57
257.698	3.67
258.073	3.64
258.448	3.47
258.823	3.33
259.198	3.2
259.573	3.1
259.948	3.05
260.322	3.14
260.697	3.12
261.072	3.12
261.446	3.06
261.821	3.11
262.195	2.99
262.57	3.08
262.944	3.1
263.319	3.12
263.693	2.85
264.067	2.73
264.442	2.79
264.816	2.6
265.19	2.57
265.564	2.4
265.938	2.37
266.313	2.38
266.687	2.52
267.061	2.68
267.435	2.99
267.809	3.12
268.183	3.09
268.556	2.96
268.93	2.95
269.304	2.99
269.678	3.14
270.051	3.2
270.425	3.24
270.799	3.27
271.172	3.23
271.546	3.47
271.919	3.37
272.293	3.28
272.666	3.31
273.04	3.31
273.413	3.36
273.787	3.29
274.16	3.31
274.533	3.16
274.906	2.99
275.279	2.76
275.653	2.7
276.026	2.67
276.399	2.7
276.772	2.72
277.145	2.6
277.518	2.65
277.891	2.67
278.263	2.72
278.636	2.99
279.009	3.11
279.382	3.11
279.755	3.22
280.127	3.35
280.5	3.32
280.872	3.32
281.245	3.35
281.617	3.49
281.99	3.47
282.362	3.55
282.735	3.62
283.107	3.61
283.479	3.69
283.852	3.67
284.224	3.59
284.596	3.58
284.968	3.74
285.34	3.71
285.713	3.7
286.085	3.7
286.457	3.54
286.829	3.61
287.201	3.71
287.572	3.64
287.944	3.62
288.316	3.7
288.688	3.69
289.06	3.63
289.431	3.55
289.803	3.71
290.175	3.76
290.546	3.77
290.918	3.82
291.289	3.82
291.661	3.94
292.032	4.14
292.403	4.29
292.775	4.29
293.146	4.35
293.517	4.39
293.889	4.41
294.26	4.43
294.631	4.46
295.002	4.46
295.373	4.52
295.744	4.62
296.115	4.61
296.486	4.63
296.857	4.61
297.228	4.7
297.599	4.66
297.97	4.68
298.34	4.77
298.711	4.85
299.082	4.76
299.452	4.8
299.823	4.84
300.194	4.89
300.564	4.91
300.935	4.84
301.305	4.95
301.676	5.1
302.046	5.18
302.416	5.23
302.787	5.17
303.157	5.22
303.527	5.34
303.897	5.42
304.267	5.42
304.637	5.62
305.008	5.72
305.378	5.82
305.748	5.89
306.117	5.86
306.487	5.89
306.857	6.12
307.227	6.11
307.597	5.98
307.967	6.07
308.336	6
308.706	6.07
309.076	6.13
309.445	6.01
309.815	6.11
310.184	6.06
310.554	6.23
310.923	6.29
311.293	6.21
311.662	6.32
312.031	6.47
312.401	6.44
312.77	6.5
313.139	6.56
313.508	6.56
313.877	6.64
314.246	6.64
314.616	6.62
314.985	6.65
315.353	6.8
315.722	6.79
316.091	6.98
316.46	6.97
316.829	6.88
317.198	7.02
317.567	6.91
317.935	7.01
318.304	6.94
318.672	6.93
319.041	7.14
319.41	7.24
319.778	7.09
320.147	7.26
320.515	7.16
320.883	7.18
321.252	7.45
321.62	7.61
321.988	7.83
322.357	7.97
322.725	7.97
323.093	8.14
323.461	8.03
323.829	8.18
324.197	8.25
324.565	8.35
324.933	8.43
325.301	8.48
325.669	8.59
326.037	8.62
326.405	8.74
326.772	8.8
327.14	8.82
327.508	9.05
327.875	9.03
328.243	9.2
328.61	9.3
328.978	9.24
329.346	9.2
329.713	9.07
330.08	9
330.448	8.92
330.815	8.91
331.182	9.12
331.55	9.1
331.917	9.16
332.284	9.18
332.651	9.15
333.018	9.27
333.385	9.31
333.752	9.45
334.119	9.53
334.486	9.39
334.853	9.35
335.22	9.32
335.587	9.45
335.954	9.42
336.32	9.35
336.687	9.39
337.054	9.47
337.42	9.54
337.787	9.66
338.153	9.91
338.52	9.85
338.886	9.75
339.253	9.75
339.619	9.84
339.986	9.92
340.352	9.95
340.718	9.99
341.084	9.93
341.451	10.02
341.817	10.11
342.183	10.02
342.549	9.96
342.915	10.01
343.281	9.99
343.647	9.88
344.013	9.95
344.379	9.86
344.745	9.87
345.11	9.92
345.476	9.92
345.842	9.91
346.208	9.93
346.573	10.06
346.939	10.18
347.304	10.11
347.67	10.07
348.035	9.98
348.401	9.95
348.766	9.93
349.132	9.91
349.497	9.88
349.862	10.04
350.228	10.08
350.593	10.06
350.958	9.98
351.323	10.18
351.688	10.19
352.053	10.32
352.418	10.33
352.783	10.37
353.148	10.34
353.513	10.25
353.878	10.37
354.243	10.43
354.608	10.33
354.972	10.43
355.337	10.46
355.702	10.61
356.066	10.65
356.431	10.73
356.795	10.63
357.16	10.61
357.524	10.58
357.889	10.62
358.253	10.66
358.618	10.65
358.982	10.56
359.346	10.5
359.71	10.42
360.075	10.34
360.439	10.26
360.803	10.18
361.167	10.17
361.531	10.1
361.895	9.97
362.259	9.89
362.623	9.84
362.987	9.81
363.351	9.71
363.714	9.62
364.078	9.46
364.442	9.4
364.806	9.35
365.169	9.29
365.533	9.25
365.896	9.22
366.26	9.18
366.623	9.16
366.987	9.05
367.35	9.01
367.714	8.96
368.077	8.91
368.44	8.82
368.803	8.8
369.167	8.68
369.53	8.57
369.893	8.62
370.256	8.53
370.619	8.54
370.982	8.48
371.345	8.43
371.708	8.51
372.071	8.5
372.434	8.38
372.797	8.31
373.159	8.19
373.522	8.11
373.885	8.04
374.247	7.97
374.61	7.98
374.973	7.9
375.335	7.83
375.698	7.81
376.06	7.79
376.423	7.76
376.785	7.75
377.147	7.79
377.51	7.69
377.872	7.63
378.234	7.53
378.596	7.51
378.958	7.42
379.321	7.3
379.683	7.26
380.045	7.21
380.407	7.17
380.769	7.11
381.13	7.04
381.492	7
381.854	6.92
382.216	6.83
382.578	6.75
382.939	6.68
383.301	6.64
383.663	6.61
384.024	6.55
384.386	6.5
384.747	6.48
385.109	6.46
385.47	6.4
385.832	6.32
386.193	6.3
386.554	6.25
386.916	6.22
387.277	6.17
387.638	6.17
387.999	6.1
388.36	6.09
388.721	6.04
389.082	6.01
389.443	5.98
389.804	5.91
390.165	5.92
390.526	5.94
390.887	5.85
391.248	5.83
391.609	5.78
391.969	5.74
392.33	5.66
392.691	5.6
393.051	5.57
393.412	5.58
393.772	5.48
394.133	5.44
394.493	5.39
394.854	5.35
395.214	5.28
395.574	5.25
395.935	5.18
396.295	5.13
396.655	5.07
397.015	5.05
397.376	5.07
397.736	4.97
398.096	4.89
398.456	4.87
398.816	4.81
399.176	4.74
399.535	4.68
399.895	4.64
400.255	4.6
400.615	4.56
400.975	4.52
401.334	4.51
401.694	4.5
402.054	4.46
402.413	4.45
402.773	4.43
403.132	4.41
403.492	4.38
403.851	4.37
404.211	4.38
404.57	4.32
404.929	4.3
405.288	4.3
405.648	4.3
406.007	4.31
406.366	4.32
406.725	4.32
407.084	4.37
407.443	4.38
407.802	4.38
408.161	4.36
408.52	4.32
408.879	4.29
409.238	4.27
409.596	4.29
409.955	4.25
410.314	4.25
410.673	4.22
411.031	4.2
411.39	4.18
411.748	4.13
412.107	4.14
412.465	4.1
412.824	4.09
413.182	4.05
413.54	4.01
413.899	3.99
414.257	3.96
414.615	3.89
414.974	3.86
415.332	3.82
415.69	3.82
416.048	3.8
416.406	3.81
416.764	3.77
417.122	3.75
417.48	3.72
417.838	3.69
418.195	3.67
418.553	3.66
418.911	3.64
419.269	3.63
419.626	3.6
419.984	3.58
420.342	3.55
420.699	3.54
421.057	3.53
421.414	3.51
421.772	3.51
422.129	3.49
422.486	3.48
422.844	3.47
423.201	3.44
423.558	3.44
423.915	3.41
424.273	3.42
424.63	3.4
424.987	3.39
425.344	3.38
425.701	3.37
426.058	3.36
426.415	3.35
426.772	3.34
427.128	3.32
427.485	3.32
427.842	3.32
428.199	3.32
428.555	3.31
428.912	3.32
429.269	3.31
429.625	3.31
429.982	3.29
430.338	3.28
430.695	3.28
431.051	3.26
431.407	3.27
431.764	3.25
432.12	3.25
432.476	3.25
432.832	3.24
433.189	3.22
433.545	3.23
433.901	3.21
434.257	3.21
434.613	3.23
434.969	3.23
435.325	3.23
435.681	3.22
436.036	3.21
436.392	3.18
436.748	3.16
437.104	3.14
437.459	3.13
437.815	3.15
438.171	3.15
438.526	3.15
438.882	3.15
439.237	3.17
439.593	3.18
439.948	3.18
440.304	3.2
440.659	3.2
441.014	3.2
441.369	3.2
441.725	3.2
442.08	3.18
442.435	3.15
442.79	3.15
443.145	3.15
443.5	3.13
443.855	3.13
444.21	3.15
444.565	3.15
444.92	3.14
445.275	3.11
445.629	3.1
445.984	3.1
446.339	3.07
446.693	3.06
447.048	3.04
447.403	3.02
447.757	3
448.112	2.99
448.466	2.97
448.82	2.99
449.175	3
449.529	3
449.883	3
450.238	2.98
450.592	2.99
450.946	3
451.3	2.99
451.654	2.98
452.008	2.97
452.362	2.98
452.716	2.98
453.07	2.98
453.424	2.97
453.778	2.98
454.132	2.97
454.486	2.97
454.839	2.98
455.193	2.97
455.547	2.97
455.9	2.98
456.254	2.97
456.607	2.95
456.961	2.95
457.314	2.97
457.668	2.99
458.021	2.96
458.375	2.98
458.728	2.99
459.081	2.99
459.434	2.99
459.787	2.99
460.141	3
460.494	3.01
460.847	3.02
461.2	3
461.553	3.01
461.906	3.03
462.259	3.05
462.611	3.06
462.964	3.08
463.317	3.1
463.67	3.11
464.022	3.11
464.375	3.1
464.728	3.11
465.08	3.1
465.433	3.12
465.785	3.12
466.138	3.12
466.49	3.14
466.843	3.17
467.195	3.18
467.547	3.18
467.899	3.18
468.252	3.19
468.604	3.23
468.956	3.23
469.308	3.26
469.66	3.24
470.012	3.27
470.364	3.27
470.716	3.27
471.068	3.27
471.42	3.29
471.772	3.31
472.123	3.32
472.475	3.34
472.827	3.35
473.178	3.35
473.53	3.34
473.882	3.34
474.233	3.34
474.585	3.34
474.936	3.33
475.288	3.32
475.639	3.32
475.99	3.32
476.342	3.32
476.693	3.31
477.044	3.32
477.395	3.29
477.746	3.27
478.097	3.25
478.448	3.23
478.8	3.21
479.15	3.19
479.501	3.19
479.852	3.2
480.203	3.2
480.554	3.19
480.905	3.21
481.255	3.21
481.606	3.22
481.957	3.22
482.307	3.23
482.658	3.24
483.009	3.25
483.359	3.26
483.709	3.26
484.06	3.25
484.41	3.25
484.761	3.26
485.111	3.26
485.461	3.27
485.811	3.28
486.162	3.29
486.512	3.31
486.862	3.32
487.212	3.33
487.562	3.34
487.912	3.35
488.262	3.35
488.612	3.35
488.961	3.36
489.311	3.38
489.661	3.39
490.011	3.4
490.36	3.4
490.71	3.41
491.06	3.42
491.409	3.44
491.759	3.46
492.108	3.47
492.458	3.48
492.807	3.5
493.157	3.52
493.506	3.55
493.855	3.57
494.204	3.59
494.554	3.61
494.903	3.62
495.252	3.65
495.601	3.71
495.95	3.75
496.299	3.78
496.648	3.8
496.997	3.83
497.346	3.87
497.695	3.93
498.043	3.98
498.392	4
498.741	4.05
499.09	4.09
499.438	4.14
499.787	4.19
500.135	4.24
500.484	4.27
500.832	4.33
501.181	4.39
501.529	4.44
501.878	4.5
502.226	4.56
502.574	4.62
502.923	4.66
503.271	4.72
503.619	4.81
503.967	4.87
504.315	4.94
504.663	5.03
505.011	5.09
505.359	5.15
505.707	5.22
506.055	5.29
506.403	5.36
506.751	5.45
507.098	5.55
507.446	5.63
507.794	5.72
508.141	5.8
508.489	5.9
508.837	6
509.184	6.1
509.531	6.16
509.879	6.27
510.226	6.38
510.574	6.48
510.921	6.57
511.268	6.67
511.616	6.76
511.963	6.88
512.31	6.99
512.657	7.11
513.004	7.24
513.351	7.39
513.698	7.57
514.045	7.69
514.392	7.84
514.739	7.99
515.086	8.14
515.432	8.29
515.779	8.44
516.126	8.6
516.473	8.75
516.819	8.92
517.166	9.06
517.512	9.19
517.859	9.33
518.205	9.47
518.552	9.61
518.898	9.75
519.245	9.89
519.591	10.03
519.937	10.16
520.283	10.32
520.629	10.46
520.976	10.6
521.322	10.79
521.668	10.97
522.014	11.16
522.36	11.35
522.706	11.58
523.052	11.81
523.398	12.06
523.743	12.28
524.089	12.54
524.435	12.77
524.781	13
525.126	13.22
525.472	13.44
525.817	13.66
526.163	13.88
526.509	14.05
526.854	14.24
527.199	14.44
527.545	14.6
527.89	14.77
528.235	14.94
528.581	15.11
528.926	15.28
529.271	15.45
529.616	15.64
529.961	15.81
530.306	15.98
530.651	16.16
530.996	16.38
531.341	16.59
531.686	16.83
532.031	17.04
532.376	17.28
532.721	17.5
533.065	17.72
533.41	17.97
533.755	18.22
534.099	18.47
534.444	18.7
534.788	18.97
535.133	19.23
535.477	19.5
535.822	19.77
536.166	20.07
536.51	20.37
536.855	20.68
537.199	21
537.543	21.34
537.887	21.67
538.231	22.01
538.576	22.35
538.92	22.68
539.264	23.03
539.608	23.35
539.951	23.65
540.295	23.92
540.639	24.19
540.983	24.46
541.327	24.71
541.671	24.99
542.014	25.24
542.358	25.46
542.701	25.7
543.045	25.95
543.389	26.22
543.732	26.48
544.075	26.76
544.419	27.05
544.762	27.34
545.105	27.65
545.449	27.98
545.792	28.29
546.135	28.63
546.478	28.98
546.821	29.33
547.165	29.68
547.508	30.06
547.851	30.4
548.194	30.74
548.536	31.14
548.879	31.49
549.222	31.88
549.565	32.27
549.908	32.67
550.25	33.06
550.593	33.43
550.936	33.85
551.278	34.24
551.621	34.59
551.963	34.92
552.306	35.3
552.648	35.62
552.991	35.99
553.333	36.3
553.675	36.61
554.017	36.93
554.36	37.27
554.702	37.58
555.044	37.91
555.386	38.23
555.728	38.57
556.07	38.95
556.412	39.26
556.754	39.58
557.096	39.93
557.438	40.2
557.78	40.53
558.121	40.82
558.463	41.16
558.805	41.45
559.147	41.77
559.488	42.03
559.83	42.34
560.171	42.65
560.513	42.99
560.854	43.29
561.196	43.64
561.537	43.95
561.878	44.19
562.22	44.56
562.561	44.83
562.902	45.11
563.243	45.34
563.584	45.6
563.925	45.87
564.266	46.1
564.607	46.43
564.948	46.72
565.289	47
565.63	47.27
565.971	47.45
566.312	47.76
566.653	48
566.993	48.25
567.334	48.47
567.675	48.69
568.015	48.95
568.356	49.2
568.696	49.47
569.037	49.73
569.377	49.93
569.718	50.2
570.058	50.42
570.398	50.69
570.739	50.95
571.079	51.23
571.419	51.42
571.759	51.62
572.099	51.75
572.439	51.89
572.779	52.01
573.119	52.29
573.459	52.46
573.799	52.65
574.139	52.8
574.479	52.99
574.819	53.18
575.158	53.29
575.498	53.41
575.838	53.56
576.177	53.8
576.517	53.98
576.856	54.14
577.196	54.31
577.535	54.47
577.875	54.66
578.214	54.84
578.553	55.09
578.893	55.22
579.232	55.46
579.571	55.67
579.91	55.82
580.25	55.99
580.589	56.19
580.928	56.39
581.267	56.56
581.606	56.7
581.945	56.87
582.283	57.1
582.622	57.27
582.961	57.42
583.3	57.5
583.639	57.64
583.977	57.79
584.316	57.88
584.654	57.99
584.993	58.1
585.332	58.15
585.67	58.22
586.008	58.38
586.347	58.47
586.685	58.64
587.024	58.8
587.362	58.94
587.7	58.94
588.038	59.05
588.376	59.23
588.715	59.32
589.053	59.43
589.391	59.54
589.729	59.65
590.067	59.71
590.404	59.78
590.742	59.83
591.08	59.91
591.418	60.07
591.756	60.21
592.093	60.28
592.431	60.41
592.769	60.56
593.106	60.73
593.444	60.84
593.781	60.85
594.119	60.96
594.456	61.08
594.793	61.28
595.131	61.39
595.468	61.42
595.805	61.53
596.143	61.58
596.48	61.65
596.817	61.7
597.154	61.82
597.491	61.94
597.828	62.09
598.165	62.11
598.502	62.14
598.839	62.14
599.176	62.21
599.512	62.28
599.849	62.29
600.186	62.34
600.523	62.42
600.859	62.61
601.196	62.65
601.532	62.72
601.869	62.76
602.205	62.79
602.542	62.93
602.878	62.96
603.215	63.02
603.551	63.07
603.887	63.09
604.223	63.11
604.56	63.09
604.896	63.16
605.232	63.22
605.568	63.35
605.904	63.4
606.24	63.51
606.576	63.56
606.912	63.65
607.248	63.67
607.583	63.75
607.919	63.72
608.255	63.82
608.591	63.92
608.926	63.93
609.262	64.02
609.597	64.06
609.933	64.1
610.268	64.18
610.604	64.23
610.939	64.28
611.275	64.38
611.61	64.49
611.945	64.53
612.281	64.64
612.616	64.68
612.951	64.89
613.286	65.04
613.621	65.14
613.956	65.21
614.291	65.28
614.626	65.32
614.961	65.4
615.296	65.38
615.631	65.37
615.966	65.44
616.3	65.47
616.635	65.53
616.97	65.68
617.304	65.69
617.639	65.74
617.973	65.85
618.308	65.81
618.642	65.85
618.977	65.94
619.311	65.94
619.646	65.91
619.98	65.75
620.314	65.67
620.648	65.72
620.983	65.75
621.317	65.78
621.651	65.85
621.985	65.89
622.319	66.01
622.653	66.02
622.987	66.06
623.321	66.1
623.655	66.09
623.988	66.05
624.322	66.04
624.656	66.05
624.99	66.12
625.323	66.12
625.657	66.29
625.99	66.28
626.324	66.34
626.657	66.35
626.991	66.44
627.324	66.51
627.658	66.6
627.991	66.66
628.324	66.76
628.657	66.71
628.991	66.79
629.324	66.88
629.657	66.94
629.99	66.95
630.323	66.93
630.656	66.91
630.989	66.93
631.322	67.02
631.655	67.16
631.987	67.12
632.32	67.3
632.653	67.22
632.986	67.23
633.318	67.23
633.651	67.28
633.984	67.26
634.316	67.25
634.649	67.22
634.981	67.28
635.313	67.18
635.646	67.27
635.978	67.14
636.31	67.1
636.643	67.05
636.975	67.12
637.307	67.21
637.639	67.24
637.971	67.23
638.303	67.27
638.635	67.19
638.967	67.26
639.299	67.27
639.631	67.3
639.963	67.24
640.295	67.38
640.626	67.38
640.958	67.43
641.29	67.47
641.621	67.48
641.953	67.32
642.285	67.38
642.616	67.36
642.948	67.51
643.279	67.51
643.61	67.65
643.942	67.66
644.273	67.62
644.604	67.67
644.936	67.73
645.267	67.68
645.598	67.67
645.929	67.73
646.26	67.62
646.591	67.74
646.922	67.98
647.253	67.78
647.584	67.87
647.915	67.99
648.245	67.93
648.576	67.92
648.907	68
649.238	68.15
649.568	68.09
649.899	68.04
650.229	68.07
650.56	68.06
650.89	67.99
651.221	68.08
651.551	68.07
651.882	68
652.212	68.06
652.542	68.08
652.872	68.08
653.203	68.1
653.533	68.09
653.863	67.87
654.193	68.07
654.523	68.08
654.853	67.94
655.183	68.02
655.513	68.02
655.843	68.11
656.172	67.9
656.502	68.12
656.832	68.12
657.162	68.13
657.491	68.03
657.821	68.11
658.15	68.11
658.48	68.18
658.809	68.36
659.139	68.45
659.468	68.46
659.798	68.45
660.127	68.44
660.456	68.38
660.785	68.58
661.115	68.53
661.444	68.6
661.773	68.68
662.102	68.61
662.431	68.49
662.76	68.48
663.089	68.61
663.418	68.46
663.747	68.56
664.076	68.65
664.404	68.8
664.733	68.79
665.062	68.8
665.39	68.77
665.719	68.67
666.048	68.52
666.376	68.48
666.705	68.55
