Data from BA28471_Reflection_00009.txt Node
Date: Mon Nov 18 15:21:18 EST 2019
User: vgr7
Spectrometer: USB2G7710
Scans to average: 3
Trigger mode: 4
Integration Time (sec): 2.000000E-2
Electric dark correction enabled: true
Boxcar width: 10
XAxis mode: Wavelengths
Number of Pixels in Spectrum: 2048
>>>>>Begin Spectral Data<<<<<
177.721	7.13
178.105	227.17
178.488	221.99
178.871	83.3
179.254	64.93
179.636	130.94
180.019	333.93
180.402	94.87
180.785	3148.19
181.168	132.33
181.55	89.43
181.933	46.96
182.316	79.06
182.698	128.7
183.081	124.58
183.463	94.75
183.846	169.69
184.228	68.46
184.611	177.55
184.993	755.17
185.376	123.04
185.758	-34.13
186.14	-741.06
186.522	-5952.63
186.904	293.08
187.287	224.3
187.669	-314.25
188.051	-99.53
188.433	-26.1
188.815	47.73
189.197	42.54
189.579	23.08
189.961	-13.29
190.342	-25.05
190.724	-22.46
191.106	-15.81
191.488	-37.36
191.869	-65.26
192.251	-98.51
192.633	-151.68
193.014	-429.04
193.396	-627.79
193.777	-687.94
194.159	-955.38
194.54	-368.52
194.922	-272.67
195.303	-586.88
195.684	-493.09
196.065	-286.03
196.447	-445.36
196.828	-738.35
197.209	-365.53
197.59	-444.87
197.971	-429.52
198.352	-411.19
198.733	-1028.69
199.114	-823.24
199.495	-333.3
199.876	-269.98
200.257	-128.94
200.638	-67.97
201.018	-54.26
201.399	-43.09
201.78	-19.83
202.16	-32.19
202.541	-31.19
202.922	-34.86
203.302	-48.43
203.683	-47.21
204.063	-57.51
204.444	-15.95
204.824	-20.64
205.204	-18.09
205.585	-16.29
205.965	-2.49
206.345	1.47
206.725	-17.13
207.106	-25.39
207.486	-50.69
207.866	-42.49
208.246	-46.75
208.626	-61.11
209.006	-44.07
209.386	-84.79
209.766	-113.11
210.145	-80.94
210.525	-75.43
210.905	-53.41
211.285	-11.71
211.664	-29.87
212.044	-34.6
212.424	-48.76
212.803	-40.65
213.183	-35.5
213.562	-41.51
213.942	-41.51
214.321	-49.59
214.701	-54.6
215.08	-51.22
215.459	-40.66
215.838	-17.59
216.218	-38.95
216.597	-15.76
216.976	-27.3
217.355	-14.09
217.734	-9.35
218.113	-4.81
218.492	-0.56
218.871	-9.14
219.25	-20.7
219.629	-0.34
220.008	-6.06
220.387	2.02
220.766	-8.55
221.144	-26.68
221.523	-30.74
221.902	-45.71
222.28	-49.52
222.659	-35.68
223.037	-19.34
223.416	-16.32
223.794	-46.23
224.173	-38.47
224.551	-39.93
224.929	-39.51
225.308	-21.83
225.686	-29.88
226.064	-28.94
226.442	-24.07
226.821	-12.05
227.199	-14.6
227.577	-15.87
227.955	-9.27
228.333	-13.66
228.711	-11.35
229.089	-5.23
229.467	-7.1
229.845	-7.72
230.222	-6.86
230.6	-6.27
230.978	-8.97
231.356	-7.18
231.733	-3.99
232.111	-2.69
232.488	-2.35
232.866	-2.46
233.243	-3.04
233.621	-2.88
233.998	-1.5
234.376	-3.73
234.753	-2.97
235.13	-1.55
235.508	-0.1
235.885	0.18
236.262	1.01
236.639	-0.78
237.016	-2.49
237.393	0.14
237.77	1.93
238.147	2.07
238.524	2.73
238.901	3.74
239.278	4.3
239.655	4.7
240.032	4.24
240.409	3.76
240.785	4.37
241.162	4.41
241.539	4.68
241.915	4.44
242.292	4.6
242.668	3.78
243.045	4.12
243.421	4
243.798	3.83
244.174	3.64
244.551	4.45
244.927	4.63
245.303	4.57
245.679	4.64
246.056	4.73
246.432	4.59
246.808	4.52
247.184	4.35
247.56	4.29
247.936	4.28
248.312	4.4
248.688	4.37
249.064	4.44
249.44	4.32
249.815	4.46
250.191	4.38
250.567	4.64
250.943	4.5
251.318	4.56
251.694	4.78
252.069	5.02
252.445	4.67
252.82	4.47
253.196	4.52
253.571	4.46
253.947	4.75
254.322	4.99
254.697	5.09
255.073	4.91
255.448	4.8
255.823	4.98
256.198	5.21
256.573	4.94
256.948	4.76
257.323	4.94
257.698	4.84
258.073	5.06
258.448	5.04
258.823	4.99
259.198	4.9
259.573	4.69
259.948	4.56
260.322	4.58
260.697	4.64
261.072	4.49
261.446	4.4
261.821	4.3
262.195	4.26
262.57	4.22
262.944	4.22
263.319	4.16
263.693	4.04
264.067	3.98
264.442	4.1
264.816	4.07
265.19	3.82
265.564	3.6
265.938	3.29
266.313	3.3
266.687	3.42
267.061	3.24
267.435	3.44
267.809	3.48
268.183	3.52
268.556	3.49
268.93	3.75
269.304	3.85
269.678	3.8
270.051	3.81
270.425	3.94
270.799	3.97
271.172	3.95
271.546	3.94
271.919	3.92
272.293	3.97
272.666	4.05
273.04	4.03
273.413	4.22
273.787	4.38
274.16	4.33
274.533	4.29
274.906	4.31
275.279	4.07
275.653	4.14
276.026	4.23
276.399	4.38
276.772	4.17
277.145	4.1
277.518	4.06
277.891	4.03
278.263	3.74
278.636	3.83
279.009	3.96
279.382	4.16
279.755	4.03
280.127	4.02
280.5	3.93
280.872	4.17
281.245	4.01
281.617	4
281.99	4.05
282.362	4.06
282.735	4.13
283.107	4.17
283.479	4.2
283.852	4.15
284.224	4.12
284.596	4.18
284.968	4.19
285.34	4.2
285.713	4.12
286.085	4.31
286.457	4.34
286.829	4.38
287.201	4.28
287.572	4.27
287.944	4.21
288.316	4.3
288.688	4.27
289.06	4.27
289.431	4.22
289.803	4.35
290.175	4.23
290.546	4.25
290.918	4.29
291.289	4.32
291.661	4.42
292.032	4.42
292.403	4.54
292.775	4.63
293.146	4.65
293.517	4.71
293.889	4.62
294.26	4.65
294.631	4.64
295.002	4.74
295.373	4.74
295.744	4.75
296.115	4.7
296.486	4.59
296.857	4.71
297.228	4.83
297.599	4.69
297.97	4.79
298.34	4.84
298.711	4.84
299.082	4.84
299.452	4.71
299.823	4.71
300.194	4.63
300.564	4.53
300.935	4.67
301.305	4.62
301.676	4.69
302.046	4.67
302.416	4.71
302.787	4.64
303.157	4.68
303.527	4.8
303.897	4.88
304.267	5.05
304.637	5.18
305.008	5.22
305.378	5.33
305.748	5.45
306.117	5.46
306.487	5.56
306.857	5.6
307.227	5.74
307.597	5.79
307.967	5.78
308.336	5.84
308.706	5.84
309.076	6
309.445	6.02
309.815	5.96
310.184	6.01
310.554	6.13
310.923	6.16
311.293	6.15
311.662	6.17
312.031	6.11
312.401	6.14
312.77	6.27
313.139	6.43
313.508	6.56
313.877	6.67
314.246	6.77
314.616	6.85
314.985	6.86
315.353	6.81
315.722	7
316.091	6.96
316.46	7.05
316.829	7.11
317.198	7.25
317.567	7.48
317.935	7.51
318.304	7.52
318.672	7.64
319.041	7.94
319.41	7.94
319.778	8.19
320.147	8.19
320.515	8.15
320.883	8.09
321.252	8.13
321.62	8.1
321.988	8.17
322.357	8.18
322.725	8.25
323.093	8.48
323.461	8.51
323.829	8.69
324.197	8.7
324.565	8.7
324.933	8.73
325.301	8.69
325.669	8.71
326.037	8.85
326.405	8.96
326.772	8.87
327.14	8.96
327.508	8.98
327.875	9
328.243	8.93
328.61	8.93
328.978	8.85
329.346	8.87
329.713	8.88
330.08	8.9
330.448	8.9
330.815	8.77
331.182	8.88
331.55	8.87
331.917	8.97
332.284	9.11
332.651	9.14
333.018	9.03
333.385	9.1
333.752	9.08
334.119	9.1
334.486	9.11
334.853	9.07
335.22	9.12
335.587	9.27
335.954	9.34
336.32	9.42
336.687	9.5
337.054	9.55
337.42	9.54
337.787	9.6
338.153	9.75
338.52	9.9
338.886	9.84
339.253	9.85
339.619	9.69
339.986	9.72
340.352	9.78
340.718	9.9
341.084	9.94
341.451	9.98
341.817	9.98
342.183	9.92
342.549	9.97
342.915	10.05
343.281	10
343.647	10.02
344.013	10.09
344.379	10.07
344.745	10.1
345.11	10.14
345.476	10.11
345.842	10.03
346.208	10.11
346.573	10.18
346.939	10.34
347.304	10.5
347.67	10.41
348.035	10.37
348.401	10.44
348.766	10.36
349.132	10.42
349.497	10.38
349.862	10.5
350.228	10.59
350.593	10.44
350.958	10.41
351.323	10.45
351.688	10.39
352.053	10.43
352.418	10.54
352.783	10.55
353.148	10.51
353.513	10.53
353.878	10.42
354.243	10.45
354.608	10.37
354.972	10.32
355.337	10.39
355.702	10.49
356.066	10.5
356.431	10.51
356.795	10.54
357.16	10.56
357.524	10.45
357.889	10.37
358.253	10.45
358.618	10.49
358.982	10.44
359.346	10.3
359.71	10.25
360.075	10.15
360.439	10.13
360.803	10.12
361.167	10.11
361.531	10.09
361.895	9.95
362.259	9.89
362.623	9.88
362.987	9.85
363.351	9.76
363.714	9.76
364.078	9.75
364.442	9.67
364.806	9.58
365.169	9.67
365.533	9.63
365.896	9.48
366.26	9.36
366.623	9.34
366.987	9.41
367.35	9.36
367.714	9.33
368.077	9.27
368.44	9.27
368.803	9.22
369.167	9.15
369.53	9.15
369.893	9.17
370.256	9.1
370.619	9.02
370.982	8.94
371.345	8.83
371.708	8.78
372.071	8.69
372.434	8.62
372.797	8.48
373.159	8.42
373.522	8.46
373.885	8.48
374.247	8.45
374.61	8.32
374.973	8.28
375.335	8.24
375.698	8.21
376.06	8.12
376.423	8.07
376.785	8.04
377.147	8.01
377.51	7.92
377.872	7.89
378.234	7.86
378.596	7.8
378.958	7.71
379.321	7.66
379.683	7.66
380.045	7.67
380.407	7.64
380.769	7.62
381.13	7.57
381.492	7.5
381.854	7.45
382.216	7.43
382.578	7.41
382.939	7.3
383.301	7.2
383.663	7.18
384.024	7.12
384.386	7.12
384.747	7.05
385.109	7.03
385.47	6.98
385.832	6.94
386.193	6.93
386.554	6.88
386.916	6.84
387.277	6.78
387.638	6.66
387.999	6.59
388.36	6.51
388.721	6.44
389.082	6.44
389.443	6.36
389.804	6.29
390.165	6.21
390.526	6.18
390.887	6.17
391.248	6.12
391.609	6.1
391.969	6.05
392.33	6.03
392.691	6
393.051	5.97
393.412	5.88
393.772	5.82
394.133	5.81
394.493	5.76
394.854	5.72
395.214	5.72
395.574	5.7
395.935	5.67
396.295	5.64
396.655	5.57
397.015	5.53
397.376	5.52
397.736	5.47
398.096	5.43
398.456	5.39
398.816	5.36
399.176	5.29
399.535	5.23
399.895	5.19
400.255	5.12
400.615	5.04
400.975	5.03
401.334	5.02
401.694	4.96
402.054	4.93
402.413	4.9
402.773	4.86
403.132	4.84
403.492	4.82
403.851	4.81
404.211	4.8
404.57	4.74
404.929	4.75
405.288	4.74
405.648	4.72
406.007	4.69
406.366	4.64
406.725	4.63
407.084	4.6
407.443	4.58
407.802	4.58
408.161	4.56
408.52	4.54
408.879	4.51
409.238	4.49
409.596	4.46
409.955	4.4
410.314	4.4
410.673	4.36
411.031	4.36
411.39	4.34
411.748	4.28
412.107	4.31
412.465	4.25
412.824	4.24
413.182	4.21
413.54	4.19
413.899	4.21
414.257	4.19
414.615	4.2
414.974	4.2
415.332	4.16
415.69	4.14
416.048	4.1
416.406	4.09
416.764	4.08
417.122	4.09
417.48	4.09
417.838	4.05
418.195	4.04
418.553	4.01
418.911	3.98
419.269	3.98
419.626	3.95
419.984	3.95
420.342	3.92
420.699	3.91
421.057	3.88
421.414	3.86
421.772	3.83
422.129	3.8
422.486	3.78
422.844	3.78
423.201	3.76
423.558	3.76
423.915	3.74
424.273	3.74
424.63	3.7
424.987	3.7
425.344	3.7
425.701	3.69
426.058	3.67
426.415	3.67
426.772	3.64
427.128	3.64
427.485	3.62
427.842	3.6
428.199	3.59
428.555	3.59
428.912	3.6
429.269	3.59
429.625	3.58
429.982	3.55
430.338	3.56
430.695	3.57
431.051	3.55
431.407	3.55
431.764	3.56
432.12	3.55
432.476	3.53
432.832	3.5
433.189	3.51
433.545	3.51
433.901	3.51
434.257	3.49
434.613	3.49
434.969	3.49
435.325	3.49
435.681	3.49
436.036	3.5
436.392	3.48
436.748	3.48
437.104	3.47
437.459	3.48
437.815	3.46
438.171	3.47
438.526	3.47
438.882	3.47
439.237	3.46
439.593	3.46
439.948	3.46
440.304	3.47
440.659	3.47
441.014	3.47
441.369	3.45
441.725	3.45
442.08	3.43
442.435	3.43
442.79	3.43
443.145	3.43
443.5	3.42
443.855	3.41
444.21	3.42
444.565	3.43
444.92	3.43
445.275	3.42
445.629	3.4
445.984	3.4
446.339	3.38
446.693	3.35
447.048	3.35
447.403	3.34
447.757	3.32
448.112	3.3
448.466	3.29
448.82	3.28
449.175	3.3
449.529	3.3
449.883	3.28
450.238	3.27
450.592	3.27
450.946	3.26
451.3	3.23
451.654	3.22
452.008	3.2
452.362	3.18
452.716	3.18
453.07	3.17
453.424	3.16
453.778	3.15
454.132	3.15
454.486	3.16
454.839	3.16
455.193	3.16
455.547	3.16
455.9	3.16
456.254	3.17
456.607	3.16
456.961	3.16
457.314	3.17
457.668	3.18
458.021	3.16
458.375	3.16
458.728	3.18
459.081	3.19
459.434	3.19
459.787	3.2
460.141	3.21
460.494	3.2
460.847	3.22
461.2	3.22
461.553	3.25
461.906	3.25
462.259	3.28
462.611	3.31
462.964	3.32
463.317	3.32
463.67	3.32
464.022	3.35
464.375	3.36
464.728	3.37
465.08	3.39
465.433	3.41
465.785	3.42
466.138	3.45
466.49	3.45
466.843	3.47
467.195	3.48
467.547	3.5
467.899	3.53
468.252	3.53
468.604	3.54
468.956	3.54
469.308	3.55
469.66	3.53
470.012	3.53
470.364	3.56
470.716	3.59
471.068	3.59
471.42	3.58
471.772	3.59
472.123	3.6
472.475	3.63
472.827	3.65
473.178	3.67
473.53	3.65
473.882	3.66
474.233	3.66
474.585	3.67
474.936	3.66
475.288	3.65
475.639	3.65
475.99	3.63
476.342	3.65
476.693	3.65
477.044	3.65
477.395	3.64
477.746	3.62
478.097	3.61
478.448	3.59
478.8	3.59
479.15	3.56
479.501	3.55
479.852	3.53
480.203	3.52
480.554	3.53
480.905	3.52
481.255	3.51
481.606	3.51
481.957	3.5
482.307	3.5
482.658	3.5
483.009	3.5
483.359	3.51
483.709	3.51
484.06	3.51
484.41	3.53
484.761	3.53
485.111	3.53
485.461	3.53
485.811	3.54
486.162	3.55
486.512	3.57
486.862	3.57
487.212	3.58
487.562	3.59
487.912	3.58
488.262	3.6
488.612	3.61
488.961	3.62
489.311	3.63
489.661	3.63
490.011	3.65
490.36	3.67
490.71	3.68
491.06	3.68
491.409	3.69
491.759	3.68
492.108	3.69
492.458	3.71
492.807	3.72
493.157	3.74
493.506	3.76
493.855	3.77
494.204	3.8
494.554	3.81
494.903	3.82
495.252	3.86
495.601	3.91
495.95	3.93
496.299	3.95
496.648	3.99
496.997	4.02
497.346	4.05
497.695	4.08
498.043	4.12
498.392	4.15
498.741	4.19
499.09	4.25
499.438	4.31
499.787	4.36
500.135	4.42
500.484	4.46
500.832	4.51
501.181	4.56
501.529	4.62
501.878	4.69
502.226	4.77
502.574	4.83
502.923	4.86
503.271	4.95
503.619	5.04
503.967	5.1
504.315	5.18
504.663	5.27
505.011	5.36
505.359	5.44
505.707	5.54
506.055	5.62
506.403	5.72
506.751	5.81
507.098	5.89
507.446	5.99
507.794	6.05
508.141	6.15
508.489	6.25
508.837	6.34
509.184	6.46
509.531	6.57
509.879	6.68
510.226	6.8
510.574	6.87
510.921	6.98
511.268	7.07
511.616	7.17
511.963	7.28
512.31	7.39
512.657	7.52
513.004	7.62
513.351	7.76
513.698	7.89
514.045	8.02
514.392	8.17
514.739	8.31
515.086	8.45
515.432	8.6
515.779	8.73
516.126	8.88
516.473	9.02
516.819	9.14
517.166	9.26
517.512	9.39
517.859	9.55
518.205	9.67
518.552	9.81
518.898	9.95
519.245	10.07
519.591	10.18
519.937	10.27
520.283	10.44
520.629	10.58
520.976	10.73
521.322	10.89
521.668	11.03
522.014	11.23
522.36	11.42
522.706	11.6
523.052	11.82
523.398	12.04
523.743	12.23
524.089	12.44
524.435	12.67
524.781	12.88
525.126	13.08
525.472	13.29
525.817	13.49
526.163	13.63
526.509	13.78
526.854	13.93
527.199	14.11
527.545	14.25
527.89	14.4
528.235	14.56
528.581	14.7
528.926	14.85
529.271	15
529.616	15.16
529.961	15.32
530.306	15.47
530.651	15.63
530.996	15.83
531.341	16
531.686	16.19
532.031	16.39
532.376	16.59
532.721	16.78
533.065	16.99
533.41	17.24
533.755	17.48
534.099	17.71
534.444	17.92
534.788	18.15
535.133	18.36
535.477	18.59
535.822	18.85
536.166	19.11
536.51	19.39
536.855	19.69
537.199	20.02
537.543	20.36
537.887	20.71
538.231	21.03
538.576	21.37
538.92	21.67
539.264	21.99
539.608	22.29
539.951	22.57
540.295	22.85
540.639	23.11
540.983	23.35
541.327	23.61
541.671	23.88
542.014	24.13
542.358	24.41
542.701	24.65
543.045	24.89
543.389	25.16
543.732	25.44
544.075	25.7
544.419	25.97
544.762	26.24
545.105	26.51
545.449	26.8
545.792	27.11
546.135	27.45
546.478	27.78
546.821	28.11
547.165	28.44
547.508	28.78
547.851	29.16
548.194	29.51
548.536	29.89
548.879	30.27
549.222	30.65
549.565	31.03
549.908	31.44
550.25	31.82
550.593	32.16
550.936	32.45
551.278	32.84
551.621	33.19
551.963	33.56
552.306	33.97
552.648	34.31
552.991	34.66
553.333	35.02
553.675	35.3
554.017	35.66
554.36	35.99
554.702	36.32
555.044	36.64
555.386	36.95
555.728	37.22
556.07	37.55
556.412	37.88
556.754	38.19
557.096	38.43
557.438	38.77
557.78	39.13
558.121	39.46
558.463	39.76
558.805	40.11
559.147	40.39
559.488	40.66
559.83	40.95
560.171	41.31
560.513	41.67
560.854	42.03
561.196	42.28
561.537	42.66
561.878	42.97
562.22	43.24
562.561	43.61
562.902	43.94
563.243	44.2
563.584	44.44
563.925	44.69
564.266	44.99
564.607	45.19
564.948	45.48
565.289	45.74
565.63	45.99
565.971	46.16
566.312	46.39
566.653	46.59
566.993	46.87
567.334	47.01
567.675	47.21
568.015	47.46
568.356	47.69
568.696	47.83
569.037	48.05
569.377	48.25
569.718	48.43
570.058	48.64
570.398	48.81
570.739	48.96
571.079	49.19
571.419	49.39
571.759	49.62
572.099	49.74
572.439	49.89
572.779	50.04
573.119	50.25
573.459	50.45
573.799	50.6
574.139	50.72
574.479	50.88
574.819	51.02
575.158	51.08
575.498	51.24
575.838	51.39
576.177	51.52
576.517	51.67
576.856	51.78
577.196	51.93
577.535	52.1
577.875	52.31
578.214	52.42
578.553	52.65
578.893	52.73
579.232	52.93
579.571	53.14
579.91	53.33
580.25	53.4
580.589	53.48
580.928	53.64
581.267	53.82
581.606	53.93
581.945	54.02
582.283	54.18
582.622	54.34
582.961	54.4
583.3	54.43
583.639	54.54
583.977	54.72
584.316	54.79
584.654	54.97
584.993	55.14
585.332	55.32
585.67	55.38
586.008	55.52
586.347	55.6
586.685	55.69
587.024	55.83
587.362	56.02
587.7	56.15
588.038	56.33
588.376	56.39
588.715	56.58
589.053	56.79
589.391	56.88
589.729	56.95
590.067	57.06
590.404	57.27
590.742	57.37
591.08	57.45
591.418	57.58
591.756	57.64
592.093	57.6
592.431	57.66
592.769	57.7
593.106	57.8
593.444	57.85
593.781	57.91
594.119	57.99
594.456	58.07
594.793	58.16
595.131	58.23
595.468	58.33
595.805	58.36
596.143	58.37
596.48	58.39
596.817	58.51
597.154	58.58
597.491	58.59
597.828	58.7
598.165	58.82
598.502	58.87
598.839	58.98
599.176	59.1
599.512	59.2
599.849	59.31
600.186	59.39
600.523	59.52
600.859	59.65
601.196	59.68
601.532	59.73
601.869	59.8
602.205	59.84
602.542	59.89
602.878	59.93
603.215	59.98
603.551	60.01
603.887	60.04
604.223	60.08
604.56	60.18
604.896	60.21
605.232	60.21
605.568	60.23
605.904	60.25
606.24	60.35
606.576	60.33
606.912	60.35
607.248	60.35
607.583	60.36
607.919	60.42
608.255	60.49
608.591	60.53
608.926	60.55
609.262	60.57
609.597	60.55
609.933	60.67
610.268	60.7
610.604	60.84
610.939	60.83
611.275	60.86
611.61	60.85
611.945	60.88
612.281	60.92
612.616	60.95
612.951	61.01
613.286	61.02
613.621	61.09
613.956	61.11
614.291	61.21
614.626	61.21
614.961	61.17
615.296	61.19
615.631	61.29
615.966	61.35
616.3	61.37
616.635	61.5
616.97	61.43
617.304	61.49
617.639	61.55
617.973	61.6
618.308	61.73
618.642	61.9
618.977	61.98
619.311	61.99
619.646	62.06
619.98	62
620.314	62.02
620.648	62
620.983	62.05
621.317	62.03
621.651	62.12
621.985	62.29
622.319	62.3
622.653	62.25
622.987	62.29
623.321	62.37
623.655	62.35
623.988	62.44
624.322	62.43
624.656	62.48
624.99	62.49
625.323	62.54
625.657	62.51
625.99	62.47
626.324	62.48
626.657	62.55
626.991	62.59
627.324	62.61
627.658	62.71
627.991	62.82
628.324	62.86
628.657	62.88
628.991	62.78
629.324	62.82
629.657	62.83
629.99	62.84
630.323	62.8
630.656	62.72
630.989	62.77
631.322	62.84
631.655	62.78
631.987	62.77
632.32	62.65
632.653	62.57
632.986	62.6
633.318	62.67
633.651	62.69
633.984	62.76
634.316	62.85
634.649	62.84
634.981	62.76
635.313	62.78
635.646	62.79
635.978	62.81
636.31	62.83
636.643	62.9
636.975	62.88
637.307	63
637.639	63.09
637.971	63.04
638.303	63.01
638.635	63.13
638.967	63.29
639.299	63.5
639.631	63.62
639.963	63.61
640.295	63.6
640.626	63.54
640.958	63.49
641.29	63.37
641.621	63.37
641.953	63.46
642.285	63.5
642.616	63.57
642.948	63.64
643.279	63.63
643.61	63.71
643.942	63.7
644.273	63.7
644.604	63.78
644.936	63.88
645.267	63.88
645.598	63.77
645.929	63.78
646.26	63.69
646.591	63.8
646.922	63.9
647.253	64
647.584	64.03
647.915	64.08
648.245	64.15
648.576	64.16
648.907	64.15
649.238	64.11
649.568	64.14
649.899	64.06
650.229	63.99
650.56	63.94
650.89	64.05
651.221	63.97
651.551	63.88
651.882	63.84
652.212	63.96
652.542	63.94
652.872	63.87
653.203	63.94
653.533	63.88
653.863	63.85
654.193	63.67
654.523	63.76
654.853	63.71
655.183	63.77
655.513	63.71
655.843	63.83
656.172	63.93
656.502	63.85
656.832	63.97
657.162	64.07
657.491	64.12
657.821	64.08
658.15	64.18
658.48	64.28
658.809	64.24
659.139	64.18
659.468	64.18
659.798	64.21
660.127	64.22
660.456	64.13
660.785	64.21
661.115	64.27
661.444	64.24
661.773	64.37
662.102	64.43
662.431	64.47
662.76	64.41
663.089	64.45
663.418	64.56
663.747	64.57
664.076	64.63
664.404	64.68
664.733	64.76
665.062	64.69
665.39	64.74
