Data from BA28415_Reflection_00011.txt Node
Date: Mon Nov 18 16:02:30 EST 2019
User: vgr7
Spectrometer: USB2G7710
Scans to average: 3
Trigger mode: 4
Integration Time (sec): 2.000000E-2
Electric dark correction enabled: true
Boxcar width: 10
XAxis mode: Wavelengths
Number of Pixels in Spectrum: 2048
>>>>>Begin Spectral Data<<<<<
177.721	104.46
178.105	180.72
178.488	204.15
178.871	128.21
179.254	49.45
179.636	51.09
180.019	-174.95
180.402	78.57
180.785	-36.07
181.168	5.01
181.55	54.28
181.933	87.03
182.316	101.18
182.698	103.59
183.081	103.1
183.463	104.14
183.846	104.21
184.228	111.54
184.611	88.29
184.993	128.51
185.376	96.22
185.758	119.47
186.14	162.05
186.522	137.48
186.904	113.59
187.287	91.32
187.669	138.61
188.051	300.5
188.433	738.99
188.815	1934.53
189.197	-570.02
189.579	-345.4
189.961	-396.58
190.342	-404.56
190.724	-232.78
191.106	-204.67
191.488	-267.3
191.869	-243.31
192.251	-417.24
192.633	-240.6
193.014	-279.21
193.396	-227.3
193.777	-208.85
194.159	-281.82
194.54	-153.46
194.922	-192.57
195.303	-194
195.684	-260.92
196.065	-235.62
196.447	-895.49
196.828	-602.13
197.209	-495.77
197.59	-3553.47
197.971	-625.22
198.352	-627.11
198.733	-3324.78
199.114	-664.5
199.495	-1027.76
199.876	1631.12
200.257	2970.5
200.638	-1460
201.018	1573.5
201.399	2511.04
201.78	-2783.87
202.16	1304.99
202.541	644.34
202.922	451.26
203.302	411.77
203.683	460.19
204.063	511.86
204.444	650.43
204.824	528.57
205.204	462.11
205.585	2561.88
205.965	575.86
206.345	549.86
206.725	577.21
207.106	631.83
207.486	471.34
207.866	638.62
208.246	1243.19
208.626	460.81
209.006	1945.28
209.386	1306.32
209.766	1337.58
210.145	-7970.42
210.525	-11325.53
210.905	-700.27
211.285	-328.57
211.664	-265.68
212.044	-245.84
212.424	-191.58
212.803	-159.65
213.183	-155.94
213.562	-170.73
213.942	-117.59
214.321	-104.52
214.701	-125.92
215.08	-203.67
215.459	-223.7
215.838	-201.74
216.218	-192.89
216.597	-133.34
216.976	-126.65
217.355	-120.76
217.734	-105.58
218.113	-132.08
218.492	-138.84
218.871	-153.71
219.25	-225.76
219.629	-312.88
220.008	-304.22
220.387	-421.18
220.766	-755.24
221.144	-1142.95
221.523	-1876.59
221.902	6289.87
222.28	-661.19
222.659	-231.06
223.037	-133.85
223.416	-113.84
223.794	-100.58
224.173	-135.07
224.551	-103.9
224.929	-76
225.308	-45.17
225.686	-38.54
226.064	-18.01
226.442	-19.38
226.821	-12.8
227.199	-10.02
227.577	-11.87
227.955	-13.91
228.333	-10.37
228.711	-4.5
229.089	-2.8
229.467	-1.01
229.845	-2.81
230.222	-1.17
230.6	0.7
230.978	4.59
231.356	5.42
231.733	4.94
232.111	7.38
232.488	6.37
232.866	5.35
233.243	3.71
233.621	1.75
233.998	0.73
234.376	-1.13
234.753	-1.35
235.13	-1.28
235.508	1.13
235.885	1.04
236.262	0.32
236.639	-0.74
237.016	-0.03
237.393	0.94
237.77	0.38
238.147	0.43
238.524	0.31
238.901	0.16
239.278	1.21
239.655	1.66
240.032	1.75
240.409	1.56
240.785	1.66
241.162	1.79
241.539	2.66
241.915	2.52
242.292	2.52
242.668	2.8
243.045	2.82
243.421	2.82
243.798	2.96
244.174	3.06
244.551	3.31
244.927	3.43
245.303	3.36
245.679	3.58
246.056	3.49
246.432	3.57
246.808	3.37
247.184	2.92
247.56	2.63
247.936	2.44
248.312	2.69
248.688	2.66
249.064	2.61
249.44	2.53
249.815	2.53
250.191	2.73
250.567	2.72
250.943	2.76
251.318	2.78
251.694	2.76
252.069	2.82
252.445	2.86
252.82	2.86
253.196	2.7
253.571	2.91
253.947	2.89
254.322	2.79
254.697	2.73
255.073	2.72
255.448	2.68
255.823	2.76
256.198	2.51
256.573	2.66
256.948	2.83
257.323	2.7
257.698	2.67
258.073	2.62
258.448	2.66
258.823	2.78
259.198	2.63
259.573	2.67
259.948	2.73
260.322	2.54
260.697	2.36
261.072	2.48
261.446	2.29
261.821	2.25
262.195	2.36
262.57	2.48
262.944	2.54
263.319	2.59
263.693	2.65
264.067	2.74
264.442	2.79
264.816	2.8
265.19	2.85
265.564	3.07
265.938	2.97
266.313	2.78
266.687	2.76
267.061	2.83
267.435	2.85
267.809	2.71
268.183	2.82
268.556	2.7
268.93	2.66
269.304	2.69
269.678	2.78
270.051	2.68
270.425	2.74
270.799	2.7
271.172	2.63
271.546	2.46
271.919	2.38
272.293	2.32
272.666	2.26
273.04	2.16
273.413	2.05
273.787	2.11
274.16	2.23
274.533	2.12
274.906	2.02
275.279	1.98
275.653	2.03
276.026	1.97
276.399	2.06
276.772	2.05
277.145	2.15
277.518	2.23
277.891	2.22
278.263	2.1
278.636	2.18
279.009	2.41
279.382	2.61
279.755	2.71
280.127	2.74
280.5	2.9
280.872	2.98
281.245	2.94
281.617	3.08
281.99	2.97
282.362	3.02
282.735	2.97
283.107	2.97
283.479	3.03
283.852	3.15
284.224	3.21
284.596	3.15
284.968	3.09
285.34	3.11
285.713	3.13
286.085	3.12
286.457	3.11
286.829	3.19
287.201	3.17
287.572	3.16
287.944	3.16
288.316	3.01
288.688	2.98
289.06	2.93
289.431	2.9
289.803	3.05
290.175	3.1
290.546	3.32
290.918	3.39
291.289	3.43
291.661	3.53
292.032	3.57
292.403	3.61
292.775	3.62
293.146	3.51
293.517	3.54
293.889	3.59
294.26	3.65
294.631	3.63
295.002	3.52
295.373	3.44
295.744	3.42
296.115	3.49
296.486	3.46
296.857	3.62
297.228	3.63
297.599	3.61
297.97	3.66
298.34	3.63
298.711	3.5
299.082	3.31
299.452	3.15
299.823	3.21
300.194	3.22
300.564	3.17
300.935	3.26
301.305	3.25
301.676	3.35
302.046	3.32
302.416	3.28
302.787	3.39
303.157	3.53
303.527	3.68
303.897	3.67
304.267	3.83
304.637	3.7
305.008	3.67
305.378	3.75
305.748	3.75
306.117	3.78
306.487	3.93
306.857	4.03
307.227	4.17
307.597	4.13
307.967	4.1
308.336	4.16
308.706	4.14
309.076	4.08
309.445	4.01
309.815	4.03
310.184	4.01
310.554	4.07
310.923	4
311.293	3.95
311.662	4
312.031	4.04
312.401	4.01
312.77	4.11
313.139	4.09
313.508	3.99
313.877	3.97
314.246	3.89
314.616	3.92
314.985	3.81
315.353	3.73
315.722	3.8
316.091	3.74
316.46	3.67
316.829	3.78
317.198	3.92
317.567	3.93
317.935	3.88
318.304	3.87
318.672	3.78
319.041	3.88
319.41	3.88
319.778	3.73
320.147	3.81
320.515	3.75
320.883	3.57
321.252	3.74
321.62	3.74
321.988	3.87
322.357	3.9
322.725	4.08
323.093	4.15
323.461	4.08
323.829	4.22
324.197	4.24
324.565	4.31
324.933	4.34
325.301	4.33
325.669	4.29
326.037	4.17
326.405	4.19
326.772	4.1
327.14	4.13
327.508	4.21
327.875	4.1
328.243	4.04
328.61	4.16
328.978	4.09
329.346	4.23
329.713	4.21
330.08	4.15
330.448	4.01
330.815	3.99
331.182	4.03
331.55	4.01
331.917	4.04
332.284	3.98
332.651	3.89
333.018	3.99
333.385	4.22
333.752	4.37
334.119	4.45
334.486	4.46
334.853	4.44
335.22	4.41
335.587	4.57
335.954	4.55
336.32	4.51
336.687	4.61
337.054	4.44
337.42	4.46
337.787	4.57
338.153	4.58
338.52	4.55
338.886	4.61
339.253	4.62
339.619	4.61
339.986	4.56
340.352	4.56
340.718	4.52
341.084	4.34
341.451	4.43
341.817	4.47
342.183	4.46
342.549	4.51
342.915	4.55
343.281	4.6
343.647	4.69
344.013	4.83
344.379	4.76
344.745	4.83
345.11	4.84
345.476	4.77
345.842	4.76
346.208	4.76
346.573	4.76
346.939	4.78
347.304	4.86
347.67	4.84
348.035	4.87
348.401	4.81
348.766	4.88
349.132	4.78
349.497	4.75
349.862	4.76
350.228	4.62
350.593	4.56
350.958	4.43
351.323	4.39
351.688	4.35
352.053	4.44
352.418	4.51
352.783	4.6
353.148	4.63
353.513	4.67
353.878	4.74
354.243	4.77
354.608	4.76
354.972	4.79
355.337	4.94
355.702	4.92
356.066	5
356.431	4.94
356.795	4.95
357.16	4.92
357.524	4.88
357.889	4.92
358.253	4.98
358.618	5.07
358.982	5.13
359.346	5.01
359.71	4.98
360.075	4.91
360.439	4.8
360.803	4.81
361.167	4.79
361.531	4.75
361.895	4.7
362.259	4.65
362.623	4.61
362.987	4.52
363.351	4.48
363.714	4.49
364.078	4.46
364.442	4.41
364.806	4.38
365.169	4.41
365.533	4.41
365.896	4.4
366.26	4.38
366.623	4.33
366.987	4.33
367.35	4.28
367.714	4.33
368.077	4.33
368.44	4.27
368.803	4.22
369.167	4.2
369.53	4.18
369.893	4.22
370.256	4.27
370.619	4.32
370.982	4.33
371.345	4.28
371.708	4.28
372.071	4.3
372.434	4.24
372.797	4.22
373.159	4.22
373.522	4.15
373.885	4.15
374.247	4.15
374.61	4.16
374.973	4.11
375.335	4.01
375.698	4.03
376.06	3.99
376.423	3.97
376.785	3.97
377.147	3.96
377.51	3.93
377.872	3.8
378.234	3.77
378.596	3.78
378.958	3.73
379.321	3.77
379.683	3.76
380.045	3.74
380.407	3.72
380.769	3.7
381.13	3.73
381.492	3.7
381.854	3.67
382.216	3.64
382.578	3.65
382.939	3.63
383.301	3.59
383.663	3.58
384.024	3.59
384.386	3.57
384.747	3.58
385.109	3.6
385.47	3.64
385.832	3.6
386.193	3.59
386.554	3.61
386.916	3.55
387.277	3.5
387.638	3.54
387.999	3.54
388.36	3.54
388.721	3.52
389.082	3.46
389.443	3.44
389.804	3.47
390.165	3.45
390.526	3.47
390.887	3.46
391.248	3.46
391.609	3.49
391.969	3.48
392.33	3.46
392.691	3.43
393.051	3.38
393.412	3.38
393.772	3.32
394.133	3.31
394.493	3.31
394.854	3.32
395.214	3.32
395.574	3.29
395.935	3.22
396.295	3.23
396.655	3.22
397.015	3.2
397.376	3.17
397.736	3.15
398.096	3.13
398.456	3.14
398.816	3.12
399.176	3.08
399.535	3.07
399.895	3.03
400.255	3.01
400.615	3.03
400.975	3.01
401.334	3.02
401.694	3.01
402.054	2.99
402.413	3.02
402.773	2.99
403.132	2.99
403.492	3.02
403.851	2.96
404.211	2.97
404.57	2.98
404.929	2.97
405.288	2.98
405.648	2.98
406.007	2.96
406.366	2.94
406.725	2.93
407.084	2.93
407.443	2.94
407.802	2.95
408.161	2.93
408.52	2.9
408.879	2.89
409.238	2.92
409.596	2.92
409.955	2.9
410.314	2.89
410.673	2.88
411.031	2.88
411.39	2.92
411.748	2.93
412.107	2.94
412.465	2.93
412.824	2.94
413.182	2.95
413.54	2.94
413.899	2.95
414.257	2.95
414.615	2.95
414.974	2.97
415.332	2.94
415.69	2.91
416.048	2.91
416.406	2.91
416.764	2.89
417.122	2.89
417.48	2.86
417.838	2.87
418.195	2.87
418.553	2.86
418.911	2.87
419.269	2.86
419.626	2.84
419.984	2.84
420.342	2.83
420.699	2.81
421.057	2.8
421.414	2.79
421.772	2.79
422.129	2.79
422.486	2.77
422.844	2.78
423.201	2.79
423.558	2.79
423.915	2.79
424.273	2.79
424.63	2.79
424.987	2.8
425.344	2.8
425.701	2.8
426.058	2.8
426.415	2.79
426.772	2.79
427.128	2.79
427.485	2.79
427.842	2.78
428.199	2.79
428.555	2.8
428.912	2.82
429.269	2.81
429.625	2.81
429.982	2.83
430.338	2.82
430.695	2.83
431.051	2.82
431.407	2.82
431.764	2.82
432.12	2.8
432.476	2.79
432.832	2.76
433.189	2.78
433.545	2.77
433.901	2.78
434.257	2.78
434.613	2.78
434.969	2.77
435.325	2.79
435.681	2.78
436.036	2.79
436.392	2.77
436.748	2.78
437.104	2.77
437.459	2.77
437.815	2.77
438.171	2.75
438.526	2.77
438.882	2.78
439.237	2.77
439.593	2.77
439.948	2.78
440.304	2.79
440.659	2.76
441.014	2.78
441.369	2.76
441.725	2.75
442.08	2.75
442.435	2.74
442.79	2.73
443.145	2.74
443.5	2.75
443.855	2.76
444.21	2.76
444.565	2.76
444.92	2.75
445.275	2.75
445.629	2.75
445.984	2.74
446.339	2.72
446.693	2.72
447.048	2.7
447.403	2.68
447.757	2.68
448.112	2.67
448.466	2.65
448.82	2.66
449.175	2.67
449.529	2.68
449.883	2.69
450.238	2.67
450.592	2.66
450.946	2.63
451.3	2.62
451.654	2.63
452.008	2.64
452.362	2.64
452.716	2.65
453.07	2.66
453.424	2.64
453.778	2.65
454.132	2.64
454.486	2.68
454.839	2.68
455.193	2.68
455.547	2.7
455.9	2.71
456.254	2.71
456.607	2.71
456.961	2.7
457.314	2.69
457.668	2.71
458.021	2.71
458.375	2.73
458.728	2.74
459.081	2.72
459.434	2.7
459.787	2.71
460.141	2.71
460.494	2.72
460.847	2.73
461.2	2.73
461.553	2.72
461.906	2.72
462.259	2.73
462.611	2.74
462.964	2.74
463.317	2.74
463.67	2.75
464.022	2.75
464.375	2.73
464.728	2.72
465.08	2.74
465.433	2.74
465.785	2.74
466.138	2.73
466.49	2.74
466.843	2.76
467.195	2.75
467.547	2.75
467.899	2.74
468.252	2.75
468.604	2.74
468.956	2.75
469.308	2.74
469.66	2.73
470.012	2.75
470.364	2.74
470.716	2.74
471.068	2.73
471.42	2.74
471.772	2.75
472.123	2.76
472.475	2.75
472.827	2.75
473.178	2.76
473.53	2.75
473.882	2.76
474.233	2.76
474.585	2.74
474.936	2.72
475.288	2.74
475.639	2.74
475.99	2.76
476.342	2.78
476.693	2.8
477.044	2.82
477.395	2.81
477.746	2.81
478.097	2.82
478.448	2.83
478.8	2.82
479.15	2.81
479.501	2.82
479.852	2.83
480.203	2.81
480.554	2.82
480.905	2.83
481.255	2.83
481.606	2.83
481.957	2.84
482.307	2.84
482.658	2.83
483.009	2.83
483.359	2.82
483.709	2.83
484.06	2.83
484.41	2.83
484.761	2.82
485.111	2.83
485.461	2.83
485.811	2.83
486.162	2.83
486.512	2.84
486.862	2.84
487.212	2.83
487.562	2.84
487.912	2.83
488.262	2.83
488.612	2.82
488.961	2.82
489.311	2.83
489.661	2.83
490.011	2.83
490.36	2.83
490.71	2.84
491.06	2.83
491.409	2.83
491.759	2.83
492.108	2.84
492.458	2.84
492.807	2.84
493.157	2.85
493.506	2.85
493.855	2.84
494.204	2.85
494.554	2.85
494.903	2.85
495.252	2.86
495.601	2.87
495.95	2.88
496.299	2.9
496.648	2.89
496.997	2.89
497.346	2.92
497.695	2.93
498.043	2.92
498.392	2.93
498.741	2.95
499.09	2.95
499.438	2.97
499.787	2.97
500.135	2.99
500.484	3.01
500.832	3.03
501.181	3.04
501.529	3.06
501.878	3.11
502.226	3.12
502.574	3.13
502.923	3.15
503.271	3.15
503.619	3.16
503.967	3.17
504.315	3.18
504.663	3.2
505.011	3.22
505.359	3.23
505.707	3.27
506.055	3.28
506.403	3.32
506.751	3.35
507.098	3.38
507.446	3.4
507.794	3.42
508.141	3.44
508.489	3.47
508.837	3.49
509.184	3.5
509.531	3.54
509.879	3.58
510.226	3.6
510.574	3.63
510.921	3.64
511.268	3.68
511.616	3.71
511.963	3.73
512.31	3.75
512.657	3.8
513.004	3.82
513.351	3.85
513.698	3.86
514.045	3.87
514.392	3.9
514.739	3.93
515.086	3.96
515.432	3.99
515.779	4.03
516.126	4.05
516.473	4.07
516.819	4.12
517.166	4.14
517.512	4.17
517.859	4.21
518.205	4.24
518.552	4.27
518.898	4.31
519.245	4.33
519.591	4.34
519.937	4.37
520.283	4.4
520.629	4.44
520.976	4.5
521.322	4.56
521.668	4.6
522.014	4.66
522.36	4.73
522.706	4.79
523.052	4.83
523.398	4.92
523.743	4.98
524.089	5.05
524.435	5.1
524.781	5.17
525.126	5.23
525.472	5.3
525.817	5.36
526.163	5.42
526.509	5.47
526.854	5.54
527.199	5.59
527.545	5.63
527.89	5.68
528.235	5.74
528.581	5.79
528.926	5.83
529.271	5.89
529.616	5.93
529.961	5.97
530.306	6.04
530.651	6.09
530.996	6.18
531.341	6.25
531.686	6.34
532.031	6.43
532.376	6.51
532.721	6.6
533.065	6.69
533.41	6.79
533.755	6.9
534.099	7
534.444	7.1
534.788	7.22
535.133	7.34
535.477	7.44
535.822	7.56
536.166	7.71
536.51	7.85
536.855	8.01
537.199	8.17
537.543	8.34
537.887	8.53
538.231	8.69
538.576	8.86
538.92	9.02
539.264	9.18
539.608	9.34
539.951	9.51
540.295	9.65
540.639	9.81
540.983	9.96
541.327	10.1
541.671	10.26
542.014	10.42
542.358	10.57
542.701	10.73
543.045	10.89
543.389	11.06
543.732	11.22
544.075	11.4
544.419	11.58
544.762	11.75
545.105	11.94
545.449	12.12
545.792	12.32
546.135	12.53
546.478	12.77
546.821	13
547.165	13.27
547.508	13.56
547.851	13.82
548.194	14.04
548.536	14.33
548.879	14.6
549.222	14.85
549.565	15.09
549.908	15.36
550.25	15.64
550.593	15.91
550.936	16.19
551.278	16.49
551.621	16.78
551.963	17.09
552.306	17.37
552.648	17.68
552.991	17.94
553.333	18.22
553.675	18.49
554.017	18.79
554.36	19.03
554.702	19.28
555.044	19.55
555.386	19.86
555.728	20.15
556.07	20.43
556.412	20.75
556.754	21.09
557.096	21.4
557.438	21.68
557.78	21.98
558.121	22.33
558.463	22.67
558.805	22.98
559.147	23.26
559.488	23.56
559.83	23.85
560.171	24.18
560.513	24.53
560.854	24.82
561.196	25.1
561.537	25.42
561.878	25.66
562.22	25.98
562.561	26.31
562.902	26.62
563.243	26.91
563.584	27.2
563.925	27.49
564.266	27.75
564.607	28.05
564.948	28.31
565.289	28.55
565.63	28.8
565.971	29.04
566.312	29.3
566.653	29.6
566.993	29.84
567.334	30.11
567.675	30.36
568.015	30.65
568.356	30.91
568.696	31.18
569.037	31.45
569.377	31.69
569.718	31.9
570.058	32.16
570.398	32.41
570.739	32.6
571.079	32.82
571.419	33.04
571.759	33.27
572.099	33.49
572.439	33.7
572.779	33.93
573.119	34.17
573.459	34.41
573.799	34.56
574.139	34.81
574.479	35.01
574.819	35.15
575.158	35.31
575.498	35.53
575.838	35.72
576.177	35.88
576.517	36.08
576.856	36.32
577.196	36.51
577.535	36.68
577.875	36.92
578.214	37.12
578.553	37.31
578.893	37.52
579.232	37.74
579.571	37.93
579.91	38.16
580.25	38.3
580.589	38.48
580.928	38.72
581.267	38.86
581.606	39.03
581.945	39.29
582.283	39.49
582.622	39.62
582.961	39.78
583.3	40.07
583.639	40.19
583.977	40.33
584.316	40.51
584.654	40.74
584.993	40.86
585.332	41.05
585.67	41.25
586.008	41.31
586.347	41.45
586.685	41.56
587.024	41.68
587.362	41.86
587.7	42.05
588.038	42.15
588.376	42.32
588.715	42.41
589.053	42.52
589.391	42.72
589.729	42.91
590.067	43.01
590.404	43.08
590.742	43.29
591.08	43.38
591.418	43.5
591.756	43.62
592.093	43.79
592.431	43.96
592.769	44.08
593.106	44.28
593.444	44.37
593.781	44.47
594.119	44.57
594.456	44.74
594.793	44.76
595.131	44.86
595.468	44.94
595.805	45.09
596.143	45.22
596.48	45.25
596.817	45.29
597.154	45.44
597.491	45.55
597.828	45.65
598.165	45.81
598.502	45.9
598.839	45.94
599.176	46.01
599.512	46.12
599.849	46.23
600.186	46.28
600.523	46.46
600.859	46.69
601.196	46.82
601.532	46.88
601.869	47.04
602.205	47.09
602.542	47.22
602.878	47.28
603.215	47.35
603.551	47.43
603.887	47.53
604.223	47.55
604.56	47.6
604.896	47.62
605.232	47.68
605.568	47.73
605.904	47.82
606.24	47.94
606.576	48.01
606.912	48.02
607.248	48.09
607.583	48.15
607.919	48.23
608.255	48.27
608.591	48.4
608.926	48.49
609.262	48.69
609.597	48.73
609.933	48.87
610.268	48.95
610.604	49.05
610.939	49.13
611.275	49.23
611.61	49.3
611.945	49.39
612.281	49.45
612.616	49.52
612.951	49.55
613.286	49.58
613.621	49.57
613.956	49.74
614.291	49.84
614.626	49.9
614.961	49.84
615.296	49.84
615.631	49.78
615.966	49.87
616.3	49.79
616.635	49.83
616.97	49.8
617.304	49.78
617.639	49.83
617.973	49.86
618.308	49.92
618.642	49.96
618.977	50.04
619.311	50.11
619.646	50.23
619.98	50.35
620.314	50.44
620.648	50.48
620.983	50.52
621.317	50.72
621.651	50.71
621.985	50.82
622.319	51.01
622.653	51.08
622.987	51.09
623.321	51.25
623.655	51.35
623.988	51.52
624.322	51.49
624.656	51.46
624.99	51.5
625.323	51.5
625.657	51.55
625.99	51.53
626.324	51.44
626.657	51.51
626.991	51.58
627.324	51.64
627.658	51.74
627.991	51.78
628.324	51.83
628.657	51.89
628.991	51.88
629.324	51.81
629.657	51.83
629.99	51.8
630.323	51.81
630.656	51.87
630.989	51.87
631.322	52
631.655	52.13
631.987	52.23
632.32	52.37
632.653	52.4
632.986	52.48
633.318	52.59
633.651	52.54
633.984	52.6
634.316	52.6
634.649	52.6
634.981	52.56
635.313	52.49
635.646	52.53
635.978	52.64
636.31	52.74
636.643	52.84
636.975	52.85
637.307	52.86
637.639	52.85
637.971	52.78
638.303	52.82
638.635	52.83
638.967	52.72
639.299	52.73
639.631	52.87
639.963	52.86
640.295	52.93
640.626	53.09
640.958	53
641.29	53.02
641.621	53
641.953	53.09
642.285	53.16
642.616	53.18
642.948	53.12
643.279	53.08
643.61	53.03
643.942	53.23
644.273	53.26
644.604	53.22
644.936	53.28
645.267	53.24
645.598	53.3
645.929	53.56
646.26	53.51
646.591	53.43
646.922	53.42
647.253	53.43
647.584	53.46
647.915	53.55
648.245	53.47
648.576	53.53
648.907	53.45
649.238	53.51
649.568	53.48
649.899	53.62
650.229	53.64
650.56	53.69
650.89	53.64
651.221	53.72
651.551	53.78
651.882	53.83
652.212	53.94
652.542	53.86
652.872	53.71
653.203	53.76
653.533	53.9
653.863	53.96
654.193	53.94
654.523	53.97
654.853	53.86
655.183	53.95
655.513	53.98
655.843	54.08
656.172	54.01
656.502	54.06
656.832	54.01
657.162	54.11
657.491	54.13
657.821	54.19
658.15	54.19
658.48	54.1
658.809	54.12
659.139	54.18
659.468	54.21
659.798	54.28
660.127	54.29
660.456	54.21
660.785	54.27
661.115	54.38
661.444	54.26
661.773	54.39
662.102	54.48
662.431	54.54
662.76	54.55
663.089	54.67
663.418	54.77
663.747	54.86
664.076	54.83
664.404	54.94
664.733	54.93
665.062	54.93
665.39	55.03
665.719	55.04
666.048	54.89
