Data from BA28300_Reflection_00010.txt Node
Date: Mon Nov 18 15:58:20 EST 2019
User: vgr7
Spectrometer: USB2G7710
Scans to average: 3
Trigger mode: 4
Integration Time (sec): 2.000000E-2
Electric dark correction enabled: true
Boxcar width: 10
XAxis mode: Wavelengths
Number of Pixels in Spectrum: 2048
>>>>>Begin Spectral Data<<<<<
177.721	-529.24
178.105	-1900
178.488	106.18
178.871	91.12
179.254	144.98
179.636	5.93
180.019	-78.92
180.402	97.22
180.785	-123.51
181.168	102.15
181.55	333.08
181.933	162.12
182.316	153.63
182.698	127.11
183.081	137.96
183.463	130.5
183.846	139.61
184.228	145.56
184.611	302.68
184.993	-3632.39
185.376	-15135.29
185.758	922.88
186.14	809.34
186.522	463.83
186.904	520.94
187.287	937.84
187.669	-274.81
188.051	-2152.34
188.433	5478.38
188.815	-279.76
189.197	-268.04
189.579	-229.5
189.961	-443.41
190.342	-776.65
190.724	-201.97
191.106	-187.76
191.488	-178.15
191.869	-138.78
192.251	-220.33
192.633	-43.81
193.014	-107
193.396	75.4
193.777	-287.9
194.159	757.14
194.54	-4900
194.922	304.42
195.303	-989.89
195.684	-2195.77
196.065	-149.55
196.447	-127.46
196.828	-520.58
197.209	-241.28
197.59	-360.41
197.971	-310.99
198.352	-33.94
198.733	-27.98
199.114	6.13
199.495	45.87
199.876	21.56
200.257	15.75
200.638	20.98
201.018	23.81
201.399	29.35
201.78	47.73
202.16	42.06
202.541	23.82
202.922	4.17
203.302	-69.16
203.683	84.41
204.063	-39.24
204.444	20.3
204.824	9.09
205.204	29.94
205.585	0.52
205.965	11.18
206.345	-39.56
206.725	-283.53
207.106	-1622.69
207.486	-871.18
207.866	-3309.64
208.246	-621.63
208.626	-475.92
209.006	-254.98
209.386	-365.44
209.766	-518.57
210.145	-335.09
210.525	-245.83
210.905	-149.24
211.285	-114.43
211.664	-104.54
212.044	-91.32
212.424	-119.47
212.803	-89.45
213.183	-68.43
213.562	-98.55
213.942	-121.24
214.321	-86.23
214.701	-75.87
215.08	-71.2
215.459	-59.43
215.838	-75.29
216.218	-54.04
216.597	-39.18
216.976	-40.47
217.355	-17.19
217.734	-28.46
218.113	-17.97
218.492	-8.23
218.871	-21.29
219.25	-19.7
219.629	-40.43
220.008	-47.12
220.387	-55.87
220.766	-65.53
221.144	-76.96
221.523	-61.26
221.902	-57.63
222.28	-69.89
222.659	-58.16
223.037	-49.23
223.416	-57.2
223.794	-48.95
224.173	-55.78
224.551	-52.81
224.929	-50.35
225.308	-39.26
225.686	-29.03
226.064	-23.36
226.442	-25.36
226.821	-16.26
227.199	-16.83
227.577	-11.51
227.955	-14.05
228.333	-8.9
228.711	-2.94
229.089	1.25
229.467	-3.13
229.845	-1.99
230.222	-1.12
230.6	-2.33
230.978	-4.94
231.356	0.26
231.733	-1.62
232.111	1.68
232.488	2.8
232.866	3.32
233.243	2.32
233.621	-0.17
233.998	-0.36
234.376	-0.13
234.753	-1.89
235.13	-1.97
235.508	-0.35
235.885	0.63
236.262	0.07
236.639	0.34
237.016	-0.42
237.393	2.11
237.77	2.91
238.147	4.27
238.524	4.76
238.901	5.53
239.278	6.07
239.655	6.92
240.032	7.42
240.409	6.74
240.785	6.29
241.162	6.29
241.539	6.01
241.915	5.92
242.292	5.13
242.668	5.12
243.045	5.27
243.421	5.32
243.798	5.35
244.174	5.54
244.551	5.25
244.927	5.27
245.303	5.4
245.679	5.54
246.056	5.38
246.432	5.33
246.808	5.15
247.184	4.72
247.56	4.55
247.936	4.25
248.312	4.18
248.688	4.29
249.064	4.3
249.44	4.7
249.815	4.7
250.191	4.92
250.567	4.96
250.943	4.8
251.318	4.73
251.694	4.93
252.069	4.99
252.445	5.04
252.82	5.11
253.196	4.96
253.571	4.91
253.947	4.78
254.322	4.74
254.697	5.04
255.073	5.03
255.448	4.87
255.823	4.78
256.198	5.03
256.573	5
256.948	5.02
257.323	5.04
257.698	5.12
258.073	5.2
258.448	5.28
258.823	5.32
259.198	5.26
259.573	5.18
259.948	5.02
260.322	5.12
260.697	4.89
261.072	4.7
261.446	4.59
261.821	4.57
262.195	4.63
262.57	4.67
262.944	4.73
263.319	4.83
263.693	4.69
264.067	4.68
264.442	4.68
264.816	4.63
265.19	4.43
265.564	4.36
265.938	4.37
266.313	4.15
266.687	4.27
267.061	4.43
267.435	4.6
267.809	4.69
268.183	4.57
268.556	4.79
268.93	5.05
269.304	5.18
269.678	5.12
270.051	4.91
270.425	4.72
270.799	4.66
271.172	4.56
271.546	4.77
271.919	4.68
272.293	4.6
272.666	4.61
273.04	4.8
273.413	4.7
273.787	4.63
274.16	4.73
274.533	4.8
274.906	4.83
275.279	4.57
275.653	4.46
276.026	4.43
276.399	4.3
276.772	4.13
277.145	3.95
277.518	4.06
277.891	4.26
278.263	4.25
278.636	4.35
279.009	4.47
279.382	4.31
279.755	4.33
280.127	4.53
280.5	4.64
280.872	4.35
281.245	4.28
281.617	4.32
281.99	4.47
282.362	4.34
282.735	4.04
283.107	4.11
283.479	4.21
283.852	4.1
284.224	4.34
284.596	4.48
284.968	4.5
285.34	4.63
285.713	4.6
286.085	4.66
286.457	4.68
286.829	4.62
287.201	4.74
287.572	4.58
287.944	4.41
288.316	4.35
288.688	4.44
289.06	4.5
289.431	4.55
289.803	4.49
290.175	4.52
290.546	4.69
290.918	4.72
291.289	4.65
291.661	4.88
292.032	4.78
292.403	4.76
292.775	4.9
293.146	4.79
293.517	4.76
293.889	4.85
294.26	4.87
294.631	4.88
295.002	4.82
295.373	5.02
295.744	5.08
296.115	5.15
296.486	5.06
296.857	5.13
297.228	5.14
297.599	5.14
297.97	5.16
298.34	5.16
298.711	5.18
299.082	5.26
299.452	5.25
299.823	5.31
300.194	5.33
300.564	5.25
300.935	5.39
301.305	5.45
301.676	5.36
302.046	5.37
302.416	5.38
302.787	5.48
303.157	5.42
303.527	5.45
303.897	5.32
304.267	5.56
304.637	5.46
305.008	5.46
305.378	5.46
305.748	5.5
306.117	5.55
306.487	5.6
306.857	5.51
307.227	5.51
307.597	5.49
307.967	5.43
308.336	5.43
308.706	5.32
309.076	5.3
309.445	5.45
309.815	5.45
310.184	5.57
310.554	5.55
310.923	5.55
311.293	5.68
311.662	5.77
312.031	5.73
312.401	5.8
312.77	5.83
313.139	5.95
313.508	5.87
313.877	5.82
314.246	5.75
314.616	5.83
314.985	5.86
315.353	5.72
315.722	5.83
316.091	5.9
316.46	5.87
316.829	5.93
317.198	5.81
317.567	5.9
317.935	5.79
318.304	5.64
318.672	5.55
319.041	5.42
319.41	5.5
319.778	5.46
320.147	5.57
320.515	5.54
320.883	5.36
321.252	5.54
321.62	5.78
321.988	5.76
322.357	5.72
322.725	5.75
323.093	5.9
323.461	5.93
323.829	5.9
324.197	5.91
324.565	5.93
324.933	6.03
325.301	5.95
325.669	5.9
326.037	6.06
326.405	6.33
326.772	6.36
327.14	6.35
327.508	6.36
327.875	6.33
328.243	6.39
328.61	6.36
328.978	6.23
329.346	6.16
329.713	6.32
330.08	6.42
330.448	6.34
330.815	6.37
331.182	6.32
331.55	6.38
331.917	6.53
332.284	6.57
332.651	6.46
333.018	6.55
333.385	6.7
333.752	6.77
334.119	6.76
334.486	6.68
334.853	6.69
335.22	6.67
335.587	6.7
335.954	6.72
336.32	6.71
336.687	6.81
337.054	6.81
337.42	6.71
337.787	6.71
338.153	6.75
338.52	6.8
338.886	6.64
339.253	6.56
339.619	6.59
339.986	6.47
340.352	6.52
340.718	6.37
341.084	6.25
341.451	6.29
341.817	6.29
342.183	6.33
342.549	6.33
342.915	6.41
343.281	6.39
343.647	6.33
344.013	6.44
344.379	6.42
344.745	6.44
345.11	6.47
345.476	6.48
345.842	6.44
346.208	6.38
346.573	6.55
346.939	6.64
347.304	6.58
347.67	6.6
348.035	6.64
348.401	6.57
348.766	6.6
349.132	6.54
349.497	6.43
349.862	6.53
350.228	6.51
350.593	6.54
350.958	6.52
351.323	6.47
351.688	6.41
352.053	6.45
352.418	6.38
352.783	6.4
353.148	6.4
353.513	6.47
353.878	6.4
354.243	6.42
354.608	6.39
354.972	6.36
355.337	6.39
355.702	6.4
356.066	6.54
356.431	6.6
356.795	6.66
357.16	6.7
357.524	6.64
357.889	6.66
358.253	6.62
358.618	6.66
358.982	6.64
359.346	6.62
359.71	6.57
360.075	6.58
360.439	6.58
360.803	6.54
361.167	6.47
361.531	6.52
361.895	6.43
362.259	6.4
362.623	6.39
362.987	6.38
363.351	6.39
363.714	6.34
364.078	6.28
364.442	6.15
364.806	6.13
365.169	6.09
365.533	5.99
365.896	5.91
366.26	5.82
366.623	5.88
366.987	5.86
367.35	5.85
367.714	5.84
368.077	5.77
368.44	5.77
368.803	5.76
369.167	5.65
369.53	5.68
369.893	5.74
370.256	5.75
370.619	5.76
370.982	5.64
371.345	5.7
371.708	5.75
372.071	5.73
372.434	5.67
372.797	5.69
373.159	5.68
373.522	5.71
373.885	5.79
374.247	5.71
374.61	5.76
374.973	5.68
375.335	5.66
375.698	5.7
376.06	5.64
376.423	5.64
376.785	5.66
377.147	5.66
377.51	5.58
377.872	5.59
378.234	5.56
378.596	5.58
378.958	5.49
379.321	5.41
379.683	5.42
380.045	5.45
380.407	5.4
380.769	5.39
381.13	5.3
381.492	5.22
381.854	5.17
382.216	5.09
382.578	5.13
382.939	5.12
383.301	5.04
383.663	5.03
384.024	5.02
384.386	5.04
384.747	5.06
385.109	5.1
385.47	5.05
385.832	4.95
386.193	4.97
386.554	4.99
386.916	4.96
387.277	4.97
387.638	4.95
387.999	4.93
388.36	4.93
388.721	4.99
389.082	4.96
389.443	4.94
389.804	4.94
390.165	4.9
390.526	4.88
390.887	4.86
391.248	4.85
391.609	4.83
391.969	4.82
392.33	4.76
392.691	4.7
393.051	4.69
393.412	4.75
393.772	4.67
394.133	4.64
394.493	4.63
394.854	4.57
395.214	4.53
395.574	4.52
395.935	4.5
396.295	4.49
396.655	4.47
397.015	4.47
397.376	4.43
397.736	4.4
398.096	4.38
398.456	4.39
398.816	4.37
399.176	4.31
399.535	4.27
399.895	4.26
400.255	4.25
400.615	4.2
400.975	4.17
401.334	4.2
401.694	4.18
402.054	4.18
402.413	4.21
402.773	4.19
403.132	4.18
403.492	4.17
403.851	4.14
404.211	4.15
404.57	4.12
404.929	4.17
405.288	4.2
405.648	4.2
406.007	4.19
406.366	4.18
406.725	4.21
407.084	4.23
407.443	4.24
407.802	4.28
408.161	4.3
408.52	4.26
408.879	4.22
409.238	4.21
409.596	4.22
409.955	4.23
410.314	4.25
410.673	4.21
411.031	4.19
411.39	4.19
411.748	4.18
412.107	4.21
412.465	4.17
412.824	4.13
413.182	4.08
413.54	4.07
413.899	4.07
414.257	4.08
414.615	4.06
414.974	4.03
415.332	3.97
415.69	3.93
416.048	3.92
416.406	3.95
416.764	3.93
417.122	3.93
417.48	3.9
417.838	3.89
418.195	3.9
418.553	3.9
418.911	3.89
419.269	3.9
419.626	3.89
419.984	3.88
420.342	3.9
420.699	3.91
421.057	3.89
421.414	3.89
421.772	3.87
422.129	3.87
422.486	3.88
422.844	3.89
423.201	3.9
423.558	3.9
423.915	3.88
424.273	3.89
424.63	3.86
424.987	3.86
425.344	3.87
425.701	3.87
426.058	3.86
426.415	3.88
426.772	3.86
427.128	3.85
427.485	3.87
427.842	3.85
428.199	3.86
428.555	3.87
428.912	3.88
429.269	3.9
429.625	3.89
429.982	3.87
430.338	3.88
430.695	3.91
431.051	3.91
431.407	3.93
431.764	3.91
432.12	3.91
432.476	3.9
432.832	3.88
433.189	3.88
433.545	3.88
433.901	3.87
434.257	3.87
434.613	3.87
434.969	3.86
435.325	3.85
435.681	3.87
436.036	3.87
436.392	3.85
436.748	3.83
437.104	3.83
437.459	3.84
437.815	3.82
438.171	3.81
438.526	3.82
438.882	3.81
439.237	3.84
439.593	3.85
439.948	3.85
440.304	3.86
440.659	3.84
441.014	3.85
441.369	3.83
441.725	3.81
442.08	3.8
442.435	3.79
442.79	3.79
443.145	3.76
443.5	3.76
443.855	3.76
444.21	3.76
444.565	3.78
444.92	3.78
445.275	3.77
445.629	3.76
445.984	3.76
446.339	3.74
446.693	3.72
447.048	3.72
447.403	3.72
447.757	3.71
448.112	3.71
448.466	3.7
448.82	3.71
449.175	3.72
449.529	3.73
449.883	3.74
450.238	3.74
450.592	3.76
450.946	3.74
451.3	3.74
451.654	3.73
452.008	3.72
452.362	3.71
452.716	3.71
453.07	3.72
453.424	3.72
453.778	3.73
454.132	3.72
454.486	3.7
454.839	3.7
455.193	3.7
455.547	3.7
455.9	3.73
456.254	3.73
456.607	3.73
456.961	3.72
457.314	3.71
457.668	3.71
458.021	3.69
458.375	3.7
458.728	3.69
459.081	3.69
459.434	3.69
459.787	3.69
460.141	3.69
460.494	3.68
460.847	3.68
461.2	3.7
461.553	3.7
461.906	3.72
462.259	3.73
462.611	3.74
462.964	3.75
463.317	3.74
463.67	3.76
464.022	3.77
464.375	3.79
464.728	3.82
465.08	3.82
465.433	3.84
465.785	3.84
466.138	3.84
466.49	3.84
466.843	3.84
467.195	3.84
467.547	3.84
467.899	3.84
468.252	3.84
468.604	3.83
468.956	3.84
469.308	3.85
469.66	3.83
470.012	3.83
470.364	3.83
470.716	3.83
471.068	3.8
471.42	3.78
471.772	3.78
472.123	3.77
472.475	3.77
472.827	3.78
473.178	3.78
473.53	3.78
473.882	3.78
474.233	3.8
474.585	3.79
474.936	3.79
475.288	3.79
475.639	3.8
475.99	3.8
476.342	3.81
476.693	3.8
477.044	3.82
477.395	3.81
477.746	3.81
478.097	3.82
478.448	3.82
478.8	3.83
479.15	3.8
479.501	3.8
479.852	3.81
480.203	3.81
480.554	3.82
480.905	3.83
481.255	3.83
481.606	3.81
481.957	3.81
482.307	3.81
482.658	3.82
483.009	3.81
483.359	3.81
483.709	3.82
484.06	3.82
484.41	3.82
484.761	3.83
485.111	3.84
485.461	3.84
485.811	3.85
486.162	3.84
486.512	3.85
486.862	3.85
487.212	3.84
487.562	3.84
487.912	3.84
488.262	3.85
488.612	3.86
488.961	3.87
489.311	3.89
489.661	3.89
490.011	3.88
490.36	3.9
490.71	3.91
491.06	3.9
491.409	3.89
491.759	3.9
492.108	3.89
492.458	3.89
492.807	3.88
493.157	3.88
493.506	3.9
493.855	3.9
494.204	3.92
494.554	3.95
494.903	3.96
495.252	3.95
495.601	3.96
495.95	3.96
496.299	3.97
496.648	3.97
496.997	4
497.346	4.03
497.695	4.04
498.043	4.04
498.392	4.06
498.741	4.11
499.09	4.12
499.438	4.14
499.787	4.16
500.135	4.18
500.484	4.21
500.832	4.25
501.181	4.27
501.529	4.28
501.878	4.29
502.226	4.34
502.574	4.38
502.923	4.4
503.271	4.43
503.619	4.45
503.967	4.46
504.315	4.47
504.663	4.51
505.011	4.53
505.359	4.55
505.707	4.59
506.055	4.6
506.403	4.63
506.751	4.68
507.098	4.72
507.446	4.77
507.794	4.81
508.141	4.82
508.489	4.86
508.837	4.9
509.184	4.94
509.531	4.95
509.879	5
510.226	5.05
510.574	5.08
510.921	5.12
511.268	5.17
511.616	5.21
511.963	5.26
512.31	5.3
512.657	5.36
513.004	5.4
513.351	5.47
513.698	5.52
514.045	5.56
514.392	5.61
514.739	5.64
515.086	5.7
515.432	5.77
515.779	5.83
516.126	5.89
516.473	5.94
516.819	6
517.166	6.04
517.512	6.08
517.859	6.14
518.205	6.19
518.552	6.25
518.898	6.31
519.245	6.35
519.591	6.41
519.937	6.45
520.283	6.53
520.629	6.58
520.976	6.65
521.322	6.72
521.668	6.77
522.014	6.86
522.36	6.93
522.706	7.02
523.052	7.12
523.398	7.22
523.743	7.33
524.089	7.44
524.435	7.55
524.781	7.66
525.126	7.74
525.472	7.83
525.817	7.92
526.163	7.99
526.509	8.08
526.854	8.16
527.199	8.24
527.545	8.31
527.89	8.38
528.235	8.45
528.581	8.53
528.926	8.63
529.271	8.7
529.616	8.79
529.961	8.87
530.306	8.94
530.651	9.03
530.996	9.14
531.341	9.25
531.686	9.36
532.031	9.48
532.376	9.6
532.721	9.73
533.065	9.85
533.41	9.99
533.755	10.12
534.099	10.28
534.444	10.45
534.788	10.6
535.133	10.73
535.477	10.9
535.822	11.07
536.166	11.27
536.51	11.47
536.855	11.7
537.199	11.93
537.543	12.17
537.887	12.43
538.231	12.64
538.576	12.88
538.92	13.12
539.264	13.37
539.608	13.62
539.951	13.84
540.295	14.05
540.639	14.26
540.983	14.46
541.327	14.66
541.671	14.85
542.014	15.06
542.358	15.27
542.701	15.48
543.045	15.67
543.389	15.87
543.732	16.1
544.075	16.32
544.419	16.55
544.762	16.8
545.105	17.03
545.449	17.32
545.792	17.58
546.135	17.84
546.478	18.13
546.821	18.43
547.165	18.73
547.508	19.05
547.851	19.37
548.194	19.7
548.536	20.04
548.879	20.4
549.222	20.72
549.565	21.05
549.908	21.42
550.25	21.79
550.593	22.1
550.936	22.41
551.278	22.76
551.621	23.14
551.963	23.5
552.306	23.83
552.648	24.14
552.991	24.47
553.333	24.81
553.675	25.13
554.017	25.41
554.36	25.69
554.702	26.01
555.044	26.31
555.386	26.63
555.728	26.92
556.07	27.26
556.412	27.57
556.754	27.92
557.096	28.21
557.438	28.54
557.78	28.88
558.121	29.26
558.463	29.6
558.805	29.91
559.147	30.21
559.488	30.55
559.83	30.88
560.171	31.2
560.513	31.5
560.854	31.78
561.196	32.13
561.537	32.46
561.878	32.73
562.22	33.09
562.561	33.38
562.902	33.69
563.243	33.94
563.584	34.22
563.925	34.46
564.266	34.76
564.607	35.04
564.948	35.35
565.289	35.63
565.63	35.84
565.971	36.07
566.312	36.32
566.653	36.56
566.993	36.79
567.334	37.02
567.675	37.3
568.015	37.59
568.356	37.83
568.696	38.12
569.037	38.39
569.377	38.62
569.718	38.82
570.058	39.08
570.398	39.32
570.739	39.51
571.079	39.79
571.419	40.01
571.759	40.24
572.099	40.43
572.439	40.6
572.779	40.79
573.119	40.99
573.459	41.15
573.799	41.39
574.139	41.58
574.479	41.78
574.819	41.92
575.158	42.04
575.498	42.21
575.838	42.38
576.177	42.56
576.517	42.7
576.856	42.88
577.196	43.09
577.535	43.32
577.875	43.52
578.214	43.68
578.553	43.91
578.893	44.03
579.232	44.21
579.571	44.41
579.91	44.55
580.25	44.71
580.589	44.94
580.928	45.07
581.267	45.26
581.606	45.44
581.945	45.68
582.283	45.93
582.622	46.11
582.961	46.36
583.3	46.53
583.639	46.72
583.977	46.94
584.316	47.06
584.654	47.16
584.993	47.42
585.332	47.61
585.67	47.64
586.008	47.82
586.347	48.01
586.685	48.2
587.024	48.41
587.362	48.54
587.7	48.7
588.038	48.89
588.376	48.92
588.715	49.05
589.053	49.16
589.391	49.25
589.729	49.31
590.067	49.29
590.404	49.36
590.742	49.52
591.08	49.56
591.418	49.69
591.756	49.82
592.093	49.92
592.431	49.98
592.769	50.16
593.106	50.26
593.444	50.3
593.781	50.39
594.119	50.52
594.456	50.64
594.793	50.66
595.131	50.69
595.468	50.86
595.805	50.94
596.143	51.04
596.48	51.09
596.817	51.25
597.154	51.37
597.491	51.47
597.828	51.59
598.165	51.72
598.502	51.73
598.839	51.82
599.176	51.86
599.512	51.94
599.849	51.98
600.186	52.05
600.523	52.18
600.859	52.28
601.196	52.33
601.532	52.41
601.869	52.54
602.205	52.67
602.542	52.72
602.878	52.85
603.215	52.92
603.551	53.05
603.887	53.15
604.223	53.17
604.56	53.33
604.896	53.31
605.232	53.42
605.568	53.52
605.904	53.56
606.24	53.64
606.576	53.77
606.912	53.92
607.248	54.07
607.583	54.15
607.919	54.2
608.255	54.29
608.591	54.39
608.926	54.49
609.262	54.52
609.597	54.6
609.933	54.65
610.268	54.67
610.604	54.75
610.939	54.76
611.275	54.89
611.61	54.87
611.945	55.02
612.281	55.07
612.616	55.17
612.951	55.27
613.286	55.33
613.621	55.4
613.956	55.37
614.291	55.34
614.626	55.41
614.961	55.47
615.296	55.56
615.631	55.63
615.966	55.72
616.3	55.87
616.635	55.91
616.97	55.93
617.304	56.05
617.639	56.12
617.973	56.24
618.308	56.29
618.642	56.37
618.977	56.34
619.311	56.32
619.646	56.29
619.98	56.33
620.314	56.46
620.648	56.5
620.983	56.61
621.317	56.67
621.651	56.69
621.985	56.77
622.319	56.77
622.653	56.82
622.987	56.8
623.321	56.86
623.655	56.91
623.988	56.97
624.322	57.06
624.656	57.12
624.99	57.12
625.323	57.15
625.657	57.16
625.99	57.21
626.324	57.27
626.657	57.32
626.991	57.47
627.324	57.44
627.658	57.46
627.991	57.52
628.324	57.59
628.657	57.65
628.991	57.76
629.324	57.84
629.657	57.84
629.99	57.94
630.323	57.95
630.656	58.05
630.989	58.13
631.322	58.17
631.655	58.17
631.987	58.23
632.32	58.25
632.653	58.38
632.986	58.44
633.318	58.57
633.651	58.72
633.984	58.66
634.316	58.73
634.649	58.74
634.981	58.66
635.313	58.69
635.646	58.73
635.978	58.72
636.31	58.71
636.643	58.84
636.975	58.91
637.307	58.92
637.639	58.86
637.971	58.85
638.303	58.89
638.635	58.98
638.967	59.01
639.299	59.07
639.631	58.96
639.963	59.11
640.295	59.1
640.626	59
640.958	59.03
641.29	59.09
641.621	59.24
641.953	59.46
642.285	59.49
642.616	59.53
642.948	59.49
643.279	59.54
643.61	59.48
643.942	59.41
644.273	59.43
644.604	59.52
644.936	59.6
645.267	59.58
645.598	59.47
645.929	59.59
646.26	59.68
646.591	59.84
646.922	59.77
647.253	59.75
647.584	59.93
647.915	59.98
648.245	59.95
648.576	59.88
648.907	59.9
649.238	60.04
649.568	60.09
649.899	60.11
650.229	60.24
650.56	60.2
650.89	60.34
651.221	60.38
651.551	60.33
651.882	60.3
652.212	60.31
652.542	60.34
652.872	60.31
653.203	60.4
653.533	60.43
653.863	60.41
654.193	60.47
654.523	60.49
654.853	60.54
655.183	60.73
655.513	60.86
655.843	60.83
656.172	60.97
656.502	60.91
656.832	61.08
657.162	61.08
657.491	61.28
657.821	61.3
658.15	61.35
658.48	61.49
658.809	61.53
659.139	61.52
659.468	61.54
659.798	61.52
660.127	61.54
660.456	61.5
660.785	61.65
661.115	61.65
661.444	61.6
661.773	61.54
662.102	61.44
662.431	61.39
662.76	61.5
663.089	61.3
663.418	61.41
663.747	61.33
664.076	61.43
664.404	61.35
664.733	61.28
665.062	61.39
665.39	61.31
665.719	61.34
666.048	61.36
666.376	61.44
666.705	61.49
667.033	61.43
