Data from BA28415_Reflection_00001.txt Node
Date: Mon Nov 18 16:02:04 EST 2019
User: vgr7
Spectrometer: USB2G7710
Scans to average: 3
Trigger mode: 4
Integration Time (sec): 2.000000E-2
Electric dark correction enabled: true
Boxcar width: 10
XAxis mode: Wavelengths
Number of Pixels in Spectrum: 2048
>>>>>Begin Spectral Data<<<<<
177.721	-91.87
178.105	-47.98
178.488	-53.17
178.871	-83.39
179.254	7.83
179.636	-340.22
180.019	81.67
180.402	92.86
180.785	391.58
181.168	28.76
181.55	68.35
181.933	101.18
182.316	141.26
182.698	149.02
183.081	125.82
183.463	145.56
183.846	149.13
184.228	197.31
184.611	168.98
184.993	195.58
185.376	131.47
185.758	116.88
186.14	212.35
186.522	179.13
186.904	210.22
187.287	210.38
187.669	361.17
188.051	671.25
188.433	2038.63
188.815	3574.82
189.197	-1149.5
189.579	-669.33
189.961	-749.52
190.342	-647.07
190.724	-367.89
191.106	-378.13
191.488	-420.13
191.869	-413.84
192.251	-644.16
192.633	-379.15
193.014	-476.66
193.396	-390.11
193.777	-411.14
194.159	-533.2
194.54	-287.57
194.922	-283.53
195.303	-310.98
195.684	-394.59
196.065	-396.23
196.447	-1328.89
196.828	-955.65
197.209	-636.78
197.59	-5276.24
197.971	-875.65
198.352	-842.55
198.733	-4227.43
199.114	-759.4
199.495	-880.34
199.876	1357.26
200.257	2064.03
200.638	-609.09
201.018	513.43
201.399	670.55
201.78	-925.81
202.16	257.89
202.541	194.13
202.922	180.66
203.302	126.84
203.683	125.56
204.063	136.56
204.444	74.48
204.824	42.68
205.204	92.07
205.585	597.76
205.965	173.89
206.345	185.56
206.725	214.42
207.106	249.85
207.486	246.29
207.866	367.8
208.246	869.05
208.626	359.88
209.006	1537.74
209.386	990.53
209.766	1117.28
210.145	-6871.83
210.525	-9027.66
210.905	-577.15
211.285	-291.51
211.664	-225.65
212.044	-236.19
212.424	-196.46
212.803	-202.36
213.183	-200.35
213.562	-242.19
213.942	-147.13
214.321	-139.42
214.701	-159.54
215.08	-235.94
215.459	-248.48
215.838	-182.97
216.218	-166.37
216.597	-140.39
216.976	-135.02
217.355	-129.92
217.734	-94.9
218.113	-105.56
218.492	-125.73
218.871	-147.5
219.25	-193.05
219.629	-312.88
220.008	-291.11
220.387	-390.06
220.766	-640.03
221.144	-934.71
221.523	-1334.78
221.902	5302.53
222.28	-596.07
222.659	-204.81
223.037	-114.76
223.416	-110.26
223.794	-105.79
224.173	-112.29
224.551	-80.13
224.929	-77.59
225.308	-56.21
225.686	-51.09
226.064	-39.32
226.442	-29.94
226.821	-25.83
227.199	-25.71
227.577	-23.08
227.955	-25.28
228.333	-19.41
228.711	-16.98
229.089	-14.8
229.467	-16.98
229.845	-16.27
230.222	-14.3
230.6	-13.59
230.978	-12.75
231.356	-8.58
231.733	-9.43
232.111	-8.18
232.488	-6.75
232.866	-4.78
233.243	-4.96
233.621	-4.55
233.998	-4.75
234.376	-4.89
234.753	-3.75
235.13	-0.56
235.508	0.79
235.885	2.82
236.262	1.09
236.639	0.71
237.016	2.3
237.393	3.72
237.77	3.75
238.147	3.79
238.524	4.01
238.901	3.66
239.278	3.16
239.655	3.44
240.032	3.6
240.409	3.11
240.785	3.05
241.162	3.26
241.539	3.12
241.915	2.81
242.292	2.43
242.668	2.8
243.045	2.66
243.421	2.49
243.798	2.36
244.174	2.35
244.551	2.63
244.927	2.52
245.303	2.39
245.679	2.56
246.056	2.38
246.432	2.46
246.808	2.49
247.184	2.28
247.56	2.18
247.936	1.9
248.312	1.98
248.688	2.01
249.064	2.08
249.44	2.01
249.815	1.9
250.191	1.96
250.567	1.88
250.943	1.7
251.318	1.8
251.694	1.69
252.069	1.73
252.445	1.38
252.82	1.2
253.196	1.14
253.571	1.13
253.947	1.17
254.322	0.94
254.697	0.81
255.073	1.01
255.448	1.34
255.823	1.48
256.198	1.72
256.573	1.8
256.948	1.85
257.323	2.07
257.698	2.46
258.073	2.71
258.448	2.79
258.823	2.8
259.198	2.68
259.573	2.72
259.948	2.62
260.322	2.88
260.697	2.94
261.072	3.14
261.446	3.02
261.821	3.13
262.195	3.18
262.57	3.18
262.944	3.23
263.319	2.97
263.693	2.99
264.067	2.93
264.442	3.04
264.816	3.06
265.19	2.83
265.564	2.62
265.938	2.41
266.313	2.29
266.687	2.33
267.061	2.63
267.435	2.74
267.809	3.01
268.183	2.59
268.556	2.51
268.93	2.33
269.304	2.41
269.678	2.29
270.051	2.35
270.425	2.48
270.799	2.45
271.172	2.62
271.546	2.6
271.919	2.44
272.293	2.3
272.666	2.17
273.04	2.26
273.413	2.33
273.787	2.26
274.16	2.35
274.533	2.34
274.906	2.03
275.279	2.12
275.653	2.12
276.026	2.24
276.399	2.23
276.772	2.31
277.145	2.2
277.518	2.21
277.891	2.13
278.263	1.96
278.636	1.91
279.009	1.96
279.382	2.05
279.755	2.14
280.127	2.33
280.5	2.46
280.872	2.51
281.245	2.39
281.617	2.49
281.99	2.47
282.362	2.55
282.735	2.52
283.107	2.29
283.479	2.24
283.852	2.27
284.224	2.33
284.596	2.29
284.968	2.37
285.34	2.43
285.713	2.54
286.085	2.69
286.457	2.77
286.829	2.71
287.201	2.66
287.572	2.65
287.944	2.51
288.316	2.52
288.688	2.43
289.06	2.49
289.431	2.5
289.803	2.52
290.175	2.53
290.546	2.7
290.918	2.8
291.289	2.77
291.661	2.87
292.032	2.91
292.403	2.94
292.775	3.06
293.146	2.95
293.517	2.93
293.889	2.95
294.26	3.04
294.631	3.03
295.002	3.07
295.373	3.1
295.744	3.14
296.115	3.12
296.486	3.13
296.857	3.27
297.228	3.33
297.599	3.31
297.97	3.21
298.34	3.28
298.711	3.33
299.082	3.4
299.452	3.33
299.823	3.4
300.194	3.51
300.564	3.39
300.935	3.51
301.305	3.38
301.676	3.4
302.046	3.23
302.416	3.29
302.787	3.24
303.157	3.21
303.527	3.12
303.897	3.18
304.267	3.23
304.637	3.12
305.008	3.1
305.378	3.13
305.748	3.28
306.117	3.11
306.487	3.1
306.857	3.04
307.227	3.06
307.597	2.89
307.967	2.93
308.336	2.91
308.706	2.91
309.076	3.18
309.445	3.18
309.815	3.31
310.184	3.3
310.554	3.35
310.923	3.29
311.293	3.38
311.662	3.4
312.031	3.45
312.401	3.5
312.77	3.54
313.139	3.59
313.508	3.59
313.877	3.64
314.246	3.59
314.616	3.62
314.985	3.61
315.353	3.69
315.722	3.69
316.091	3.82
316.46	3.71
316.829	3.5
317.198	3.41
317.567	3.34
317.935	3.34
318.304	3.33
318.672	3.49
319.041	3.6
319.41	3.59
319.778	3.54
320.147	3.57
320.515	3.47
320.883	3.54
321.252	3.5
321.62	3.58
321.988	3.59
322.357	3.59
322.725	3.54
323.093	3.53
323.461	3.51
323.829	3.51
324.197	3.67
324.565	3.63
324.933	3.61
325.301	3.53
325.669	3.63
326.037	3.54
326.405	3.48
326.772	3.39
327.14	3.28
327.508	3.35
327.875	3.26
328.243	3.37
328.61	3.16
328.978	3.12
329.346	3
329.713	3.02
330.08	2.99
330.448	2.99
330.815	3.02
331.182	2.88
331.55	2.84
331.917	2.73
332.284	2.81
332.651	2.87
333.018	2.9
333.385	2.82
333.752	3.02
334.119	3.12
334.486	3.07
334.853	3.07
335.22	3
335.587	3.02
335.954	2.97
336.32	2.99
336.687	3.12
337.054	3.16
337.42	3.18
337.787	3.31
338.153	3.31
338.52	3.28
338.886	3.26
339.253	3.28
339.619	3.39
339.986	3.41
340.352	3.47
340.718	3.52
341.084	3.51
341.451	3.54
341.817	3.62
342.183	3.6
342.549	3.63
342.915	3.76
343.281	3.7
343.647	3.59
344.013	3.69
344.379	3.55
344.745	3.57
345.11	3.52
345.476	3.29
345.842	3.44
346.208	3.36
346.573	3.46
346.939	3.5
347.304	3.5
347.67	3.42
348.035	3.42
348.401	3.45
348.766	3.39
349.132	3.26
349.497	3.2
349.862	3.37
350.228	3.38
350.593	3.26
350.958	3.29
351.323	3.43
351.688	3.47
352.053	3.63
352.418	3.67
352.783	3.69
353.148	3.78
353.513	3.73
353.878	3.77
354.243	3.8
354.608	3.76
354.972	3.79
355.337	3.86
355.702	3.87
356.066	3.89
356.431	3.93
356.795	4.01
357.16	4.01
357.524	3.93
357.889	3.97
358.253	4
358.618	4.08
358.982	4.01
359.346	3.91
359.71	3.88
360.075	3.85
360.439	3.92
360.803	4.01
361.167	4.01
361.531	4.08
361.895	4.03
362.259	4.02
362.623	4.01
362.987	4.01
363.351	4
363.714	3.97
364.078	3.98
364.442	3.91
364.806	3.88
365.169	3.85
365.533	3.84
365.896	3.9
366.26	3.84
366.623	3.91
366.987	3.96
367.35	3.92
367.714	3.97
368.077	3.93
368.44	3.87
368.803	3.87
369.167	3.83
369.53	3.84
369.893	3.91
370.256	3.85
370.619	3.83
370.982	3.78
371.345	3.76
371.708	3.79
372.071	3.8
372.434	3.79
372.797	3.9
373.159	3.88
373.522	3.85
373.885	3.92
374.247	3.91
374.61	3.92
374.973	3.93
375.335	3.9
375.698	3.93
376.06	3.94
376.423	3.92
376.785	3.98
377.147	4.06
377.51	3.99
377.872	4.05
378.234	4.07
378.596	4.09
378.958	4.12
379.321	4.14
379.683	4.13
380.045	4.16
380.407	4.1
380.769	4.08
381.13	4.06
381.492	4.03
381.854	4.05
382.216	4.02
382.578	3.99
382.939	3.98
383.301	3.94
383.663	3.9
384.024	3.92
384.386	3.88
384.747	3.84
385.109	3.87
385.47	3.81
385.832	3.83
386.193	3.88
386.554	3.85
386.916	3.86
387.277	3.91
387.638	3.95
387.999	3.96
388.36	4
388.721	3.99
389.082	3.99
389.443	3.96
389.804	3.95
390.165	3.95
390.526	3.95
390.887	3.96
391.248	4.04
391.609	4.05
391.969	4.11
392.33	4.11
392.691	4.13
393.051	4.13
393.412	4.11
393.772	4.11
394.133	4.14
394.493	4.13
394.854	4.12
395.214	4.08
395.574	4.09
395.935	4.06
396.295	4.12
396.655	4.12
397.015	4.12
397.376	4.12
397.736	4.16
398.096	4.19
398.456	4.2
398.816	4.16
399.176	4.13
399.535	4.09
399.895	4.06
400.255	4.06
400.615	4.07
400.975	4.11
401.334	4.08
401.694	4.06
402.054	4.03
402.413	4.05
402.773	4.06
403.132	4.02
403.492	4.03
403.851	4.02
404.211	4.01
404.57	4.03
404.929	4.07
405.288	4.06
405.648	4.05
406.007	4.03
406.366	4.04
406.725	4.04
407.084	4.03
407.443	4.04
407.802	4.05
408.161	4.06
408.52	4.05
408.879	4.05
409.238	4.07
409.596	4.09
409.955	4.07
410.314	4.08
410.673	4.11
411.031	4.1
411.39	4.1
411.748	4.08
412.107	4.11
412.465	4.11
412.824	4.12
413.182	4.13
413.54	4.18
413.899	4.21
414.257	4.21
414.615	4.24
414.974	4.27
415.332	4.26
415.69	4.27
416.048	4.28
416.406	4.31
416.764	4.31
417.122	4.31
417.48	4.32
417.838	4.33
418.195	4.33
418.553	4.35
418.911	4.34
419.269	4.36
419.626	4.34
419.984	4.33
420.342	4.35
420.699	4.34
421.057	4.34
421.414	4.33
421.772	4.32
422.129	4.32
422.486	4.32
422.844	4.32
423.201	4.3
423.558	4.3
423.915	4.29
424.273	4.28
424.63	4.26
424.987	4.24
425.344	4.22
425.701	4.22
426.058	4.2
426.415	4.21
426.772	4.2
427.128	4.21
427.485	4.2
427.842	4.18
428.199	4.2
428.555	4.19
428.912	4.19
429.269	4.22
429.625	4.2
429.982	4.2
430.338	4.2
430.695	4.21
431.051	4.22
431.407	4.22
431.764	4.2
432.12	4.21
432.476	4.24
432.832	4.24
433.189	4.25
433.545	4.26
433.901	4.24
434.257	4.25
434.613	4.25
434.969	4.25
435.325	4.26
435.681	4.25
436.036	4.27
436.392	4.26
436.748	4.25
437.104	4.26
437.459	4.26
437.815	4.27
438.171	4.28
438.526	4.29
438.882	4.3
439.237	4.33
439.593	4.35
439.948	4.36
440.304	4.37
440.659	4.38
441.014	4.39
441.369	4.4
441.725	4.4
442.08	4.4
442.435	4.4
442.79	4.39
443.145	4.39
443.5	4.39
443.855	4.39
444.21	4.4
444.565	4.4
444.92	4.41
445.275	4.41
445.629	4.41
445.984	4.42
446.339	4.41
446.693	4.4
447.048	4.38
447.403	4.38
447.757	4.37
448.112	4.36
448.466	4.35
448.82	4.35
449.175	4.35
449.529	4.36
449.883	4.36
450.238	4.36
450.592	4.36
450.946	4.37
451.3	4.37
451.654	4.38
452.008	4.38
452.362	4.36
452.716	4.37
453.07	4.37
453.424	4.37
453.778	4.35
454.132	4.35
454.486	4.36
454.839	4.35
455.193	4.35
455.547	4.35
455.9	4.36
456.254	4.36
456.607	4.37
456.961	4.36
457.314	4.38
457.668	4.39
458.021	4.38
458.375	4.36
458.728	4.37
459.081	4.37
459.434	4.34
459.787	4.38
460.141	4.37
460.494	4.36
460.847	4.36
461.2	4.37
461.553	4.37
461.906	4.37
462.259	4.37
462.611	4.39
462.964	4.39
463.317	4.38
463.67	4.39
464.022	4.38
464.375	4.37
464.728	4.36
465.08	4.36
465.433	4.37
465.785	4.39
466.138	4.38
466.49	4.39
466.843	4.42
467.195	4.41
467.547	4.41
467.899	4.4
468.252	4.42
468.604	4.43
468.956	4.43
469.308	4.43
469.66	4.43
470.012	4.44
470.364	4.44
470.716	4.45
471.068	4.43
471.42	4.45
471.772	4.48
472.123	4.47
472.475	4.48
472.827	4.5
473.178	4.49
473.53	4.5
473.882	4.5
474.233	4.49
474.585	4.47
474.936	4.47
475.288	4.48
475.639	4.47
475.99	4.47
476.342	4.48
476.693	4.49
477.044	4.49
477.395	4.47
477.746	4.48
478.097	4.49
478.448	4.52
478.8	4.51
479.15	4.49
479.501	4.5
479.852	4.52
480.203	4.53
480.554	4.55
480.905	4.57
481.255	4.56
481.606	4.57
481.957	4.58
482.307	4.6
482.658	4.61
483.009	4.61
483.359	4.62
483.709	4.62
484.06	4.62
484.41	4.63
484.761	4.64
485.111	4.64
485.461	4.64
485.811	4.65
486.162	4.66
486.512	4.67
486.862	4.67
487.212	4.66
487.562	4.67
487.912	4.66
488.262	4.65
488.612	4.66
488.961	4.67
489.311	4.68
489.661	4.66
490.011	4.66
490.36	4.66
490.71	4.66
491.06	4.67
491.409	4.67
491.759	4.67
492.108	4.68
492.458	4.68
492.807	4.67
493.157	4.67
493.506	4.67
493.855	4.67
494.204	4.67
494.554	4.67
494.903	4.65
495.252	4.65
495.601	4.66
495.95	4.67
496.299	4.67
496.648	4.64
496.997	4.67
497.346	4.67
497.695	4.67
498.043	4.65
498.392	4.64
498.741	4.63
499.09	4.63
499.438	4.6
499.787	4.61
500.135	4.65
500.484	4.64
500.832	4.65
501.181	4.63
501.529	4.63
501.878	4.65
502.226	4.66
502.574	4.68
502.923	4.68
503.271	4.66
503.619	4.67
503.967	4.68
504.315	4.64
504.663	4.65
505.011	4.69
505.359	4.71
505.707	4.74
506.055	4.76
506.403	4.79
506.751	4.8
507.098	4.78
507.446	4.77
507.794	4.75
508.141	4.74
508.489	4.77
508.837	4.78
509.184	4.78
509.531	4.77
509.879	4.8
510.226	4.8
510.574	4.81
510.921	4.81
511.268	4.83
511.616	4.86
511.963	4.85
512.31	4.83
512.657	4.83
513.004	4.83
513.351	4.84
513.698	4.82
514.045	4.83
514.392	4.84
514.739	4.85
515.086	4.88
515.432	4.87
515.779	4.86
516.126	4.89
516.473	4.88
516.819	4.9
517.166	4.87
517.512	4.88
517.859	4.87
518.205	4.88
518.552	4.89
518.898	4.89
519.245	4.9
519.591	4.88
519.937	4.87
520.283	4.88
520.629	4.89
520.976	4.88
521.322	4.88
521.668	4.89
522.014	4.88
522.36	4.89
522.706	4.91
523.052	4.91
523.398	4.9
523.743	4.9
524.089	4.9
524.435	4.91
524.781	4.91
525.126	4.92
525.472	4.93
525.817	4.93
526.163	4.94
526.509	4.95
526.854	4.97
527.199	4.99
527.545	5
527.89	4.98
528.235	5
528.581	5
528.926	5.01
529.271	5.03
529.616	5.03
529.961	5.03
530.306	5.03
530.651	5.03
530.996	5.06
531.341	5.07
531.686	5.08
532.031	5.09
532.376	5.09
532.721	5.09
533.065	5.08
533.41	5.07
533.755	5.08
534.099	5.08
534.444	5.06
534.788	5.06
535.133	5.07
535.477	5.07
535.822	5.06
536.166	5.06
536.51	5.05
536.855	5.05
537.199	5.06
537.543	5.06
537.887	5.06
538.231	5.04
538.576	5.04
538.92	5.03
539.264	5.03
539.608	5.03
539.951	5.03
540.295	5.04
540.639	5.04
540.983	5.04
541.327	5.03
541.671	5.03
542.014	5.05
542.358	5.05
542.701	5.05
543.045	5.07
543.389	5.07
543.732	5.06
544.075	5.09
544.419	5.1
544.762	5.09
545.105	5.1
545.449	5.11
545.792	5.09
546.135	5.09
546.478	5.11
546.821	5.1
547.165	5.12
547.508	5.12
547.851	5.13
548.194	5.14
548.536	5.14
548.879	5.14
549.222	5.13
549.565	5.13
549.908	5.15
550.25	5.12
550.593	5.11
550.936	5.1
551.278	5.09
551.621	5.07
551.963	5.09
552.306	5.08
552.648	5.07
552.991	5.1
553.333	5.11
553.675	5.1
554.017	5.15
554.36	5.14
554.702	5.16
555.044	5.17
555.386	5.17
555.728	5.18
556.07	5.2
556.412	5.19
556.754	5.19
557.096	5.18
557.438	5.19
557.78	5.2
558.121	5.22
558.463	5.25
558.805	5.25
559.147	5.26
559.488	5.26
559.83	5.27
560.171	5.25
560.513	5.24
560.854	5.26
561.196	5.2
561.537	5.21
561.878	5.21
562.22	5.19
562.561	5.21
562.902	5.21
563.243	5.21
563.584	5.23
563.925	5.24
564.266	5.23
564.607	5.22
564.948	5.21
565.289	5.22
565.63	5.19
565.971	5.18
566.312	5.16
566.653	5.17
566.993	5.15
567.334	5.16
567.675	5.18
568.015	5.18
568.356	5.19
568.696	5.23
569.037	5.22
569.377	5.24
569.718	5.23
570.058	5.25
570.398	5.25
570.739	5.27
571.079	5.28
571.419	5.3
571.759	5.32
572.099	5.34
572.439	5.38
572.779	5.38
573.119	5.42
573.459	5.47
573.799	5.51
574.139	5.52
574.479	5.52
574.819	5.5
575.158	5.49
575.498	5.5
575.838	5.45
576.177	5.45
576.517	5.47
576.856	5.49
577.196	5.49
577.535	5.47
577.875	5.44
578.214	5.44
578.553	5.45
578.893	5.45
579.232	5.43
579.571	5.41
579.91	5.4
580.25	5.38
580.589	5.34
580.928	5.32
581.267	5.3
581.606	5.3
581.945	5.31
582.283	5.31
582.622	5.32
582.961	5.32
583.3	5.34
583.639	5.35
583.977	5.37
584.316	5.39
584.654	5.39
584.993	5.39
585.332	5.37
585.67	5.38
586.008	5.34
586.347	5.37
586.685	5.36
587.024	5.38
587.362	5.41
587.7	5.45
588.038	5.47
588.376	5.51
588.715	5.55
589.053	5.58
589.391	5.61
589.729	5.65
590.067	5.68
590.404	5.68
590.742	5.66
591.08	5.63
591.418	5.63
591.756	5.63
592.093	5.66
592.431	5.69
592.769	5.71
593.106	5.75
593.444	5.71
593.781	5.69
594.119	5.71
594.456	5.68
594.793	5.63
595.131	5.56
595.468	5.56
595.805	5.52
596.143	5.52
596.48	5.5
596.817	5.44
597.154	5.45
597.491	5.44
597.828	5.42
598.165	5.42
598.502	5.43
598.839	5.45
599.176	5.42
599.512	5.42
599.849	5.44
600.186	5.47
600.523	5.5
600.859	5.51
601.196	5.53
601.532	5.53
601.869	5.56
602.205	5.63
602.542	5.62
602.878	5.64
603.215	5.62
603.551	5.63
603.887	5.67
604.223	5.67
604.56	5.71
604.896	5.76
605.232	5.78
605.568	5.77
605.904	5.77
606.24	5.79
606.576	5.77
606.912	5.76
607.248	5.72
607.583	5.74
607.919	5.74
608.255	5.72
608.591	5.75
608.926	5.77
609.262	5.77
609.597	5.78
609.933	5.83
610.268	5.85
610.604	5.88
610.939	5.87
611.275	5.87
611.61	5.85
611.945	5.87
612.281	5.88
612.616	5.85
612.951	5.87
613.286	5.91
613.621	5.93
613.956	5.93
614.291	6
614.626	5.99
614.961	5.98
615.296	5.97
615.631	5.94
615.966	5.92
616.3	5.9
616.635	5.88
616.97	5.83
617.304	5.88
617.639	5.91
617.973	5.91
618.308	5.9
618.642	5.91
618.977	5.83
619.311	5.8
619.646	5.82
619.98	5.8
620.314	5.81
620.648	5.85
620.983	5.92
621.317	5.84
621.651	5.9
621.985	5.97
622.319	5.99
622.653	5.99
622.987	6.01
623.321	6.03
623.655	6.04
623.988	6.09
624.322	6.02
624.656	5.99
624.99	5.97
625.323	5.99
625.657	5.99
625.99	6.06
626.324	6.06
626.657	6.06
626.991	6.08
627.324	6.03
627.658	6.02
627.991	5.97
628.324	6.01
628.657	5.92
628.991	5.9
629.324	5.9
629.657	5.92
629.99	5.92
630.323	5.84
630.656	5.89
630.989	5.88
631.322	5.93
631.655	5.93
631.987	6
632.32	6
632.653	5.95
632.986	5.95
633.318	5.94
633.651	5.96
633.984	5.94
634.316	5.95
634.649	5.95
634.981	5.96
635.313	5.99
635.646	6.05
635.978	6.05
636.31	6.07
636.643	6.06
636.975	6.03
637.307	6.16
637.639	6.09
637.971	6.09
638.303	6.06
638.635	6.03
638.967	6.01
639.299	6.05
639.631	6.08
639.963	6
640.295	6.01
640.626	6.04
640.958	6.13
641.29	6.14
641.621	6.11
641.953	6.12
642.285	6.11
642.616	6.12
642.948	6.1
643.279	6.07
643.61	6.05
643.942	6.03
644.273	6
644.604	5.98
644.936	5.93
645.267	5.94
645.598	5.97
645.929	5.94
646.26	5.87
646.591	5.94
646.922	5.96
647.253	5.98
647.584	5.92
647.915	5.82
648.245	5.87
648.576	5.9
648.907	5.92
649.238	5.82
649.568	5.77
649.899	5.82
650.229	5.92
650.56	5.95
650.89	5.95
651.221	5.94
651.551	5.99
651.882	5.99
652.212	6.12
652.542	6.11
652.872	6.12
653.203	6.12
653.533	6.11
653.863	6.15
654.193	6.13
654.523	6.17
654.853	6.26
655.183	6.29
655.513	6.24
655.843	6.21
656.172	6.26
656.502	6.3
656.832	6.24
657.162	6.2
657.491	6.16
657.821	6.19
658.15	6.19
658.48	6.22
658.809	6.31
659.139	6.2
659.468	6.21
659.798	6.22
660.127	6.26
660.456	6.3
660.785	6.33
661.115	6.33
661.444	6.35
661.773	6.27
662.102	6.23
662.431	6.31
662.76	6.27
663.089	6.38
663.418	6.38
663.747	6.42
664.076	6.42
664.404	6.5
664.733	6.53
665.062	6.56
665.39	6.48
665.719	6.45
666.048	6.52
666.376	6.5
666.705	6.47
667.033	6.47
667.362	6.48
667.69	6.45
668.018	6.43
668.347	6.4
668.675	6.44
669.003	6.45
669.331	6.5
669.659	6.48
669.987	6.36
670.315	6.38
670.643	6.31
670.971	6.32
671.299	6.37
671.627	6.37
671.955	6.36
672.283	6.45
672.61	6.47
672.938	6.42
673.266	6.5
673.593	6.64
673.921	6.63
674.249	6.56
674.576	6.58
674.904	6.7
675.231	6.66
