Data from BA28420_Reflection_00012.txt Node
Date: Mon Nov 18 16:08:38 EST 2019
User: vgr7
Spectrometer: USB2G7710
Scans to average: 3
Trigger mode: 4
Integration Time (sec): 2.000000E-2
Electric dark correction enabled: true
Boxcar width: 10
XAxis mode: Wavelengths
Number of Pixels in Spectrum: 2048
>>>>>Begin Spectral Data<<<<<
177.721	-166.84
178.105	369.84
178.488	-1098.83
178.871	-104.33
179.254	-76.22
179.636	31.46
180.019	61.72
180.402	25
180.785	22.56
181.168	-75.21
181.55	-95.4
181.933	99.38
182.316	106.38
182.698	129.52
183.081	104.98
183.463	66.74
183.846	43.72
184.228	4.69
184.611	-5.96
184.993	49.49
185.376	167.69
185.758	-11788.89
186.14	465.7
186.522	632.34
186.904	-533.7
187.287	886.16
187.669	-435.35
188.051	87.78
188.433	109.31
188.815	78.38
189.197	49.12
189.579	36.75
189.961	82.17
190.342	34.41
190.724	1.37
191.106	-7.81
191.488	7.33
191.869	-44.21
192.251	280.08
192.633	162.39
193.014	16.15
193.396	-31.21
193.777	-24.62
194.159	-33.71
194.54	-29.22
194.922	-45.8
195.303	-66.93
195.684	-65.07
196.065	-175.24
196.447	-106.35
196.828	-104.3
197.209	-126.81
197.59	-78.97
197.971	-118.08
198.352	224.77
198.733	111.06
199.114	32.68
199.495	12.2
199.876	-4.28
200.257	32.42
200.638	54.81
201.018	37.52
201.399	19.84
201.78	13.93
202.16	16.13
202.541	9.73
202.922	-15.4
203.302	-19.29
203.683	-27.84
204.063	-38.8
204.444	-36.67
204.824	-21.11
205.204	-15.67
205.585	-7.76
205.965	-9.54
206.345	1.45
206.725	16.55
207.106	24.73
207.486	11.19
207.866	23.36
208.246	68.72
208.626	-23.22
209.006	-67.08
209.386	-78.11
209.766	-36.89
210.145	-25.27
210.525	22.58
210.905	28.31
211.285	25.31
211.664	48.97
212.044	162.15
212.424	137.04
212.803	123.68
213.183	58.46
213.562	5.52
213.942	55.26
214.321	30.13
214.701	15.1
215.08	-21.63
215.459	-22.24
215.838	-30.27
216.218	-47.6
216.597	-11.84
216.976	-0.83
217.355	8.45
217.734	17.06
218.113	5.13
218.492	9.41
218.871	7.23
219.25	12.46
219.629	-4.43
220.008	-13.35
220.387	0.17
220.766	10.03
221.144	7.48
221.523	7.69
221.902	-4.65
222.28	-24.81
222.659	-11.43
223.037	0.32
223.416	4.86
223.794	-1.93
224.173	-1.98
224.551	4.41
224.929	0.61
225.308	1.22
225.686	-2.05
226.064	1.92
226.442	1.82
226.821	9.6
227.199	5.17
227.577	8.82
227.955	9.03
228.333	10.41
228.711	12.32
229.089	11.35
229.467	9.39
229.845	10.41
230.222	12.41
230.6	11.59
230.978	10.45
231.356	12.64
231.733	13.51
232.111	15.6
232.488	14.78
232.866	15.45
233.243	12.64
233.621	10.79
233.998	11.5
234.376	10.32
234.753	9.54
235.13	10.25
235.508	9.93
235.885	9.54
236.262	7.34
236.639	6.35
237.016	5.64
237.393	7.44
237.77	6.43
238.147	6.78
238.524	6.64
238.901	6.75
239.278	6.58
239.655	7.56
240.032	7.12
240.409	6.61
240.785	6.55
241.162	6.68
241.539	6.68
241.915	6.5
242.292	6.18
242.668	5.8
243.045	5.56
243.421	5.36
243.798	5.06
244.174	4.8
244.551	4.72
244.927	4.61
245.303	4.76
245.679	4.89
246.056	4.6
246.432	4.42
246.808	4.41
247.184	4.17
247.56	3.79
247.936	3.6
248.312	3.78
248.688	3.74
249.064	4.03
249.44	4.04
249.815	4.03
250.191	4.24
250.567	4.42
250.943	4.3
251.318	4.48
251.694	4.5
252.069	4.68
252.445	4.87
252.82	5.06
253.196	4.78
253.571	4.53
253.947	4.63
254.322	4.67
254.697	4.73
255.073	4.92
255.448	4.88
255.823	4.83
256.198	4.44
256.573	4.44
256.948	4.36
257.323	4.42
257.698	4.53
258.073	4.4
258.448	4.22
258.823	4.41
259.198	4.16
259.573	4.06
259.948	3.98
260.322	3.73
260.697	3.73
261.072	3.53
261.446	3.53
261.821	3.48
262.195	3.62
262.57	3.55
262.944	3.36
263.319	3.36
263.693	3.27
264.067	3.39
264.442	3.35
264.816	3.06
265.19	2.92
265.564	2.67
265.938	2.71
266.313	2.61
266.687	2.43
267.061	2.65
267.435	2.72
267.809	2.79
268.183	2.97
268.556	2.87
268.93	3.15
269.304	3.16
269.678	3.37
270.051	3.21
270.425	3.2
270.799	3.32
271.172	3.3
271.546	3.32
271.919	3.35
272.293	3.49
272.666	3.56
273.04	3.5
273.413	3.58
273.787	3.64
274.16	3.82
274.533	3.9
274.906	3.85
275.279	3.8
275.653	3.64
276.026	3.52
276.399	3.66
276.772	3.73
277.145	3.72
277.518	3.7
277.891	3.69
278.263	3.57
278.636	3.53
279.009	3.49
279.382	3.53
279.755	3.52
280.127	3.5
280.5	3.54
280.872	3.76
281.245	3.76
281.617	3.65
281.99	3.69
282.362	3.7
282.735	3.6
283.107	3.62
283.479	3.77
283.852	3.92
284.224	3.86
284.596	3.84
284.968	3.92
285.34	3.82
285.713	3.7
286.085	3.82
286.457	3.94
286.829	3.97
287.201	4.02
287.572	3.84
287.944	3.69
288.316	3.71
288.688	3.57
289.06	3.57
289.431	3.55
289.803	3.34
290.175	3.34
290.546	3.5
290.918	3.56
291.289	3.55
291.661	3.46
292.032	3.48
292.403	3.48
292.775	3.47
293.146	3.56
293.517	3.69
293.889	3.79
294.26	3.76
294.631	3.85
295.002	3.85
295.373	3.94
295.744	4.05
296.115	3.97
296.486	3.98
296.857	3.97
297.228	3.99
297.599	4.04
297.97	4.02
298.34	4.07
298.711	4.19
299.082	4.16
299.452	4.12
299.823	4.25
300.194	4.23
300.564	4.15
300.935	4.19
301.305	4.1
301.676	4.12
302.046	4.17
302.416	4.23
302.787	4.24
303.157	4.32
303.527	4.27
303.897	4.29
304.267	4.62
304.637	4.73
305.008	4.8
305.378	4.93
305.748	5.02
306.117	4.79
306.487	4.69
306.857	4.79
307.227	4.97
307.597	4.97
307.967	5
308.336	5.17
308.706	5.12
309.076	5.27
309.445	5.18
309.815	5.16
310.184	5.07
310.554	5.08
310.923	5.04
311.293	5.13
311.662	5.27
312.031	5.04
312.401	5.01
312.77	5.06
313.139	5.03
313.508	4.94
313.877	5.15
314.246	5.2
314.616	5.15
314.985	5.05
315.353	4.83
315.722	4.94
316.091	4.86
316.46	4.84
316.829	4.89
317.198	4.93
317.567	4.83
317.935	4.82
318.304	4.81
318.672	4.82
319.041	4.96
319.41	5
319.778	5.07
320.147	4.98
320.515	4.83
320.883	4.92
321.252	5.15
321.62	5.17
321.988	5.19
322.357	5.35
322.725	5.44
323.093	5.69
323.461	5.69
323.829	5.78
324.197	5.89
324.565	5.88
324.933	5.99
325.301	6.04
325.669	6.13
326.037	6.18
326.405	6.23
326.772	6.21
327.14	6.18
327.508	6.21
327.875	6.29
328.243	6.42
328.61	6.32
328.978	6.24
329.346	6.22
329.713	6.25
330.08	6.17
330.448	6.18
330.815	6.03
331.182	6.01
331.55	5.96
331.917	6
332.284	6.08
332.651	5.9
333.018	6.05
333.385	6.06
333.752	6.19
334.119	6.32
334.486	6.32
334.853	6.48
335.22	6.48
335.587	6.59
335.954	6.63
336.32	6.74
336.687	6.77
337.054	6.75
337.42	6.72
337.787	6.83
338.153	6.8
338.52	6.91
338.886	6.8
339.253	6.77
339.619	6.72
339.986	6.7
340.352	6.8
340.718	6.77
341.084	6.67
341.451	6.64
341.817	6.59
342.183	6.54
342.549	6.44
342.915	6.54
343.281	6.44
343.647	6.39
344.013	6.5
344.379	6.43
344.745	6.41
345.11	6.54
345.476	6.51
345.842	6.53
346.208	6.56
346.573	6.67
346.939	6.78
347.304	6.8
347.67	6.85
348.035	6.89
348.401	6.84
348.766	6.85
349.132	6.86
349.497	6.82
349.862	6.91
350.228	6.96
350.593	6.94
350.958	7.02
351.323	7.01
351.688	6.93
352.053	7.02
352.418	7.13
352.783	7.11
353.148	7.04
353.513	7.03
353.878	7.02
354.243	7.09
354.608	7.06
354.972	7.1
355.337	7.13
355.702	7.16
356.066	7.19
356.431	7.2
356.795	7.23
357.16	7.2
357.524	7.1
357.889	6.98
358.253	6.94
358.618	6.85
358.982	6.84
359.346	6.84
359.71	6.81
360.075	6.76
360.439	6.69
360.803	6.73
361.167	6.73
361.531	6.63
361.895	6.57
362.259	6.59
362.623	6.59
362.987	6.53
363.351	6.48
363.714	6.46
364.078	6.5
364.442	6.43
364.806	6.45
365.169	6.43
365.533	6.48
365.896	6.46
366.26	6.52
366.623	6.51
366.987	6.5
367.35	6.54
367.714	6.54
368.077	6.56
368.44	6.46
368.803	6.46
369.167	6.49
369.53	6.46
369.893	6.52
370.256	6.46
370.619	6.43
370.982	6.41
371.345	6.4
371.708	6.36
372.071	6.38
372.434	6.32
372.797	6.39
373.159	6.33
373.522	6.36
373.885	6.31
374.247	6.27
374.61	6.22
374.973	6.14
375.335	6.12
375.698	6.08
376.06	6.07
376.423	6.05
376.785	6.06
377.147	6.06
377.51	5.94
377.872	5.95
378.234	5.93
378.596	5.91
378.958	5.87
379.321	5.82
379.683	5.78
380.045	5.73
380.407	5.64
380.769	5.68
381.13	5.58
381.492	5.6
381.854	5.6
382.216	5.58
382.578	5.56
382.939	5.5
383.301	5.45
383.663	5.41
384.024	5.38
384.386	5.35
384.747	5.32
385.109	5.31
385.47	5.23
385.832	5.2
386.193	5.18
386.554	5.14
386.916	5.16
387.277	5.16
387.638	5.2
387.999	5.19
388.36	5.07
388.721	5.1
389.082	5.03
389.443	5.01
389.804	5.01
390.165	4.97
390.526	4.99
390.887	4.97
391.248	5.04
391.609	5.02
391.969	4.98
392.33	4.94
392.691	4.88
393.051	4.87
393.412	4.88
393.772	4.85
394.133	4.87
394.493	4.81
394.854	4.77
395.214	4.68
395.574	4.68
395.935	4.65
396.295	4.6
396.655	4.55
397.015	4.51
397.376	4.44
397.736	4.42
398.096	4.38
398.456	4.38
398.816	4.33
399.176	4.3
399.535	4.28
399.895	4.26
400.255	4.23
400.615	4.23
400.975	4.18
401.334	4.14
401.694	4.1
402.054	4.09
402.413	4.05
402.773	4.05
403.132	4.02
403.492	4.04
403.851	4.03
404.211	4.04
404.57	4.01
404.929	4.04
405.288	4.01
405.648	3.96
406.007	3.95
406.366	3.92
406.725	3.94
407.084	3.94
407.443	3.93
407.802	3.95
408.161	3.93
408.52	3.93
408.879	3.92
409.238	3.91
409.596	3.9
409.955	3.94
410.314	3.95
410.673	3.94
411.031	3.92
411.39	3.92
411.748	3.9
412.107	3.92
412.465	3.87
412.824	3.86
413.182	3.83
413.54	3.81
413.899	3.81
414.257	3.81
414.615	3.79
414.974	3.78
415.332	3.8
415.69	3.78
416.048	3.76
416.406	3.75
416.764	3.72
417.122	3.7
417.48	3.69
417.838	3.67
418.195	3.67
418.553	3.64
418.911	3.62
419.269	3.64
419.626	3.61
419.984	3.6
420.342	3.59
420.699	3.61
421.057	3.61
421.414	3.6
421.772	3.58
422.129	3.57
422.486	3.57
422.844	3.56
423.201	3.54
423.558	3.53
423.915	3.51
424.273	3.52
424.63	3.5
424.987	3.49
425.344	3.49
425.701	3.5
426.058	3.5
426.415	3.5
426.772	3.47
427.128	3.48
427.485	3.5
427.842	3.49
428.199	3.48
428.555	3.47
428.912	3.46
429.269	3.45
429.625	3.45
429.982	3.44
430.338	3.43
430.695	3.45
431.051	3.45
431.407	3.46
431.764	3.46
432.12	3.46
432.476	3.44
432.832	3.43
433.189	3.41
433.545	3.4
433.901	3.38
434.257	3.39
434.613	3.38
434.969	3.37
435.325	3.37
435.681	3.38
436.036	3.39
436.392	3.38
436.748	3.39
437.104	3.39
437.459	3.38
437.815	3.38
438.171	3.37
438.526	3.37
438.882	3.37
439.237	3.37
439.593	3.38
439.948	3.38
440.304	3.36
440.659	3.37
441.014	3.4
441.369	3.4
441.725	3.39
442.08	3.39
442.435	3.4
442.79	3.39
443.145	3.38
443.5	3.35
443.855	3.34
444.21	3.33
444.565	3.32
444.92	3.32
445.275	3.31
445.629	3.31
445.984	3.31
446.339	3.28
446.693	3.27
447.048	3.27
447.403	3.26
447.757	3.25
448.112	3.24
448.466	3.21
448.82	3.2
449.175	3.2
449.529	3.2
449.883	3.19
450.238	3.19
450.592	3.2
450.946	3.19
451.3	3.18
451.654	3.18
452.008	3.2
452.362	3.2
452.716	3.19
453.07	3.2
453.424	3.19
453.778	3.2
454.132	3.21
454.486	3.19
454.839	3.2
455.193	3.22
455.547	3.22
455.9	3.24
456.254	3.25
456.607	3.24
456.961	3.24
457.314	3.24
457.668	3.24
458.021	3.21
458.375	3.22
458.728	3.23
459.081	3.22
459.434	3.2
459.787	3.21
460.141	3.21
460.494	3.2
460.847	3.21
461.2	3.23
461.553	3.22
461.906	3.24
462.259	3.25
462.611	3.27
462.964	3.27
463.317	3.28
463.67	3.27
464.022	3.29
464.375	3.29
464.728	3.32
465.08	3.34
465.433	3.35
465.785	3.36
466.138	3.38
466.49	3.4
466.843	3.39
467.195	3.4
467.547	3.41
467.899	3.42
468.252	3.42
468.604	3.44
468.956	3.44
469.308	3.43
469.66	3.42
470.012	3.43
470.364	3.43
470.716	3.43
471.068	3.44
471.42	3.45
471.772	3.45
472.123	3.44
472.475	3.44
472.827	3.47
473.178	3.47
473.53	3.48
473.882	3.46
474.233	3.49
474.585	3.47
474.936	3.47
475.288	3.47
475.639	3.46
475.99	3.47
476.342	3.49
476.693	3.49
477.044	3.5
477.395	3.46
477.746	3.44
478.097	3.46
478.448	3.47
478.8	3.45
479.15	3.42
479.501	3.42
479.852	3.4
480.203	3.41
480.554	3.43
480.905	3.43
481.255	3.44
481.606	3.43
481.957	3.43
482.307	3.44
482.658	3.43
483.009	3.44
483.359	3.43
483.709	3.43
484.06	3.43
484.41	3.43
484.761	3.44
485.111	3.45
485.461	3.44
485.811	3.44
486.162	3.44
486.512	3.47
486.862	3.47
487.212	3.48
487.562	3.48
487.912	3.47
488.262	3.46
488.612	3.48
488.961	3.5
489.311	3.5
489.661	3.51
490.011	3.52
490.36	3.52
490.71	3.53
491.06	3.53
491.409	3.53
491.759	3.54
492.108	3.55
492.458	3.57
492.807	3.59
493.157	3.61
493.506	3.63
493.855	3.62
494.204	3.65
494.554	3.68
494.903	3.69
495.252	3.73
495.601	3.76
495.95	3.76
496.299	3.77
496.648	3.8
496.997	3.83
497.346	3.87
497.695	3.91
498.043	3.94
498.392	3.96
498.741	4
499.09	4.03
499.438	4.07
499.787	4.1
500.135	4.15
500.484	4.18
500.832	4.22
501.181	4.26
501.529	4.29
501.878	4.35
502.226	4.39
502.574	4.41
502.923	4.45
503.271	4.49
503.619	4.55
503.967	4.6
504.315	4.65
504.663	4.68
505.011	4.73
505.359	4.78
505.707	4.85
506.055	4.91
506.403	4.97
506.751	5.04
507.098	5.1
507.446	5.16
507.794	5.21
508.141	5.26
508.489	5.34
508.837	5.4
509.184	5.44
509.531	5.53
509.879	5.64
510.226	5.7
510.574	5.75
510.921	5.82
511.268	5.89
511.616	5.95
511.963	6.04
512.31	6.12
512.657	6.21
513.004	6.31
513.351	6.41
513.698	6.5
514.045	6.57
514.392	6.67
514.739	6.75
515.086	6.85
515.432	6.95
515.779	7.02
516.126	7.15
516.473	7.26
516.819	7.33
517.166	7.4
517.512	7.47
517.859	7.6
518.205	7.7
518.552	7.81
518.898	7.91
519.245	8
519.591	8.12
519.937	8.2
520.283	8.3
520.629	8.4
520.976	8.54
521.322	8.67
521.668	8.81
522.014	8.98
522.36	9.13
522.706	9.29
523.052	9.47
523.398	9.66
523.743	9.85
524.089	10.04
524.435	10.23
524.781	10.43
525.126	10.6
525.472	10.75
525.817	10.89
526.163	11.05
526.509	11.2
526.854	11.31
527.199	11.45
527.545	11.58
527.89	11.73
528.235	11.85
528.581	11.98
528.926	12.1
529.271	12.23
529.616	12.37
529.961	12.52
530.306	12.67
530.651	12.82
530.996	12.99
531.341	13.17
531.686	13.35
532.031	13.54
532.376	13.72
532.721	13.94
533.065	14.14
533.41	14.34
533.755	14.56
534.099	14.79
534.444	15.01
534.788	15.21
535.133	15.41
535.477	15.65
535.822	15.89
536.166	16.17
536.51	16.45
536.855	16.75
537.199	17.08
537.543	17.4
537.887	17.71
538.231	18.01
538.576	18.32
538.92	18.62
539.264	18.94
539.608	19.25
539.951	19.52
540.295	19.77
540.639	20.03
540.983	20.27
541.327	20.51
541.671	20.77
542.014	21.04
542.358	21.27
542.701	21.52
543.045	21.77
543.389	22.02
543.732	22.27
544.075	22.53
544.419	22.75
544.762	23.02
545.105	23.31
545.449	23.59
545.792	23.89
546.135	24.21
546.478	24.53
546.821	24.87
547.165	25.25
547.508	25.66
547.851	26.01
548.194	26.36
548.536	26.74
548.879	27.15
549.222	27.54
549.565	27.92
549.908	28.32
550.25	28.66
550.593	29.02
550.936	29.39
551.278	29.77
551.621	30.2
551.963	30.6
552.306	30.99
552.648	31.39
552.991	31.75
553.333	32.08
553.675	32.44
554.017	32.77
554.36	33.08
554.702	33.38
555.044	33.72
555.386	34.05
555.728	34.37
556.07	34.66
556.412	34.98
556.754	35.34
557.096	35.69
557.438	36.08
557.78	36.46
558.121	36.84
558.463	37.12
558.805	37.41
559.147	37.69
559.488	37.96
559.83	38.26
560.171	38.52
560.513	38.83
560.854	39.09
561.196	39.36
561.537	39.62
561.878	39.86
562.22	40.16
562.561	40.42
562.902	40.68
563.243	40.91
563.584	41.21
563.925	41.42
564.266	41.64
564.607	41.87
564.948	42.08
565.289	42.28
565.63	42.56
565.971	42.76
566.312	42.99
566.653	43.21
566.993	43.42
567.334	43.69
567.675	43.87
568.015	44.06
568.356	44.24
568.696	44.44
569.037	44.7
569.377	44.84
569.718	45.08
570.058	45.34
570.398	45.54
570.739	45.69
571.079	45.91
571.419	46.11
571.759	46.26
572.099	46.42
572.439	46.56
572.779	46.72
573.119	46.92
573.459	47.12
573.799	47.25
574.139	47.38
574.479	47.46
574.819	47.65
575.158	47.82
575.498	48
575.838	48.14
576.177	48.22
576.517	48.41
576.856	48.55
577.196	48.67
577.535	48.8
577.875	48.98
578.214	49.1
578.553	49.28
578.893	49.48
579.232	49.64
579.571	49.87
579.91	50.02
580.25	50.15
580.589	50.28
580.928	50.44
581.267	50.6
581.606	50.81
581.945	50.96
582.283	51.1
582.622	51.26
582.961	51.48
583.3	51.68
583.639	51.86
583.977	51.98
584.316	52.06
584.654	52.25
584.993	52.35
585.332	52.51
585.67	52.57
586.008	52.71
586.347	52.83
586.685	52.83
587.024	52.96
587.362	53.04
587.7	53.14
588.038	53.24
588.376	53.4
588.715	53.41
589.053	53.52
589.391	53.62
589.729	53.7
590.067	53.73
590.404	53.78
590.742	53.84
591.08	54.02
591.418	54.16
591.756	54.26
592.093	54.29
592.431	54.45
592.769	54.53
593.106	54.62
593.444	54.7
593.781	54.88
594.119	54.96
594.456	55.09
594.793	55.15
595.131	55.26
595.468	55.33
595.805	55.46
596.143	55.51
596.48	55.63
596.817	55.77
597.154	55.9
597.491	55.96
597.828	56.07
598.165	56.06
598.502	56.1
598.839	56.17
599.176	56.29
599.512	56.26
599.849	56.42
600.186	56.43
600.523	56.54
600.859	56.58
601.196	56.6
601.532	56.64
601.869	56.69
602.205	56.73
602.542	56.76
602.878	56.8
603.215	56.81
603.551	56.8
603.887	56.79
604.223	56.83
604.56	56.95
604.896	56.95
605.232	57.02
605.568	57.09
605.904	57.06
606.24	57.13
606.576	57.19
606.912	57.18
607.248	57.28
607.583	57.32
607.919	57.37
608.255	57.46
608.591	57.4
608.926	57.5
609.262	57.63
609.597	57.7
609.933	57.9
610.268	57.97
610.604	58.07
610.939	58.09
611.275	58.11
611.61	58.1
611.945	58.14
612.281	58.2
612.616	58.3
612.951	58.48
613.286	58.58
613.621	58.61
613.956	58.62
614.291	58.62
614.626	58.66
614.961	58.8
615.296	58.84
615.631	59.09
615.966	59.13
616.3	59.07
616.635	59.1
616.97	58.97
617.304	58.98
617.639	59.08
617.973	59.14
618.308	59.18
618.642	59.24
618.977	59.37
619.311	59.33
619.646	59.36
619.98	59.35
620.314	59.3
620.648	59.28
620.983	59.4
621.317	59.55
621.651	59.54
621.985	59.61
622.319	59.63
622.653	59.65
622.987	59.7
623.321	59.83
623.655	59.87
623.988	60.04
624.322	60.19
624.656	60.19
624.99	60.26
625.323	60.28
625.657	60.3
625.99	60.26
626.324	60.44
626.657	60.45
626.991	60.41
627.324	60.45
627.658	60.65
627.991	60.65
628.324	60.67
628.657	60.66
628.991	60.6
629.324	60.68
629.657	60.66
629.99	60.69
630.323	60.72
630.656	60.72
630.989	60.65
631.322	60.59
631.655	60.55
631.987	60.67
632.32	60.68
632.653	60.73
632.986	60.73
633.318	60.7
633.651	60.74
633.984	60.86
634.316	60.91
634.649	60.86
634.981	60.93
635.313	60.95
635.646	61.05
635.978	61.2
636.31	61.22
636.643	61.25
636.975	61.18
637.307	61.15
637.639	61.22
637.971	61.26
638.303	61.3
638.635	61.38
638.967	61.22
639.299	61.31
639.631	61.35
639.963	61.32
640.295	61.34
640.626	61.36
640.958	61.54
641.29	61.61
641.621	61.69
641.953	61.7
642.285	61.67
642.616	61.63
642.948	61.5
643.279	61.42
643.61	61.46
643.942	61.55
644.273	61.67
644.604	61.58
644.936	61.64
645.267	61.76
645.598	61.77
645.929	61.85
646.26	61.8
646.591	61.75
646.922	61.81
647.253	61.78
647.584	61.74
647.915	61.48
648.245	61.41
648.576	61.44
648.907	61.42
649.238	61.49
649.568	61.59
649.899	61.62
650.229	61.74
650.56	61.79
650.89	61.78
651.221	61.73
651.551	61.85
651.882	61.76
652.212	61.73
652.542	61.79
652.872	61.83
653.203	61.9
653.533	61.97
653.863	61.95
654.193	61.95
654.523	62.08
654.853	62.28
655.183	62.46
655.513	62.5
655.843	62.46
656.172	62.54
656.502	62.55
656.832	62.57
657.162	62.55
657.491	62.55
657.821	62.61
658.15	62.54
658.48	62.53
658.809	62.69
659.139	62.61
659.468	62.57
659.798	62.55
660.127	62.51
660.456	62.57
660.785	62.69
661.115	62.79
661.444	62.7
661.773	62.68
662.102	62.55
662.431	62.51
662.76	62.58
663.089	62.52
663.418	62.47
663.747	62.49
664.076	62.55
664.404	62.5
664.733	62.48
665.062	62.66
665.39	62.69
665.719	62.58
666.048	62.75
666.376	62.87
666.705	62.96
667.033	63.04
667.362	63.02
667.69	63.09
668.018	63.17
668.347	63.26
668.675	63.18
669.003	63.24
