Data from BA28470_Reflection_00011.txt Node
Date: Mon Nov 18 15:10:16 EST 2019
User: vgr7
Spectrometer: USB2G7710
Scans to average: 3
Trigger mode: 4
Integration Time (sec): 2.000000E-2
Electric dark correction enabled: true
Boxcar width: 10
XAxis mode: Wavelengths
Number of Pixels in Spectrum: 2048
>>>>>Begin Spectral Data<<<<<
177.721	234.46
178.105	414.96
178.488	-1022.27
178.871	239.71
179.254	214.39
179.636	661.95
180.019	-182.85
180.402	166.67
180.785	-1818.92
181.168	-166.56
181.55	-307.17
181.933	221.02
182.316	176.5
182.698	261.93
183.081	125.23
183.463	182.95
183.846	165.2
184.228	120.72
184.611	128.45
184.993	140.91
185.376	225.6
185.758	410.53
186.14	429.46
186.522	353.99
186.904	389.74
187.287	553.72
187.669	323.61
188.051	229.95
188.433	348.06
188.815	617.45
189.197	363.66
189.579	457.96
189.961	678.21
190.342	6533.96
190.724	-1401.93
191.106	5409.86
191.488	2316.78
191.869	-606.78
192.251	-191.64
192.633	-121.4
193.014	-193.19
193.396	-550.25
193.777	-267.33
194.159	-266.47
194.54	-199.91
194.922	-161.92
195.303	-144.7
195.684	-115.06
196.065	-52.44
196.447	-74.63
196.828	-104.93
197.209	-88.32
197.59	-82.92
197.971	-49.93
198.352	-36.06
198.733	-33.72
199.114	-23.17
199.495	-31.42
199.876	-40.65
200.257	-46.09
200.638	-29.9
201.018	-37.68
201.399	-40.93
201.78	-58.56
202.16	-84.91
202.541	-108.5
202.922	-95.72
203.302	-101.22
203.683	-166.63
204.063	-421.46
204.444	-266.25
204.824	-210.7
205.204	-264.81
205.585	-296.4
205.965	-1133.85
206.345	-1216.35
206.725	1732.73
207.106	-3561.87
207.486	746.56
207.866	2622.84
208.246	4657.52
208.626	1331.36
209.006	-2397.14
209.386	-1503.08
209.766	-638.88
210.145	-577.76
210.525	-493.86
210.905	-680.03
211.285	-587.74
211.664	-315.85
212.044	-278.92
212.424	-254.75
212.803	-301.73
213.183	-289.65
213.562	-221.65
213.942	-185.58
214.321	-159.35
214.701	-137.76
215.08	-170.02
215.459	-118.47
215.838	-135.43
216.218	-130.37
216.597	-122.82
216.976	-134.49
217.355	-110.72
217.734	-116.52
218.113	-96.1
218.492	-92.12
218.871	-90.73
219.25	-90.52
219.629	-88.22
220.008	-87.56
220.387	-69.66
220.766	-59.22
221.144	-57.24
221.523	-68.16
221.902	-70.23
222.28	-92.86
222.659	-91.04
223.037	-72.88
223.416	-69.33
223.794	-49.96
224.173	-39.55
224.551	-35.28
224.929	-34.5
225.308	-34.6
225.686	-30.19
226.064	-31
226.442	-31.24
226.821	-23.37
227.199	-21.93
227.577	-22.36
227.955	-18.6
228.333	-24.11
228.711	-20.18
229.089	-14.79
229.467	-14.41
229.845	-14.38
230.222	-9.85
230.6	-5.34
230.978	-5.06
231.356	-4.44
231.733	-4.01
232.111	-4.78
232.488	-3.52
232.866	-2.02
233.243	-2.63
233.621	-2.25
233.998	-0.91
234.376	-0.18
234.753	-1.12
235.13	-1.22
235.508	0.61
235.885	2.76
236.262	2.47
236.639	1.58
237.016	0.11
237.393	1.46
237.77	1.52
238.147	1.55
238.524	1.06
238.901	1.52
239.278	2.55
239.655	3.08
240.032	3.12
240.409	3.39
240.785	3.25
241.162	3.65
241.539	3.47
241.915	3.65
242.292	3.09
242.668	3.24
243.045	3.9
243.421	3.86
243.798	3.55
244.174	3.81
244.551	3.77
244.927	3.56
245.303	3.52
245.679	3.8
246.056	3.9
246.432	3.84
246.808	3.61
247.184	3.25
247.56	3.14
247.936	2.9
248.312	2.73
248.688	2.7
249.064	2.78
249.44	2.7
249.815	2.63
250.191	2.88
250.567	2.85
250.943	2.47
251.318	2.74
251.694	2.45
252.069	2.49
252.445	2.49
252.82	2.69
253.196	2.56
253.571	2.41
253.947	2.05
254.322	2.02
254.697	2.32
255.073	2.19
255.448	2.09
255.823	2.53
256.198	2.78
256.573	3.04
256.948	3.02
257.323	3.25
257.698	3.23
258.073	3.18
258.448	3.14
258.823	3.13
259.198	2.9
259.573	3.04
259.948	3
260.322	3.01
260.697	2.89
261.072	2.78
261.446	2.74
261.821	2.72
262.195	2.85
262.57	2.75
262.944	2.83
263.319	2.93
263.693	2.82
264.067	2.74
264.442	2.63
264.816	2.62
265.19	2.55
265.564	2.58
265.938	2.67
266.313	2.75
266.687	3
267.061	3.31
267.435	3.39
267.809	3.52
268.183	3.58
268.556	3.76
268.93	3.92
269.304	4.01
269.678	4.18
270.051	4.1
270.425	4.15
270.799	4.33
271.172	4.31
271.546	4.15
271.919	4.07
272.293	4.02
272.666	4.02
273.04	4.08
273.413	4.01
273.787	3.92
274.16	3.78
274.533	3.72
274.906	3.59
275.279	3.45
275.653	3.38
276.026	3.21
276.399	3.3
276.772	3.17
277.145	3.04
277.518	2.99
277.891	2.98
278.263	2.82
278.636	2.52
279.009	2.55
279.382	2.78
279.755	2.87
280.127	2.99
280.5	3.04
280.872	3.13
281.245	3.08
281.617	3.13
281.99	3.26
282.362	3.32
282.735	3.16
283.107	3.28
283.479	3.25
283.852	3.28
284.224	3.11
284.596	3.25
284.968	3.44
285.34	3.48
285.713	3.42
286.085	3.56
286.457	3.79
286.829	3.74
287.201	3.87
287.572	3.88
287.944	3.83
288.316	3.79
288.688	3.75
289.06	3.86
289.431	3.95
289.803	4.09
290.175	4.03
290.546	4.14
290.918	4.23
291.289	4.26
291.661	4.42
292.032	4.58
292.403	4.52
292.775	4.51
293.146	4.49
293.517	4.63
293.889	4.63
294.26	4.51
294.631	4.51
295.002	4.28
295.373	4.29
295.744	4.28
296.115	4.35
296.486	4.26
296.857	4.15
297.228	4.12
297.599	3.97
297.97	4.14
298.34	4.2
298.711	4.04
299.082	4.06
299.452	4.15
299.823	4.19
300.194	4.26
300.564	4.17
300.935	4.25
301.305	4.21
301.676	4.22
302.046	4.23
302.416	4.3
302.787	4.31
303.157	4.3
303.527	4.32
303.897	4.33
304.267	4.49
304.637	4.67
305.008	4.7
305.378	4.83
305.748	4.72
306.117	4.65
306.487	4.83
306.857	4.9
307.227	4.86
307.597	4.92
307.967	4.96
308.336	5.01
308.706	5.07
309.076	5.12
309.445	5.14
309.815	5.18
310.184	5.11
310.554	5.44
310.923	5.53
311.293	5.47
311.662	5.44
312.031	5.47
312.401	5.5
312.77	5.63
313.139	5.64
313.508	5.64
313.877	5.71
314.246	5.71
314.616	5.74
314.985	5.68
315.353	5.73
315.722	5.85
316.091	5.89
316.46	5.77
316.829	5.91
317.198	5.93
317.567	5.92
317.935	6.07
318.304	5.87
318.672	5.83
319.041	6.13
319.41	6.17
319.778	6.14
320.147	6.29
320.515	6.23
320.883	6.21
321.252	6.56
321.62	6.76
321.988	6.94
322.357	7.04
322.725	7.16
323.093	7.15
323.461	7.2
323.829	7.26
324.197	7.38
324.565	7.43
324.933	7.57
325.301	7.64
325.669	7.68
326.037	7.8
326.405	7.9
326.772	7.87
327.14	8
327.508	8.14
327.875	8.12
328.243	8.21
328.61	8.18
328.978	8.03
329.346	8.03
329.713	7.83
330.08	7.89
330.448	7.9
330.815	7.7
331.182	7.73
331.55	7.88
331.917	7.98
332.284	7.96
332.651	7.79
333.018	7.84
333.385	7.95
333.752	8.06
334.119	8.07
334.486	8.03
334.853	8.03
335.22	8
335.587	8.04
335.954	8.02
336.32	8.18
336.687	8.37
337.054	8.37
337.42	8.57
337.787	8.59
338.153	8.54
338.52	8.73
338.886	8.6
339.253	8.35
339.619	8.43
339.986	8.44
340.352	8.64
340.718	8.7
341.084	8.67
341.451	8.63
341.817	8.64
342.183	8.69
342.549	8.65
342.915	8.71
343.281	8.73
343.647	8.71
344.013	8.78
344.379	8.58
344.745	8.57
345.11	8.57
345.476	8.59
345.842	8.74
346.208	8.8
346.573	8.91
346.939	9.2
347.304	9.07
347.67	8.96
348.035	8.95
348.401	8.97
348.766	8.99
349.132	9.02
349.497	8.93
349.862	9
350.228	9.07
350.593	9.03
350.958	9.04
351.323	9.18
351.688	9.16
352.053	9.21
352.418	9.19
352.783	9.21
353.148	9.11
353.513	9.11
353.878	9.08
354.243	9.07
354.608	8.98
354.972	8.99
355.337	9.09
355.702	9.05
356.066	9.06
356.431	8.95
356.795	8.9
357.16	8.9
357.524	8.78
357.889	8.77
358.253	8.77
358.618	8.8
358.982	8.75
359.346	8.7
359.71	8.65
360.075	8.69
360.439	8.64
360.803	8.61
361.167	8.49
361.531	8.45
361.895	8.4
362.259	8.39
362.623	8.41
362.987	8.37
363.351	8.35
363.714	8.32
364.078	8.32
364.442	8.2
364.806	8.22
365.169	8.18
365.533	8.1
365.896	8.02
366.26	7.91
366.623	7.78
366.987	7.72
367.35	7.75
367.714	7.63
368.077	7.54
368.44	7.49
368.803	7.44
369.167	7.32
369.53	7.34
369.893	7.28
370.256	7.21
370.619	7.18
370.982	7.15
371.345	7.09
371.708	7.02
372.071	6.99
372.434	6.89
372.797	6.91
373.159	6.97
373.522	6.94
373.885	6.91
374.247	6.89
374.61	6.81
374.973	6.7
375.335	6.67
375.698	6.68
376.06	6.72
376.423	6.73
376.785	6.81
377.147	6.74
377.51	6.68
377.872	6.63
378.234	6.6
378.596	6.52
378.958	6.42
379.321	6.44
379.683	6.45
380.045	6.43
380.407	6.34
380.769	6.2
381.13	6.15
381.492	6.19
381.854	6.17
382.216	6.13
382.578	6.11
382.939	6.02
383.301	5.93
383.663	5.85
384.024	5.82
384.386	5.77
384.747	5.76
385.109	5.74
385.47	5.68
385.832	5.59
386.193	5.63
386.554	5.64
386.916	5.62
387.277	5.56
387.638	5.54
387.999	5.56
388.36	5.54
388.721	5.52
389.082	5.41
389.443	5.35
389.804	5.36
390.165	5.34
390.526	5.35
390.887	5.33
391.248	5.35
391.609	5.33
391.969	5.27
392.33	5.2
392.691	5.18
393.051	5.18
393.412	5.18
393.772	5.1
394.133	5.08
394.493	5.04
394.854	5.04
395.214	5
395.574	4.94
395.935	4.92
396.295	4.86
396.655	4.84
397.015	4.8
397.376	4.77
397.736	4.72
398.096	4.67
398.456	4.67
398.816	4.6
399.176	4.54
399.535	4.51
399.895	4.49
400.255	4.43
400.615	4.41
400.975	4.37
401.334	4.35
401.694	4.33
402.054	4.27
402.413	4.24
402.773	4.22
403.132	4.21
403.492	4.19
403.851	4.19
404.211	4.18
404.57	4.16
404.929	4.16
405.288	4.14
405.648	4.12
406.007	4.09
406.366	4.08
406.725	4.1
407.084	4.07
407.443	4.09
407.802	4.09
408.161	4.04
408.52	4.01
408.879	3.99
409.238	3.96
409.596	3.99
409.955	3.96
410.314	3.94
410.673	3.95
411.031	3.97
411.39	3.93
411.748	3.9
412.107	3.91
412.465	3.9
412.824	3.93
413.182	3.93
413.54	3.93
413.899	3.93
414.257	3.91
414.615	3.88
414.974	3.83
415.332	3.82
415.69	3.81
416.048	3.8
416.406	3.79
416.764	3.78
417.122	3.77
417.48	3.74
417.838	3.74
418.195	3.71
418.553	3.7
418.911	3.72
419.269	3.74
419.626	3.72
419.984	3.71
420.342	3.67
420.699	3.66
421.057	3.66
421.414	3.64
421.772	3.62
422.129	3.63
422.486	3.62
422.844	3.62
423.201	3.62
423.558	3.62
423.915	3.62
424.273	3.62
424.63	3.6
424.987	3.59
425.344	3.58
425.701	3.57
426.058	3.57
426.415	3.56
426.772	3.54
427.128	3.52
427.485	3.51
427.842	3.5
428.199	3.5
428.555	3.49
428.912	3.48
429.269	3.49
429.625	3.47
429.982	3.46
430.338	3.46
430.695	3.47
431.051	3.47
431.407	3.47
431.764	3.44
432.12	3.43
432.476	3.43
432.832	3.4
433.189	3.41
433.545	3.39
433.901	3.36
434.257	3.36
434.613	3.38
434.969	3.39
435.325	3.41
435.681	3.41
436.036	3.4
436.392	3.4
436.748	3.4
437.104	3.4
437.459	3.41
437.815	3.42
438.171	3.4
438.526	3.4
438.882	3.4
439.237	3.41
439.593	3.43
439.948	3.42
440.304	3.47
440.659	3.47
441.014	3.49
441.369	3.5
441.725	3.5
442.08	3.49
442.435	3.48
442.79	3.45
443.145	3.45
443.5	3.45
443.855	3.44
444.21	3.42
444.565	3.43
444.92	3.43
445.275	3.39
445.629	3.39
445.984	3.38
446.339	3.37
446.693	3.35
447.048	3.34
447.403	3.33
447.757	3.3
448.112	3.28
448.466	3.26
448.82	3.24
449.175	3.24
449.529	3.24
449.883	3.22
450.238	3.22
450.592	3.23
450.946	3.22
451.3	3.23
451.654	3.25
452.008	3.23
452.362	3.23
452.716	3.23
453.07	3.25
453.424	3.24
453.778	3.23
454.132	3.22
454.486	3.23
454.839	3.25
455.193	3.24
455.547	3.25
455.9	3.27
456.254	3.29
456.607	3.27
456.961	3.27
457.314	3.29
457.668	3.3
458.021	3.28
458.375	3.29
458.728	3.3
459.081	3.29
459.434	3.29
459.787	3.29
460.141	3.29
460.494	3.28
460.847	3.29
461.2	3.29
461.553	3.3
461.906	3.3
462.259	3.31
462.611	3.33
462.964	3.34
463.317	3.34
463.67	3.34
464.022	3.35
464.375	3.35
464.728	3.35
465.08	3.35
465.433	3.36
465.785	3.37
466.138	3.36
466.49	3.37
466.843	3.37
467.195	3.37
467.547	3.39
467.899	3.4
468.252	3.38
468.604	3.41
468.956	3.41
469.308	3.42
469.66	3.4
470.012	3.4
470.364	3.41
470.716	3.4
471.068	3.4
471.42	3.41
471.772	3.43
472.123	3.44
472.475	3.45
472.827	3.47
473.178	3.48
473.53	3.47
473.882	3.46
474.233	3.48
474.585	3.48
474.936	3.49
475.288	3.5
475.639	3.53
475.99	3.53
476.342	3.54
476.693	3.53
477.044	3.54
477.395	3.55
477.746	3.54
478.097	3.53
478.448	3.53
478.8	3.52
479.15	3.5
479.501	3.48
479.852	3.49
480.203	3.47
480.554	3.47
480.905	3.47
481.255	3.48
481.606	3.48
481.957	3.5
482.307	3.5
482.658	3.51
483.009	3.5
483.359	3.49
483.709	3.5
484.06	3.5
484.41	3.5
484.761	3.5
485.111	3.49
485.461	3.5
485.811	3.5
486.162	3.5
486.512	3.52
486.862	3.53
487.212	3.52
487.562	3.53
487.912	3.53
488.262	3.54
488.612	3.55
488.961	3.54
489.311	3.55
489.661	3.55
490.011	3.55
490.36	3.56
490.71	3.57
491.06	3.57
491.409	3.59
491.759	3.59
492.108	3.6
492.458	3.61
492.807	3.61
493.157	3.63
493.506	3.65
493.855	3.65
494.204	3.66
494.554	3.66
494.903	3.67
495.252	3.67
495.601	3.67
495.95	3.7
496.299	3.71
496.648	3.71
496.997	3.74
497.346	3.77
497.695	3.79
498.043	3.81
498.392	3.83
498.741	3.83
499.09	3.86
499.438	3.88
499.787	3.92
500.135	3.97
500.484	3.99
500.832	4.03
501.181	4.04
501.529	4.07
501.878	4.1
502.226	4.17
502.574	4.23
502.923	4.27
503.271	4.3
503.619	4.35
503.967	4.38
504.315	4.4
504.663	4.45
505.011	4.5
505.359	4.54
505.707	4.58
506.055	4.62
506.403	4.68
506.751	4.74
507.098	4.76
507.446	4.8
507.794	4.84
508.141	4.89
508.489	4.95
508.837	5.02
509.184	5.11
509.531	5.14
509.879	5.19
510.226	5.25
510.574	5.31
510.921	5.37
511.268	5.44
511.616	5.49
511.963	5.54
512.31	5.6
512.657	5.68
513.004	5.75
513.351	5.83
513.698	5.9
514.045	5.95
514.392	6.04
514.739	6.12
515.086	6.2
515.432	6.29
515.779	6.37
516.126	6.45
516.473	6.52
516.819	6.58
517.166	6.67
517.512	6.73
517.859	6.79
518.205	6.85
518.552	6.91
518.898	6.99
519.245	7.07
519.591	7.12
519.937	7.17
520.283	7.24
520.629	7.34
520.976	7.44
521.322	7.54
521.668	7.63
522.014	7.73
522.36	7.84
522.706	7.94
523.052	8.06
523.398	8.17
523.743	8.27
524.089	8.4
524.435	8.52
524.781	8.66
525.126	8.78
525.472	8.89
525.817	8.99
526.163	9.08
526.509	9.17
526.854	9.28
527.199	9.37
527.545	9.43
527.89	9.49
528.235	9.57
528.581	9.64
528.926	9.74
529.271	9.84
529.616	9.91
529.961	9.99
530.306	10.08
530.651	10.19
530.996	10.32
531.341	10.42
531.686	10.54
532.031	10.65
532.376	10.77
532.721	10.91
533.065	11.05
533.41	11.2
533.755	11.34
534.099	11.49
534.444	11.64
534.788	11.82
535.133	11.99
535.477	12.14
535.822	12.31
536.166	12.49
536.51	12.68
536.855	12.92
537.199	13.14
537.543	13.38
537.887	13.6
538.231	13.82
538.576	14.07
538.92	14.27
539.264	14.48
539.608	14.69
539.951	14.87
540.295	15.05
540.639	15.23
540.983	15.42
541.327	15.6
541.671	15.78
542.014	15.97
542.358	16.16
542.701	16.34
543.045	16.52
543.389	16.71
543.732	16.9
544.075	17.07
544.419	17.27
544.762	17.46
545.105	17.67
545.449	17.9
545.792	18.16
546.135	18.44
546.478	18.73
546.821	19
547.165	19.3
547.508	19.6
547.851	19.89
548.194	20.17
548.536	20.48
548.879	20.81
549.222	21.13
549.565	21.45
549.908	21.82
550.25	22.19
550.593	22.52
550.936	22.84
551.278	23.22
551.621	23.56
551.963	23.94
552.306	24.28
552.648	24.6
552.991	24.92
553.333	25.26
553.675	25.57
554.017	25.94
554.36	26.23
554.702	26.58
555.044	26.94
555.386	27.31
555.728	27.66
556.07	28.01
556.412	28.37
556.754	28.69
557.096	29.03
557.438	29.36
557.78	29.68
558.121	30.03
558.463	30.37
558.805	30.75
559.147	31.1
559.488	31.46
559.83	31.79
560.171	32.13
560.513	32.48
560.854	32.83
561.196	33.12
561.537	33.53
561.878	33.87
562.22	34.21
562.561	34.56
562.902	34.85
563.243	35.13
563.584	35.41
563.925	35.72
564.266	36.06
564.607	36.37
564.948	36.72
565.289	37.08
565.63	37.31
565.971	37.63
566.312	37.94
566.653	38.18
566.993	38.43
567.334	38.69
567.675	38.95
568.015	39.25
568.356	39.59
568.696	39.83
569.037	40.06
569.377	40.29
569.718	40.56
570.058	40.87
570.398	41.16
570.739	41.44
571.079	41.69
571.419	41.91
571.759	42.13
572.099	42.38
572.439	42.66
572.779	42.9
573.119	43.1
573.459	43.34
573.799	43.64
574.139	43.91
574.479	44.19
574.819	44.44
575.158	44.66
575.498	44.87
575.838	45.12
576.177	45.37
576.517	45.62
576.856	45.79
577.196	45.99
577.535	46.21
577.875	46.49
578.214	46.73
578.553	47.02
578.893	47.26
579.232	47.49
579.571	47.64
579.91	47.95
580.25	48.21
580.589	48.36
580.928	48.57
581.267	48.81
581.606	48.99
581.945	49.12
582.283	49.18
582.622	49.34
582.961	49.61
583.3	49.77
583.639	49.99
583.977	50.22
584.316	50.38
584.654	50.59
584.993	50.67
585.332	50.87
585.67	51.01
586.008	51.21
586.347	51.36
586.685	51.55
587.024	51.65
587.362	51.79
587.7	51.93
588.038	52.05
588.376	52.17
588.715	52.23
589.053	52.35
589.391	52.59
589.729	52.77
590.067	52.79
590.404	52.93
590.742	53
591.08	53.16
591.418	53.35
591.756	53.5
592.093	53.66
592.431	53.81
592.769	53.94
593.106	54.04
593.444	54.21
593.781	54.3
594.119	54.48
594.456	54.51
594.793	54.69
595.131	54.8
595.468	54.86
595.805	54.97
596.143	55.12
596.48	55.17
596.817	55.23
597.154	55.35
597.491	55.49
597.828	55.67
598.165	55.8
598.502	55.85
598.839	55.94
599.176	56.07
599.512	56.14
599.849	56.19
600.186	56.28
600.523	56.35
600.859	56.46
601.196	56.52
601.532	56.69
601.869	56.74
602.205	56.79
602.542	56.97
602.878	57.03
603.215	57.07
603.551	57.21
603.887	57.25
604.223	57.25
604.56	57.35
604.896	57.38
605.232	57.41
605.568	57.5
605.904	57.49
606.24	57.54
606.576	57.62
606.912	57.79
607.248	57.9
607.583	57.93
607.919	57.96
608.255	58
608.591	58.07
608.926	58.2
609.262	58.26
609.597	58.33
609.933	58.46
610.268	58.6
610.604	58.65
610.939	58.77
611.275	58.86
611.61	58.91
611.945	58.98
612.281	59.01
612.616	59.06
612.951	59.28
613.286	59.43
613.621	59.49
613.956	59.48
614.291	59.44
614.626	59.57
614.961	59.61
615.296	59.65
615.631	59.7
615.966	59.73
616.3	59.73
616.635	59.81
616.97	59.84
617.304	59.76
617.639	59.83
617.973	59.85
618.308	60
618.642	60.06
618.977	60.15
619.311	60.23
619.646	60.3
619.98	60.24
620.314	60.25
620.648	60.35
620.983	60.48
621.317	60.5
621.651	60.57
621.985	60.74
622.319	60.81
622.653	60.92
622.987	60.87
623.321	61.02
623.655	60.99
623.988	61.04
624.322	61.11
624.656	61.1
624.99	61.18
625.323	61.09
625.657	61.12
625.99	61.14
626.324	61.21
626.657	61.21
626.991	61.14
627.324	61.13
627.658	61.11
627.991	61.09
628.324	61.16
628.657	61.14
628.991	61.13
629.324	61.16
629.657	61.11
629.99	61.23
630.323	61.18
630.656	61.25
630.989	61.29
631.322	61.39
631.655	61.48
631.987	61.54
632.32	61.59
632.653	61.54
632.986	61.57
633.318	61.5
633.651	61.55
633.984	61.68
634.316	61.71
634.649	61.66
634.981	61.69
635.313	61.77
635.646	61.82
635.978	61.84
636.31	61.92
636.643	61.88
636.975	61.88
637.307	61.96
637.639	61.96
637.971	61.93
638.303	61.89
638.635	61.94
638.967	61.89
639.299	61.97
639.631	62.03
639.963	62.04
640.295	62.03
640.626	62.04
640.958	62.13
641.29	62.11
641.621	62.27
641.953	62.45
642.285	62.51
642.616	62.54
642.948	62.5
643.279	62.5
643.61	62.61
643.942	62.58
644.273	62.51
644.604	62.5
644.936	62.57
645.267	62.57
645.598	62.59
645.929	62.55
646.26	62.6
646.591	62.62
646.922	62.64
647.253	62.76
647.584	62.76
647.915	62.76
648.245	62.8
648.576	62.79
648.907	62.63
649.238	62.69
649.568	62.64
649.899	62.64
650.229	62.68
650.56	62.65
650.89	62.73
651.221	62.8
651.551	62.8
651.882	62.81
652.212	62.86
652.542	62.82
652.872	63
653.203	63.05
653.533	63.02
653.863	62.98
654.193	62.99
654.523	63.04
654.853	63.13
655.183	63.26
655.513	63.25
655.843	63.33
656.172	63.26
656.502	63.37
656.832	63.58
657.162	63.7
657.491	63.68
657.821	63.63
658.15	63.73
658.48	63.9
658.809	63.94
659.139	63.95
659.468	63.92
659.798	63.91
660.127	63.87
660.456	63.94
660.785	64.01
661.115	63.99
661.444	63.96
661.773	63.81
662.102	63.68
662.431	63.68
662.76	63.67
663.089	63.6
663.418	63.51
663.747	63.49
664.076	63.5
664.404	63.63
664.733	63.67
665.062	63.66
665.39	63.52
665.719	63.45
666.048	63.58
