Data from BA28420_Reflection_00007.txt Node
Date: Mon Nov 18 16:08:27 EST 2019
User: vgr7
Spectrometer: USB2G7710
Scans to average: 3
Trigger mode: 4
Integration Time (sec): 2.000000E-2
Electric dark correction enabled: true
Boxcar width: 10
XAxis mode: Wavelengths
Number of Pixels in Spectrum: 2048
>>>>>Begin Spectral Data<<<<<
177.721	-115.22
178.105	242.86
178.488	-777.19
178.871	-75.14
179.254	-154.78
179.636	-58.01
180.019	-129.69
180.402	383.33
180.785	-122.22
181.168	-412.82
181.55	-1072.41
181.933	144.86
182.316	134.78
182.698	182.07
183.081	249.25
183.463	197.45
183.846	144.53
184.228	122.12
184.611	180
184.993	199.17
185.376	337.55
185.758	-27900
186.14	682.52
186.522	965.67
186.904	-779.12
187.287	1307.55
187.669	-2203.03
188.051	309.42
188.433	278.77
188.815	52.22
189.197	-24.61
189.579	-105.13
189.961	-56.38
190.342	-13.21
190.724	-102.25
191.106	-89.91
191.488	-140.66
191.869	-240.43
192.251	-359.77
192.633	-124.6
193.014	16.84
193.396	-10.55
193.777	-26.78
194.159	-6.21
194.54	2.76
194.922	-17.47
195.303	12.09
195.684	31.17
196.065	50.21
196.447	-10.28
196.828	50.37
197.209	88.98
197.59	64.38
197.971	113.56
198.352	-168.16
198.733	-231.75
199.114	-156.16
199.495	-67.83
199.876	-41.05
200.257	-32.88
200.638	-2.01
201.018	16.18
201.399	17.3
201.78	7.98
202.16	-0.64
202.541	-7.48
202.922	-32.69
203.302	-35.79
203.683	-7.83
204.063	-12.15
204.444	-26.43
204.824	-33.61
205.204	-21.55
205.585	-38.2
205.965	-36.47
206.345	-65.49
206.725	-95.8
207.106	-115.99
207.486	-252.94
207.866	-232.41
208.246	-327.18
208.626	-405.84
209.006	-230.86
209.386	-341.79
209.766	-332.6
210.145	-600.64
210.525	-183.62
210.905	-100.94
211.285	-62.41
211.664	-82.9
212.044	-137.29
212.424	-80.18
212.803	-96.72
213.183	-70.21
213.562	-49.66
213.942	-32.33
214.321	10.4
214.701	48.72
215.08	60.31
215.459	24.91
215.838	47.15
216.218	32.71
216.597	29.59
216.976	5.27
217.355	10.05
217.734	3.5
218.113	3.48
218.492	-12.04
218.871	-15.89
219.25	-24.28
219.629	-33.91
220.008	-32.28
220.387	-29.51
220.766	-22.62
221.144	-44.16
221.523	-48.44
221.902	-48.08
222.28	-59.07
222.659	-65.34
223.037	-67.52
223.416	-58.07
223.794	-50.76
224.173	-35.86
224.551	-32.88
224.929	-25.44
225.308	-23.01
225.686	-16.44
226.064	-16.48
226.442	-11.22
226.821	-1.33
227.199	-3.27
227.577	-4.98
227.955	-1.95
228.333	-2.81
228.711	-2.12
229.089	1.26
229.467	3.21
229.845	4.06
230.222	7.24
230.6	6.59
230.978	7.38
231.356	10.75
231.733	12.18
232.111	15.81
232.488	17.58
232.866	16.08
233.243	17.12
233.621	15.71
233.998	16.61
234.376	15.61
234.753	11.84
235.13	12.67
235.508	14.78
235.885	13.69
236.262	12.76
236.639	11.86
237.016	12.12
237.393	11.81
237.77	11.8
238.147	11.04
238.524	11.46
238.901	10.93
239.278	10.06
239.655	8.99
240.032	8.05
240.409	7.29
240.785	6.96
241.162	6.56
241.539	6.52
241.915	6.15
242.292	6.26
242.668	6.77
243.045	6.85
243.421	6.62
243.798	6.33
244.174	6.2
244.551	6
244.927	5.74
245.303	5.64
245.679	5.48
246.056	5.19
246.432	5.04
246.808	4.86
247.184	4.57
247.56	4.53
247.936	4.48
248.312	4.52
248.688	4.67
249.064	4.64
249.44	4.61
249.815	4.79
250.191	4.64
250.567	4.33
250.943	4.08
251.318	3.99
251.694	3.99
252.069	3.78
252.445	3.7
252.82	3.67
253.196	3.65
253.571	3.2
253.947	3.26
254.322	3.54
254.697	3.57
255.073	3.65
255.448	3.71
255.823	3.75
256.198	3.73
256.573	3.68
256.948	3.87
257.323	3.98
257.698	3.86
258.073	3.98
258.448	4.07
258.823	4.21
259.198	4.19
259.573	4.17
259.948	4.33
260.322	4.53
260.697	4.46
261.072	4.32
261.446	4.45
261.821	4.39
262.195	4.36
262.57	4.34
262.944	4.3
263.319	4.18
263.693	4.15
264.067	4.12
264.442	4.14
264.816	4.13
265.19	4.14
265.564	4.01
265.938	3.93
266.313	3.73
266.687	3.57
267.061	3.62
267.435	3.53
267.809	3.48
268.183	3.45
268.556	3.5
268.93	3.76
269.304	3.89
269.678	3.88
270.051	3.68
270.425	3.59
270.799	3.72
271.172	3.78
271.546	3.81
271.919	3.69
272.293	3.8
272.666	3.7
273.04	3.7
273.413	3.78
273.787	3.79
274.16	4.03
274.533	4.13
274.906	4.08
275.279	4.18
275.653	4.21
276.026	4.17
276.399	4.11
276.772	3.92
277.145	3.71
277.518	3.76
277.891	3.85
278.263	3.78
278.636	3.69
279.009	3.77
279.382	3.83
279.755	3.88
280.127	3.76
280.5	3.81
280.872	3.78
281.245	3.67
281.617	3.84
281.99	3.86
282.362	3.86
282.735	3.83
283.107	3.83
283.479	3.76
283.852	3.7
284.224	3.69
284.596	3.81
284.968	3.85
285.34	3.87
285.713	3.81
286.085	3.96
286.457	3.95
286.829	3.93
287.201	3.85
287.572	3.78
287.944	3.78
288.316	3.77
288.688	3.69
289.06	3.78
289.431	3.68
289.803	3.66
290.175	3.59
290.546	3.65
290.918	3.64
291.289	3.78
291.661	3.92
292.032	4.03
292.403	4.07
292.775	4.12
293.146	4.08
293.517	4.14
293.889	4.09
294.26	4.12
294.631	4.05
295.002	4.08
295.373	4.17
295.744	4.21
296.115	4.17
296.486	4.19
296.857	4.19
297.228	4.24
297.599	4.16
297.97	4.16
298.34	4.22
298.711	4.23
299.082	4.09
299.452	4.01
299.823	3.95
300.194	3.89
300.564	3.87
300.935	3.84
301.305	3.71
301.676	3.82
302.046	3.81
302.416	3.99
302.787	3.98
303.157	4
303.527	4.06
303.897	4.12
304.267	4.11
304.637	4.09
305.008	4.14
305.378	4.17
305.748	4.32
306.117	4.23
306.487	4.39
306.857	4.54
307.227	4.62
307.597	4.67
307.967	4.71
308.336	4.71
308.706	4.8
309.076	4.98
309.445	4.88
309.815	4.95
310.184	4.75
310.554	4.76
310.923	4.74
311.293	4.59
311.662	4.61
312.031	4.68
312.401	4.75
312.77	4.81
313.139	4.91
313.508	4.92
313.877	4.87
314.246	4.68
314.616	4.54
314.985	4.49
315.353	4.52
315.722	4.52
316.091	4.56
316.46	4.55
316.829	4.57
317.198	4.63
317.567	4.62
317.935	5.02
318.304	5.05
318.672	5.09
319.041	5.3
319.41	5.21
319.778	5.12
320.147	5.1
320.515	4.91
320.883	4.88
321.252	4.83
321.62	4.97
321.988	5.15
322.357	5.31
322.725	5.27
323.093	5.28
323.461	5.32
323.829	5.4
324.197	5.49
324.565	5.48
324.933	5.53
325.301	5.57
325.669	5.3
326.037	5.24
326.405	5.23
326.772	5.22
327.14	5.31
327.508	5.52
327.875	5.49
328.243	5.64
328.61	5.76
328.978	5.96
329.346	5.98
329.713	5.87
330.08	5.91
330.448	5.79
330.815	5.83
331.182	5.96
331.55	5.99
331.917	6.04
332.284	6.18
332.651	6.18
333.018	6.24
333.385	6.22
333.752	6.45
334.119	6.54
334.486	6.55
334.853	6.59
335.22	6.61
335.587	6.72
335.954	6.74
336.32	6.66
336.687	6.62
337.054	6.65
337.42	6.7
337.787	6.82
338.153	7.05
338.52	7.16
338.886	7.08
339.253	6.97
339.619	7.02
339.986	6.96
340.352	7.01
340.718	6.89
341.084	7.05
341.451	7.03
341.817	7.06
342.183	7.08
342.549	7.08
342.915	7.03
343.281	7.01
343.647	6.94
344.013	7
344.379	6.92
344.745	6.94
345.11	7.01
345.476	7.06
345.842	7.02
346.208	6.99
346.573	7.09
346.939	7.18
347.304	7.2
347.67	7.17
348.035	7.25
348.401	7.43
348.766	7.39
349.132	7.34
349.497	7.33
349.862	7.44
350.228	7.53
350.593	7.51
350.958	7.6
351.323	7.74
351.688	7.72
352.053	7.83
352.418	7.88
352.783	7.89
353.148	7.67
353.513	7.74
353.878	7.71
354.243	7.72
354.608	7.78
354.972	7.66
355.337	7.75
355.702	7.78
356.066	7.79
356.431	7.88
356.795	7.97
357.16	7.99
357.524	7.87
357.889	7.85
358.253	7.82
358.618	7.81
358.982	7.75
359.346	7.71
359.71	7.64
360.075	7.62
360.439	7.61
360.803	7.71
361.167	7.63
361.531	7.67
361.895	7.62
362.259	7.59
362.623	7.69
362.987	7.67
363.351	7.62
363.714	7.52
364.078	7.47
364.442	7.42
364.806	7.42
365.169	7.44
365.533	7.42
365.896	7.46
366.26	7.41
366.623	7.41
366.987	7.41
367.35	7.43
367.714	7.41
368.077	7.38
368.44	7.36
368.803	7.35
369.167	7.28
369.53	7.26
369.893	7.25
370.256	7.16
370.619	7.09
370.982	6.98
371.345	6.99
371.708	6.94
372.071	6.92
372.434	6.87
372.797	6.82
373.159	6.83
373.522	6.78
373.885	6.8
374.247	6.79
374.61	6.79
374.973	6.67
375.335	6.64
375.698	6.6
376.06	6.57
376.423	6.55
376.785	6.55
377.147	6.5
377.51	6.51
377.872	6.51
378.234	6.51
378.596	6.59
378.958	6.52
379.321	6.54
379.683	6.53
380.045	6.5
380.407	6.53
380.769	6.53
381.13	6.47
381.492	6.39
381.854	6.35
382.216	6.33
382.578	6.38
382.939	6.37
383.301	6.37
383.663	6.33
384.024	6.29
384.386	6.3
384.747	6.33
385.109	6.3
385.47	6.26
385.832	6.27
386.193	6.25
386.554	6.28
386.916	6.22
387.277	6.2
387.638	6.21
387.999	6.17
388.36	6.14
388.721	6.18
389.082	6.18
389.443	6.14
389.804	6.09
390.165	6.07
390.526	6.04
390.887	6.02
391.248	6.03
391.609	6.03
391.969	5.97
392.33	5.9
392.691	5.88
393.051	5.84
393.412	5.77
393.772	5.71
394.133	5.63
394.493	5.61
394.854	5.59
395.214	5.57
395.574	5.53
395.935	5.48
396.295	5.47
396.655	5.43
397.015	5.42
397.376	5.41
397.736	5.38
398.096	5.36
398.456	5.34
398.816	5.34
399.176	5.3
399.535	5.25
399.895	5.28
400.255	5.22
400.615	5.21
400.975	5.21
401.334	5.17
401.694	5.17
402.054	5.16
402.413	5.14
402.773	5.06
403.132	5.05
403.492	5.01
403.851	4.98
404.211	4.99
404.57	4.95
404.929	4.94
405.288	4.91
405.648	4.88
406.007	4.85
406.366	4.81
406.725	4.84
407.084	4.85
407.443	4.82
407.802	4.84
408.161	4.8
408.52	4.8
408.879	4.8
409.238	4.83
409.596	4.82
409.955	4.8
410.314	4.81
410.673	4.82
411.031	4.82
411.39	4.8
411.748	4.8
412.107	4.79
412.465	4.75
412.824	4.77
413.182	4.76
413.54	4.76
413.899	4.75
414.257	4.74
414.615	4.71
414.974	4.69
415.332	4.63
415.69	4.61
416.048	4.58
416.406	4.56
416.764	4.52
417.122	4.5
417.48	4.49
417.838	4.48
418.195	4.46
418.553	4.42
418.911	4.4
419.269	4.36
419.626	4.37
419.984	4.35
420.342	4.34
420.699	4.31
421.057	4.29
421.414	4.26
421.772	4.25
422.129	4.25
422.486	4.24
422.844	4.24
423.201	4.22
423.558	4.2
423.915	4.19
424.273	4.17
424.63	4.15
424.987	4.14
425.344	4.13
425.701	4.12
426.058	4.13
426.415	4.13
426.772	4.12
427.128	4.09
427.485	4.09
427.842	4.06
428.199	4.06
428.555	4.04
428.912	4.05
429.269	4.03
429.625	4.01
429.982	3.98
430.338	3.98
430.695	4
431.051	4
431.407	4.01
431.764	4.03
432.12	4.02
432.476	4.01
432.832	3.99
433.189	3.99
433.545	3.96
433.901	3.96
434.257	3.97
434.613	3.98
434.969	3.99
435.325	3.99
435.681	3.99
436.036	4
436.392	3.99
436.748	4
437.104	3.99
437.459	4.01
437.815	4.01
438.171	4
438.526	4.01
438.882	4
439.237	4
439.593	3.99
439.948	3.99
440.304	3.99
440.659	3.98
441.014	3.99
441.369	3.97
441.725	3.96
442.08	3.95
442.435	3.95
442.79	3.95
443.145	3.96
443.5	3.93
443.855	3.93
444.21	3.92
444.565	3.93
444.92	3.92
445.275	3.89
445.629	3.86
445.984	3.85
446.339	3.82
446.693	3.81
447.048	3.79
447.403	3.79
447.757	3.77
448.112	3.76
448.466	3.77
448.82	3.76
449.175	3.77
449.529	3.74
449.883	3.71
450.238	3.69
450.592	3.68
450.946	3.68
451.3	3.66
451.654	3.65
452.008	3.64
452.362	3.64
452.716	3.64
453.07	3.66
453.424	3.65
453.778	3.67
454.132	3.66
454.486	3.68
454.839	3.67
455.193	3.68
455.547	3.68
455.9	3.68
456.254	3.69
456.607	3.69
456.961	3.7
457.314	3.71
457.668	3.75
458.021	3.73
458.375	3.73
458.728	3.75
459.081	3.77
459.434	3.77
459.787	3.76
460.141	3.76
460.494	3.76
460.847	3.77
461.2	3.76
461.553	3.78
461.906	3.79
462.259	3.81
462.611	3.82
462.964	3.84
463.317	3.85
463.67	3.85
464.022	3.87
464.375	3.88
464.728	3.89
465.08	3.88
465.433	3.91
465.785	3.91
466.138	3.89
466.49	3.91
466.843	3.91
467.195	3.94
467.547	3.97
467.899	3.99
468.252	4.01
468.604	4.03
468.956	4.02
469.308	4.04
469.66	4.05
470.012	4.07
470.364	4.06
470.716	4.06
471.068	4.07
471.42	4.06
471.772	4.09
472.123	4.11
472.475	4.12
472.827	4.12
473.178	4.16
473.53	4.17
473.882	4.12
474.233	4.14
474.585	4.12
474.936	4.12
475.288	4.11
475.639	4.12
475.99	4.12
476.342	4.11
476.693	4.08
477.044	4.08
477.395	4.05
477.746	4.04
478.097	4.03
478.448	4.04
478.8	4.03
479.15	3.99
479.501	3.96
479.852	3.95
480.203	3.93
480.554	3.94
480.905	3.95
481.255	3.96
481.606	3.97
481.957	3.98
482.307	3.97
482.658	3.97
483.009	3.97
483.359	3.97
483.709	3.97
484.06	3.97
484.41	3.97
484.761	3.99
485.111	3.99
485.461	3.99
485.811	3.99
486.162	3.99
486.512	4.02
486.862	4.04
487.212	4.04
487.562	4.05
487.912	4.06
488.262	4.05
488.612	4.05
488.961	4.05
489.311	4.06
489.661	4.07
490.011	4.08
490.36	4.08
490.71	4.09
491.06	4.11
491.409	4.13
491.759	4.14
492.108	4.15
492.458	4.17
492.807	4.18
493.157	4.21
493.506	4.24
493.855	4.24
494.204	4.26
494.554	4.3
494.903	4.32
495.252	4.35
495.601	4.39
495.95	4.42
496.299	4.45
496.648	4.47
496.997	4.52
497.346	4.57
497.695	4.61
498.043	4.64
498.392	4.67
498.741	4.7
499.09	4.73
499.438	4.77
499.787	4.81
500.135	4.84
500.484	4.88
500.832	4.92
501.181	4.96
501.529	5
501.878	5.05
502.226	5.09
502.574	5.12
502.923	5.17
503.271	5.24
503.619	5.31
503.967	5.39
504.315	5.43
504.663	5.49
505.011	5.54
505.359	5.6
505.707	5.69
506.055	5.75
506.403	5.82
506.751	5.9
507.098	5.96
507.446	6.05
507.794	6.11
508.141	6.18
508.489	6.25
508.837	6.32
509.184	6.38
509.531	6.47
509.879	6.55
510.226	6.64
510.574	6.72
510.921	6.79
511.268	6.84
511.616	6.93
511.963	7
512.31	7.08
512.657	7.18
513.004	7.24
513.351	7.36
513.698	7.44
514.045	7.54
514.392	7.65
514.739	7.75
515.086	7.87
515.432	7.98
515.779	8.08
516.126	8.16
516.473	8.28
516.819	8.38
517.166	8.48
517.512	8.57
517.859	8.66
518.205	8.76
518.552	8.87
518.898	8.97
519.245	9.08
519.591	9.18
519.937	9.28
520.283	9.41
520.629	9.52
520.976	9.66
521.322	9.8
521.668	9.94
522.014	10.11
522.36	10.26
522.706	10.4
523.052	10.59
523.398	10.8
523.743	10.99
524.089	11.2
524.435	11.38
524.781	11.56
525.126	11.75
525.472	11.91
525.817	12.07
526.163	12.21
526.509	12.36
526.854	12.51
527.199	12.65
527.545	12.78
527.89	12.92
528.235	13.05
528.581	13.19
528.926	13.33
529.271	13.46
529.616	13.61
529.961	13.77
530.306	13.92
530.651	14.08
530.996	14.24
531.341	14.43
531.686	14.62
532.031	14.81
532.376	15
532.721	15.2
533.065	15.41
533.41	15.64
533.755	15.84
534.099	16.06
534.444	16.29
534.788	16.52
535.133	16.75
535.477	16.96
535.822	17.19
536.166	17.46
536.51	17.75
536.855	18.04
537.199	18.36
537.543	18.69
537.887	19.03
538.231	19.36
538.576	19.66
538.92	19.97
539.264	20.3
539.608	20.62
539.951	20.93
540.295	21.24
540.639	21.51
540.983	21.78
541.327	22.04
541.671	22.3
542.014	22.57
542.358	22.81
542.701	23.1
543.045	23.38
543.389	23.65
543.732	23.91
544.075	24.19
544.419	24.45
544.762	24.74
545.105	25.03
545.449	25.34
545.792	25.67
546.135	26.03
546.478	26.37
546.821	26.71
547.165	27.07
547.508	27.45
547.851	27.83
548.194	28.21
548.536	28.61
548.879	28.98
549.222	29.36
549.565	29.76
549.908	30.13
550.25	30.47
550.593	30.81
550.936	31.22
551.278	31.59
551.621	32.02
551.963	32.39
552.306	32.73
552.648	33.09
552.991	33.43
553.333	33.74
553.675	34.11
554.017	34.42
554.36	34.78
554.702	35.02
555.044	35.34
555.386	35.63
555.728	35.94
556.07	36.31
556.412	36.63
556.754	36.97
557.096	37.29
557.438	37.67
557.78	38.03
558.121	38.36
558.463	38.66
558.805	38.92
559.147	39.2
559.488	39.53
559.83	39.8
560.171	40.08
560.513	40.34
560.854	40.63
561.196	40.95
561.537	41.19
561.878	41.44
562.22	41.74
562.561	41.98
562.902	42.28
563.243	42.54
563.584	42.77
563.925	42.96
564.266	43.26
564.607	43.49
564.948	43.74
565.289	43.96
565.63	44.23
565.971	44.52
566.312	44.79
566.653	45.04
566.993	45.31
567.334	45.56
567.675	45.83
568.015	46
568.356	46.21
568.696	46.44
569.037	46.66
569.377	46.86
569.718	47.11
570.058	47.3
570.398	47.5
570.739	47.7
571.079	47.91
571.419	48.08
571.759	48.27
572.099	48.46
572.439	48.65
572.779	48.81
573.119	48.98
573.459	49.16
573.799	49.3
574.139	49.43
574.479	49.58
574.819	49.77
575.158	49.91
575.498	50.05
575.838	50.16
576.177	50.29
576.517	50.47
576.856	50.63
577.196	50.77
577.535	50.93
577.875	51.13
578.214	51.28
578.553	51.45
578.893	51.56
579.232	51.7
579.571	51.85
579.91	51.99
580.25	52.1
580.589	52.19
580.928	52.29
581.267	52.45
581.606	52.64
581.945	52.74
582.283	52.93
582.622	53.15
582.961	53.38
583.3	53.58
583.639	53.65
583.977	53.71
584.316	53.82
584.654	53.89
584.993	53.98
585.332	54.14
585.67	54.23
586.008	54.42
586.347	54.59
586.685	54.69
587.024	54.85
587.362	54.89
587.7	55
588.038	55.09
588.376	55.2
588.715	55.25
589.053	55.38
589.391	55.39
589.729	55.41
590.067	55.4
590.404	55.47
590.742	55.57
591.08	55.77
591.418	55.93
591.756	56.1
592.093	56.16
592.431	56.24
592.769	56.35
593.106	56.44
593.444	56.53
593.781	56.66
594.119	56.72
594.456	56.91
594.793	57
595.131	57.14
595.468	57.23
595.805	57.33
596.143	57.36
596.48	57.5
596.817	57.63
597.154	57.72
597.491	57.84
597.828	58.02
598.165	58.05
598.502	58.09
598.839	58.16
599.176	58.33
599.512	58.42
599.849	58.48
600.186	58.52
600.523	58.57
600.859	58.61
601.196	58.65
601.532	58.66
601.869	58.69
602.205	58.71
602.542	58.73
602.878	58.75
603.215	58.8
603.551	58.88
603.887	58.92
604.223	59
604.56	59.07
604.896	59.02
605.232	59.05
605.568	59.17
605.904	59.17
606.24	59.13
606.576	59.17
606.912	59.24
607.248	59.39
607.583	59.42
607.919	59.52
608.255	59.58
608.591	59.65
608.926	59.74
609.262	59.81
609.597	59.86
609.933	59.96
610.268	60.04
610.604	60.1
610.939	60.09
611.275	60.1
611.61	60.1
611.945	60.14
612.281	60.19
612.616	60.21
612.951	60.26
613.286	60.41
613.621	60.4
613.956	60.43
614.291	60.32
614.626	60.33
614.961	60.23
615.296	60.29
615.631	60.35
615.966	60.39
616.3	60.47
616.635	60.58
616.97	60.61
617.304	60.61
617.639	60.62
617.973	60.74
618.308	60.81
618.642	60.92
618.977	61.1
619.311	61.16
619.646	61.15
619.98	61.21
620.314	61.12
620.648	61.14
620.983	61.15
621.317	61.23
621.651	61.28
621.985	61.41
622.319	61.48
622.653	61.48
622.987	61.48
623.321	61.52
623.655	61.5
623.988	61.61
624.322	61.66
624.656	61.69
624.99	61.76
625.323	61.71
625.657	61.67
625.99	61.59
626.324	61.59
626.657	61.69
626.991	61.67
627.324	61.82
627.658	61.92
627.991	62.03
628.324	62.06
628.657	62.11
628.991	62.12
629.324	62.12
629.657	62.23
629.99	62.31
630.323	62.29
630.656	62.3
630.989	62.27
631.322	62.32
631.655	62.34
631.987	62.33
632.32	62.35
632.653	62.42
632.986	62.47
633.318	62.45
633.651	62.43
633.984	62.48
634.316	62.49
634.649	62.57
634.981	62.5
635.313	62.65
635.646	62.71
635.978	62.75
636.31	62.76
636.643	62.78
636.975	62.71
637.307	62.68
637.639	62.82
637.971	62.76
638.303	62.7
638.635	62.83
638.967	62.85
639.299	62.95
639.631	63.05
639.963	63.01
640.295	63.09
640.626	63.14
640.958	63.31
641.29	63.42
641.621	63.47
641.953	63.57
642.285	63.5
642.616	63.5
642.948	63.48
643.279	63.53
643.61	63.6
643.942	63.69
644.273	63.76
644.604	63.71
644.936	63.73
645.267	63.85
645.598	63.81
645.929	63.85
646.26	63.85
646.591	63.73
646.922	63.85
647.253	63.99
647.584	63.95
647.915	63.75
648.245	63.65
648.576	63.6
648.907	63.67
649.238	63.62
649.568	63.61
649.899	63.67
650.229	63.73
650.56	63.76
650.89	63.76
651.221	63.88
651.551	63.97
651.882	64.09
652.212	64.07
652.542	64.09
652.872	64.13
653.203	64.2
653.533	64.4
653.863	64.27
654.193	64.26
654.523	64.38
654.853	64.61
655.183	64.62
655.513	64.73
655.843	64.71
656.172	64.85
656.502	64.97
656.832	64.91
657.162	64.8
657.491	64.68
657.821	64.66
658.15	64.51
658.48	64.53
658.809	64.57
659.139	64.63
659.468	64.53
659.798	64.57
660.127	64.58
660.456	64.47
660.785	64.58
661.115	64.6
661.444	64.46
661.773	64.41
662.102	64.44
662.431	64.25
662.76	64.19
663.089	64.12
663.418	63.96
663.747	64.11
664.076	64.24
664.404	64.37
664.733	64.61
665.062	64.81
665.39	64.75
665.719	64.72
666.048	64.72
666.376	64.92
