Data from BA28300_Reflection_00008.txt Node
Date: Mon Nov 18 15:58:16 EST 2019
User: vgr7
Spectrometer: USB2G7710
Scans to average: 3
Trigger mode: 4
Integration Time (sec): 2.000000E-2
Electric dark correction enabled: true
Boxcar width: 10
XAxis mode: Wavelengths
Number of Pixels in Spectrum: 2048
>>>>>Begin Spectral Data<<<<<
177.721	173.11
178.105	-1076.47
178.488	164.28
178.871	-1.52
179.254	-79.93
179.636	139.95
180.019	143.91
180.402	66.67
180.785	96.44
181.168	110.73
181.55	295.49
181.933	166.89
182.316	165.62
182.698	151.26
183.081	172.52
183.463	146.17
183.846	164.67
184.228	155.27
184.611	239.6
184.993	-2801.41
185.376	-12370.59
185.758	705.17
186.14	937.37
186.522	515.8
186.904	399.79
187.287	733.2
187.669	-167.07
188.051	-1376.64
188.433	5829.73
188.815	-265.31
189.197	-377.56
189.579	-239.57
189.961	-465.92
190.342	-807.49
190.724	-249.01
191.106	-275.2
191.488	-342.33
191.869	-431.42
192.251	-590.81
192.633	-789.63
193.014	630.61
193.396	380.75
193.777	-1081.49
194.159	1757.14
194.54	-16958.82
194.922	1403.87
195.303	-2888.76
195.684	-3561.97
196.065	-377.56
196.447	-233.78
196.828	-543.09
197.209	-242.77
197.59	-574.49
197.971	-445.05
198.352	-113.64
198.733	-118.89
199.114	-97.05
199.495	-114.73
199.876	-75.42
200.257	-71.99
200.638	-31.88
201.018	-44.54
201.399	-31.61
201.78	-9.72
202.16	-35.89
202.541	-84.76
202.922	-247.24
203.302	-482.44
203.683	-666.15
204.063	-337.28
204.444	-241.82
204.824	-303.6
205.204	-330.57
205.585	-211.14
205.965	-192.65
206.345	-393.18
206.725	-935.29
207.106	-3345.38
207.486	-1168.01
207.866	-4261.45
208.246	-829.34
208.626	-534.75
209.006	-242.44
209.386	-338.71
209.766	-467.13
210.145	-246.18
210.525	-192.18
210.905	-123.48
211.285	-126.85
211.664	-92.51
212.044	-113.38
212.424	-157.77
212.803	-131.59
213.183	-122.07
213.562	-130.37
213.942	-113.32
214.321	-77.44
214.701	-76.23
215.08	-92.64
215.459	-97.55
215.838	-97.88
216.218	-69.19
216.597	-70.31
216.976	-70.18
217.355	-62.92
217.734	-57.21
218.113	-52.87
218.492	-47.28
218.871	-54.3
219.25	-25.87
219.629	-29.47
220.008	-29.98
220.387	-15.74
220.766	-24.68
221.144	-44.08
221.523	-48.8
221.902	-50.29
222.28	-43.2
222.659	-37.12
223.037	-28.07
223.416	-20.71
223.794	-17.95
224.173	-21.59
224.551	-19.01
224.929	-24.72
225.308	-18.13
225.686	-21.53
226.064	-21.39
226.442	-19.66
226.821	-13.97
227.199	-13.76
227.577	-16.49
227.955	-19.12
228.333	-24.99
228.711	-19.12
229.089	-14.13
229.467	-13.34
229.845	-11.54
230.222	-13.03
230.6	-13.78
230.978	-12.95
231.356	-11.46
231.733	-10.17
232.111	-12.23
232.488	-9.86
232.866	-7.62
233.243	-5.94
233.621	-6.41
233.998	-4.4
234.376	-4.31
234.753	-3.81
235.13	-3.82
235.508	-0.03
235.885	2.26
236.262	4.35
236.639	3.22
237.016	3.65
237.393	4.88
237.77	5.02
238.147	6.31
238.524	6.6
238.901	6.22
239.278	6.3
239.655	6.91
240.032	7.2
240.409	6.33
240.785	5.91
241.162	5.81
241.539	6.16
241.915	5.75
242.292	5.41
242.668	5.34
243.045	5.02
243.421	4.55
243.798	4.38
244.174	4.38
244.551	4.68
244.927	4.51
245.303	4.35
245.679	4.25
246.056	3.7
246.432	3.66
246.808	3.82
247.184	3.44
247.56	3.06
247.936	3.06
248.312	3.12
248.688	3.01
249.064	3.02
249.44	2.96
249.815	3.04
250.191	3.12
250.567	2.92
250.943	2.8
251.318	2.89
251.694	2.67
252.069	2.5
252.445	2.23
252.82	2.05
253.196	1.9
253.571	1.82
253.947	2.13
254.322	2.32
254.697	2.23
255.073	2.63
255.448	2.63
255.823	2.62
256.198	2.72
256.573	2.89
256.948	3.01
257.323	3.18
257.698	3.09
258.073	3.05
258.448	3.24
258.823	3.4
259.198	3.4
259.573	3.56
259.948	3.56
260.322	3.66
260.697	3.8
261.072	3.78
261.446	3.81
261.821	3.74
262.195	3.7
262.57	3.6
262.944	3.62
263.319	3.75
263.693	3.71
264.067	3.84
264.442	3.99
264.816	3.93
265.19	3.71
265.564	3.75
265.938	3.88
266.313	3.99
266.687	3.87
267.061	3.9
267.435	3.84
267.809	4.02
268.183	4.15
268.556	4.03
268.93	4.13
269.304	4.04
269.678	4.01
270.051	3.89
270.425	3.99
270.799	3.95
271.172	4.01
271.546	4.03
271.919	3.9
272.293	3.87
272.666	3.89
273.04	4.08
273.413	3.96
273.787	3.79
274.16	3.63
274.533	3.66
274.906	3.47
275.279	3.49
275.653	3.48
276.026	3.37
276.399	3.28
276.772	3.32
277.145	3.29
277.518	3.35
277.891	3.5
278.263	3.52
278.636	3.57
279.009	3.42
279.382	3.55
279.755	3.65
280.127	3.71
280.5	3.75
280.872	3.64
281.245	3.78
281.617	3.94
281.99	4.09
282.362	3.97
282.735	3.93
283.107	3.91
283.479	4
283.852	4.03
284.224	4.19
284.596	4.12
284.968	4.22
285.34	4.25
285.713	4.13
286.085	4.1
286.457	3.99
286.829	4.1
287.201	4.09
287.572	3.94
287.944	3.88
288.316	3.87
288.688	3.95
289.06	3.86
289.431	3.87
289.803	3.89
290.175	3.98
290.546	4.21
290.918	4.21
291.289	4.1
291.661	4.23
292.032	4.26
292.403	4.28
292.775	4.27
293.146	4.36
293.517	4.48
293.889	4.55
294.26	4.59
294.631	4.61
295.002	4.5
295.373	4.59
295.744	4.53
296.115	4.55
296.486	4.54
296.857	4.71
297.228	4.76
297.599	4.66
297.97	4.67
298.34	4.67
298.711	4.77
299.082	4.8
299.452	4.91
299.823	4.89
300.194	4.96
300.564	4.92
300.935	4.89
301.305	4.87
301.676	4.94
302.046	5.09
302.416	5.14
302.787	5.33
303.157	5.38
303.527	5.44
303.897	5.45
304.267	5.69
304.637	5.67
305.008	5.74
305.378	5.99
305.748	6.01
306.117	5.87
306.487	5.93
306.857	5.83
307.227	5.61
307.597	5.66
307.967	5.62
308.336	5.85
308.706	5.98
309.076	6.16
309.445	6.19
309.815	6.2
310.184	6.17
310.554	6.11
310.923	6.22
311.293	6.34
311.662	6.4
312.031	6.44
312.401	6.51
312.77	6.65
313.139	6.53
313.508	6.63
313.877	6.88
314.246	6.86
314.616	7.02
314.985	7.14
315.353	7.2
315.722	7.38
316.091	7.25
316.46	7.17
316.829	7.21
317.198	7.21
317.567	7.16
317.935	7.3
318.304	7.35
318.672	7.39
319.041	7.39
319.41	7.45
319.778	7.38
320.147	7.51
320.515	7.33
320.883	7.46
321.252	7.61
321.62	7.65
321.988	7.99
322.357	8.12
322.725	8.21
323.093	8.49
323.461	8.49
323.829	8.64
324.197	8.68
324.565	8.66
324.933	8.76
325.301	8.93
325.669	8.99
326.037	9.08
326.405	9.14
326.772	9.24
327.14	9.35
327.508	9.29
327.875	9.22
328.243	9.52
328.61	9.53
328.978	9.47
329.346	9.4
329.713	9.28
330.08	9.18
330.448	9.14
330.815	8.99
331.182	9.1
331.55	9.24
331.917	9.38
332.284	9.61
332.651	9.52
333.018	9.45
333.385	9.42
333.752	9.5
334.119	9.42
334.486	9.47
334.853	9.45
335.22	9.49
335.587	9.59
335.954	9.45
336.32	9.37
336.687	9.34
337.054	9.41
337.42	9.37
337.787	9.5
338.153	9.5
338.52	9.59
338.886	9.57
339.253	9.45
339.619	9.46
339.986	9.3
340.352	9.44
340.718	9.48
341.084	9.5
341.451	9.63
341.817	9.72
342.183	9.74
342.549	9.73
342.915	9.86
343.281	9.9
343.647	9.92
344.013	10.03
344.379	10.04
344.745	10.19
345.11	10.28
345.476	10.38
345.842	10.45
346.208	10.47
346.573	10.61
346.939	10.72
347.304	10.65
347.67	10.64
348.035	10.6
348.401	10.69
348.766	10.77
349.132	10.72
349.497	10.72
349.862	10.83
350.228	10.83
350.593	10.73
350.958	10.74
351.323	10.83
351.688	10.8
352.053	10.94
352.418	10.85
352.783	10.76
353.148	10.68
353.513	10.72
353.878	10.69
354.243	10.63
354.608	10.62
354.972	10.63
355.337	10.68
355.702	10.82
356.066	10.84
356.431	10.79
356.795	10.81
357.16	10.73
357.524	10.64
357.889	10.62
358.253	10.76
358.618	10.77
358.982	10.73
359.346	10.68
359.71	10.63
360.075	10.72
360.439	10.73
360.803	10.75
361.167	10.72
361.531	10.66
361.895	10.63
362.259	10.63
362.623	10.74
362.987	10.74
363.351	10.64
363.714	10.67
364.078	10.63
364.442	10.6
364.806	10.63
365.169	10.59
365.533	10.59
365.896	10.5
366.26	10.43
366.623	10.38
366.987	10.41
367.35	10.41
367.714	10.37
368.077	10.32
368.44	10.25
368.803	10.19
369.167	10.19
369.53	10.11
369.893	10.1
370.256	9.97
370.619	9.87
370.982	9.81
371.345	9.67
371.708	9.69
372.071	9.64
372.434	9.59
372.797	9.6
373.159	9.53
373.522	9.48
373.885	9.48
374.247	9.49
374.61	9.49
374.973	9.4
375.335	9.25
375.698	9.29
376.06	9.3
376.423	9.29
376.785	9.29
377.147	9.26
377.51	9.19
377.872	9.18
378.234	9.21
378.596	9.18
378.958	9.1
379.321	9.03
379.683	9.03
380.045	9.04
380.407	8.98
380.769	9
381.13	8.95
381.492	8.91
381.854	8.85
382.216	8.82
382.578	8.81
382.939	8.82
383.301	8.73
383.663	8.67
384.024	8.58
384.386	8.57
384.747	8.55
385.109	8.51
385.47	8.43
385.832	8.32
386.193	8.32
386.554	8.35
386.916	8.27
387.277	8.21
387.638	8.18
387.999	8.11
388.36	8.07
388.721	8.08
389.082	8.03
389.443	8.01
389.804	7.96
390.165	7.93
390.526	7.88
390.887	7.86
391.248	7.83
391.609	7.81
391.969	7.76
392.33	7.73
392.691	7.69
393.051	7.65
393.412	7.67
393.772	7.61
394.133	7.54
394.493	7.55
394.854	7.5
395.214	7.46
395.574	7.44
395.935	7.37
396.295	7.3
396.655	7.24
397.015	7.17
397.376	7.12
397.736	7.05
398.096	7
398.456	6.94
398.816	6.9
399.176	6.85
399.535	6.78
399.895	6.73
400.255	6.68
400.615	6.64
400.975	6.57
401.334	6.56
401.694	6.53
402.054	6.47
402.413	6.45
402.773	6.37
403.132	6.33
403.492	6.3
403.851	6.31
404.211	6.29
404.57	6.28
404.929	6.25
405.288	6.25
405.648	6.22
406.007	6.22
406.366	6.2
406.725	6.18
407.084	6.13
407.443	6.1
407.802	6.09
408.161	6.08
408.52	6.06
408.879	6.03
409.238	6.02
409.596	5.99
409.955	5.97
410.314	5.98
410.673	5.95
411.031	5.95
411.39	5.92
411.748	5.89
412.107	5.9
412.465	5.87
412.824	5.85
413.182	5.85
413.54	5.8
413.899	5.78
414.257	5.77
414.615	5.78
414.974	5.78
415.332	5.76
415.69	5.73
416.048	5.68
416.406	5.69
416.764	5.64
417.122	5.62
417.48	5.58
417.838	5.54
418.195	5.53
418.553	5.5
418.911	5.47
419.269	5.46
419.626	5.41
419.984	5.38
420.342	5.34
420.699	5.31
421.057	5.29
421.414	5.26
421.772	5.24
422.129	5.21
422.486	5.17
422.844	5.15
423.201	5.12
423.558	5.1
423.915	5.07
424.273	5.07
424.63	5.05
424.987	5.03
425.344	5.01
425.701	4.98
426.058	4.96
426.415	4.93
426.772	4.91
427.128	4.89
427.485	4.9
427.842	4.9
428.199	4.87
428.555	4.84
428.912	4.85
429.269	4.84
429.625	4.83
429.982	4.83
430.338	4.81
430.695	4.82
431.051	4.8
431.407	4.81
431.764	4.79
432.12	4.76
432.476	4.76
432.832	4.77
433.189	4.77
433.545	4.77
433.901	4.8
434.257	4.77
434.613	4.79
434.969	4.77
435.325	4.77
435.681	4.79
436.036	4.78
436.392	4.76
436.748	4.76
437.104	4.75
437.459	4.76
437.815	4.76
438.171	4.76
438.526	4.79
438.882	4.78
439.237	4.77
439.593	4.79
439.948	4.79
440.304	4.78
440.659	4.78
441.014	4.78
441.369	4.75
441.725	4.74
442.08	4.71
442.435	4.7
442.79	4.69
443.145	4.66
443.5	4.65
443.855	4.64
444.21	4.62
444.565	4.62
444.92	4.61
445.275	4.59
445.629	4.57
445.984	4.54
446.339	4.52
446.693	4.5
447.048	4.48
447.403	4.46
447.757	4.46
448.112	4.44
448.466	4.41
448.82	4.41
449.175	4.41
449.529	4.39
449.883	4.4
450.238	4.37
450.592	4.38
450.946	4.37
451.3	4.37
451.654	4.35
452.008	4.35
452.362	4.33
452.716	4.33
453.07	4.33
453.424	4.33
453.778	4.32
454.132	4.31
454.486	4.3
454.839	4.3
455.193	4.27
455.547	4.26
455.9	4.27
456.254	4.25
456.607	4.25
456.961	4.25
457.314	4.24
457.668	4.27
458.021	4.25
458.375	4.26
458.728	4.28
459.081	4.29
459.434	4.26
459.787	4.29
460.141	4.27
460.494	4.28
460.847	4.28
461.2	4.29
461.553	4.3
461.906	4.32
462.259	4.34
462.611	4.37
462.964	4.4
463.317	4.42
463.67	4.44
464.022	4.46
464.375	4.49
464.728	4.5
465.08	4.51
465.433	4.54
465.785	4.57
466.138	4.57
466.49	4.58
466.843	4.61
467.195	4.59
467.547	4.62
467.899	4.65
468.252	4.68
468.604	4.68
468.956	4.69
469.308	4.71
469.66	4.71
470.012	4.73
470.364	4.76
470.716	4.78
471.068	4.78
471.42	4.8
471.772	4.82
472.123	4.84
472.475	4.88
472.827	4.89
473.178	4.91
473.53	4.89
473.882	4.92
474.233	4.95
474.585	4.97
474.936	4.98
475.288	4.96
475.639	4.96
475.99	4.98
476.342	4.96
476.693	4.93
477.044	4.92
477.395	4.89
477.746	4.86
478.097	4.85
478.448	4.85
478.8	4.84
479.15	4.8
479.501	4.79
479.852	4.76
480.203	4.76
480.554	4.74
480.905	4.75
481.255	4.75
481.606	4.76
481.957	4.75
482.307	4.75
482.658	4.75
483.009	4.74
483.359	4.74
483.709	4.75
484.06	4.75
484.41	4.76
484.761	4.76
485.111	4.76
485.461	4.76
485.811	4.77
486.162	4.77
486.512	4.79
486.862	4.79
487.212	4.8
487.562	4.8
487.912	4.81
488.262	4.81
488.612	4.82
488.961	4.82
489.311	4.82
489.661	4.83
490.011	4.84
490.36	4.84
490.71	4.86
491.06	4.88
491.409	4.88
491.759	4.9
492.108	4.92
492.458	4.95
492.807	4.96
493.157	4.98
493.506	5.02
493.855	5.04
494.204	5.06
494.554	5.09
494.903	5.12
495.252	5.16
495.601	5.21
495.95	5.23
496.299	5.26
496.648	5.33
496.997	5.38
497.346	5.46
497.695	5.53
498.043	5.59
498.392	5.64
498.741	5.71
499.09	5.75
499.438	5.81
499.787	5.87
500.135	5.97
500.484	6.02
500.832	6.07
501.181	6.13
501.529	6.21
501.878	6.29
502.226	6.38
502.574	6.47
502.923	6.54
503.271	6.66
503.619	6.77
503.967	6.83
504.315	6.9
504.663	6.99
505.011	7.08
505.359	7.19
505.707	7.29
506.055	7.38
506.403	7.5
506.751	7.61
507.098	7.71
507.446	7.8
507.794	7.88
508.141	7.99
508.489	8.09
508.837	8.2
509.184	8.29
509.531	8.41
509.879	8.5
510.226	8.62
510.574	8.67
510.921	8.77
511.268	8.87
511.616	8.96
511.963	9.04
512.31	9.15
512.657	9.24
513.004	9.34
513.351	9.44
513.698	9.55
514.045	9.64
514.392	9.73
514.739	9.84
515.086	9.95
515.432	10.06
515.779	10.16
516.126	10.25
516.473	10.35
516.819	10.42
517.166	10.5
517.512	10.56
517.859	10.66
518.205	10.75
518.552	10.85
518.898	10.95
519.245	11.05
519.591	11.12
519.937	11.22
520.283	11.32
520.629	11.44
520.976	11.54
521.322	11.65
521.668	11.78
522.014	11.93
522.36	12.08
522.706	12.21
523.052	12.38
523.398	12.56
523.743	12.72
524.089	12.88
524.435	13.02
524.781	13.19
525.126	13.37
525.472	13.49
525.817	13.62
526.163	13.71
526.509	13.82
526.854	13.91
527.199	14
527.545	14.09
527.89	14.19
528.235	14.29
528.581	14.42
528.926	14.53
529.271	14.63
529.616	14.74
529.961	14.83
530.306	14.96
530.651	15.07
530.996	15.21
531.341	15.34
531.686	15.5
532.031	15.65
532.376	15.79
532.721	15.95
533.065	16.09
533.41	16.28
533.755	16.46
534.099	16.67
534.444	16.88
534.788	17.09
535.133	17.28
535.477	17.47
535.822	17.66
536.166	17.89
536.51	18.11
536.855	18.36
537.199	18.64
537.543	18.87
537.887	19.15
538.231	19.42
538.576	19.7
538.92	19.98
539.264	20.21
539.608	20.46
539.951	20.71
540.295	20.95
540.639	21.2
540.983	21.45
541.327	21.65
541.671	21.84
542.014	22.05
542.358	22.24
542.701	22.47
543.045	22.67
543.389	22.87
543.732	23.09
544.075	23.31
544.419	23.53
544.762	23.82
545.105	24.06
545.449	24.34
545.792	24.62
546.135	24.91
546.478	25.22
546.821	25.5
547.165	25.77
547.508	26.08
547.851	26.37
548.194	26.65
548.536	26.97
548.879	27.34
549.222	27.69
549.565	28.04
549.908	28.38
550.25	28.71
550.593	29.03
550.936	29.4
551.278	29.77
551.621	30.15
551.963	30.49
552.306	30.79
552.648	31.11
552.991	31.45
553.333	31.76
553.675	32.06
554.017	32.41
554.36	32.77
554.702	33.09
555.044	33.38
555.386	33.68
555.728	33.98
556.07	34.28
556.412	34.55
556.754	34.87
557.096	35.17
557.438	35.49
557.78	35.81
558.121	36.05
558.463	36.35
558.805	36.65
559.147	36.89
559.488	37.14
559.83	37.4
560.171	37.66
560.513	37.98
560.854	38.25
561.196	38.53
561.537	38.76
561.878	39.04
562.22	39.32
562.561	39.61
562.902	39.91
563.243	40.16
563.584	40.4
563.925	40.63
564.266	40.82
564.607	41.06
564.948	41.27
565.289	41.54
565.63	41.72
565.971	41.91
566.312	42.11
566.653	42.39
566.993	42.66
567.334	42.83
567.675	43.03
568.015	43.22
568.356	43.43
568.696	43.7
569.037	43.89
569.377	44.11
569.718	44.28
570.058	44.44
570.398	44.61
570.739	44.79
571.079	44.98
571.419	45.25
571.759	45.42
572.099	45.59
572.439	45.75
572.779	45.9
573.119	46.07
573.459	46.21
573.799	46.34
574.139	46.41
574.479	46.55
574.819	46.69
575.158	46.85
575.498	47.01
575.838	47.1
576.177	47.21
576.517	47.33
576.856	47.46
577.196	47.59
577.535	47.71
577.875	47.88
578.214	48.01
578.553	48.15
578.893	48.29
579.232	48.55
579.571	48.66
579.91	48.83
580.25	49.01
580.589	49.18
580.928	49.31
581.267	49.42
581.606	49.6
581.945	49.76
582.283	49.86
582.622	49.97
582.961	50.14
583.3	50.26
583.639	50.42
583.977	50.6
584.316	50.73
584.654	50.82
584.993	50.96
585.332	51.08
585.67	51.08
586.008	51.2
586.347	51.19
586.685	51.34
587.024	51.42
587.362	51.45
587.7	51.59
588.038	51.77
588.376	51.82
588.715	51.91
589.053	51.95
589.391	52.06
589.729	52.06
590.067	52.12
590.404	52.16
590.742	52.26
591.08	52.23
591.418	52.33
591.756	52.47
592.093	52.56
592.431	52.61
592.769	52.74
593.106	52.84
593.444	52.95
593.781	52.95
594.119	53.04
594.456	53.09
594.793	53.11
595.131	53.09
595.468	53.22
595.805	53.25
596.143	53.29
596.48	53.35
596.817	53.44
597.154	53.52
597.491	53.66
597.828	53.72
598.165	53.79
598.502	53.76
598.839	53.77
599.176	53.78
599.512	53.85
599.849	53.95
600.186	53.92
600.523	53.97
600.859	54.03
601.196	54.06
601.532	54.15
601.869	54.14
602.205	54.21
602.542	54.23
602.878	54.33
603.215	54.41
603.551	54.42
603.887	54.49
604.223	54.48
604.56	54.54
604.896	54.51
605.232	54.65
605.568	54.73
605.904	54.74
606.24	54.8
606.576	54.84
606.912	54.81
607.248	54.98
607.583	55.03
607.919	55.1
608.255	55.18
608.591	55.31
608.926	55.41
609.262	55.43
609.597	55.5
609.933	55.58
610.268	55.55
610.604	55.61
610.939	55.6
611.275	55.69
611.61	55.7
611.945	55.78
612.281	55.74
612.616	55.86
612.951	55.98
613.286	55.98
613.621	56.08
613.956	56.12
614.291	56.02
614.626	56.08
614.961	56.09
615.296	56.12
615.631	56.12
615.966	56.19
616.3	56.23
616.635	56.25
616.97	56.16
617.304	56.38
617.639	56.47
617.973	56.6
618.308	56.63
618.642	56.61
618.977	56.67
619.311	56.7
619.646	56.62
619.98	56.64
620.314	56.84
620.648	56.85
620.983	56.95
621.317	57.07
621.651	57.11
621.985	57.18
622.319	57.18
622.653	57.22
622.987	57.25
623.321	57.27
623.655	57.3
623.988	57.42
624.322	57.39
624.656	57.39
624.99	57.27
625.323	57.27
625.657	57.28
625.99	57.25
626.324	57.33
626.657	57.4
626.991	57.45
627.324	57.43
627.658	57.4
627.991	57.45
628.324	57.38
628.657	57.38
628.991	57.49
629.324	57.55
629.657	57.55
629.99	57.54
630.323	57.58
630.656	57.63
630.989	57.57
631.322	57.52
631.655	57.56
631.987	57.62
632.32	57.61
632.653	57.67
632.986	57.74
633.318	57.73
633.651	57.72
633.984	57.75
634.316	57.66
634.649	57.69
634.981	57.65
635.313	57.76
635.646	57.72
635.978	57.64
636.31	57.61
636.643	57.6
636.975	57.6
637.307	57.68
637.639	57.63
637.971	57.61
638.303	57.62
638.635	57.62
638.967	57.78
639.299	57.76
639.631	57.74
639.963	57.75
640.295	57.74
640.626	57.66
640.958	57.64
641.29	57.69
641.621	57.62
641.953	57.6
642.285	57.51
642.616	57.52
642.948	57.52
643.279	57.67
643.61	57.71
643.942	57.79
644.273	57.71
644.604	57.8
644.936	57.93
645.267	57.93
645.598	57.97
645.929	57.98
646.26	58.06
646.591	58.06
646.922	58.05
647.253	58.05
647.584	58.18
647.915	58.13
648.245	58.13
648.576	58.16
648.907	58.37
649.238	58.37
649.568	58.42
649.899	58.52
650.229	58.48
650.56	58.37
650.89	58.36
651.221	58.46
651.551	58.32
651.882	58.26
652.212	58.33
652.542	58.23
652.872	58.16
653.203	58.26
653.533	58.28
653.863	58.4
654.193	58.36
654.523	58.41
654.853	58.41
655.183	58.45
655.513	58.65
655.843	58.5
656.172	58.6
656.502	58.54
656.832	58.5
657.162	58.55
657.491	58.66
657.821	58.61
658.15	58.55
658.48	58.65
658.809	58.71
659.139	58.67
659.468	58.66
659.798	58.65
660.127	58.64
660.456	58.67
660.785	58.67
661.115	58.86
661.444	58.79
661.773	58.78
662.102	58.77
662.431	58.68
