Data from BA28308_Reflection_00003.txt Node
Date: Mon Nov 18 15:38:41 EST 2019
User: vgr7
Spectrometer: USB2G7710
Scans to average: 3
Trigger mode: 4
Integration Time (sec): 2.000000E-2
Electric dark correction enabled: true
Boxcar width: 10
XAxis mode: Wavelengths
Number of Pixels in Spectrum: 2048
>>>>>Begin Spectral Data<<<<<
177.721	-223.34
178.105	-194.12
178.488	-215.83
178.871	-202.23
179.254	-108.68
179.636	-444.64
180.019	-104.82
180.402	211.76
180.785	-27.19
181.168	-32.11
181.55	-76.94
181.933	67.58
182.316	41.68
182.698	15.15
183.081	-5.54
183.463	7.64
183.846	-0.16
184.228	-4.43
184.611	7.52
184.993	39.81
185.376	56.2
185.758	148.62
186.14	259.9
186.522	271.39
186.904	221.71
187.287	242.15
187.669	363.16
188.051	635.25
188.433	-674.8
188.815	-185.61
189.197	-175.33
189.579	-150.47
189.961	-48.05
190.342	-57.27
190.724	-45.6
191.106	-45.9
191.488	-44.26
191.869	-49.99
192.251	-79.8
192.633	-79.08
193.014	-94.97
193.396	-152.79
193.777	-182.82
194.159	-215.59
194.54	-102.45
194.922	-91.51
195.303	-130.91
195.684	-130.53
196.065	-93.88
196.447	-103.83
196.828	-119.83
197.209	-131.1
197.59	-212.31
197.971	-295.07
198.352	-202.04
198.733	-351.72
199.114	-442.25
199.495	-378.26
199.876	-318.98
200.257	-261.78
200.638	-217.71
201.018	-285.72
201.399	-234.64
201.78	-194.71
202.16	-261.97
202.541	-383.42
202.922	-517.67
203.302	-417.29
203.683	-394.17
204.063	-891.88
204.444	-1117.46
204.824	-1162.7
205.204	-2738.3
205.585	-79757.14
205.965	8423.08
206.345	842.2
206.725	711.05
207.106	456.31
207.486	411.43
207.866	445.83
208.246	577.79
208.626	596.59
209.006	1788.61
209.386	1075.94
209.766	1174.2
210.145	1153.42
210.525	-17602.7
210.905	-800.14
211.285	-2032.08
211.664	-2256.78
212.044	-957.83
212.424	-381.56
212.803	-391.82
213.183	-159.9
213.562	-130.56
213.942	-95.1
214.321	-76.76
214.701	-76.99
215.08	-75.77
215.459	-63.39
215.838	-67.46
216.218	-64.39
216.597	-42.28
216.976	-30.09
217.355	-6.89
217.734	-17.91
218.113	-14.14
218.492	-10.5
218.871	-28.33
219.25	-29.83
219.629	-54.95
220.008	-59.66
220.387	-58.46
220.766	-60.82
221.144	-114.45
221.523	-123.68
221.902	-161.73
222.28	-203.53
222.659	-145.34
223.037	-67.73
223.416	-70.48
223.794	-53.82
224.173	-29.87
224.551	-20.43
224.929	-25.68
225.308	-30.41
225.686	-28.5
226.064	-18.7
226.442	-19.54
226.821	-12.97
227.199	-10.26
227.577	-5.87
227.955	-5.76
228.333	-8.14
228.711	-5.72
229.089	-0.08
229.467	-0.31
229.845	-0.41
230.222	1.34
230.6	-1.32
230.978	-2.9
231.356	-0.96
231.733	-0.4
232.111	0.38
232.488	-0.75
232.866	-0.18
233.243	-0.46
233.621	0.2
233.998	0.01
234.376	-0.87
234.753	-1.64
235.13	-1.23
235.508	-1.53
235.885	-2.6
236.262	-2.84
236.639	-4.1
237.016	-3.85
237.393	-2.8
237.77	-2.47
238.147	-1.73
238.524	-0.44
238.901	0.53
239.278	0.38
239.655	0.92
240.032	1.08
240.409	1.38
240.785	1.8
241.162	1.85
241.539	2.5
241.915	2.29
242.292	2.26
242.668	2.78
243.045	2.63
243.421	2.84
243.798	2.59
244.174	2.66
244.551	2.99
244.927	2.6
245.303	2.7
245.679	3.29
246.056	3.24
246.432	2.95
246.808	3.07
247.184	3.13
247.56	3.18
247.936	3.13
248.312	3.15
248.688	2.94
249.064	2.79
249.44	2.69
249.815	2.85
250.191	3.17
250.567	3.14
250.943	3.11
251.318	2.99
251.694	3.4
252.069	3.44
252.445	3.45
252.82	3.84
253.196	3.94
253.571	3.28
253.947	3.41
254.322	3.67
254.697	3.42
255.073	3.21
255.448	3.15
255.823	3.06
256.198	2.97
256.573	2.9
256.948	3.22
257.323	3.22
257.698	3
258.073	2.72
258.448	2.54
258.823	2.57
259.198	2.59
259.573	2.49
259.948	2.63
260.322	2.65
260.697	2.6
261.072	2.49
261.446	2.43
261.821	2.34
262.195	2.47
262.57	2.5
262.944	2.54
263.319	2.61
263.693	2.53
264.067	2.63
264.442	2.85
264.816	2.66
265.19	2.57
265.564	2.58
265.938	2.65
266.313	2.7
266.687	2.71
267.061	2.8
267.435	2.96
267.809	2.84
268.183	2.93
268.556	2.85
268.93	3.04
269.304	3.26
269.678	3.39
270.051	3.27
270.425	3.39
270.799	3.5
271.172	3.51
271.546	3.47
271.919	3.34
272.293	3.25
272.666	3.32
273.04	3.56
273.413	3.69
273.787	3.71
274.16	3.73
274.533	3.71
274.906	3.6
275.279	3.48
275.653	3.54
276.026	3.35
276.399	3.39
276.772	3.43
277.145	3.36
277.518	3.3
277.891	3.32
278.263	3.25
278.636	3.18
279.009	3.12
279.382	3.15
279.755	3.13
280.127	3.3
280.5	3.43
280.872	3.26
281.245	3.28
281.617	3.29
281.99	3.46
282.362	3.58
282.735	3.49
283.107	3.52
283.479	3.42
283.852	3.54
284.224	3.48
284.596	3.38
284.968	3.51
285.34	3.61
285.713	3.54
286.085	3.62
286.457	3.71
286.829	3.7
287.201	3.85
287.572	3.83
287.944	3.74
288.316	3.68
288.688	3.73
289.06	3.63
289.431	3.74
289.803	3.68
290.175	3.6
290.546	3.86
290.918	3.9
291.289	4.05
291.661	4.05
292.032	4.12
292.403	4.2
292.775	4.26
293.146	4.12
293.517	4.27
293.889	4.22
294.26	4.17
294.631	4.07
295.002	3.85
295.373	3.86
295.744	3.82
296.115	3.86
296.486	3.62
296.857	3.73
297.228	3.58
297.599	3.59
297.97	3.57
298.34	3.5
298.711	3.47
299.082	3.42
299.452	3.39
299.823	3.39
300.194	3.37
300.564	3.25
300.935	3.3
301.305	3.16
301.676	3.28
302.046	3.26
302.416	3.35
302.787	3.49
303.157	3.56
303.527	3.4
303.897	3.33
304.267	3.71
304.637	3.64
305.008	3.66
305.378	3.56
305.748	3.64
306.117	3.47
306.487	3.48
306.857	3.44
307.227	3.51
307.597	3.52
307.967	3.52
308.336	3.47
308.706	3.51
309.076	3.62
309.445	3.5
309.815	3.51
310.184	3.44
310.554	3.41
310.923	3.34
311.293	3.45
311.662	3.51
312.031	3.42
312.401	3.39
312.77	3.45
313.139	3.5
313.508	3.57
313.877	3.67
314.246	3.64
314.616	3.61
314.985	3.57
315.353	3.48
315.722	3.35
316.091	3.33
316.46	3.19
316.829	3.19
317.198	3.21
317.567	3.1
317.935	3.05
318.304	3.01
318.672	2.99
319.041	3.03
319.41	2.98
319.778	2.86
320.147	2.86
320.515	2.74
320.883	2.73
321.252	2.69
321.62	2.6
321.988	2.67
322.357	2.82
322.725	2.74
323.093	2.88
323.461	2.93
323.829	2.96
324.197	3
324.565	3.01
324.933	2.87
325.301	2.83
325.669	2.87
326.037	2.83
326.405	2.88
326.772	2.81
327.14	2.9
327.508	3.02
327.875	3.11
328.243	3.15
328.61	3.1
328.978	3
329.346	3.16
329.713	3.08
330.08	3
330.448	3
330.815	2.76
331.182	2.73
331.55	2.71
331.917	2.84
332.284	2.78
332.651	2.76
333.018	2.9
333.385	2.94
333.752	3.08
334.119	3.12
334.486	3.22
334.853	3.09
335.22	3.03
335.587	2.82
335.954	2.87
336.32	2.86
336.687	3.01
337.054	2.87
337.42	2.88
337.787	2.88
338.153	2.9
338.52	3.02
338.886	3.03
339.253	3
339.619	3.02
339.986	3.03
340.352	3.18
340.718	3.13
341.084	3.18
341.451	3.13
341.817	3.17
342.183	3.16
342.549	3.25
342.915	3.29
343.281	3.35
343.647	3.35
344.013	3.43
344.379	3.33
344.745	3.39
345.11	3.42
345.476	3.4
345.842	3.45
346.208	3.48
346.573	3.57
346.939	3.69
347.304	3.64
347.67	3.62
348.035	3.51
348.401	3.52
348.766	3.47
349.132	3.48
349.497	3.37
349.862	3.41
350.228	3.34
350.593	3.28
350.958	3.29
351.323	3.32
351.688	3.41
352.053	3.47
352.418	3.5
352.783	3.56
353.148	3.58
353.513	3.61
353.878	3.53
354.243	3.5
354.608	3.47
354.972	3.44
355.337	3.39
355.702	3.5
356.066	3.53
356.431	3.57
356.795	3.53
357.16	3.59
357.524	3.54
357.889	3.58
358.253	3.61
358.618	3.63
358.982	3.58
359.346	3.49
359.71	3.46
360.075	3.4
360.439	3.38
360.803	3.37
361.167	3.27
361.531	3.33
361.895	3.29
362.259	3.26
362.623	3.26
362.987	3.33
363.351	3.31
363.714	3.31
364.078	3.27
364.442	3.27
364.806	3.25
365.169	3.26
365.533	3.24
365.896	3.27
366.26	3.31
366.623	3.32
366.987	3.33
367.35	3.36
367.714	3.37
368.077	3.35
368.44	3.34
368.803	3.37
369.167	3.26
369.53	3.22
369.893	3.22
370.256	3.28
370.619	3.32
370.982	3.26
371.345	3.27
371.708	3.29
372.071	3.3
372.434	3.25
372.797	3.23
373.159	3.19
373.522	3.22
373.885	3.22
374.247	3.2
374.61	3.2
374.973	3.18
375.335	3.21
375.698	3.19
376.06	3.18
376.423	3.19
376.785	3.28
377.147	3.4
377.51	3.39
377.872	3.36
378.234	3.32
378.596	3.32
378.958	3.32
379.321	3.31
379.683	3.35
380.045	3.44
380.407	3.41
380.769	3.42
381.13	3.39
381.492	3.36
381.854	3.39
382.216	3.4
382.578	3.44
382.939	3.4
383.301	3.39
383.663	3.37
384.024	3.35
384.386	3.36
384.747	3.31
385.109	3.33
385.47	3.33
385.832	3.32
386.193	3.36
386.554	3.37
386.916	3.35
387.277	3.29
387.638	3.25
387.999	3.24
388.36	3.26
388.721	3.27
389.082	3.31
389.443	3.27
389.804	3.24
390.165	3.18
390.526	3.22
390.887	3.22
391.248	3.26
391.609	3.25
391.969	3.23
392.33	3.23
392.691	3.23
393.051	3.22
393.412	3.23
393.772	3.22
394.133	3.21
394.493	3.24
394.854	3.3
395.214	3.3
395.574	3.31
395.935	3.28
396.295	3.3
396.655	3.27
397.015	3.28
397.376	3.28
397.736	3.32
398.096	3.33
398.456	3.36
398.816	3.35
399.176	3.35
399.535	3.35
399.895	3.36
400.255	3.4
400.615	3.44
400.975	3.43
401.334	3.43
401.694	3.44
402.054	3.4
402.413	3.39
402.773	3.38
403.132	3.39
403.492	3.43
403.851	3.41
404.211	3.41
404.57	3.41
404.929	3.42
405.288	3.43
405.648	3.41
406.007	3.43
406.366	3.45
406.725	3.51
407.084	3.54
407.443	3.55
407.802	3.55
408.161	3.51
408.52	3.5
408.879	3.47
409.238	3.47
409.596	3.5
409.955	3.53
410.314	3.55
410.673	3.53
411.031	3.52
411.39	3.52
411.748	3.55
412.107	3.59
412.465	3.56
412.824	3.56
413.182	3.56
413.54	3.54
413.899	3.55
414.257	3.51
414.615	3.5
414.974	3.49
415.332	3.46
415.69	3.48
416.048	3.48
416.406	3.5
416.764	3.49
417.122	3.5
417.48	3.44
417.838	3.44
418.195	3.45
418.553	3.45
418.911	3.43
419.269	3.43
419.626	3.42
419.984	3.43
420.342	3.43
420.699	3.42
421.057	3.44
421.414	3.4
421.772	3.41
422.129	3.41
422.486	3.41
422.844	3.41
423.201	3.4
423.558	3.4
423.915	3.4
424.273	3.39
424.63	3.39
424.987	3.41
425.344	3.41
425.701	3.42
426.058	3.41
426.415	3.42
426.772	3.41
427.128	3.41
427.485	3.41
427.842	3.41
428.199	3.44
428.555	3.43
428.912	3.45
429.269	3.45
429.625	3.44
429.982	3.44
430.338	3.44
430.695	3.44
431.051	3.44
431.407	3.44
431.764	3.44
432.12	3.43
432.476	3.43
432.832	3.43
433.189	3.43
433.545	3.43
433.901	3.44
434.257	3.45
434.613	3.47
434.969	3.46
435.325	3.47
435.681	3.46
436.036	3.46
436.392	3.45
436.748	3.44
437.104	3.45
437.459	3.46
437.815	3.47
438.171	3.47
438.526	3.48
438.882	3.48
439.237	3.48
439.593	3.5
439.948	3.5
440.304	3.5
440.659	3.5
441.014	3.48
441.369	3.47
441.725	3.47
442.08	3.46
442.435	3.46
442.79	3.44
443.145	3.43
443.5	3.44
443.855	3.43
444.21	3.43
444.565	3.43
444.92	3.44
445.275	3.43
445.629	3.42
445.984	3.42
446.339	3.41
446.693	3.4
447.048	3.39
447.403	3.37
447.757	3.37
448.112	3.35
448.466	3.37
448.82	3.39
449.175	3.38
449.529	3.38
449.883	3.37
450.238	3.37
450.592	3.39
450.946	3.36
451.3	3.36
451.654	3.34
452.008	3.33
452.362	3.31
452.716	3.29
453.07	3.29
453.424	3.29
453.778	3.3
454.132	3.31
454.486	3.3
454.839	3.31
455.193	3.3
455.547	3.31
455.9	3.31
456.254	3.29
456.607	3.29
456.961	3.29
457.314	3.3
457.668	3.29
458.021	3.28
458.375	3.31
458.728	3.31
459.081	3.33
459.434	3.33
459.787	3.34
460.141	3.36
460.494	3.38
460.847	3.39
461.2	3.38
461.553	3.39
461.906	3.38
462.259	3.4
462.611	3.4
462.964	3.4
463.317	3.42
463.67	3.42
464.022	3.42
464.375	3.4
464.728	3.39
465.08	3.4
465.433	3.39
465.785	3.39
466.138	3.37
466.49	3.37
466.843	3.37
467.195	3.35
467.547	3.35
467.899	3.33
468.252	3.32
468.604	3.35
468.956	3.34
469.308	3.34
469.66	3.34
470.012	3.34
470.364	3.35
470.716	3.34
471.068	3.35
471.42	3.34
471.772	3.37
472.123	3.38
472.475	3.41
472.827	3.43
473.178	3.44
473.53	3.46
473.882	3.47
474.233	3.48
474.585	3.51
474.936	3.53
475.288	3.53
475.639	3.54
475.99	3.53
476.342	3.54
476.693	3.54
477.044	3.56
477.395	3.55
477.746	3.54
478.097	3.54
478.448	3.54
478.8	3.54
479.15	3.53
479.501	3.54
479.852	3.53
480.203	3.54
480.554	3.55
480.905	3.56
481.255	3.58
481.606	3.59
481.957	3.59
482.307	3.58
482.658	3.58
483.009	3.58
483.359	3.59
483.709	3.6
484.06	3.59
484.41	3.6
484.761	3.6
485.111	3.61
485.461	3.62
485.811	3.62
486.162	3.64
486.512	3.65
486.862	3.64
487.212	3.65
487.562	3.64
487.912	3.65
488.262	3.64
488.612	3.63
488.961	3.62
489.311	3.62
489.661	3.63
490.011	3.63
490.36	3.63
490.71	3.62
491.06	3.62
491.409	3.62
491.759	3.61
492.108	3.6
492.458	3.59
492.807	3.57
493.157	3.57
493.506	3.56
493.855	3.56
494.204	3.56
494.554	3.55
494.903	3.54
495.252	3.54
495.601	3.54
495.95	3.54
496.299	3.55
496.648	3.55
496.997	3.54
497.346	3.54
497.695	3.55
498.043	3.56
498.392	3.55
498.741	3.57
499.09	3.57
499.438	3.58
499.787	3.6
500.135	3.62
500.484	3.64
500.832	3.64
501.181	3.63
501.529	3.63
501.878	3.65
502.226	3.65
502.574	3.65
502.923	3.63
503.271	3.63
503.619	3.65
503.967	3.64
504.315	3.63
504.663	3.65
505.011	3.65
505.359	3.65
505.707	3.67
506.055	3.65
506.403	3.67
506.751	3.69
507.098	3.7
507.446	3.7
507.794	3.69
508.141	3.71
508.489	3.71
508.837	3.71
509.184	3.72
509.531	3.75
509.879	3.75
510.226	3.77
510.574	3.76
510.921	3.76
511.268	3.76
511.616	3.77
511.963	3.78
512.31	3.78
512.657	3.79
513.004	3.79
513.351	3.8
513.698	3.8
514.045	3.79
514.392	3.79
514.739	3.77
515.086	3.78
515.432	3.77
515.779	3.79
516.126	3.82
516.473	3.81
516.819	3.81
517.166	3.81
517.512	3.8
517.859	3.8
518.205	3.81
518.552	3.83
518.898	3.85
519.245	3.84
519.591	3.84
519.937	3.82
520.283	3.82
520.629	3.83
520.976	3.83
521.322	3.84
521.668	3.84
522.014	3.85
522.36	3.86
522.706	3.87
523.052	3.86
523.398	3.87
523.743	3.87
524.089	3.87
524.435	3.87
524.781	3.88
525.126	3.9
525.472	3.89
525.817	3.9
526.163	3.9
526.509	3.91
526.854	3.91
527.199	3.94
527.545	3.94
527.89	3.95
528.235	3.96
528.581	3.97
528.926	3.97
529.271	3.98
529.616	3.97
529.961	3.97
530.306	3.98
530.651	3.96
530.996	3.97
531.341	3.97
531.686	3.97
532.031	3.99
532.376	3.99
532.721	4
533.065	4
533.41	4
533.755	4.01
534.099	4.02
534.444	3.99
534.788	3.99
535.133	3.98
535.477	3.98
535.822	3.96
536.166	3.97
536.51	3.97
536.855	3.98
537.199	3.98
537.543	3.97
537.887	3.97
538.231	3.97
538.576	3.99
538.92	3.99
539.264	3.98
539.608	3.97
539.951	3.96
540.295	3.96
540.639	3.96
540.983	3.96
541.327	3.97
541.671	3.98
542.014	3.99
542.358	3.99
542.701	3.98
543.045	4
543.389	4
543.732	4.01
544.075	4
544.419	4.01
544.762	4.02
545.105	4.04
545.449	4.05
545.792	4.04
546.135	4.05
546.478	4.05
546.821	4.06
547.165	4.07
547.508	4.07
547.851	4.08
548.194	4.07
548.536	4.07
548.879	4.08
549.222	4.06
549.565	4.07
549.908	4.09
550.25	4.07
550.593	4.08
550.936	4.06
551.278	4.06
551.621	4.05
551.963	4.05
552.306	4.03
552.648	4.03
552.991	4.03
553.333	4.01
553.675	4
554.017	4
554.36	4
554.702	4
555.044	3.98
555.386	4
555.728	3.98
556.07	3.95
556.412	3.93
556.754	3.93
557.096	3.89
557.438	3.87
557.78	3.87
558.121	3.89
558.463	3.88
558.805	3.9
559.147	3.89
559.488	3.9
559.83	3.89
560.171	3.91
560.513	3.93
560.854	3.96
561.196	3.95
561.537	3.96
561.878	3.97
562.22	3.98
562.561	3.99
562.902	4.01
563.243	4.02
563.584	4.07
563.925	4.1
564.266	4.1
564.607	4.12
564.948	4.13
565.289	4.13
565.63	4.13
565.971	4.12
566.312	4.14
566.653	4.14
566.993	4.14
567.334	4.11
567.675	4.11
568.015	4.1
568.356	4.11
568.696	4.14
569.037	4.13
569.377	4.13
569.718	4.13
570.058	4.13
570.398	4.11
570.739	4.1
571.079	4.08
571.419	4.11
571.759	4.11
572.099	4.09
572.439	4.11
572.779	4.11
573.119	4.14
573.459	4.12
573.799	4.16
574.139	4.14
574.479	4.15
574.819	4.14
575.158	4.14
575.498	4.13
575.838	4.11
576.177	4.08
576.517	4.09
576.856	4.11
577.196	4.09
577.535	4.09
577.875	4.1
578.214	4.12
578.553	4.11
578.893	4.15
579.232	4.14
579.571	4.14
579.91	4.14
580.25	4.13
580.589	4.13
580.928	4.12
581.267	4.16
581.606	4.17
581.945	4.16
582.283	4.14
582.622	4.18
582.961	4.18
583.3	4.24
583.639	4.25
583.977	4.24
584.316	4.27
584.654	4.29
584.993	4.27
585.332	4.28
585.67	4.29
586.008	4.26
586.347	4.27
586.685	4.27
587.024	4.26
587.362	4.28
587.7	4.29
588.038	4.28
588.376	4.25
588.715	4.22
589.053	4.25
589.391	4.3
589.729	4.25
590.067	4.28
590.404	4.27
590.742	4.24
591.08	4.23
591.418	4.22
591.756	4.22
592.093	4.23
592.431	4.21
592.769	4.22
593.106	4.22
593.444	4.22
593.781	4.21
594.119	4.22
594.456	4.17
594.793	4.15
595.131	4.14
595.468	4.18
595.805	4.24
596.143	4.21
596.48	4.23
596.817	4.24
597.154	4.21
597.491	4.19
597.828	4.23
598.165	4.21
598.502	4.21
598.839	4.22
599.176	4.22
599.512	4.24
599.849	4.24
600.186	4.23
600.523	4.24
600.859	4.27
601.196	4.3
601.532	4.31
601.869	4.27
602.205	4.28
602.542	4.3
602.878	4.24
603.215	4.26
603.551	4.24
603.887	4.23
604.223	4.26
604.56	4.32
604.896	4.28
605.232	4.32
605.568	4.31
605.904	4.31
606.24	4.33
606.576	4.3
606.912	4.29
607.248	4.32
607.583	4.33
607.919	4.3
608.255	4.23
608.591	4.27
608.926	4.33
609.262	4.32
609.597	4.29
609.933	4.31
610.268	4.31
610.604	4.32
610.939	4.34
611.275	4.32
611.61	4.25
611.945	4.29
612.281	4.27
612.616	4.31
612.951	4.31
613.286	4.3
613.621	4.31
613.956	4.36
614.291	4.36
614.626	4.34
614.961	4.33
615.296	4.38
615.631	4.37
615.966	4.36
616.3	4.39
616.635	4.41
616.97	4.43
617.304	4.41
617.639	4.42
617.973	4.41
618.308	4.43
618.642	4.47
618.977	4.45
619.311	4.44
619.646	4.46
619.98	4.46
620.314	4.4
620.648	4.4
620.983	4.4
621.317	4.41
621.651	4.39
621.985	4.41
622.319	4.41
622.653	4.4
622.987	4.43
623.321	4.39
623.655	4.39
623.988	4.4
624.322	4.41
624.656	4.4
624.99	4.4
625.323	4.4
625.657	4.38
625.99	4.42
626.324	4.43
626.657	4.37
626.991	4.38
627.324	4.41
627.658	4.42
627.991	4.41
628.324	4.41
628.657	4.43
628.991	4.42
629.324	4.46
629.657	4.47
629.99	4.47
630.323	4.52
630.656	4.54
630.989	4.56
631.322	4.57
631.655	4.54
631.987	4.59
632.32	4.56
632.653	4.53
632.986	4.57
633.318	4.55
633.651	4.57
633.984	4.56
634.316	4.6
634.649	4.59
634.981	4.56
635.313	4.61
635.646	4.62
635.978	4.67
636.31	4.62
636.643	4.6
636.975	4.62
637.307	4.61
637.639	4.57
637.971	4.57
638.303	4.51
638.635	4.5
638.967	4.48
639.299	4.54
639.631	4.57
639.963	4.5
640.295	4.53
640.626	4.56
640.958	4.63
641.29	4.62
641.621	4.62
641.953	4.57
642.285	4.57
642.616	4.65
642.948	4.64
643.279	4.65
643.61	4.66
643.942	4.67
644.273	4.66
644.604	4.7
644.936	4.67
645.267	4.76
645.598	4.82
645.929	4.84
646.26	4.8
646.591	4.83
646.922	4.86
647.253	4.84
647.584	4.83
647.915	4.77
648.245	4.77
648.576	4.8
648.907	4.87
649.238	4.8
649.568	4.74
649.899	4.74
650.229	4.75
650.56	4.73
650.89	4.74
651.221	4.72
651.551	4.63
651.882	4.64
652.212	4.65
652.542	4.63
652.872	4.6
653.203	4.6
653.533	4.62
653.863	4.57
654.193	4.53
654.523	4.55
654.853	4.56
655.183	4.58
655.513	4.54
655.843	4.51
656.172	4.51
656.502	4.55
656.832	4.5
657.162	4.48
657.491	4.52
657.821	4.48
658.15	4.49
658.48	4.52
658.809	4.56
659.139	4.52
659.468	4.54
659.798	4.53
660.127	4.5
660.456	4.54
660.785	4.6
661.115	4.61
661.444	4.57
661.773	4.55
662.102	4.55
662.431	4.65
662.76	4.7
663.089	4.72
663.418	4.63
663.747	4.71
664.076	4.82
664.404	4.8
664.733	4.84
665.062	4.85
665.39	4.84
665.719	4.75
666.048	4.76
666.376	4.73
666.705	4.72
667.033	4.78
667.362	4.77
667.69	4.74
668.018	4.86
668.347	4.9
668.675	4.92
669.003	4.9
669.331	4.88
669.659	4.87
669.987	4.82
670.315	4.9
670.643	4.88
670.971	4.83
671.299	4.91
671.627	4.94
671.955	4.93
672.283	4.98
672.61	5.01
672.938	4.96
673.266	4.97
673.593	5.08
673.921	5.06
674.249	5.05
674.576	5.06
674.904	5
675.231	4.96
675.558	4.92
675.886	4.97
676.213	4.91
676.54	4.86
