Data from BA28524_Reflection_00014.txt Node
Date: Tue Nov 19 11:50:01 EST 2019
User: vgr7
Spectrometer: USB2G7710
Scans to average: 3
Trigger mode: 4
Integration Time (sec): 2.000000E-2
Electric dark correction enabled: true
Boxcar width: 10
XAxis mode: Wavelengths
Number of Pixels in Spectrum: 2048
>>>>>Begin Spectral Data<<<<<
177.721	-599.53
178.105	396.3
178.488	-90.48
178.871	1266.67
179.254	277.78
179.636	623.81
180.019	6.34
180.402	158.82
180.785	-193.33
181.168	-154.39
181.55	-22.07
181.933	53.38
182.316	21.01
182.698	-102.1
183.081	-49.29
183.463	-42.49
183.846	-25.27
184.228	-306.39
184.611	-83.15
184.993	-3.7
185.376	-63.84
185.758	312.12
186.14	3966.67
186.522	8877.78
186.904	-5366.67
187.287	-661.01
187.669	-303.17
188.051	-202.66
188.433	-270.93
188.815	-205.96
189.197	-307.71
189.579	-398.35
189.961	-211.89
190.342	-180.4
190.724	-277.07
191.106	-156.18
191.488	-211.42
191.869	-205.9
192.251	-405.24
192.633	-328.81
193.014	-211.62
193.396	-294.69
193.777	-415.15
194.159	-223.92
194.54	-264.07
194.922	-184.01
195.303	-193.33
195.684	-382.09
196.065	-348.18
196.447	-675.19
196.828	-698.45
197.209	-190.17
197.59	-195.39
197.971	-348.09
198.352	-164.26
198.733	-177.06
199.114	-294.56
199.495	-46.52
199.876	111.3
200.257	95.31
200.638	578.63
201.018	-880.39
201.399	222.07
201.78	85.69
202.16	77.01
202.541	25.73
202.922	138.76
203.302	-86.99
203.683	277.78
204.063	-77.78
204.444	-168.2
204.824	-320.51
205.204	-677.78
205.585	-147.72
205.965	-180.51
206.345	-192.77
206.725	-205.68
207.106	-144.61
207.486	-247.47
207.866	-201.86
208.246	-169.73
208.626	-237.02
209.006	-276.65
209.386	-384.7
209.766	-305.44
210.145	-292.08
210.525	-502.15
210.905	-220.04
211.285	-152.57
211.664	-127.31
212.044	-104.33
212.424	-96.51
212.803	-133.02
213.183	-129.11
213.562	-128.72
213.942	-120.98
214.321	-168.09
214.701	-206.83
215.08	-368.3
215.459	-233.33
215.838	-275.83
216.218	-255.47
216.597	-145.57
216.976	-122.95
217.355	-90.58
217.734	-127.57
218.113	-143.95
218.492	-97.5
218.871	-138.82
219.25	-107.53
219.629	-135.38
220.008	-137.24
220.387	-133.03
220.766	-82.66
221.144	-86.82
221.523	-86.12
221.902	-67.88
222.28	-43.82
222.659	-19.64
223.037	-18
223.416	-15.63
223.794	-12.61
224.173	-18.3
224.551	-12.82
224.929	-13.94
225.308	-17.17
225.686	-23.18
226.064	-21.98
226.442	-17
226.821	-9.94
227.199	-12.52
227.577	-7.5
227.955	-7.02
228.333	-6.5
228.711	-5.11
229.089	-5.71
229.467	-6.36
229.845	-7.44
230.222	-8.8
230.6	-13.98
230.978	-13.02
231.356	-13.5
231.733	-12.22
232.111	-6.34
232.488	-9.85
232.866	-7.69
233.243	-7.57
233.621	-5.34
233.998	-3.85
234.376	-3.91
234.753	-4.8
235.13	-4.71
235.508	-4.15
235.885	-6.34
236.262	-8.21
236.639	-9.43
237.016	-7.95
237.393	-7.31
237.77	-7.81
238.147	-5.71
238.524	-2.7
238.901	-2.77
239.278	-2.99
239.655	-2.4
240.032	-2.69
240.409	-1.43
240.785	-2.02
241.162	-1.73
241.539	-0.79
241.915	-0.74
242.292	-0.48
242.668	0.11
243.045	1.14
243.421	1.93
243.798	2.33
244.174	3.06
244.551	3.18
244.927	3.3
245.303	3.26
245.679	3.43
246.056	3.37
246.432	3.25
246.808	3.81
247.184	4.06
247.56	4.05
247.936	4.03
248.312	3.92
248.688	4.25
249.064	4.28
249.44	4.34
249.815	4.31
250.191	4.1
250.567	4
250.943	3.48
251.318	3.28
251.694	3.02
252.069	2.7
252.445	2.84
252.82	2.99
253.196	3.26
253.571	3.46
253.947	3.4
254.322	3.13
254.697	2.5
255.073	2.74
255.448	2.59
255.823	2.98
256.198	3.24
256.573	3.41
256.948	3.31
257.323	3.2
257.698	3.44
258.073	3.57
258.448	3.7
258.823	3.83
259.198	3.88
259.573	3.98
259.948	4.14
260.322	3.96
260.697	3.96
261.072	4.02
261.446	3.86
261.821	3.81
262.195	3.89
262.57	3.97
262.944	4.1
263.319	4.32
263.693	4.1
264.067	3.86
264.442	3.81
264.816	3.92
265.19	3.71
265.564	3.53
265.938	3.49
266.313	3.27
266.687	3.42
267.061	3.1
267.435	3.32
267.809	3.22
268.183	3.44
268.556	3.31
268.93	3.31
269.304	3.31
269.678	3.71
270.051	3.69
270.425	3.63
270.799	3.32
271.172	3.16
271.546	3.18
271.919	3.29
272.293	3.25
272.666	3.33
273.04	3.5
273.413	3.44
273.787	3.49
274.16	3.59
274.533	3.45
274.906	3.59
275.279	3.48
275.653	3.55
276.026	3.66
276.399	3.8
276.772	3.86
277.145	3.85
277.518	3.43
277.891	3.43
278.263	3.61
278.636	3.89
279.009	4.04
279.382	4.16
279.755	4.22
280.127	4.31
280.5	4.3
280.872	4.28
281.245	4.42
281.617	4.57
281.99	4.78
282.362	4.97
282.735	4.77
283.107	4.78
283.479	4.91
283.852	4.88
284.224	4.9
284.596	4.89
284.968	4.99
285.34	5.19
285.713	5.32
286.085	5.24
286.457	5.05
286.829	5.07
287.201	5.12
287.572	5.19
287.944	5.18
288.316	5.13
288.688	5.13
289.06	5.17
289.431	5.21
289.803	5.16
290.175	5.09
290.546	5.23
290.918	5.26
291.289	5.12
291.661	5.03
292.032	5.04
292.403	4.97
292.775	5.1
293.146	5.21
293.517	5.29
293.889	5.36
294.26	5.64
294.631	5.69
295.002	5.69
295.373	5.78
295.744	5.89
296.115	5.97
296.486	6.13
296.857	6.28
297.228	6.23
297.599	6.15
297.97	6.28
298.34	6.43
298.711	6.56
299.082	6.53
299.452	6.65
299.823	6.69
300.194	6.92
300.564	6.81
300.935	6.81
301.305	6.81
301.676	6.84
302.046	6.76
302.416	6.76
302.787	6.68
303.157	6.7
303.527	6.79
303.897	6.78
304.267	6.83
304.637	6.74
305.008	6.91
305.378	7.07
305.748	7.06
306.117	7.02
306.487	7.08
306.857	7.36
307.227	7.46
307.597	7.41
307.967	7.32
308.336	7.4
308.706	7.24
309.076	7.34
309.445	7.31
309.815	7.37
310.184	7.37
310.554	7.51
310.923	7.47
311.293	7.33
311.662	7.31
312.031	7.29
312.401	7.45
312.77	7.32
313.139	7.36
313.508	7.4
313.877	7.42
314.246	7.32
314.616	7.27
314.985	7.14
315.353	7.17
315.722	7.2
316.091	7.3
316.46	7.44
316.829	7.41
317.198	7.73
317.567	7.79
317.935	8.05
318.304	8.2
318.672	8.23
319.041	8.37
319.41	8.54
319.778	8.6
320.147	8.48
320.515	8.57
320.883	8.48
321.252	8.46
321.62	8.61
321.988	8.74
322.357	8.67
322.725	8.78
323.093	8.96
323.461	8.96
323.829	9.1
324.197	9.16
324.565	9.22
324.933	9.1
325.301	8.94
325.669	8.98
326.037	8.86
326.405	9.03
326.772	9.1
327.14	9.09
327.508	8.97
327.875	9
328.243	9.05
328.61	9.19
328.978	9.11
329.346	9.03
329.713	9.16
330.08	9.24
330.448	9.29
330.815	9.26
331.182	9.31
331.55	9.24
331.917	9.24
332.284	9.3
332.651	9.3
333.018	9.59
333.385	9.43
333.752	9.55
334.119	9.51
334.486	9.33
334.853	9.31
335.22	9.5
335.587	9.61
335.954	9.56
336.32	9.46
336.687	9.58
337.054	9.65
337.42	9.55
337.787	9.59
338.153	9.51
338.52	9.48
338.886	9.55
339.253	9.38
339.619	9.37
339.986	9.33
340.352	9.36
340.718	9.31
341.084	9.46
341.451	9.39
341.817	9.35
342.183	9.53
342.549	9.55
342.915	9.53
343.281	9.41
343.647	9.5
344.013	9.55
344.379	9.5
344.745	9.48
345.11	9.54
345.476	9.42
345.842	9.43
346.208	9.49
346.573	9.41
346.939	9.54
347.304	9.59
347.67	9.43
348.035	9.35
348.401	9.31
348.766	9.21
349.132	9.34
349.497	9.44
349.862	9.33
350.228	9.36
350.593	9.25
350.958	9.24
351.323	9.16
351.688	9.12
352.053	9.08
352.418	9.06
352.783	8.94
353.148	8.97
353.513	8.99
353.878	8.99
354.243	8.85
354.608	8.8
354.972	8.64
355.337	8.69
355.702	8.58
356.066	8.55
356.431	8.5
356.795	8.39
357.16	8.38
357.524	8.43
357.889	8.37
358.253	8.35
358.618	8.41
358.982	8.43
359.346	8.44
359.71	8.41
360.075	8.39
360.439	8.41
360.803	8.46
361.167	8.36
361.531	8.35
361.895	8.37
362.259	8.36
362.623	8.37
362.987	8.34
363.351	8.36
363.714	8.31
364.078	8.23
364.442	8.2
364.806	8.14
365.169	8.09
365.533	8.03
365.896	8.11
366.26	8.02
366.623	7.92
366.987	7.88
367.35	7.83
367.714	7.75
368.077	7.68
368.44	7.6
368.803	7.6
369.167	7.5
369.53	7.47
369.893	7.48
370.256	7.46
370.619	7.32
370.982	7.26
371.345	7.36
371.708	7.41
372.071	7.37
372.434	7.26
372.797	7.29
373.159	7.24
373.522	7.11
373.885	7.1
374.247	7.07
374.61	7
374.973	7.03
375.335	7.03
375.698	7
376.06	6.94
376.423	6.9
376.785	6.87
377.147	6.85
377.51	6.72
377.872	6.65
378.234	6.69
378.596	6.73
378.958	6.6
379.321	6.5
379.683	6.47
380.045	6.47
380.407	6.31
380.769	6.32
381.13	6.29
381.492	6.21
381.854	6.22
382.216	6.25
382.578	6.23
382.939	6.21
383.301	6.16
383.663	6.17
384.024	6.18
384.386	6.19
384.747	6.13
385.109	6.2
385.47	6.18
385.832	6.11
386.193	6.07
386.554	6.02
386.916	6.04
387.277	5.96
387.638	5.89
387.999	5.89
388.36	5.87
388.721	5.85
389.082	5.89
389.443	5.82
389.804	5.76
390.165	5.71
390.526	5.66
390.887	5.64
391.248	5.56
391.609	5.56
391.969	5.5
392.33	5.5
392.691	5.44
393.051	5.42
393.412	5.39
393.772	5.36
394.133	5.36
394.493	5.32
394.854	5.32
395.214	5.31
395.574	5.31
395.935	5.26
396.295	5.26
396.655	5.18
397.015	5.18
397.376	5.12
397.736	5.08
398.096	5.07
398.456	5.02
398.816	5
399.176	4.89
399.535	4.84
399.895	4.81
400.255	4.78
400.615	4.76
400.975	4.75
401.334	4.72
401.694	4.74
402.054	4.71
402.413	4.68
402.773	4.68
403.132	4.64
403.492	4.57
403.851	4.54
404.211	4.54
404.57	4.52
404.929	4.54
405.288	4.53
405.648	4.51
406.007	4.55
406.366	4.58
406.725	4.64
407.084	4.66
407.443	4.65
407.802	4.66
408.161	4.65
408.52	4.66
408.879	4.68
409.238	4.65
409.596	4.68
409.955	4.67
410.314	4.66
410.673	4.65
411.031	4.69
411.39	4.69
411.748	4.71
412.107	4.73
412.465	4.7
412.824	4.68
413.182	4.67
413.54	4.67
413.899	4.65
414.257	4.61
414.615	4.61
414.974	4.59
415.332	4.59
415.69	4.58
416.048	4.57
416.406	4.52
416.764	4.48
417.122	4.43
417.48	4.43
417.838	4.4
418.195	4.38
418.553	4.36
418.911	4.34
419.269	4.33
419.626	4.31
419.984	4.31
420.342	4.32
420.699	4.31
421.057	4.29
421.414	4.28
421.772	4.27
422.129	4.23
422.486	4.22
422.844	4.19
423.201	4.17
423.558	4.16
423.915	4.17
424.273	4.18
424.63	4.19
424.987	4.19
425.344	4.19
425.701	4.18
426.058	4.18
426.415	4.18
426.772	4.16
427.128	4.17
427.485	4.15
427.842	4.13
428.199	4.15
428.555	4.12
428.912	4.12
429.269	4.1
429.625	4.13
429.982	4.12
430.338	4.14
430.695	4.12
431.051	4.13
431.407	4.14
431.764	4.11
432.12	4.11
432.476	4.08
432.832	4.1
433.189	4.11
433.545	4.12
433.901	4.12
434.257	4.1
434.613	4.06
434.969	4.05
435.325	4.05
435.681	4.05
436.036	4.05
436.392	4.05
436.748	4.08
437.104	4.07
437.459	4.08
437.815	4.08
438.171	4.08
438.526	4.08
438.882	4.08
439.237	4.08
439.593	4.08
439.948	4.09
440.304	4.08
440.659	4.06
441.014	4.06
441.369	4.07
441.725	4.08
442.08	4.09
442.435	4.1
442.79	4.09
443.145	4.07
443.5	4.06
443.855	4.03
444.21	4.01
444.565	4.01
444.92	3.99
445.275	3.98
445.629	3.99
445.984	3.97
446.339	3.95
446.693	3.95
447.048	3.95
447.403	3.93
447.757	3.93
448.112	3.93
448.466	3.92
448.82	3.91
449.175	3.91
449.529	3.89
449.883	3.87
450.238	3.88
450.592	3.87
450.946	3.88
451.3	3.89
451.654	3.87
452.008	3.88
452.362	3.86
452.716	3.85
453.07	3.84
453.424	3.86
453.778	3.86
454.132	3.86
454.486	3.86
454.839	3.88
455.193	3.89
455.547	3.91
455.9	3.92
456.254	3.92
456.607	3.93
456.961	3.95
457.314	3.97
457.668	3.98
458.021	3.97
458.375	3.97
458.728	3.96
459.081	3.99
459.434	3.99
459.787	4
460.141	4
460.494	3.99
460.847	3.99
461.2	3.99
461.553	4
461.906	4.01
462.259	4.03
462.611	4.01
462.964	4.01
463.317	4.01
463.67	4.04
464.022	4.03
464.375	4.02
464.728	4.01
465.08	4.01
465.433	4.03
465.785	4.04
466.138	4.07
466.49	4.08
466.843	4.08
467.195	4.1
467.547	4.09
467.899	4.12
468.252	4.11
468.604	4.14
468.956	4.14
469.308	4.12
469.66	4.12
470.012	4.15
470.364	4.17
470.716	4.15
471.068	4.16
471.42	4.17
471.772	4.19
472.123	4.19
472.475	4.2
472.827	4.19
473.178	4.2
473.53	4.2
473.882	4.19
474.233	4.18
474.585	4.17
474.936	4.2
475.288	4.2
475.639	4.19
475.99	4.17
476.342	4.16
476.693	4.16
477.044	4.12
477.395	4.11
477.746	4.09
478.097	4.12
478.448	4.1
478.8	4.11
479.15	4.08
479.501	4.1
479.852	4.1
480.203	4.11
480.554	4.1
480.905	4.08
481.255	4.08
481.606	4.1
481.957	4.11
482.307	4.12
482.658	4.12
483.009	4.13
483.359	4.13
483.709	4.13
484.06	4.14
484.41	4.15
484.761	4.15
485.111	4.16
485.461	4.15
485.811	4.15
486.162	4.16
486.512	4.17
486.862	4.17
487.212	4.17
487.562	4.18
487.912	4.19
488.262	4.2
488.612	4.21
488.961	4.21
489.311	4.22
489.661	4.22
490.011	4.23
490.36	4.23
490.71	4.25
491.06	4.26
491.409	4.27
491.759	4.28
492.108	4.29
492.458	4.29
492.807	4.33
493.157	4.35
493.506	4.36
493.855	4.38
494.204	4.39
494.554	4.41
494.903	4.42
495.252	4.42
495.601	4.45
495.95	4.49
496.299	4.53
496.648	4.56
496.997	4.58
497.346	4.61
497.695	4.62
498.043	4.65
498.392	4.65
498.741	4.67
499.09	4.71
499.438	4.76
499.787	4.79
500.135	4.8
500.484	4.83
500.832	4.86
501.181	4.89
501.529	4.95
501.878	4.99
502.226	5.04
502.574	5.07
502.923	5.11
503.271	5.13
503.619	5.17
503.967	5.17
504.315	5.22
504.663	5.26
505.011	5.33
505.359	5.38
505.707	5.45
506.055	5.49
506.403	5.54
506.751	5.6
507.098	5.66
507.446	5.69
507.794	5.76
508.141	5.82
508.489	5.86
508.837	5.86
509.184	5.91
509.531	5.95
509.879	6.01
510.226	6.05
510.574	6.13
510.921	6.16
511.268	6.25
511.616	6.32
511.963	6.37
512.31	6.45
512.657	6.48
513.004	6.52
513.351	6.6
513.698	6.66
514.045	6.72
514.392	6.79
514.739	6.87
515.086	6.94
515.432	7
515.779	7.1
516.126	7.2
516.473	7.26
516.819	7.34
517.166	7.42
517.512	7.51
517.859	7.56
518.205	7.59
518.552	7.67
518.898	7.74
519.245	7.82
519.591	7.87
519.937	7.95
520.283	8.06
520.629	8.14
520.976	8.2
521.322	8.3
521.668	8.4
522.014	8.5
522.36	8.61
522.706	8.71
523.052	8.8
523.398	8.94
523.743	9.07
524.089	9.2
524.435	9.34
524.781	9.5
525.126	9.63
525.472	9.77
525.817	9.85
526.163	9.94
526.509	10.04
526.854	10.12
527.199	10.22
527.545	10.27
527.89	10.38
528.235	10.47
528.581	10.57
528.926	10.65
529.271	10.74
529.616	10.83
529.961	10.93
530.306	11.05
530.651	11.15
530.996	11.28
531.341	11.42
531.686	11.55
532.031	11.67
532.376	11.8
532.721	11.94
533.065	12.1
533.41	12.24
533.755	12.37
534.099	12.54
534.444	12.69
534.788	12.86
535.133	13
535.477	13.19
535.822	13.36
536.166	13.54
536.51	13.76
536.855	13.98
537.199	14.2
537.543	14.43
537.887	14.66
538.231	14.89
538.576	15.11
538.92	15.34
539.264	15.56
539.608	15.79
539.951	16
540.295	16.21
540.639	16.4
540.983	16.62
541.327	16.83
541.671	17.01
542.014	17.22
542.358	17.42
542.701	17.59
543.045	17.79
543.389	18
543.732	18.18
544.075	18.38
544.419	18.59
544.762	18.8
545.105	19.04
545.449	19.27
545.792	19.5
546.135	19.75
546.478	20.02
546.821	20.28
547.165	20.56
547.508	20.85
547.851	21.17
548.194	21.46
548.536	21.74
548.879	22.1
549.222	22.39
549.565	22.68
549.908	23.02
550.25	23.34
550.593	23.67
550.936	24
551.278	24.32
551.621	24.69
551.963	25.03
552.306	25.36
552.648	25.69
552.991	26.04
553.333	26.32
553.675	26.62
554.017	26.88
554.36	27.21
554.702	27.5
555.044	27.76
555.386	28.08
555.728	28.39
556.07	28.67
556.412	29.01
556.754	29.38
557.096	29.66
557.438	29.99
557.78	30.27
558.121	30.59
558.463	30.92
558.805	31.22
559.147	31.55
559.488	31.82
559.83	32.1
560.171	32.38
560.513	32.66
560.854	33
561.196	33.36
561.537	33.6
561.878	33.86
562.22	34.14
562.561	34.4
562.902	34.66
563.243	34.98
563.584	35.26
563.925	35.59
564.266	35.84
564.607	36.1
564.948	36.38
565.289	36.62
565.63	36.85
565.971	37.08
566.312	37.27
566.653	37.51
566.993	37.82
567.334	38.07
567.675	38.32
568.015	38.51
568.356	38.69
568.696	38.98
569.037	39.29
569.377	39.54
569.718	39.8
570.058	40.06
570.398	40.25
570.739	40.48
571.079	40.65
571.419	40.92
571.759	41.12
572.099	41.3
572.439	41.5
572.779	41.73
573.119	41.96
573.459	42.22
573.799	42.4
574.139	42.54
574.479	42.72
574.819	42.9
575.158	43.15
575.498	43.4
575.838	43.56
576.177	43.7
576.517	43.9
576.856	44.08
577.196	44.3
577.535	44.47
577.875	44.62
578.214	44.81
578.553	44.98
578.893	45.22
579.232	45.46
579.571	45.72
579.91	45.83
580.25	45.92
580.589	46.04
580.928	46.3
581.267	46.5
581.606	46.73
581.945	46.98
582.283	47.12
582.622	47.28
582.961	47.44
583.3	47.57
583.639	47.77
583.977	47.93
584.316	48.09
584.654	48.28
584.993	48.45
585.332	48.61
585.67	48.77
586.008	48.87
586.347	49.05
586.685	49.18
587.024	49.44
587.362	49.64
587.7	49.8
588.038	49.84
588.376	49.92
588.715	50.04
589.053	50.12
589.391	50.3
589.729	50.35
590.067	50.53
590.404	50.7
590.742	50.87
591.08	50.98
591.418	51.18
591.756	51.32
592.093	51.49
592.431	51.6
592.769	51.72
593.106	51.83
593.444	51.92
593.781	52.04
594.119	52.12
594.456	52.23
594.793	52.33
595.131	52.53
595.468	52.69
595.805	52.79
596.143	52.87
596.48	52.95
596.817	53.04
597.154	53.11
597.491	53.23
597.828	53.19
598.165	53.28
598.502	53.29
598.839	53.38
599.176	53.52
599.512	53.61
599.849	53.63
600.186	53.73
600.523	53.82
600.859	53.95
601.196	53.94
601.532	54.05
601.869	54.18
602.205	54.24
602.542	54.34
602.878	54.46
603.215	54.57
603.551	54.67
603.887	54.8
604.223	54.85
604.56	54.89
604.896	55.07
605.232	55.13
605.568	55.25
605.904	55.24
606.24	55.22
606.576	55.3
606.912	55.41
607.248	55.52
607.583	55.56
607.919	55.67
608.255	55.92
608.591	55.96
608.926	56.01
609.262	56.06
609.597	56.1
609.933	56.09
610.268	56.18
610.604	56.2
610.939	56.28
611.275	56.31
611.61	56.45
611.945	56.47
612.281	56.54
612.616	56.55
612.951	56.7
613.286	56.87
613.621	56.98
613.956	57.14
614.291	57.13
614.626	57.2
614.961	57.17
615.296	57.13
615.631	57.29
615.966	57.29
616.3	57.41
616.635	57.44
616.97	57.6
617.304	57.58
617.639	57.65
617.973	57.67
618.308	57.72
618.642	57.74
618.977	57.74
619.311	57.82
619.646	57.82
619.98	57.83
620.314	57.8
620.648	57.88
620.983	57.87
621.317	58.02
621.651	58.11
621.985	58.18
622.319	58.15
622.653	58.11
622.987	58.14
623.321	58.07
623.655	58.15
623.988	58.03
624.322	58.03
624.656	58.01
624.99	58.09
625.323	58.19
625.657	58.17
625.99	58.33
626.324	58.34
626.657	58.42
626.991	58.49
627.324	58.53
627.658	58.52
627.991	58.56
628.324	58.48
628.657	58.46
628.991	58.5
629.324	58.6
629.657	58.75
629.99	58.81
630.323	58.82
630.656	58.87
630.989	59.01
631.322	59.07
631.655	59.14
631.987	59.04
632.32	59.08
632.653	59.15
632.986	59.1
633.318	59.21
633.651	59.18
633.984	59.2
634.316	59.14
634.649	59.13
634.981	59.07
635.313	59.21
635.646	59.19
635.978	59.25
636.31	59.3
636.643	59.2
636.975	59.37
637.307	59.57
637.639	59.65
637.971	59.57
638.303	59.64
638.635	59.67
638.967	59.87
639.299	59.86
639.631	59.78
639.963	59.85
640.295	59.87
640.626	59.92
640.958	59.95
641.29	60.13
641.621	60.19
641.953	60.31
642.285	60.19
642.616	60.2
642.948	60.21
643.279	60.24
643.61	60.22
643.942	60.11
644.273	60
644.604	60
644.936	60.08
645.267	60.02
645.598	60.1
645.929	59.99
646.26	59.97
646.591	60.09
646.922	60.13
647.253	60.06
647.584	60.1
647.915	60.1
648.245	60.11
648.576	60.1
648.907	60.14
649.238	60.31
649.568	60.44
649.899	60.46
650.229	60.39
650.56	60.52
650.89	60.71
651.221	60.83
651.551	60.83
651.882	60.94
652.212	61.04
652.542	61.13
652.872	61.16
653.203	61.09
653.533	61.1
653.863	61.07
654.193	61.06
654.523	61.01
654.853	61.04
655.183	60.94
655.513	60.96
655.843	60.96
656.172	60.82
656.502	60.83
656.832	60.86
657.162	60.93
657.491	60.9
657.821	60.65
658.15	60.58
658.48	60.55
658.809	60.49
659.139	60.5
659.468	60.47
659.798	60.43
660.127	60.52
660.456	60.53
660.785	60.64
661.115	60.64
661.444	60.73
661.773	60.82
662.102	60.87
662.431	60.81
662.76	60.77
663.089	60.87
663.418	60.87
663.747	60.94
664.076	60.94
664.404	60.92
664.733	60.98
665.062	61.06
665.39	61.18
665.719	61.21
