Data from BA28469_Reflection_00014.txt Node
Date: Mon Nov 18 15:18:17 EST 2019
User: vgr7
Spectrometer: USB2G7710
Scans to average: 3
Trigger mode: 4
Integration Time (sec): 2.000000E-2
Electric dark correction enabled: true
Boxcar width: 10
XAxis mode: Wavelengths
Number of Pixels in Spectrum: 2048
>>>>>Begin Spectral Data<<<<<
177.721	261.26
178.105	-12566.67
178.488	-83.48
178.871	-35.58
179.254	25.19
179.636	6433.33
180.019	-14.52
180.402	215.79
180.785	-101.94
181.168	-43.11
181.55	-360.09
181.933	-20.15
182.316	50.17
182.698	34.87
183.081	58.17
183.463	8.98
183.846	10.81
184.228	-100.59
184.611	-91.52
184.993	-9455.56
185.376	386.92
185.758	286.48
186.14	121.51
186.522	565.41
186.904	170.64
187.287	41
187.669	72.37
188.051	104.47
188.433	32.03
188.815	38.03
189.197	35.44
189.579	27.81
189.961	11.93
190.342	26.11
190.724	17.21
191.106	30.07
191.488	27.9
191.869	23.53
192.251	9.11
192.633	7.91
193.014	7.86
193.396	5.43
193.777	1.03
194.159	13.31
194.54	16.36
194.922	16.73
195.303	25.62
195.684	33.65
196.065	49.74
196.447	50.53
196.828	36.72
197.209	24.21
197.59	25.18
197.971	36.26
198.352	43.16
198.733	65.23
199.114	53.88
199.495	58.21
199.876	71.91
200.257	83.81
200.638	79.59
201.018	72.3
201.399	77.97
201.78	58.53
202.16	79.64
202.541	97.27
202.922	41.72
203.302	7.94
203.683	-13.45
204.063	-90.65
204.444	-49.14
204.824	-48.69
205.204	-51.88
205.585	-40.35
205.965	-35.73
206.345	-46.36
206.725	-49.16
207.106	-86.14
207.486	-94.74
207.866	-88.03
208.246	-79.13
208.626	-96.95
209.006	-74.21
209.386	-88.97
209.766	-15.64
210.145	-33.11
210.525	-26.61
210.905	-15.71
211.285	-0.55
211.664	1.87
212.044	12.04
212.424	3.44
212.803	-4.04
213.183	2.89
213.562	0.4
213.942	3.69
214.321	8.83
214.701	1.56
215.08	-0.95
215.459	0.28
215.838	-0.66
216.218	-6.14
216.597	3.14
216.976	4.8
217.355	5.17
217.734	-2.29
218.113	9.26
218.492	8.85
218.871	10.85
219.25	13.5
219.629	6.4
220.008	12.15
220.387	10.44
220.766	25.05
221.144	31.72
221.523	28.06
221.902	-3.78
222.28	-6.1
222.659	10.31
223.037	21.14
223.416	9.62
223.794	10.7
224.173	14.45
224.551	4.03
224.929	-5.09
225.308	-1.16
225.686	-4.33
226.064	-7.91
226.442	-2.51
226.821	-0.47
227.199	-4.73
227.577	-4.2
227.955	-5.86
228.333	-3.29
228.711	-3.99
229.089	-0.99
229.467	-2.86
229.845	2.25
230.222	1.16
230.6	1.85
230.978	0.43
231.356	1.75
231.733	-0.28
232.111	0.57
232.488	-0.24
232.866	-0.43
233.243	0.63
233.621	0.71
233.998	3.14
234.376	1.14
234.753	1.08
235.13	3.09
235.508	4.22
235.885	4.99
236.262	2.76
236.639	2.38
237.016	2
237.393	3.51
237.77	3.79
238.147	4.45
238.524	4.18
238.901	4.46
239.278	4.83
239.655	4.98
240.032	5.59
240.409	6
240.785	6.13
241.162	5.64
241.539	5.98
241.915	5.17
242.292	4.74
242.668	4.92
243.045	4.72
243.421	4.64
243.798	4.49
244.174	4.52
244.551	4.44
244.927	4.27
245.303	4.48
245.679	4.34
246.056	4.28
246.432	4.31
246.808	4.2
247.184	3.83
247.56	3.81
247.936	3.52
248.312	3.51
248.688	3.68
249.064	3.62
249.44	3.69
249.815	3.65
250.191	3.93
250.567	3.85
250.943	3.67
251.318	3.75
251.694	3.76
252.069	3.91
252.445	4
252.82	3.89
253.196	3.5
253.571	3.71
253.947	3.87
254.322	3.85
254.697	3.98
255.073	4.18
255.448	4.17
255.823	4.29
256.198	4.24
256.573	4.08
256.948	4.2
257.323	4.2
257.698	4.46
258.073	4.48
258.448	4.49
258.823	4.54
259.198	4.33
259.573	4.08
259.948	3.96
260.322	3.94
260.697	3.94
261.072	3.92
261.446	3.84
261.821	3.85
262.195	3.87
262.57	3.99
262.944	3.94
263.319	3.84
263.693	3.91
264.067	3.89
264.442	3.86
264.816	3.86
265.19	3.66
265.564	3.6
265.938	3.53
266.313	3.31
266.687	3.46
267.061	3.69
267.435	3.89
267.809	3.99
268.183	4.06
268.556	3.91
268.93	4.11
269.304	4.11
269.678	3.91
270.051	3.8
270.425	3.73
270.799	3.8
271.172	3.86
271.546	3.76
271.919	3.78
272.293	3.83
272.666	3.91
273.04	4.01
273.413	4
273.787	3.92
274.16	4.02
274.533	3.89
274.906	3.71
275.279	3.68
275.653	3.61
276.026	3.56
276.399	3.66
276.772	3.71
277.145	3.58
277.518	3.66
277.891	3.82
278.263	3.68
278.636	3.73
279.009	3.68
279.382	3.77
279.755	3.83
280.127	3.89
280.5	4
280.872	4.03
281.245	3.89
281.617	4.07
281.99	4.11
282.362	4.26
282.735	4.24
283.107	4.24
283.479	4.36
283.852	4.31
284.224	4.39
284.596	4.42
284.968	4.45
285.34	4.59
285.713	4.56
286.085	4.57
286.457	4.71
286.829	4.83
287.201	4.8
287.572	4.74
287.944	4.67
288.316	4.53
288.688	4.43
289.06	4.46
289.431	4.28
289.803	4.27
290.175	4.23
290.546	4.36
290.918	4.39
291.289	4.3
291.661	4.35
292.032	4.28
292.403	4.25
292.775	4.36
293.146	4.28
293.517	4.2
293.889	4.3
294.26	4.24
294.631	4.24
295.002	4.2
295.373	4.19
295.744	4.29
296.115	4.36
296.486	4.36
296.857	4.34
297.228	4.53
297.599	4.47
297.97	4.39
298.34	4.31
298.711	4.32
299.082	4.32
299.452	4.26
299.823	4.41
300.194	4.39
300.564	4.33
300.935	4.52
301.305	4.57
301.676	4.67
302.046	4.66
302.416	4.75
302.787	4.83
303.157	4.85
303.527	4.76
303.897	4.81
304.267	5
304.637	5.14
305.008	5.05
305.378	5.18
305.748	5.27
306.117	5.38
306.487	5.37
306.857	5.5
307.227	5.7
307.597	5.76
307.967	5.84
308.336	5.83
308.706	5.58
309.076	5.6
309.445	5.49
309.815	5.4
310.184	5.28
310.554	5.3
310.923	5.36
311.293	5.31
311.662	5.25
312.031	5.15
312.401	5.21
312.77	5.37
313.139	5.39
313.508	5.41
313.877	5.37
314.246	5.52
314.616	5.5
314.985	5.53
315.353	5.31
315.722	5.25
316.091	5.3
316.46	5.42
316.829	5.4
317.198	5.55
317.567	5.61
317.935	5.63
318.304	5.64
318.672	5.77
319.041	5.97
319.41	5.97
319.778	6.11
320.147	6.03
320.515	5.97
320.883	5.85
321.252	5.92
321.62	6.02
321.988	5.92
322.357	5.99
322.725	5.98
323.093	6.22
323.461	6.26
323.829	6.29
324.197	6.26
324.565	6.29
324.933	6.32
325.301	6.35
325.669	6.41
326.037	6.36
326.405	6.26
326.772	6.36
327.14	6.43
327.508	6.43
327.875	6.4
328.243	6.52
328.61	6.62
328.978	6.58
329.346	6.6
329.713	6.66
330.08	6.67
330.448	6.56
330.815	6.42
331.182	6.46
331.55	6.63
331.917	6.61
332.284	6.76
332.651	6.7
333.018	6.79
333.385	6.82
333.752	6.97
334.119	7.1
334.486	7.08
334.853	7.11
335.22	7.13
335.587	7.27
335.954	7.15
336.32	7.14
336.687	7.17
337.054	7.21
337.42	7.14
337.787	7.2
338.153	7.21
338.52	7.35
338.886	7.36
339.253	7.28
339.619	7.4
339.986	7.34
340.352	7.43
340.718	7.5
341.084	7.43
341.451	7.45
341.817	7.42
342.183	7.32
342.549	7.36
342.915	7.38
343.281	7.34
343.647	7.41
344.013	7.56
344.379	7.47
344.745	7.39
345.11	7.51
345.476	7.51
345.842	7.59
346.208	7.55
346.573	7.57
346.939	7.58
347.304	7.46
347.67	7.51
348.035	7.43
348.401	7.26
348.766	7.37
349.132	7.37
349.497	7.33
349.862	7.5
350.228	7.5
350.593	7.5
350.958	7.54
351.323	7.58
351.688	7.52
352.053	7.61
352.418	7.73
352.783	7.69
353.148	7.6
353.513	7.65
353.878	7.62
354.243	7.68
354.608	7.61
354.972	7.66
355.337	7.67
355.702	7.85
356.066	8.04
356.431	8.08
356.795	8.04
357.16	8.05
357.524	7.9
357.889	7.88
358.253	7.86
358.618	7.89
358.982	7.81
359.346	7.81
359.71	7.8
360.075	7.72
360.439	7.78
360.803	7.86
361.167	7.78
361.531	7.8
361.895	7.76
362.259	7.77
362.623	7.81
362.987	7.74
363.351	7.6
363.714	7.5
364.078	7.41
364.442	7.38
364.806	7.36
365.169	7.42
365.533	7.43
365.896	7.41
366.26	7.39
366.623	7.4
366.987	7.34
367.35	7.34
367.714	7.35
368.077	7.23
368.44	7.12
368.803	7.12
369.167	7.07
369.53	7.03
369.893	7.08
370.256	7.05
370.619	7.08
370.982	7.07
371.345	7.08
371.708	7.12
372.071	7.09
372.434	7.02
372.797	7
373.159	6.94
373.522	6.9
373.885	6.75
374.247	6.78
374.61	6.75
374.973	6.7
375.335	6.69
375.698	6.7
376.06	6.75
376.423	6.68
376.785	6.69
377.147	6.67
377.51	6.55
377.872	6.5
378.234	6.45
378.596	6.4
378.958	6.32
379.321	6.28
379.683	6.29
380.045	6.26
380.407	6.18
380.769	6.13
381.13	6.1
381.492	6.15
381.854	6.06
382.216	6.01
382.578	5.97
382.939	5.89
383.301	5.86
383.663	5.74
384.024	5.77
384.386	5.74
384.747	5.74
385.109	5.75
385.47	5.69
385.832	5.68
386.193	5.68
386.554	5.67
386.916	5.63
387.277	5.59
387.638	5.58
387.999	5.57
388.36	5.57
388.721	5.53
389.082	5.48
389.443	5.43
389.804	5.44
390.165	5.44
390.526	5.44
390.887	5.42
391.248	5.48
391.609	5.45
391.969	5.41
392.33	5.39
392.691	5.37
393.051	5.35
393.412	5.34
393.772	5.31
394.133	5.31
394.493	5.28
394.854	5.27
395.214	5.28
395.574	5.25
395.935	5.25
396.295	5.23
396.655	5.21
397.015	5.2
397.376	5.17
397.736	5.14
398.096	5.09
398.456	5.02
398.816	4.99
399.176	4.95
399.535	4.92
399.895	4.87
400.255	4.82
400.615	4.84
400.975	4.78
401.334	4.75
401.694	4.72
402.054	4.71
402.413	4.66
402.773	4.62
403.132	4.61
403.492	4.56
403.851	4.54
404.211	4.49
404.57	4.47
404.929	4.47
405.288	4.43
405.648	4.46
406.007	4.45
406.366	4.42
406.725	4.41
407.084	4.4
407.443	4.41
407.802	4.4
408.161	4.35
408.52	4.33
408.879	4.33
409.238	4.31
409.596	4.27
409.955	4.27
410.314	4.25
410.673	4.23
411.031	4.23
411.39	4.23
411.748	4.23
412.107	4.25
412.465	4.23
412.824	4.22
413.182	4.17
413.54	4.18
413.899	4.16
414.257	4.17
414.615	4.14
414.974	4.12
415.332	4.13
415.69	4.14
416.048	4.13
416.406	4.12
416.764	4.12
417.122	4.11
417.48	4.09
417.838	4.08
418.195	4.09
418.553	4.07
418.911	4.06
419.269	4.04
419.626	4.03
419.984	4.03
420.342	4.03
420.699	4.04
421.057	4.02
421.414	4
421.772	3.98
422.129	3.97
422.486	3.94
422.844	3.94
423.201	3.91
423.558	3.91
423.915	3.9
424.273	3.87
424.63	3.86
424.987	3.84
425.344	3.83
425.701	3.8
426.058	3.79
426.415	3.8
426.772	3.8
427.128	3.77
427.485	3.75
427.842	3.73
428.199	3.71
428.555	3.71
428.912	3.73
429.269	3.74
429.625	3.73
429.982	3.75
430.338	3.74
430.695	3.77
431.051	3.75
431.407	3.74
431.764	3.74
432.12	3.76
432.476	3.76
432.832	3.76
433.189	3.76
433.545	3.76
433.901	3.75
434.257	3.76
434.613	3.78
434.969	3.78
435.325	3.79
435.681	3.79
436.036	3.79
436.392	3.77
436.748	3.76
437.104	3.77
437.459	3.76
437.815	3.76
438.171	3.75
438.526	3.77
438.882	3.77
439.237	3.77
439.593	3.77
439.948	3.77
440.304	3.76
440.659	3.76
441.014	3.76
441.369	3.73
441.725	3.72
442.08	3.71
442.435	3.72
442.79	3.71
443.145	3.72
443.5	3.72
443.855	3.72
444.21	3.72
444.565	3.72
444.92	3.73
445.275	3.73
445.629	3.73
445.984	3.71
446.339	3.7
446.693	3.68
447.048	3.67
447.403	3.67
447.757	3.67
448.112	3.66
448.466	3.65
448.82	3.67
449.175	3.68
449.529	3.67
449.883	3.66
450.238	3.64
450.592	3.62
450.946	3.6
451.3	3.59
451.654	3.61
452.008	3.59
452.362	3.58
452.716	3.57
453.07	3.55
453.424	3.56
453.778	3.56
454.132	3.55
454.486	3.55
454.839	3.55
455.193	3.56
455.547	3.58
455.9	3.58
456.254	3.58
456.607	3.57
456.961	3.56
457.314	3.56
457.668	3.57
458.021	3.57
458.375	3.57
458.728	3.57
459.081	3.55
459.434	3.55
459.787	3.56
460.141	3.55
460.494	3.54
460.847	3.55
461.2	3.56
461.553	3.59
461.906	3.6
462.259	3.59
462.611	3.59
462.964	3.6
463.317	3.61
463.67	3.62
464.022	3.6
464.375	3.62
464.728	3.62
465.08	3.64
465.433	3.64
465.785	3.65
466.138	3.65
466.49	3.66
466.843	3.66
467.195	3.66
467.547	3.7
467.899	3.71
468.252	3.71
468.604	3.72
468.956	3.72
469.308	3.71
469.66	3.73
470.012	3.74
470.364	3.73
470.716	3.72
471.068	3.72
471.42	3.75
471.772	3.79
472.123	3.79
472.475	3.8
472.827	3.8
473.178	3.8
473.53	3.8
473.882	3.83
474.233	3.85
474.585	3.85
474.936	3.82
475.288	3.82
475.639	3.84
475.99	3.81
476.342	3.81
476.693	3.82
477.044	3.81
477.395	3.81
477.746	3.8
478.097	3.81
478.448	3.8
478.8	3.78
479.15	3.76
479.501	3.77
479.852	3.76
480.203	3.75
480.554	3.75
480.905	3.77
481.255	3.75
481.606	3.75
481.957	3.75
482.307	3.75
482.658	3.74
483.009	3.73
483.359	3.73
483.709	3.74
484.06	3.73
484.41	3.74
484.761	3.74
485.111	3.74
485.461	3.74
485.811	3.74
486.162	3.74
486.512	3.74
486.862	3.73
487.212	3.73
487.562	3.74
487.912	3.73
488.262	3.72
488.612	3.72
488.961	3.71
489.311	3.72
489.661	3.72
490.011	3.72
490.36	3.72
490.71	3.73
491.06	3.72
491.409	3.72
491.759	3.71
492.108	3.7
492.458	3.71
492.807	3.71
493.157	3.73
493.506	3.73
493.855	3.74
494.204	3.75
494.554	3.75
494.903	3.74
495.252	3.76
495.601	3.78
495.95	3.8
496.299	3.82
496.648	3.8
496.997	3.82
497.346	3.84
497.695	3.87
498.043	3.88
498.392	3.9
498.741	3.93
499.09	3.94
499.438	3.97
499.787	3.96
500.135	4.01
500.484	4.01
500.832	4.04
501.181	4.07
501.529	4.08
501.878	4.13
502.226	4.15
502.574	4.18
502.923	4.2
503.271	4.23
503.619	4.28
503.967	4.34
504.315	4.37
504.663	4.41
505.011	4.44
505.359	4.48
505.707	4.54
506.055	4.56
506.403	4.62
506.751	4.66
507.098	4.71
507.446	4.76
507.794	4.81
508.141	4.86
508.489	4.9
508.837	4.97
509.184	5.02
509.531	5.07
509.879	5.12
510.226	5.17
510.574	5.21
510.921	5.25
511.268	5.31
511.616	5.36
511.963	5.42
512.31	5.46
512.657	5.52
513.004	5.55
513.351	5.63
513.698	5.68
514.045	5.75
514.392	5.82
514.739	5.86
515.086	5.93
515.432	5.97
515.779	6.02
516.126	6.11
516.473	6.17
516.819	6.24
517.166	6.29
517.512	6.34
517.859	6.41
518.205	6.46
518.552	6.53
518.898	6.59
519.245	6.63
519.591	6.71
519.937	6.73
520.283	6.81
520.629	6.88
520.976	6.95
521.322	7.01
521.668	7.07
522.014	7.16
522.36	7.22
522.706	7.33
523.052	7.43
523.398	7.49
523.743	7.58
524.089	7.69
524.435	7.77
524.781	7.87
525.126	7.96
525.472	8.04
525.817	8.11
526.163	8.18
526.509	8.27
526.854	8.32
527.199	8.4
527.545	8.47
527.89	8.52
528.235	8.59
528.581	8.67
528.926	8.74
529.271	8.8
529.616	8.88
529.961	8.95
530.306	9.02
530.651	9.11
530.996	9.21
531.341	9.31
531.686	9.42
532.031	9.52
532.376	9.63
532.721	9.76
533.065	9.88
533.41	10.01
533.755	10.11
534.099	10.28
534.444	10.42
534.788	10.56
535.133	10.71
535.477	10.87
535.822	11.02
536.166	11.19
536.51	11.39
536.855	11.59
537.199	11.81
537.543	12.05
537.887	12.27
538.231	12.5
538.576	12.72
538.92	12.94
539.264	13.13
539.608	13.35
539.951	13.54
540.295	13.73
540.639	13.91
540.983	14.11
541.327	14.29
541.671	14.48
542.014	14.67
542.358	14.87
542.701	15.06
543.045	15.27
543.389	15.48
543.732	15.67
544.075	15.89
544.419	16.1
544.762	16.31
545.105	16.55
545.449	16.77
545.792	17.03
546.135	17.32
546.478	17.63
546.821	17.94
547.165	18.23
547.508	18.57
547.851	18.91
548.194	19.23
548.536	19.54
548.879	19.9
549.222	20.25
549.565	20.65
549.908	21.02
550.25	21.37
550.593	21.76
550.936	22.17
551.278	22.54
551.621	22.93
551.963	23.34
552.306	23.75
552.648	24.11
552.991	24.54
553.333	24.87
553.675	25.24
554.017	25.63
554.36	26.01
554.702	26.4
555.044	26.76
555.386	27.15
555.728	27.51
556.07	27.88
556.412	28.23
556.754	28.54
557.096	28.9
557.438	29.31
557.78	29.67
558.121	30.03
558.463	30.38
558.805	30.78
559.147	31.15
559.488	31.49
559.83	31.87
560.171	32.22
560.513	32.62
560.854	32.97
561.196	33.3
561.537	33.66
561.878	33.99
562.22	34.35
562.561	34.67
562.902	35.02
563.243	35.31
563.584	35.66
563.925	36.02
564.266	36.3
564.607	36.6
564.948	36.94
565.289	37.27
565.63	37.58
565.971	37.86
566.312	38.1
566.653	38.41
566.993	38.72
567.334	38.97
567.675	39.19
568.015	39.47
568.356	39.78
568.696	40.02
569.037	40.29
569.377	40.54
569.718	40.83
570.058	41.09
570.398	41.37
570.739	41.62
571.079	41.87
571.419	42.15
571.759	42.37
572.099	42.58
572.439	42.78
572.779	42.99
573.119	43.22
573.459	43.46
573.799	43.64
574.139	43.82
574.479	44.08
574.819	44.35
575.158	44.56
575.498	44.7
575.838	44.84
576.177	45.04
576.517	45.27
576.856	45.47
577.196	45.67
577.535	45.91
577.875	46.12
578.214	46.27
578.553	46.5
578.893	46.69
579.232	46.86
579.571	47.07
579.91	47.24
580.25	47.36
580.589	47.52
580.928	47.74
581.267	47.93
581.606	48.01
581.945	48.14
582.283	48.31
582.622	48.54
582.961	48.79
583.3	48.97
583.639	49.15
583.977	49.37
584.316	49.45
584.654	49.57
584.993	49.63
585.332	49.79
585.67	49.84
586.008	49.99
586.347	50.17
586.685	50.28
587.024	50.47
587.362	50.67
587.7	50.82
588.038	50.97
588.376	51.08
588.715	51.24
589.053	51.34
589.391	51.49
589.729	51.61
590.067	51.75
590.404	51.84
590.742	51.86
591.08	51.98
591.418	52.12
591.756	52.23
592.093	52.46
592.431	52.49
592.769	52.64
593.106	52.78
593.444	52.87
593.781	52.97
594.119	53.03
594.456	53.07
594.793	53.2
595.131	53.26
595.468	53.34
595.805	53.4
596.143	53.46
596.48	53.51
596.817	53.6
597.154	53.69
597.491	53.76
597.828	53.87
598.165	53.89
598.502	54.04
598.839	54.19
599.176	54.17
599.512	54.34
599.849	54.46
600.186	54.55
600.523	54.71
600.859	54.86
601.196	54.98
601.532	55.03
601.869	55.04
602.205	55.18
602.542	55.24
602.878	55.24
603.215	55.36
603.551	55.47
603.887	55.51
604.223	55.45
604.56	55.53
604.896	55.59
605.232	55.62
605.568	55.63
605.904	55.62
606.24	55.76
606.576	55.81
606.912	55.9
607.248	55.98
607.583	55.96
607.919	55.98
608.255	55.99
608.591	56.06
608.926	56.14
609.262	56.13
609.597	56.19
609.933	56.31
610.268	56.33
610.604	56.33
610.939	56.35
611.275	56.46
611.61	56.45
611.945	56.52
612.281	56.63
612.616	56.77
612.951	56.83
613.286	56.87
613.621	56.91
613.956	56.9
614.291	56.9
614.626	57
614.961	57.09
615.296	57.3
615.631	57.43
615.966	57.57
616.3	57.59
616.635	57.67
616.97	57.79
617.304	57.9
617.639	57.93
617.973	57.97
618.308	58.02
618.642	58.09
618.977	58.09
619.311	58.1
619.646	58.06
619.98	58.15
620.314	58.18
620.648	58.31
620.983	58.39
621.317	58.38
621.651	58.44
621.985	58.51
622.319	58.36
622.653	58.37
622.987	58.31
623.321	58.47
623.655	58.52
623.988	58.62
624.322	58.66
624.656	58.72
624.99	58.76
625.323	58.79
625.657	58.88
625.99	58.95
626.324	58.93
626.657	58.92
626.991	58.97
627.324	58.95
627.658	58.94
627.991	59.04
628.324	59.17
628.657	59.15
628.991	59.12
629.324	59.19
629.657	59.29
629.99	59.35
630.323	59.38
630.656	59.41
630.989	59.37
631.322	59.37
631.655	59.32
631.987	59.38
632.32	59.49
632.653	59.51
632.986	59.52
633.318	59.52
633.651	59.64
633.984	59.64
634.316	59.66
634.649	59.78
634.981	59.72
635.313	59.75
635.646	59.76
635.978	59.83
636.31	59.83
636.643	59.79
636.975	59.75
637.307	59.71
637.639	59.77
637.971	59.81
638.303	59.85
638.635	60.02
638.967	60.08
639.299	60.07
639.631	59.99
639.963	59.92
640.295	60.06
640.626	60.09
640.958	60.11
641.29	60.23
641.621	60.19
641.953	60.12
642.285	60.05
642.616	60.03
642.948	60.04
643.279	60.28
643.61	60.34
643.942	60.41
644.273	60.44
644.604	60.46
644.936	60.52
645.267	60.59
645.598	60.45
645.929	60.37
646.26	60.45
646.591	60.57
646.922	60.69
647.253	60.7
647.584	60.55
647.915	60.46
648.245	60.42
648.576	60.43
648.907	60.53
649.238	60.61
649.568	60.62
649.899	60.63
650.229	60.56
650.56	60.6
650.89	60.69
651.221	60.66
651.551	60.65
651.882	60.6
652.212	60.45
652.542	60.55
652.872	60.69
653.203	60.81
653.533	60.86
653.863	60.9
654.193	60.91
654.523	61.04
654.853	61.18
655.183	61.09
655.513	61.09
655.843	61.19
656.172	61.22
656.502	61.23
656.832	61.22
657.162	61.25
657.491	61.26
657.821	61.26
658.15	61.34
658.48	61.37
658.809	61.39
659.139	61.57
659.468	61.64
659.798	61.67
660.127	61.54
660.456	61.46
660.785	61.49
661.115	61.58
661.444	61.63
661.773	61.55
662.102	61.79
662.431	61.8
662.76	61.77
663.089	61.78
663.418	61.79
663.747	61.79
664.076	61.8
664.404	61.79
664.733	61.66
665.062	61.63
665.39	61.58
665.719	61.6
666.048	61.49
666.376	61.46
666.705	61.41
667.033	61.65
667.362	61.71
667.69	61.75
668.018	61.69
668.347	61.77
668.675	61.94
669.003	62
669.331	61.99
669.659	61.99
