Data from BA28467_Reflection_00010.txt Node
Date: Mon Nov 18 15:33:20 EST 2019
User: vgr7
Spectrometer: USB2G7710
Scans to average: 3
Trigger mode: 4
Integration Time (sec): 2.000000E-2
Electric dark correction enabled: true
Boxcar width: 10
XAxis mode: Wavelengths
Number of Pixels in Spectrum: 2048
>>>>>Begin Spectral Data<<<<<
177.721	29.17
178.105	-16.75
178.488	7.83
178.871	-143.64
179.254	321.11
179.636	-22.53
180.019	2024.05
180.402	130
180.785	-2368.09
181.168	-737.84
181.55	-549.35
181.933	240.46
182.316	202.79
182.698	125.02
183.081	131.8
183.463	252.96
183.846	219.89
184.228	86.16
184.611	185.11
184.993	154.05
185.376	-411.01
185.758	-686.61
186.14	-623.19
186.522	-266.03
186.904	-433
187.287	-2800.76
187.669	-705.5
188.051	1137.9
188.433	-591.4
188.815	-203.88
189.197	-364.15
189.579	-276.59
189.961	-231.67
190.342	-133.35
190.724	-82.03
191.106	-78.93
191.488	-42.67
191.869	-41.62
192.251	-78.13
192.633	-85.28
193.014	-106.85
193.396	-151.88
193.777	-99.81
194.159	-55.45
194.54	-3.72
194.922	9.56
195.303	4.34
195.684	47.73
196.065	24.37
196.447	37.97
196.828	-248.75
197.209	-37.61
197.59	-29.93
197.971	273.91
198.352	-70.21
198.733	-17.65
199.114	-107.02
199.495	-10.9
199.876	-7.41
200.257	235.46
200.638	72.05
201.018	36.03
201.399	27.4
201.78	15.67
202.16	-17.47
202.541	-57.7
202.922	-87.08
203.302	-58.56
203.683	-51.79
204.063	-219.81
204.444	-19.91
204.824	48.67
205.204	119.42
205.585	29.02
205.965	-18.21
206.345	-74.59
206.725	-119.31
207.106	-273.3
207.486	-309.77
207.866	-318.81
208.246	-1191.83
208.626	1406.53
209.006	781.69
209.386	257.62
209.766	391.35
210.145	3694.94
210.525	-2016.79
210.905	-512.74
211.285	-218.49
211.664	-308.24
212.044	-152.86
212.424	-114.64
212.803	-172.19
213.183	-123.51
213.562	-96.66
213.942	-54.12
214.321	-36.96
214.701	-49.29
215.08	-43.61
215.459	-45.1
215.838	-13.07
216.218	-14.16
216.597	-14.72
216.976	-4.82
217.355	22.32
217.734	35.66
218.113	60.77
218.492	75.28
218.871	94.67
219.25	96.84
219.629	75.37
220.008	69.27
220.387	55.35
220.766	50.11
221.144	21.47
221.523	27.69
221.902	17.37
222.28	11.78
222.659	8.12
223.037	10.11
223.416	-8.34
223.794	1.44
224.173	-5.65
224.551	1.19
224.929	-12.21
225.308	-9.75
225.686	-11.77
226.064	-12.5
226.442	-10.26
226.821	-5.31
227.199	-10.02
227.577	-4.99
227.955	0.8
228.333	-1.06
228.711	1.03
229.089	10.13
229.467	7.87
229.845	8.55
230.222	6.49
230.6	7.01
230.978	9.22
231.356	9.73
231.733	9.87
232.111	10.84
232.488	11.4
232.866	12.23
233.243	13.52
233.621	12.74
233.998	14.56
234.376	12.74
234.753	11.98
235.13	13
235.508	10.63
235.885	9.09
236.262	9.79
236.639	8.99
237.016	7.41
237.393	8.99
237.77	7.15
238.147	8.32
238.524	7.56
238.901	7.91
239.278	7.99
239.655	6.62
240.032	6.42
240.409	5.35
240.785	5.23
241.162	4.75
241.539	5.01
241.915	4.9
242.292	4.61
242.668	4.62
243.045	4.99
243.421	5.04
243.798	5.05
244.174	4.76
244.551	4.55
244.927	4.21
245.303	3.94
245.679	4.17
246.056	3.81
246.432	3.93
246.808	3.74
247.184	3.38
247.56	3.51
247.936	3.27
248.312	3.53
248.688	3.44
249.064	3.5
249.44	3.39
249.815	3.34
250.191	3.65
250.567	3.55
250.943	3.21
251.318	3.16
251.694	2.77
252.069	2.85
252.445	2.76
252.82	2.77
253.196	2.62
253.571	2.63
253.947	2.94
254.322	3.04
254.697	2.69
255.073	2.86
255.448	2.92
255.823	3.19
256.198	3.01
256.573	3.01
256.948	3.14
257.323	3.34
257.698	3.38
258.073	3.17
258.448	3.23
258.823	3.34
259.198	3.38
259.573	3.63
259.948	3.59
260.322	3.68
260.697	3.59
261.072	3.62
261.446	3.56
261.821	3.52
262.195	3.59
262.57	3.59
262.944	3.6
263.319	3.43
263.693	3.35
264.067	3.28
264.442	3.47
264.816	3.37
265.19	3.28
265.564	3.18
265.938	3.32
266.313	3.38
266.687	3.38
267.061	3.38
267.435	3.17
267.809	3.19
268.183	3.1
268.556	3.08
268.93	3.14
269.304	3.12
269.678	3.07
270.051	3.01
270.425	3.09
270.799	3.13
271.172	3.34
271.546	3.36
271.919	3.33
272.293	3.33
272.666	3.33
273.04	3.32
273.413	3.33
273.787	3.31
274.16	3.12
274.533	3.05
274.906	2.97
275.279	3.14
275.653	3.23
276.026	3.26
276.399	3.36
276.772	3.39
277.145	3.39
277.518	3.46
277.891	3.37
278.263	3.35
278.636	3.39
279.009	3.28
279.382	3.47
279.755	3.38
280.127	3.41
280.5	3.53
280.872	3.69
281.245	3.67
281.617	3.72
281.99	3.87
282.362	3.94
282.735	3.92
283.107	3.88
283.479	3.9
283.852	3.85
284.224	3.83
284.596	3.79
284.968	3.72
285.34	3.62
285.713	3.68
286.085	3.71
286.457	3.8
286.829	3.83
287.201	3.8
287.572	3.96
287.944	3.91
288.316	3.83
288.688	3.77
289.06	3.75
289.431	3.69
289.803	3.73
290.175	3.65
290.546	3.76
290.918	3.74
291.289	3.66
291.661	3.75
292.032	3.81
292.403	3.82
292.775	3.86
293.146	3.87
293.517	3.95
293.889	4.07
294.26	4.07
294.631	4.14
295.002	4.21
295.373	4.27
295.744	4.28
296.115	4.23
296.486	4.13
296.857	4.12
297.228	4.18
297.599	4.12
297.97	4.22
298.34	4.3
298.711	4.52
299.082	4.56
299.452	4.66
299.823	4.74
300.194	4.7
300.564	4.74
300.935	4.81
301.305	4.71
301.676	4.67
302.046	4.68
302.416	4.76
302.787	4.77
303.157	4.71
303.527	4.88
303.897	5.03
304.267	5.16
304.637	5.27
305.008	5.35
305.378	5.54
305.748	5.56
306.117	5.62
306.487	5.52
306.857	5.53
307.227	5.56
307.597	5.62
307.967	5.73
308.336	5.74
308.706	5.86
309.076	6
309.445	6.15
309.815	6.12
310.184	5.97
310.554	6.04
310.923	6.22
311.293	6.12
311.662	6.14
312.031	6.18
312.401	6.26
312.77	6.3
313.139	6.28
313.508	6.34
313.877	6.21
314.246	6.3
314.616	6.29
314.985	6.38
315.353	6.3
315.722	6.36
316.091	6.45
316.46	6.48
316.829	6.52
317.198	6.45
317.567	6.53
317.935	6.8
318.304	6.77
318.672	6.74
319.041	6.84
319.41	6.84
319.778	6.77
320.147	6.78
320.515	6.65
320.883	6.65
321.252	6.72
321.62	6.83
321.988	6.8
322.357	6.83
322.725	6.83
323.093	6.91
323.461	6.96
323.829	7.02
324.197	7.17
324.565	7.11
324.933	7.19
325.301	7.16
325.669	7.17
326.037	7.21
326.405	7.24
326.772	7.32
327.14	7.4
327.508	7.58
327.875	7.62
328.243	7.71
328.61	7.8
328.978	7.89
329.346	8.01
329.713	8.02
330.08	8.1
330.448	8.04
330.815	8.06
331.182	8.07
331.55	8.16
331.917	8.07
332.284	8.29
332.651	8.25
333.018	8.4
333.385	8.34
333.752	8.44
334.119	8.6
334.486	8.52
334.853	8.48
335.22	8.5
335.587	8.56
335.954	8.51
336.32	8.43
336.687	8.47
337.054	8.41
337.42	8.43
337.787	8.51
338.153	8.57
338.52	8.61
338.886	8.64
339.253	8.66
339.619	8.66
339.986	8.6
340.352	8.64
340.718	8.54
341.084	8.58
341.451	8.55
341.817	8.46
342.183	8.43
342.549	8.43
342.915	8.54
343.281	8.51
343.647	8.58
344.013	8.6
344.379	8.48
344.745	8.6
345.11	8.73
345.476	8.79
345.842	8.82
346.208	8.84
346.573	8.86
346.939	8.94
347.304	8.93
347.67	8.91
348.035	9.02
348.401	9.08
348.766	9.06
349.132	8.98
349.497	8.98
349.862	9.07
350.228	9.17
350.593	9.13
350.958	9.12
351.323	9.18
351.688	9.32
352.053	9.41
352.418	9.29
352.783	9.25
353.148	9.15
353.513	9.22
353.878	9.12
354.243	9.1
354.608	9.01
354.972	9.01
355.337	9.1
355.702	9.11
356.066	9.11
356.431	9.08
356.795	9.13
357.16	9.08
357.524	8.98
357.889	8.89
358.253	8.8
358.618	8.8
358.982	8.75
359.346	8.67
359.71	8.66
360.075	8.73
360.439	8.67
360.803	8.64
361.167	8.54
361.531	8.54
361.895	8.49
362.259	8.45
362.623	8.44
362.987	8.4
363.351	8.32
363.714	8.32
364.078	8.31
364.442	8.24
364.806	8.22
365.169	8.29
365.533	8.23
365.896	8.16
366.26	8.15
366.623	8.11
366.987	7.99
367.35	7.93
367.714	7.85
368.077	7.88
368.44	7.81
368.803	7.83
369.167	7.79
369.53	7.72
369.893	7.75
370.256	7.69
370.619	7.64
370.982	7.55
371.345	7.47
371.708	7.47
372.071	7.42
372.434	7.37
372.797	7.27
373.159	7.25
373.522	7.27
373.885	7.17
374.247	7.13
374.61	7.17
374.973	7.12
375.335	7.05
375.698	6.98
376.06	6.99
376.423	6.93
376.785	6.91
377.147	6.91
377.51	6.85
377.872	6.81
378.234	6.72
378.596	6.72
378.958	6.72
379.321	6.65
379.683	6.63
380.045	6.61
380.407	6.55
380.769	6.52
381.13	6.47
381.492	6.48
381.854	6.48
382.216	6.37
382.578	6.36
382.939	6.35
383.301	6.29
383.663	6.23
384.024	6.16
384.386	6.16
384.747	6.1
385.109	6.08
385.47	6.05
385.832	6.04
386.193	6
386.554	5.95
386.916	5.95
387.277	5.94
387.638	5.92
387.999	5.88
388.36	5.85
388.721	5.79
389.082	5.75
389.443	5.71
389.804	5.71
390.165	5.64
390.526	5.59
390.887	5.56
391.248	5.55
391.609	5.51
391.969	5.44
392.33	5.42
392.691	5.39
393.051	5.4
393.412	5.39
393.772	5.31
394.133	5.26
394.493	5.2
394.854	5.17
395.214	5.08
395.574	5.08
395.935	5.03
396.295	5.06
396.655	5
397.015	4.97
397.376	4.94
397.736	4.89
398.096	4.86
398.456	4.81
398.816	4.79
399.176	4.78
399.535	4.77
399.895	4.74
400.255	4.72
400.615	4.66
400.975	4.6
401.334	4.59
401.694	4.57
402.054	4.54
402.413	4.51
402.773	4.51
403.132	4.46
403.492	4.46
403.851	4.39
404.211	4.41
404.57	4.38
404.929	4.37
405.288	4.39
405.648	4.39
406.007	4.39
406.366	4.38
406.725	4.38
407.084	4.36
407.443	4.34
407.802	4.35
408.161	4.33
408.52	4.31
408.879	4.32
409.238	4.31
409.596	4.33
409.955	4.31
410.314	4.29
410.673	4.29
411.031	4.27
411.39	4.26
411.748	4.27
412.107	4.26
412.465	4.22
412.824	4.21
413.182	4.17
413.54	4.14
413.899	4.12
414.257	4.09
414.615	4.04
414.974	4.05
415.332	4
415.69	3.97
416.048	3.95
416.406	3.93
416.764	3.92
417.122	3.89
417.48	3.87
417.838	3.87
418.195	3.86
418.553	3.84
418.911	3.82
419.269	3.78
419.626	3.76
419.984	3.74
420.342	3.72
420.699	3.71
421.057	3.69
421.414	3.68
421.772	3.68
422.129	3.67
422.486	3.65
422.844	3.65
423.201	3.64
423.558	3.63
423.915	3.63
424.273	3.6
424.63	3.57
424.987	3.57
425.344	3.57
425.701	3.56
426.058	3.56
426.415	3.56
426.772	3.54
427.128	3.54
427.485	3.52
427.842	3.53
428.199	3.51
428.555	3.53
428.912	3.52
429.269	3.52
429.625	3.53
429.982	3.51
430.338	3.48
430.695	3.49
431.051	3.48
431.407	3.48
431.764	3.49
432.12	3.5
432.476	3.5
432.832	3.49
433.189	3.48
433.545	3.48
433.901	3.45
434.257	3.46
434.613	3.46
434.969	3.49
435.325	3.48
435.681	3.5
436.036	3.48
436.392	3.45
436.748	3.45
437.104	3.43
437.459	3.42
437.815	3.43
438.171	3.42
438.526	3.43
438.882	3.44
439.237	3.46
439.593	3.49
439.948	3.49
440.304	3.5
440.659	3.48
441.014	3.48
441.369	3.49
441.725	3.48
442.08	3.47
442.435	3.46
442.79	3.45
443.145	3.44
443.5	3.44
443.855	3.44
444.21	3.42
444.565	3.42
444.92	3.44
445.275	3.44
445.629	3.43
445.984	3.41
446.339	3.39
446.693	3.37
447.048	3.33
447.403	3.3
447.757	3.29
448.112	3.29
448.466	3.27
448.82	3.27
449.175	3.27
449.529	3.26
449.883	3.27
450.238	3.25
450.592	3.26
450.946	3.25
451.3	3.24
451.654	3.26
452.008	3.26
452.362	3.24
452.716	3.23
453.07	3.24
453.424	3.25
453.778	3.25
454.132	3.24
454.486	3.24
454.839	3.25
455.193	3.24
455.547	3.24
455.9	3.25
456.254	3.25
456.607	3.25
456.961	3.26
457.314	3.25
457.668	3.26
458.021	3.25
458.375	3.24
458.728	3.26
459.081	3.27
459.434	3.27
459.787	3.28
460.141	3.28
460.494	3.29
460.847	3.28
461.2	3.29
461.553	3.31
461.906	3.33
462.259	3.34
462.611	3.37
462.964	3.38
463.317	3.39
463.67	3.4
464.022	3.42
464.375	3.41
464.728	3.42
465.08	3.44
465.433	3.44
465.785	3.46
466.138	3.47
466.49	3.46
466.843	3.47
467.195	3.49
467.547	3.51
467.899	3.51
468.252	3.52
468.604	3.51
468.956	3.52
469.308	3.51
469.66	3.51
470.012	3.5
470.364	3.51
470.716	3.51
471.068	3.5
471.42	3.49
471.772	3.51
472.123	3.53
472.475	3.54
472.827	3.56
473.178	3.56
473.53	3.53
473.882	3.54
474.233	3.55
474.585	3.52
474.936	3.51
475.288	3.53
475.639	3.53
475.99	3.55
476.342	3.54
476.693	3.55
477.044	3.55
477.395	3.55
477.746	3.53
478.097	3.52
478.448	3.51
478.8	3.5
479.15	3.46
479.501	3.45
479.852	3.44
480.203	3.43
480.554	3.43
480.905	3.44
481.255	3.45
481.606	3.44
481.957	3.46
482.307	3.46
482.658	3.45
483.009	3.45
483.359	3.46
483.709	3.46
484.06	3.46
484.41	3.47
484.761	3.47
485.111	3.49
485.461	3.5
485.811	3.5
486.162	3.51
486.512	3.54
486.862	3.54
487.212	3.55
487.562	3.56
487.912	3.56
488.262	3.58
488.612	3.57
488.961	3.59
489.311	3.59
489.661	3.6
490.011	3.62
490.36	3.62
490.71	3.62
491.06	3.64
491.409	3.65
491.759	3.66
492.108	3.66
492.458	3.67
492.807	3.68
493.157	3.69
493.506	3.7
493.855	3.71
494.204	3.72
494.554	3.74
494.903	3.76
495.252	3.78
495.601	3.8
495.95	3.82
496.299	3.83
496.648	3.85
496.997	3.86
497.346	3.89
497.695	3.92
498.043	3.96
498.392	3.97
498.741	4
499.09	4.03
499.438	4.08
499.787	4.11
500.135	4.17
500.484	4.2
500.832	4.24
501.181	4.29
501.529	4.32
501.878	4.38
502.226	4.42
502.574	4.47
502.923	4.49
503.271	4.56
503.619	4.6
503.967	4.66
504.315	4.71
504.663	4.74
505.011	4.78
505.359	4.81
505.707	4.9
506.055	4.96
506.403	5.02
506.751	5.07
507.098	5.15
507.446	5.18
507.794	5.22
508.141	5.28
508.489	5.33
508.837	5.39
509.184	5.45
509.531	5.52
509.879	5.59
510.226	5.69
510.574	5.75
510.921	5.82
511.268	5.89
511.616	5.96
511.963	6.05
512.31	6.14
512.657	6.23
513.004	6.31
513.351	6.38
513.698	6.44
514.045	6.52
514.392	6.58
514.739	6.68
515.086	6.8
515.432	6.9
515.779	6.97
516.126	7.04
516.473	7.12
516.819	7.21
517.166	7.27
517.512	7.35
517.859	7.41
518.205	7.49
518.552	7.59
518.898	7.66
519.245	7.72
519.591	7.81
519.937	7.87
520.283	7.95
520.629	8.05
520.976	8.15
521.322	8.29
521.668	8.39
522.014	8.48
522.36	8.59
522.706	8.7
523.052	8.84
523.398	9.02
523.743	9.15
524.089	9.26
524.435	9.41
524.781	9.54
525.126	9.67
525.472	9.79
525.817	9.9
526.163	10.01
526.509	10.12
526.854	10.21
527.199	10.3
527.545	10.37
527.89	10.46
528.235	10.54
528.581	10.62
528.926	10.71
529.271	10.8
529.616	10.88
529.961	10.98
530.306	11.09
530.651	11.18
530.996	11.29
531.341	11.41
531.686	11.54
532.031	11.67
532.376	11.78
532.721	11.92
533.065	12.07
533.41	12.2
533.755	12.35
534.099	12.5
534.444	12.66
534.788	12.85
535.133	13.02
535.477	13.2
535.822	13.36
536.166	13.58
536.51	13.81
536.855	14.05
537.199	14.28
537.543	14.52
537.887	14.79
538.231	15.02
538.576	15.27
538.92	15.51
539.264	15.75
539.608	15.99
539.951	16.2
540.295	16.4
540.639	16.61
540.983	16.82
541.327	16.99
541.671	17.18
542.014	17.37
542.358	17.55
542.701	17.76
543.045	17.99
543.389	18.19
543.732	18.38
544.075	18.59
544.419	18.81
544.762	19.04
545.105	19.26
545.449	19.51
545.792	19.74
546.135	20
546.478	20.28
546.821	20.58
547.165	20.88
547.508	21.2
547.851	21.52
548.194	21.78
548.536	22.11
548.879	22.43
549.222	22.74
549.565	23.07
549.908	23.41
550.25	23.71
550.593	24.05
550.936	24.38
551.278	24.71
551.621	25.04
551.963	25.36
552.306	25.65
552.648	25.95
552.991	26.28
553.333	26.61
553.675	26.88
554.017	27.21
554.36	27.52
554.702	27.79
555.044	28.12
555.386	28.43
555.728	28.77
556.07	29.08
556.412	29.39
556.754	29.7
557.096	30.01
557.438	30.32
557.78	30.62
558.121	30.91
558.463	31.21
558.805	31.48
559.147	31.76
559.488	32.13
559.83	32.45
560.171	32.76
560.513	33.07
560.854	33.41
561.196	33.67
561.537	33.92
561.878	34.23
562.22	34.48
562.561	34.79
562.902	35.03
563.243	35.28
563.584	35.52
563.925	35.73
564.266	35.9
564.607	36.14
564.948	36.4
565.289	36.63
565.63	36.83
565.971	37.06
566.312	37.28
566.653	37.48
566.993	37.68
567.334	37.96
567.675	38.17
568.015	38.34
568.356	38.53
568.696	38.76
569.037	38.92
569.377	39.08
569.718	39.24
570.058	39.53
570.398	39.75
570.739	39.96
571.079	40.19
571.419	40.45
571.759	40.65
572.099	40.76
572.439	40.95
572.779	41.13
573.119	41.31
573.459	41.51
573.799	41.66
574.139	41.83
574.479	41.93
574.819	42.06
575.158	42.23
575.498	42.39
575.838	42.58
576.177	42.73
576.517	42.91
576.856	43.07
577.196	43.18
577.535	43.34
577.875	43.52
578.214	43.64
578.553	43.8
578.893	43.89
579.232	44.06
579.571	44.19
579.91	44.35
580.25	44.46
580.589	44.55
580.928	44.74
581.267	44.91
581.606	45.06
581.945	45.2
582.283	45.33
582.622	45.49
582.961	45.56
583.3	45.72
583.639	45.82
583.977	45.96
584.316	46.02
584.654	46.1
584.993	46.18
585.332	46.31
585.67	46.38
586.008	46.55
586.347	46.69
586.685	46.85
587.024	46.95
587.362	47.05
587.7	47.18
588.038	47.25
588.376	47.38
588.715	47.45
589.053	47.56
589.391	47.55
589.729	47.59
590.067	47.69
590.404	47.74
590.742	47.86
591.08	47.92
591.418	48.05
591.756	48.13
592.093	48.22
592.431	48.27
592.769	48.34
593.106	48.44
593.444	48.56
593.781	48.64
594.119	48.72
594.456	48.82
594.793	48.84
595.131	48.88
595.468	48.84
595.805	48.9
596.143	48.92
596.48	49.03
596.817	49.15
597.154	49.2
597.491	49.3
597.828	49.3
598.165	49.36
598.502	49.41
598.839	49.49
599.176	49.52
599.512	49.57
599.849	49.68
600.186	49.67
600.523	49.69
600.859	49.67
601.196	49.78
601.532	49.81
601.869	49.88
602.205	49.86
602.542	50
602.878	50
603.215	50.06
603.551	50.11
603.887	50.1
604.223	50.16
604.56	50.17
604.896	50.19
605.232	50.24
605.568	50.28
605.904	50.32
606.24	50.41
606.576	50.45
606.912	50.45
607.248	50.48
607.583	50.56
607.919	50.7
608.255	50.73
608.591	50.82
608.926	50.89
609.262	51.04
609.597	51.05
609.933	51.2
610.268	51.23
610.604	51.19
610.939	51.24
611.275	51.26
611.61	51.37
611.945	51.5
612.281	51.62
612.616	51.72
612.951	51.73
613.286	51.79
613.621	51.86
613.956	51.9
614.291	51.99
614.626	51.89
614.961	51.82
615.296	51.85
615.631	51.92
615.966	52.04
616.3	52.07
616.635	52.11
616.97	52.04
617.304	52.16
617.639	52.27
617.973	52.27
618.308	52.32
618.642	52.39
618.977	52.34
619.311	52.25
619.646	52.17
619.98	52.14
620.314	52.13
620.648	52.22
620.983	52.26
621.317	52.3
621.651	52.38
621.985	52.51
622.319	52.62
622.653	52.57
622.987	52.57
623.321	52.61
623.655	52.65
623.988	52.78
624.322	52.74
624.656	52.85
624.99	52.89
625.323	52.94
625.657	52.84
625.99	52.89
626.324	52.95
626.657	53.02
626.991	53.09
627.324	53.1
627.658	53.11
627.991	53.23
628.324	53.26
628.657	53.34
628.991	53.35
629.324	53.21
629.657	53.22
629.99	53.21
630.323	53.14
630.656	53.13
630.989	53.12
631.322	53.1
631.655	53.03
631.987	53.15
632.32	53.14
632.653	53.24
632.986	53.33
633.318	53.32
633.651	53.36
633.984	53.44
634.316	53.43
634.649	53.48
634.981	53.38
635.313	53.34
635.646	53.3
635.978	53.26
636.31	53.37
636.643	53.46
636.975	53.48
637.307	53.55
637.639	53.57
637.971	53.49
638.303	53.58
638.635	53.62
638.967	53.62
639.299	53.68
639.631	53.6
639.963	53.6
640.295	53.73
640.626	53.81
640.958	53.78
641.29	53.88
641.621	53.76
641.953	53.84
642.285	53.87
642.616	53.95
642.948	53.94
643.279	53.89
643.61	53.77
643.942	53.76
644.273	53.8
644.604	53.78
644.936	53.92
645.267	53.9
645.598	53.91
645.929	54
646.26	54.04
646.591	54.12
646.922	54.11
647.253	54.16
647.584	54.07
647.915	54.11
648.245	54.09
648.576	54.15
648.907	54.11
649.238	54.08
649.568	54.09
649.899	54.2
650.229	54.26
650.56	54.44
650.89	54.55
651.221	54.5
651.551	54.62
651.882	54.63
652.212	54.65
652.542	54.71
652.872	54.73
653.203	54.68
653.533	54.73
653.863	54.69
654.193	54.56
654.523	54.56
654.853	54.57
655.183	54.57
655.513	54.67
655.843	54.69
656.172	54.81
656.502	54.85
656.832	54.88
657.162	54.96
657.491	54.87
657.821	54.83
658.15	55.07
658.48	54.99
658.809	55.07
659.139	55.06
659.468	55.04
659.798	54.96
660.127	55.01
660.456	55.04
660.785	55.12
661.115	55.23
661.444	55.26
661.773	55.35
662.102	55.48
662.431	55.41
662.76	55.49
663.089	55.4
663.418	55.41
663.747	55.39
664.076	55.37
664.404	55.34
664.733	55.3
665.062	55.11
665.39	55.14
665.719	55
666.048	54.85
666.376	54.88
666.705	54.91
667.033	54.8
