Data from BA28302_Reflection_00005.txt Node
Date: Mon Nov 18 15:48:40 EST 2019
User: vgr7
Spectrometer: USB2G7710
Scans to average: 3
Trigger mode: 4
Integration Time (sec): 2.000000E-2
Electric dark correction enabled: true
Boxcar width: 10
XAxis mode: Wavelengths
Number of Pixels in Spectrum: 2048
>>>>>Begin Spectral Data<<<<<
177.721	274.22
178.105	-175.59
178.488	-429.28
178.871	-189.06
179.254	845.76
179.636	192.11
180.019	108.37
180.402	127.27
180.785	263.93
181.168	60.23
181.55	87.26
181.933	117.02
182.316	50.4
182.698	72.03
183.081	119.19
183.463	261.05
183.846	189.48
184.228	171.35
184.611	101.7
184.993	53.26
185.376	-14757.14
185.758	654.46
186.14	-1113.11
186.522	158.08
186.904	295.58
187.287	198.42
187.669	73.81
188.051	94.14
188.433	174.93
188.815	131.18
189.197	223.89
189.579	-1180
189.961	947.46
190.342	267.3
190.724	-185.71
191.106	60.4
191.488	-55.3
191.869	-46.1
192.251	-77.84
192.633	-125.35
193.014	122.66
193.396	103.12
193.777	3272.41
194.159	-2336.36
194.54	-282.39
194.922	-193.73
195.303	-132.83
195.684	-162.72
196.065	-135.04
196.447	-113.67
196.828	-142.24
197.209	-168.04
197.59	-837.27
197.971	-1320.69
198.352	-170.91
198.733	-443.02
199.114	-215.16
199.495	-158.56
199.876	-124.99
200.257	-139.03
200.638	-137.81
201.018	-169.03
201.399	-208.22
201.78	-200.39
202.16	-203.42
202.541	-238.15
202.922	-706.05
203.302	-534.22
203.683	-283.06
204.063	-353.07
204.444	-621.31
204.824	-2889.01
205.204	-733.8
205.585	-282.7
205.965	-243.03
206.345	-278.86
206.725	-376.65
207.106	4860.56
207.486	862.98
207.866	675.81
208.246	1646.8
208.626	1954.75
209.006	605.49
209.386	795.89
209.766	-1268.42
210.145	-391.68
210.525	-148.88
210.905	-43.36
211.285	-28.38
211.664	-0.05
212.044	13.13
212.424	6.72
212.803	-9.98
213.183	9.5
213.562	22.92
213.942	51
214.321	29.02
214.701	17.67
215.08	17.14
215.459	29.76
215.838	16.34
216.218	8.63
216.597	11.45
216.976	5.98
217.355	9.92
217.734	2.8
218.113	-14.39
218.492	-8.79
218.871	-39.94
219.25	-52.49
219.629	-70.75
220.008	-77.3
220.387	-98.31
220.766	-96.49
221.144	-109.21
221.523	-113.8
221.902	-89.23
222.28	-107.95
222.659	-58.51
223.037	-57.29
223.416	-64.44
223.794	-53.48
224.173	-40.48
224.551	-23.76
224.929	-21.35
225.308	-13.98
225.686	-9.12
226.064	-2.58
226.442	-1.88
226.821	1.67
227.199	2.23
227.577	-2.21
227.955	-2.57
228.333	-2.22
228.711	0.6
229.089	3.14
229.467	1.25
229.845	0.87
230.222	3.4
230.6	1.34
230.978	3.49
231.356	6.73
231.733	6.3
232.111	4.12
232.488	2.82
232.866	3.83
233.243	4.4
233.621	2.01
233.998	0.88
234.376	-1.27
234.753	-2
235.13	-1.4
235.508	0.77
235.885	2.59
236.262	3.53
236.639	3.9
237.016	2.58
237.393	3.94
237.77	5.05
238.147	4.76
238.524	3.98
238.901	4.21
239.278	3.55
239.655	4.4
240.032	4.04
240.409	3.91
240.785	3.54
241.162	3.1
241.539	3.89
241.915	4.08
242.292	4.04
242.668	4.08
243.045	4.1
243.421	3.71
243.798	3.77
244.174	3.62
244.551	3.56
244.927	3.55
245.303	3.64
245.679	3.69
246.056	3.71
246.432	4.02
246.808	4.09
247.184	4.11
247.56	3.93
247.936	4.1
248.312	4.13
248.688	4.24
249.064	4.21
249.44	4.13
249.815	3.96
250.191	4.35
250.567	4.43
250.943	4.32
251.318	4.63
251.694	4.2
252.069	4.17
252.445	4.42
252.82	4.5
253.196	4.2
253.571	4.15
253.947	3.88
254.322	3.88
254.697	3.67
255.073	3.51
255.448	3.28
255.823	3.35
256.198	3.11
256.573	3.07
256.948	3.3
257.323	3.39
257.698	3.48
258.073	3.27
258.448	3.17
258.823	3.28
259.198	3.23
259.573	3.45
259.948	3.38
260.322	3.26
260.697	3.3
261.072	3.24
261.446	3.15
261.821	3.28
262.195	3.34
262.57	3.31
262.944	3.24
263.319	3.3
263.693	3.14
264.067	3.34
264.442	3.44
264.816	3.28
265.19	3.08
265.564	2.95
265.938	2.96
266.313	2.98
266.687	3.08
267.061	3.39
267.435	3.51
267.809	3.46
268.183	3.49
268.556	3.49
268.93	3.8
269.304	3.89
269.678	3.86
270.051	3.7
270.425	3.68
270.799	3.95
271.172	3.96
271.546	4.04
271.919	3.96
272.293	3.92
272.666	4.04
273.04	4.15
273.413	4.06
273.787	3.95
274.16	3.9
274.533	3.97
274.906	3.62
275.279	3.6
275.653	3.65
276.026	3.58
276.399	3.7
276.772	3.6
277.145	3.43
277.518	3.46
277.891	3.57
278.263	3.66
278.636	3.57
279.009	3.6
279.382	3.66
279.755	3.62
280.127	3.64
280.5	3.61
280.872	3.73
281.245	3.94
281.617	4.14
281.99	4.23
282.362	4.17
282.735	4.09
283.107	3.9
283.479	3.94
283.852	4.11
284.224	4.01
284.596	3.94
284.968	4.08
285.34	4.05
285.713	3.9
286.085	3.97
286.457	4.01
286.829	3.92
287.201	3.89
287.572	3.85
287.944	3.8
288.316	3.82
288.688	3.76
289.06	3.65
289.431	3.54
289.803	3.47
290.175	3.42
290.546	3.57
290.918	3.66
291.289	3.71
291.661	3.56
292.032	3.65
292.403	3.67
292.775	3.8
293.146	3.87
293.517	3.95
293.889	3.93
294.26	3.87
294.631	3.98
295.002	3.92
295.373	4
295.744	4
296.115	4.02
296.486	3.95
296.857	4.01
297.228	4.04
297.599	4.01
297.97	4.03
298.34	4.01
298.711	3.95
299.082	3.87
299.452	3.95
299.823	3.99
300.194	4.09
300.564	3.95
300.935	3.88
301.305	3.79
301.676	3.81
302.046	3.85
302.416	3.91
302.787	3.95
303.157	3.84
303.527	3.87
303.897	3.77
304.267	3.93
304.637	4
305.008	3.96
305.378	4.15
305.748	4.12
306.117	4.14
306.487	4.14
306.857	4.18
307.227	4.09
307.597	3.94
307.967	3.83
308.336	3.76
308.706	3.74
309.076	3.9
309.445	3.68
309.815	3.62
310.184	3.52
310.554	3.55
310.923	3.51
311.293	3.5
311.662	3.5
312.031	3.28
312.401	3.26
312.77	3.33
313.139	3.33
313.508	3.35
313.877	3.41
314.246	3.47
314.616	3.44
314.985	3.37
315.353	3.34
315.722	3.43
316.091	3.42
316.46	3.32
316.829	3.16
317.198	3.28
317.567	3.31
317.935	3.34
318.304	3.35
318.672	3.45
319.041	3.58
319.41	3.53
319.778	3.69
320.147	3.66
320.515	3.54
320.883	3.47
321.252	3.51
321.62	3.47
321.988	3.42
322.357	3.48
322.725	3.5
323.093	3.54
323.461	3.5
323.829	3.55
324.197	3.59
324.565	3.61
324.933	3.54
325.301	3.54
325.669	3.44
326.037	3.38
326.405	3.48
326.772	3.42
327.14	3.62
327.508	3.61
327.875	3.5
328.243	3.5
328.61	3.49
328.978	3.44
329.346	3.43
329.713	3.34
330.08	3.4
330.448	3.38
330.815	3.28
331.182	3.29
331.55	3.29
331.917	3.36
332.284	3.43
332.651	3.52
333.018	3.44
333.385	3.63
333.752	3.67
334.119	3.56
334.486	3.5
334.853	3.34
335.22	3.35
335.587	3.43
335.954	3.48
336.32	3.37
336.687	3.26
337.054	3.27
337.42	3.41
337.787	3.42
338.153	3.47
338.52	3.51
338.886	3.41
339.253	3.28
339.619	3.33
339.986	3.25
340.352	3.23
340.718	3.22
341.084	3.04
341.451	3.15
341.817	3.24
342.183	3.19
342.549	3.15
342.915	3.31
343.281	3.34
343.647	3.32
344.013	3.33
344.379	3.36
344.745	3.27
345.11	3.22
345.476	3.2
345.842	3.21
346.208	3.29
346.573	3.33
346.939	3.49
347.304	3.37
347.67	3.38
348.035	3.39
348.401	3.44
348.766	3.44
349.132	3.28
349.497	3.17
349.862	3.29
350.228	3.39
350.593	3.2
350.958	3.22
351.323	3.35
351.688	3.38
352.053	3.38
352.418	3.45
352.783	3.52
353.148	3.47
353.513	3.48
353.878	3.49
354.243	3.55
354.608	3.56
354.972	3.63
355.337	3.73
355.702	3.77
356.066	3.79
356.431	3.82
356.795	3.96
357.16	4
357.524	3.99
357.889	3.95
358.253	3.98
358.618	3.92
358.982	3.87
359.346	3.81
359.71	3.8
360.075	3.8
360.439	3.75
360.803	3.76
361.167	3.67
361.531	3.63
361.895	3.53
362.259	3.49
362.623	3.48
362.987	3.44
363.351	3.47
363.714	3.49
364.078	3.54
364.442	3.51
364.806	3.48
365.169	3.47
365.533	3.47
365.896	3.45
366.26	3.47
366.623	3.4
366.987	3.5
367.35	3.51
367.714	3.53
368.077	3.49
368.44	3.49
368.803	3.55
369.167	3.56
369.53	3.57
369.893	3.62
370.256	3.66
370.619	3.66
370.982	3.59
371.345	3.53
371.708	3.53
372.071	3.47
372.434	3.44
372.797	3.44
373.159	3.42
373.522	3.5
373.885	3.53
374.247	3.58
374.61	3.54
374.973	3.54
375.335	3.53
375.698	3.57
376.06	3.58
376.423	3.6
376.785	3.65
377.147	3.71
377.51	3.67
377.872	3.67
378.234	3.69
378.596	3.71
378.958	3.68
379.321	3.64
379.683	3.64
380.045	3.69
380.407	3.68
380.769	3.69
381.13	3.6
381.492	3.55
381.854	3.53
382.216	3.5
382.578	3.51
382.939	3.48
383.301	3.51
383.663	3.46
384.024	3.48
384.386	3.44
384.747	3.41
385.109	3.44
385.47	3.39
385.832	3.38
386.193	3.41
386.554	3.45
386.916	3.5
387.277	3.51
387.638	3.51
387.999	3.49
388.36	3.5
388.721	3.56
389.082	3.58
389.443	3.58
389.804	3.59
390.165	3.56
390.526	3.56
390.887	3.54
391.248	3.57
391.609	3.55
391.969	3.58
392.33	3.58
392.691	3.55
393.051	3.57
393.412	3.58
393.772	3.54
394.133	3.56
394.493	3.54
394.854	3.53
395.214	3.5
395.574	3.46
395.935	3.46
396.295	3.48
396.655	3.49
397.015	3.44
397.376	3.47
397.736	3.48
398.096	3.49
398.456	3.49
398.816	3.49
399.176	3.47
399.535	3.41
399.895	3.4
400.255	3.38
400.615	3.39
400.975	3.38
401.334	3.4
401.694	3.35
402.054	3.32
402.413	3.34
402.773	3.35
403.132	3.39
403.492	3.36
403.851	3.33
404.211	3.34
404.57	3.39
404.929	3.41
405.288	3.43
405.648	3.4
406.007	3.39
406.366	3.38
406.725	3.4
407.084	3.45
407.443	3.47
407.802	3.5
408.161	3.46
408.52	3.44
408.879	3.43
409.238	3.47
409.596	3.49
409.955	3.5
410.314	3.51
410.673	3.48
411.031	3.5
411.39	3.51
411.748	3.48
412.107	3.46
412.465	3.46
412.824	3.44
413.182	3.42
413.54	3.44
413.899	3.46
414.257	3.46
414.615	3.4
414.974	3.41
415.332	3.42
415.69	3.44
416.048	3.46
416.406	3.45
416.764	3.41
417.122	3.42
417.48	3.39
417.838	3.39
418.195	3.39
418.553	3.38
418.911	3.37
419.269	3.37
419.626	3.37
419.984	3.37
420.342	3.4
420.699	3.42
421.057	3.42
421.414	3.41
421.772	3.41
422.129	3.42
422.486	3.4
422.844	3.4
423.201	3.4
423.558	3.38
423.915	3.4
424.273	3.42
424.63	3.41
424.987	3.41
425.344	3.41
425.701	3.42
426.058	3.42
426.415	3.43
426.772	3.43
427.128	3.43
427.485	3.43
427.842	3.41
428.199	3.42
428.555	3.43
428.912	3.44
429.269	3.44
429.625	3.44
429.982	3.48
430.338	3.46
430.695	3.45
431.051	3.46
431.407	3.45
431.764	3.43
432.12	3.43
432.476	3.44
432.832	3.43
433.189	3.42
433.545	3.42
433.901	3.38
434.257	3.38
434.613	3.37
434.969	3.35
435.325	3.35
435.681	3.32
436.036	3.3
436.392	3.31
436.748	3.33
437.104	3.33
437.459	3.32
437.815	3.32
438.171	3.34
438.526	3.35
438.882	3.36
439.237	3.38
439.593	3.38
439.948	3.38
440.304	3.38
440.659	3.39
441.014	3.39
441.369	3.39
441.725	3.39
442.08	3.38
442.435	3.38
442.79	3.38
443.145	3.39
443.5	3.4
443.855	3.38
444.21	3.36
444.565	3.37
444.92	3.37
445.275	3.35
445.629	3.35
445.984	3.34
446.339	3.32
446.693	3.29
447.048	3.28
447.403	3.28
447.757	3.27
448.112	3.27
448.466	3.27
448.82	3.27
449.175	3.28
449.529	3.3
449.883	3.3
450.238	3.29
450.592	3.29
450.946	3.28
451.3	3.28
451.654	3.27
452.008	3.25
452.362	3.25
452.716	3.27
453.07	3.27
453.424	3.28
453.778	3.29
454.132	3.29
454.486	3.3
454.839	3.31
455.193	3.31
455.547	3.29
455.9	3.32
456.254	3.34
456.607	3.33
456.961	3.32
457.314	3.31
457.668	3.31
458.021	3.32
458.375	3.32
458.728	3.33
459.081	3.34
459.434	3.33
459.787	3.34
460.141	3.33
460.494	3.34
460.847	3.34
461.2	3.31
461.553	3.31
461.906	3.31
462.259	3.31
462.611	3.31
462.964	3.3
463.317	3.29
463.67	3.29
464.022	3.29
464.375	3.29
464.728	3.29
465.08	3.29
465.433	3.3
465.785	3.29
466.138	3.29
466.49	3.27
466.843	3.27
467.195	3.27
467.547	3.27
467.899	3.27
468.252	3.26
468.604	3.3
468.956	3.3
469.308	3.28
469.66	3.26
470.012	3.28
470.364	3.32
470.716	3.33
471.068	3.32
471.42	3.33
471.772	3.34
472.123	3.35
472.475	3.35
472.827	3.35
473.178	3.38
473.53	3.38
473.882	3.43
474.233	3.44
474.585	3.43
474.936	3.44
475.288	3.43
475.639	3.43
475.99	3.4
476.342	3.4
476.693	3.41
477.044	3.43
477.395	3.43
477.746	3.39
478.097	3.37
478.448	3.39
478.8	3.39
479.15	3.38
479.501	3.4
479.852	3.39
480.203	3.39
480.554	3.39
480.905	3.39
481.255	3.38
481.606	3.4
481.957	3.41
482.307	3.4
482.658	3.41
483.009	3.41
483.359	3.42
483.709	3.42
484.06	3.42
484.41	3.42
484.761	3.42
485.111	3.44
485.461	3.45
485.811	3.45
486.162	3.45
486.512	3.46
486.862	3.45
487.212	3.46
487.562	3.46
487.912	3.45
488.262	3.45
488.612	3.45
488.961	3.44
489.311	3.45
489.661	3.46
490.011	3.45
490.36	3.46
490.71	3.46
491.06	3.47
491.409	3.48
491.759	3.47
492.108	3.47
492.458	3.46
492.807	3.46
493.157	3.46
493.506	3.45
493.855	3.44
494.204	3.44
494.554	3.44
494.903	3.43
495.252	3.43
495.601	3.45
495.95	3.46
496.299	3.45
496.648	3.43
496.997	3.43
497.346	3.44
497.695	3.43
498.043	3.44
498.392	3.43
498.741	3.43
499.09	3.43
499.438	3.46
499.787	3.45
500.135	3.45
500.484	3.44
500.832	3.44
501.181	3.45
501.529	3.48
501.878	3.47
502.226	3.48
502.574	3.48
502.923	3.47
503.271	3.46
503.619	3.5
503.967	3.51
504.315	3.5
504.663	3.51
505.011	3.51
505.359	3.49
505.707	3.52
506.055	3.53
506.403	3.55
506.751	3.54
507.098	3.55
507.446	3.56
507.794	3.56
508.141	3.6
508.489	3.61
508.837	3.62
509.184	3.62
509.531	3.63
509.879	3.65
510.226	3.67
510.574	3.66
510.921	3.66
511.268	3.66
511.616	3.69
511.963	3.67
512.31	3.7
512.657	3.72
513.004	3.72
513.351	3.73
513.698	3.73
514.045	3.74
514.392	3.75
514.739	3.76
515.086	3.78
515.432	3.76
515.779	3.76
516.126	3.74
516.473	3.75
516.819	3.77
517.166	3.78
517.512	3.78
517.859	3.79
518.205	3.79
518.552	3.79
518.898	3.78
519.245	3.78
519.591	3.76
519.937	3.74
520.283	3.74
520.629	3.74
520.976	3.73
521.322	3.72
521.668	3.73
522.014	3.74
522.36	3.73
522.706	3.75
523.052	3.75
523.398	3.77
523.743	3.76
524.089	3.79
524.435	3.77
524.781	3.78
525.126	3.79
525.472	3.8
525.817	3.8
526.163	3.81
526.509	3.82
526.854	3.83
527.199	3.85
527.545	3.85
527.89	3.85
528.235	3.85
528.581	3.86
528.926	3.86
529.271	3.86
529.616	3.86
529.961	3.86
530.306	3.86
530.651	3.85
530.996	3.86
531.341	3.85
531.686	3.85
532.031	3.85
532.376	3.86
532.721	3.86
533.065	3.86
533.41	3.87
533.755	3.87
534.099	3.86
534.444	3.85
534.788	3.87
535.133	3.86
535.477	3.88
535.822	3.87
536.166	3.87
536.51	3.88
536.855	3.88
537.199	3.87
537.543	3.87
537.887	3.89
538.231	3.89
538.576	3.89
538.92	3.9
539.264	3.9
539.608	3.9
539.951	3.9
540.295	3.9
540.639	3.9
540.983	3.89
541.327	3.89
541.671	3.9
542.014	3.89
542.358	3.91
542.701	3.89
543.045	3.9
543.389	3.91
543.732	3.91
544.075	3.93
544.419	3.94
544.762	3.94
545.105	3.94
545.449	3.96
545.792	3.96
546.135	3.96
546.478	3.97
546.821	3.96
547.165	3.97
547.508	3.99
547.851	3.99
548.194	3.99
548.536	4.02
548.879	4.03
549.222	4.04
549.565	4.05
549.908	4.08
550.25	4.09
550.593	4.09
550.936	4.1
551.278	4.08
551.621	4.1
551.963	4.11
552.306	4.11
552.648	4.08
552.991	4.08
553.333	4.1
553.675	4.08
554.017	4.1
554.36	4.11
554.702	4.12
555.044	4.1
555.386	4.14
555.728	4.15
556.07	4.14
556.412	4.13
556.754	4.11
557.096	4.1
557.438	4.09
557.78	4.09
558.121	4.11
558.463	4.15
558.805	4.14
559.147	4.13
559.488	4.1
559.83	4.14
560.171	4.12
560.513	4.13
560.854	4.13
561.196	4.13
561.537	4.14
561.878	4.1
562.22	4.11
562.561	4.06
562.902	4.04
563.243	4.06
563.584	4.04
563.925	4.05
564.266	4.03
564.607	4.02
564.948	4.01
565.289	3.99
565.63	3.97
565.971	3.96
566.312	3.96
566.653	3.99
566.993	3.98
567.334	3.95
567.675	3.93
568.015	3.94
568.356	3.94
568.696	3.93
569.037	3.96
569.377	3.96
569.718	4
570.058	4.03
570.398	4.02
570.739	4.03
571.079	4.05
571.419	4.06
571.759	4.11
572.099	4.13
572.439	4.12
572.779	4.12
573.119	4.16
573.459	4.17
573.799	4.18
574.139	4.18
574.479	4.18
574.819	4.19
575.158	4.18
575.498	4.18
575.838	4.16
576.177	4.14
576.517	4.12
576.856	4.09
577.196	4.07
577.535	4.05
577.875	4.09
578.214	4.09
578.553	4.11
578.893	4.07
579.232	4.08
579.571	4.1
579.91	4.07
580.25	4.06
580.589	4.07
580.928	4.08
581.267	4.09
581.606	4.12
581.945	4.1
582.283	4.12
582.622	4.09
582.961	4.1
583.3	4.12
583.639	4.18
583.977	4.23
584.316	4.22
584.654	4.25
584.993	4.23
585.332	4.22
585.67	4.23
586.008	4.21
586.347	4.19
586.685	4.22
587.024	4.22
587.362	4.16
587.7	4.15
588.038	4.15
588.376	4.16
588.715	4.16
589.053	4.17
589.391	4.2
589.729	4.24
590.067	4.24
590.404	4.24
590.742	4.22
591.08	4.14
591.418	4.19
591.756	4.18
592.093	4.19
592.431	4.2
592.769	4.15
593.106	4.18
593.444	4.14
593.781	4.09
594.119	4.1
594.456	4.12
594.793	4.13
595.131	4.08
595.468	4.08
595.805	4.1
596.143	4.1
596.48	4.09
596.817	4.09
597.154	4.13
597.491	4.16
597.828	4.16
598.165	4.18
598.502	4.13
598.839	4.15
599.176	4.14
599.512	4.12
599.849	4.12
600.186	4.11
600.523	4.19
600.859	4.23
601.196	4.25
601.532	4.28
601.869	4.27
602.205	4.28
602.542	4.28
602.878	4.28
603.215	4.26
603.551	4.27
603.887	4.25
604.223	4.22
604.56	4.22
604.896	4.22
605.232	4.25
605.568	4.26
605.904	4.22
606.24	4.22
606.576	4.24
606.912	4.24
607.248	4.25
607.583	4.23
607.919	4.19
608.255	4.2
608.591	4.18
608.926	4.18
609.262	4.19
609.597	4.18
609.933	4.17
610.268	4.18
610.604	4.16
610.939	4.2
611.275	4.21
611.61	4.19
611.945	4.21
612.281	4.23
612.616	4.22
612.951	4.27
613.286	4.27
613.621	4.3
613.956	4.34
614.291	4.34
614.626	4.33
614.961	4.37
615.296	4.4
615.631	4.42
615.966	4.43
616.3	4.51
616.635	4.53
616.97	4.55
617.304	4.61
617.639	4.65
617.973	4.62
618.308	4.64
618.642	4.66
618.977	4.68
619.311	4.65
619.646	4.71
619.98	4.67
620.314	4.67
620.648	4.64
620.983	4.71
621.317	4.67
621.651	4.68
621.985	4.68
622.319	4.64
622.653	4.67
622.987	4.69
623.321	4.61
623.655	4.6
623.988	4.6
624.322	4.57
624.656	4.57
624.99	4.56
625.323	4.55
625.657	4.48
625.99	4.51
626.324	4.51
626.657	4.43
626.991	4.46
627.324	4.49
627.658	4.48
627.991	4.42
628.324	4.44
628.657	4.43
628.991	4.46
629.324	4.47
629.657	4.49
629.99	4.44
630.323	4.45
630.656	4.48
630.989	4.49
631.322	4.5
631.655	4.45
631.987	4.48
632.32	4.48
632.653	4.56
632.986	4.51
633.318	4.53
633.651	4.64
633.984	4.63
634.316	4.59
634.649	4.57
634.981	4.58
635.313	4.6
635.646	4.6
635.978	4.56
636.31	4.54
636.643	4.47
636.975	4.5
637.307	4.47
637.639	4.46
637.971	4.41
638.303	4.43
638.635	4.45
638.967	4.4
639.299	4.44
639.631	4.41
639.963	4.39
640.295	4.32
640.626	4.31
640.958	4.38
641.29	4.38
641.621	4.43
641.953	4.38
642.285	4.4
642.616	4.41
642.948	4.42
643.279	4.41
643.61	4.48
643.942	4.53
644.273	4.56
644.604	4.56
644.936	4.57
645.267	4.55
645.598	4.53
645.929	4.53
646.26	4.49
646.591	4.52
646.922	4.48
647.253	4.48
647.584	4.44
647.915	4.38
648.245	4.44
648.576	4.48
648.907	4.55
649.238	4.49
649.568	4.51
649.899	4.54
650.229	4.55
650.56	4.52
650.89	4.46
651.221	4.47
651.551	4.43
651.882	4.42
652.212	4.43
652.542	4.42
652.872	4.42
653.203	4.4
653.533	4.44
653.863	4.54
654.193	4.56
654.523	4.55
654.853	4.58
655.183	4.59
655.513	4.52
655.843	4.52
656.172	4.56
656.502	4.58
656.832	4.58
657.162	4.68
657.491	4.62
657.821	4.7
658.15	4.69
658.48	4.72
658.809	4.78
659.139	4.76
659.468	4.82
659.798	4.84
660.127	4.81
660.456	4.77
660.785	4.72
661.115	4.77
661.444	4.78
661.773	4.82
662.102	4.73
662.431	4.82
662.76	4.8
663.089	4.79
663.418	4.77
663.747	4.69
664.076	4.6
664.404	4.66
664.733	4.69
665.062	4.77
665.39	4.83
665.719	4.74
666.048	4.76
666.376	4.69
666.705	4.67
667.033	4.73
667.362	4.76
667.69	4.84
668.018	4.81
668.347	4.88
668.675	4.85
669.003	4.94
669.331	4.87
669.659	4.87
669.987	4.82
670.315	4.78
670.643	4.8
670.971	4.84
671.299	4.81
671.627	4.75
671.955	4.73
672.283	4.63
672.61	4.7
672.938	4.73
673.266	4.81
673.593	4.9
673.921	4.95
674.249	4.97
674.576	4.83
674.904	4.8
675.231	4.71
675.558	4.68
675.886	4.71
676.213	4.76
676.54	4.8
676.867	4.89
677.195	4.92
