Data from BA28472_Reflection_00006.txt Node
Date: Mon Nov 18 15:24:24 EST 2019
User: vgr7
Spectrometer: USB2G7710
Scans to average: 3
Trigger mode: 4
Integration Time (sec): 2.000000E-2
Electric dark correction enabled: true
Boxcar width: 10
XAxis mode: Wavelengths
Number of Pixels in Spectrum: 2048
>>>>>Begin Spectral Data<<<<<
177.721	43.64
178.105	61.66
178.488	5.82
178.871	91.49
179.254	94.39
179.636	310.28
180.019	-11354.55
180.402	146.15
180.785	170.77
181.168	191.84
181.55	-510.78
181.933	197.3
182.316	157.34
182.698	91.38
183.081	97.25
183.463	106.02
183.846	62.46
184.228	72.92
184.611	46.45
184.993	73.22
185.376	68.84
185.758	68.55
186.14	70.99
186.522	73.7
186.904	93.35
187.287	101.95
187.669	102.56
188.051	184.51
188.433	154.02
188.815	161.69
189.197	167.37
189.579	121.11
189.961	168.75
190.342	153.68
190.724	499.17
191.106	394.77
191.488	725.31
191.869	-492.46
192.251	-261.45
192.633	-191.06
193.014	-348.31
193.396	-478.49
193.777	-319.58
194.159	-657.89
194.54	-443.08
194.922	-250.24
195.303	-246.92
195.684	-216.37
196.065	-138.85
196.447	-82.19
196.828	-56.32
197.209	-68.76
197.59	-101.88
197.971	-84.42
198.352	-53.4
198.733	-65.57
199.114	-41.83
199.495	-0.56
199.876	-0.06
200.257	-28.46
200.638	49.03
201.018	28.81
201.399	75.29
201.78	24.12
202.16	44.42
202.541	36.75
202.922	13.14
203.302	4.85
203.683	-15.34
204.063	-41.99
204.444	-56.09
204.824	-102.29
205.204	-63.22
205.585	-50.24
205.965	-47.69
206.345	-48.69
206.725	-138.67
207.106	-172.47
207.486	-214.11
207.866	-212.73
208.246	-186.48
208.626	-319.01
209.006	-275.36
209.386	-403.63
209.766	-551.54
210.145	-883.92
210.525	-519.16
210.905	-563.07
211.285	-750.91
211.664	-439.85
212.044	687.23
212.424	-1009.24
212.803	-126.42
213.183	-103.68
213.562	-18.23
213.942	675.34
214.321	-127.85
214.701	-61.19
215.08	-195.89
215.459	-104.67
215.838	-54.68
216.218	-56.22
216.597	-33.19
216.976	-51.09
217.355	-34.06
217.734	-46.27
218.113	-70.24
218.492	-100.77
218.871	-124.55
219.25	-106.99
219.629	-111.76
220.008	-117.87
220.387	-135.24
220.766	-155.99
221.144	-183.51
221.523	-164.54
221.902	-166.32
222.28	-211.44
222.659	-150.63
223.037	-125.28
223.416	-153.82
223.794	-150.09
224.173	-126.86
224.551	-79.28
224.929	-54.07
225.308	-37.57
225.686	-32.97
226.064	-29.81
226.442	-28.5
226.821	-14.21
227.199	-15.24
227.577	-18.22
227.955	-12.71
228.333	-12.42
228.711	-7.42
229.089	-1.35
229.467	-3.24
229.845	-1.89
230.222	-2.77
230.6	-4.56
230.978	-4.19
231.356	-1.35
231.733	-0.56
232.111	-2.07
232.488	-3.81
232.866	-4.15
233.243	-3.11
233.621	-5.31
233.998	-5.03
234.376	-2.57
234.753	-4.08
235.13	-2.62
235.508	-2.14
235.885	-3.03
236.262	-2.02
236.639	-2.66
237.016	-3.48
237.393	-0.99
237.77	0.2
238.147	0.88
238.524	1.01
238.901	2.41
239.278	3.2
239.655	2.91
240.032	3.6
240.409	3.14
240.785	3.66
241.162	3.26
241.539	4.08
241.915	4.06
242.292	3.66
242.668	3.81
243.045	4.08
243.421	4.34
243.798	4.42
244.174	4.51
244.551	4.64
244.927	4.77
245.303	4.6
245.679	4.7
246.056	4.95
246.432	5.24
246.808	5.07
247.184	4.9
247.56	5.18
247.936	4.91
248.312	5.06
248.688	5.05
249.064	4.94
249.44	4.9
249.815	4.96
250.191	5.27
250.567	5.1
250.943	5.12
251.318	5.05
251.694	4.96
252.069	4.63
252.445	4.66
252.82	4.52
253.196	4.59
253.571	4.51
253.947	4.14
254.322	4.19
254.697	3.97
255.073	3.95
255.448	3.88
255.823	4.19
256.198	4.33
256.573	4.28
256.948	4.52
257.323	4.62
257.698	4.67
258.073	4.53
258.448	4.65
258.823	4.51
259.198	4.49
259.573	4.5
259.948	4.6
260.322	4.54
260.697	4.44
261.072	4.39
261.446	4.46
261.821	4.55
262.195	4.51
262.57	4.54
262.944	4.56
263.319	4.59
263.693	4.48
264.067	4.53
264.442	4.45
264.816	4.47
265.19	4.35
265.564	4.33
265.938	4.15
266.313	4.16
266.687	4.2
267.061	4.21
267.435	4.3
267.809	4.37
268.183	4.11
268.556	4.05
268.93	4.11
269.304	3.98
269.678	4.07
270.051	3.97
270.425	3.96
270.799	3.88
271.172	3.92
271.546	3.83
271.919	3.71
272.293	3.85
272.666	3.88
273.04	3.91
273.413	3.84
273.787	3.81
274.16	3.71
274.533	3.78
274.906	3.81
275.279	3.99
275.653	3.92
276.026	4.14
276.399	4.23
276.772	4.29
277.145	4.29
277.518	4.1
277.891	4.29
278.263	4.3
278.636	4.41
279.009	4.3
279.382	4.64
279.755	4.74
280.127	4.73
280.5	4.67
280.872	4.74
281.245	4.88
281.617	5.11
281.99	5.17
282.362	5.23
282.735	5.15
283.107	4.93
283.479	4.88
283.852	4.78
284.224	4.82
284.596	4.68
284.968	4.69
285.34	4.78
285.713	4.72
286.085	4.73
286.457	4.81
286.829	4.85
287.201	4.81
287.572	4.79
287.944	4.77
288.316	4.77
288.688	4.65
289.06	4.66
289.431	4.58
289.803	4.7
290.175	4.62
290.546	4.67
290.918	4.64
291.289	4.7
291.661	4.89
292.032	5.07
292.403	5.04
292.775	5.15
293.146	5.09
293.517	5.04
293.889	5.07
294.26	5.03
294.631	5.06
295.002	5
295.373	4.9
295.744	4.95
296.115	4.91
296.486	4.83
296.857	4.71
297.228	4.78
297.599	4.62
297.97	4.62
298.34	4.6
298.711	4.72
299.082	4.76
299.452	4.68
299.823	4.7
300.194	4.74
300.564	4.72
300.935	4.72
301.305	4.78
301.676	4.77
302.046	4.82
302.416	4.81
302.787	4.77
303.157	4.83
303.527	4.59
303.897	4.69
304.267	4.85
304.637	4.88
305.008	4.8
305.378	4.92
305.748	4.91
306.117	4.92
306.487	4.81
306.857	4.81
307.227	4.74
307.597	4.57
307.967	4.61
308.336	4.68
308.706	4.75
309.076	4.7
309.445	4.62
309.815	4.64
310.184	4.55
310.554	4.5
310.923	4.45
311.293	4.56
311.662	4.43
312.031	4.38
312.401	4.35
312.77	4.43
313.139	4.38
313.508	4.3
313.877	4.4
314.246	4.43
314.616	4.35
314.985	4.31
315.353	4.19
315.722	4.18
316.091	4.04
316.46	3.89
316.829	3.87
317.198	3.95
317.567	3.64
317.935	3.72
318.304	3.82
318.672	3.8
319.041	3.87
319.41	3.86
319.778	3.86
320.147	4.1
320.515	4.07
320.883	3.99
321.252	4.2
321.62	4.13
321.988	3.89
322.357	3.91
322.725	3.91
323.093	4.18
323.461	4.27
323.829	4.3
324.197	4.42
324.565	4.38
324.933	4.24
325.301	4.38
325.669	4.38
326.037	4.33
326.405	4.35
326.772	4.27
327.14	4.29
327.508	4.36
327.875	4.14
328.243	4.19
328.61	4.32
328.978	4.26
329.346	4.2
329.713	4.35
330.08	4.52
330.448	4.56
330.815	4.3
331.182	4.3
331.55	4.32
331.917	4.29
332.284	4.32
332.651	4.51
333.018	4.51
333.385	4.43
333.752	4.6
334.119	4.74
334.486	4.78
334.853	4.79
335.22	4.87
335.587	4.94
335.954	4.81
336.32	4.79
336.687	4.75
337.054	4.84
337.42	4.8
337.787	4.72
338.153	4.8
338.52	4.86
338.886	4.74
339.253	4.75
339.619	4.76
339.986	4.82
340.352	4.81
340.718	4.9
341.084	4.99
341.451	4.97
341.817	4.91
342.183	4.89
342.549	4.89
342.915	4.79
343.281	4.86
343.647	4.84
344.013	4.86
344.379	4.82
344.745	4.77
345.11	4.79
345.476	4.73
345.842	4.59
346.208	4.58
346.573	4.61
346.939	4.58
347.304	4.57
347.67	4.45
348.035	4.45
348.401	4.33
348.766	4.31
349.132	4.24
349.497	4.21
349.862	4.36
350.228	4.36
350.593	4.35
350.958	4.31
351.323	4.35
351.688	4.32
352.053	4.41
352.418	4.5
352.783	4.53
353.148	4.47
353.513	4.58
353.878	4.6
354.243	4.66
354.608	4.62
354.972	4.54
355.337	4.6
355.702	4.68
356.066	4.77
356.431	4.72
356.795	4.76
357.16	4.71
357.524	4.57
357.889	4.59
358.253	4.6
358.618	4.56
358.982	4.61
359.346	4.56
359.71	4.48
360.075	4.42
360.439	4.44
360.803	4.46
361.167	4.42
361.531	4.4
361.895	4.37
362.259	4.37
362.623	4.45
362.987	4.45
363.351	4.34
363.714	4.35
364.078	4.33
364.442	4.3
364.806	4.31
365.169	4.34
365.533	4.34
365.896	4.39
366.26	4.42
366.623	4.36
366.987	4.36
367.35	4.4
367.714	4.45
368.077	4.44
368.44	4.45
368.803	4.46
369.167	4.47
369.53	4.41
369.893	4.42
370.256	4.43
370.619	4.46
370.982	4.49
371.345	4.44
371.708	4.46
372.071	4.46
372.434	4.53
372.797	4.52
373.159	4.44
373.522	4.48
373.885	4.41
374.247	4.42
374.61	4.42
374.973	4.4
375.335	4.37
375.698	4.39
376.06	4.41
376.423	4.41
376.785	4.45
377.147	4.55
377.51	4.56
377.872	4.56
378.234	4.52
378.596	4.55
378.958	4.53
379.321	4.6
379.683	4.58
380.045	4.49
380.407	4.47
380.769	4.58
381.13	4.53
381.492	4.59
381.854	4.59
382.216	4.61
382.578	4.63
382.939	4.6
383.301	4.56
383.663	4.53
384.024	4.49
384.386	4.45
384.747	4.42
385.109	4.43
385.47	4.42
385.832	4.44
386.193	4.46
386.554	4.45
386.916	4.39
387.277	4.39
387.638	4.48
387.999	4.5
388.36	4.49
388.721	4.49
389.082	4.48
389.443	4.47
389.804	4.5
390.165	4.51
390.526	4.49
390.887	4.46
391.248	4.46
391.609	4.53
391.969	4.54
392.33	4.52
392.691	4.51
393.051	4.49
393.412	4.52
393.772	4.48
394.133	4.49
394.493	4.51
394.854	4.51
395.214	4.48
395.574	4.44
395.935	4.4
396.295	4.4
396.655	4.37
397.015	4.36
397.376	4.33
397.736	4.32
398.096	4.37
398.456	4.43
398.816	4.43
399.176	4.42
399.535	4.41
399.895	4.42
400.255	4.44
400.615	4.45
400.975	4.46
401.334	4.44
401.694	4.42
402.054	4.4
402.413	4.42
402.773	4.42
403.132	4.46
403.492	4.48
403.851	4.48
404.211	4.51
404.57	4.52
404.929	4.53
405.288	4.52
405.648	4.49
406.007	4.51
406.366	4.5
406.725	4.52
407.084	4.56
407.443	4.56
407.802	4.56
408.161	4.54
408.52	4.53
408.879	4.55
409.238	4.59
409.596	4.6
409.955	4.56
410.314	4.53
410.673	4.52
411.031	4.5
411.39	4.48
411.748	4.49
412.107	4.5
412.465	4.49
412.824	4.51
413.182	4.47
413.54	4.46
413.899	4.46
414.257	4.43
414.615	4.43
414.974	4.43
415.332	4.43
415.69	4.42
416.048	4.39
416.406	4.41
416.764	4.36
417.122	4.37
417.48	4.39
417.838	4.42
418.195	4.4
418.553	4.41
418.911	4.4
419.269	4.41
419.626	4.41
419.984	4.41
420.342	4.39
420.699	4.41
421.057	4.41
421.414	4.41
421.772	4.4
422.129	4.4
422.486	4.39
422.844	4.38
423.201	4.39
423.558	4.41
423.915	4.39
424.273	4.4
424.63	4.4
424.987	4.4
425.344	4.38
425.701	4.4
426.058	4.4
426.415	4.39
426.772	4.38
427.128	4.36
427.485	4.37
427.842	4.37
428.199	4.37
428.555	4.35
428.912	4.35
429.269	4.37
429.625	4.34
429.982	4.35
430.338	4.35
430.695	4.36
431.051	4.33
431.407	4.35
431.764	4.35
432.12	4.35
432.476	4.36
432.832	4.35
433.189	4.35
433.545	4.33
433.901	4.34
434.257	4.34
434.613	4.34
434.969	4.35
435.325	4.36
435.681	4.37
436.036	4.39
436.392	4.39
436.748	4.37
437.104	4.38
437.459	4.38
437.815	4.38
438.171	4.37
438.526	4.37
438.882	4.38
439.237	4.4
439.593	4.39
439.948	4.4
440.304	4.39
440.659	4.4
441.014	4.41
441.369	4.4
441.725	4.39
442.08	4.38
442.435	4.38
442.79	4.38
443.145	4.36
443.5	4.36
443.855	4.34
444.21	4.35
444.565	4.34
444.92	4.34
445.275	4.34
445.629	4.34
445.984	4.35
446.339	4.34
446.693	4.31
447.048	4.31
447.403	4.29
447.757	4.28
448.112	4.27
448.466	4.27
448.82	4.27
449.175	4.28
449.529	4.28
449.883	4.26
450.238	4.25
450.592	4.26
450.946	4.26
451.3	4.28
451.654	4.27
452.008	4.27
452.362	4.27
452.716	4.25
453.07	4.24
453.424	4.23
453.778	4.23
454.132	4.22
454.486	4.21
454.839	4.21
455.193	4.23
455.547	4.24
455.9	4.23
456.254	4.24
456.607	4.24
456.961	4.26
457.314	4.28
457.668	4.28
458.021	4.27
458.375	4.27
458.728	4.27
459.081	4.28
459.434	4.27
459.787	4.28
460.141	4.3
460.494	4.3
460.847	4.3
461.2	4.29
461.553	4.31
461.906	4.32
462.259	4.33
462.611	4.35
462.964	4.35
463.317	4.36
463.67	4.35
464.022	4.35
464.375	4.33
464.728	4.32
465.08	4.33
465.433	4.33
465.785	4.29
466.138	4.29
466.49	4.3
466.843	4.3
467.195	4.27
467.547	4.26
467.899	4.29
468.252	4.3
468.604	4.32
468.956	4.31
469.308	4.33
469.66	4.3
470.012	4.29
470.364	4.3
470.716	4.29
471.068	4.31
471.42	4.3
471.772	4.34
472.123	4.35
472.475	4.36
472.827	4.39
473.178	4.44
473.53	4.42
473.882	4.43
474.233	4.45
474.585	4.45
474.936	4.47
475.288	4.43
475.639	4.44
475.99	4.45
476.342	4.44
476.693	4.44
477.044	4.46
477.395	4.45
477.746	4.44
478.097	4.45
478.448	4.46
478.8	4.47
479.15	4.45
479.501	4.46
479.852	4.46
480.203	4.46
480.554	4.47
480.905	4.49
481.255	4.49
481.606	4.49
481.957	4.5
482.307	4.5
482.658	4.51
483.009	4.51
483.359	4.51
483.709	4.53
484.06	4.52
484.41	4.54
484.761	4.55
485.111	4.55
485.461	4.56
485.811	4.56
486.162	4.56
486.512	4.57
486.862	4.56
487.212	4.55
487.562	4.55
487.912	4.55
488.262	4.54
488.612	4.54
488.961	4.55
489.311	4.54
489.661	4.55
490.011	4.55
490.36	4.55
490.71	4.55
491.06	4.54
491.409	4.54
491.759	4.53
492.108	4.53
492.458	4.53
492.807	4.51
493.157	4.5
493.506	4.5
493.855	4.5
494.204	4.51
494.554	4.51
494.903	4.51
495.252	4.5
495.601	4.49
495.95	4.5
496.299	4.49
496.648	4.5
496.997	4.48
497.346	4.48
497.695	4.49
498.043	4.49
498.392	4.47
498.741	4.49
499.09	4.48
499.438	4.49
499.787	4.49
500.135	4.51
500.484	4.54
500.832	4.55
501.181	4.53
501.529	4.53
501.878	4.56
502.226	4.59
502.574	4.62
502.923	4.64
503.271	4.66
503.619	4.68
503.967	4.69
504.315	4.71
504.663	4.72
505.011	4.73
505.359	4.72
505.707	4.75
506.055	4.75
506.403	4.77
506.751	4.77
507.098	4.79
507.446	4.78
507.794	4.78
508.141	4.8
508.489	4.82
508.837	4.84
509.184	4.84
509.531	4.86
509.879	4.87
510.226	4.9
510.574	4.9
510.921	4.9
511.268	4.9
511.616	4.92
511.963	4.92
512.31	4.95
512.657	4.97
513.004	4.98
513.351	4.99
513.698	5
514.045	5.02
514.392	5.02
514.739	5.04
515.086	5.04
515.432	5.03
515.779	5.04
516.126	5.06
516.473	5.07
516.819	5.06
517.166	5.08
517.512	5.06
517.859	5.07
518.205	5.07
518.552	5.09
518.898	5.09
519.245	5.1
519.591	5.08
519.937	5.11
520.283	5.11
520.629	5.1
520.976	5.09
521.322	5.11
521.668	5.1
522.014	5.1
522.36	5.11
522.706	5.11
523.052	5.09
523.398	5.1
523.743	5.1
524.089	5.1
524.435	5.09
524.781	5.11
525.126	5.11
525.472	5.12
525.817	5.11
526.163	5.12
526.509	5.12
526.854	5.13
527.199	5.13
527.545	5.13
527.89	5.14
528.235	5.14
528.581	5.13
528.926	5.14
529.271	5.14
529.616	5.14
529.961	5.15
530.306	5.17
530.651	5.18
530.996	5.18
531.341	5.17
531.686	5.17
532.031	5.17
532.376	5.18
532.721	5.17
533.065	5.17
533.41	5.18
533.755	5.19
534.099	5.19
534.444	5.19
534.788	5.2
535.133	5.2
535.477	5.21
535.822	5.21
536.166	5.21
536.51	5.23
536.855	5.24
537.199	5.24
537.543	5.23
537.887	5.23
538.231	5.24
538.576	5.26
538.92	5.26
539.264	5.27
539.608	5.27
539.951	5.27
540.295	5.29
540.639	5.28
540.983	5.27
541.327	5.28
541.671	5.28
542.014	5.28
542.358	5.28
542.701	5.28
543.045	5.3
543.389	5.31
543.732	5.3
544.075	5.29
544.419	5.3
544.762	5.3
545.105	5.29
545.449	5.29
545.792	5.29
546.135	5.29
546.478	5.29
546.821	5.29
547.165	5.3
547.508	5.32
547.851	5.32
548.194	5.33
548.536	5.33
548.879	5.34
549.222	5.35
549.565	5.34
549.908	5.36
550.25	5.35
550.593	5.36
550.936	5.36
551.278	5.39
551.621	5.4
551.963	5.4
552.306	5.4
552.648	5.42
552.991	5.45
553.333	5.45
553.675	5.43
554.017	5.45
554.36	5.46
554.702	5.46
555.044	5.46
555.386	5.48
555.728	5.47
556.07	5.49
556.412	5.48
556.754	5.47
557.096	5.44
557.438	5.43
557.78	5.43
558.121	5.46
558.463	5.44
558.805	5.41
559.147	5.42
559.488	5.39
559.83	5.38
560.171	5.35
560.513	5.34
560.854	5.37
561.196	5.35
561.537	5.33
561.878	5.33
562.22	5.35
562.561	5.3
562.902	5.33
563.243	5.33
563.584	5.35
563.925	5.38
564.266	5.39
564.607	5.41
564.948	5.42
565.289	5.41
565.63	5.43
565.971	5.44
566.312	5.42
566.653	5.44
566.993	5.46
567.334	5.48
567.675	5.47
568.015	5.47
568.356	5.47
568.696	5.49
569.037	5.5
569.377	5.5
569.718	5.53
570.058	5.52
570.398	5.53
570.739	5.53
571.079	5.54
571.419	5.54
571.759	5.55
572.099	5.53
572.439	5.53
572.779	5.54
573.119	5.56
573.459	5.57
573.799	5.59
574.139	5.58
574.479	5.57
574.819	5.59
575.158	5.59
575.498	5.62
575.838	5.6
576.177	5.57
576.517	5.56
576.856	5.57
577.196	5.58
577.535	5.54
577.875	5.58
578.214	5.55
578.553	5.55
578.893	5.53
579.232	5.53
579.571	5.56
579.91	5.53
580.25	5.53
580.589	5.56
580.928	5.59
581.267	5.6
581.606	5.62
581.945	5.62
582.283	5.63
582.622	5.57
582.961	5.58
583.3	5.62
583.639	5.66
583.977	5.63
584.316	5.64
584.654	5.65
584.993	5.62
585.332	5.63
585.67	5.66
586.008	5.63
586.347	5.66
586.685	5.63
587.024	5.63
587.362	5.61
587.7	5.62
588.038	5.59
588.376	5.57
588.715	5.52
589.053	5.51
589.391	5.5
589.729	5.55
590.067	5.54
590.404	5.55
590.742	5.51
591.08	5.52
591.418	5.52
591.756	5.57
592.093	5.55
592.431	5.55
592.769	5.54
593.106	5.58
593.444	5.53
593.781	5.54
594.119	5.59
594.456	5.6
594.793	5.6
595.131	5.59
595.468	5.6
595.805	5.63
596.143	5.64
596.48	5.65
596.817	5.65
597.154	5.65
597.491	5.63
597.828	5.65
598.165	5.67
598.502	5.63
598.839	5.63
599.176	5.64
599.512	5.63
599.849	5.6
600.186	5.58
600.523	5.63
600.859	5.67
601.196	5.64
601.532	5.66
601.869	5.63
602.205	5.63
602.542	5.68
602.878	5.7
603.215	5.7
603.551	5.69
603.887	5.66
604.223	5.67
604.56	5.71
604.896	5.68
605.232	5.68
605.568	5.69
605.904	5.69
606.24	5.73
606.576	5.75
606.912	5.78
607.248	5.78
607.583	5.76
607.919	5.74
608.255	5.74
608.591	5.76
608.926	5.8
609.262	5.83
609.597	5.78
609.933	5.77
610.268	5.8
610.604	5.8
610.939	5.84
611.275	5.84
611.61	5.86
611.945	5.9
612.281	5.93
612.616	5.96
612.951	5.95
613.286	5.92
613.621	5.93
613.956	5.89
614.291	5.94
614.626	5.97
614.961	5.95
615.296	5.96
615.631	5.95
615.966	5.94
616.3	5.93
616.635	5.94
616.97	5.9
617.304	5.86
617.639	5.89
617.973	5.89
618.308	5.9
618.642	5.83
618.977	5.8
619.311	5.8
619.646	5.76
619.98	5.72
620.314	5.74
620.648	5.74
620.983	5.8
621.317	5.77
621.651	5.81
621.985	5.84
622.319	5.86
622.653	5.83
622.987	5.83
623.321	5.81
623.655	5.82
623.988	5.87
624.322	5.84
624.656	5.87
624.99	5.89
625.323	5.96
625.657	5.98
625.99	6.02
626.324	5.98
626.657	6.03
626.991	6.07
627.324	6.08
627.658	6.08
627.991	6.11
628.324	6.11
628.657	6.09
628.991	6.07
629.324	6.06
629.657	6.1
629.99	6.08
630.323	6.08
630.656	6.08
630.989	6.13
631.322	6.21
631.655	6.14
631.987	6.09
632.32	6.04
632.653	6.05
632.986	6.04
633.318	6.04
633.651	6
633.984	6.02
634.316	5.96
634.649	5.99
634.981	5.94
635.313	5.95
635.646	5.92
635.978	5.96
636.31	5.98
636.643	6.01
636.975	6.07
637.307	6.07
637.639	6.1
637.971	6.09
638.303	6.03
638.635	6.08
638.967	6.13
639.299	6.17
639.631	6.15
639.963	6.05
640.295	6.1
640.626	6.19
640.958	6.22
641.29	6.22
641.621	6.16
641.953	6.16
642.285	6.14
642.616	6.22
642.948	6.16
643.279	6.12
643.61	6.08
643.942	6.03
644.273	5.99
644.604	5.92
644.936	5.88
645.267	5.85
645.598	5.87
645.929	5.87
646.26	5.87
646.591	5.82
646.922	5.91
647.253	5.86
647.584	5.8
647.915	5.69
648.245	5.73
648.576	5.78
648.907	5.82
649.238	5.85
649.568	5.82
649.899	5.87
650.229	5.87
650.56	5.87
650.89	5.9
651.221	5.96
651.551	6
651.882	5.98
652.212	6.08
652.542	6.09
652.872	6.01
653.203	5.96
653.533	6.05
653.863	6.03
654.193	6.08
654.523	6.08
654.853	6.2
655.183	6.19
655.513	6.17
655.843	6.12
656.172	6.13
656.502	6.15
656.832	6.19
657.162	6.19
657.491	6.21
657.821	6.24
658.15	6.27
658.48	6.27
658.809	6.25
659.139	6.22
659.468	6.2
659.798	6.33
660.127	6.34
660.456	6.36
660.785	6.39
661.115	6.4
661.444	6.37
661.773	6.37
662.102	6.39
662.431	6.4
662.76	6.48
663.089	6.44
663.418	6.44
663.747	6.39
664.076	6.38
664.404	6.33
664.733	6.31
665.062	6.32
665.39	6.37
665.719	6.43
666.048	6.48
666.376	6.47
666.705	6.41
667.033	6.38
667.362	6.36
667.69	6.34
668.018	6.3
668.347	6.34
668.675	6.39
669.003	6.42
669.331	6.5
669.659	6.43
669.987	6.5
670.315	6.48
670.643	6.52
670.971	6.55
671.299	6.63
671.627	6.68
671.955	6.59
672.283	6.46
672.61	6.4
672.938	6.38
673.266	6.46
673.593	6.52
673.921	6.51
674.249	6.58
674.576	6.56
674.904	6.61
675.231	6.56
675.558	6.45
675.886	6.42
676.213	6.38
