Data from BA28415_Reflection_00013.txt Node
Date: Mon Nov 18 16:02:35 EST 2019
User: vgr7
Spectrometer: USB2G7710
Scans to average: 3
Trigger mode: 4
Integration Time (sec): 2.000000E-2
Electric dark correction enabled: true
Boxcar width: 10
XAxis mode: Wavelengths
Number of Pixels in Spectrum: 2048
>>>>>Begin Spectral Data<<<<<
177.721	-242.59
178.105	-213.9
178.488	-87.2
178.871	-128.84
179.254	-43.71
179.636	-981.52
180.019	322
180.402	128.57
180.785	331.1
181.168	87.47
181.55	148.07
181.933	118.47
182.316	104.32
182.698	80.47
183.081	52.15
183.463	22.23
183.846	46.19
184.228	53.27
184.611	39.7
184.993	25.66
185.376	3.9
185.758	6.1
186.14	35.72
186.522	60.67
186.904	48.16
187.287	42.54
187.669	35.65
188.051	136.57
188.433	572.92
188.815	1042.45
189.197	-272.23
189.579	-90.18
189.961	-120.25
190.342	-78.62
190.724	-49.29
191.106	-54.93
191.488	-86.52
191.869	-33.88
192.251	-132.48
192.633	-72.55
193.014	-132.61
193.396	-130.07
193.777	-155.87
194.159	-245.45
194.54	-114.13
194.922	-132.95
195.303	-127.3
195.684	-147.61
196.065	-162.87
196.447	-547.86
196.828	-300.98
197.209	-194.95
197.59	-2088.12
197.971	-336.52
198.352	-350.63
198.733	-2599.12
199.114	-436.03
199.495	-487.22
199.876	892.53
200.257	1474.1
200.638	-812.73
201.018	711.31
201.399	1382.21
201.78	-1287.1
202.16	612.47
202.541	344.2
202.922	239.64
203.302	235.58
203.683	229.36
204.063	269.78
204.444	412.27
204.824	322.93
205.204	300
205.585	1521.52
205.965	353.2
206.345	336.43
206.725	300
207.106	357.59
207.486	297.3
207.866	460.08
208.246	929.1
208.626	356.52
209.006	1500
209.386	956.84
209.766	914.25
210.145	-5716.9
210.525	-8559.57
210.905	-489.6
211.285	-246.72
211.664	-226.86
212.044	-150.4
212.424	-92.35
212.803	-95.2
213.183	-102.96
213.562	-108.43
213.942	-63.11
214.321	-52.83
214.701	-59.37
215.08	-66.75
215.459	-103.92
215.838	-52.44
216.218	-65.93
216.597	-37.07
216.976	-40.23
217.355	-15.11
217.734	-2.94
218.113	5.59
218.492	-8.34
218.871	-19.78
219.25	-19.49
219.629	-1.02
220.008	-21.63
220.387	-65.08
220.766	-84.64
221.144	-132.1
221.523	-177.59
221.902	1074.68
222.28	-167.3
222.659	-45.36
223.037	-23.77
223.416	-12.44
223.794	-16.06
224.173	7.15
224.551	-2.1
224.929	4.7
225.308	-2.48
225.686	0.72
226.064	0.67
226.442	4.33
226.821	2.4
227.199	-0.08
227.577	-7.82
227.955	-8.81
228.333	-5.16
228.711	-2.36
229.089	-2.25
229.467	-4.56
229.845	-3.79
230.222	-2.7
230.6	-1.64
230.978	-3.21
231.356	1.84
231.733	0.86
232.111	-0.14
232.488	0.58
232.866	1.15
233.243	2.03
233.621	0.5
233.998	2.75
234.376	3.88
234.753	4.86
235.13	5.5
235.508	7.65
235.885	7.59
236.262	6.11
236.639	5.88
237.016	6.38
237.393	7.59
237.77	8.25
238.147	8.49
238.524	8.54
238.901	8.76
239.278	7.95
239.655	8.33
240.032	7.68
240.409	7.61
240.785	8.3
241.162	8.72
241.539	9.1
241.915	8.39
242.292	8.06
242.668	7.8
243.045	7.5
243.421	7.01
243.798	6.95
244.174	6.86
244.551	6.8
244.927	6.94
245.303	7.01
245.679	6.94
246.056	6.9
246.432	6.8
246.808	6.58
247.184	6.37
247.56	6.39
247.936	6.64
248.312	6.85
248.688	6.69
249.064	6.5
249.44	6.33
249.815	6.54
250.191	6.67
250.567	6.75
250.943	6.85
251.318	7.02
251.694	6.93
252.069	7.07
252.445	6.85
252.82	6.87
253.196	6.74
253.571	6.75
253.947	6.71
254.322	6.83
254.697	6.95
255.073	6.96
255.448	6.87
255.823	6.51
256.198	6.51
256.573	6.33
256.948	6.38
257.323	6.5
257.698	6.38
258.073	5.99
258.448	5.79
258.823	5.82
259.198	5.75
259.573	5.83
259.948	5.8
260.322	5.97
260.697	5.9
261.072	5.84
261.446	5.9
261.821	5.83
262.195	5.85
262.57	5.8
262.944	5.84
263.319	5.79
263.693	5.91
264.067	5.89
264.442	5.76
264.816	5.74
265.19	5.46
265.564	5.38
265.938	5.52
266.313	5.63
266.687	5.58
267.061	5.8
267.435	5.82
267.809	5.78
268.183	5.72
268.556	5.61
268.93	5.7
269.304	5.55
269.678	5.67
270.051	5.56
270.425	5.65
270.799	5.6
271.172	5.7
271.546	5.57
271.919	5.37
272.293	5.37
272.666	5.5
273.04	5.59
273.413	5.75
273.787	5.76
274.16	5.59
274.533	5.58
274.906	5.52
275.279	5.38
275.653	5.46
276.026	5.38
276.399	5.4
276.772	5.47
277.145	5.4
277.518	5.32
277.891	5.52
278.263	5.36
278.636	5.44
279.009	5.34
279.382	5.54
279.755	5.68
280.127	6.02
280.5	6.02
280.872	6
281.245	5.92
281.617	5.89
281.99	6.12
282.362	6.41
282.735	6.32
283.107	6.4
283.479	6.29
283.852	6.33
284.224	6.33
284.596	6.26
284.968	6.46
285.34	6.57
285.713	6.53
286.085	6.62
286.457	6.74
286.829	6.8
287.201	6.72
287.572	6.8
287.944	6.66
288.316	6.61
288.688	6.49
289.06	6.6
289.431	6.61
289.803	6.64
290.175	6.56
290.546	6.75
290.918	6.88
291.289	7.02
291.661	7.23
292.032	7.3
292.403	7.39
292.775	7.46
293.146	7.44
293.517	7.33
293.889	7.36
294.26	7.35
294.631	7.44
295.002	7.6
295.373	7.43
295.744	7.62
296.115	7.64
296.486	7.81
296.857	7.77
297.228	7.88
297.599	7.87
297.97	7.84
298.34	7.84
298.711	7.93
299.082	7.99
299.452	7.94
299.823	8.13
300.194	8.17
300.564	8.18
300.935	8.32
301.305	8.49
301.676	8.69
302.046	8.77
302.416	8.83
302.787	8.81
303.157	9.09
303.527	8.97
303.897	9.18
304.267	9.37
304.637	9.39
305.008	9.51
305.378	9.59
305.748	9.64
306.117	9.68
306.487	9.7
306.857	9.91
307.227	10
307.597	10.09
307.967	10.09
308.336	10.26
308.706	10.36
309.076	10.5
309.445	10.46
309.815	10.4
310.184	10.46
310.554	10.55
310.923	10.45
311.293	10.58
311.662	10.5
312.031	10.5
312.401	10.68
312.77	10.8
313.139	11.03
313.508	11.14
313.877	11.13
314.246	11.24
314.616	11.16
314.985	11.24
315.353	11.2
315.722	11.42
316.091	11.17
316.46	11.22
316.829	11.26
317.198	11.51
317.567	11.78
317.935	11.76
318.304	11.8
318.672	11.99
319.041	12.15
319.41	12.45
319.778	12.42
320.147	12.41
320.515	12.43
320.883	12.3
321.252	12.54
321.62	12.76
321.988	12.83
322.357	13
322.725	13.09
323.093	13.12
323.461	13.23
323.829	13.55
324.197	13.48
324.565	13.48
324.933	13.35
325.301	13.24
325.669	13.42
326.037	13.49
326.405	13.59
326.772	13.53
327.14	13.42
327.508	13.49
327.875	13.35
328.243	13.38
328.61	13.51
328.978	13.42
329.346	13.48
329.713	13.5
330.08	13.57
330.448	13.6
330.815	13.54
331.182	13.45
331.55	13.48
331.917	13.52
332.284	13.63
332.651	13.68
333.018	13.8
333.385	13.83
333.752	13.91
334.119	13.98
334.486	14.03
334.853	14.16
335.22	14.29
335.587	14.46
335.954	14.55
336.32	14.5
336.687	14.54
337.054	14.51
337.42	14.57
337.787	14.52
338.153	14.44
338.52	14.66
338.886	14.59
339.253	14.54
339.619	14.71
339.986	14.72
340.352	14.89
340.718	14.97
341.084	14.95
341.451	14.96
341.817	15.01
342.183	15.07
342.549	14.96
342.915	14.96
343.281	15.1
343.647	15.2
344.013	15.3
344.379	15.35
344.745	15.44
345.11	15.42
345.476	15.51
345.842	15.53
346.208	15.38
346.573	15.44
346.939	15.48
347.304	15.47
347.67	15.47
348.035	15.36
348.401	15.34
348.766	15.42
349.132	15.45
349.497	15.44
349.862	15.46
350.228	15.62
350.593	15.58
350.958	15.71
351.323	15.67
351.688	15.71
352.053	15.75
352.418	15.8
352.783	15.75
353.148	15.68
353.513	15.79
353.878	15.88
354.243	15.97
354.608	16
354.972	16.04
355.337	16.12
355.702	16.21
356.066	16.24
356.431	16.23
356.795	16.22
357.16	16.1
357.524	16.03
357.889	15.97
358.253	16
358.618	15.89
358.982	15.89
359.346	15.79
359.71	15.69
360.075	15.66
360.439	15.68
360.803	15.72
361.167	15.62
361.531	15.61
361.895	15.5
362.259	15.45
362.623	15.37
362.987	15.32
363.351	15.28
363.714	15.22
364.078	15.21
364.442	15.18
364.806	15.22
365.169	15.26
365.533	15.25
365.896	15.24
366.26	15.23
366.623	15.13
366.987	15.12
367.35	15.1
367.714	15.04
368.077	14.97
368.44	14.89
368.803	14.94
369.167	14.84
369.53	14.86
369.893	14.93
370.256	14.91
370.619	14.84
370.982	14.8
371.345	14.76
371.708	14.65
372.071	14.62
372.434	14.61
372.797	14.53
373.159	14.5
373.522	14.45
373.885	14.38
374.247	14.38
374.61	14.36
374.973	14.28
375.335	14.22
375.698	14.21
376.06	14.21
376.423	14.1
376.785	14.13
377.147	14.13
377.51	14.01
377.872	14.03
378.234	13.96
378.596	13.86
378.958	13.83
379.321	13.84
379.683	13.89
380.045	13.84
380.407	13.83
380.769	13.71
381.13	13.68
381.492	13.63
381.854	13.57
382.216	13.53
382.578	13.55
382.939	13.53
383.301	13.45
383.663	13.36
384.024	13.38
384.386	13.37
384.747	13.26
385.109	13.29
385.47	13.16
385.832	13.09
386.193	13.11
386.554	13.08
386.916	13.02
387.277	12.94
387.638	12.91
387.999	12.87
388.36	12.9
388.721	12.89
389.082	12.84
389.443	12.75
389.804	12.7
390.165	12.66
390.526	12.61
390.887	12.61
391.248	12.62
391.609	12.6
391.969	12.58
392.33	12.58
392.691	12.48
393.051	12.47
393.412	12.48
393.772	12.44
394.133	12.38
394.493	12.32
394.854	12.26
395.214	12.22
395.574	12.16
395.935	12.1
396.295	12.01
396.655	11.99
397.015	11.99
397.376	11.96
397.736	11.91
398.096	11.84
398.456	11.75
398.816	11.68
399.176	11.6
399.535	11.48
399.895	11.44
400.255	11.4
400.615	11.35
400.975	11.32
401.334	11.25
401.694	11.21
402.054	11.19
402.413	11.13
402.773	11.02
403.132	11.01
403.492	10.96
403.851	10.95
404.211	10.92
404.57	10.88
404.929	10.86
405.288	10.84
405.648	10.8
406.007	10.82
406.366	10.8
406.725	10.78
407.084	10.77
407.443	10.73
407.802	10.73
408.161	10.71
408.52	10.66
408.879	10.62
409.238	10.58
409.596	10.53
409.955	10.52
410.314	10.54
410.673	10.51
411.031	10.51
411.39	10.48
411.748	10.43
412.107	10.44
412.465	10.41
412.824	10.39
413.182	10.38
413.54	10.37
413.899	10.36
414.257	10.33
414.615	10.28
414.974	10.25
415.332	10.22
415.69	10.17
416.048	10.14
416.406	10.13
416.764	10.1
417.122	10.1
417.48	10.06
417.838	10.03
418.195	10
418.553	9.95
418.911	9.93
419.269	9.88
419.626	9.84
419.984	9.78
420.342	9.75
420.699	9.73
421.057	9.69
421.414	9.64
421.772	9.62
422.129	9.58
422.486	9.55
422.844	9.53
423.201	9.5
423.558	9.47
423.915	9.44
424.273	9.43
424.63	9.38
424.987	9.36
425.344	9.34
425.701	9.3
426.058	9.29
426.415	9.24
426.772	9.23
427.128	9.21
427.485	9.22
427.842	9.17
428.199	9.15
428.555	9.12
428.912	9.12
429.269	9.09
429.625	9.08
429.982	9.06
430.338	9.06
430.695	9.06
431.051	9.04
431.407	9.06
431.764	9.04
432.12	9.01
432.476	9
432.832	8.97
433.189	8.95
433.545	8.92
433.901	8.9
434.257	8.92
434.613	8.92
434.969	8.91
435.325	8.94
435.681	8.94
436.036	8.95
436.392	8.95
436.748	8.95
437.104	8.96
437.459	8.98
437.815	8.98
438.171	8.97
438.526	8.99
438.882	8.97
439.237	8.99
439.593	9.01
439.948	8.99
440.304	9
440.659	9.03
441.014	9.03
441.369	9.04
441.725	9
442.08	9
442.435	8.99
442.79	8.98
443.145	8.95
443.5	8.93
443.855	8.92
444.21	8.9
444.565	8.88
444.92	8.88
445.275	8.83
445.629	8.82
445.984	8.79
446.339	8.78
446.693	8.74
447.048	8.73
447.403	8.72
447.757	8.71
448.112	8.68
448.466	8.66
448.82	8.64
449.175	8.64
449.529	8.61
449.883	8.58
450.238	8.56
450.592	8.56
450.946	8.53
451.3	8.49
451.654	8.46
452.008	8.47
452.362	8.42
452.716	8.42
453.07	8.38
453.424	8.38
453.778	8.38
454.132	8.38
454.486	8.37
454.839	8.38
455.193	8.37
455.547	8.34
455.9	8.34
456.254	8.35
456.607	8.36
456.961	8.36
457.314	8.37
457.668	8.39
458.021	8.38
458.375	8.39
458.728	8.41
459.081	8.43
459.434	8.42
459.787	8.44
460.141	8.44
460.494	8.45
460.847	8.48
461.2	8.47
461.553	8.47
461.906	8.48
462.259	8.5
462.611	8.52
462.964	8.54
463.317	8.56
463.67	8.6
464.022	8.61
464.375	8.62
464.728	8.62
465.08	8.62
465.433	8.64
465.785	8.68
466.138	8.69
466.49	8.73
466.843	8.74
467.195	8.76
467.547	8.8
467.899	8.84
468.252	8.83
468.604	8.86
468.956	8.9
469.308	8.93
469.66	8.93
470.012	8.95
470.364	8.97
470.716	8.99
471.068	8.98
471.42	9.01
471.772	9.07
472.123	9.13
472.475	9.17
472.827	9.19
473.178	9.19
473.53	9.21
473.882	9.22
474.233	9.26
474.585	9.24
474.936	9.22
475.288	9.2
475.639	9.21
475.99	9.22
476.342	9.19
476.693	9.18
477.044	9.19
477.395	9.18
477.746	9.19
478.097	9.21
478.448	9.22
478.8	9.2
479.15	9.16
479.501	9.15
479.852	9.15
480.203	9.15
480.554	9.15
480.905	9.16
481.255	9.14
481.606	9.13
481.957	9.14
482.307	9.14
482.658	9.14
483.009	9.13
483.359	9.14
483.709	9.16
484.06	9.15
484.41	9.15
484.761	9.14
485.111	9.14
485.461	9.14
485.811	9.14
486.162	9.13
486.512	9.15
486.862	9.15
487.212	9.14
487.562	9.15
487.912	9.15
488.262	9.16
488.612	9.15
488.961	9.16
489.311	9.17
489.661	9.19
490.011	9.21
490.36	9.22
490.71	9.22
491.06	9.22
491.409	9.24
491.759	9.25
492.108	9.28
492.458	9.3
492.807	9.32
493.157	9.34
493.506	9.4
493.855	9.41
494.204	9.44
494.554	9.48
494.903	9.52
495.252	9.57
495.601	9.6
495.95	9.67
496.299	9.71
496.648	9.76
496.997	9.81
497.346	9.86
497.695	9.92
498.043	9.99
498.392	10.06
498.741	10.14
499.09	10.21
499.438	10.29
499.787	10.34
500.135	10.41
500.484	10.49
500.832	10.55
501.181	10.63
501.529	10.72
501.878	10.8
502.226	10.88
502.574	10.96
502.923	11.05
503.271	11.16
503.619	11.28
503.967	11.4
504.315	11.49
504.663	11.58
505.011	11.69
505.359	11.82
505.707	11.96
506.055	12.04
506.403	12.14
506.751	12.25
507.098	12.37
507.446	12.51
507.794	12.6
508.141	12.73
508.489	12.85
508.837	12.98
509.184	13.11
509.531	13.21
509.879	13.34
510.226	13.45
510.574	13.56
510.921	13.65
511.268	13.74
511.616	13.86
511.963	14
512.31	14.13
512.657	14.25
513.004	14.35
513.351	14.51
513.698	14.66
514.045	14.77
514.392	14.9
514.739	15.03
515.086	15.18
515.432	15.3
515.779	15.41
516.126	15.53
516.473	15.63
516.819	15.77
517.166	15.88
517.512	16
517.859	16.08
518.205	16.25
518.552	16.37
518.898	16.49
519.245	16.6
519.591	16.7
519.937	16.79
520.283	16.9
520.629	17.03
520.976	17.16
521.322	17.27
521.668	17.41
522.014	17.52
522.36	17.67
522.706	17.81
523.052	17.99
523.398	18.18
523.743	18.37
524.089	18.54
524.435	18.73
524.781	18.91
525.126	19.11
525.472	19.24
525.817	19.39
526.163	19.54
526.509	19.66
526.854	19.79
527.199	19.92
527.545	20.04
527.89	20.15
528.235	20.28
528.581	20.42
528.926	20.55
529.271	20.7
529.616	20.83
529.961	20.97
530.306	21.1
530.651	21.24
530.996	21.4
531.341	21.58
531.686	21.74
532.031	21.9
532.376	22.06
532.721	22.24
533.065	22.43
533.41	22.61
533.755	22.82
534.099	23.01
534.444	23.22
534.788	23.43
535.133	23.63
535.477	23.82
535.822	24.01
536.166	24.24
536.51	24.47
536.855	24.72
537.199	24.98
537.543	25.3
537.887	25.58
538.231	25.85
538.576	26.12
538.92	26.42
539.264	26.69
539.608	26.97
539.951	27.2
540.295	27.4
540.639	27.62
540.983	27.82
541.327	28.03
541.671	28.25
542.014	28.44
542.358	28.66
542.701	28.89
543.045	29.12
543.389	29.33
543.732	29.54
544.075	29.76
544.419	30.02
544.762	30.2
545.105	30.44
545.449	30.7
545.792	30.95
546.135	31.2
546.478	31.49
546.821	31.76
547.165	32.08
547.508	32.44
547.851	32.77
548.194	33.1
548.536	33.41
548.879	33.71
549.222	34.06
549.565	34.39
549.908	34.68
550.25	34.99
550.593	35.33
550.936	35.73
551.278	36.08
551.621	36.4
551.963	36.77
552.306	37.08
552.648	37.35
552.991	37.68
553.333	37.97
553.675	38.26
554.017	38.53
554.36	38.78
554.702	39.03
555.044	39.36
555.386	39.63
555.728	39.93
556.07	40.26
556.412	40.58
556.754	40.89
557.096	41.23
557.438	41.55
557.78	41.77
558.121	42.04
558.463	42.37
558.805	42.62
559.147	42.9
559.488	43.17
559.83	43.45
560.171	43.65
560.513	43.95
560.854	44.21
561.196	44.46
561.537	44.8
561.878	45.09
562.22	45.22
562.561	45.48
562.902	45.73
563.243	45.95
563.584	46.17
563.925	46.43
564.266	46.59
564.607	46.82
564.948	47.13
565.289	47.33
565.63	47.52
565.971	47.7
566.312	47.87
566.653	48.11
566.993	48.35
567.334	48.6
567.675	48.75
568.015	48.95
568.356	49.17
568.696	49.32
569.037	49.46
569.377	49.67
569.718	49.85
570.058	50.02
570.398	50.17
570.739	50.3
571.079	50.47
571.419	50.66
571.759	50.82
572.099	50.99
572.439	51.12
572.779	51.25
573.119	51.42
573.459	51.65
573.799	51.79
574.139	51.89
574.479	51.97
574.819	52.14
575.158	52.32
575.498	52.41
575.838	52.56
576.177	52.68
576.517	52.85
576.856	53.01
577.196	53.13
577.535	53.26
577.875	53.42
578.214	53.51
578.553	53.63
578.893	53.77
579.232	53.86
579.571	54.03
579.91	54.12
580.25	54.22
580.589	54.35
580.928	54.49
581.267	54.67
581.606	54.79
581.945	54.89
582.283	54.96
582.622	55.09
582.961	55.18
583.3	55.32
583.639	55.42
583.977	55.55
584.316	55.68
584.654	55.84
584.993	55.87
585.332	56.02
585.67	56.1
586.008	56.13
586.347	56.16
586.685	56.19
587.024	56.34
587.362	56.43
587.7	56.41
588.038	56.44
588.376	56.6
588.715	56.68
589.053	56.8
589.391	56.85
589.729	57.02
590.067	57.12
590.404	57.16
590.742	57.18
591.08	57.18
591.418	57.29
591.756	57.36
592.093	57.52
592.431	57.54
592.769	57.56
593.106	57.61
593.444	57.73
593.781	57.85
594.119	57.89
594.456	57.93
594.793	57.98
595.131	58.07
595.468	58.03
595.805	58.1
596.143	58.09
596.48	58.13
596.817	58.08
597.154	58.11
597.491	58.19
597.828	58.28
598.165	58.37
598.502	58.38
598.839	58.4
599.176	58.43
599.512	58.51
599.849	58.54
600.186	58.63
600.523	58.68
600.859	58.7
601.196	58.76
601.532	58.89
601.869	58.95
602.205	58.99
602.542	59.07
602.878	59.09
603.215	59.12
603.551	59.15
603.887	59.26
604.223	59.28
604.56	59.27
604.896	59.34
605.232	59.35
605.568	59.39
605.904	59.44
606.24	59.43
606.576	59.46
606.912	59.58
607.248	59.59
607.583	59.66
607.919	59.75
608.255	59.76
608.591	59.77
608.926	59.82
609.262	59.89
609.597	59.88
609.933	59.95
610.268	59.97
610.604	60.06
610.939	60.09
611.275	60.08
611.61	60.18
611.945	60.22
612.281	60.27
612.616	60.32
612.951	60.34
613.286	60.51
613.621	60.58
613.956	60.58
614.291	60.64
614.626	60.63
614.961	60.56
615.296	60.59
615.631	60.61
615.966	60.59
616.3	60.54
616.635	60.63
616.97	60.66
617.304	60.79
617.639	60.79
617.973	60.81
618.308	60.86
618.642	60.9
618.977	60.89
619.311	60.86
619.646	60.89
619.98	60.94
620.314	61.02
620.648	60.96
620.983	61
621.317	61.16
621.651	61.2
621.985	61.38
622.319	61.47
622.653	61.56
622.987	61.59
623.321	61.68
623.655	61.69
623.988	61.73
624.322	61.71
624.656	61.72
624.99	61.66
625.323	61.68
625.657	61.69
625.99	61.74
626.324	61.78
626.657	61.82
626.991	61.81
627.324	61.72
627.658	61.76
627.991	61.83
628.324	61.76
628.657	61.7
628.991	61.61
629.324	61.58
629.657	61.58
629.99	61.59
630.323	61.54
630.656	61.56
630.989	61.6
631.322	61.61
631.655	61.67
631.987	61.72
632.32	61.8
632.653	61.8
632.986	61.83
633.318	61.91
633.651	61.84
633.984	61.93
634.316	61.97
634.649	62.05
634.981	61.94
635.313	61.97
635.646	62.08
635.978	62.14
636.31	62.14
636.643	62.05
636.975	62.07
637.307	62.12
637.639	62.04
637.971	62.02
638.303	62.05
638.635	62.05
638.967	62.06
639.299	62.04
639.631	62.1
639.963	62.12
640.295	62.01
640.626	62.1
640.958	61.99
641.29	62
641.621	61.88
641.953	61.95
642.285	61.93
642.616	61.89
642.948	62
643.279	62.02
643.61	62.06
643.942	62.14
644.273	62.16
644.604	62.24
644.936	62.22
645.267	62.17
645.598	62.16
645.929	62.2
646.26	62.12
646.591	62.09
646.922	62.1
647.253	62.18
647.584	62.27
647.915	62.36
648.245	62.25
648.576	62.3
648.907	62.31
649.238	62.41
649.568	62.45
649.899	62.41
650.229	62.46
650.56	62.52
650.89	62.41
651.221	62.38
651.551	62.36
651.882	62.38
652.212	62.44
652.542	62.38
652.872	62.38
653.203	62.47
653.533	62.41
653.863	62.41
654.193	62.44
654.523	62.4
654.853	62.41
655.183	62.56
655.513	62.64
655.843	62.78
656.172	62.71
656.502	62.74
656.832	62.72
657.162	62.77
657.491	62.72
657.821	62.78
658.15	62.72
658.48	62.83
658.809	62.77
659.139	62.85
659.468	62.85
