Data from BA28469_Reflection_00007.txt Node
Date: Mon Nov 18 15:17:59 EST 2019
User: vgr7
Spectrometer: USB2G7710
Scans to average: 3
Trigger mode: 4
Integration Time (sec): 2.000000E-2
Electric dark correction enabled: true
Boxcar width: 10
XAxis mode: Wavelengths
Number of Pixels in Spectrum: 2048
>>>>>Begin Spectral Data<<<<<
177.721	1.91
178.105	-1566.67
178.488	11.17
178.871	83.59
179.254	58.2
179.636	-6566.67
180.019	108.18
180.402	78.95
180.785	130.43
181.168	24.96
181.55	287.79
181.933	107.33
182.316	159.26
182.698	166.31
183.081	364.05
183.463	274.66
183.846	285.06
184.228	571.98
184.611	293.94
184.993	24544.44
185.376	-1182.7
185.758	-650.58
186.14	-431.49
186.522	-2000.63
186.904	-783
187.287	1014.45
187.669	-487.22
188.051	-674.05
188.433	-223.93
188.815	-129.89
189.197	-119.08
189.579	-104.79
189.961	-92.22
190.342	-79.76
190.724	-34.48
191.106	-71.4
191.488	-70.57
191.869	-56.53
192.251	-73.14
192.633	-62.15
193.014	-63.44
193.396	-74.07
193.777	-74.33
194.159	-85.46
194.54	-79.36
194.922	-77.71
195.303	-71.4
195.684	-78.58
196.065	-70.89
196.447	-61.16
196.828	-74.13
197.209	-62.55
197.59	-72.34
197.971	-74.96
198.352	-36.55
198.733	-119.57
199.114	-58.02
199.495	-69.19
199.876	-71.98
200.257	-76.7
200.638	-67.78
201.018	-71.23
201.399	-54.23
201.78	-50.56
202.16	-63.79
202.541	-86.78
202.922	-116.06
203.302	-170.23
203.683	-158.76
204.063	-154.59
204.444	-179.35
204.824	-187.63
205.204	-201.45
205.585	-194.39
205.965	-181.84
206.345	-206.62
206.725	-178.84
207.106	-258.34
207.486	-259.64
207.866	-298.56
208.246	-264.17
208.626	-306.7
209.006	-266.91
209.386	-301.92
209.766	-253.12
210.145	-183.49
210.525	-161.02
210.905	-168.22
211.285	-141.42
211.664	-128.26
212.044	-108.56
212.424	-100.42
212.803	-107.31
213.183	-80.06
213.562	-73.52
213.942	-65.61
214.321	-63.15
214.701	-59.67
215.08	-57.8
215.459	-50.23
215.838	-41.42
216.218	-44.76
216.597	-28.41
216.976	-36.71
217.355	-32.55
217.734	-27.53
218.113	-20.8
218.492	-21.33
218.871	-16.08
219.25	-14.13
219.629	-19.96
220.008	-28.05
220.387	-33.41
220.766	-27.92
221.144	-41.43
221.523	-41.41
221.902	-44.53
222.28	-56.96
222.659	-45.47
223.037	-43.52
223.416	-56.07
223.794	-64.07
224.173	-61.68
224.551	-74.79
224.929	-64.63
225.308	-54.33
225.686	-48.85
226.064	-47.11
226.442	-35.57
226.821	-28.67
227.199	-25.09
227.577	-25.35
227.955	-26.67
228.333	-22.62
228.711	-19.22
229.089	-15.98
229.467	-14.81
229.845	-14.85
230.222	-15.03
230.6	-15.41
230.978	-16.37
231.356	-13.09
231.733	-10.2
232.111	-8.75
232.488	-7.51
232.866	-5.89
233.243	-4.53
233.621	-3.81
233.998	-3.02
234.376	-4.93
234.753	-5.55
235.13	-5.44
235.508	-4.3
235.885	-3.74
236.262	-4.35
236.639	-5.39
237.016	-5.86
237.393	-4.31
237.77	-3.84
238.147	-2.29
238.524	-1.48
238.901	-0.2
239.278	0.64
239.655	0.89
240.032	0.96
240.409	0.49
240.785	0.43
241.162	0.66
241.539	0.56
241.915	0.43
242.292	0.67
242.668	0.86
243.045	1.04
243.421	1.02
243.798	1.2
244.174	1.17
244.551	1.41
244.927	1.3
245.303	1.09
245.679	1.3
246.056	1.29
246.432	1.22
246.808	1.18
247.184	0.89
247.56	0.77
247.936	0.85
248.312	1.07
248.688	1.07
249.064	1.04
249.44	1.2
249.815	1.26
250.191	1.33
250.567	1.15
250.943	0.92
251.318	1.17
251.694	1.05
252.069	0.93
252.445	0.82
252.82	0.86
253.196	1.2
253.571	1.28
253.947	1.48
254.322	1.77
254.697	1.72
255.073	1.73
255.448	1.56
255.823	1.57
256.198	1.59
256.573	1.73
256.948	1.74
257.323	1.69
257.698	1.76
258.073	1.75
258.448	1.8
258.823	1.94
259.198	1.84
259.573	2.07
259.948	2.2
260.322	2.29
260.697	2.39
261.072	2.3
261.446	2.23
261.821	2.14
262.195	2.25
262.57	2.18
262.944	2.16
263.319	2.24
263.693	2.14
264.067	2.22
264.442	2.28
264.816	2.25
265.19	2.34
265.564	2.22
265.938	2.14
266.313	2.22
266.687	2.27
267.061	2.34
267.435	2.14
267.809	2.12
268.183	2.09
268.556	1.82
268.93	1.83
269.304	1.9
269.678	1.98
270.051	1.7
270.425	1.9
270.799	1.97
271.172	2.07
271.546	2.19
271.919	2.17
272.293	2.14
272.666	2.15
273.04	2.05
273.413	2.09
273.787	2.22
274.16	2.22
274.533	2.07
274.906	1.94
275.279	1.98
275.653	1.87
276.026	1.95
276.399	2.03
276.772	2.1
277.145	1.94
277.518	1.94
277.891	2.05
278.263	1.92
278.636	1.91
279.009	1.79
279.382	1.86
279.755	1.64
280.127	1.69
280.5	1.83
280.872	1.93
281.245	1.94
281.617	2.01
281.99	2.14
282.362	2.28
282.735	2.26
283.107	2.35
283.479	2.52
283.852	2.47
284.224	2.45
284.596	2.38
284.968	2.45
285.34	2.46
285.713	2.37
286.085	2.44
286.457	2.4
286.829	2.5
287.201	2.4
287.572	2.59
287.944	2.56
288.316	2.54
288.688	2.53
289.06	2.49
289.431	2.42
289.803	2.34
290.175	2.29
290.546	2.47
290.918	2.4
291.289	2.32
291.661	2.38
292.032	2.49
292.403	2.46
292.775	2.51
293.146	2.48
293.517	2.56
293.889	2.61
294.26	2.73
294.631	2.65
295.002	2.62
295.373	2.54
295.744	2.59
296.115	2.52
296.486	2.44
296.857	2.46
297.228	2.44
297.599	2.38
297.97	2.44
298.34	2.35
298.711	2.34
299.082	2.32
299.452	2.21
299.823	2.16
300.194	2.19
300.564	2.22
300.935	2.25
301.305	2.17
301.676	2.08
302.046	2.06
302.416	2.1
302.787	2.14
303.157	2.17
303.527	2.09
303.897	2.09
304.267	2.35
304.637	2.36
305.008	2.44
305.378	2.53
305.748	2.58
306.117	2.53
306.487	2.64
306.857	2.67
307.227	2.85
307.597	2.93
307.967	2.82
308.336	2.76
308.706	2.77
309.076	2.93
309.445	2.86
309.815	2.76
310.184	2.78
310.554	2.81
310.923	2.83
311.293	2.83
311.662	2.79
312.031	2.69
312.401	2.7
312.77	2.69
313.139	2.79
313.508	2.78
313.877	2.78
314.246	2.67
314.616	2.73
314.985	2.66
315.353	2.49
315.722	2.81
316.091	2.86
316.46	2.83
316.829	2.83
317.198	3.07
317.567	3.15
317.935	3.13
318.304	3.18
318.672	3.14
319.041	3.33
319.41	3.48
319.778	3.43
320.147	3.54
320.515	3.6
320.883	3.53
321.252	3.56
321.62	3.72
321.988	3.87
322.357	3.9
322.725	3.89
323.093	4.08
323.461	3.87
323.829	3.92
324.197	4.06
324.565	4.11
324.933	4.04
325.301	4
325.669	4.13
326.037	4.14
326.405	4.22
326.772	4.19
327.14	4.21
327.508	4.23
327.875	4.18
328.243	4.16
328.61	4.21
328.978	4.32
329.346	4.41
329.713	4.33
330.08	4.34
330.448	4.43
330.815	4.45
331.182	4.57
331.55	4.6
331.917	4.55
332.284	4.66
332.651	4.63
333.018	4.74
333.385	4.67
333.752	4.86
334.119	4.92
334.486	4.87
334.853	4.88
335.22	4.88
335.587	4.88
335.954	4.81
336.32	4.82
336.687	4.69
337.054	4.7
337.42	4.78
337.787	4.81
338.153	4.78
338.52	4.91
338.886	4.82
339.253	4.7
339.619	4.65
339.986	4.55
340.352	4.68
340.718	4.7
341.084	4.68
341.451	4.58
341.817	4.5
342.183	4.42
342.549	4.45
342.915	4.5
343.281	4.55
343.647	4.58
344.013	4.54
344.379	4.57
344.745	4.51
345.11	4.57
345.476	4.61
345.842	4.64
346.208	4.53
346.573	4.58
346.939	4.7
347.304	4.69
347.67	4.62
348.035	4.59
348.401	4.61
348.766	4.69
349.132	4.7
349.497	4.72
349.862	4.85
350.228	4.85
350.593	4.7
350.958	4.83
351.323	4.88
351.688	4.91
352.053	4.96
352.418	5.02
352.783	5.02
353.148	4.95
353.513	4.94
353.878	5.03
354.243	5.03
354.608	5.03
354.972	5.14
355.337	5.26
355.702	5.32
356.066	5.33
356.431	5.24
356.795	5.21
357.16	5.25
357.524	5.15
357.889	5.14
358.253	5.25
358.618	5.22
358.982	5.15
359.346	5.16
359.71	5.2
360.075	5.16
360.439	5.12
360.803	5.14
361.167	5.13
361.531	5.06
361.895	5.04
362.259	5.02
362.623	4.93
362.987	4.81
363.351	4.71
363.714	4.7
364.078	4.71
364.442	4.68
364.806	4.63
365.169	4.68
365.533	4.65
365.896	4.59
366.26	4.51
366.623	4.57
366.987	4.55
367.35	4.47
367.714	4.43
368.077	4.39
368.44	4.31
368.803	4.26
369.167	4.28
369.53	4.28
369.893	4.31
370.256	4.36
370.619	4.37
370.982	4.34
371.345	4.32
371.708	4.37
372.071	4.31
372.434	4.28
372.797	4.23
373.159	4.17
373.522	4.2
373.885	4.23
374.247	4.22
374.61	4.22
374.973	4.17
375.335	4.17
375.698	4.11
376.06	4.11
376.423	4.16
376.785	4.15
377.147	4.18
377.51	4.11
377.872	4.07
378.234	4.1
378.596	4.09
378.958	4.03
379.321	3.93
379.683	3.94
380.045	3.95
380.407	3.89
380.769	3.91
381.13	3.88
381.492	3.83
381.854	3.79
382.216	3.75
382.578	3.71
382.939	3.63
383.301	3.65
383.663	3.59
384.024	3.53
384.386	3.46
384.747	3.41
385.109	3.4
385.47	3.34
385.832	3.28
386.193	3.31
386.554	3.33
386.916	3.36
387.277	3.36
387.638	3.36
387.999	3.36
388.36	3.35
388.721	3.36
389.082	3.34
389.443	3.27
389.804	3.27
390.165	3.28
390.526	3.3
390.887	3.27
391.248	3.3
391.609	3.29
391.969	3.31
392.33	3.25
392.691	3.22
393.051	3.23
393.412	3.24
393.772	3.19
394.133	3.17
394.493	3.12
394.854	3.08
395.214	3.02
395.574	3.02
395.935	2.96
396.295	2.92
396.655	2.9
397.015	2.9
397.376	2.84
397.736	2.82
398.096	2.83
398.456	2.81
398.816	2.8
399.176	2.77
399.535	2.74
399.895	2.75
400.255	2.73
400.615	2.72
400.975	2.71
401.334	2.7
401.694	2.67
402.054	2.66
402.413	2.69
402.773	2.71
403.132	2.68
403.492	2.68
403.851	2.69
404.211	2.68
404.57	2.72
404.929	2.74
405.288	2.71
405.648	2.67
406.007	2.68
406.366	2.65
406.725	2.67
407.084	2.67
407.443	2.66
407.802	2.69
408.161	2.67
408.52	2.62
408.879	2.59
409.238	2.6
409.596	2.6
409.955	2.57
410.314	2.58
410.673	2.58
411.031	2.57
411.39	2.53
411.748	2.55
412.107	2.53
412.465	2.47
412.824	2.47
413.182	2.45
413.54	2.46
413.899	2.46
414.257	2.44
414.615	2.42
414.974	2.42
415.332	2.4
415.69	2.4
416.048	2.41
416.406	2.43
416.764	2.41
417.122	2.41
417.48	2.41
417.838	2.4
418.195	2.4
418.553	2.41
418.911	2.43
419.269	2.42
419.626	2.4
419.984	2.41
420.342	2.41
420.699	2.4
421.057	2.4
421.414	2.39
421.772	2.38
422.129	2.37
422.486	2.36
422.844	2.35
423.201	2.34
423.558	2.34
423.915	2.34
424.273	2.34
424.63	2.33
424.987	2.33
425.344	2.31
425.701	2.3
426.058	2.28
426.415	2.26
426.772	2.24
427.128	2.23
427.485	2.23
427.842	2.22
428.199	2.23
428.555	2.22
428.912	2.23
429.269	2.22
429.625	2.22
429.982	2.22
430.338	2.23
430.695	2.23
431.051	2.21
431.407	2.2
431.764	2.19
432.12	2.18
432.476	2.18
432.832	2.18
433.189	2.19
433.545	2.21
433.901	2.21
434.257	2.21
434.613	2.21
434.969	2.21
435.325	2.21
435.681	2.2
436.036	2.2
436.392	2.21
436.748	2.22
437.104	2.22
437.459	2.22
437.815	2.22
438.171	2.23
438.526	2.26
438.882	2.26
439.237	2.28
439.593	2.28
439.948	2.28
440.304	2.28
440.659	2.28
441.014	2.26
441.369	2.26
441.725	2.25
442.08	2.26
442.435	2.26
442.79	2.26
443.145	2.25
443.5	2.24
443.855	2.24
444.21	2.23
444.565	2.23
444.92	2.24
445.275	2.24
445.629	2.23
445.984	2.21
446.339	2.2
446.693	2.18
447.048	2.18
447.403	2.18
447.757	2.17
448.112	2.15
448.466	2.15
448.82	2.16
449.175	2.17
449.529	2.17
449.883	2.15
450.238	2.14
450.592	2.16
450.946	2.15
451.3	2.13
451.654	2.14
452.008	2.14
452.362	2.12
452.716	2.13
453.07	2.14
453.424	2.12
453.778	2.13
454.132	2.14
454.486	2.13
454.839	2.12
455.193	2.13
455.547	2.14
455.9	2.16
456.254	2.15
456.607	2.13
456.961	2.12
457.314	2.13
457.668	2.12
458.021	2.11
458.375	2.12
458.728	2.12
459.081	2.1
459.434	2.08
459.787	2.07
460.141	2.06
460.494	2.06
460.847	2.06
461.2	2.04
461.553	2.04
461.906	2.06
462.259	2.08
462.611	2.08
462.964	2.08
463.317	2.06
463.67	2.07
464.022	2.09
464.375	2.08
464.728	2.09
465.08	2.1
465.433	2.1
465.785	2.11
466.138	2.12
466.49	2.12
466.843	2.13
467.195	2.13
467.547	2.13
467.899	2.14
468.252	2.16
468.604	2.2
468.956	2.2
469.308	2.19
469.66	2.16
470.012	2.16
470.364	2.15
470.716	2.19
471.068	2.15
471.42	2.17
471.772	2.19
472.123	2.2
472.475	2.22
472.827	2.25
473.178	2.25
473.53	2.25
473.882	2.25
474.233	2.26
474.585	2.28
474.936	2.29
475.288	2.28
475.639	2.28
475.99	2.25
476.342	2.25
476.693	2.24
477.044	2.28
477.395	2.28
477.746	2.29
478.097	2.27
478.448	2.29
478.8	2.28
479.15	2.26
479.501	2.26
479.852	2.25
480.203	2.25
480.554	2.24
480.905	2.24
481.255	2.25
481.606	2.25
481.957	2.26
482.307	2.26
482.658	2.27
483.009	2.27
483.359	2.27
483.709	2.28
484.06	2.27
484.41	2.26
484.761	2.26
485.111	2.26
485.461	2.26
485.811	2.26
486.162	2.26
486.512	2.28
486.862	2.27
487.212	2.28
487.562	2.28
487.912	2.28
488.262	2.27
488.612	2.27
488.961	2.27
489.311	2.26
489.661	2.26
490.011	2.27
490.36	2.26
490.71	2.27
491.06	2.26
491.409	2.26
491.759	2.26
492.108	2.26
492.458	2.26
492.807	2.26
493.157	2.26
493.506	2.25
493.855	2.23
494.204	2.23
494.554	2.23
494.903	2.22
495.252	2.22
495.601	2.25
495.95	2.26
496.299	2.27
496.648	2.27
496.997	2.27
497.346	2.27
497.695	2.29
498.043	2.31
498.392	2.32
498.741	2.34
499.09	2.35
499.438	2.37
499.787	2.38
500.135	2.4
500.484	2.43
500.832	2.45
501.181	2.48
501.529	2.51
501.878	2.55
502.226	2.56
502.574	2.59
502.923	2.6
503.271	2.63
503.619	2.65
503.967	2.67
504.315	2.7
504.663	2.72
505.011	2.73
505.359	2.74
505.707	2.79
506.055	2.82
506.403	2.84
506.751	2.87
507.098	2.91
507.446	2.94
507.794	2.95
508.141	2.97
508.489	2.99
508.837	3.02
509.184	3.05
509.531	3.07
509.879	3.11
510.226	3.15
510.574	3.15
510.921	3.19
511.268	3.22
511.616	3.25
511.963	3.31
512.31	3.35
512.657	3.39
513.004	3.41
513.351	3.47
513.698	3.53
514.045	3.55
514.392	3.6
514.739	3.63
515.086	3.7
515.432	3.76
515.779	3.8
516.126	3.85
516.473	3.89
516.819	3.96
517.166	4
517.512	4.04
517.859	4.09
518.205	4.13
518.552	4.18
518.898	4.23
519.245	4.27
519.591	4.32
519.937	4.36
520.283	4.42
520.629	4.47
520.976	4.51
521.322	4.57
521.668	4.62
522.014	4.71
522.36	4.78
522.706	4.85
523.052	4.93
523.398	5.02
523.743	5.09
524.089	5.17
524.435	5.25
524.781	5.33
525.126	5.42
525.472	5.5
525.817	5.58
526.163	5.65
526.509	5.71
526.854	5.77
527.199	5.83
527.545	5.88
527.89	5.94
528.235	6.01
528.581	6.08
528.926	6.15
529.271	6.2
529.616	6.26
529.961	6.33
530.306	6.41
530.651	6.48
530.996	6.58
531.341	6.66
531.686	6.75
532.031	6.85
532.376	6.95
532.721	7.04
533.065	7.12
533.41	7.23
533.755	7.35
534.099	7.48
534.444	7.61
534.788	7.74
535.133	7.86
535.477	7.99
535.822	8.13
536.166	8.3
536.51	8.46
536.855	8.65
537.199	8.83
537.543	9.01
537.887	9.18
538.231	9.36
538.576	9.57
538.92	9.76
539.264	9.94
539.608	10.12
539.951	10.28
540.295	10.44
540.639	10.61
540.983	10.77
541.327	10.93
541.671	11.08
542.014	11.26
542.358	11.42
542.701	11.6
543.045	11.76
543.389	11.92
543.732	12.09
544.075	12.28
544.419	12.47
544.762	12.68
545.105	12.89
545.449	13.09
545.792	13.32
546.135	13.56
546.478	13.82
546.821	14.08
547.165	14.39
547.508	14.7
547.851	14.97
548.194	15.24
548.536	15.51
548.879	15.85
549.222	16.13
549.565	16.45
549.908	16.75
550.25	17.07
550.593	17.38
550.936	17.71
551.278	18.01
551.621	18.35
551.963	18.65
552.306	18.98
552.648	19.32
552.991	19.65
553.333	19.93
553.675	20.21
554.017	20.52
554.36	20.79
554.702	21.09
555.044	21.39
555.386	21.7
555.728	22
556.07	22.28
556.412	22.61
556.754	22.9
557.096	23.22
557.438	23.55
557.78	23.87
558.121	24.27
558.463	24.57
558.805	24.91
559.147	25.22
559.488	25.52
559.83	25.79
560.171	26.07
560.513	26.37
560.854	26.67
561.196	26.99
561.537	27.3
561.878	27.64
562.22	27.95
562.561	28.25
562.902	28.54
563.243	28.8
563.584	29.08
563.925	29.34
564.266	29.53
564.607	29.79
564.948	30.05
565.289	30.25
565.63	30.46
565.971	30.69
566.312	30.91
566.653	31.21
566.993	31.46
567.334	31.68
567.675	31.96
568.015	32.21
568.356	32.41
568.696	32.64
569.037	32.85
569.377	33.05
569.718	33.29
570.058	33.5
570.398	33.73
570.739	33.95
571.079	34.15
571.419	34.45
571.759	34.67
572.099	34.83
572.439	35
572.779	35.21
573.119	35.38
573.459	35.58
573.799	35.74
574.139	35.93
574.479	36.13
574.819	36.27
575.158	36.43
575.498	36.62
575.838	36.76
576.177	36.95
576.517	37.12
576.856	37.31
577.196	37.48
577.535	37.68
577.875	37.84
578.214	38.03
578.553	38.17
578.893	38.35
579.232	38.57
579.571	38.75
579.91	38.94
580.25	39.07
580.589	39.21
580.928	39.38
581.267	39.55
581.606	39.65
581.945	39.84
582.283	39.98
582.622	40.14
582.961	40.34
583.3	40.44
583.639	40.61
583.977	40.72
584.316	40.84
584.654	40.99
584.993	41.12
585.332	41.23
585.67	41.32
586.008	41.43
586.347	41.51
586.685	41.65
587.024	41.74
587.362	41.93
587.7	42.08
588.038	42.13
588.376	42.2
588.715	42.35
589.053	42.42
589.391	42.62
589.729	42.75
590.067	42.83
590.404	42.92
590.742	43.01
591.08	43.13
591.418	43.26
591.756	43.32
592.093	43.46
592.431	43.53
592.769	43.66
593.106	43.73
593.444	43.87
593.781	43.93
594.119	44.05
594.456	44.08
594.793	44.1
595.131	44.2
595.468	44.26
595.805	44.34
596.143	44.35
596.48	44.37
596.817	44.42
597.154	44.5
597.491	44.59
597.828	44.66
598.165	44.71
598.502	44.76
598.839	44.85
599.176	44.93
599.512	45.01
599.849	45.06
600.186	45.19
600.523	45.29
600.859	45.38
601.196	45.48
601.532	45.6
601.869	45.75
602.205	45.88
602.542	45.98
602.878	46.01
603.215	46.16
603.551	46.23
603.887	46.27
604.223	46.3
604.56	46.42
604.896	46.5
605.232	46.6
605.568	46.65
605.904	46.7
606.24	46.74
606.576	46.86
606.912	46.91
607.248	46.88
607.583	46.91
607.919	47.01
608.255	47.02
608.591	47.04
608.926	47.03
609.262	47.06
609.597	47.03
609.933	47.1
610.268	47.1
610.604	47.14
610.939	47.18
611.275	47.28
611.61	47.26
611.945	47.26
612.281	47.27
612.616	47.37
612.951	47.39
613.286	47.41
613.621	47.4
613.956	47.48
614.291	47.57
614.626	47.6
614.961	47.6
615.296	47.72
615.631	47.86
615.966	47.96
616.3	47.99
616.635	48.14
616.97	48.19
617.304	48.25
617.639	48.28
617.973	48.36
618.308	48.38
618.642	48.39
618.977	48.39
619.311	48.47
619.646	48.45
619.98	48.61
620.314	48.64
620.648	48.72
620.983	48.79
621.317	48.84
621.651	48.91
621.985	49.02
622.319	48.95
622.653	48.93
622.987	49.04
623.321	49.1
623.655	49.19
623.988	49.26
624.322	49.34
624.656	49.4
624.99	49.35
625.323	49.3
625.657	49.33
625.99	49.38
626.324	49.29
626.657	49.33
626.991	49.28
627.324	49.34
627.658	49.43
627.991	49.55
628.324	49.6
628.657	49.6
628.991	49.54
629.324	49.61
629.657	49.65
629.99	49.62
630.323	49.65
630.656	49.66
630.989	49.69
631.322	49.66
631.655	49.7
631.987	49.83
632.32	49.98
632.653	50.03
632.986	50.1
633.318	50.17
633.651	50.23
633.984	50.22
634.316	50.16
634.649	50.11
634.981	49.97
635.313	49.95
635.646	49.93
635.978	50.04
636.31	50.04
636.643	50.03
636.975	50.02
637.307	50.05
637.639	50.12
637.971	50.19
638.303	50.3
638.635	50.27
638.967	50.22
639.299	50.13
639.631	50.13
639.963	50.11
640.295	50.07
640.626	50.13
640.958	50.2
641.29	50.31
641.621	50.32
641.953	50.37
642.285	50.45
642.616	50.55
642.948	50.46
643.279	50.49
643.61	50.56
643.942	50.54
644.273	50.52
644.604	50.45
644.936	50.34
645.267	50.34
645.598	50.36
645.929	50.36
646.26	50.39
646.591	50.44
646.922	50.48
647.253	50.59
647.584	50.55
647.915	50.5
648.245	50.51
648.576	50.54
648.907	50.6
649.238	50.57
649.568	50.47
649.899	50.51
650.229	50.54
650.56	50.57
650.89	50.67
651.221	50.58
651.551	50.5
651.882	50.53
652.212	50.49
652.542	50.49
652.872	50.52
653.203	50.62
653.533	50.57
653.863	50.58
654.193	50.57
654.523	50.62
654.853	50.64
655.183	50.51
655.513	50.49
655.843	50.54
656.172	50.58
656.502	50.67
656.832	50.78
657.162	50.81
657.491	50.87
657.821	50.84
658.15	50.89
658.48	51.02
658.809	51.04
659.139	51.09
659.468	51.05
659.798	51.08
660.127	51.06
660.456	51.13
660.785	51.24
661.115	51.31
661.444	51.35
661.773	51.4
662.102	51.59
662.431	51.7
662.76	51.72
663.089	51.71
663.418	51.78
663.747	51.8
664.076	51.84
664.404	51.76
664.733	51.79
665.062	51.81
665.39	51.85
665.719	51.92
666.048	51.87
