Data from BA28468_Reflection_00010.txt Node
Date: Mon Nov 18 15:15:03 EST 2019
User: vgr7
Spectrometer: USB2G7710
Scans to average: 3
Trigger mode: 4
Integration Time (sec): 2.000000E-2
Electric dark correction enabled: true
Boxcar width: 10
XAxis mode: Wavelengths
Number of Pixels in Spectrum: 2048
>>>>>Begin Spectral Data<<<<<
177.721	57.99
178.105	1100
178.488	-27.72
178.871	-92.47
179.254	103.71
179.636	586.84
180.019	-120.8
180.402	16.36
180.785	-31.8
181.168	26.8
181.55	-17.85
181.933	-1758.82
182.316	-450.65
182.698	-328.27
183.081	-270.8
183.463	-185.71
183.846	-3746.15
184.228	-191.39
184.611	96.46
184.993	68.66
185.376	54.88
185.758	50.87
186.14	39.67
186.522	41.87
186.904	46.09
187.287	-9.91
187.669	17.3
188.051	11.5
188.433	12.65
188.815	18.54
189.197	9.81
189.579	13.92
189.961	32.77
190.342	25.94
190.724	16.31
191.106	17.7
191.488	11.36
191.869	-3.38
192.251	-6.95
192.633	-9.83
193.014	-9.59
193.396	-22.92
193.777	-14.6
194.159	-14.14
194.54	-10.2
194.922	-17.04
195.303	-13.51
195.684	-12.93
196.065	-1.04
196.447	-3.7
196.828	-5.06
197.209	-2.11
197.59	-2.5
197.971	-2.38
198.352	6.65
198.733	5.09
199.114	4.97
199.495	13.03
199.876	18.07
200.257	11.33
200.638	11.15
201.018	11.89
201.399	18.95
201.78	12.93
202.16	12.89
202.541	0.3
202.922	6.78
203.302	0.29
203.683	6.93
204.063	3.67
204.444	4.91
204.824	0.22
205.204	7.85
205.585	15.96
205.965	22.27
206.345	11.45
206.725	11.61
207.106	0.69
207.486	-11.41
207.866	-13.36
208.246	-2.4
208.626	-4.81
209.006	-1.2
209.386	-8.8
209.766	-4.72
210.145	-2.03
210.525	23.39
210.905	25.94
211.285	32.84
211.664	36.75
212.044	33.25
212.424	21.11
212.803	25.49
213.183	14.92
213.562	8.48
213.942	7.99
214.321	13.2
214.701	17.03
215.08	20
215.459	25.54
215.838	22.56
216.218	19.71
216.597	28.95
216.976	20.74
217.355	18.03
217.734	15.65
218.113	15.81
218.492	5.73
218.871	1.51
219.25	5.09
219.629	-8.17
220.008	-4.91
220.387	-1.77
220.766	-2.68
221.144	-6.43
221.523	-15.58
221.902	-25.59
222.28	-29.56
222.659	-37.87
223.037	-29.31
223.416	-31.9
223.794	-27.33
224.173	-26.22
224.551	-30.85
224.929	-23.66
225.308	-14.21
225.686	-11.48
226.064	-9.42
226.442	-7.3
226.821	-5.79
227.199	-9.3
227.577	-6.85
227.955	-7.09
228.333	-8.19
228.711	-5.5
229.089	-0.61
229.467	1.17
229.845	3.32
230.222	4.39
230.6	5.36
230.978	3.54
231.356	6.4
231.733	5.93
232.111	4.44
232.488	7.25
232.866	6.94
233.243	6.19
233.621	4.72
233.998	4.43
234.376	4.15
234.753	3.78
235.13	5.48
235.508	6.12
235.885	6.7
236.262	6.78
236.639	6.36
237.016	6.35
237.393	7.28
237.77	7.53
238.147	6.86
238.524	7.44
238.901	8.22
239.278	7.11
239.655	7.27
240.032	7.07
240.409	6.16
240.785	6.08
241.162	6.1
241.539	6.84
241.915	6.65
242.292	6.33
242.668	6.49
243.045	6.04
243.421	5.74
243.798	5.76
244.174	5.72
244.551	5.53
244.927	5.26
245.303	5.19
245.679	5.08
246.056	5.14
246.432	4.88
246.808	4.59
247.184	4.47
247.56	4.23
247.936	4.36
248.312	4.31
248.688	4.14
249.064	3.95
249.44	3.82
249.815	3.8
250.191	4.03
250.567	3.93
250.943	3.79
251.318	3.9
251.694	3.75
252.069	3.56
252.445	3.77
252.82	3.76
253.196	3.5
253.571	3.41
253.947	3.25
254.322	3.44
254.697	3.19
255.073	3.26
255.448	3.22
255.823	3.25
256.198	3.41
256.573	3.74
256.948	4.04
257.323	4.07
257.698	4.02
258.073	3.83
258.448	3.79
258.823	3.82
259.198	3.65
259.573	3.67
259.948	3.74
260.322	3.46
260.697	3.59
261.072	3.59
261.446	3.5
261.821	3.48
262.195	3.53
262.57	3.68
262.944	3.79
263.319	3.95
263.693	4.04
264.067	4.11
264.442	4.22
264.816	4.01
265.19	3.94
265.564	4.04
265.938	4.08
266.313	4.07
266.687	4.14
267.061	4.26
267.435	4.18
267.809	4
268.183	4.25
268.556	4.07
268.93	4.14
269.304	4.19
269.678	4.3
270.051	4.07
270.425	4.15
270.799	4.1
271.172	3.96
271.546	3.91
271.919	3.93
272.293	3.76
272.666	4
273.04	4.01
273.413	3.88
273.787	3.86
274.16	3.73
274.533	3.74
274.906	3.68
275.279	3.73
275.653	3.83
276.026	3.66
276.399	3.67
276.772	3.71
277.145	3.72
277.518	3.63
277.891	3.64
278.263	3.68
278.636	3.67
279.009	3.69
279.382	3.67
279.755	3.54
280.127	3.54
280.5	3.4
280.872	3.6
281.245	3.61
281.617	3.79
281.99	3.96
282.362	3.95
282.735	4
283.107	4.14
283.479	4.22
283.852	4.31
284.224	4.34
284.596	4.31
284.968	4.38
285.34	4.53
285.713	4.59
286.085	4.52
286.457	4.57
286.829	4.63
287.201	4.66
287.572	4.74
287.944	4.75
288.316	4.71
288.688	4.54
289.06	4.57
289.431	4.45
289.803	4.64
290.175	4.65
290.546	4.67
290.918	4.62
291.289	4.57
291.661	4.52
292.032	4.58
292.403	4.58
292.775	4.59
293.146	4.36
293.517	4.36
293.889	4.39
294.26	4.34
294.631	4.34
295.002	4.28
295.373	4.28
295.744	4.35
296.115	4.36
296.486	4.25
296.857	4.27
297.228	4.34
297.599	4.09
297.97	4.09
298.34	4.16
298.711	4.2
299.082	4.28
299.452	4.25
299.823	4.27
300.194	4.28
300.564	4.21
300.935	4.41
301.305	4.47
301.676	4.45
302.046	4.39
302.416	4.54
302.787	4.52
303.157	4.48
303.527	4.53
303.897	4.51
304.267	4.68
304.637	4.76
305.008	4.79
305.378	5.05
305.748	5.11
306.117	5.12
306.487	5.07
306.857	5.07
307.227	5.19
307.597	5.04
307.967	5.04
308.336	5.12
308.706	4.91
309.076	4.9
309.445	4.91
309.815	4.99
310.184	4.9
310.554	4.98
310.923	4.95
311.293	4.9
311.662	5.06
312.031	5.15
312.401	5.17
312.77	5.12
313.139	5.16
313.508	5.19
313.877	5.18
314.246	5.2
314.616	5.17
314.985	5.19
315.353	5.29
315.722	5.39
316.091	5.37
316.46	5.56
316.829	5.46
317.198	5.72
317.567	5.8
317.935	5.73
318.304	5.67
318.672	5.8
319.041	5.75
319.41	5.72
319.778	5.74
320.147	5.6
320.515	5.71
320.883	5.62
321.252	5.67
321.62	5.8
321.988	5.76
322.357	5.76
322.725	5.72
323.093	5.73
323.461	5.71
323.829	5.8
324.197	5.76
324.565	5.92
324.933	5.75
325.301	5.85
325.669	6.05
326.037	6.08
326.405	6.13
326.772	6.28
327.14	6.3
327.508	6.45
327.875	6.59
328.243	6.79
328.61	6.65
328.978	6.84
329.346	6.88
329.713	6.87
330.08	6.98
330.448	7.14
330.815	7.11
331.182	7.17
331.55	7.15
331.917	7.26
332.284	7.44
332.651	7.48
333.018	7.36
333.385	7.24
333.752	7.32
334.119	7.23
334.486	7.25
334.853	7.33
335.22	7.23
335.587	7.4
335.954	7.31
336.32	7.53
336.687	7.41
337.054	7.35
337.42	7.45
337.787	7.54
338.153	7.43
338.52	7.56
338.886	7.38
339.253	7.33
339.619	7.38
339.986	7.22
340.352	7.28
340.718	7.39
341.084	7.44
341.451	7.56
341.817	7.72
342.183	7.59
342.549	7.54
342.915	7.52
343.281	7.34
343.647	7.25
344.013	7.26
344.379	7.27
344.745	7.32
345.11	7.34
345.476	7.35
345.842	7.41
346.208	7.36
346.573	7.53
346.939	7.67
347.304	7.55
347.67	7.52
348.035	7.57
348.401	7.57
348.766	7.67
349.132	7.61
349.497	7.52
349.862	7.66
350.228	7.61
350.593	7.54
350.958	7.63
351.323	7.74
351.688	7.7
352.053	7.85
352.418	7.77
352.783	7.82
353.148	7.72
353.513	7.71
353.878	7.77
354.243	7.77
354.608	7.72
354.972	7.84
355.337	7.9
355.702	7.92
356.066	7.94
356.431	7.88
356.795	7.86
357.16	7.85
357.524	7.7
357.889	7.65
358.253	7.69
358.618	7.68
358.982	7.59
359.346	7.53
359.71	7.39
360.075	7.39
360.439	7.27
360.803	7.29
361.167	7.25
361.531	7.2
361.895	7.16
362.259	7.14
362.623	7.1
362.987	7.06
363.351	7
363.714	7.03
364.078	7.01
364.442	6.99
364.806	6.92
365.169	6.94
365.533	7
365.896	6.96
366.26	6.89
366.623	6.91
366.987	6.93
367.35	6.93
367.714	6.94
368.077	6.91
368.44	6.88
368.803	6.88
369.167	6.83
369.53	6.84
369.893	6.85
370.256	6.8
370.619	6.74
370.982	6.69
371.345	6.54
371.708	6.47
372.071	6.48
372.434	6.45
372.797	6.44
373.159	6.35
373.522	6.3
373.885	6.27
374.247	6.21
374.61	6.14
374.973	6.11
375.335	6.04
375.698	6.1
376.06	6.01
376.423	5.98
376.785	6.04
377.147	6
377.51	5.94
377.872	5.94
378.234	5.89
378.596	5.89
378.958	5.83
379.321	5.79
379.683	5.75
380.045	5.78
380.407	5.76
380.769	5.74
381.13	5.73
381.492	5.69
381.854	5.71
382.216	5.65
382.578	5.64
382.939	5.59
383.301	5.48
383.663	5.47
384.024	5.42
384.386	5.36
384.747	5.3
385.109	5.27
385.47	5.2
385.832	5.21
386.193	5.21
386.554	5.23
386.916	5.22
387.277	5.18
387.638	5.11
387.999	5.04
388.36	5.04
388.721	4.99
389.082	4.97
389.443	4.9
389.804	4.91
390.165	4.87
390.526	4.83
390.887	4.78
391.248	4.77
391.609	4.77
391.969	4.73
392.33	4.72
392.691	4.7
393.051	4.68
393.412	4.64
393.772	4.57
394.133	4.55
394.493	4.52
394.854	4.47
395.214	4.47
395.574	4.44
395.935	4.39
396.295	4.44
396.655	4.4
397.015	4.4
397.376	4.37
397.736	4.33
398.096	4.34
398.456	4.35
398.816	4.37
399.176	4.29
399.535	4.25
399.895	4.22
400.255	4.21
400.615	4.22
400.975	4.2
401.334	4.17
401.694	4.15
402.054	4.13
402.413	4.13
402.773	4.09
403.132	4.11
403.492	4.11
403.851	4.02
404.211	4.04
404.57	4
404.929	3.99
405.288	3.98
405.648	3.93
406.007	3.95
406.366	3.9
406.725	3.94
407.084	3.95
407.443	3.96
407.802	3.97
408.161	3.93
408.52	3.94
408.879	3.92
409.238	3.94
409.596	3.94
409.955	3.92
410.314	3.94
410.673	3.91
411.031	3.88
411.39	3.88
411.748	3.84
412.107	3.85
412.465	3.85
412.824	3.83
413.182	3.82
413.54	3.8
413.899	3.8
414.257	3.77
414.615	3.76
414.974	3.76
415.332	3.74
415.69	3.75
416.048	3.71
416.406	3.7
416.764	3.65
417.122	3.63
417.48	3.62
417.838	3.58
418.195	3.57
418.553	3.56
418.911	3.56
419.269	3.57
419.626	3.55
419.984	3.55
420.342	3.54
420.699	3.54
421.057	3.54
421.414	3.53
421.772	3.51
422.129	3.5
422.486	3.48
422.844	3.46
423.201	3.45
423.558	3.45
423.915	3.44
424.273	3.43
424.63	3.45
424.987	3.46
425.344	3.46
425.701	3.47
426.058	3.47
426.415	3.47
426.772	3.45
427.128	3.44
427.485	3.44
427.842	3.42
428.199	3.41
428.555	3.4
428.912	3.43
429.269	3.44
429.625	3.43
429.982	3.44
430.338	3.45
430.695	3.45
431.051	3.45
431.407	3.47
431.764	3.46
432.12	3.44
432.476	3.42
432.832	3.42
433.189	3.42
433.545	3.39
433.901	3.39
434.257	3.39
434.613	3.39
434.969	3.38
435.325	3.38
435.681	3.4
436.036	3.39
436.392	3.37
436.748	3.36
437.104	3.37
437.459	3.35
437.815	3.34
438.171	3.34
438.526	3.36
438.882	3.35
439.237	3.37
439.593	3.37
439.948	3.37
440.304	3.37
440.659	3.37
441.014	3.38
441.369	3.36
441.725	3.35
442.08	3.36
442.435	3.36
442.79	3.37
443.145	3.36
443.5	3.35
443.855	3.35
444.21	3.36
444.565	3.36
444.92	3.37
445.275	3.37
445.629	3.36
445.984	3.34
446.339	3.32
446.693	3.32
447.048	3.32
447.403	3.31
447.757	3.31
448.112	3.3
448.466	3.3
448.82	3.32
449.175	3.34
449.529	3.32
449.883	3.31
450.238	3.3
450.592	3.29
450.946	3.28
451.3	3.27
451.654	3.25
452.008	3.23
452.362	3.22
452.716	3.22
453.07	3.22
453.424	3.22
453.778	3.23
454.132	3.2
454.486	3.2
454.839	3.18
455.193	3.18
455.547	3.19
455.9	3.16
456.254	3.16
456.607	3.14
456.961	3.14
457.314	3.15
457.668	3.15
458.021	3.14
458.375	3.14
458.728	3.16
459.081	3.16
459.434	3.17
459.787	3.16
460.141	3.17
460.494	3.17
460.847	3.18
461.2	3.17
461.553	3.18
461.906	3.19
462.259	3.2
462.611	3.22
462.964	3.23
463.317	3.25
463.67	3.26
464.022	3.27
464.375	3.27
464.728	3.28
465.08	3.29
465.433	3.31
465.785	3.33
466.138	3.31
466.49	3.32
466.843	3.3
467.195	3.32
467.547	3.32
467.899	3.3
468.252	3.31
468.604	3.33
468.956	3.34
469.308	3.35
469.66	3.34
470.012	3.33
470.364	3.32
470.716	3.33
471.068	3.33
471.42	3.32
471.772	3.36
472.123	3.37
472.475	3.37
472.827	3.38
473.178	3.4
473.53	3.41
473.882	3.42
474.233	3.45
474.585	3.43
474.936	3.42
475.288	3.44
475.639	3.44
475.99	3.42
476.342	3.4
476.693	3.4
477.044	3.42
477.395	3.41
477.746	3.41
478.097	3.41
478.448	3.4
478.8	3.39
479.15	3.35
479.501	3.34
479.852	3.34
480.203	3.33
480.554	3.34
480.905	3.33
481.255	3.32
481.606	3.32
481.957	3.32
482.307	3.33
482.658	3.33
483.009	3.32
483.359	3.33
483.709	3.34
484.06	3.35
484.41	3.36
484.761	3.36
485.111	3.37
485.461	3.38
485.811	3.38
486.162	3.39
486.512	3.4
486.862	3.42
487.212	3.42
487.562	3.43
487.912	3.41
488.262	3.42
488.612	3.43
488.961	3.44
489.311	3.44
489.661	3.46
490.011	3.48
490.36	3.49
490.71	3.49
491.06	3.49
491.409	3.49
491.759	3.48
492.108	3.49
492.458	3.5
492.807	3.49
493.157	3.5
493.506	3.52
493.855	3.52
494.204	3.53
494.554	3.54
494.903	3.55
495.252	3.57
495.601	3.57
495.95	3.59
496.299	3.61
496.648	3.64
496.997	3.63
497.346	3.64
497.695	3.68
498.043	3.69
498.392	3.7
498.741	3.72
499.09	3.72
499.438	3.74
499.787	3.75
500.135	3.79
500.484	3.81
500.832	3.83
501.181	3.86
501.529	3.88
501.878	3.91
502.226	3.93
502.574	3.96
502.923	3.99
503.271	3.99
503.619	4.02
503.967	4.05
504.315	4.08
504.663	4.1
505.011	4.12
505.359	4.14
505.707	4.18
506.055	4.22
506.403	4.27
506.751	4.31
507.098	4.34
507.446	4.37
507.794	4.37
508.141	4.41
508.489	4.43
508.837	4.46
509.184	4.5
509.531	4.55
509.879	4.6
510.226	4.65
510.574	4.71
510.921	4.73
511.268	4.77
511.616	4.8
511.963	4.86
512.31	4.89
512.657	4.95
513.004	5
513.351	5.05
513.698	5.08
514.045	5.12
514.392	5.16
514.739	5.22
515.086	5.28
515.432	5.34
515.779	5.39
516.126	5.44
516.473	5.48
516.819	5.52
517.166	5.55
517.512	5.6
517.859	5.64
518.205	5.68
518.552	5.74
518.898	5.79
519.245	5.83
519.591	5.87
519.937	5.88
520.283	5.94
520.629	5.98
520.976	6.03
521.322	6.09
521.668	6.13
522.014	6.17
522.36	6.24
522.706	6.3
523.052	6.38
523.398	6.47
523.743	6.58
524.089	6.65
524.435	6.75
524.781	6.83
525.126	6.91
525.472	6.97
525.817	7.04
526.163	7.11
526.509	7.19
526.854	7.27
527.199	7.34
527.545	7.4
527.89	7.47
528.235	7.54
528.581	7.62
528.926	7.7
529.271	7.78
529.616	7.85
529.961	7.92
530.306	8
530.651	8.08
530.996	8.16
531.341	8.25
531.686	8.34
532.031	8.44
532.376	8.55
532.721	8.68
533.065	8.78
533.41	8.89
533.755	9
534.099	9.11
534.444	9.23
534.788	9.35
535.133	9.48
535.477	9.62
535.822	9.73
536.166	9.87
536.51	10.02
536.855	10.2
537.199	10.37
537.543	10.55
537.887	10.73
538.231	10.9
538.576	11.1
538.92	11.31
539.264	11.49
539.608	11.66
539.951	11.81
540.295	11.98
540.639	12.14
540.983	12.32
541.327	12.5
541.671	12.66
542.014	12.82
542.358	12.97
542.701	13.12
543.045	13.31
543.389	13.48
543.732	13.66
544.075	13.85
544.419	14.05
544.762	14.27
545.105	14.46
545.449	14.68
545.792	14.92
546.135	15.13
546.478	15.37
546.821	15.62
547.165	15.9
547.508	16.2
547.851	16.5
548.194	16.76
548.536	17.04
548.879	17.36
549.222	17.67
549.565	18.01
549.908	18.33
550.25	18.67
550.593	18.98
550.936	19.32
551.278	19.62
551.621	19.91
551.963	20.25
552.306	20.62
552.648	20.97
552.991	21.28
553.333	21.57
553.675	21.91
554.017	22.27
554.36	22.61
554.702	22.92
555.044	23.23
555.386	23.58
555.728	23.9
556.07	24.26
556.412	24.58
556.754	24.93
557.096	25.28
557.438	25.62
557.78	25.99
558.121	26.37
558.463	26.76
558.805	27.11
559.147	27.44
559.488	27.81
559.83	28.13
560.171	28.49
560.513	28.87
560.854	29.19
561.196	29.5
561.537	29.84
561.878	30.16
562.22	30.52
562.561	30.85
562.902	31.22
563.243	31.51
563.584	31.9
563.925	32.21
564.266	32.55
564.607	32.86
564.948	33.19
565.289	33.47
565.63	33.78
565.971	34.13
566.312	34.42
566.653	34.75
566.993	35.08
567.334	35.36
567.675	35.7
568.015	36.01
568.356	36.34
568.696	36.67
569.037	37
569.377	37.27
569.718	37.53
570.058	37.79
570.398	38.1
570.739	38.35
571.079	38.67
571.419	38.95
571.759	39.23
572.099	39.51
572.439	39.76
572.779	39.99
573.119	40.27
573.459	40.54
573.799	40.78
574.139	41.02
574.479	41.26
574.819	41.49
575.158	41.74
575.498	42.02
575.838	42.21
576.177	42.43
576.517	42.73
576.856	43.02
577.196	43.28
577.535	43.49
577.875	43.75
578.214	43.96
578.553	44.22
578.893	44.44
579.232	44.62
579.571	44.89
579.91	45.08
580.25	45.24
580.589	45.44
580.928	45.63
581.267	45.86
581.606	46.06
581.945	46.29
582.283	46.44
582.622	46.54
582.961	46.75
583.3	46.96
583.639	47.13
583.977	47.28
584.316	47.42
584.654	47.64
584.993	47.74
585.332	47.95
585.67	48.07
586.008	48.27
586.347	48.46
586.685	48.64
587.024	48.87
587.362	49.09
587.7	49.25
588.038	49.38
588.376	49.53
588.715	49.7
589.053	49.83
589.391	50.03
589.729	50.25
590.067	50.38
590.404	50.58
590.742	50.71
591.08	50.86
591.418	51.19
591.756	51.38
592.093	51.62
592.431	51.78
592.769	52
593.106	52.12
593.444	52.28
593.781	52.49
594.119	52.61
594.456	52.71
594.793	52.85
595.131	52.98
595.468	53.11
595.805	53.25
596.143	53.31
596.48	53.41
596.817	53.53
597.154	53.68
597.491	53.69
597.828	53.83
598.165	53.96
598.502	53.9
598.839	54.03
599.176	54.08
599.512	54.18
599.849	54.26
600.186	54.35
600.523	54.46
600.859	54.49
601.196	54.62
601.532	54.77
601.869	54.9
602.205	55.03
602.542	55.05
602.878	55.11
603.215	55.26
603.551	55.35
603.887	55.36
604.223	55.39
604.56	55.48
604.896	55.54
605.232	55.59
605.568	55.67
605.904	55.73
606.24	55.86
606.576	55.94
606.912	56
607.248	56.14
607.583	56.18
607.919	56.28
608.255	56.29
608.591	56.34
608.926	56.38
609.262	56.45
609.597	56.59
609.933	56.68
610.268	56.61
610.604	56.68
610.939	56.76
611.275	56.78
611.61	56.86
611.945	56.92
612.281	56.98
612.616	57.1
612.951	57.17
613.286	57.16
613.621	57.24
613.956	57.33
614.291	57.39
614.626	57.49
614.961	57.47
615.296	57.6
615.631	57.62
615.966	57.68
616.3	57.73
616.635	57.7
616.97	57.76
617.304	57.84
617.639	57.91
617.973	57.97
618.308	58.17
618.642	58.21
618.977	58.25
619.311	58.28
619.646	58.28
619.98	58.32
620.314	58.51
620.648	58.4
620.983	58.42
621.317	58.51
621.651	58.52
621.985	58.64
622.319	58.75
622.653	58.92
622.987	58.99
623.321	58.95
623.655	59.02
623.988	59.05
624.322	59.18
624.656	59.13
624.99	59.27
625.323	59.28
625.657	59.36
625.99	59.4
626.324	59.46
626.657	59.55
626.991	59.56
627.324	59.5
627.658	59.62
627.991	59.68
628.324	59.65
628.657	59.72
628.991	59.74
629.324	59.71
629.657	59.57
629.99	59.54
630.323	59.58
630.656	59.58
630.989	59.62
631.322	59.58
631.655	59.63
631.987	59.65
632.32	59.69
632.653	59.69
632.986	59.78
633.318	59.86
633.651	59.89
633.984	59.8
634.316	59.86
634.649	59.85
634.981	59.92
635.313	59.95
635.646	59.98
635.978	60.1
636.31	60.16
636.643	60.33
636.975	60.35
637.307	60.42
637.639	60.43
637.971	60.55
638.303	60.66
638.635	60.75
638.967	60.72
639.299	60.69
639.631	60.69
639.963	60.64
640.295	60.69
640.626	60.67
640.958	60.94
641.29	60.92
641.621	60.93
641.953	60.88
642.285	60.93
642.616	60.97
642.948	60.92
643.279	60.84
643.61	60.81
643.942	60.95
644.273	61.04
644.604	61.11
644.936	61.02
645.267	61.05
645.598	61.07
645.929	61.03
646.26	61.02
646.591	61.15
646.922	61.24
647.253	61.17
647.584	61.16
647.915	61.02
648.245	61.06
648.576	61.11
648.907	61.22
649.238	61.14
649.568	61.12
649.899	61.11
650.229	61.24
650.56	61.28
650.89	61.35
651.221	61.4
651.551	61.34
651.882	61.36
652.212	61.33
652.542	61.32
652.872	61.42
653.203	61.46
653.533	61.42
653.863	61.5
654.193	61.57
654.523	61.66
654.853	61.76
655.183	61.83
655.513	61.91
655.843	61.86
656.172	61.95
656.502	62.04
656.832	62.13
657.162	62.23
657.491	62.37
657.821	62.29
658.15	62.23
658.48	62.3
658.809	62.41
659.139	62.46
659.468	62.45
659.798	62.42
660.127	62.55
660.456	62.51
660.785	62.46
661.115	62.41
661.444	62.43
661.773	62.33
662.102	62.36
662.431	62.36
662.76	62.31
663.089	62.35
663.418	62.4
663.747	62.35
664.076	62.18
664.404	62.07
664.733	62.17
665.062	62.2
665.39	62.2
665.719	62.08
666.048	62.06
666.376	62.11
666.705	62.12
667.033	61.98
667.362	61.95
667.69	61.99
668.018	62.03
668.347	62.1
668.675	62.18
669.003	62.32
669.331	62.31
669.659	62.44
669.987	62.42
670.315	62.56
670.643	62.64
