Data from BA28471_Reflection_00001.txt Node
Date: Mon Nov 18 15:20:53 EST 2019
User: vgr7
Spectrometer: USB2G7710
Scans to average: 3
Trigger mode: 4
Integration Time (sec): 2.000000E-2
Electric dark correction enabled: true
Boxcar width: 10
XAxis mode: Wavelengths
Number of Pixels in Spectrum: 2048
>>>>>Begin Spectral Data<<<<<
177.721	115.12
178.105	7.51
178.488	70.05
178.871	32.15
179.254	42.69
179.636	25.08
180.019	189.97
180.402	-17.95
180.785	-1430.12
181.168	-119.4
181.55	-92.39
181.933	41.85
182.316	34.3
182.698	38.71
183.081	11.63
183.463	-58.45
183.846	10.86
184.228	-2.04
184.611	144.9
184.993	65.52
185.376	-365.44
185.758	-173.34
186.14	-926.49
186.522	-9952.63
186.904	529.39
187.287	420.96
187.669	-356.46
188.051	-160.92
188.433	-85.43
188.815	-113.1
189.197	-111.39
189.579	-97.36
189.961	-76.01
190.342	-92.29
190.724	-71.44
191.106	-73.87
191.488	-111.05
191.869	-114.89
192.251	-154.92
192.633	-190.52
193.014	-407.06
193.396	-453.88
193.777	-459.25
194.159	-690.77
194.54	-180.68
194.922	-100.9
195.303	-160.93
195.684	-202.1
196.065	-123.71
196.447	-168.2
196.828	-278.76
197.209	-108.37
197.59	-71.14
197.971	-36.56
198.352	-17.28
198.733	-170.78
199.114	-128.14
199.495	-50.93
199.876	-27.15
200.257	6.24
200.638	26.75
201.018	-2.31
201.399	-0.35
201.78	4.01
202.16	-4.38
202.541	-16.49
202.922	-32.85
203.302	-40.11
203.683	-46.61
204.063	-63.33
204.444	-32.11
204.824	-10.77
205.204	-39.41
205.585	-51.55
205.965	-51.72
206.345	-51.42
206.725	-50.28
207.106	-60.46
207.486	-58.66
207.866	-62.4
208.246	-61.88
208.626	-95.19
209.006	-73.21
209.386	-111.9
209.766	-162.74
210.145	-106.02
210.525	-107.33
210.905	-90.63
211.285	-72.54
211.664	-60.17
212.044	-44.9
212.424	-55.91
212.803	-58.65
213.183	-30.13
213.562	-23.72
213.942	-7
214.321	2.13
214.701	20.77
215.08	10.32
215.459	1.72
215.838	26.29
216.218	25.51
216.597	26.08
216.976	19.82
217.355	21.96
217.734	32.08
218.113	27.68
218.492	35.78
218.871	21.53
219.25	10.49
219.629	12.46
220.008	-2.48
220.387	-7.28
220.766	-25.08
221.144	-49.72
221.523	-66.08
221.902	-90.55
222.28	-108.58
222.659	-79.89
223.037	-64.4
223.416	-58.21
223.794	-63.85
224.173	-81.29
224.551	-68.44
224.929	-72.39
225.308	-54.87
225.686	-49.03
226.064	-37.97
226.442	-34.4
226.821	-15.66
227.199	-3.13
227.577	-6.02
227.955	-2.85
228.333	-1.58
228.711	2.42
229.089	4.86
229.467	7.17
229.845	5.9
230.222	6.71
230.6	5.42
230.978	6.12
231.356	9.01
231.733	8.04
232.111	10.79
232.488	13.2
232.866	13.4
233.243	12.45
233.621	10.41
233.998	9.59
234.376	9.95
234.753	8.54
235.13	7.2
235.508	7.96
235.885	6.63
236.262	5.24
236.639	5.42
237.016	6.29
237.393	6.86
237.77	8.14
238.147	9.53
238.524	9.46
238.901	9.08
239.278	7.76
239.655	8.21
240.032	7.89
240.409	7.48
240.785	7.46
241.162	7.44
241.539	7.07
241.915	6.82
242.292	6.52
242.668	6.54
243.045	6.51
243.421	6.7
243.798	6.76
244.174	7.04
244.551	6.93
244.927	6.42
245.303	6.39
245.679	6.26
246.056	5.94
246.432	5.94
246.808	5.9
247.184	5.83
247.56	5.76
247.936	5.75
248.312	5.75
248.688	5.67
249.064	5.73
249.44	6
249.815	6.07
250.191	6.37
250.567	6.24
250.943	6.12
251.318	5.95
251.694	5.93
252.069	5.72
252.445	5.86
252.82	6.23
253.196	6.15
253.571	6.05
253.947	6.19
254.322	6.45
254.697	6.48
255.073	6.29
255.448	6.07
255.823	6.01
256.198	5.97
256.573	5.86
256.948	5.89
257.323	5.84
257.698	6.02
258.073	5.73
258.448	5.86
258.823	5.71
259.198	5.71
259.573	5.73
259.948	5.61
260.322	5.53
260.697	5.43
261.072	5.36
261.446	5.43
261.821	5.36
262.195	5.19
262.57	5.24
262.944	5.26
263.319	5.12
263.693	5.17
264.067	5.22
264.442	5.16
264.816	5.16
265.19	4.93
265.564	4.69
265.938	4.77
266.313	4.65
266.687	4.92
267.061	5.15
267.435	5.27
267.809	5.53
268.183	5.66
268.556	5.68
268.93	5.74
269.304	5.64
269.678	5.69
270.051	5.64
270.425	5.59
270.799	5.86
271.172	5.99
271.546	5.99
271.919	5.84
272.293	5.92
272.666	5.91
273.04	6.04
273.413	5.89
273.787	5.91
274.16	6.09
274.533	6.01
274.906	5.87
275.279	5.75
275.653	5.63
276.026	5.57
276.399	5.5
276.772	5.71
277.145	5.61
277.518	5.64
277.891	5.65
278.263	5.63
278.636	5.34
279.009	5.39
279.382	5.3
279.755	5.38
280.127	5.62
280.5	5.56
280.872	5.57
281.245	5.76
281.617	5.85
281.99	5.84
282.362	5.84
282.735	5.83
283.107	5.88
283.479	5.82
283.852	5.76
284.224	5.82
284.596	5.58
284.968	5.71
285.34	5.73
285.713	5.79
286.085	5.79
286.457	5.92
286.829	5.99
287.201	6.06
287.572	5.93
287.944	5.71
288.316	5.73
288.688	5.79
289.06	5.77
289.431	5.74
289.803	5.81
290.175	5.82
290.546	5.84
290.918	5.79
291.289	5.98
291.661	6.08
292.032	6.11
292.403	6.18
292.775	6.24
293.146	6.17
293.517	6.13
293.889	6.24
294.26	6.21
294.631	6.19
295.002	6.16
295.373	6.29
295.744	6.36
296.115	6.33
296.486	6.26
296.857	6.38
297.228	6.38
297.599	6.26
297.97	6.3
298.34	6.25
298.711	6.4
299.082	6.27
299.452	6.26
299.823	6.3
300.194	6.33
300.564	6.19
300.935	6.3
301.305	6.27
301.676	6.26
302.046	6.29
302.416	6.37
302.787	6.54
303.157	6.59
303.527	6.61
303.897	6.67
304.267	6.77
304.637	6.76
305.008	6.75
305.378	6.76
305.748	6.7
306.117	6.67
306.487	6.7
306.857	6.86
307.227	6.9
307.597	6.9
307.967	6.96
308.336	6.9
308.706	6.79
309.076	6.72
309.445	6.66
309.815	6.67
310.184	6.58
310.554	6.39
310.923	6.19
311.293	6.19
311.662	6.2
312.031	6.27
312.401	6.18
312.77	6.19
313.139	6.27
313.508	6.26
313.877	6.24
314.246	6.17
314.616	6.03
314.985	5.95
315.353	5.75
315.722	5.74
316.091	5.81
316.46	5.89
316.829	6.1
317.198	6.07
317.567	6
317.935	5.93
318.304	6.06
318.672	6.31
319.041	6.37
319.41	6.31
319.778	6.18
320.147	6.2
320.515	6.18
320.883	6.05
321.252	6.11
321.62	6.23
321.988	6.26
322.357	6.28
322.725	6.2
323.093	6.36
323.461	6.29
323.829	6.39
324.197	6.38
324.565	6.4
324.933	6.39
325.301	6.41
325.669	6.47
326.037	6.51
326.405	6.53
326.772	6.47
327.14	6.63
327.508	6.6
327.875	6.59
328.243	6.69
328.61	6.77
328.978	6.86
329.346	6.99
329.713	6.93
330.08	7.05
330.448	7.12
330.815	6.96
331.182	6.93
331.55	6.79
331.917	6.77
332.284	6.67
332.651	6.63
333.018	6.76
333.385	6.76
333.752	6.67
334.119	6.63
334.486	6.69
334.853	6.6
335.22	6.66
335.587	6.71
335.954	6.69
336.32	6.57
336.687	6.52
337.054	6.47
337.42	6.55
337.787	6.56
338.153	6.56
338.52	6.59
338.886	6.51
339.253	6.55
339.619	6.58
339.986	6.63
340.352	6.68
340.718	6.59
341.084	6.58
341.451	6.65
341.817	6.62
342.183	6.56
342.549	6.53
342.915	6.51
343.281	6.57
343.647	6.47
344.013	6.59
344.379	6.52
344.745	6.45
345.11	6.37
345.476	6.36
345.842	6.29
346.208	6.31
346.573	6.34
346.939	6.41
347.304	6.28
347.67	6.26
348.035	6.28
348.401	6.3
348.766	6.33
349.132	6.28
349.497	6.27
349.862	6.35
350.228	6.33
350.593	6.33
350.958	6.25
351.323	6.27
351.688	6.17
352.053	6.18
352.418	6.24
352.783	6.31
353.148	6.25
353.513	6.29
353.878	6.31
354.243	6.43
354.608	6.45
354.972	6.58
355.337	6.6
355.702	6.61
356.066	6.66
356.431	6.71
356.795	6.72
357.16	6.76
357.524	6.64
357.889	6.61
358.253	6.57
358.618	6.59
358.982	6.66
359.346	6.64
359.71	6.67
360.075	6.66
360.439	6.64
360.803	6.63
361.167	6.63
361.531	6.65
361.895	6.56
362.259	6.53
362.623	6.49
362.987	6.51
363.351	6.49
363.714	6.52
364.078	6.49
364.442	6.41
364.806	6.42
365.169	6.48
365.533	6.57
365.896	6.62
366.26	6.64
366.623	6.64
366.987	6.69
367.35	6.7
367.714	6.68
368.077	6.63
368.44	6.66
368.803	6.7
369.167	6.68
369.53	6.71
369.893	6.68
370.256	6.66
370.619	6.57
370.982	6.55
371.345	6.46
371.708	6.5
372.071	6.54
372.434	6.52
372.797	6.54
373.159	6.49
373.522	6.44
373.885	6.41
374.247	6.35
374.61	6.35
374.973	6.3
375.335	6.29
375.698	6.32
376.06	6.31
376.423	6.3
376.785	6.35
377.147	6.39
377.51	6.42
377.872	6.43
378.234	6.51
378.596	6.55
378.958	6.5
379.321	6.5
379.683	6.5
380.045	6.53
380.407	6.48
380.769	6.49
381.13	6.54
381.492	6.58
381.854	6.55
382.216	6.55
382.578	6.56
382.939	6.55
383.301	6.59
383.663	6.58
384.024	6.57
384.386	6.55
384.747	6.51
385.109	6.51
385.47	6.53
385.832	6.51
386.193	6.45
386.554	6.53
386.916	6.47
387.277	6.5
387.638	6.47
387.999	6.45
388.36	6.43
388.721	6.4
389.082	6.41
389.443	6.41
389.804	6.42
390.165	6.39
390.526	6.4
390.887	6.35
391.248	6.39
391.609	6.4
391.969	6.4
392.33	6.39
392.691	6.37
393.051	6.38
393.412	6.42
393.772	6.46
394.133	6.44
394.493	6.48
394.854	6.45
395.214	6.44
395.574	6.48
395.935	6.48
396.295	6.5
396.655	6.47
397.015	6.48
397.376	6.46
397.736	6.49
398.096	6.52
398.456	6.55
398.816	6.56
399.176	6.53
399.535	6.51
399.895	6.53
400.255	6.55
400.615	6.54
400.975	6.5
401.334	6.47
401.694	6.46
402.054	6.42
402.413	6.42
402.773	6.42
403.132	6.4
403.492	6.4
403.851	6.41
404.211	6.42
404.57	6.39
404.929	6.41
405.288	6.41
405.648	6.36
406.007	6.33
406.366	6.27
406.725	6.32
407.084	6.34
407.443	6.33
407.802	6.32
408.161	6.3
408.52	6.31
408.879	6.3
409.238	6.3
409.596	6.31
409.955	6.32
410.314	6.36
410.673	6.35
411.031	6.35
411.39	6.35
411.748	6.35
412.107	6.37
412.465	6.36
412.824	6.36
413.182	6.37
413.54	6.39
413.899	6.41
414.257	6.37
414.615	6.35
414.974	6.39
415.332	6.36
415.69	6.37
416.048	6.36
416.406	6.39
416.764	6.38
417.122	6.4
417.48	6.38
417.838	6.36
418.195	6.38
418.553	6.38
418.911	6.39
419.269	6.38
419.626	6.4
419.984	6.39
420.342	6.39
420.699	6.39
421.057	6.39
421.414	6.4
421.772	6.42
422.129	6.42
422.486	6.42
422.844	6.44
423.201	6.44
423.558	6.44
423.915	6.45
424.273	6.47
424.63	6.46
424.987	6.48
425.344	6.47
425.701	6.47
426.058	6.47
426.415	6.45
426.772	6.45
427.128	6.44
427.485	6.45
427.842	6.43
428.199	6.46
428.555	6.46
428.912	6.45
429.269	6.45
429.625	6.47
429.982	6.44
430.338	6.43
430.695	6.4
431.051	6.38
431.407	6.35
431.764	6.34
432.12	6.32
432.476	6.32
432.832	6.32
433.189	6.33
433.545	6.32
433.901	6.33
434.257	6.31
434.613	6.31
434.969	6.3
435.325	6.32
435.681	6.31
436.036	6.31
436.392	6.33
436.748	6.31
437.104	6.3
437.459	6.31
437.815	6.31
438.171	6.35
438.526	6.37
438.882	6.37
439.237	6.38
439.593	6.38
439.948	6.38
440.304	6.38
440.659	6.38
441.014	6.39
441.369	6.38
441.725	6.39
442.08	6.4
442.435	6.41
442.79	6.4
443.145	6.41
443.5	6.41
443.855	6.4
444.21	6.39
444.565	6.4
444.92	6.4
445.275	6.39
445.629	6.37
445.984	6.37
446.339	6.38
446.693	6.37
447.048	6.37
447.403	6.37
447.757	6.37
448.112	6.35
448.466	6.34
448.82	6.36
449.175	6.37
449.529	6.36
449.883	6.36
450.238	6.34
450.592	6.33
450.946	6.32
451.3	6.32
451.654	6.32
452.008	6.3
452.362	6.29
452.716	6.3
453.07	6.28
453.424	6.28
453.778	6.28
454.132	6.27
454.486	6.28
454.839	6.29
455.193	6.29
455.547	6.32
455.9	6.32
456.254	6.31
456.607	6.31
456.961	6.32
457.314	6.31
457.668	6.33
458.021	6.34
458.375	6.35
458.728	6.34
459.081	6.35
459.434	6.33
459.787	6.36
460.141	6.37
460.494	6.38
460.847	6.39
461.2	6.38
461.553	6.39
461.906	6.38
462.259	6.38
462.611	6.38
462.964	6.37
463.317	6.39
463.67	6.39
464.022	6.38
464.375	6.37
464.728	6.36
465.08	6.36
465.433	6.34
465.785	6.33
466.138	6.35
466.49	6.35
466.843	6.38
467.195	6.37
467.547	6.38
467.899	6.37
468.252	6.39
468.604	6.39
468.956	6.38
469.308	6.36
469.66	6.34
470.012	6.36
470.364	6.36
470.716	6.36
471.068	6.37
471.42	6.38
471.772	6.42
472.123	6.44
472.475	6.44
472.827	6.46
473.178	6.47
473.53	6.44
473.882	6.46
474.233	6.47
474.585	6.47
474.936	6.48
475.288	6.49
475.639	6.48
475.99	6.48
476.342	6.51
476.693	6.54
477.044	6.57
477.395	6.56
477.746	6.58
478.097	6.58
478.448	6.58
478.8	6.56
479.15	6.55
479.501	6.57
479.852	6.58
480.203	6.59
480.554	6.59
480.905	6.61
481.255	6.63
481.606	6.62
481.957	6.62
482.307	6.61
482.658	6.62
483.009	6.62
483.359	6.64
483.709	6.64
484.06	6.64
484.41	6.64
484.761	6.64
485.111	6.64
485.461	6.65
485.811	6.65
486.162	6.66
486.512	6.67
486.862	6.66
487.212	6.67
487.562	6.68
487.912	6.69
488.262	6.68
488.612	6.67
488.961	6.66
489.311	6.66
489.661	6.66
490.011	6.66
490.36	6.67
490.71	6.64
491.06	6.64
491.409	6.65
491.759	6.64
492.108	6.64
492.458	6.63
492.807	6.63
493.157	6.62
493.506	6.61
493.855	6.62
494.204	6.61
494.554	6.61
494.903	6.59
495.252	6.58
495.601	6.6
495.95	6.61
496.299	6.62
496.648	6.62
496.997	6.62
497.346	6.61
497.695	6.63
498.043	6.65
498.392	6.62
498.741	6.62
499.09	6.63
499.438	6.64
499.787	6.65
500.135	6.68
500.484	6.69
500.832	6.71
501.181	6.69
501.529	6.72
501.878	6.73
502.226	6.72
502.574	6.71
502.923	6.68
503.271	6.69
503.619	6.7
503.967	6.72
504.315	6.72
504.663	6.75
505.011	6.75
505.359	6.75
505.707	6.78
506.055	6.76
506.403	6.79
506.751	6.79
507.098	6.79
507.446	6.79
507.794	6.78
508.141	6.8
508.489	6.79
508.837	6.77
509.184	6.78
509.531	6.79
509.879	6.8
510.226	6.82
510.574	6.83
510.921	6.82
511.268	6.82
511.616	6.85
511.963	6.84
512.31	6.87
512.657	6.91
513.004	6.92
513.351	6.95
513.698	6.94
514.045	6.95
514.392	6.95
514.739	6.95
515.086	6.97
515.432	6.96
515.779	6.98
516.126	6.99
516.473	6.99
516.819	7
517.166	7.02
517.512	7.03
517.859	7.06
518.205	7.06
518.552	7.08
518.898	7.08
519.245	7.08
519.591	7.06
519.937	7.04
520.283	7.04
520.629	7.04
520.976	7.04
521.322	7.05
521.668	7.05
522.014	7.06
522.36	7.07
522.706	7.07
523.052	7.1
523.398	7.12
523.743	7.14
524.089	7.16
524.435	7.16
524.781	7.17
525.126	7.16
525.472	7.16
525.817	7.15
526.163	7.16
526.509	7.17
526.854	7.18
527.199	7.2
527.545	7.2
527.89	7.21
528.235	7.23
528.581	7.24
528.926	7.25
529.271	7.26
529.616	7.25
529.961	7.25
530.306	7.24
530.651	7.24
530.996	7.23
531.341	7.22
531.686	7.22
532.031	7.23
532.376	7.23
532.721	7.24
533.065	7.27
533.41	7.25
533.755	7.26
534.099	7.26
534.444	7.24
534.788	7.24
535.133	7.24
535.477	7.24
535.822	7.23
536.166	7.22
536.51	7.19
536.855	7.22
537.199	7.23
537.543	7.23
537.887	7.24
538.231	7.24
538.576	7.24
538.92	7.24
539.264	7.23
539.608	7.23
539.951	7.24
540.295	7.22
540.639	7.23
540.983	7.24
541.327	7.24
541.671	7.24
542.014	7.25
542.358	7.24
542.701	7.24
543.045	7.25
543.389	7.27
543.732	7.28
544.075	7.26
544.419	7.26
544.762	7.25
545.105	7.25
545.449	7.26
545.792	7.27
546.135	7.29
546.478	7.3
546.821	7.32
547.165	7.3
547.508	7.32
547.851	7.31
548.194	7.3
548.536	7.3
548.879	7.32
549.222	7.31
549.565	7.31
549.908	7.31
550.25	7.3
550.593	7.28
550.936	7.27
551.278	7.25
551.621	7.26
551.963	7.27
552.306	7.29
552.648	7.29
552.991	7.28
553.333	7.25
553.675	7.26
554.017	7.24
554.36	7.25
554.702	7.27
555.044	7.28
555.386	7.3
555.728	7.31
556.07	7.31
556.412	7.29
556.754	7.34
557.096	7.33
557.438	7.33
557.78	7.35
558.121	7.37
558.463	7.42
558.805	7.42
559.147	7.42
559.488	7.4
559.83	7.4
560.171	7.43
560.513	7.49
560.854	7.46
561.196	7.47
561.537	7.48
561.878	7.48
562.22	7.51
562.561	7.5
562.902	7.52
563.243	7.52
563.584	7.55
563.925	7.54
564.266	7.53
564.607	7.56
564.948	7.59
565.289	7.59
565.63	7.57
565.971	7.58
566.312	7.6
566.653	7.6
566.993	7.61
567.334	7.6
567.675	7.59
568.015	7.61
568.356	7.6
568.696	7.59
569.037	7.59
569.377	7.56
569.718	7.58
570.058	7.58
570.398	7.57
570.739	7.59
571.079	7.59
571.419	7.61
571.759	7.58
572.099	7.58
572.439	7.59
572.779	7.61
573.119	7.61
573.459	7.63
573.799	7.65
574.139	7.68
574.479	7.69
574.819	7.7
575.158	7.66
575.498	7.69
575.838	7.7
576.177	7.66
576.517	7.65
576.856	7.67
577.196	7.69
577.535	7.7
577.875	7.67
578.214	7.65
578.553	7.69
578.893	7.68
579.232	7.67
579.571	7.65
579.91	7.65
580.25	7.66
580.589	7.67
580.928	7.66
581.267	7.64
581.606	7.63
581.945	7.63
582.283	7.68
582.622	7.68
582.961	7.71
583.3	7.76
583.639	7.81
583.977	7.83
584.316	7.77
584.654	7.78
584.993	7.83
585.332	7.84
585.67	7.78
586.008	7.8
586.347	7.8
586.685	7.79
587.024	7.79
587.362	7.83
587.7	7.78
588.038	7.78
588.376	7.79
588.715	7.8
589.053	7.8
589.391	7.77
589.729	7.8
590.067	7.78
590.404	7.75
590.742	7.77
591.08	7.76
591.418	7.81
591.756	7.79
592.093	7.78
592.431	7.82
592.769	7.88
593.106	7.93
593.444	7.94
593.781	7.92
594.119	7.96
594.456	7.91
594.793	7.94
595.131	7.94
595.468	7.97
595.805	7.99
596.143	7.99
596.48	8.02
596.817	7.96
597.154	7.98
597.491	8.02
597.828	7.99
598.165	8
598.502	8
598.839	7.99
599.176	7.94
599.512	7.93
599.849	7.93
600.186	7.91
600.523	7.9
600.859	7.98
601.196	7.95
601.532	8
601.869	7.99
602.205	8
602.542	8
602.878	7.97
603.215	7.97
603.551	7.97
603.887	8.02
604.223	8.06
604.56	8.09
604.896	8.12
605.232	8.11
605.568	8.1
605.904	8.1
606.24	8.17
606.576	8.15
606.912	8.13
607.248	8.13
607.583	8.13
607.919	8.12
608.255	8.11
608.591	8.1
608.926	8.11
609.262	8.13
609.597	8.15
609.933	8.2
610.268	8.2
610.604	8.26
610.939	8.25
611.275	8.18
611.61	8.17
611.945	8.16
612.281	8.15
612.616	8.18
612.951	8.25
613.286	8.24
613.621	8.3
613.956	8.34
614.291	8.35
614.626	8.39
614.961	8.36
615.296	8.4
615.631	8.4
615.966	8.46
616.3	8.42
616.635	8.43
616.97	8.38
617.304	8.37
617.639	8.35
617.973	8.39
618.308	8.46
618.642	8.43
618.977	8.46
619.311	8.45
619.646	8.45
619.98	8.42
620.314	8.43
620.648	8.43
620.983	8.41
621.317	8.44
621.651	8.46
621.985	8.49
622.319	8.48
622.653	8.47
622.987	8.43
623.321	8.47
623.655	8.48
623.988	8.5
624.322	8.5
624.656	8.49
624.99	8.47
625.323	8.47
625.657	8.49
625.99	8.47
626.324	8.5
626.657	8.51
626.991	8.5
627.324	8.49
627.658	8.46
627.991	8.49
628.324	8.44
628.657	8.43
628.991	8.44
629.324	8.46
629.657	8.49
629.99	8.51
630.323	8.5
630.656	8.45
630.989	8.5
631.322	8.55
631.655	8.58
631.987	8.58
632.32	8.55
632.653	8.54
632.986	8.55
633.318	8.53
633.651	8.54
633.984	8.54
634.316	8.56
634.649	8.61
634.981	8.58
635.313	8.6
635.646	8.58
635.978	8.58
636.31	8.57
636.643	8.54
636.975	8.51
637.307	8.58
637.639	8.6
637.971	8.58
638.303	8.53
638.635	8.44
638.967	8.42
639.299	8.43
639.631	8.45
639.963	8.46
640.295	8.51
640.626	8.49
640.958	8.53
641.29	8.49
641.621	8.43
641.953	8.51
642.285	8.56
642.616	8.59
642.948	8.58
643.279	8.55
643.61	8.57
643.942	8.65
644.273	8.57
644.604	8.55
644.936	8.48
645.267	8.47
645.598	8.54
645.929	8.62
646.26	8.67
646.591	8.69
646.922	8.67
647.253	8.7
647.584	8.66
647.915	8.66
648.245	8.73
648.576	8.79
648.907	8.72
649.238	8.68
649.568	8.66
649.899	8.63
650.229	8.66
650.56	8.7
650.89	8.69
651.221	8.73
651.551	8.73
651.882	8.84
652.212	8.9
652.542	8.9
652.872	8.86
653.203	8.82
653.533	8.86
653.863	8.86
654.193	8.78
654.523	8.84
654.853	8.84
655.183	8.85
655.513	8.84
655.843	8.83
656.172	8.91
656.502	8.95
656.832	8.99
657.162	9.02
657.491	9.02
657.821	9.01
658.15	9.01
658.48	9.03
658.809	8.98
659.139	9.02
659.468	8.98
659.798	8.98
660.127	8.99
660.456	9
660.785	9.07
661.115	9.07
661.444	9.04
661.773	9.06
662.102	9.1
662.431	9.16
662.76	9.16
663.089	9.09
663.418	9.04
663.747	9
664.076	9.02
664.404	8.99
664.733	9.06
665.062	9.04
665.39	9.03
665.719	9.05
666.048	9.02
666.376	9.14
666.705	9.11
667.033	9.06
667.362	9.01
667.69	8.89
668.018	8.96
668.347	9.02
668.675	8.97
669.003	8.86
669.331	8.83
669.659	8.91
669.987	8.92
670.315	9.01
670.643	9.13
670.971	9.11
671.299	9.14
671.627	9.13
671.955	9.13
672.283	9.2
672.61	9.2
672.938	9.24
673.266	9.24
673.593	9.39
673.921	9.47
674.249	9.53
674.576	9.61
674.904	9.56
675.231	9.52
675.558	9.58
675.886	9.68
676.213	9.58
676.54	9.54
676.867	9.62
677.195	9.63
677.522	9.58
