Data from BA28474_Reflection_00007.txt Node
Date: Mon Nov 18 15:30:44 EST 2019
User: vgr7
Spectrometer: USB2G7710
Scans to average: 3
Trigger mode: 4
Integration Time (sec): 2.000000E-2
Electric dark correction enabled: true
Boxcar width: 10
XAxis mode: Wavelengths
Number of Pixels in Spectrum: 2048
>>>>>Begin Spectral Data<<<<<
177.721	21.29
178.105	-50.84
178.488	-111.21
178.871	-118.02
179.254	-467.16
179.636	-14.5
180.019	439.62
180.402	53.33
180.785	28.29
181.168	-56.72
181.55	-20.6
181.933	251.35
182.316	77.6
182.698	110.47
183.081	158.43
183.463	158.09
183.846	152.04
184.228	2766.67
184.611	-106.45
184.993	2.83
185.376	25.93
185.758	-9.14
186.14	-41.26
186.522	-47.09
186.904	-49.8
187.287	-64.15
187.669	-17.13
188.051	-0.19
188.433	27.1
188.815	48.44
189.197	89.07
189.579	87.37
189.961	58.73
190.342	22.57
190.724	42.26
191.106	64.32
191.488	50.48
191.869	49.49
192.251	54.31
192.633	53.15
193.014	36.4
193.396	12.74
193.777	18.59
194.159	10.06
194.54	7.43
194.922	19.51
195.303	11.15
195.684	17.74
196.065	2.48
196.447	-22.82
196.828	-44.53
197.209	-41.67
197.59	-33.64
197.971	-43.82
198.352	-32.94
198.733	-58.6
199.114	-59.65
199.495	-73.91
199.876	-60.83
200.257	-80.42
200.638	-46.53
201.018	-63.08
201.399	-81.03
201.78	-70.04
202.16	-66.18
202.541	-102.62
202.922	-208.62
203.302	-180.47
203.683	-224.54
204.063	-219.69
204.444	-158.65
204.824	-163.43
205.204	-138.93
205.585	-175.04
205.965	-175.27
206.345	-158.78
206.725	-137.62
207.106	-220.7
207.486	-175.69
207.866	-692.79
208.246	-270.66
208.626	-340.53
209.006	-76.58
209.386	-65.14
209.766	-45.72
210.145	-48.63
210.525	-29.3
210.905	-14.77
211.285	-12.55
211.664	-8.41
212.044	1.75
212.424	6.76
212.803	19.88
213.183	36.46
213.562	36.48
213.942	43.24
214.321	49.06
214.701	60.16
215.08	57.3
215.459	64.86
215.838	56.1
216.218	58.86
216.597	55.1
216.976	39.01
217.355	36.4
217.734	28.93
218.113	36.19
218.492	50.45
218.871	55.3
219.25	45.47
219.629	28.74
220.008	26.29
220.387	22.77
220.766	15.73
221.144	-3.72
221.523	-4.9
221.902	-20.3
222.28	-42.73
222.659	-29.74
223.037	-27.87
223.416	-30.7
223.794	-28.93
224.173	-36.73
224.551	-26.45
224.929	-21.54
225.308	-18.01
225.686	-12.05
226.064	-14.62
226.442	-16.26
226.821	-12.48
227.199	-5.78
227.577	-4.53
227.955	-7.5
228.333	-8.53
228.711	-2.97
229.089	0.95
229.467	-3.89
229.845	-2.46
230.222	-0.63
230.6	-5.24
230.978	-4.29
231.356	-0.85
231.733	1.71
232.111	4.75
232.488	4.97
232.866	7.17
233.243	9.57
233.621	9.81
233.998	12.34
234.376	13.05
234.753	12.26
235.13	9.75
235.508	8.14
235.885	10.08
236.262	10.05
236.639	7
237.016	6.68
237.393	8.8
237.77	8.72
238.147	9.13
238.524	9.82
238.901	8.92
239.278	8.82
239.655	7.95
240.032	6.7
240.409	6.18
240.785	6.04
241.162	5.47
241.539	5.4
241.915	4.75
242.292	4.18
242.668	4.2
243.045	4.19
243.421	4.53
243.798	4.21
244.174	4.15
244.551	4.29
244.927	3.97
245.303	4.11
245.679	4.16
246.056	4
246.432	4.08
246.808	4.18
247.184	4.01
247.56	3.88
247.936	4.03
248.312	4.13
248.688	4.2
249.064	4.16
249.44	4.2
249.815	4.21
250.191	4.53
250.567	4.49
250.943	4.53
251.318	4.73
251.694	5.01
252.069	5.33
252.445	5.45
252.82	5.71
253.196	5.74
253.571	5.59
253.947	5.69
254.322	5.67
254.697	5.55
255.073	5.21
255.448	4.96
255.823	4.75
256.198	4.73
256.573	4.56
256.948	4.6
257.323	4.47
257.698	4.53
258.073	4.65
258.448	4.63
258.823	4.55
259.198	4.35
259.573	4.28
259.948	4.06
260.322	4.08
260.697	3.79
261.072	3.8
261.446	3.9
261.821	3.79
262.195	3.89
262.57	3.99
262.944	4.01
263.319	4.13
263.693	4.05
264.067	4.03
264.442	4.11
264.816	4.11
265.19	4.3
265.564	4.36
265.938	4.13
266.313	4.24
266.687	4.22
267.061	4.07
267.435	4.06
267.809	4.03
268.183	4.06
268.556	4.22
268.93	4.16
269.304	4.19
269.678	4.26
270.051	4.26
270.425	4.19
270.799	4.36
271.172	4.29
271.546	4.35
271.919	4.36
272.293	4.25
272.666	4.37
273.04	4.2
273.413	4.1
273.787	4.16
274.16	4.08
274.533	4.06
274.906	4.26
275.279	4.27
275.653	4.28
276.026	4.07
276.399	4.12
276.772	4.2
277.145	4.03
277.518	4.01
277.891	4.07
278.263	3.93
278.636	3.84
279.009	3.93
279.382	4.08
279.755	3.92
280.127	4.03
280.5	3.88
280.872	3.94
281.245	3.87
281.617	3.9
281.99	3.97
282.362	4.04
282.735	3.96
283.107	3.89
283.479	3.97
283.852	4.18
284.224	4.34
284.596	4.34
284.968	4.4
285.34	4.48
285.713	4.32
286.085	4.37
286.457	4.46
286.829	4.39
287.201	4.29
287.572	4.36
287.944	4.3
288.316	4.28
288.688	4.19
289.06	4.21
289.431	4.29
289.803	4.23
290.175	4.38
290.546	4.58
290.918	4.61
291.289	4.7
291.661	4.58
292.032	4.47
292.403	4.5
292.775	4.62
293.146	4.59
293.517	4.72
293.889	4.73
294.26	4.69
294.631	4.88
295.002	4.91
295.373	4.89
295.744	4.95
296.115	5.07
296.486	5.03
296.857	5.04
297.228	5.03
297.599	5.03
297.97	4.99
298.34	4.94
298.711	5.08
299.082	5.11
299.452	5.2
299.823	5.23
300.194	5.19
300.564	5.17
300.935	5.24
301.305	5.17
301.676	5.33
302.046	5.45
302.416	5.44
302.787	5.59
303.157	5.77
303.527	5.9
303.897	5.9
304.267	6.17
304.637	6.29
305.008	6.29
305.378	6.31
305.748	6.5
306.117	6.48
306.487	6.47
306.857	6.5
307.227	6.53
307.597	6.58
307.967	6.65
308.336	6.63
308.706	6.59
309.076	6.79
309.445	6.6
309.815	6.52
310.184	6.54
310.554	6.68
310.923	6.68
311.293	6.58
311.662	6.64
312.031	6.59
312.401	6.7
312.77	6.84
313.139	7.04
313.508	6.96
313.877	7.05
314.246	7.12
314.616	7.13
314.985	7.11
315.353	7.24
315.722	7.33
316.091	7.38
316.46	7.44
316.829	7.47
317.198	7.86
317.567	7.99
317.935	8.13
318.304	8.01
318.672	8
319.041	8.33
319.41	8.32
319.778	8.49
320.147	8.61
320.515	8.72
320.883	8.56
321.252	8.71
321.62	8.59
321.988	8.67
322.357	8.78
322.725	8.93
323.093	9.09
323.461	9.2
323.829	9.49
324.197	9.69
324.565	9.71
324.933	9.68
325.301	9.73
325.669	9.69
326.037	9.79
326.405	9.9
326.772	9.96
327.14	10.14
327.508	10.18
327.875	10.22
328.243	10.21
328.61	10.26
328.978	10.26
329.346	10.44
329.713	10.47
330.08	10.5
330.448	10.51
330.815	10.32
331.182	10.37
331.55	10.31
331.917	10.35
332.284	10.32
332.651	10.34
333.018	10.55
333.385	10.57
333.752	10.6
334.119	10.82
334.486	10.64
334.853	10.68
335.22	10.62
335.587	10.81
335.954	10.76
336.32	10.89
336.687	10.96
337.054	10.97
337.42	10.98
337.787	11.01
338.153	11.02
338.52	11.2
338.886	11.14
339.253	11.12
339.619	11.11
339.986	11.2
340.352	11.26
340.718	11.19
341.084	11.29
341.451	11.39
341.817	11.3
342.183	11.49
342.549	11.43
342.915	11.5
343.281	11.37
343.647	11.45
344.013	11.51
344.379	11.48
344.745	11.53
345.11	11.53
345.476	11.64
345.842	11.72
346.208	11.7
346.573	11.68
346.939	11.79
347.304	11.75
347.67	11.65
348.035	11.62
348.401	11.73
348.766	11.68
349.132	11.62
349.497	11.57
349.862	11.54
350.228	11.56
350.593	11.48
350.958	11.47
351.323	11.47
351.688	11.48
352.053	11.43
352.418	11.44
352.783	11.48
353.148	11.41
353.513	11.39
353.878	11.41
354.243	11.44
354.608	11.42
354.972	11.44
355.337	11.5
355.702	11.57
356.066	11.55
356.431	11.56
356.795	11.56
357.16	11.55
357.524	11.53
357.889	11.51
358.253	11.59
358.618	11.64
358.982	11.62
359.346	11.57
359.71	11.58
360.075	11.58
360.439	11.57
360.803	11.59
361.167	11.56
361.531	11.53
361.895	11.5
362.259	11.41
362.623	11.45
362.987	11.45
363.351	11.41
363.714	11.36
364.078	11.3
364.442	11.27
364.806	11.3
365.169	11.27
365.533	11.28
365.896	11.21
366.26	11.08
366.623	11.05
366.987	10.99
367.35	10.98
367.714	11
368.077	10.95
368.44	10.8
368.803	10.72
369.167	10.58
369.53	10.58
369.893	10.62
370.256	10.5
370.619	10.51
370.982	10.37
371.345	10.25
371.708	10.24
372.071	10.2
372.434	10.12
372.797	9.96
373.159	9.81
373.522	9.81
373.885	9.78
374.247	9.74
374.61	9.67
374.973	9.52
375.335	9.44
375.698	9.32
376.06	9.29
376.423	9.29
376.785	9.3
377.147	9.22
377.51	9.15
377.872	9.1
378.234	9.04
378.596	8.99
378.958	8.95
379.321	8.88
379.683	8.8
380.045	8.7
380.407	8.74
380.769	8.71
381.13	8.6
381.492	8.53
381.854	8.45
382.216	8.4
382.578	8.43
382.939	8.34
383.301	8.36
383.663	8.25
384.024	8.15
384.386	8.13
384.747	8.09
385.109	8
385.47	7.96
385.832	7.82
386.193	7.8
386.554	7.73
386.916	7.69
387.277	7.67
387.638	7.66
387.999	7.55
388.36	7.5
388.721	7.46
389.082	7.39
389.443	7.28
389.804	7.21
390.165	7.16
390.526	7.1
390.887	7
391.248	6.99
391.609	6.96
391.969	6.89
392.33	6.87
392.691	6.82
393.051	6.74
393.412	6.73
393.772	6.67
394.133	6.62
394.493	6.59
394.854	6.52
395.214	6.41
395.574	6.39
395.935	6.31
396.295	6.26
396.655	6.2
397.015	6.19
397.376	6.14
397.736	6.08
398.096	6.06
398.456	6.03
398.816	5.99
399.176	5.94
399.535	5.92
399.895	5.83
400.255	5.81
400.615	5.81
400.975	5.75
401.334	5.7
401.694	5.66
402.054	5.59
402.413	5.57
402.773	5.55
403.132	5.51
403.492	5.48
403.851	5.45
404.211	5.47
404.57	5.41
404.929	5.39
405.288	5.33
405.648	5.29
406.007	5.27
406.366	5.25
406.725	5.25
407.084	5.21
407.443	5.23
407.802	5.22
408.161	5.18
408.52	5.13
408.879	5.1
409.238	5.11
409.596	5.12
409.955	5.06
410.314	5.07
410.673	5.01
411.031	5.01
411.39	4.99
411.748	4.99
412.107	5
412.465	4.99
412.824	4.96
413.182	4.93
413.54	4.9
413.899	4.93
414.257	4.88
414.615	4.83
414.974	4.78
415.332	4.75
415.69	4.72
416.048	4.74
416.406	4.71
416.764	4.69
417.122	4.67
417.48	4.67
417.838	4.65
418.195	4.65
418.553	4.62
418.911	4.59
419.269	4.56
419.626	4.54
419.984	4.5
420.342	4.5
420.699	4.46
421.057	4.44
421.414	4.38
421.772	4.36
422.129	4.34
422.486	4.32
422.844	4.31
423.201	4.29
423.558	4.26
423.915	4.26
424.273	4.24
424.63	4.2
424.987	4.18
425.344	4.13
425.701	4.1
426.058	4.1
426.415	4.09
426.772	4.07
427.128	4.06
427.485	4.04
427.842	4.02
428.199	4.03
428.555	4.01
428.912	4.03
429.269	4.03
429.625	4.03
429.982	4.01
430.338	4
430.695	4
431.051	3.99
431.407	3.97
431.764	3.95
432.12	3.94
432.476	3.93
432.832	3.95
433.189	3.98
433.545	3.97
433.901	3.97
434.257	3.96
434.613	3.94
434.969	3.94
435.325	3.95
435.681	3.98
436.036	3.99
436.392	3.98
436.748	3.96
437.104	3.96
437.459	3.95
437.815	3.95
438.171	3.95
438.526	3.96
438.882	3.98
439.237	3.98
439.593	3.99
439.948	3.99
440.304	3.99
440.659	3.97
441.014	3.96
441.369	3.93
441.725	3.93
442.08	3.95
442.435	3.95
442.79	3.92
443.145	3.89
443.5	3.88
443.855	3.86
444.21	3.87
444.565	3.86
444.92	3.86
445.275	3.84
445.629	3.82
445.984	3.81
446.339	3.78
446.693	3.77
447.048	3.76
447.403	3.75
447.757	3.75
448.112	3.72
448.466	3.71
448.82	3.71
449.175	3.7
449.529	3.69
449.883	3.68
450.238	3.67
450.592	3.66
450.946	3.65
451.3	3.65
451.654	3.63
452.008	3.61
452.362	3.59
452.716	3.58
453.07	3.59
453.424	3.57
453.778	3.59
454.132	3.57
454.486	3.56
454.839	3.55
455.193	3.55
455.547	3.55
455.9	3.58
456.254	3.58
456.607	3.62
456.961	3.6
457.314	3.61
457.668	3.6
458.021	3.61
458.375	3.61
458.728	3.62
459.081	3.62
459.434	3.63
459.787	3.65
460.141	3.64
460.494	3.64
460.847	3.64
461.2	3.66
461.553	3.68
461.906	3.7
462.259	3.71
462.611	3.73
462.964	3.74
463.317	3.74
463.67	3.75
464.022	3.73
464.375	3.74
464.728	3.75
465.08	3.77
465.433	3.79
465.785	3.8
466.138	3.8
466.49	3.81
466.843	3.83
467.195	3.86
467.547	3.88
467.899	3.89
468.252	3.91
468.604	3.91
468.956	3.94
469.308	3.93
469.66	3.94
470.012	3.95
470.364	3.98
470.716	3.98
471.068	3.99
471.42	4
471.772	4.02
472.123	4.04
472.475	4.06
472.827	4.06
473.178	4.1
473.53	4.1
473.882	4.1
474.233	4.1
474.585	4.09
474.936	4.09
475.288	4.07
475.639	4.07
475.99	4.08
476.342	4.08
476.693	4.09
477.044	4.1
477.395	4.08
477.746	4.07
478.097	4.06
478.448	4.04
478.8	4.04
479.15	4.01
479.501	4
479.852	3.98
480.203	3.98
480.554	3.97
480.905	3.98
481.255	3.98
481.606	3.97
481.957	3.97
482.307	3.97
482.658	3.98
483.009	3.97
483.359	3.97
483.709	3.96
484.06	3.95
484.41	3.95
484.761	3.95
485.111	3.95
485.461	3.95
485.811	3.95
486.162	3.95
486.512	3.96
486.862	3.97
487.212	3.98
487.562	3.98
487.912	3.97
488.262	3.96
488.612	3.96
488.961	3.97
489.311	3.97
489.661	3.97
490.011	3.98
490.36	3.98
490.71	3.99
491.06	4
491.409	4.01
491.759	4.03
492.108	4.03
492.458	4.05
492.807	4.06
493.157	4.07
493.506	4.1
493.855	4.1
494.204	4.1
494.554	4.13
494.903	4.13
495.252	4.17
495.601	4.2
495.95	4.24
496.299	4.27
496.648	4.29
496.997	4.34
497.346	4.38
497.695	4.43
498.043	4.47
498.392	4.49
498.741	4.54
499.09	4.56
499.438	4.62
499.787	4.67
500.135	4.74
500.484	4.82
500.832	4.88
501.181	4.95
501.529	5.02
501.878	5.08
502.226	5.18
502.574	5.27
502.923	5.35
503.271	5.43
503.619	5.53
503.967	5.6
504.315	5.66
504.663	5.75
505.011	5.84
505.359	5.94
505.707	6.06
506.055	6.15
506.403	6.25
506.751	6.36
507.098	6.45
507.446	6.54
507.794	6.64
508.141	6.74
508.489	6.81
508.837	6.93
509.184	7.04
509.531	7.13
509.879	7.23
510.226	7.34
510.574	7.43
510.921	7.54
511.268	7.66
511.616	7.79
511.963	7.89
512.31	8
512.657	8.12
513.004	8.25
513.351	8.37
513.698	8.54
514.045	8.66
514.392	8.77
514.739	8.93
515.086	9.07
515.432	9.21
515.779	9.35
516.126	9.47
516.473	9.62
516.819	9.76
517.166	9.87
517.512	9.99
517.859	10.1
518.205	10.22
518.552	10.35
518.898	10.47
519.245	10.59
519.591	10.72
519.937	10.84
520.283	10.96
520.629	11.12
520.976	11.24
521.322	11.42
521.668	11.6
522.014	11.77
522.36	11.95
522.706	12.13
523.052	12.36
523.398	12.6
523.743	12.82
524.089	13.05
524.435	13.28
524.781	13.51
525.126	13.7
525.472	13.91
525.817	14.09
526.163	14.26
526.509	14.45
526.854	14.61
527.199	14.76
527.545	14.91
527.89	15.07
528.235	15.23
528.581	15.38
528.926	15.55
529.271	15.72
529.616	15.89
529.961	16.06
530.306	16.25
530.651	16.42
530.996	16.62
531.341	16.82
531.686	17.04
532.031	17.26
532.376	17.51
532.721	17.73
533.065	17.97
533.41	18.21
533.755	18.45
534.099	18.7
534.444	18.96
534.788	19.23
535.133	19.48
535.477	19.75
535.822	20.02
536.166	20.31
536.51	20.62
536.855	20.99
537.199	21.33
537.543	21.65
537.887	22
538.231	22.35
538.576	22.73
538.92	23.09
539.264	23.43
539.608	23.75
539.951	24.07
540.295	24.36
540.639	24.67
540.983	24.96
541.327	25.23
541.671	25.53
542.014	25.81
542.358	26.1
542.701	26.37
543.045	26.67
543.389	26.93
543.732	27.21
544.075	27.45
544.419	27.74
544.762	28.07
545.105	28.4
545.449	28.71
545.792	29.02
546.135	29.35
546.478	29.7
546.821	30.07
547.165	30.42
547.508	30.81
547.851	31.21
548.194	31.56
548.536	31.95
548.879	32.3
549.222	32.67
549.565	33.03
549.908	33.35
550.25	33.73
550.593	34.16
550.936	34.48
551.278	34.83
551.621	35.17
551.963	35.52
552.306	35.82
552.648	36.18
552.991	36.57
553.333	36.82
553.675	37.14
554.017	37.45
554.36	37.84
554.702	38.12
555.044	38.4
555.386	38.75
555.728	39.06
556.07	39.34
556.412	39.64
556.754	39.91
557.096	40.31
557.438	40.6
557.78	40.83
558.121	41.22
558.463	41.55
558.805	41.88
559.147	42.12
559.488	42.42
559.83	42.67
560.171	42.91
560.513	43.22
560.854	43.46
561.196	43.73
561.537	43.95
561.878	44.18
562.22	44.41
562.561	44.61
562.902	44.84
563.243	45.12
563.584	45.3
563.925	45.53
564.266	45.72
564.607	45.93
564.948	46.14
565.289	46.27
565.63	46.46
565.971	46.62
566.312	46.84
566.653	47.01
566.993	47.17
567.334	47.36
567.675	47.55
568.015	47.74
568.356	47.91
568.696	48.02
569.037	48.25
569.377	48.41
569.718	48.56
570.058	48.69
570.398	48.79
570.739	48.91
571.079	49.1
571.419	49.26
571.759	49.41
572.099	49.59
572.439	49.79
572.779	49.92
573.119	50.08
573.459	50.23
573.799	50.4
574.139	50.56
574.479	50.66
574.819	50.8
575.158	50.92
575.498	51.07
575.838	51.24
576.177	51.36
576.517	51.5
576.856	51.63
577.196	51.82
577.535	51.99
577.875	52.22
578.214	52.32
578.553	52.46
578.893	52.54
579.232	52.67
579.571	52.75
579.91	52.89
580.25	53.01
580.589	53.11
580.928	53.2
581.267	53.37
581.606	53.49
581.945	53.62
582.283	53.73
582.622	53.81
582.961	53.94
583.3	54.07
583.639	54.25
583.977	54.41
584.316	54.5
584.654	54.6
584.993	54.62
585.332	54.75
585.67	54.76
586.008	54.86
586.347	54.88
586.685	54.99
587.024	55.09
587.362	55.2
587.7	55.2
588.038	55.35
588.376	55.4
588.715	55.45
589.053	55.55
589.391	55.62
589.729	55.67
590.067	55.74
590.404	55.8
590.742	55.86
591.08	55.89
591.418	55.98
591.756	56.03
592.093	56.16
592.431	56.26
592.769	56.36
593.106	56.48
593.444	56.63
593.781	56.7
594.119	56.74
594.456	56.83
594.793	56.94
595.131	56.94
595.468	56.94
595.805	57.05
596.143	57.09
596.48	57.18
596.817	57.26
597.154	57.39
597.491	57.44
597.828	57.47
598.165	57.53
598.502	57.54
598.839	57.62
599.176	57.74
599.512	57.72
599.849	57.76
600.186	57.79
600.523	57.82
600.859	57.86
601.196	57.94
601.532	57.98
601.869	58.02
602.205	58.04
602.542	58.07
602.878	58.13
603.215	58.08
603.551	58.16
603.887	58.16
604.223	58.1
604.56	58.12
604.896	58.13
605.232	58.18
605.568	58.27
605.904	58.27
606.24	58.31
606.576	58.32
606.912	58.26
607.248	58.31
607.583	58.31
607.919	58.37
608.255	58.35
608.591	58.36
608.926	58.39
609.262	58.52
609.597	58.61
609.933	58.64
610.268	58.78
610.604	58.78
610.939	58.88
611.275	59
611.61	59.04
611.945	59.14
612.281	59.18
612.616	59.12
612.951	59.16
613.286	59.14
613.621	59.32
613.956	59.52
614.291	59.6
614.626	59.63
614.961	59.61
615.296	59.71
615.631	59.77
615.966	59.8
616.3	59.81
616.635	59.81
616.97	59.76
617.304	59.78
617.639	59.83
617.973	59.83
618.308	59.78
618.642	59.8
618.977	59.78
619.311	59.83
619.646	59.94
619.98	60
620.314	60.03
620.648	60.03
620.983	60.1
621.317	60.02
621.651	60.13
621.985	60.25
622.319	60.23
622.653	60.26
622.987	60.22
623.321	60.27
623.655	60.24
623.988	60.34
624.322	60.44
624.656	60.55
624.99	60.6
625.323	60.65
625.657	60.67
625.99	60.65
626.324	60.65
626.657	60.69
626.991	60.72
627.324	60.88
627.658	60.83
627.991	60.73
628.324	60.9
628.657	60.86
628.991	60.74
629.324	60.83
629.657	60.77
629.99	60.79
630.323	60.7
630.656	60.83
630.989	60.84
631.322	60.79
631.655	60.68
631.987	60.66
632.32	60.76
632.653	60.84
632.986	60.8
633.318	60.85
633.651	60.84
633.984	60.85
634.316	60.71
634.649	60.66
634.981	60.79
635.313	60.62
635.646	60.68
635.978	60.85
636.31	60.88
636.643	61.04
636.975	61.09
637.307	61.21
637.639	61.24
637.971	61.27
638.303	61.22
638.635	61.32
638.967	61.34
639.299	61.28
639.631	61.12
639.963	61.2
640.295	61.16
640.626	61.2
640.958	61.25
641.29	61.36
641.621	61.48
641.953	61.41
642.285	61.57
642.616	61.53
642.948	61.59
643.279	61.56
643.61	61.51
643.942	61.56
644.273	61.52
644.604	61.48
644.936	61.45
645.267	61.53
645.598	61.5
645.929	61.51
646.26	61.47
646.591	61.63
646.922	61.67
647.253	61.72
647.584	61.57
647.915	61.57
648.245	61.57
648.576	61.6
648.907	61.76
649.238	61.75
649.568	61.78
649.899	61.77
650.229	61.71
650.56	61.81
650.89	61.87
651.221	61.95
651.551	61.95
651.882	61.98
652.212	62.02
652.542	61.99
652.872	62.01
653.203	62.02
653.533	62.03
653.863	61.92
654.193	61.92
654.523	62.08
654.853	62.13
655.183	62.08
655.513	62.15
655.843	62.05
656.172	62.02
656.502	62.08
656.832	61.97
657.162	62.08
657.491	61.98
657.821	61.97
658.15	61.98
658.48	62.08
658.809	62.2
659.139	62.24
659.468	62.19
659.798	62.27
660.127	62.35
660.456	62.35
660.785	62.49
661.115	62.48
661.444	62.39
661.773	62.42
662.102	62.44
662.431	62.29
662.76	62.34
663.089	62.41
663.418	62.44
663.747	62.48
664.076	62.41
664.404	62.31
664.733	62.41
665.062	62.41
665.39	62.27
