Data from BA28417_Reflection_00008.txt Node
Date: Mon Nov 18 16:11:12 EST 2019
User: vgr7
Spectrometer: USB2G7710
Scans to average: 3
Trigger mode: 4
Integration Time (sec): 2.000000E-2
Electric dark correction enabled: true
Boxcar width: 10
XAxis mode: Wavelengths
Number of Pixels in Spectrum: 2048
>>>>>Begin Spectral Data<<<<<
177.721	-128.66
178.105	-143.63
178.488	-30.96
178.871	-37.96
179.254	-42.86
179.636	-155.91
180.019	-66.85
180.402	214.29
180.785	34.54
181.168	-1164.71
181.55	-25.26
181.933	121.83
182.316	97.03
182.698	77.58
183.081	117.3
183.463	134.71
183.846	79.24
184.228	90.34
184.611	139.63
184.993	361.3
185.376	742.59
185.758	414.74
186.14	751.01
186.522	315.41
186.904	604.32
187.287	427.77
187.669	-3102.53
188.051	-481.11
188.433	-253.52
188.815	-120.85
189.197	-113.11
189.579	-146.58
189.961	-109.08
190.342	-114.46
190.724	-83.12
191.106	-88.75
191.488	-74.49
191.869	-57.27
192.251	-48.13
192.633	-42.86
193.014	-46.65
193.396	-104.51
193.777	-150.69
194.159	-148.25
194.54	-63.31
194.922	-59.63
195.303	-66.98
195.684	-63.17
196.065	-57.54
196.447	-53.69
196.828	-74.38
197.209	-91.93
197.59	-93.98
197.971	-135.32
198.352	-83.06
198.733	-86.08
199.114	-59.01
199.495	-43.86
199.876	-45.22
200.257	-47.34
200.638	-24.6
201.018	-34.42
201.399	-34.21
201.78	-22.01
202.16	-29.01
202.541	-40.68
202.922	-69.04
203.302	-61.5
203.683	-53.45
204.063	-72.32
204.444	-64.11
204.824	-68.97
205.204	-60.23
205.585	-49.38
205.965	-33.93
206.345	-65.39
206.725	-76.2
207.106	-112.15
207.486	-191.31
207.866	-154.79
208.246	-129.46
208.626	-165.13
209.006	-113.79
209.386	-147.3
209.766	-150.42
210.145	-116.8
210.525	-85.31
210.905	-57.55
211.285	-46.71
211.664	-54.84
212.044	-59.17
212.424	-60.48
212.803	-81
213.183	-75.43
213.562	-70.4
213.942	-78.5
214.321	-49.63
214.701	-59.81
215.08	-65.5
215.459	-44.53
215.838	-40.6
216.218	-64.56
216.597	-48.76
216.976	-38.25
217.355	-44.02
217.734	-53.81
218.113	-56.2
218.492	-89.56
218.871	-117.65
219.25	-217.61
219.629	-176.34
220.008	-127.88
220.387	-228.52
220.766	-219.59
221.144	172.63
221.523	85.34
221.902	16.47
222.28	137.77
222.659	53.45
223.037	511.76
223.416	1014.89
223.794	-110.32
224.173	-48.8
224.551	-10.92
224.929	-22.07
225.308	-8.23
225.686	-2.53
226.064	0.74
226.442	-6.26
226.821	-1.11
227.199	-1.62
227.577	-4.2
227.955	-10.83
228.333	-6.02
228.711	-1.22
229.089	-0.26
229.467	0.83
229.845	-1.6
230.222	-1.94
230.6	-1.67
230.978	-1.53
231.356	0.09
231.733	1.65
232.111	1.94
232.488	0.84
232.866	2.35
233.243	3.62
233.621	1.99
233.998	3.96
234.376	5.44
234.753	4.51
235.13	5.07
235.508	7.42
235.885	8.97
236.262	6.51
236.639	5.05
237.016	5
237.393	5.78
237.77	6.23
238.147	6.39
238.524	5.36
238.901	4.58
239.278	4.86
239.655	5.09
240.032	5.24
240.409	4.56
240.785	4.11
241.162	3.5
241.539	3.5
241.915	3.24
242.292	2.83
242.668	2.55
243.045	2.32
243.421	1.95
243.798	1.81
244.174	2.19
244.551	2.05
244.927	2.01
245.303	1.75
245.679	1.58
246.056	1.62
246.432	1.86
246.808	2.12
247.184	1.74
247.56	1.36
247.936	1.4
248.312	1.33
248.688	1.39
249.064	1.32
249.44	1.26
249.815	1.21
250.191	1.25
250.567	1.37
250.943	1.28
251.318	1.07
251.694	1.18
252.069	1.08
252.445	1.14
252.82	1.19
253.196	1.16
253.571	1.12
253.947	1
254.322	0.75
254.697	0.43
255.073	0.87
255.448	1.02
255.823	1.17
256.198	1.55
256.573	1.39
256.948	1.7
257.323	1.91
257.698	1.78
258.073	2.05
258.448	1.95
258.823	2
259.198	2.08
259.573	2.03
259.948	2.02
260.322	2.09
260.697	1.98
261.072	1.93
261.446	2.03
261.821	2
262.195	2.19
262.57	2.25
262.944	2.18
263.319	2.2
263.693	2.01
264.067	1.97
264.442	2.07
264.816	2.02
265.19	1.94
265.564	1.89
265.938	1.68
266.313	1.57
266.687	1.66
267.061	1.83
267.435	1.77
267.809	1.64
268.183	1.51
268.556	1.56
268.93	1.65
269.304	1.76
269.678	1.91
270.051	1.75
270.425	1.92
270.799	1.89
271.172	1.92
271.546	1.92
271.919	1.96
272.293	2.05
272.666	2.03
273.04	2.08
273.413	2.15
273.787	2.25
274.16	2.38
274.533	2.24
274.906	2.35
275.279	2.47
275.653	2.58
276.026	2.66
276.399	2.63
276.772	2.62
277.145	2.53
277.518	2.44
277.891	2.48
278.263	2.45
278.636	2.5
279.009	2.57
279.382	2.69
279.755	2.5
280.127	2.61
280.5	2.6
280.872	2.59
281.245	2.54
281.617	2.52
281.99	2.53
282.362	2.61
282.735	2.37
283.107	2.27
283.479	2.24
283.852	2.09
284.224	2.19
284.596	2.13
284.968	2.08
285.34	2.08
285.713	2.07
286.085	1.95
286.457	1.98
286.829	1.88
287.201	1.87
287.572	1.78
287.944	1.61
288.316	1.55
288.688	1.43
289.06	1.4
289.431	1.31
289.803	1.4
290.175	1.47
290.546	1.66
290.918	1.72
291.289	1.64
291.661	1.77
292.032	1.77
292.403	1.82
292.775	1.91
293.146	2.01
293.517	1.95
293.889	1.97
294.26	1.97
294.631	2.04
295.002	2.03
295.373	2.22
295.744	2.32
296.115	2.36
296.486	2.27
296.857	2.37
297.228	2.46
297.599	2.35
297.97	2.35
298.34	2.32
298.711	2.39
299.082	2.49
299.452	2.5
299.823	2.55
300.194	2.62
300.564	2.58
300.935	2.56
301.305	2.7
301.676	2.76
302.046	2.77
302.416	2.76
302.787	2.72
303.157	2.77
303.527	2.69
303.897	2.68
304.267	2.92
304.637	2.93
305.008	3.02
305.378	3.1
305.748	3.07
306.117	2.89
306.487	2.68
306.857	2.58
307.227	2.63
307.597	2.6
307.967	2.59
308.336	2.59
308.706	2.55
309.076	2.44
309.445	2.46
309.815	2.54
310.184	2.55
310.554	2.63
310.923	2.55
311.293	2.6
311.662	2.54
312.031	2.44
312.401	2.44
312.77	2.4
313.139	2.36
313.508	2.34
313.877	2.27
314.246	2.4
314.616	2.48
314.985	2.47
315.353	2.44
315.722	2.41
316.091	2.36
316.46	2.28
316.829	2.31
317.198	2.23
317.567	2.09
317.935	2.17
318.304	2.12
318.672	2.06
319.041	2.12
319.41	2.28
319.778	2.36
320.147	2.35
320.515	2.29
320.883	2.36
321.252	2.47
321.62	2.71
321.988	2.67
322.357	2.71
322.725	2.69
323.093	2.8
323.461	2.83
323.829	2.94
324.197	3.03
324.565	3.13
324.933	3.33
325.301	3.33
325.669	3.35
326.037	3.4
326.405	3.59
326.772	3.64
327.14	3.73
327.508	3.69
327.875	3.71
328.243	3.76
328.61	3.71
328.978	3.73
329.346	3.78
329.713	3.79
330.08	3.82
330.448	3.72
330.815	3.56
331.182	3.49
331.55	3.48
331.917	3.54
332.284	3.67
332.651	3.52
333.018	3.58
333.385	3.51
333.752	3.51
334.119	3.36
334.486	3.34
334.853	3.3
335.22	3.35
335.587	3.43
335.954	3.41
336.32	3.4
336.687	3.34
337.054	3.4
337.42	3.45
337.787	3.41
338.153	3.5
338.52	3.56
338.886	3.59
339.253	3.5
339.619	3.52
339.986	3.44
340.352	3.56
340.718	3.63
341.084	3.59
341.451	3.67
341.817	3.81
342.183	3.69
342.549	3.54
342.915	3.7
343.281	3.72
343.647	3.77
344.013	3.82
344.379	3.73
344.745	3.65
345.11	3.65
345.476	3.69
345.842	3.69
346.208	3.77
346.573	3.78
346.939	3.91
347.304	3.78
347.67	3.69
348.035	3.67
348.401	3.57
348.766	3.61
349.132	3.54
349.497	3.45
349.862	3.57
350.228	3.65
350.593	3.52
350.958	3.48
351.323	3.49
351.688	3.48
352.053	3.58
352.418	3.58
352.783	3.57
353.148	3.43
353.513	3.49
353.878	3.48
354.243	3.54
354.608	3.48
354.972	3.58
355.337	3.69
355.702	3.72
356.066	3.69
356.431	3.7
356.795	3.81
357.16	3.82
357.524	3.77
357.889	3.77
358.253	3.76
358.618	3.74
358.982	3.68
359.346	3.66
359.71	3.66
360.075	3.65
360.439	3.59
360.803	3.68
361.167	3.63
361.531	3.6
361.895	3.58
362.259	3.55
362.623	3.49
362.987	3.42
363.351	3.44
363.714	3.45
364.078	3.41
364.442	3.27
364.806	3.21
365.169	3.24
365.533	3.26
365.896	3.26
366.26	3.24
366.623	3.23
366.987	3.2
367.35	3.23
367.714	3.25
368.077	3.3
368.44	3.27
368.803	3.2
369.167	3.12
369.53	3.08
369.893	3.12
370.256	3.16
370.619	3.19
370.982	3.09
371.345	3.09
371.708	3.05
372.071	3.11
372.434	3.06
372.797	3.03
373.159	2.9
373.522	2.87
373.885	2.84
374.247	2.85
374.61	2.85
374.973	2.72
375.335	2.66
375.698	2.69
376.06	2.65
376.423	2.65
376.785	2.71
377.147	2.76
377.51	2.76
377.872	2.74
378.234	2.71
378.596	2.7
378.958	2.71
379.321	2.75
379.683	2.75
380.045	2.79
380.407	2.7
380.769	2.76
381.13	2.76
381.492	2.79
381.854	2.78
382.216	2.78
382.578	2.85
382.939	2.83
383.301	2.81
383.663	2.79
384.024	2.79
384.386	2.76
384.747	2.71
385.109	2.64
385.47	2.62
385.832	2.64
386.193	2.62
386.554	2.61
386.916	2.56
387.277	2.52
387.638	2.57
387.999	2.56
388.36	2.54
388.721	2.55
389.082	2.54
389.443	2.51
389.804	2.49
390.165	2.44
390.526	2.45
390.887	2.38
391.248	2.39
391.609	2.39
391.969	2.41
392.33	2.44
392.691	2.45
393.051	2.43
393.412	2.39
393.772	2.39
394.133	2.37
394.493	2.36
394.854	2.34
395.214	2.31
395.574	2.34
395.935	2.34
396.295	2.32
396.655	2.28
397.015	2.27
397.376	2.26
397.736	2.26
398.096	2.22
398.456	2.23
398.816	2.26
399.176	2.23
399.535	2.17
399.895	2.11
400.255	2.1
400.615	2.11
400.975	2.11
401.334	2.07
401.694	2.06
402.054	2.04
402.413	2.05
402.773	2
403.132	2
403.492	1.97
403.851	1.97
404.211	1.97
404.57	1.96
404.929	1.96
405.288	1.92
405.648	1.9
406.007	1.91
406.366	1.86
406.725	1.87
407.084	1.9
407.443	1.88
407.802	1.9
408.161	1.87
408.52	1.84
408.879	1.85
409.238	1.84
409.596	1.86
409.955	1.83
410.314	1.83
410.673	1.8
411.031	1.77
411.39	1.73
411.748	1.73
412.107	1.74
412.465	1.72
412.824	1.75
413.182	1.76
413.54	1.76
413.899	1.77
414.257	1.76
414.615	1.75
414.974	1.75
415.332	1.74
415.69	1.74
416.048	1.74
416.406	1.74
416.764	1.75
417.122	1.76
417.48	1.77
417.838	1.79
418.195	1.8
418.553	1.82
418.911	1.81
419.269	1.82
419.626	1.8
419.984	1.81
420.342	1.79
420.699	1.8
421.057	1.8
421.414	1.78
421.772	1.77
422.129	1.78
422.486	1.79
422.844	1.78
423.201	1.77
423.558	1.78
423.915	1.78
424.273	1.79
424.63	1.77
424.987	1.78
425.344	1.77
425.701	1.77
426.058	1.75
426.415	1.77
426.772	1.78
427.128	1.77
427.485	1.77
427.842	1.76
428.199	1.75
428.555	1.74
428.912	1.75
429.269	1.77
429.625	1.75
429.982	1.72
430.338	1.72
430.695	1.74
431.051	1.73
431.407	1.73
431.764	1.73
432.12	1.72
432.476	1.72
432.832	1.7
433.189	1.69
433.545	1.69
433.901	1.67
434.257	1.66
434.613	1.68
434.969	1.69
435.325	1.71
435.681	1.73
436.036	1.72
436.392	1.73
436.748	1.71
437.104	1.7
437.459	1.72
437.815	1.73
438.171	1.73
438.526	1.73
438.882	1.72
439.237	1.71
439.593	1.72
439.948	1.7
440.304	1.72
440.659	1.72
441.014	1.73
441.369	1.72
441.725	1.71
442.08	1.71
442.435	1.7
442.79	1.7
443.145	1.69
443.5	1.69
443.855	1.69
444.21	1.69
444.565	1.71
444.92	1.7
445.275	1.69
445.629	1.69
445.984	1.68
446.339	1.67
446.693	1.66
447.048	1.65
447.403	1.65
447.757	1.64
448.112	1.63
448.466	1.63
448.82	1.63
449.175	1.65
449.529	1.65
449.883	1.64
450.238	1.63
450.592	1.64
450.946	1.63
451.3	1.63
451.654	1.63
452.008	1.63
452.362	1.63
452.716	1.62
453.07	1.63
453.424	1.64
453.778	1.66
454.132	1.66
454.486	1.65
454.839	1.67
455.193	1.67
455.547	1.67
455.9	1.66
456.254	1.67
456.607	1.65
456.961	1.65
457.314	1.66
457.668	1.65
458.021	1.62
458.375	1.64
458.728	1.63
459.081	1.63
459.434	1.62
459.787	1.63
460.141	1.63
460.494	1.64
460.847	1.66
461.2	1.65
461.553	1.66
461.906	1.66
462.259	1.66
462.611	1.66
462.964	1.67
463.317	1.66
463.67	1.66
464.022	1.68
464.375	1.66
464.728	1.67
465.08	1.69
465.433	1.73
465.785	1.73
466.138	1.73
466.49	1.73
466.843	1.73
467.195	1.73
467.547	1.73
467.899	1.72
468.252	1.69
468.604	1.68
468.956	1.68
469.308	1.68
469.66	1.69
470.012	1.69
470.364	1.71
470.716	1.73
471.068	1.74
471.42	1.72
471.772	1.73
472.123	1.74
472.475	1.74
472.827	1.72
473.178	1.7
473.53	1.72
473.882	1.72
474.233	1.75
474.585	1.73
474.936	1.73
475.288	1.73
475.639	1.74
475.99	1.74
476.342	1.73
476.693	1.73
477.044	1.75
477.395	1.75
477.746	1.74
478.097	1.74
478.448	1.73
478.8	1.75
479.15	1.74
479.501	1.74
479.852	1.73
480.203	1.74
480.554	1.75
480.905	1.73
481.255	1.73
481.606	1.73
481.957	1.73
482.307	1.73
482.658	1.73
483.009	1.72
483.359	1.72
483.709	1.74
484.06	1.74
484.41	1.73
484.761	1.74
485.111	1.75
485.461	1.74
485.811	1.75
486.162	1.74
486.512	1.74
486.862	1.74
487.212	1.74
487.562	1.75
487.912	1.74
488.262	1.76
488.612	1.76
488.961	1.76
489.311	1.77
489.661	1.78
490.011	1.77
490.36	1.78
490.71	1.78
491.06	1.77
491.409	1.78
491.759	1.78
492.108	1.79
492.458	1.79
492.807	1.79
493.157	1.79
493.506	1.8
493.855	1.81
494.204	1.81
494.554	1.82
494.903	1.82
495.252	1.82
495.601	1.85
495.95	1.86
496.299	1.87
496.648	1.87
496.997	1.86
497.346	1.89
497.695	1.91
498.043	1.92
498.392	1.92
498.741	1.93
499.09	1.92
499.438	1.92
499.787	1.94
500.135	1.96
500.484	1.97
500.832	1.99
501.181	2.01
501.529	2.04
501.878	2.08
502.226	2.1
502.574	2.13
502.923	2.12
503.271	2.12
503.619	2.13
503.967	2.14
504.315	2.16
504.663	2.18
505.011	2.21
505.359	2.23
505.707	2.28
506.055	2.29
506.403	2.33
506.751	2.34
507.098	2.38
507.446	2.41
507.794	2.43
508.141	2.47
508.489	2.49
508.837	2.51
509.184	2.52
509.531	2.54
509.879	2.57
510.226	2.61
510.574	2.64
510.921	2.66
511.268	2.71
511.616	2.75
511.963	2.78
512.31	2.81
512.657	2.85
513.004	2.87
513.351	2.91
513.698	2.95
514.045	2.98
514.392	3.02
514.739	3.05
515.086	3.11
515.432	3.16
515.779	3.21
516.126	3.24
516.473	3.27
516.819	3.33
517.166	3.36
517.512	3.39
517.859	3.44
518.205	3.47
518.552	3.5
518.898	3.54
519.245	3.57
519.591	3.59
519.937	3.62
520.283	3.67
520.629	3.7
520.976	3.74
521.322	3.81
521.668	3.84
522.014	3.89
522.36	3.94
522.706	3.99
523.052	4.04
523.398	4.12
523.743	4.19
524.089	4.26
524.435	4.33
524.781	4.4
525.126	4.46
525.472	4.52
525.817	4.59
526.163	4.64
526.509	4.7
526.854	4.78
527.199	4.84
527.545	4.89
527.89	4.96
528.235	5.02
528.581	5.08
528.926	5.15
529.271	5.21
529.616	5.28
529.961	5.33
530.306	5.39
530.651	5.46
530.996	5.54
531.341	5.62
531.686	5.7
532.031	5.79
532.376	5.9
532.721	6
533.065	6.1
533.41	6.21
533.755	6.32
534.099	6.43
534.444	6.52
534.788	6.64
535.133	6.76
535.477	6.88
535.822	6.99
536.166	7.13
536.51	7.27
536.855	7.43
537.199	7.6
537.543	7.78
537.887	7.96
538.231	8.13
538.576	8.32
538.92	8.52
539.264	8.7
539.608	8.85
539.951	9
540.295	9.16
540.639	9.33
540.983	9.49
541.327	9.63
541.671	9.8
542.014	9.94
542.358	10.09
542.701	10.24
543.045	10.42
543.389	10.61
543.732	10.79
544.075	10.95
544.419	11.14
544.762	11.33
545.105	11.53
545.449	11.74
545.792	11.96
546.135	12.17
546.478	12.39
546.821	12.64
547.165	12.91
547.508	13.16
547.851	13.43
548.194	13.72
548.536	14
548.879	14.3
549.222	14.59
549.565	14.88
549.908	15.17
550.25	15.49
550.593	15.75
550.936	16.04
551.278	16.34
551.621	16.67
551.963	16.99
552.306	17.26
552.648	17.54
552.991	17.85
553.333	18.18
553.675	18.51
554.017	18.83
554.36	19.15
554.702	19.44
555.044	19.72
555.386	19.96
555.728	20.27
556.07	20.53
556.412	20.86
556.754	21.17
557.096	21.5
557.438	21.77
557.78	22.12
558.121	22.45
558.463	22.77
558.805	23.02
559.147	23.3
559.488	23.62
559.83	23.96
560.171	24.22
560.513	24.44
560.854	24.74
561.196	25.01
561.537	25.28
561.878	25.58
562.22	25.86
562.561	26.15
562.902	26.42
563.243	26.74
563.584	27.02
563.925	27.28
564.266	27.55
564.607	27.81
564.948	28.05
565.289	28.29
565.63	28.55
565.971	28.79
566.312	29.08
566.653	29.3
566.993	29.52
567.334	29.75
567.675	30.06
568.015	30.31
568.356	30.55
568.696	30.79
569.037	30.99
569.377	31.31
569.718	31.58
570.058	31.82
570.398	32.01
570.739	32.23
571.079	32.49
571.419	32.7
571.759	32.95
572.099	33.15
572.439	33.35
572.779	33.6
573.119	33.84
573.459	34.04
573.799	34.3
574.139	34.5
574.479	34.71
574.819	34.89
575.158	35.09
575.498	35.29
575.838	35.49
576.177	35.73
576.517	35.86
576.856	36.05
577.196	36.22
577.535	36.47
577.875	36.71
578.214	36.92
578.553	37.17
578.893	37.36
579.232	37.6
579.571	37.86
579.91	38.03
580.25	38.22
580.589	38.41
580.928	38.64
581.267	38.9
581.606	39.1
581.945	39.33
582.283	39.49
582.622	39.67
582.961	39.84
583.3	40.09
583.639	40.28
583.977	40.49
584.316	40.75
584.654	40.92
584.993	41.11
585.332	41.28
585.67	41.39
586.008	41.59
586.347	41.72
586.685	41.87
587.024	42.05
587.362	42.2
587.7	42.36
588.038	42.44
588.376	42.55
588.715	42.7
589.053	42.84
589.391	43
589.729	43.22
590.067	43.45
590.404	43.56
590.742	43.69
591.08	43.81
591.418	43.91
591.756	44.02
592.093	44.1
592.431	44.17
592.769	44.32
593.106	44.41
593.444	44.52
593.781	44.66
594.119	44.76
594.456	44.84
594.793	44.94
595.131	45.08
595.468	45.2
595.805	45.31
596.143	45.39
596.48	45.55
596.817	45.59
597.154	45.61
597.491	45.65
597.828	45.75
598.165	45.85
598.502	45.92
598.839	46.09
599.176	46.21
599.512	46.38
599.849	46.48
600.186	46.69
600.523	46.83
600.859	46.89
601.196	47.03
601.532	47.16
601.869	47.26
602.205	47.37
602.542	47.45
602.878	47.57
603.215	47.66
603.551	47.65
603.887	47.72
604.223	47.8
604.56	47.92
604.896	48.02
605.232	48.06
605.568	48.18
605.904	48.19
606.24	48.34
606.576	48.37
606.912	48.47
607.248	48.45
607.583	48.52
607.919	48.64
608.255	48.73
608.591	48.85
608.926	48.97
609.262	49.08
609.597	49.14
609.933	49.19
610.268	49.27
610.604	49.34
610.939	49.38
611.275	49.5
611.61	49.57
611.945	49.61
612.281	49.71
612.616	49.75
612.951	49.82
613.286	49.86
613.621	50.01
613.956	50.09
614.291	50.19
614.626	50.33
614.961	50.33
615.296	50.35
615.631	50.44
615.966	50.46
616.3	50.45
616.635	50.45
616.97	50.44
617.304	50.41
617.639	50.54
617.973	50.66
618.308	50.69
618.642	50.73
618.977	50.79
619.311	50.82
619.646	50.85
619.98	50.9
620.314	50.94
620.648	51.01
620.983	51.12
621.317	51.19
621.651	51.18
621.985	51.28
622.319	51.37
622.653	51.4
622.987	51.44
623.321	51.42
623.655	51.53
623.988	51.6
624.322	51.68
624.656	51.84
624.99	51.88
625.323	51.9
625.657	51.94
625.99	51.96
626.324	52.03
626.657	52.12
626.991	52.16
627.324	52.12
627.658	52.09
627.991	52.02
628.324	52.05
628.657	52.06
628.991	52.13
629.324	52.15
629.657	52.18
629.99	52.27
630.323	52.4
630.656	52.43
630.989	52.54
631.322	52.56
631.655	52.49
631.987	52.55
632.32	52.56
632.653	52.57
632.986	52.59
633.318	52.57
633.651	52.62
633.984	52.67
634.316	52.77
634.649	52.85
634.981	52.94
635.313	52.98
635.646	53.03
635.978	53.15
636.31	53.12
636.643	53.08
636.975	53.04
637.307	53.1
637.639	53.19
637.971	53.16
638.303	53.31
638.635	53.35
638.967	53.41
639.299	53.5
639.631	53.45
639.963	53.51
640.295	53.61
640.626	53.73
640.958	53.74
641.29	53.76
641.621	53.73
641.953	53.68
642.285	53.69
642.616	53.64
642.948	53.56
643.279	53.71
643.61	53.88
643.942	53.86
644.273	53.9
644.604	53.79
644.936	53.9
645.267	53.78
645.598	53.8
645.929	53.79
646.26	53.93
646.591	54.08
646.922	54.09
647.253	54.1
647.584	53.98
647.915	53.9
648.245	53.95
648.576	54.07
648.907	54.19
649.238	54.17
649.568	54.35
649.899	54.37
650.229	54.43
650.56	54.35
650.89	54.44
651.221	54.43
651.551	54.56
651.882	54.59
652.212	54.62
652.542	54.66
652.872	54.68
653.203	54.61
653.533	54.71
653.863	54.7
654.193	54.71
654.523	54.79
654.853	54.95
655.183	54.95
655.513	54.87
655.843	54.85
656.172	54.86
656.502	54.75
656.832	54.71
657.162	54.73
657.491	54.78
657.821	54.8
658.15	54.81
658.48	54.82
658.809	54.85
659.139	54.94
659.468	54.97
659.798	54.87
660.127	54.81
660.456	54.73
660.785	54.82
661.115	54.85
661.444	54.88
661.773	54.95
662.102	55
662.431	55.03
662.76	55.08
663.089	55.16
663.418	55.35
663.747	55.49
664.076	55.39
664.404	55.43
664.733	55.58
665.062	55.54
665.39	55.57
665.719	55.59
666.048	55.57
666.376	55.5
666.705	55.66
667.033	55.73
667.362	55.76
667.69	55.73
