Data from BA28469_Reflection_00010.txt Node
Date: Mon Nov 18 15:18:06 EST 2019
User: vgr7
Spectrometer: USB2G7710
Scans to average: 3
Trigger mode: 4
Integration Time (sec): 2.000000E-2
Electric dark correction enabled: true
Boxcar width: 10
XAxis mode: Wavelengths
Number of Pixels in Spectrum: 2048
>>>>>Begin Spectral Data<<<<<
177.721	204.74
178.105	-11900
178.488	-49.44
178.871	-1.04
179.254	-18.81
179.636	24100
180.019	-157.67
180.402	184.21
180.785	-49.38
181.168	-49.21
181.55	-12.68
181.933	56.04
182.316	43.43
182.698	-10.12
183.081	-80.39
183.463	-158.3
183.846	-114.05
184.228	-183.19
184.611	-118.18
184.993	-13233.33
185.376	732.91
185.758	421.68
186.14	367.28
186.522	1269.81
186.904	444.37
187.287	-430.97
187.669	327.98
188.051	274.5
188.433	121.69
188.815	97
189.197	69.53
189.579	95.58
189.961	94.21
190.342	85.11
190.724	74.16
191.106	74.2
191.488	64.49
191.869	81.52
192.251	93.91
192.633	89.42
193.014	92.5
193.396	101.56
193.777	104.52
194.159	100
194.54	100
194.922	95.43
195.303	102.77
195.684	102.67
196.065	120.56
196.447	133.8
196.828	154.67
197.209	144.88
197.59	162.56
197.971	158.54
198.352	131.51
198.733	210.28
199.114	173.25
199.495	186.96
199.876	180.16
200.257	178.14
200.638	149.76
201.018	152.88
201.399	164.21
201.78	174.64
202.16	216.87
202.541	267.69
202.922	262.05
203.302	260.36
203.683	249.14
204.063	252.75
204.444	206.84
204.824	187.75
205.204	186.96
205.585	153.92
205.965	140.72
206.345	121.95
206.725	94.52
207.106	80.32
207.486	59.95
207.866	35.22
208.246	34.09
208.626	23.19
209.006	15.33
209.386	-17.99
209.766	-30.38
210.145	-21.97
210.525	-2.26
210.905	14.31
211.285	18.94
211.664	7.77
212.044	-5.07
212.424	-3.87
212.803	-21.63
213.183	-16.12
213.562	-19.73
213.942	-11.27
214.321	5.4
214.701	9.14
215.08	17.31
215.459	16.46
215.838	24.97
216.218	18.98
216.597	26.94
216.976	21.96
217.355	31.63
217.734	26.74
218.113	37.31
218.492	37.77
218.871	30.74
219.25	35.87
219.629	38.11
220.008	28.53
220.387	14.56
220.766	29.37
221.144	16.61
221.523	15.74
221.902	10.35
222.28	-19.77
222.659	-26.33
223.037	-32.26
223.416	-35.57
223.794	-32.09
224.173	-14.19
224.551	-14.94
224.929	-17.13
225.308	-11.25
225.686	-6.58
226.064	-8.11
226.442	-3.18
226.821	-3.14
227.199	-7.93
227.577	-6.08
227.955	-5.97
228.333	-2.16
228.711	0.62
229.089	5.78
229.467	5.84
229.845	7.65
230.222	10.16
230.6	8.97
230.978	12.03
231.356	12.52
231.733	12.34
232.111	11.62
232.488	12.15
232.866	12.07
233.243	11.05
233.621	10.83
233.998	11.25
234.376	10.34
234.753	11.28
235.13	11.71
235.508	11.99
235.885	12.42
236.262	11.57
236.639	10.11
237.016	7.86
237.393	7.56
237.77	7.37
238.147	7.23
238.524	7.41
238.901	6.38
239.278	5.94
239.655	6.06
240.032	6.53
240.409	5.98
240.785	6.17
241.162	6.07
241.539	6.29
241.915	6.08
242.292	5.64
242.668	5.48
243.045	5.77
243.421	5.58
243.798	5.51
244.174	5.68
244.551	5.45
244.927	5.57
245.303	5.61
245.679	5.55
246.056	5.22
246.432	5.12
246.808	5.12
247.184	5.34
247.56	4.94
247.936	4.59
248.312	4.62
248.688	4.72
249.064	4.72
249.44	4.79
249.815	4.75
250.191	4.88
250.567	5.03
250.943	4.9
251.318	5.04
251.694	5.25
252.069	5.14
252.445	5.31
252.82	5.41
253.196	5.58
253.571	5.23
253.947	5.33
254.322	5.51
254.697	5.6
255.073	5.18
255.448	5.21
255.823	5.25
256.198	5.3
256.573	5.12
256.948	5.18
257.323	5.04
257.698	5.07
258.073	5.14
258.448	5.1
258.823	5.19
259.198	5.19
259.573	4.97
259.948	4.78
260.322	4.75
260.697	4.64
261.072	4.47
261.446	4.7
261.821	4.79
262.195	4.78
262.57	4.67
262.944	4.7
263.319	4.76
263.693	4.85
264.067	4.87
264.442	4.95
264.816	4.73
265.19	4.66
265.564	4.57
265.938	4.38
266.313	4.17
266.687	4.12
267.061	4.33
267.435	4.53
267.809	4.76
268.183	4.67
268.556	4.74
268.93	4.92
269.304	4.84
269.678	4.93
270.051	4.79
270.425	4.95
270.799	4.99
271.172	5.03
271.546	5.05
271.919	4.88
272.293	4.84
272.666	4.96
273.04	5.01
273.413	5.02
273.787	5.12
274.16	5.11
274.533	5.09
274.906	4.8
275.279	4.74
275.653	4.51
276.026	4.55
276.399	4.55
276.772	4.64
277.145	4.63
277.518	4.46
277.891	4.41
278.263	4.42
278.636	4.38
279.009	4.45
279.382	4.39
279.755	4.49
280.127	4.58
280.5	4.65
280.872	4.67
281.245	4.67
281.617	4.75
281.99	4.94
282.362	4.87
282.735	4.83
283.107	4.75
283.479	4.89
283.852	4.91
284.224	4.85
284.596	4.68
284.968	4.59
285.34	4.69
285.713	4.76
286.085	4.65
286.457	4.81
286.829	4.77
287.201	4.82
287.572	4.74
287.944	4.7
288.316	4.61
288.688	4.7
289.06	4.83
289.431	4.78
289.803	4.61
290.175	4.78
290.546	5.06
290.918	5.14
291.289	5.26
291.661	5.34
292.032	5.42
292.403	5.28
292.775	5.33
293.146	5.31
293.517	5.27
293.889	5.36
294.26	5.27
294.631	5.4
295.002	5.38
295.373	5.4
295.744	5.45
296.115	5.53
296.486	5.37
296.857	5.34
297.228	5.36
297.599	5.5
297.97	5.42
298.34	5.3
298.711	5.38
299.082	5.4
299.452	5.41
299.823	5.42
300.194	5.59
300.564	5.59
300.935	5.59
301.305	5.62
301.676	5.67
302.046	5.72
302.416	5.73
302.787	5.79
303.157	5.84
303.527	5.89
303.897	5.96
304.267	6.2
304.637	6.3
305.008	6.39
305.378	6.45
305.748	6.51
306.117	6.46
306.487	6.42
306.857	6.4
307.227	6.53
307.597	6.57
307.967	6.63
308.336	6.66
308.706	6.72
309.076	6.81
309.445	6.86
309.815	6.89
310.184	6.85
310.554	6.84
310.923	6.89
311.293	6.92
311.662	6.88
312.031	6.84
312.401	6.75
312.77	6.82
313.139	6.97
313.508	6.96
313.877	6.95
314.246	7.02
314.616	7.07
314.985	6.94
315.353	6.92
315.722	6.98
316.091	7.03
316.46	7.03
316.829	7.04
317.198	7.13
317.567	7.1
317.935	7.18
318.304	7.24
318.672	7.44
319.041	7.46
319.41	7.49
319.778	7.6
320.147	7.72
320.515	7.71
320.883	7.57
321.252	7.75
321.62	7.9
321.988	7.76
322.357	7.68
322.725	7.77
323.093	7.95
323.461	8.01
323.829	8.09
324.197	8.11
324.565	8.16
324.933	8.08
325.301	8.21
325.669	8.27
326.037	8.24
326.405	8.07
326.772	8.09
327.14	8.28
327.508	8.24
327.875	8.21
328.243	8.31
328.61	8.37
328.978	8.3
329.346	8.41
329.713	8.5
330.08	8.64
330.448	8.64
330.815	8.49
331.182	8.55
331.55	8.69
331.917	8.81
332.284	8.84
332.651	8.8
333.018	8.78
333.385	8.82
333.752	8.93
334.119	8.98
334.486	8.98
334.853	8.89
335.22	8.99
335.587	9.03
335.954	8.87
336.32	8.84
336.687	8.88
337.054	8.76
337.42	8.91
337.787	8.9
338.153	8.98
338.52	9.16
338.886	9.02
339.253	8.96
339.619	9
339.986	9
340.352	9.17
340.718	9.16
341.084	9.22
341.451	9.38
341.817	9.51
342.183	9.47
342.549	9.53
342.915	9.44
343.281	9.42
343.647	9.58
344.013	9.68
344.379	9.68
344.745	9.8
345.11	9.67
345.476	9.7
345.842	9.77
346.208	9.82
346.573	9.94
346.939	9.97
347.304	9.9
347.67	9.96
348.035	9.96
348.401	10.01
348.766	10.03
349.132	9.89
349.497	9.83
349.862	9.94
350.228	10.01
350.593	10
350.958	10.19
351.323	10.15
351.688	10.14
352.053	10.27
352.418	10.27
352.783	10.38
353.148	10.38
353.513	10.32
353.878	10.24
354.243	10.24
354.608	10.17
354.972	10.15
355.337	10.17
355.702	10.19
356.066	10.29
356.431	10.2
356.795	10.29
357.16	10.28
357.524	10.28
357.889	10.22
358.253	10.32
358.618	10.19
358.982	10.17
359.346	10.06
359.71	10.01
360.075	10.04
360.439	10.04
360.803	10.03
361.167	9.97
361.531	9.95
361.895	9.93
362.259	9.98
362.623	9.99
362.987	9.94
363.351	9.91
363.714	9.81
364.078	9.75
364.442	9.64
364.806	9.62
365.169	9.57
365.533	9.54
365.896	9.46
366.26	9.45
366.623	9.4
366.987	9.47
367.35	9.46
367.714	9.43
368.077	9.41
368.44	9.39
368.803	9.39
369.167	9.35
369.53	9.3
369.893	9.29
370.256	9.25
370.619	9.2
370.982	9.12
371.345	9.05
371.708	9.09
372.071	9.03
372.434	8.94
372.797	8.9
373.159	8.85
373.522	8.81
373.885	8.86
374.247	8.82
374.61	8.74
374.973	8.59
375.335	8.49
375.698	8.38
376.06	8.29
376.423	8.21
376.785	8.17
377.147	8.17
377.51	8.02
377.872	7.99
378.234	7.91
378.596	7.86
378.958	7.79
379.321	7.68
379.683	7.69
380.045	7.69
380.407	7.61
380.769	7.5
381.13	7.49
381.492	7.33
381.854	7.26
382.216	7.19
382.578	7.13
382.939	7.04
383.301	7.04
383.663	6.99
384.024	7
384.386	7.05
384.747	6.97
385.109	6.95
385.47	6.91
385.832	6.92
386.193	6.92
386.554	6.91
386.916	6.94
387.277	6.9
387.638	6.85
387.999	6.78
388.36	6.78
388.721	6.73
389.082	6.7
389.443	6.67
389.804	6.62
390.165	6.61
390.526	6.63
390.887	6.59
391.248	6.6
391.609	6.54
391.969	6.42
392.33	6.37
392.691	6.36
393.051	6.33
393.412	6.3
393.772	6.25
394.133	6.2
394.493	6.14
394.854	6.09
395.214	6.05
395.574	6.03
395.935	5.99
396.295	5.97
396.655	5.95
397.015	5.93
397.376	5.87
397.736	5.83
398.096	5.78
398.456	5.75
398.816	5.73
399.176	5.65
399.535	5.58
399.895	5.55
400.255	5.47
400.615	5.42
400.975	5.35
401.334	5.33
401.694	5.28
402.054	5.24
402.413	5.23
402.773	5.17
403.132	5.13
403.492	5.1
403.851	5.06
404.211	5.04
404.57	4.99
404.929	5
405.288	4.95
405.648	4.92
406.007	4.88
406.366	4.84
406.725	4.86
407.084	4.91
407.443	4.89
407.802	4.93
408.161	4.91
408.52	4.88
408.879	4.84
409.238	4.83
409.596	4.84
409.955	4.81
410.314	4.84
410.673	4.84
411.031	4.81
411.39	4.8
411.748	4.79
412.107	4.8
412.465	4.79
412.824	4.78
413.182	4.77
413.54	4.77
413.899	4.78
414.257	4.77
414.615	4.73
414.974	4.74
415.332	4.72
415.69	4.72
416.048	4.71
416.406	4.7
416.764	4.69
417.122	4.68
417.48	4.65
417.838	4.62
418.195	4.61
418.553	4.62
418.911	4.61
419.269	4.6
419.626	4.6
419.984	4.57
420.342	4.57
420.699	4.56
421.057	4.56
421.414	4.54
421.772	4.52
422.129	4.53
422.486	4.51
422.844	4.5
423.201	4.48
423.558	4.49
423.915	4.49
424.273	4.47
424.63	4.45
424.987	4.45
425.344	4.44
425.701	4.44
426.058	4.41
426.415	4.38
426.772	4.35
427.128	4.32
427.485	4.32
427.842	4.31
428.199	4.29
428.555	4.25
428.912	4.26
429.269	4.25
429.625	4.22
429.982	4.19
430.338	4.17
430.695	4.16
431.051	4.12
431.407	4.1
431.764	4.11
432.12	4.11
432.476	4.11
432.832	4.1
433.189	4.11
433.545	4.1
433.901	4.11
434.257	4.11
434.613	4.13
434.969	4.12
435.325	4.13
435.681	4.14
436.036	4.14
436.392	4.11
436.748	4.09
437.104	4.1
437.459	4.1
437.815	4.11
438.171	4.1
438.526	4.11
438.882	4.11
439.237	4.11
439.593	4.11
439.948	4.1
440.304	4.1
440.659	4.07
441.014	4.11
441.369	4.09
441.725	4.09
442.08	4.09
442.435	4.09
442.79	4.1
443.145	4.09
443.5	4.08
443.855	4.08
444.21	4.09
444.565	4.08
444.92	4.09
445.275	4.08
445.629	4.07
445.984	4.05
446.339	4.04
446.693	4.03
447.048	4.01
447.403	4.01
447.757	4.02
448.112	4.01
448.466	3.98
448.82	3.99
449.175	3.98
449.529	3.97
449.883	3.95
450.238	3.92
450.592	3.92
450.946	3.93
451.3	3.93
451.654	3.91
452.008	3.91
452.362	3.88
452.716	3.88
453.07	3.89
453.424	3.92
453.778	3.91
454.132	3.92
454.486	3.93
454.839	3.93
455.193	3.9
455.547	3.9
455.9	3.92
456.254	3.91
456.607	3.91
456.961	3.9
457.314	3.9
457.668	3.91
458.021	3.9
458.375	3.89
458.728	3.88
459.081	3.9
459.434	3.89
459.787	3.91
460.141	3.91
460.494	3.9
460.847	3.89
461.2	3.88
461.553	3.88
461.906	3.89
462.259	3.88
462.611	3.91
462.964	3.91
463.317	3.92
463.67	3.91
464.022	3.92
464.375	3.94
464.728	3.96
465.08	3.99
465.433	3.99
465.785	4.02
466.138	4.02
466.49	4.02
466.843	4.04
467.195	4.05
467.547	4.07
467.899	4.09
468.252	4.1
468.604	4.11
468.956	4.12
469.308	4.13
469.66	4.15
470.012	4.16
470.364	4.17
470.716	4.17
471.068	4.18
471.42	4.17
471.772	4.18
472.123	4.17
472.475	4.15
472.827	4.14
473.178	4.15
473.53	4.15
473.882	4.15
474.233	4.17
474.585	4.15
474.936	4.14
475.288	4.13
475.639	4.14
475.99	4.15
476.342	4.14
476.693	4.13
477.044	4.14
477.395	4.13
477.746	4.13
478.097	4.12
478.448	4.15
478.8	4.14
479.15	4.13
479.501	4.15
479.852	4.16
480.203	4.17
480.554	4.16
480.905	4.17
481.255	4.17
481.606	4.14
481.957	4.15
482.307	4.14
482.658	4.14
483.009	4.14
483.359	4.14
483.709	4.15
484.06	4.14
484.41	4.14
484.761	4.14
485.111	4.14
485.461	4.15
485.811	4.15
486.162	4.15
486.512	4.15
486.862	4.14
487.212	4.14
487.562	4.13
487.912	4.12
488.262	4.11
488.612	4.11
488.961	4.11
489.311	4.11
489.661	4.11
490.011	4.11
490.36	4.1
490.71	4.1
491.06	4.09
491.409	4.1
491.759	4.1
492.108	4.1
492.458	4.11
492.807	4.1
493.157	4.1
493.506	4.1
493.855	4.1
494.204	4.12
494.554	4.13
494.903	4.14
495.252	4.16
495.601	4.18
495.95	4.2
496.299	4.22
496.648	4.24
496.997	4.26
497.346	4.28
497.695	4.31
498.043	4.33
498.392	4.35
498.741	4.39
499.09	4.41
499.438	4.47
499.787	4.48
500.135	4.52
500.484	4.55
500.832	4.6
501.181	4.62
501.529	4.64
501.878	4.7
502.226	4.75
502.574	4.79
502.923	4.85
503.271	4.89
503.619	4.96
503.967	4.98
504.315	5.02
504.663	5.08
505.011	5.14
505.359	5.16
505.707	5.23
506.055	5.28
506.403	5.33
506.751	5.37
507.098	5.41
507.446	5.48
507.794	5.54
508.141	5.6
508.489	5.68
508.837	5.74
509.184	5.8
509.531	5.85
509.879	5.9
510.226	5.97
510.574	6.03
510.921	6.07
511.268	6.14
511.616	6.21
511.963	6.28
512.31	6.33
512.657	6.44
513.004	6.51
513.351	6.58
513.698	6.69
514.045	6.75
514.392	6.83
514.739	6.91
515.086	7.01
515.432	7.07
515.779	7.14
516.126	7.23
516.473	7.31
516.819	7.4
517.166	7.48
517.512	7.54
517.859	7.62
518.205	7.69
518.552	7.77
518.898	7.84
519.245	7.92
519.591	8
519.937	8.06
520.283	8.12
520.629	8.21
520.976	8.3
521.322	8.39
521.668	8.5
522.014	8.59
522.36	8.67
522.706	8.76
523.052	8.9
523.398	9.04
523.743	9.15
524.089	9.28
524.435	9.4
524.781	9.51
525.126	9.63
525.472	9.74
525.817	9.85
526.163	9.94
526.509	10.03
526.854	10.12
527.199	10.22
527.545	10.3
527.89	10.39
528.235	10.46
528.581	10.57
528.926	10.65
529.271	10.76
529.616	10.85
529.961	10.98
530.306	11.08
530.651	11.17
530.996	11.3
531.341	11.42
531.686	11.57
532.031	11.73
532.376	11.87
532.721	12.02
533.065	12.17
533.41	12.33
533.755	12.5
534.099	12.68
534.444	12.86
534.788	13.06
535.133	13.24
535.477	13.44
535.822	13.64
536.166	13.86
536.51	14.1
536.855	14.34
537.199	14.61
537.543	14.89
537.887	15.18
538.231	15.45
538.576	15.74
538.92	16
539.264	16.23
539.608	16.51
539.951	16.77
540.295	17.04
540.639	17.27
540.983	17.52
541.327	17.77
541.671	18
542.014	18.2
542.358	18.43
542.701	18.66
543.045	18.9
543.389	19.14
543.732	19.38
544.075	19.64
544.419	19.89
544.762	20.15
545.105	20.43
545.449	20.71
545.792	21.03
546.135	21.35
546.478	21.74
546.821	22.1
547.165	22.48
547.508	22.85
547.851	23.24
548.194	23.6
548.536	23.97
548.879	24.4
549.222	24.84
549.565	25.25
549.908	25.67
550.25	26.1
550.593	26.52
550.936	26.95
551.278	27.39
551.621	27.86
551.963	28.33
552.306	28.79
552.648	29.23
552.991	29.63
553.333	30.05
553.675	30.44
554.017	30.87
554.36	31.25
554.702	31.64
555.044	32.06
555.386	32.48
555.728	32.87
556.07	33.28
556.412	33.71
556.754	34.14
557.096	34.61
557.438	35.02
557.78	35.43
558.121	35.91
558.463	36.3
558.805	36.72
559.147	37.08
559.488	37.47
559.83	37.84
560.171	38.26
560.513	38.66
560.854	39.05
561.196	39.42
561.537	39.78
561.878	40.2
562.22	40.56
562.561	40.94
562.902	41.31
563.243	41.62
563.584	41.96
563.925	42.32
564.266	42.58
564.607	42.92
564.948	43.28
565.289	43.63
565.63	43.92
565.971	44.23
566.312	44.56
566.653	44.91
566.993	45.23
567.334	45.54
567.675	45.82
568.015	46.14
568.356	46.4
568.696	46.69
569.037	46.97
569.377	47.29
569.718	47.57
570.058	47.86
570.398	48.13
570.739	48.38
571.079	48.61
571.419	48.93
571.759	49.24
572.099	49.49
572.439	49.63
572.779	49.89
573.119	50.13
573.459	50.34
573.799	50.54
574.139	50.73
574.479	50.91
574.819	51.15
575.158	51.34
575.498	51.55
575.838	51.72
576.177	51.93
576.517	52.1
576.856	52.31
577.196	52.49
577.535	52.75
577.875	52.98
578.214	53.19
578.553	53.37
578.893	53.55
579.232	53.76
579.571	54.02
579.91	54.21
580.25	54.34
580.589	54.53
580.928	54.79
581.267	55.01
581.606	55.19
581.945	55.41
582.283	55.6
582.622	55.82
582.961	56.02
583.3	56.18
583.639	56.44
583.977	56.61
584.316	56.85
584.654	57
584.993	57.15
585.332	57.36
585.67	57.46
586.008	57.57
586.347	57.72
586.685	57.86
587.024	58.11
587.362	58.27
587.7	58.36
588.038	58.44
588.376	58.55
588.715	58.7
589.053	58.81
589.391	59
589.729	59.05
590.067	59.21
590.404	59.34
590.742	59.4
591.08	59.45
591.418	59.51
591.756	59.66
592.093	59.84
592.431	59.89
592.769	60.1
593.106	60.24
593.444	60.35
593.781	60.47
594.119	60.52
594.456	60.6
594.793	60.75
595.131	60.83
595.468	60.92
595.805	60.98
596.143	61.02
596.48	61.04
596.817	61.18
597.154	61.24
597.491	61.34
597.828	61.37
598.165	61.48
598.502	61.6
598.839	61.63
599.176	61.65
599.512	61.71
599.849	61.75
600.186	61.9
600.523	62.03
600.859	62.16
601.196	62.22
601.532	62.34
601.869	62.45
602.205	62.54
602.542	62.64
602.878	62.74
603.215	62.86
603.551	62.98
603.887	63.01
604.223	63.01
604.56	63.05
604.896	63.18
605.232	63.31
605.568	63.35
605.904	63.44
606.24	63.57
606.576	63.67
606.912	63.7
607.248	63.66
607.583	63.67
607.919	63.69
608.255	63.73
608.591	63.76
608.926	63.81
609.262	63.84
609.597	63.83
609.933	63.88
610.268	63.87
610.604	63.87
610.939	63.93
611.275	64.06
611.61	64.11
611.945	64.09
612.281	64.12
612.616	64.25
612.951	64.23
613.286	64.27
613.621	64.35
613.956	64.45
614.291	64.48
614.626	64.53
614.961	64.58
615.296	64.78
615.631	64.94
615.966	65.04
616.3	65.06
616.635	65.24
616.97	65.31
617.304	65.36
617.639	65.41
617.973	65.42
618.308	65.5
618.642	65.55
618.977	65.61
619.311	65.66
619.646	65.58
619.98	65.65
620.314	65.66
620.648	65.7
620.983	65.75
621.317	65.82
621.651	65.92
621.985	65.99
622.319	65.91
622.653	65.88
622.987	65.86
623.321	65.94
623.655	65.98
623.988	66.08
624.322	66.2
624.656	66.23
624.99	66.34
625.323	66.31
625.657	66.33
625.99	66.41
626.324	66.34
626.657	66.44
626.991	66.49
627.324	66.45
627.658	66.51
627.991	66.64
628.324	66.78
628.657	66.82
628.991	66.82
629.324	66.82
629.657	66.85
629.99	66.88
630.323	66.88
630.656	66.84
630.989	66.81
631.322	66.84
631.655	66.82
631.987	66.82
632.32	66.9
632.653	66.94
632.986	66.99
633.318	67.05
633.651	67.05
633.984	67.09
634.316	67.11
634.649	67.11
634.981	66.99
635.313	66.96
635.646	66.95
635.978	66.98
636.31	66.98
636.643	66.94
636.975	66.97
637.307	67.05
637.639	67.09
637.971	67.09
638.303	67.07
638.635	67.07
638.967	67.09
639.299	67.17
639.631	67.16
639.963	67.12
640.295	67.05
640.626	67.13
640.958	67.07
641.29	67.25
641.621	67.25
641.953	67.27
642.285	67.22
642.616	67.17
642.948	67.2
643.279	67.31
643.61	67.46
643.942	67.48
644.273	67.46
644.604	67.62
644.936	67.6
645.267	67.6
645.598	67.63
645.929	67.68
646.26	67.67
646.591	67.7
646.922	67.79
647.253	68
647.584	67.94
647.915	67.85
648.245	67.74
648.576	67.79
648.907	67.93
649.238	68.07
649.568	68.07
649.899	68.1
650.229	68.02
650.56	68.08
650.89	68.1
651.221	68.08
651.551	67.99
651.882	68.12
652.212	68.1
652.542	68.09
652.872	68.16
653.203	68.12
653.533	68.29
653.863	68.32
654.193	68.4
654.523	68.36
654.853	68.44
655.183	68.51
655.513	68.67
655.843	68.67
656.172	68.68
656.502	68.82
656.832	68.79
657.162	68.92
657.491	68.89
657.821	68.9
658.15	68.96
658.48	68.9
658.809	68.94
659.139	69
659.468	69.14
659.798	69.12
660.127	69.12
660.456	69.04
660.785	68.96
661.115	68.83
661.444	69.08
661.773	69.16
662.102	69.17
662.431	69.09
662.76	69.17
663.089	69.15
663.418	69.05
663.747	69.11
664.076	69.26
664.404	69.33
664.733	69.22
665.062	69.22
665.39	69.37
665.719	69.23
666.048	69.23
666.376	69.2
666.705	69.28
667.033	69.39
667.362	69.4
667.69	69.48
668.018	69.73
