Data from BA28471_Reflection_00005.txt Node
Date: Mon Nov 18 15:21:07 EST 2019
User: vgr7
Spectrometer: USB2G7710
Scans to average: 3
Trigger mode: 4
Integration Time (sec): 2.000000E-2
Electric dark correction enabled: true
Boxcar width: 10
XAxis mode: Wavelengths
Number of Pixels in Spectrum: 2048
>>>>>Begin Spectral Data<<<<<
177.721	385.1
178.105	-21.39
178.488	-92.84
178.871	21.71
179.254	48.67
179.636	-27.04
180.019	-239.33
180.402	48.72
180.785	895.18
181.168	82.68
181.55	138.05
181.933	119.17
182.316	160.65
182.698	160.51
183.081	135.88
183.463	175.55
183.846	255.59
184.228	244.71
184.611	565.31
184.993	2789.66
185.376	-259.45
185.758	-73.17
186.14	-535.76
186.522	-4005.26
186.904	497.69
187.287	467.35
187.669	-327.44
188.051	-119.6
188.433	-69.93
188.815	-37.85
189.197	-64.47
189.579	-45.05
189.961	-19.95
190.342	-26.94
190.724	-24.18
191.106	-11.71
191.488	-34.56
191.869	-22.29
192.251	-82.01
192.633	-97.16
193.014	-220.25
193.396	-342.34
193.777	-374.01
194.159	-564.62
194.54	-156.14
194.922	-47.87
195.303	-69.25
195.684	-151.54
196.065	-52.43
196.447	-103.39
196.828	-242.31
197.209	-71.96
197.59	-60.96
197.971	-63.88
198.352	-61.15
198.733	-221.72
199.114	-360.55
199.495	-145.37
199.876	-160.87
200.257	-59.92
200.638	-32.88
201.018	-29.24
201.399	-23.34
201.78	-6.61
202.16	-8.32
202.541	-15.41
202.922	-27.05
203.302	-32.57
203.683	-30.79
204.063	-46.23
204.444	-39.88
204.824	-29.59
205.204	-31.28
205.585	-38.19
205.965	-30.65
206.345	-26.37
206.725	-14.22
207.106	-5.24
207.486	-2.65
207.866	-0.36
208.246	9.23
208.626	5.29
209.006	15.39
209.386	12.73
209.766	4.3
210.145	11.86
210.525	34.85
210.905	31.55
211.285	37.01
211.664	29.16
212.044	28.78
212.424	34.17
212.803	36.74
213.183	53.31
213.562	49.78
213.942	71.76
214.321	76.43
214.701	66.6
215.08	36.96
215.459	40.81
215.838	50.63
216.218	28.85
216.597	21.56
216.976	18.31
217.355	24.07
217.734	21.1
218.113	17.97
218.492	23.19
218.871	14.06
219.25	17.97
219.629	9.49
220.008	15.67
220.387	28.79
220.766	26.91
221.144	4.44
221.523	2.15
221.902	-18.15
222.28	-36.15
222.659	-17.29
223.037	-3.06
223.416	-2.44
223.794	-0.12
224.173	-17.29
224.551	-6
224.929	-14.65
225.308	0.9
225.686	0.85
226.064	4.25
226.442	-5.05
226.821	-3.68
227.199	-6.98
227.577	-7.55
227.955	-12.13
228.333	-10.98
228.711	-10.95
229.089	-4.24
229.467	-5.54
229.845	-3.81
230.222	-1.63
230.6	-2.44
230.978	-1.78
231.356	-1.93
231.733	-2.43
232.111	2.88
232.488	3.33
232.866	4.29
233.243	0.04
233.621	1.62
233.998	1.73
234.376	0.14
234.753	0.93
235.13	1.76
235.508	4.64
235.885	5.38
236.262	3.58
236.639	3.11
237.016	3.04
237.393	3.5
237.77	3.67
238.147	3.76
238.524	3.69
238.901	4.18
239.278	4.47
239.655	4.5
240.032	3.92
240.409	3.21
240.785	3.28
241.162	3.98
241.539	3.71
241.915	3.73
242.292	4.74
242.668	5.01
243.045	5.06
243.421	5.1
243.798	4.81
244.174	5.13
244.551	5.21
244.927	5.29
245.303	5.53
245.679	5.71
246.056	5.79
246.432	5.87
246.808	5.69
247.184	5.55
247.56	5.45
247.936	5.53
248.312	5.55
248.688	5.51
249.064	5.38
249.44	5.16
249.815	5.32
250.191	5.11
250.567	4.92
250.943	4.85
251.318	4.68
251.694	4.86
252.069	4.6
252.445	4.72
252.82	4.32
253.196	4.26
253.571	4
253.947	3.78
254.322	4.06
254.697	4.02
255.073	4.14
255.448	4.12
255.823	3.86
256.198	4.09
256.573	4.42
256.948	4.62
257.323	4.81
257.698	4.64
258.073	4.69
258.448	4.77
258.823	4.83
259.198	4.76
259.573	4.89
259.948	4.84
260.322	4.84
260.697	4.95
261.072	4.81
261.446	4.93
261.821	5.01
262.195	4.93
262.57	4.92
262.944	4.92
263.319	4.98
263.693	4.96
264.067	4.95
264.442	4.8
264.816	4.62
265.19	4.75
265.564	4.72
265.938	4.67
266.313	4.51
266.687	4.67
267.061	4.84
267.435	4.62
267.809	4.74
268.183	4.77
268.556	4.97
268.93	5.06
269.304	4.9
269.678	4.95
270.051	4.93
270.425	4.92
270.799	4.91
271.172	4.99
271.546	4.97
271.919	4.91
272.293	4.81
272.666	4.9
273.04	4.92
273.413	4.9
273.787	4.81
274.16	4.91
274.533	4.72
274.906	4.59
275.279	4.71
275.653	4.66
276.026	4.68
276.399	4.48
276.772	4.47
277.145	4.39
277.518	4.3
277.891	4.24
278.263	4.14
278.636	4.04
279.009	4.04
279.382	4.25
279.755	4.4
280.127	4.68
280.5	4.69
280.872	4.61
281.245	4.66
281.617	4.79
281.99	4.85
282.362	4.99
282.735	4.88
283.107	4.84
283.479	4.9
283.852	4.79
284.224	4.88
284.596	4.9
284.968	5.04
285.34	5.1
285.713	5.19
286.085	5.23
286.457	5.35
286.829	5.28
287.201	5.32
287.572	5.22
287.944	5.1
288.316	5.23
288.688	5.09
289.06	5.09
289.431	5.06
289.803	5.16
290.175	5.13
290.546	5.28
290.918	5.23
291.289	5.28
291.661	5.34
292.032	5.36
292.403	5.33
292.775	5.38
293.146	5.44
293.517	5.49
293.889	5.56
294.26	5.57
294.631	5.6
295.002	5.54
295.373	5.6
295.744	5.55
296.115	5.51
296.486	5.52
296.857	5.47
297.228	5.56
297.599	5.42
297.97	5.44
298.34	5.42
298.711	5.51
299.082	5.5
299.452	5.43
299.823	5.56
300.194	5.59
300.564	5.49
300.935	5.38
301.305	5.27
301.676	5.27
302.046	5.21
302.416	5.26
302.787	5.27
303.157	5.22
303.527	5.21
303.897	5.06
304.267	5.21
304.637	5.28
305.008	5.26
305.378	5.39
305.748	5.26
306.117	5.25
306.487	5.23
306.857	5.21
307.227	5.32
307.597	5.2
307.967	5.13
308.336	5.23
308.706	5.33
309.076	5.38
309.445	5.33
309.815	5.31
310.184	5.24
310.554	5.22
310.923	5.24
311.293	5.29
311.662	5.31
312.031	5.16
312.401	5.23
312.77	5.24
313.139	5.18
313.508	5.26
313.877	5.23
314.246	5.26
314.616	5.25
314.985	5.11
315.353	5.03
315.722	5.08
316.091	4.94
316.46	4.83
316.829	4.77
317.198	4.86
317.567	4.91
317.935	4.82
318.304	4.79
318.672	4.76
319.041	4.77
319.41	4.71
319.778	4.79
320.147	4.76
320.515	4.66
320.883	4.64
321.252	4.71
321.62	4.76
321.988	4.62
322.357	4.78
322.725	4.75
323.093	4.73
323.461	4.74
323.829	4.84
324.197	4.82
324.565	4.9
324.933	4.84
325.301	4.77
325.669	4.86
326.037	4.8
326.405	4.88
326.772	4.77
327.14	4.86
327.508	4.91
327.875	4.93
328.243	5.07
328.61	5.07
328.978	5.11
329.346	5.24
329.713	5.24
330.08	5.05
330.448	5.22
330.815	5.21
331.182	5.26
331.55	5.29
331.917	5.34
332.284	5.39
332.651	5.45
333.018	5.43
333.385	5.37
333.752	5.46
334.119	5.35
334.486	5.45
334.853	5.39
335.22	5.31
335.587	5.22
335.954	5.08
336.32	5.05
336.687	5.01
337.054	5
337.42	5.18
337.787	5.21
338.153	5.21
338.52	5.27
338.886	5.19
339.253	5.12
339.619	5.07
339.986	4.84
340.352	4.9
340.718	4.87
341.084	4.89
341.451	4.9
341.817	5.01
342.183	4.95
342.549	5.08
342.915	5.14
343.281	5.2
343.647	5.21
344.013	5.22
344.379	5.15
344.745	5.05
345.11	4.96
345.476	4.97
345.842	4.91
346.208	4.93
346.573	5.04
346.939	5.1
347.304	5.1
347.67	5.16
348.035	5.1
348.401	5.17
348.766	5.22
349.132	5.29
349.497	5.23
349.862	5.26
350.228	5.23
350.593	5.21
350.958	5.14
351.323	5.17
351.688	5.22
352.053	5.33
352.418	5.32
352.783	5.31
353.148	5.26
353.513	5.23
353.878	5.17
354.243	5.13
354.608	5.1
354.972	5.16
355.337	5.26
355.702	5.32
356.066	5.34
356.431	5.27
356.795	5.2
357.16	5.24
357.524	5.15
357.889	5.02
358.253	5.04
358.618	5.08
358.982	5.04
359.346	5
359.71	4.91
360.075	4.97
360.439	5
360.803	5.03
361.167	5.01
361.531	5
361.895	4.93
362.259	4.91
362.623	4.91
362.987	4.84
363.351	4.82
363.714	4.83
364.078	4.87
364.442	4.82
364.806	4.76
365.169	4.84
365.533	4.91
365.896	4.91
366.26	4.88
366.623	4.86
366.987	4.85
367.35	4.91
367.714	4.9
368.077	4.9
368.44	4.91
368.803	4.92
369.167	4.93
369.53	4.92
369.893	4.93
370.256	4.93
370.619	4.94
370.982	4.9
371.345	4.86
371.708	4.87
372.071	4.93
372.434	4.98
372.797	4.96
373.159	4.95
373.522	4.9
373.885	4.91
374.247	5
374.61	5.03
374.973	4.92
375.335	4.86
375.698	4.85
376.06	4.81
376.423	4.82
376.785	4.79
377.147	4.83
377.51	4.81
377.872	4.83
378.234	4.87
378.596	4.9
378.958	4.85
379.321	4.81
379.683	4.8
380.045	4.75
380.407	4.71
380.769	4.69
381.13	4.73
381.492	4.69
381.854	4.64
382.216	4.6
382.578	4.65
382.939	4.66
383.301	4.64
383.663	4.63
384.024	4.64
384.386	4.67
384.747	4.71
385.109	4.74
385.47	4.7
385.832	4.67
386.193	4.63
386.554	4.7
386.916	4.67
387.277	4.69
387.638	4.69
387.999	4.72
388.36	4.73
388.721	4.72
389.082	4.7
389.443	4.67
389.804	4.67
390.165	4.65
390.526	4.64
390.887	4.65
391.248	4.68
391.609	4.66
391.969	4.68
392.33	4.66
392.691	4.65
393.051	4.61
393.412	4.64
393.772	4.67
394.133	4.63
394.493	4.63
394.854	4.63
395.214	4.63
395.574	4.64
395.935	4.63
396.295	4.67
396.655	4.72
397.015	4.73
397.376	4.73
397.736	4.76
398.096	4.78
398.456	4.79
398.816	4.78
399.176	4.8
399.535	4.75
399.895	4.75
400.255	4.75
400.615	4.8
400.975	4.77
401.334	4.75
401.694	4.75
402.054	4.72
402.413	4.73
402.773	4.75
403.132	4.71
403.492	4.69
403.851	4.65
404.211	4.63
404.57	4.65
404.929	4.67
405.288	4.65
405.648	4.63
406.007	4.6
406.366	4.6
406.725	4.63
407.084	4.64
407.443	4.64
407.802	4.63
408.161	4.59
408.52	4.58
408.879	4.59
409.238	4.61
409.596	4.62
409.955	4.63
410.314	4.63
410.673	4.64
411.031	4.64
411.39	4.67
411.748	4.7
412.107	4.7
412.465	4.7
412.824	4.71
413.182	4.69
413.54	4.69
413.899	4.69
414.257	4.69
414.615	4.67
414.974	4.67
415.332	4.68
415.69	4.69
416.048	4.68
416.406	4.68
416.764	4.67
417.122	4.67
417.48	4.66
417.838	4.63
418.195	4.63
418.553	4.63
418.911	4.62
419.269	4.61
419.626	4.62
419.984	4.6
420.342	4.61
420.699	4.62
421.057	4.64
421.414	4.64
421.772	4.63
422.129	4.65
422.486	4.65
422.844	4.63
423.201	4.63
423.558	4.64
423.915	4.63
424.273	4.63
424.63	4.63
424.987	4.63
425.344	4.64
425.701	4.64
426.058	4.65
426.415	4.64
426.772	4.63
427.128	4.6
427.485	4.61
427.842	4.59
428.199	4.57
428.555	4.57
428.912	4.57
429.269	4.58
429.625	4.55
429.982	4.54
430.338	4.54
430.695	4.54
431.051	4.54
431.407	4.52
431.764	4.53
432.12	4.52
432.476	4.5
432.832	4.5
433.189	4.48
433.545	4.46
433.901	4.48
434.257	4.47
434.613	4.49
434.969	4.5
435.325	4.52
435.681	4.55
436.036	4.53
436.392	4.52
436.748	4.5
437.104	4.5
437.459	4.48
437.815	4.49
438.171	4.48
438.526	4.48
438.882	4.49
439.237	4.48
439.593	4.48
439.948	4.48
440.304	4.48
440.659	4.48
441.014	4.5
441.369	4.48
441.725	4.48
442.08	4.49
442.435	4.47
442.79	4.47
443.145	4.46
443.5	4.46
443.855	4.45
444.21	4.45
444.565	4.46
444.92	4.46
445.275	4.44
445.629	4.45
445.984	4.45
446.339	4.46
446.693	4.45
447.048	4.47
447.403	4.45
447.757	4.45
448.112	4.44
448.466	4.44
448.82	4.44
449.175	4.44
449.529	4.42
449.883	4.41
450.238	4.39
450.592	4.39
450.946	4.38
451.3	4.37
451.654	4.37
452.008	4.37
452.362	4.36
452.716	4.36
453.07	4.35
453.424	4.35
453.778	4.34
454.132	4.33
454.486	4.31
454.839	4.33
455.193	4.32
455.547	4.35
455.9	4.37
456.254	4.38
456.607	4.39
456.961	4.4
457.314	4.42
457.668	4.41
458.021	4.39
458.375	4.41
458.728	4.43
459.081	4.43
459.434	4.43
459.787	4.43
460.141	4.44
460.494	4.43
460.847	4.44
461.2	4.43
461.553	4.44
461.906	4.44
462.259	4.46
462.611	4.48
462.964	4.48
463.317	4.46
463.67	4.46
464.022	4.45
464.375	4.43
464.728	4.43
465.08	4.44
465.433	4.44
465.785	4.45
466.138	4.43
466.49	4.44
466.843	4.44
467.195	4.45
467.547	4.46
467.899	4.45
468.252	4.42
468.604	4.44
468.956	4.42
469.308	4.41
469.66	4.42
470.012	4.42
470.364	4.4
470.716	4.39
471.068	4.4
471.42	4.42
471.772	4.44
472.123	4.46
472.475	4.47
472.827	4.48
473.178	4.48
473.53	4.49
473.882	4.5
474.233	4.51
474.585	4.49
474.936	4.5
475.288	4.51
475.639	4.55
475.99	4.54
476.342	4.56
476.693	4.58
477.044	4.55
477.395	4.56
477.746	4.57
478.097	4.57
478.448	4.57
478.8	4.57
479.15	4.57
479.501	4.57
479.852	4.56
480.203	4.58
480.554	4.58
480.905	4.59
481.255	4.59
481.606	4.6
481.957	4.62
482.307	4.63
482.658	4.63
483.009	4.62
483.359	4.63
483.709	4.62
484.06	4.62
484.41	4.62
484.761	4.61
485.111	4.61
485.461	4.61
485.811	4.61
486.162	4.61
486.512	4.6
486.862	4.6
487.212	4.61
487.562	4.61
487.912	4.61
488.262	4.6
488.612	4.6
488.961	4.6
489.311	4.59
489.661	4.59
490.011	4.59
490.36	4.6
490.71	4.59
491.06	4.6
491.409	4.6
491.759	4.61
492.108	4.61
492.458	4.61
492.807	4.62
493.157	4.63
493.506	4.63
493.855	4.63
494.204	4.62
494.554	4.61
494.903	4.61
495.252	4.61
495.601	4.62
495.95	4.62
496.299	4.62
496.648	4.63
496.997	4.63
497.346	4.64
497.695	4.65
498.043	4.64
498.392	4.65
498.741	4.66
499.09	4.65
499.438	4.66
499.787	4.67
500.135	4.69
500.484	4.68
500.832	4.7
501.181	4.7
501.529	4.72
501.878	4.74
502.226	4.76
502.574	4.79
502.923	4.79
503.271	4.8
503.619	4.81
503.967	4.8
504.315	4.81
504.663	4.8
505.011	4.81
505.359	4.83
505.707	4.84
506.055	4.85
506.403	4.86
506.751	4.88
507.098	4.87
507.446	4.86
507.794	4.89
508.141	4.91
508.489	4.93
508.837	4.95
509.184	4.97
509.531	4.98
509.879	4.98
510.226	5
510.574	5.02
510.921	5.04
511.268	5.06
511.616	5.06
511.963	5.07
512.31	5.08
512.657	5.09
513.004	5.09
513.351	5.11
513.698	5.15
514.045	5.13
514.392	5.16
514.739	5.17
515.086	5.18
515.432	5.17
515.779	5.17
516.126	5.16
516.473	5.15
516.819	5.15
517.166	5.14
517.512	5.14
517.859	5.14
518.205	5.13
518.552	5.15
518.898	5.15
519.245	5.15
519.591	5.14
519.937	5.13
520.283	5.15
520.629	5.16
520.976	5.15
521.322	5.16
521.668	5.16
522.014	5.19
522.36	5.2
522.706	5.19
523.052	5.21
523.398	5.25
523.743	5.26
524.089	5.27
524.435	5.3
524.781	5.29
525.126	5.3
525.472	5.31
525.817	5.3
526.163	5.31
526.509	5.33
526.854	5.34
527.199	5.35
527.545	5.35
527.89	5.33
528.235	5.33
528.581	5.34
528.926	5.34
529.271	5.34
529.616	5.32
529.961	5.33
530.306	5.33
530.651	5.32
530.996	5.31
531.341	5.3
531.686	5.28
532.031	5.29
532.376	5.29
532.721	5.29
533.065	5.3
533.41	5.3
533.755	5.29
534.099	5.28
534.444	5.28
534.788	5.3
535.133	5.31
535.477	5.32
535.822	5.31
536.166	5.31
536.51	5.33
536.855	5.35
537.199	5.37
537.543	5.38
537.887	5.4
538.231	5.41
538.576	5.45
538.92	5.49
539.264	5.5
539.608	5.5
539.951	5.51
540.295	5.52
540.639	5.55
540.983	5.55
541.327	5.56
541.671	5.57
542.014	5.57
542.358	5.58
542.701	5.58
543.045	5.6
543.389	5.63
543.732	5.63
544.075	5.63
544.419	5.63
544.762	5.65
545.105	5.65
545.449	5.66
545.792	5.66
546.135	5.65
546.478	5.65
546.821	5.66
547.165	5.64
547.508	5.64
547.851	5.63
548.194	5.65
548.536	5.65
548.879	5.67
549.222	5.68
549.565	5.68
549.908	5.69
550.25	5.68
550.593	5.66
550.936	5.66
551.278	5.66
551.621	5.67
551.963	5.66
552.306	5.67
552.648	5.68
552.991	5.7
553.333	5.71
553.675	5.71
554.017	5.71
554.36	5.76
554.702	5.76
555.044	5.79
555.386	5.79
555.728	5.81
556.07	5.81
556.412	5.79
556.754	5.8
557.096	5.81
557.438	5.8
557.78	5.84
558.121	5.85
558.463	5.85
558.805	5.85
559.147	5.83
559.488	5.82
559.83	5.8
560.171	5.8
560.513	5.8
560.854	5.81
561.196	5.84
561.537	5.82
561.878	5.8
562.22	5.8
562.561	5.78
562.902	5.79
563.243	5.77
563.584	5.8
563.925	5.83
564.266	5.83
564.607	5.83
564.948	5.81
565.289	5.82
565.63	5.84
565.971	5.84
566.312	5.85
566.653	5.88
566.993	5.9
567.334	5.89
567.675	5.9
568.015	5.91
568.356	5.89
568.696	5.92
569.037	5.95
569.377	5.96
569.718	6.01
570.058	6.01
570.398	6.02
570.739	6.02
571.079	6.01
571.419	6.03
571.759	6.04
572.099	6.07
572.439	6.03
572.779	6.02
573.119	6.04
573.459	6.07
573.799	6.08
574.139	6.1
574.479	6.1
574.819	6.11
575.158	6.1
575.498	6.12
575.838	6.11
576.177	6.11
576.517	6.11
576.856	6.1
577.196	6.1
577.535	6.12
577.875	6.12
578.214	6.15
578.553	6.13
578.893	6.17
579.232	6.15
579.571	6.19
579.91	6.23
580.25	6.23
580.589	6.23
580.928	6.24
581.267	6.23
581.606	6.26
581.945	6.27
582.283	6.26
582.622	6.27
582.961	6.27
583.3	6.25
583.639	6.27
583.977	6.29
584.316	6.28
584.654	6.3
584.993	6.29
585.332	6.25
585.67	6.31
586.008	6.26
586.347	6.28
586.685	6.3
587.024	6.28
587.362	6.26
587.7	6.25
588.038	6.27
588.376	6.27
588.715	6.25
589.053	6.26
589.391	6.27
589.729	6.3
590.067	6.29
590.404	6.31
590.742	6.31
591.08	6.28
591.418	6.31
591.756	6.29
592.093	6.33
592.431	6.32
592.769	6.32
593.106	6.36
593.444	6.34
593.781	6.32
594.119	6.36
594.456	6.34
594.793	6.33
595.131	6.26
595.468	6.24
595.805	6.29
596.143	6.26
596.48	6.28
596.817	6.3
597.154	6.29
597.491	6.28
597.828	6.27
598.165	6.26
598.502	6.23
598.839	6.27
599.176	6.23
599.512	6.23
599.849	6.22
600.186	6.25
600.523	6.29
600.859	6.34
601.196	6.31
601.532	6.34
601.869	6.33
602.205	6.36
602.542	6.4
602.878	6.39
603.215	6.41
603.551	6.4
603.887	6.38
604.223	6.4
604.56	6.41
604.896	6.42
605.232	6.44
605.568	6.45
605.904	6.44
606.24	6.51
606.576	6.52
606.912	6.5
607.248	6.46
607.583	6.45
607.919	6.42
608.255	6.41
608.591	6.45
608.926	6.5
609.262	6.49
609.597	6.49
609.933	6.5
610.268	6.46
610.604	6.5
610.939	6.48
611.275	6.46
611.61	6.44
611.945	6.46
612.281	6.45
612.616	6.49
612.951	6.48
613.286	6.42
613.621	6.46
613.956	6.45
614.291	6.44
614.626	6.45
614.961	6.45
615.296	6.48
615.631	6.46
615.966	6.41
616.3	6.43
616.635	6.4
616.97	6.38
617.304	6.42
617.639	6.41
617.973	6.39
618.308	6.4
618.642	6.42
618.977	6.39
619.311	6.42
619.646	6.41
619.98	6.4
620.314	6.42
620.648	6.45
620.983	6.5
621.317	6.53
621.651	6.5
621.985	6.57
622.319	6.59
622.653	6.59
622.987	6.65
623.321	6.71
623.655	6.74
623.988	6.78
624.322	6.84
624.656	6.86
624.99	6.88
625.323	6.96
625.657	6.98
625.99	6.97
626.324	6.93
626.657	6.92
626.991	6.97
627.324	6.97
627.658	6.98
627.991	6.95
628.324	6.99
628.657	7.03
628.991	6.97
629.324	6.98
629.657	6.96
629.99	6.94
630.323	6.9
630.656	6.88
630.989	6.86
631.322	6.81
631.655	6.77
631.987	6.77
632.32	6.71
632.653	6.74
632.986	6.76
633.318	6.77
633.651	6.78
633.984	6.8
634.316	6.76
634.649	6.77
634.981	6.8
635.313	6.73
635.646	6.76
635.978	6.74
636.31	6.71
636.643	6.71
636.975	6.78
637.307	6.82
637.639	6.82
637.971	6.78
638.303	6.79
638.635	6.8
638.967	6.85
639.299	6.89
639.631	6.9
639.963	6.89
640.295	6.95
640.626	6.94
640.958	6.9
641.29	6.94
641.621	6.91
641.953	6.87
642.285	6.96
642.616	6.99
642.948	6.98
643.279	7
643.61	7.01
643.942	6.96
644.273	6.94
644.604	6.95
644.936	7
645.267	6.99
645.598	7.01
645.929	6.98
646.26	7
646.591	6.98
646.922	7.01
647.253	7.02
647.584	7.01
647.915	7.02
648.245	7.02
648.576	7.07
648.907	7.09
649.238	7.05
649.568	6.99
649.899	7.04
650.229	7.08
650.56	7.09
650.89	7.07
651.221	7.08
651.551	7.04
651.882	7.08
652.212	7.1
652.542	7.06
652.872	7.03
653.203	6.96
653.533	6.92
653.863	6.92
654.193	6.97
654.523	6.96
654.853	6.97
655.183	6.99
655.513	6.92
655.843	6.92
656.172	6.91
656.502	6.89
656.832	6.91
657.162	6.9
657.491	6.94
657.821	6.98
658.15	6.97
658.48	6.99
658.809	6.95
659.139	6.95
659.468	6.96
659.798	6.96
660.127	7.02
660.456	7.08
660.785	7.07
661.115	7.03
661.444	7.1
661.773	7.13
662.102	7.12
662.431	7.22
662.76	7.22
663.089	7.27
663.418	7.35
663.747	7.3
664.076	7.38
664.404	7.38
664.733	7.37
665.062	7.36
665.39	7.47
665.719	7.44
666.048	7.43
666.376	7.42
666.705	7.5
667.033	7.48
667.362	7.46
667.69	7.49
668.018	7.5
668.347	7.48
668.675	7.44
669.003	7.46
669.331	7.45
669.659	7.48
669.987	7.41
670.315	7.4
670.643	7.43
670.971	7.38
671.299	7.34
671.627	7.42
671.955	7.41
672.283	7.37
672.61	7.42
672.938	7.5
673.266	7.58
673.593	7.71
673.921	7.72
674.249	7.77
674.576	7.74
674.904	7.71
675.231	7.64
675.558	7.61
675.886	7.63
676.213	7.52
676.54	7.53
676.867	7.63
677.195	7.57
677.522	7.59
677.849	7.53
678.176	7.51
678.503	7.46
