Data from BA28470_Reflection_00006.txt Node
Date: Mon Nov 18 15:10:01 EST 2019
User: vgr7
Spectrometer: USB2G7710
Scans to average: 3
Trigger mode: 4
Integration Time (sec): 2.000000E-2
Electric dark correction enabled: true
Boxcar width: 10
XAxis mode: Wavelengths
Number of Pixels in Spectrum: 2048
>>>>>Begin Spectral Data<<<<<
177.721	-143.1
178.105	-372.44
178.488	1187.34
178.871	-517.65
179.254	-243.17
179.636	-72.57
180.019	26.5
180.402	66.67
180.785	-2413.51
181.168	-247.68
181.55	-496.09
181.933	325.48
182.316	301.84
182.698	392.95
183.081	212.62
183.463	292.92
183.846	262.66
184.228	192.47
184.611	180.09
184.993	271.81
185.376	476.8
185.758	752.53
186.14	896.81
186.522	619.66
186.904	685.12
187.287	933.08
187.669	600.57
188.051	312.49
188.433	439.67
188.815	669.04
189.197	355.99
189.579	417.2
189.961	579.79
190.342	6043.4
190.724	-1023.55
191.106	3691.55
191.488	2093.01
191.869	-576.15
192.251	-170.57
192.633	-130.97
193.014	-205.57
193.396	-689.47
193.777	-390.11
194.159	-500
194.54	-385.34
194.922	-310.48
195.303	-270.34
195.684	-194.68
196.065	-110.88
196.447	-154.83
196.828	-232.72
197.209	-197.64
197.59	-182.19
197.971	-149.51
198.352	-141.01
198.733	-163.51
199.114	-141.45
199.495	-133.66
199.876	-146.2
200.257	-159.74
200.638	-136.16
201.018	-116.66
201.399	-106.92
201.78	-106.33
202.16	-104.92
202.541	-161.47
202.922	-168.19
203.302	-212.52
203.683	-325.1
204.063	-808.97
204.444	-481.43
204.824	-390.07
205.204	-494.85
205.585	-595.36
205.965	-1884.62
206.345	-1645.31
206.725	2249.09
207.106	-4669.78
207.486	970.97
207.866	3739.59
208.246	6126.55
208.626	1773.52
209.006	-3825.71
209.386	-2198.46
209.766	-1066.43
210.145	-878.7
210.525	-647.34
210.905	-703.18
211.285	-631.61
211.664	-311.22
212.044	-234.7
212.424	-179.49
212.803	-203.2
213.183	-180.49
213.562	-118.04
213.942	-87.08
214.321	-77.13
214.701	-86.32
215.08	-89.63
215.459	-48.74
215.838	-25.34
216.218	-28.19
216.597	-26.43
216.976	-34.21
217.355	-30.49
217.734	-23.93
218.113	-26.84
218.492	-27.21
218.871	-34.08
219.25	-27.3
219.629	-28.95
220.008	-38.92
220.387	-43.67
220.766	-46.46
221.144	-60.08
221.523	-72.36
221.902	-70.99
222.28	-92.42
222.659	-70.06
223.037	-64.8
223.416	-75.15
223.794	-75.15
224.173	-78.54
224.551	-71.34
224.929	-69.83
225.308	-53.25
225.686	-54.75
226.064	-46.67
226.442	-43.3
226.821	-32.42
227.199	-28.66
227.577	-26.33
227.955	-23.92
228.333	-25.08
228.711	-20.41
229.089	-17.13
229.467	-19.8
229.845	-21.22
230.222	-17.39
230.6	-19.04
230.978	-18.43
231.356	-14.69
231.733	-14.41
232.111	-13.29
232.488	-10.73
232.866	-8.96
233.243	-9.14
233.621	-9.26
233.998	-7.11
234.376	-8.34
234.753	-9.06
235.13	-6.79
235.508	-5.26
235.885	-4.92
236.262	-4.69
236.639	-5.5
237.016	-3.51
237.393	0.1
237.77	1.1
238.147	2
238.524	3.24
238.901	4.01
239.278	3.83
239.655	3.74
240.032	4
240.409	3.72
240.785	3.9
241.162	4.1
241.539	4.09
241.915	4.15
242.292	3.95
242.668	4.09
243.045	3.96
243.421	3.98
243.798	4.16
244.174	4.35
244.551	4.38
244.927	4.11
245.303	3.85
245.679	3.84
246.056	3.49
246.432	3.39
246.808	3.26
247.184	3.06
247.56	3.23
247.936	3.26
248.312	3.38
248.688	3.39
249.064	3.24
249.44	3.27
249.815	3.06
250.191	3.27
250.567	3.35
250.943	3.19
251.318	3.15
251.694	3.07
252.069	2.97
252.445	2.91
252.82	2.52
253.196	2.29
253.571	2.18
253.947	2.51
254.322	2.51
254.697	2.44
255.073	2.45
255.448	2.23
255.823	2.19
256.198	2.29
256.573	2.38
256.948	2.67
257.323	2.78
257.698	2.93
258.073	2.97
258.448	2.87
258.823	3.16
259.198	3.18
259.573	3.26
259.948	3.18
260.322	3.39
260.697	3.53
261.072	3.56
261.446	3.58
261.821	3.52
262.195	3.57
262.57	3.56
262.944	3.54
263.319	3.68
263.693	3.74
264.067	3.64
264.442	3.65
264.816	3.48
265.19	3.53
265.564	3.51
265.938	3.4
266.313	3.31
266.687	3.11
267.061	3
267.435	2.88
267.809	3.01
268.183	2.67
268.556	2.79
268.93	3.05
269.304	3.04
269.678	3.09
270.051	3.08
270.425	3.23
270.799	3.39
271.172	3.26
271.546	3.14
271.919	3
272.293	2.9
272.666	3.01
273.04	2.89
273.413	2.87
273.787	2.93
274.16	2.98
274.533	3.04
274.906	3.11
275.279	3.02
275.653	3.03
276.026	3.11
276.399	3.04
276.772	2.92
277.145	2.88
277.518	2.7
277.891	2.8
278.263	2.77
278.636	2.66
279.009	2.6
279.382	2.63
279.755	2.8
280.127	3.04
280.5	3.15
280.872	3.4
281.245	3.42
281.617	3.59
281.99	3.66
282.362	3.62
282.735	3.61
283.107	3.59
283.479	3.61
283.852	3.78
284.224	3.74
284.596	3.76
284.968	3.91
285.34	4.05
285.713	3.92
286.085	3.92
286.457	3.96
286.829	4.1
287.201	4.2
287.572	4.23
287.944	4.09
288.316	4.14
288.688	4.01
289.06	4.07
289.431	3.92
289.803	3.95
290.175	3.98
290.546	3.94
290.918	3.98
291.289	3.91
291.661	3.87
292.032	3.91
292.403	3.86
292.775	3.78
293.146	3.75
293.517	3.89
293.889	3.91
294.26	3.95
294.631	3.92
295.002	3.91
295.373	3.88
295.744	3.97
296.115	3.85
296.486	3.7
296.857	3.66
297.228	3.71
297.599	3.71
297.97	3.77
298.34	3.88
298.711	3.85
299.082	3.95
299.452	3.94
299.823	4.11
300.194	4.15
300.564	4.13
300.935	4.11
301.305	4.02
301.676	4.01
302.046	4.03
302.416	3.93
302.787	3.91
303.157	3.85
303.527	3.65
303.897	3.59
304.267	3.84
304.637	3.92
305.008	3.96
305.378	4
305.748	4.02
306.117	3.92
306.487	4.04
306.857	3.95
307.227	3.81
307.597	3.66
307.967	3.71
308.336	3.75
308.706	3.82
309.076	3.81
309.445	3.94
309.815	3.83
310.184	3.8
310.554	3.71
310.923	3.74
311.293	3.8
311.662	3.88
312.031	3.85
312.401	3.8
312.77	3.78
313.139	3.8
313.508	3.81
313.877	3.75
314.246	3.8
314.616	3.83
314.985	3.89
315.353	3.86
315.722	3.96
316.091	3.96
316.46	3.91
316.829	4.04
317.198	3.99
317.567	4.09
317.935	4.19
318.304	4.27
318.672	4.17
319.041	4.18
319.41	4.16
319.778	4.1
320.147	4.02
320.515	3.91
320.883	3.75
321.252	3.65
321.62	3.74
321.988	3.65
322.357	3.68
322.725	3.78
323.093	3.86
323.461	3.8
323.829	3.86
324.197	3.97
324.565	3.89
324.933	3.72
325.301	3.71
325.669	3.76
326.037	3.73
326.405	3.84
326.772	3.97
327.14	4.11
327.508	4.12
327.875	4.16
328.243	4.3
328.61	4.43
328.978	4.38
329.346	4.42
329.713	4.28
330.08	4.34
330.448	4.27
330.815	4.17
331.182	4.14
331.55	4.05
331.917	4.05
332.284	4.06
332.651	4.19
333.018	4.25
333.385	4.32
333.752	4.43
334.119	4.42
334.486	4.33
334.853	4.27
335.22	4.28
335.587	4.32
335.954	4.24
336.32	4.17
336.687	4.29
337.054	4.33
337.42	4.5
337.787	4.48
338.153	4.5
338.52	4.56
338.886	4.48
339.253	4.52
339.619	4.37
339.986	4.4
340.352	4.33
340.718	4.31
341.084	4.33
341.451	4.26
341.817	4.23
342.183	4.21
342.549	4.11
342.915	4.1
343.281	4.02
343.647	4.09
344.013	4.1
344.379	3.99
344.745	4.04
345.11	4.01
345.476	4.07
345.842	4.08
346.208	4.07
346.573	4.2
346.939	4.25
347.304	4.3
347.67	4.26
348.035	4.26
348.401	4.35
348.766	4.19
349.132	4.23
349.497	4.28
349.862	4.35
350.228	4.34
350.593	4.28
350.958	4.29
351.323	4.23
351.688	4.22
352.053	4.31
352.418	4.26
352.783	4.26
353.148	4.12
353.513	4.08
353.878	4.05
354.243	4
354.608	3.98
354.972	3.99
355.337	4.05
355.702	4.17
356.066	4.17
356.431	4.22
356.795	4.31
357.16	4.27
357.524	4.25
357.889	4.23
358.253	4.29
358.618	4.34
358.982	4.32
359.346	4.29
359.71	4.29
360.075	4.25
360.439	4.24
360.803	4.29
361.167	4.33
361.531	4.33
361.895	4.32
362.259	4.33
362.623	4.4
362.987	4.35
363.351	4.32
363.714	4.24
364.078	4.25
364.442	4.16
364.806	4.25
365.169	4.19
365.533	4.25
365.896	4.3
366.26	4.29
366.623	4.34
366.987	4.36
367.35	4.31
367.714	4.35
368.077	4.4
368.44	4.36
368.803	4.31
369.167	4.3
369.53	4.26
369.893	4.23
370.256	4.19
370.619	4.23
370.982	4.18
371.345	4.19
371.708	4.23
372.071	4.25
372.434	4.16
372.797	4.2
373.159	4.16
373.522	4.1
373.885	4.08
374.247	4.13
374.61	4.15
374.973	4.15
375.335	4.13
375.698	4.16
376.06	4.22
376.423	4.26
376.785	4.33
377.147	4.35
377.51	4.4
377.872	4.4
378.234	4.37
378.596	4.41
378.958	4.38
379.321	4.34
379.683	4.39
380.045	4.42
380.407	4.4
380.769	4.42
381.13	4.43
381.492	4.41
381.854	4.4
382.216	4.42
382.578	4.48
382.939	4.48
383.301	4.43
383.663	4.43
384.024	4.45
384.386	4.44
384.747	4.47
385.109	4.48
385.47	4.47
385.832	4.52
386.193	4.54
386.554	4.57
386.916	4.59
387.277	4.56
387.638	4.57
387.999	4.57
388.36	4.57
388.721	4.6
389.082	4.63
389.443	4.58
389.804	4.58
390.165	4.55
390.526	4.54
390.887	4.56
391.248	4.58
391.609	4.56
391.969	4.56
392.33	4.56
392.691	4.51
393.051	4.51
393.412	4.51
393.772	4.5
394.133	4.51
394.493	4.51
394.854	4.52
395.214	4.49
395.574	4.49
395.935	4.48
396.295	4.51
396.655	4.46
397.015	4.49
397.376	4.46
397.736	4.45
398.096	4.47
398.456	4.48
398.816	4.44
399.176	4.43
399.535	4.43
399.895	4.43
400.255	4.44
400.615	4.46
400.975	4.46
401.334	4.45
401.694	4.46
402.054	4.47
402.413	4.47
402.773	4.5
403.132	4.48
403.492	4.53
403.851	4.5
404.211	4.52
404.57	4.51
404.929	4.53
405.288	4.53
405.648	4.52
406.007	4.52
406.366	4.53
406.725	4.54
407.084	4.55
407.443	4.54
407.802	4.54
408.161	4.51
408.52	4.51
408.879	4.52
409.238	4.48
409.596	4.49
409.955	4.47
410.314	4.46
410.673	4.51
411.031	4.47
411.39	4.45
411.748	4.48
412.107	4.51
412.465	4.52
412.824	4.53
413.182	4.53
413.54	4.53
413.899	4.55
414.257	4.59
414.615	4.56
414.974	4.57
415.332	4.56
415.69	4.58
416.048	4.56
416.406	4.56
416.764	4.57
417.122	4.57
417.48	4.58
417.838	4.6
418.195	4.57
418.553	4.59
418.911	4.59
419.269	4.59
419.626	4.59
419.984	4.59
420.342	4.59
420.699	4.6
421.057	4.6
421.414	4.6
421.772	4.58
422.129	4.59
422.486	4.59
422.844	4.59
423.201	4.59
423.558	4.6
423.915	4.58
424.273	4.58
424.63	4.57
424.987	4.55
425.344	4.54
425.701	4.55
426.058	4.55
426.415	4.55
426.772	4.55
427.128	4.54
427.485	4.54
427.842	4.56
428.199	4.57
428.555	4.57
428.912	4.56
429.269	4.57
429.625	4.55
429.982	4.54
430.338	4.54
430.695	4.55
431.051	4.56
431.407	4.56
431.764	4.58
432.12	4.6
432.476	4.61
432.832	4.62
433.189	4.62
433.545	4.63
433.901	4.63
434.257	4.62
434.613	4.63
434.969	4.64
435.325	4.63
435.681	4.62
436.036	4.61
436.392	4.61
436.748	4.61
437.104	4.65
437.459	4.66
437.815	4.67
438.171	4.68
438.526	4.69
438.882	4.69
439.237	4.69
439.593	4.69
439.948	4.69
440.304	4.69
440.659	4.69
441.014	4.68
441.369	4.67
441.725	4.66
442.08	4.66
442.435	4.65
442.79	4.65
443.145	4.65
443.5	4.64
443.855	4.63
444.21	4.63
444.565	4.63
444.92	4.64
445.275	4.62
445.629	4.62
445.984	4.6
446.339	4.59
446.693	4.57
447.048	4.58
447.403	4.56
447.757	4.56
448.112	4.56
448.466	4.56
448.82	4.58
449.175	4.59
449.529	4.6
449.883	4.59
450.238	4.58
450.592	4.57
450.946	4.58
451.3	4.58
451.654	4.57
452.008	4.55
452.362	4.53
452.716	4.54
453.07	4.52
453.424	4.54
453.778	4.53
454.132	4.54
454.486	4.54
454.839	4.55
455.193	4.55
455.547	4.55
455.9	4.57
456.254	4.56
456.607	4.57
456.961	4.56
457.314	4.57
457.668	4.57
458.021	4.58
458.375	4.59
458.728	4.59
459.081	4.6
459.434	4.57
459.787	4.57
460.141	4.57
460.494	4.58
460.847	4.55
461.2	4.56
461.553	4.56
461.906	4.57
462.259	4.57
462.611	4.55
462.964	4.56
463.317	4.55
463.67	4.55
464.022	4.52
464.375	4.49
464.728	4.49
465.08	4.5
465.433	4.5
465.785	4.49
466.138	4.49
466.49	4.5
466.843	4.52
467.195	4.53
467.547	4.55
467.899	4.56
468.252	4.57
468.604	4.6
468.956	4.58
469.308	4.58
469.66	4.56
470.012	4.59
470.364	4.59
470.716	4.59
471.068	4.59
471.42	4.6
471.772	4.62
472.123	4.63
472.475	4.64
472.827	4.64
473.178	4.64
473.53	4.65
473.882	4.63
474.233	4.62
474.585	4.59
474.936	4.58
475.288	4.58
475.639	4.6
475.99	4.59
476.342	4.6
476.693	4.6
477.044	4.63
477.395	4.62
477.746	4.62
478.097	4.6
478.448	4.62
478.8	4.63
479.15	4.64
479.501	4.63
479.852	4.63
480.203	4.66
480.554	4.67
480.905	4.69
481.255	4.7
481.606	4.73
481.957	4.75
482.307	4.76
482.658	4.76
483.009	4.77
483.359	4.78
483.709	4.8
484.06	4.79
484.41	4.8
484.761	4.81
485.111	4.82
485.461	4.83
485.811	4.83
486.162	4.82
486.512	4.83
486.862	4.84
487.212	4.84
487.562	4.84
487.912	4.84
488.262	4.83
488.612	4.84
488.961	4.83
489.311	4.82
489.661	4.83
490.011	4.83
490.36	4.81
490.71	4.8
491.06	4.8
491.409	4.8
491.759	4.79
492.108	4.77
492.458	4.77
492.807	4.76
493.157	4.77
493.506	4.78
493.855	4.77
494.204	4.77
494.554	4.77
494.903	4.76
495.252	4.75
495.601	4.75
495.95	4.75
496.299	4.74
496.648	4.72
496.997	4.71
497.346	4.71
497.695	4.73
498.043	4.74
498.392	4.72
498.741	4.74
499.09	4.74
499.438	4.76
499.787	4.76
500.135	4.77
500.484	4.76
500.832	4.76
501.181	4.77
501.529	4.76
501.878	4.78
502.226	4.78
502.574	4.81
502.923	4.83
503.271	4.82
503.619	4.84
503.967	4.86
504.315	4.87
504.663	4.88
505.011	4.9
505.359	4.89
505.707	4.89
506.055	4.9
506.403	4.91
506.751	4.89
507.098	4.89
507.446	4.89
507.794	4.89
508.141	4.9
508.489	4.93
508.837	4.94
509.184	4.93
509.531	4.93
509.879	4.94
510.226	4.95
510.574	4.96
510.921	4.97
511.268	4.97
511.616	4.98
511.963	4.97
512.31	4.95
512.657	4.95
513.004	4.96
513.351	4.96
513.698	4.97
514.045	4.98
514.392	4.99
514.739	5.01
515.086	5.02
515.432	5.02
515.779	5.01
516.126	5.01
516.473	5.03
516.819	5.06
517.166	5.04
517.512	5.03
517.859	5.04
518.205	5.02
518.552	5.03
518.898	5.04
519.245	5.05
519.591	5.05
519.937	5.05
520.283	5.06
520.629	5.06
520.976	5.08
521.322	5.09
521.668	5.09
522.014	5.08
522.36	5.07
522.706	5.07
523.052	5.09
523.398	5.09
523.743	5.09
524.089	5.1
524.435	5.11
524.781	5.13
525.126	5.14
525.472	5.16
525.817	5.17
526.163	5.18
526.509	5.18
526.854	5.19
527.199	5.2
527.545	5.2
527.89	5.22
528.235	5.2
528.581	5.2
528.926	5.2
529.271	5.21
529.616	5.21
529.961	5.22
530.306	5.22
530.651	5.21
530.996	5.21
531.341	5.2
531.686	5.2
532.031	5.21
532.376	5.2
532.721	5.21
533.065	5.2
533.41	5.2
533.755	5.21
534.099	5.2
534.444	5.2
534.788	5.21
535.133	5.21
535.477	5.22
535.822	5.23
536.166	5.23
536.51	5.24
536.855	5.24
537.199	5.25
537.543	5.26
537.887	5.25
538.231	5.27
538.576	5.28
538.92	5.29
539.264	5.29
539.608	5.29
539.951	5.29
540.295	5.29
540.639	5.3
540.983	5.32
541.327	5.31
541.671	5.31
542.014	5.3
542.358	5.29
542.701	5.3
543.045	5.3
543.389	5.3
543.732	5.29
544.075	5.29
544.419	5.3
544.762	5.29
545.105	5.32
545.449	5.32
545.792	5.32
546.135	5.31
546.478	5.31
546.821	5.29
547.165	5.31
547.508	5.29
547.851	5.28
548.194	5.25
548.536	5.27
548.879	5.25
549.222	5.26
549.565	5.28
549.908	5.27
550.25	5.29
550.593	5.3
550.936	5.3
551.278	5.28
551.621	5.29
551.963	5.29
552.306	5.27
552.648	5.28
552.991	5.27
553.333	5.27
553.675	5.29
554.017	5.3
554.36	5.29
554.702	5.34
555.044	5.34
555.386	5.34
555.728	5.32
556.07	5.35
556.412	5.34
556.754	5.31
557.096	5.31
557.438	5.27
557.78	5.26
558.121	5.28
558.463	5.31
558.805	5.3
559.147	5.29
559.488	5.3
559.83	5.32
560.171	5.3
560.513	5.29
560.854	5.28
561.196	5.28
561.537	5.29
561.878	5.25
562.22	5.26
562.561	5.28
562.902	5.33
563.243	5.37
563.584	5.37
563.925	5.37
564.266	5.38
564.607	5.43
564.948	5.44
565.289	5.42
565.63	5.41
565.971	5.42
566.312	5.44
566.653	5.44
566.993	5.44
567.334	5.44
567.675	5.47
568.015	5.49
568.356	5.48
568.696	5.49
569.037	5.48
569.377	5.49
569.718	5.49
570.058	5.48
570.398	5.46
570.739	5.48
571.079	5.5
571.419	5.5
571.759	5.48
572.099	5.49
572.439	5.5
572.779	5.48
573.119	5.49
573.459	5.51
573.799	5.53
574.139	5.52
574.479	5.56
574.819	5.54
575.158	5.52
575.498	5.54
575.838	5.55
576.177	5.54
576.517	5.56
576.856	5.59
577.196	5.57
577.535	5.57
577.875	5.56
578.214	5.57
578.553	5.59
578.893	5.59
579.232	5.58
579.571	5.6
579.91	5.61
580.25	5.62
580.589	5.6
580.928	5.59
581.267	5.62
581.606	5.59
581.945	5.59
582.283	5.59
582.622	5.59
582.961	5.58
583.3	5.58
583.639	5.57
583.977	5.57
584.316	5.58
584.654	5.63
584.993	5.65
585.332	5.67
585.67	5.72
586.008	5.73
586.347	5.7
586.685	5.71
587.024	5.73
587.362	5.72
587.7	5.71
588.038	5.74
588.376	5.76
588.715	5.76
589.053	5.79
589.391	5.83
589.729	5.84
590.067	5.83
590.404	5.86
590.742	5.89
591.08	5.88
591.418	5.89
591.756	5.91
592.093	5.89
592.431	5.83
592.769	5.76
593.106	5.76
593.444	5.77
593.781	5.76
594.119	5.79
594.456	5.77
594.793	5.76
595.131	5.71
595.468	5.68
595.805	5.67
596.143	5.63
596.48	5.65
596.817	5.66
597.154	5.66
597.491	5.67
597.828	5.62
598.165	5.61
598.502	5.63
598.839	5.59
599.176	5.58
599.512	5.59
599.849	5.63
600.186	5.63
600.523	5.63
600.859	5.68
601.196	5.66
601.532	5.68
601.869	5.68
602.205	5.7
602.542	5.68
602.878	5.68
603.215	5.74
603.551	5.74
603.887	5.74
604.223	5.73
604.56	5.74
604.896	5.77
605.232	5.76
605.568	5.68
605.904	5.71
606.24	5.75
606.576	5.78
606.912	5.77
607.248	5.77
607.583	5.79
607.919	5.75
608.255	5.78
608.591	5.78
608.926	5.82
609.262	5.84
609.597	5.85
609.933	5.85
610.268	5.83
610.604	5.8
610.939	5.78
611.275	5.8
611.61	5.77
611.945	5.78
612.281	5.78
612.616	5.83
612.951	5.78
613.286	5.78
613.621	5.75
613.956	5.78
614.291	5.8
614.626	5.82
614.961	5.81
615.296	5.76
615.631	5.76
615.966	5.73
616.3	5.71
616.635	5.73
616.97	5.78
617.304	5.75
617.639	5.78
617.973	5.78
618.308	5.8
618.642	5.87
618.977	5.82
619.311	5.82
619.646	5.81
619.98	5.81
620.314	5.8
620.648	5.86
620.983	5.86
621.317	5.86
621.651	5.88
621.985	5.89
622.319	5.89
622.653	5.88
622.987	5.9
623.321	5.93
623.655	5.92
623.988	5.89
624.322	5.94
624.656	5.95
624.99	6.02
625.323	6
625.657	6
625.99	6.07
626.324	6.1
626.657	6.13
626.991	6.16
627.324	6.16
627.658	6.21
627.991	6.2
628.324	6.17
628.657	6.12
628.991	6.13
629.324	6.13
629.657	6.11
629.99	6.09
630.323	6.05
630.656	6.09
630.989	6.11
631.322	6.11
631.655	6.11
631.987	6.06
632.32	6.13
632.653	6.11
632.986	6.13
633.318	6.11
633.651	6.1
633.984	6.09
634.316	6.07
634.649	5.97
634.981	5.96
635.313	6.02
635.646	6.07
635.978	6.08
636.31	6.08
636.643	6.15
636.975	6.17
637.307	6.19
637.639	6.15
637.971	6.12
638.303	6.12
638.635	6.11
638.967	6.2
639.299	6.14
639.631	6.1
639.963	6
640.295	5.98
640.626	6.01
640.958	6.08
641.29	6.07
641.621	6.04
641.953	6
642.285	5.98
642.616	6.02
642.948	5.96
643.279	5.93
643.61	5.92
643.942	5.9
644.273	5.96
644.604	5.98
644.936	5.96
645.267	5.91
645.598	5.91
645.929	5.88
646.26	5.88
646.591	5.95
646.922	6.01
647.253	6
647.584	5.97
647.915	5.87
648.245	5.9
648.576	5.93
648.907	5.96
649.238	5.92
649.568	5.93
649.899	5.95
650.229	6.01
650.56	6.02
650.89	6.05
651.221	6.05
651.551	6.09
651.882	6.12
652.212	6.2
652.542	6.19
652.872	6.1
653.203	6.1
653.533	6.03
653.863	6.01
654.193	6.07
654.523	6.12
654.853	6.21
655.183	6.29
655.513	6.28
655.843	6.28
656.172	6.35
656.502	6.28
656.832	6.37
657.162	6.44
657.491	6.47
657.821	6.52
658.15	6.47
658.48	6.42
658.809	6.4
659.139	6.35
659.468	6.37
659.798	6.4
660.127	6.5
660.456	6.57
660.785	6.63
661.115	6.63
661.444	6.67
661.773	6.66
662.102	6.59
662.431	6.64
662.76	6.64
663.089	6.63
663.418	6.62
663.747	6.56
664.076	6.49
664.404	6.41
664.733	6.4
665.062	6.47
665.39	6.49
665.719	6.54
666.048	6.63
666.376	6.67
666.705	6.61
667.033	6.46
667.362	6.47
667.69	6.41
668.018	6.43
668.347	6.36
668.675	6.34
669.003	6.32
669.331	6.37
669.659	6.37
669.987	6.33
670.315	6.35
670.643	6.45
670.971	6.45
671.299	6.5
671.627	6.42
671.955	6.4
672.283	6.48
672.61	6.44
672.938	6.44
673.266	6.35
673.593	6.5
673.921	6.55
674.249	6.48
674.576	6.53
674.904	6.52
675.231	6.61
