Data from BA28299_Reflection_00012.txt Node
Date: Mon Nov 18 15:42:33 EST 2019
User: vgr7
Spectrometer: USB2G7710
Scans to average: 3
Trigger mode: 4
Integration Time (sec): 2.000000E-2
Electric dark correction enabled: true
Boxcar width: 10
XAxis mode: Wavelengths
Number of Pixels in Spectrum: 2048
>>>>>Begin Spectral Data<<<<<
177.721	-55.21
178.105	-3.45
178.488	-36.99
178.871	-13.64
179.254	100
179.636	50.5
180.019	-8.99
180.402	48.08
180.785	-716.33
181.168	693.75
181.55	-669.23
181.933	296.72
182.316	186.4
182.698	180.24
183.081	188.07
183.463	330.53
183.846	295.8
184.228	1909.52
184.611	23300
184.993	-563.1
185.376	-438.15
185.758	-841.18
186.14	-523.48
186.522	-550.21
186.904	-299.13
187.287	-676.37
187.669	-206.51
188.051	-223.49
188.433	-192.32
188.815	-193.91
189.197	-177.72
189.579	-163.32
189.961	-174.51
190.342	-116.56
190.724	-97.91
191.106	-121.81
191.488	-103.59
191.869	-59.29
192.251	-65.77
192.633	-51.9
193.014	-63.75
193.396	-64.84
193.777	-51.99
194.159	-38.6
194.54	-33.78
194.922	-17.39
195.303	-6.71
195.684	6.42
196.065	15.08
196.447	7.82
196.828	1.19
197.209	-0.58
197.59	5.58
197.971	15.48
198.352	12.07
198.733	12.11
199.114	20.25
199.495	23.41
199.876	16.89
200.257	14.74
200.638	20.16
201.018	16.3
201.399	18.19
201.78	20.84
202.16	8.66
202.541	6.82
202.922	-12.69
203.302	-18.87
203.683	-21.5
204.063	-25.22
204.444	-12.95
204.824	-9.43
205.204	10.68
205.585	-7.36
205.965	-18.92
206.345	-34.53
206.725	-47.37
207.106	-74.53
207.486	-115.8
207.866	-122.5
208.246	-69.56
208.626	-77.46
209.006	-71.19
209.386	-93.43
209.766	-71.83
210.145	-73.83
210.525	-41.28
210.905	-22.57
211.285	-24.73
211.664	-20.79
212.044	-31.15
212.424	-18.93
212.803	-29.47
213.183	-34.82
213.562	-20.89
213.942	-14.89
214.321	-0.33
214.701	-4.59
215.08	-1.05
215.459	5.27
215.838	8.03
216.218	-17.65
216.597	-11.57
216.976	-14.79
217.355	-3.09
217.734	-28.94
218.113	-27.87
218.492	-36.2
218.871	-55
219.25	-40.01
219.629	-49.83
220.008	-52.47
220.387	-52.96
220.766	-52.36
221.144	-62.84
221.523	-62.7
221.902	-66.12
222.28	-66.18
222.659	-50.83
223.037	-47.88
223.416	-44.29
223.794	-36.48
224.173	-26.02
224.551	-19.1
224.929	-10.03
225.308	-10.2
225.686	-2.92
226.064	-1.29
226.442	0.06
226.821	-1.37
227.199	-1.7
227.577	0.4
227.955	0.84
228.333	-3.74
228.711	-2.91
229.089	-2.62
229.467	-2.94
229.845	-2.5
230.222	-0.97
230.6	-2.08
230.978	-0.94
231.356	-0.51
231.733	-2.89
232.111	-3.73
232.488	-5.06
232.866	-5.49
233.243	-5.4
233.621	-8
233.998	-7.8
234.376	-9.76
234.753	-8.1
235.13	-7.4
235.508	-7.58
235.885	-6.49
236.262	-6.59
236.639	-5.96
237.016	-5.66
237.393	-5.01
237.77	-3.63
238.147	-3.04
238.524	-1.26
238.901	-0.85
239.278	-0.2
239.655	1.21
240.032	0.83
240.409	0.64
240.785	0.91
241.162	1.07
241.539	1.83
241.915	2
242.292	2.12
242.668	2.5
243.045	2.42
243.421	2.45
243.798	2.24
244.174	2.58
244.551	2.73
244.927	2.66
245.303	2.93
245.679	3
246.056	2.98
246.432	2.93
246.808	2.85
247.184	2.59
247.56	2.28
247.936	2.39
248.312	2.58
248.688	2.56
249.064	2.4
249.44	2.34
249.815	2.29
250.191	2.46
250.567	2.17
250.943	2.04
251.318	2.13
251.694	2.26
252.069	2.53
252.445	2.68
252.82	2.85
253.196	2.57
253.571	2.37
253.947	2.21
254.322	1.96
254.697	2.09
255.073	2.02
255.448	2.13
255.823	2.25
256.198	2.51
256.573	2.54
256.948	2.8
257.323	2.99
257.698	3.04
258.073	2.94
258.448	2.99
258.823	3.06
259.198	3.11
259.573	3.07
259.948	2.86
260.322	2.73
260.697	2.75
261.072	2.79
261.446	2.91
261.821	2.93
262.195	3.09
262.57	3.05
262.944	3.25
263.319	3.32
263.693	3.26
264.067	3.07
264.442	3.09
264.816	3.02
265.19	2.89
265.564	2.9
265.938	2.86
266.313	2.82
266.687	2.95
267.061	2.94
267.435	3.08
267.809	3.11
268.183	3.15
268.556	3.02
268.93	3
269.304	2.94
269.678	3.11
270.051	2.99
270.425	2.94
270.799	2.91
271.172	2.8
271.546	2.81
271.919	2.91
272.293	2.8
272.666	2.98
273.04	3.09
273.413	3.09
273.787	3.18
274.16	3.27
274.533	3.17
274.906	3.08
275.279	2.97
275.653	2.9
276.026	2.86
276.399	2.93
276.772	3.06
277.145	3.03
277.518	3.08
277.891	3.16
278.263	3.01
278.636	2.96
279.009	3.18
279.382	3.37
279.755	3.23
280.127	3.43
280.5	3.27
280.872	3.23
281.245	3.17
281.617	3.18
281.99	3.4
282.362	3.45
282.735	3.4
283.107	3.44
283.479	3.6
283.852	3.51
284.224	3.59
284.596	3.5
284.968	3.51
285.34	3.42
285.713	3.43
286.085	3.7
286.457	3.68
286.829	3.59
287.201	3.48
287.572	3.48
287.944	3.3
288.316	3.32
288.688	3.27
289.06	3.3
289.431	3.34
289.803	3.23
290.175	3.12
290.546	3.24
290.918	3.2
291.289	3.23
291.661	3.41
292.032	3.36
292.403	3.37
292.775	3.37
293.146	3.37
293.517	3.29
293.889	3.12
294.26	3.08
294.631	3.12
295.002	3.07
295.373	3.12
295.744	3.26
296.115	3.29
296.486	3.26
296.857	3.31
297.228	3.31
297.599	3.16
297.97	3.3
298.34	3.36
298.711	3.48
299.082	3.4
299.452	3.29
299.823	3.32
300.194	3.36
300.564	3.33
300.935	3.35
301.305	3.33
301.676	3.45
302.046	3.5
302.416	3.62
302.787	3.73
303.157	3.73
303.527	3.69
303.897	3.68
304.267	3.77
304.637	3.8
305.008	3.8
305.378	3.96
305.748	3.92
306.117	3.71
306.487	3.6
306.857	3.66
307.227	3.8
307.597	3.86
307.967	3.8
308.336	3.95
308.706	4.02
309.076	4.07
309.445	4.01
309.815	4.18
310.184	4.01
310.554	4.02
310.923	4.05
311.293	4.04
311.662	4.05
312.031	4.03
312.401	4.02
312.77	4.09
313.139	4.13
313.508	4.16
313.877	4.18
314.246	4.17
314.616	4.1
314.985	4.07
315.353	3.98
315.722	4.02
316.091	3.84
316.46	3.76
316.829	3.86
317.198	3.93
317.567	3.76
317.935	3.8
318.304	3.75
318.672	3.8
319.041	4.02
319.41	4.04
319.778	3.99
320.147	4.09
320.515	4.11
320.883	4.03
321.252	4.11
321.62	4.21
321.988	4.36
322.357	4.29
322.725	4.26
323.093	4.31
323.461	4.32
323.829	4.56
324.197	4.68
324.565	4.5
324.933	4.43
325.301	4.45
325.669	4.52
326.037	4.53
326.405	4.61
326.772	4.48
327.14	4.56
327.508	4.61
327.875	4.45
328.243	4.46
328.61	4.49
328.978	4.36
329.346	4.39
329.713	4.26
330.08	4.37
330.448	4.33
330.815	4.33
331.182	4.34
331.55	4.27
331.917	4.2
332.284	4.42
332.651	4.46
333.018	4.62
333.385	4.55
333.752	4.55
334.119	4.53
334.486	4.44
334.853	4.37
335.22	4.4
335.587	4.43
335.954	4.38
336.32	4.46
336.687	4.5
337.054	4.48
337.42	4.51
337.787	4.54
338.153	4.49
338.52	4.46
338.886	4.4
339.253	4.42
339.619	4.34
339.986	4.21
340.352	4.28
340.718	4.11
341.084	4.15
341.451	4.22
341.817	4.31
342.183	4.42
342.549	4.52
342.915	4.62
343.281	4.63
343.647	4.6
344.013	4.56
344.379	4.54
344.745	4.58
345.11	4.63
345.476	4.64
345.842	4.66
346.208	4.69
346.573	4.88
346.939	4.9
347.304	4.94
347.67	4.98
348.035	4.95
348.401	5.04
348.766	5.08
349.132	5.13
349.497	4.98
349.862	5.02
350.228	5.04
350.593	4.99
350.958	4.98
351.323	5.07
351.688	5.13
352.053	5.21
352.418	5.21
352.783	5.21
353.148	5.18
353.513	5.18
353.878	5.09
354.243	5.03
354.608	5.03
354.972	4.96
355.337	4.99
355.702	5.01
356.066	5
356.431	4.97
356.795	4.97
357.16	5
357.524	4.9
357.889	4.85
358.253	4.83
358.618	4.91
358.982	4.86
359.346	4.8
359.71	4.77
360.075	4.8
360.439	4.77
360.803	4.81
361.167	4.85
361.531	4.9
361.895	4.86
362.259	4.79
362.623	4.83
362.987	4.84
363.351	4.85
363.714	4.89
364.078	4.89
364.442	4.83
364.806	4.82
365.169	4.9
365.533	4.94
365.896	4.9
366.26	4.85
366.623	4.85
366.987	4.87
367.35	4.86
367.714	4.8
368.077	4.8
368.44	4.83
368.803	4.79
369.167	4.78
369.53	4.73
369.893	4.77
370.256	4.78
370.619	4.68
370.982	4.62
371.345	4.61
371.708	4.6
372.071	4.61
372.434	4.55
372.797	4.52
373.159	4.44
373.522	4.47
373.885	4.53
374.247	4.51
374.61	4.49
374.973	4.51
375.335	4.51
375.698	4.48
376.06	4.4
376.423	4.41
376.785	4.4
377.147	4.44
377.51	4.46
377.872	4.49
378.234	4.48
378.596	4.47
378.958	4.41
379.321	4.4
379.683	4.42
380.045	4.42
380.407	4.36
380.769	4.34
381.13	4.29
381.492	4.2
381.854	4.21
382.216	4.18
382.578	4.17
382.939	4.13
383.301	4.08
383.663	4.08
384.024	4.05
384.386	4.05
384.747	4.03
385.109	3.99
385.47	3.9
385.832	3.9
386.193	3.89
386.554	3.88
386.916	3.84
387.277	3.82
387.638	3.85
387.999	3.85
388.36	3.83
388.721	3.82
389.082	3.82
389.443	3.75
389.804	3.75
390.165	3.69
390.526	3.68
390.887	3.69
391.248	3.7
391.609	3.7
391.969	3.67
392.33	3.64
392.691	3.61
393.051	3.63
393.412	3.6
393.772	3.59
394.133	3.59
394.493	3.62
394.854	3.59
395.214	3.56
395.574	3.55
395.935	3.53
396.295	3.53
396.655	3.49
397.015	3.5
397.376	3.47
397.736	3.46
398.096	3.46
398.456	3.48
398.816	3.46
399.176	3.42
399.535	3.4
399.895	3.38
400.255	3.38
400.615	3.37
400.975	3.35
401.334	3.35
401.694	3.35
402.054	3.31
402.413	3.29
402.773	3.24
403.132	3.21
403.492	3.21
403.851	3.2
404.211	3.22
404.57	3.2
404.929	3.2
405.288	3.19
405.648	3.18
406.007	3.17
406.366	3.16
406.725	3.18
407.084	3.19
407.443	3.19
407.802	3.18
408.161	3.17
408.52	3.18
408.879	3.15
409.238	3.12
409.596	3.12
409.955	3.13
410.314	3.16
410.673	3.18
411.031	3.18
411.39	3.18
411.748	3.16
412.107	3.16
412.465	3.14
412.824	3.13
413.182	3.12
413.54	3.11
413.899	3.1
414.257	3.09
414.615	3.08
414.974	3.08
415.332	3.08
415.69	3.07
416.048	3.04
416.406	3.06
416.764	3.05
417.122	3.05
417.48	3.03
417.838	3.02
418.195	3.02
418.553	3.02
418.911	3.03
419.269	3.04
419.626	3.04
419.984	3.04
420.342	3.04
420.699	3.02
421.057	3.01
421.414	2.99
421.772	2.98
422.129	2.97
422.486	2.96
422.844	2.96
423.201	2.96
423.558	2.97
423.915	2.97
424.273	2.98
424.63	2.97
424.987	2.96
425.344	2.96
425.701	2.96
426.058	2.95
426.415	2.94
426.772	2.92
427.128	2.91
427.485	2.91
427.842	2.9
428.199	2.93
428.555	2.94
428.912	2.97
429.269	2.97
429.625	2.95
429.982	2.96
430.338	2.95
430.695	2.92
431.051	2.91
431.407	2.91
431.764	2.91
432.12	2.9
432.476	2.9
432.832	2.89
433.189	2.88
433.545	2.87
433.901	2.87
434.257	2.87
434.613	2.89
434.969	2.89
435.325	2.89
435.681	2.9
436.036	2.89
436.392	2.88
436.748	2.88
437.104	2.88
437.459	2.88
437.815	2.9
438.171	2.93
438.526	2.94
438.882	2.92
439.237	2.92
439.593	2.93
439.948	2.93
440.304	2.94
440.659	2.94
441.014	2.96
441.369	2.95
441.725	2.95
442.08	2.93
442.435	2.94
442.79	2.94
443.145	2.94
443.5	2.93
443.855	2.93
444.21	2.93
444.565	2.94
444.92	2.95
445.275	2.94
445.629	2.93
445.984	2.92
446.339	2.92
446.693	2.9
447.048	2.88
447.403	2.88
447.757	2.87
448.112	2.86
448.466	2.85
448.82	2.86
449.175	2.88
449.529	2.88
449.883	2.86
450.238	2.85
450.592	2.85
450.946	2.84
451.3	2.82
451.654	2.81
452.008	2.79
452.362	2.76
452.716	2.76
453.07	2.77
453.424	2.76
453.778	2.77
454.132	2.79
454.486	2.79
454.839	2.79
455.193	2.79
455.547	2.79
455.9	2.8
456.254	2.8
456.607	2.79
456.961	2.79
457.314	2.8
457.668	2.8
458.021	2.79
458.375	2.8
458.728	2.83
459.081	2.84
459.434	2.85
459.787	2.87
460.141	2.86
460.494	2.85
460.847	2.87
461.2	2.88
461.553	2.88
461.906	2.89
462.259	2.89
462.611	2.9
462.964	2.93
463.317	2.92
463.67	2.91
464.022	2.91
464.375	2.91
464.728	2.92
465.08	2.93
465.433	2.94
465.785	2.94
466.138	2.91
466.49	2.91
466.843	2.91
467.195	2.91
467.547	2.92
467.899	2.93
468.252	2.92
468.604	2.92
468.956	2.92
469.308	2.92
469.66	2.91
470.012	2.91
470.364	2.89
470.716	2.89
471.068	2.92
471.42	2.94
471.772	2.94
472.123	2.93
472.475	2.94
472.827	2.95
473.178	2.97
473.53	2.98
473.882	2.98
474.233	2.99
474.585	2.99
474.936	2.98
475.288	2.99
475.639	2.99
475.99	3
476.342	2.99
476.693	2.99
477.044	3
477.395	3.01
477.746	3
478.097	2.98
478.448	2.97
478.8	2.95
479.15	2.94
479.501	2.95
479.852	2.94
480.203	2.94
480.554	2.95
480.905	2.96
481.255	2.96
481.606	2.96
481.957	2.96
482.307	2.96
482.658	2.97
483.009	2.96
483.359	2.96
483.709	2.96
484.06	2.97
484.41	2.97
484.761	2.97
485.111	2.98
485.461	2.99
485.811	3
486.162	3
486.512	3
486.862	3.01
487.212	3.01
487.562	3.02
487.912	3.02
488.262	3.02
488.612	3.02
488.961	3.03
489.311	3.04
489.661	3.05
490.011	3.05
490.36	3.06
490.71	3.06
491.06	3.07
491.409	3.07
491.759	3.08
492.108	3.07
492.458	3.06
492.807	3.05
493.157	3.05
493.506	3.06
493.855	3.08
494.204	3.09
494.554	3.1
494.903	3.07
495.252	3.07
495.601	3.09
495.95	3.1
496.299	3.09
496.648	3.09
496.997	3.09
497.346	3.1
497.695	3.12
498.043	3.13
498.392	3.13
498.741	3.15
499.09	3.15
499.438	3.2
499.787	3.22
500.135	3.27
500.484	3.28
500.832	3.31
501.181	3.32
501.529	3.31
501.878	3.34
502.226	3.38
502.574	3.4
502.923	3.41
503.271	3.43
503.619	3.47
503.967	3.51
504.315	3.53
504.663	3.55
505.011	3.56
505.359	3.59
505.707	3.62
506.055	3.65
506.403	3.68
506.751	3.7
507.098	3.73
507.446	3.74
507.794	3.77
508.141	3.8
508.489	3.84
508.837	3.87
509.184	3.91
509.531	3.94
509.879	3.99
510.226	4.02
510.574	4.05
510.921	4.1
511.268	4.12
511.616	4.15
511.963	4.2
512.31	4.25
512.657	4.29
513.004	4.33
513.351	4.36
513.698	4.41
514.045	4.45
514.392	4.51
514.739	4.55
515.086	4.6
515.432	4.62
515.779	4.65
516.126	4.71
516.473	4.76
516.819	4.79
517.166	4.84
517.512	4.9
517.859	4.94
518.205	4.97
518.552	5.04
518.898	5.09
519.245	5.13
519.591	5.16
519.937	5.2
520.283	5.27
520.629	5.34
520.976	5.4
521.322	5.48
521.668	5.54
522.014	5.62
522.36	5.69
522.706	5.8
523.052	5.89
523.398	5.99
523.743	6.1
524.089	6.19
524.435	6.28
524.781	6.35
525.126	6.46
525.472	6.56
525.817	6.63
526.163	6.71
526.509	6.79
526.854	6.86
527.199	6.93
527.545	6.98
527.89	7.07
528.235	7.14
528.581	7.21
528.926	7.28
529.271	7.35
529.616	7.43
529.961	7.5
530.306	7.59
530.651	7.66
530.996	7.75
531.341	7.84
531.686	7.96
532.031	8.08
532.376	8.18
532.721	8.29
533.065	8.41
533.41	8.53
533.755	8.66
534.099	8.79
534.444	8.93
534.788	9.08
535.133	9.19
535.477	9.35
535.822	9.5
536.166	9.67
536.51	9.86
536.855	10.09
537.199	10.3
537.543	10.52
537.887	10.77
538.231	10.99
538.576	11.22
538.92	11.45
539.264	11.65
539.608	11.85
539.951	12.05
540.295	12.25
540.639	12.45
540.983	12.64
541.327	12.84
541.671	13.03
542.014	13.22
542.358	13.42
542.701	13.61
543.045	13.8
543.389	14.01
543.732	14.2
544.075	14.4
544.419	14.6
544.762	14.83
545.105	15.03
545.449	15.26
545.792	15.51
546.135	15.77
546.478	16.05
546.821	16.34
547.165	16.66
547.508	16.94
547.851	17.27
548.194	17.56
548.536	17.85
548.879	18.17
549.222	18.48
549.565	18.82
549.908	19.14
550.25	19.5
550.593	19.83
550.936	20.17
551.278	20.49
551.621	20.86
551.963	21.18
552.306	21.51
552.648	21.84
552.991	22.21
553.333	22.56
553.675	22.85
554.017	23.14
554.36	23.41
554.702	23.7
555.044	23.98
555.386	24.34
555.728	24.68
556.07	25
556.412	25.31
556.754	25.65
557.096	25.96
557.438	26.25
557.78	26.56
558.121	26.89
558.463	27.21
558.805	27.49
559.147	27.81
559.488	28.19
559.83	28.52
560.171	28.81
560.513	29.08
560.854	29.39
561.196	29.72
561.537	30.05
561.878	30.37
562.22	30.68
562.561	30.93
562.902	31.21
563.243	31.46
563.584	31.73
563.925	31.98
564.266	32.23
564.607	32.49
564.948	32.77
565.289	33.01
565.63	33.27
565.971	33.51
566.312	33.74
566.653	33.91
566.993	34.14
567.334	34.38
567.675	34.56
568.015	34.78
568.356	35.02
568.696	35.24
569.037	35.45
569.377	35.65
569.718	35.89
570.058	36.14
570.398	36.43
570.739	36.67
571.079	36.87
571.419	37.07
571.759	37.3
572.099	37.52
572.439	37.73
572.779	37.91
573.119	38.07
573.459	38.24
573.799	38.44
574.139	38.62
574.479	38.78
574.819	38.96
575.158	39.16
575.498	39.32
575.838	39.49
576.177	39.68
576.517	39.9
576.856	40.08
577.196	40.26
577.535	40.43
577.875	40.61
578.214	40.82
578.553	41.02
578.893	41.18
579.232	41.33
579.571	41.5
579.91	41.75
580.25	42.04
580.589	42.34
580.928	42.53
581.267	42.64
581.606	42.82
581.945	43.06
582.283	43.2
582.622	43.43
582.961	43.62
583.3	43.75
583.639	43.91
583.977	44.12
584.316	44.26
584.654	44.35
584.993	44.52
585.332	44.64
585.67	44.72
586.008	44.87
586.347	45.07
586.685	45.13
587.024	45.15
587.362	45.25
587.7	45.32
588.038	45.47
588.376	45.63
588.715	45.81
589.053	45.92
589.391	46.06
589.729	46.16
590.067	46.23
590.404	46.42
590.742	46.59
591.08	46.66
591.418	46.75
591.756	46.91
592.093	46.97
592.431	47.08
592.769	47.33
593.106	47.46
593.444	47.46
593.781	47.66
594.119	47.73
594.456	47.83
594.793	47.94
595.131	48.01
595.468	48.19
595.805	48.27
596.143	48.38
596.48	48.48
596.817	48.52
597.154	48.64
597.491	48.64
597.828	48.67
598.165	48.74
598.502	48.87
598.839	48.97
599.176	49.12
599.512	49.27
599.849	49.32
600.186	49.48
600.523	49.63
600.859	49.7
601.196	49.89
601.532	49.99
601.869	50.11
602.205	50.2
602.542	50.22
602.878	50.28
603.215	50.33
603.551	50.39
603.887	50.55
604.223	50.63
604.56	50.74
604.896	50.81
605.232	50.92
605.568	51
605.904	51.03
606.24	51.08
606.576	51.18
606.912	51.27
607.248	51.27
607.583	51.32
607.919	51.46
608.255	51.55
608.591	51.62
608.926	51.69
609.262	51.79
609.597	51.88
609.933	52.01
610.268	52.07
610.604	52.13
610.939	52.15
611.275	52.19
611.61	52.26
611.945	52.36
612.281	52.4
612.616	52.43
612.951	52.59
613.286	52.58
613.621	52.55
613.956	52.62
614.291	52.76
614.626	52.84
614.961	52.9
615.296	52.99
615.631	52.99
615.966	52.99
616.3	53.02
616.635	53.09
616.97	53.16
617.304	53.28
617.639	53.36
617.973	53.4
618.308	53.46
618.642	53.59
618.977	53.63
619.311	53.77
619.646	53.84
619.98	53.9
620.314	54.06
620.648	54.15
620.983	54.19
621.317	54.23
621.651	54.2
621.985	54.21
622.319	54.23
622.653	54.38
622.987	54.5
623.321	54.61
623.655	54.71
623.988	54.76
624.322	54.78
624.656	54.9
624.99	54.94
625.323	55.09
625.657	55.11
625.99	55.13
626.324	55.1
626.657	55.21
626.991	55.16
627.324	55.15
627.658	55.27
627.991	55.35
628.324	55.39
628.657	55.44
628.991	55.48
629.324	55.53
629.657	55.58
629.99	55.56
630.323	55.52
630.656	55.54
630.989	55.7
631.322	55.76
631.655	55.71
631.987	55.82
632.32	55.75
632.653	55.72
632.986	55.83
633.318	55.82
633.651	55.76
633.984	55.84
634.316	55.94
634.649	55.91
634.981	55.87
635.313	55.95
635.646	56.11
635.978	56.19
636.31	56.2
636.643	56.15
636.975	56.25
637.307	56.32
637.639	56.37
637.971	56.19
638.303	56.28
638.635	56.39
638.967	56.39
639.299	56.39
639.631	56.52
639.963	56.59
640.295	56.66
640.626	56.7
640.958	56.76
641.29	56.79
641.621	56.87
641.953	56.93
642.285	56.86
642.616	56.87
642.948	56.96
643.279	57.04
643.61	57.16
643.942	57.14
644.273	57.31
644.604	57.33
644.936	57.34
645.267	57.28
645.598	57.29
645.929	57.26
646.26	57.32
646.591	57.29
646.922	57.25
647.253	57.26
647.584	57.41
647.915	57.48
648.245	57.42
648.576	57.44
648.907	57.46
649.238	57.59
649.568	57.65
649.899	57.75
650.229	57.82
650.56	57.86
650.89	57.87
651.221	57.86
651.551	57.84
651.882	57.88
652.212	57.89
652.542	57.9
652.872	58.06
653.203	58.19
653.533	58.25
653.863	58.2
654.193	58.28
654.523	58.27
654.853	58.21
655.183	58.33
655.513	58.34
655.843	58.4
656.172	58.42
656.502	58.38
656.832	58.27
657.162	58.33
657.491	58.44
657.821	58.51
658.15	58.44
658.48	58.43
658.809	58.55
659.139	58.65
659.468	58.8
659.798	58.76
660.127	58.78
660.456	58.83
660.785	58.89
661.115	58.86
661.444	58.9
661.773	58.97
662.102	58.91
662.431	58.89
662.76	58.93
663.089	58.99
663.418	58.99
663.747	59.08
664.076	59.04
664.404	58.95
664.733	58.97
665.062	59.06
665.39	59.27
665.719	59.25
666.048	59.28
666.376	59.24
666.705	59.26
667.033	59.16
667.362	59.18
667.69	59.22
668.018	59.37
668.347	59.3
668.675	59.36
