Data from BA28305_Reflection_00004.txt Node
Date: Mon Nov 18 15:56:50 EST 2019
User: vgr7
Spectrometer: USB2G7710
Scans to average: 3
Trigger mode: 4
Integration Time (sec): 2.000000E-2
Electric dark correction enabled: true
Boxcar width: 10
XAxis mode: Wavelengths
Number of Pixels in Spectrum: 2048
>>>>>Begin Spectral Data<<<<<
177.721	-563.51
178.105	-1110.53
178.488	-1227.1
178.871	626.32
179.254	250.38
179.636	-266.07
180.019	215.61
180.402	178.26
180.785	118.56
181.168	109.43
181.55	54.02
181.933	88.17
182.316	80.44
182.698	69.67
183.081	55.09
183.463	71.45
183.846	60.36
184.228	69.66
184.611	116.93
184.993	124.01
185.376	176.07
185.758	288.44
186.14	291.03
186.522	441.74
186.904	783.42
187.287	392.8
187.669	978.98
188.051	559.77
188.433	727.22
188.815	1167.96
189.197	2492.16
189.579	-700
189.961	-947.62
190.342	-726.82
190.724	-292.06
191.106	-259.51
191.488	-392.84
191.869	-293.19
192.251	-222.78
192.633	-114.21
193.014	-134.66
193.396	-239.31
193.777	-285.12
194.159	-282.8
194.54	-328.18
194.922	-393.83
195.303	-421.74
195.684	-387.8
196.065	-397.99
196.447	-292.75
196.828	-187.47
197.209	-135.29
197.59	-208.12
197.971	-127.37
198.352	-86.18
198.733	-126.72
199.114	-96.55
199.495	-84.18
199.876	-83.47
200.257	-71.38
200.638	-93.2
201.018	-131.83
201.399	-73.05
201.78	-59.61
202.16	-45.81
202.541	-80.26
202.922	-194.99
203.302	-286.1
203.683	-144.8
204.063	-195.61
204.444	-249.57
204.824	-372.57
205.204	-924
205.585	-830.23
205.965	-504.88
206.345	-2680.49
206.725	847.83
207.106	253.85
207.486	139.94
207.866	171.83
208.246	132.21
208.626	264.65
209.006	734.48
209.386	296.83
209.766	590.07
210.145	-422.65
210.525	-269.91
210.905	-166.87
211.285	-125.15
211.664	-121.94
212.044	-106.06
212.424	-137.9
212.803	-181.2
213.183	-123.52
213.562	-101.98
213.942	-80.94
214.321	-66.8
214.701	-81.67
215.08	-74.39
215.459	-64.44
215.838	-78.55
216.218	-99.54
216.597	-63.13
216.976	-68.78
217.355	-89.55
217.734	-113.31
218.113	-118.98
218.492	-133.44
218.871	-146.08
219.25	-116.65
219.629	-169.39
220.008	-166.35
220.387	-125.43
220.766	-103.59
221.144	-195.13
221.523	-226.59
221.902	-517.21
222.28	-1310.85
222.659	-566.67
223.037	-484.19
223.416	-1123.14
223.794	-467.27
224.173	-290.75
224.551	-208.21
224.929	-111.74
225.308	-52.9
225.686	-35.42
226.064	-26.85
226.442	-29.35
226.821	-18.08
227.199	-24.09
227.577	-18.42
227.955	-12.02
228.333	-9.72
228.711	-7.77
229.089	-3.85
229.467	-3.48
229.845	-2.47
230.222	-3.59
230.6	-3.26
230.978	-2.29
231.356	-1.84
231.733	-1.7
232.111	-1.67
232.488	-2.41
232.866	-0.93
233.243	-1.4
233.621	-1.67
233.998	-1.27
234.376	-1.01
234.753	-0.89
235.13	0.1
235.508	0.24
235.885	-0.32
236.262	-0.37
236.639	-0.23
237.016	-1.12
237.393	0.16
237.77	1.23
238.147	1.76
238.524	1.54
238.901	1.62
239.278	1.97
239.655	2.15
240.032	1.96
240.409	1.81
240.785	1.67
241.162	1.33
241.539	1.85
241.915	1.67
242.292	1.74
242.668	1.56
243.045	1.69
243.421	1.77
243.798	1.87
244.174	2.2
244.551	2.08
244.927	2.34
245.303	2.57
245.679	2.62
246.056	2.68
246.432	2.7
246.808	2.76
247.184	2.39
247.56	2.29
247.936	2.25
248.312	2.39
248.688	2.37
249.064	2.3
249.44	2.28
249.815	2.59
250.191	2.65
250.567	2.7
250.943	2.5
251.318	2.38
251.694	2.46
252.069	2.32
252.445	2.58
252.82	2.5
253.196	2.31
253.571	2.19
253.947	2.44
254.322	2.63
254.697	2.54
255.073	2.5
255.448	2.55
255.823	2.54
256.198	2.5
256.573	2.36
256.948	2.72
257.323	2.5
257.698	2.25
258.073	2.22
258.448	2.17
258.823	2.39
259.198	2.43
259.573	2.32
259.948	2.11
260.322	2.12
260.697	2.09
261.072	2.02
261.446	2.12
261.821	1.96
262.195	2.14
262.57	2.16
262.944	2.34
263.319	2.34
263.693	2.48
264.067	2.59
264.442	2.71
264.816	2.48
265.19	2.53
265.564	2.52
265.938	2.46
266.313	2.6
266.687	2.65
267.061	2.9
267.435	2.96
267.809	3.12
268.183	3.21
268.556	2.94
268.93	2.93
269.304	2.7
269.678	2.67
270.051	2.38
270.425	2.4
270.799	2.45
271.172	2.39
271.546	2.29
271.919	1.99
272.293	1.97
272.666	2.04
273.04	2.16
273.413	2.15
273.787	2.25
274.16	2.29
274.533	2.35
274.906	2.17
275.279	2.14
275.653	2.07
276.026	1.96
276.399	2.09
276.772	2.02
277.145	2.14
277.518	2.26
277.891	2.48
278.263	2.47
278.636	2.36
279.009	2.46
279.382	2.53
279.755	2.57
280.127	2.68
280.5	2.85
280.872	2.94
281.245	2.8
281.617	2.78
281.99	2.87
282.362	2.8
282.735	2.72
283.107	2.76
283.479	2.88
283.852	2.74
284.224	2.85
284.596	2.9
284.968	2.93
285.34	2.79
285.713	2.62
286.085	2.63
286.457	2.71
286.829	2.74
287.201	2.76
287.572	2.82
287.944	2.69
288.316	2.51
288.688	2.46
289.06	2.57
289.431	2.62
289.803	2.43
290.175	2.38
290.546	2.52
290.918	2.47
291.289	2.38
291.661	2.5
292.032	2.47
292.403	2.57
292.775	2.68
293.146	2.74
293.517	2.72
293.889	2.65
294.26	2.65
294.631	2.68
295.002	2.58
295.373	2.64
295.744	2.68
296.115	2.74
296.486	2.6
296.857	2.67
297.228	2.64
297.599	2.6
297.97	2.71
298.34	2.65
298.711	2.59
299.082	2.73
299.452	2.68
299.823	2.82
300.194	2.78
300.564	2.63
300.935	2.62
301.305	2.64
301.676	2.66
302.046	2.67
302.416	2.61
302.787	2.49
303.157	2.4
303.527	2.33
303.897	2.32
304.267	2.49
304.637	2.36
305.008	2.49
305.378	2.58
305.748	2.55
306.117	2.64
306.487	2.75
306.857	2.68
307.227	2.79
307.597	2.64
307.967	2.65
308.336	2.67
308.706	2.72
309.076	2.84
309.445	2.86
309.815	2.7
310.184	2.62
310.554	2.74
310.923	2.73
311.293	2.7
311.662	2.66
312.031	2.57
312.401	2.58
312.77	2.38
313.139	2.4
313.508	2.41
313.877	2.34
314.246	2.37
314.616	2.27
314.985	2.16
315.353	2.03
315.722	1.97
316.091	1.88
316.46	1.72
316.829	1.62
317.198	1.67
317.567	1.77
317.935	1.81
318.304	1.89
318.672	1.9
319.041	2.14
319.41	2.17
319.778	2.16
320.147	2.2
320.515	2.26
320.883	2.23
321.252	2.17
321.62	2.24
321.988	2.21
322.357	2.15
322.725	2.12
323.093	2.22
323.461	2.27
323.829	2.34
324.197	2.44
324.565	2.36
324.933	2.3
325.301	2.25
325.669	2.2
326.037	2.1
326.405	2.18
326.772	2.15
327.14	2.2
327.508	2.26
327.875	2.26
328.243	2.5
328.61	2.44
328.978	2.38
329.346	2.49
329.713	2.4
330.08	2.47
330.448	2.55
330.815	2.47
331.182	2.52
331.55	2.54
331.917	2.59
332.284	2.69
332.651	2.73
333.018	2.81
333.385	2.93
333.752	3.07
334.119	2.99
334.486	2.83
334.853	2.79
335.22	2.74
335.587	2.8
335.954	2.66
336.32	2.68
336.687	2.79
337.054	2.62
337.42	2.65
337.787	2.7
338.153	2.64
338.52	2.77
338.886	2.69
339.253	2.66
339.619	2.66
339.986	2.59
340.352	2.61
340.718	2.58
341.084	2.61
341.451	2.62
341.817	2.68
342.183	2.75
342.549	2.81
342.915	2.86
343.281	2.7
343.647	2.68
344.013	2.69
344.379	2.58
344.745	2.66
345.11	2.79
345.476	2.81
345.842	2.81
346.208	2.81
346.573	2.78
346.939	2.89
347.304	2.9
347.67	2.93
348.035	2.89
348.401	2.92
348.766	2.76
349.132	2.74
349.497	2.64
349.862	2.72
350.228	2.71
350.593	2.66
350.958	2.75
351.323	2.71
351.688	2.68
352.053	2.77
352.418	2.74
352.783	2.63
353.148	2.48
353.513	2.5
353.878	2.47
354.243	2.53
354.608	2.41
354.972	2.37
355.337	2.37
355.702	2.46
356.066	2.49
356.431	2.54
356.795	2.52
357.16	2.59
357.524	2.5
357.889	2.47
358.253	2.57
358.618	2.62
358.982	2.66
359.346	2.66
359.71	2.69
360.075	2.7
360.439	2.68
360.803	2.76
361.167	2.72
361.531	2.72
361.895	2.75
362.259	2.74
362.623	2.79
362.987	2.8
363.351	2.74
363.714	2.74
364.078	2.77
364.442	2.78
364.806	2.74
365.169	2.78
365.533	2.79
365.896	2.79
366.26	2.73
366.623	2.7
366.987	2.73
367.35	2.73
367.714	2.7
368.077	2.78
368.44	2.77
368.803	2.83
369.167	2.78
369.53	2.76
369.893	2.86
370.256	2.85
370.619	2.88
370.982	2.84
371.345	2.79
371.708	2.82
372.071	2.78
372.434	2.82
372.797	2.85
373.159	2.81
373.522	2.72
373.885	2.77
374.247	2.79
374.61	2.82
374.973	2.77
375.335	2.77
375.698	2.75
376.06	2.72
376.423	2.71
376.785	2.77
377.147	2.76
377.51	2.71
377.872	2.71
378.234	2.7
378.596	2.71
378.958	2.71
379.321	2.69
379.683	2.72
380.045	2.68
380.407	2.59
380.769	2.66
381.13	2.69
381.492	2.67
381.854	2.67
382.216	2.66
382.578	2.68
382.939	2.63
383.301	2.62
383.663	2.65
384.024	2.64
384.386	2.65
384.747	2.74
385.109	2.73
385.47	2.7
385.832	2.69
386.193	2.73
386.554	2.75
386.916	2.75
387.277	2.74
387.638	2.73
387.999	2.77
388.36	2.71
388.721	2.68
389.082	2.66
389.443	2.62
389.804	2.58
390.165	2.58
390.526	2.64
390.887	2.63
391.248	2.66
391.609	2.65
391.969	2.65
392.33	2.58
392.691	2.61
393.051	2.64
393.412	2.66
393.772	2.65
394.133	2.63
394.493	2.65
394.854	2.67
395.214	2.69
395.574	2.68
395.935	2.7
396.295	2.76
396.655	2.78
397.015	2.8
397.376	2.82
397.736	2.81
398.096	2.8
398.456	2.81
398.816	2.81
399.176	2.8
399.535	2.79
399.895	2.78
400.255	2.77
400.615	2.74
400.975	2.72
401.334	2.73
401.694	2.74
402.054	2.73
402.413	2.66
402.773	2.67
403.132	2.65
403.492	2.66
403.851	2.63
404.211	2.64
404.57	2.63
404.929	2.66
405.288	2.68
405.648	2.66
406.007	2.66
406.366	2.67
406.725	2.7
407.084	2.73
407.443	2.73
407.802	2.74
408.161	2.73
408.52	2.7
408.879	2.7
409.238	2.73
409.596	2.72
409.955	2.78
410.314	2.78
410.673	2.78
411.031	2.81
411.39	2.83
411.748	2.81
412.107	2.82
412.465	2.81
412.824	2.81
413.182	2.8
413.54	2.84
413.899	2.82
414.257	2.83
414.615	2.76
414.974	2.77
415.332	2.76
415.69	2.76
416.048	2.78
416.406	2.78
416.764	2.77
417.122	2.79
417.48	2.78
417.838	2.79
418.195	2.8
418.553	2.78
418.911	2.77
419.269	2.77
419.626	2.78
419.984	2.78
420.342	2.77
420.699	2.78
421.057	2.77
421.414	2.75
421.772	2.74
422.129	2.75
422.486	2.75
422.844	2.75
423.201	2.75
423.558	2.77
423.915	2.76
424.273	2.76
424.63	2.75
424.987	2.75
425.344	2.76
425.701	2.76
426.058	2.76
426.415	2.76
426.772	2.77
427.128	2.75
427.485	2.75
427.842	2.75
428.199	2.74
428.555	2.73
428.912	2.74
429.269	2.75
429.625	2.76
429.982	2.75
430.338	2.74
430.695	2.75
431.051	2.7
431.407	2.7
431.764	2.7
432.12	2.67
432.476	2.67
432.832	2.64
433.189	2.64
433.545	2.63
433.901	2.61
434.257	2.62
434.613	2.64
434.969	2.63
435.325	2.66
435.681	2.68
436.036	2.67
436.392	2.67
436.748	2.67
437.104	2.69
437.459	2.69
437.815	2.73
438.171	2.72
438.526	2.75
438.882	2.75
439.237	2.77
439.593	2.77
439.948	2.76
440.304	2.78
440.659	2.79
441.014	2.8
441.369	2.79
441.725	2.79
442.08	2.79
442.435	2.8
442.79	2.78
443.145	2.79
443.5	2.78
443.855	2.8
444.21	2.79
444.565	2.78
444.92	2.79
445.275	2.77
445.629	2.78
445.984	2.76
446.339	2.77
446.693	2.75
447.048	2.75
447.403	2.75
447.757	2.76
448.112	2.75
448.466	2.73
448.82	2.75
449.175	2.74
449.529	2.74
449.883	2.72
450.238	2.71
450.592	2.71
450.946	2.73
451.3	2.7
451.654	2.7
452.008	2.71
452.362	2.69
452.716	2.68
453.07	2.68
453.424	2.69
453.778	2.7
454.132	2.71
454.486	2.69
454.839	2.72
455.193	2.69
455.547	2.68
455.9	2.7
456.254	2.69
456.607	2.68
456.961	2.69
457.314	2.71
457.668	2.71
458.021	2.71
458.375	2.7
458.728	2.72
459.081	2.72
459.434	2.72
459.787	2.72
460.141	2.73
460.494	2.74
460.847	2.74
461.2	2.72
461.553	2.72
461.906	2.74
462.259	2.74
462.611	2.74
462.964	2.75
463.317	2.76
463.67	2.77
464.022	2.78
464.375	2.76
464.728	2.75
465.08	2.75
465.433	2.77
465.785	2.76
466.138	2.75
466.49	2.74
466.843	2.71
467.195	2.71
467.547	2.7
467.899	2.68
468.252	2.7
468.604	2.7
468.956	2.69
469.308	2.69
469.66	2.68
470.012	2.7
470.364	2.7
470.716	2.69
471.068	2.69
471.42	2.69
471.772	2.71
472.123	2.71
472.475	2.72
472.827	2.72
473.178	2.72
473.53	2.74
473.882	2.75
474.233	2.78
474.585	2.75
474.936	2.78
475.288	2.79
475.639	2.79
475.99	2.8
476.342	2.8
476.693	2.81
477.044	2.82
477.395	2.8
477.746	2.79
478.097	2.8
478.448	2.81
478.8	2.79
479.15	2.79
479.501	2.8
479.852	2.8
480.203	2.8
480.554	2.82
480.905	2.83
481.255	2.84
481.606	2.85
481.957	2.87
482.307	2.88
482.658	2.87
483.009	2.87
483.359	2.87
483.709	2.87
484.06	2.86
484.41	2.87
484.761	2.87
485.111	2.88
485.461	2.88
485.811	2.88
486.162	2.89
486.512	2.9
486.862	2.9
487.212	2.9
487.562	2.9
487.912	2.9
488.262	2.89
488.612	2.89
488.961	2.88
489.311	2.88
489.661	2.87
490.011	2.87
490.36	2.88
490.71	2.89
491.06	2.89
491.409	2.9
491.759	2.88
492.108	2.88
492.458	2.88
492.807	2.86
493.157	2.86
493.506	2.87
493.855	2.86
494.204	2.86
494.554	2.86
494.903	2.86
495.252	2.86
495.601	2.87
495.95	2.86
496.299	2.87
496.648	2.86
496.997	2.87
497.346	2.87
497.695	2.88
498.043	2.87
498.392	2.85
498.741	2.87
499.09	2.89
499.438	2.9
499.787	2.91
500.135	2.94
500.484	2.94
500.832	2.95
501.181	2.95
501.529	2.95
501.878	2.98
502.226	2.98
502.574	2.98
502.923	2.96
503.271	2.98
503.619	2.98
503.967	2.96
504.315	2.94
504.663	2.95
505.011	2.96
505.359	2.97
505.707	3
506.055	2.99
506.403	2.99
506.751	2.99
507.098	2.99
507.446	3.02
507.794	3.01
508.141	3.01
508.489	2.99
508.837	3.01
509.184	3.02
509.531	3.02
509.879	3.04
510.226	3.05
510.574	3.03
510.921	3.04
511.268	3.05
511.616	3.07
511.963	3.07
512.31	3.06
512.657	3.07
513.004	3.06
513.351	3.08
513.698	3.09
514.045	3.1
514.392	3.09
514.739	3.06
515.086	3.07
515.432	3.06
515.779	3.06
516.126	3.06
516.473	3.07
516.819	3.08
517.166	3.08
517.512	3.08
517.859	3.09
518.205	3.09
518.552	3.1
518.898	3.11
519.245	3.11
519.591	3.1
519.937	3.11
520.283	3.12
520.629	3.12
520.976	3.12
521.322	3.13
521.668	3.15
522.014	3.17
522.36	3.19
522.706	3.2
523.052	3.21
523.398	3.22
523.743	3.21
524.089	3.19
524.435	3.18
524.781	3.18
525.126	3.19
525.472	3.21
525.817	3.2
526.163	3.2
526.509	3.2
526.854	3.21
527.199	3.2
527.545	3.2
527.89	3.19
528.235	3.2
528.581	3.19
528.926	3.19
529.271	3.18
529.616	3.16
529.961	3.16
530.306	3.18
530.651	3.18
530.996	3.18
531.341	3.19
531.686	3.2
532.031	3.2
532.376	3.2
532.721	3.2
533.065	3.2
533.41	3.2
533.755	3.2
534.099	3.21
534.444	3.2
534.788	3.2
535.133	3.2
535.477	3.2
535.822	3.19
536.166	3.18
536.51	3.18
536.855	3.19
537.199	3.19
537.543	3.18
537.887	3.19
538.231	3.19
538.576	3.19
538.92	3.2
539.264	3.19
539.608	3.2
539.951	3.19
540.295	3.19
540.639	3.19
540.983	3.18
541.327	3.19
541.671	3.2
542.014	3.19
542.358	3.19
542.701	3.19
543.045	3.21
543.389	3.22
543.732	3.22
544.075	3.22
544.419	3.24
544.762	3.24
545.105	3.23
545.449	3.24
545.792	3.23
546.135	3.24
546.478	3.27
546.821	3.25
547.165	3.26
547.508	3.27
547.851	3.27
548.194	3.27
548.536	3.28
548.879	3.27
549.222	3.29
549.565	3.3
549.908	3.28
550.25	3.26
550.593	3.27
550.936	3.27
551.278	3.27
551.621	3.24
551.963	3.26
552.306	3.25
552.648	3.26
552.991	3.26
553.333	3.2
553.675	3.18
554.017	3.19
554.36	3.2
554.702	3.23
555.044	3.22
555.386	3.23
555.728	3.22
556.07	3.25
556.412	3.22
556.754	3.21
557.096	3.22
557.438	3.22
557.78	3.26
558.121	3.28
558.463	3.28
558.805	3.29
559.147	3.26
559.488	3.27
559.83	3.28
560.171	3.28
560.513	3.33
560.854	3.33
561.196	3.32
561.537	3.33
561.878	3.32
562.22	3.34
562.561	3.34
562.902	3.36
563.243	3.33
563.584	3.35
563.925	3.36
564.266	3.34
564.607	3.34
564.948	3.32
565.289	3.31
565.63	3.33
565.971	3.32
566.312	3.35
566.653	3.36
566.993	3.35
567.334	3.36
567.675	3.34
568.015	3.33
568.356	3.33
568.696	3.32
569.037	3.32
569.377	3.31
569.718	3.3
570.058	3.27
570.398	3.27
570.739	3.27
571.079	3.26
571.419	3.28
571.759	3.3
572.099	3.28
572.439	3.28
572.779	3.32
573.119	3.32
573.459	3.32
573.799	3.33
574.139	3.31
574.479	3.28
574.819	3.3
575.158	3.31
575.498	3.32
575.838	3.33
576.177	3.3
576.517	3.29
576.856	3.29
577.196	3.33
577.535	3.32
577.875	3.36
578.214	3.36
578.553	3.37
578.893	3.35
579.232	3.37
579.571	3.37
579.91	3.32
580.25	3.33
580.589	3.28
580.928	3.27
581.267	3.3
581.606	3.31
581.945	3.29
582.283	3.27
582.622	3.25
582.961	3.24
583.3	3.25
583.639	3.27
583.977	3.32
584.316	3.3
584.654	3.27
584.993	3.21
585.332	3.21
585.67	3.22
586.008	3.23
586.347	3.23
586.685	3.18
587.024	3.2
587.362	3.18
587.7	3.21
588.038	3.22
588.376	3.18
588.715	3.21
589.053	3.21
589.391	3.23
589.729	3.25
590.067	3.26
590.404	3.26
590.742	3.26
591.08	3.2
591.418	3.21
591.756	3.26
592.093	3.26
592.431	3.25
592.769	3.24
593.106	3.27
593.444	3.25
593.781	3.27
594.119	3.24
594.456	3.25
594.793	3.24
595.131	3.24
595.468	3.25
595.805	3.21
596.143	3.22
596.48	3.21
596.817	3.21
597.154	3.22
597.491	3.2
597.828	3.2
598.165	3.23
598.502	3.2
598.839	3.2
599.176	3.2
599.512	3.23
599.849	3.24
600.186	3.25
600.523	3.29
600.859	3.29
601.196	3.32
601.532	3.35
601.869	3.36
602.205	3.37
602.542	3.39
602.878	3.43
603.215	3.4
603.551	3.41
603.887	3.39
604.223	3.37
604.56	3.42
604.896	3.43
605.232	3.43
605.568	3.44
605.904	3.43
606.24	3.47
606.576	3.45
606.912	3.43
607.248	3.4
607.583	3.39
607.919	3.37
608.255	3.35
608.591	3.37
608.926	3.34
609.262	3.37
609.597	3.34
609.933	3.32
610.268	3.38
610.604	3.41
610.939	3.43
611.275	3.45
611.61	3.41
611.945	3.39
612.281	3.4
612.616	3.41
612.951	3.41
613.286	3.4
613.621	3.41
613.956	3.43
614.291	3.47
614.626	3.43
614.961	3.46
615.296	3.47
615.631	3.46
615.966	3.51
616.3	3.47
616.635	3.47
616.97	3.5
617.304	3.46
617.639	3.43
617.973	3.43
618.308	3.38
618.642	3.45
618.977	3.41
619.311	3.39
619.646	3.44
619.98	3.46
620.314	3.43
620.648	3.47
620.983	3.5
621.317	3.49
621.651	3.5
621.985	3.51
622.319	3.55
622.653	3.5
622.987	3.48
623.321	3.48
623.655	3.5
623.988	3.53
624.322	3.53
624.656	3.59
624.99	3.57
625.323	3.63
625.657	3.59
625.99	3.61
626.324	3.66
626.657	3.61
626.991	3.6
627.324	3.61
627.658	3.59
627.991	3.6
628.324	3.59
628.657	3.6
628.991	3.62
629.324	3.59
629.657	3.63
629.99	3.64
630.323	3.65
630.656	3.69
630.989	3.7
631.322	3.69
631.655	3.64
631.987	3.65
632.32	3.69
632.653	3.7
632.986	3.74
633.318	3.69
633.651	3.7
633.984	3.74
634.316	3.74
634.649	3.72
634.981	3.67
635.313	3.65
635.646	3.69
635.978	3.68
636.31	3.68
636.643	3.66
636.975	3.67
637.307	3.67
637.639	3.62
637.971	3.61
638.303	3.6
638.635	3.59
638.967	3.6
639.299	3.61
639.631	3.58
639.963	3.5
640.295	3.54
640.626	3.55
640.958	3.57
641.29	3.59
641.621	3.62
641.953	3.62
642.285	3.66
642.616	3.67
642.948	3.7
643.279	3.73
643.61	3.71
643.942	3.7
644.273	3.68
644.604	3.66
644.936	3.59
645.267	3.61
645.598	3.63
645.929	3.67
646.26	3.61
646.591	3.61
646.922	3.61
647.253	3.6
647.584	3.56
647.915	3.51
648.245	3.48
648.576	3.49
648.907	3.52
649.238	3.49
649.568	3.41
649.899	3.38
650.229	3.37
650.56	3.38
650.89	3.4
651.221	3.38
651.551	3.42
651.882	3.48
652.212	3.53
652.542	3.54
652.872	3.45
653.203	3.47
653.533	3.54
653.863	3.55
654.193	3.53
654.523	3.53
654.853	3.54
655.183	3.57
655.513	3.55
655.843	3.53
656.172	3.59
656.502	3.68
656.832	3.69
657.162	3.71
657.491	3.76
657.821	3.7
658.15	3.72
658.48	3.69
658.809	3.64
659.139	3.59
659.468	3.5
659.798	3.56
660.127	3.56
660.456	3.58
660.785	3.65
661.115	3.65
661.444	3.7
661.773	3.75
662.102	3.66
662.431	3.68
662.76	3.68
663.089	3.63
663.418	3.55
663.747	3.52
664.076	3.5
664.404	3.39
664.733	3.39
665.062	3.35
665.39	3.37
665.719	3.42
666.048	3.45
666.376	3.53
666.705	3.52
667.033	3.49
667.362	3.47
667.69	3.41
668.018	3.41
668.347	3.4
668.675	3.37
669.003	3.43
669.331	3.47
669.659	3.46
669.987	3.5
670.315	3.54
670.643	3.57
670.971	3.54
671.299	3.68
671.627	3.75
671.955	3.82
672.283	3.78
672.61	3.81
672.938	3.84
673.266	3.85
673.593	3.93
673.921	3.95
674.249	3.88
674.576	3.91
674.904	3.94
675.231	3.9
675.558	3.89
