Data from BA28301_Reflection_00009.txt Node
Date: Mon Nov 18 15:45:17 EST 2019
User: vgr7
Spectrometer: USB2G7710
Scans to average: 3
Trigger mode: 4
Integration Time (sec): 2.000000E-2
Electric dark correction enabled: true
Boxcar width: 10
XAxis mode: Wavelengths
Number of Pixels in Spectrum: 2048
>>>>>Begin Spectral Data<<<<<
177.721	481.63
178.105	100
178.488	215.14
178.871	-79.52
179.254	157.42
179.636	131.47
180.019	154.38
180.402	400
180.785	-379.09
181.168	-472.03
181.55	-273.94
181.933	46.81
182.316	19.49
182.698	8.42
183.081	8.55
183.463	21.1
183.846	6.47
184.228	-10.57
184.611	-5.46
184.993	-55.21
185.376	1.64
185.758	40.72
186.14	173.81
186.522	215.16
186.904	-205.63
187.287	755.46
187.669	-214.35
188.051	-307.49
188.433	-121.91
188.815	-143.99
189.197	-812.44
189.579	-232.9
189.961	-229.96
190.342	-368.17
190.724	-165.1
191.106	-107.67
191.488	-105.63
191.869	-35.06
192.251	-69.01
192.633	-146.45
193.014	-252.51
193.396	-251.11
193.777	-597.67
194.159	-2017.65
194.54	-280.74
194.922	-254.2
195.303	-460.55
195.684	391.79
196.065	-228.23
196.447	8923.53
196.828	-661.33
197.209	-384.94
197.59	-1982.64
197.971	-4700
198.352	-399.22
198.733	-251.2
199.114	-444.42
199.495	-154.46
199.876	-190.4
200.257	-76.81
200.638	-10.49
201.018	-18.79
201.399	5.5
201.78	16.28
202.16	0.59
202.541	-45.72
202.922	-96.04
203.302	-92.06
203.683	-37.87
204.063	-23.95
204.444	-30.65
204.824	-19.15
205.204	52.58
205.585	64.87
205.965	44.79
206.345	70.32
206.725	173.85
207.106	978.05
207.486	59.69
207.866	84.44
208.246	94.7
208.626	119.38
209.006	90.98
209.386	117.71
209.766	96.81
210.145	75.37
210.525	70.69
210.905	91.29
211.285	25300
211.664	-1496.33
212.044	732.73
212.424	-229.56
212.803	-97.22
213.183	-210.24
213.562	-140.28
213.942	-96.68
214.321	-83.65
214.701	-55.95
215.08	-37.41
215.459	-29.57
215.838	-18.89
216.218	-22.22
216.597	-16.85
216.976	-12.37
217.355	-19.56
217.734	-14.63
218.113	-16.69
218.492	-19.49
218.871	-22.89
219.25	-19.81
219.629	-24.2
220.008	-32.57
220.387	-42.96
220.766	-49.62
221.144	-47.64
221.523	-52.98
221.902	-55.73
222.28	-59.65
222.659	-65.69
223.037	-63.64
223.416	-70.21
223.794	-74.5
224.173	-67.91
224.551	-69.42
224.929	-66.32
225.308	-51.27
225.686	-44.62
226.064	-35.64
226.442	-32.15
226.821	-26.71
227.199	-25.26
227.577	-23.29
227.955	-15.9
228.333	-13.58
228.711	-11.22
229.089	-5.21
229.467	-6.44
229.845	-7.74
230.222	-5.54
230.6	-5.78
230.978	-4.82
231.356	-2.28
231.733	-0.91
232.111	-0.77
232.488	1
232.866	0.12
233.243	0.03
233.621	-0.51
233.998	-0.35
234.376	-0.18
234.753	-0.67
235.13	-0.33
235.508	0.21
235.885	0.45
236.262	-0.01
236.639	-0.04
237.016	-0.92
237.393	1.19
237.77	2.16
238.147	2.85
238.524	3.66
238.901	3.52
239.278	3.06
239.655	3.55
240.032	4.27
240.409	3.93
240.785	3.75
241.162	4.06
241.539	4.27
241.915	3.88
242.292	3.76
242.668	4
243.045	4.19
243.421	4.28
243.798	4.07
244.174	3.96
244.551	3.95
244.927	3.79
245.303	3.83
245.679	4.21
246.056	3.92
246.432	3.86
246.808	3.8
247.184	3.76
247.56	3.51
247.936	3.23
248.312	3.32
248.688	3.45
249.064	3.32
249.44	3.25
249.815	3.45
250.191	3.54
250.567	3.42
250.943	3.23
251.318	3.19
251.694	3.14
252.069	3.16
252.445	3.12
252.82	3.34
253.196	3.15
253.571	2.74
253.947	2.81
254.322	2.88
254.697	2.76
255.073	2.53
255.448	2.55
255.823	2.59
256.198	2.65
256.573	2.75
256.948	2.87
257.323	2.8
257.698	2.72
258.073	2.59
258.448	2.54
258.823	2.59
259.198	2.68
259.573	2.58
259.948	2.49
260.322	2.41
260.697	2.23
261.072	2.25
261.446	2.37
261.821	2.35
262.195	2.29
262.57	2.31
262.944	2.44
263.319	2.46
263.693	2.35
264.067	2.2
264.442	2.2
264.816	2.14
265.19	2.23
265.564	2.44
265.938	2.4
266.313	2.41
266.687	2.38
267.061	2.26
267.435	2.44
267.809	2.49
268.183	2.55
268.556	2.58
268.93	2.56
269.304	2.49
269.678	2.66
270.051	2.68
270.425	2.82
270.799	2.83
271.172	2.87
271.546	3.12
271.919	3.09
272.293	2.98
272.666	2.94
273.04	2.99
273.413	2.67
273.787	2.75
274.16	2.91
274.533	3
274.906	3
275.279	2.95
275.653	3.13
276.026	3.36
276.399	3.46
276.772	3.52
277.145	3.39
277.518	3.32
277.891	3.47
278.263	3.44
278.636	3.42
279.009	3.45
279.382	3.35
279.755	3.4
280.127	3.49
280.5	3.56
280.872	3.49
281.245	3.62
281.617	3.72
281.99	3.72
282.362	3.68
282.735	3.62
283.107	3.54
283.479	3.52
283.852	3.33
284.224	3.33
284.596	3.4
284.968	3.48
285.34	3.53
285.713	3.41
286.085	3.33
286.457	3.42
286.829	3.37
287.201	3.34
287.572	3.3
287.944	3.33
288.316	3.31
288.688	3.18
289.06	3.23
289.431	3.13
289.803	3.09
290.175	3.02
290.546	3.16
290.918	3.23
291.289	3.13
291.661	3.26
292.032	3.3
292.403	3.19
292.775	3.24
293.146	3.16
293.517	3.22
293.889	3.23
294.26	3.19
294.631	3.21
295.002	3.27
295.373	3.43
295.744	3.38
296.115	3.37
296.486	3.34
296.857	3.25
297.228	3.32
297.599	3.23
297.97	3.44
298.34	3.44
298.711	3.54
299.082	3.61
299.452	3.61
299.823	3.62
300.194	3.83
300.564	3.7
300.935	3.82
301.305	3.86
301.676	3.92
302.046	4.05
302.416	4.22
302.787	4.21
303.157	4.08
303.527	4.22
303.897	4.34
304.267	4.53
304.637	4.73
305.008	4.7
305.378	4.88
305.748	4.71
306.117	4.67
306.487	4.63
306.857	4.61
307.227	4.61
307.597	4.6
307.967	4.49
308.336	4.57
308.706	4.63
309.076	4.6
309.445	4.59
309.815	4.54
310.184	4.52
310.554	4.67
310.923	4.78
311.293	4.58
311.662	4.62
312.031	4.64
312.401	4.61
312.77	4.79
313.139	4.94
313.508	5.09
313.877	5.17
314.246	5.3
314.616	5.31
314.985	5.39
315.353	5.53
315.722	5.66
316.091	5.81
316.46	5.78
316.829	5.76
317.198	5.79
317.567	5.82
317.935	5.82
318.304	5.79
318.672	5.75
319.041	5.97
319.41	5.89
319.778	5.97
320.147	5.95
320.515	5.86
320.883	5.68
321.252	5.82
321.62	5.8
321.988	5.65
322.357	5.71
322.725	5.59
323.093	5.47
323.461	5.55
323.829	5.59
324.197	5.61
324.565	5.63
324.933	5.73
325.301	5.72
325.669	5.72
326.037	5.65
326.405	5.74
326.772	5.83
327.14	6.03
327.508	6.01
327.875	6.15
328.243	6.25
328.61	6.28
328.978	6.18
329.346	6.44
329.713	6.49
330.08	6.55
330.448	6.59
330.815	6.67
331.182	6.66
331.55	6.76
331.917	6.76
332.284	6.98
332.651	6.93
333.018	7.07
333.385	7.18
333.752	7.44
334.119	7.56
334.486	7.53
334.853	7.35
335.22	7.36
335.587	7.32
335.954	7.36
336.32	7.37
336.687	7.46
337.054	7.37
337.42	7.49
337.787	7.59
338.153	7.69
338.52	7.78
338.886	7.7
339.253	7.57
339.619	7.75
339.986	7.71
340.352	7.82
340.718	7.88
341.084	7.87
341.451	7.89
341.817	7.8
342.183	7.76
342.549	7.88
342.915	7.87
343.281	7.9
343.647	7.85
344.013	7.85
344.379	7.74
344.745	7.75
345.11	7.82
345.476	7.79
345.842	7.75
346.208	7.77
346.573	7.74
346.939	7.9
347.304	7.75
347.67	7.76
348.035	7.78
348.401	7.62
348.766	7.63
349.132	7.53
349.497	7.62
349.862	7.7
350.228	7.73
350.593	7.77
350.958	7.74
351.323	7.82
351.688	7.94
352.053	8.04
352.418	7.96
352.783	7.9
353.148	7.96
353.513	7.94
353.878	7.92
354.243	7.99
354.608	8
354.972	8.03
355.337	8.06
355.702	8
356.066	8.18
356.431	8.08
356.795	8.17
357.16	8.16
357.524	8.09
357.889	8.08
358.253	8.13
358.618	8.15
358.982	8.08
359.346	8.02
359.71	7.98
360.075	8.02
360.439	7.95
360.803	7.82
361.167	7.82
361.531	7.82
361.895	7.79
362.259	7.68
362.623	7.71
362.987	7.66
363.351	7.62
363.714	7.53
364.078	7.54
364.442	7.4
364.806	7.37
365.169	7.35
365.533	7.35
365.896	7.28
366.26	7.25
366.623	7.17
366.987	7.17
367.35	7.1
367.714	7.1
368.077	7.06
368.44	7.11
368.803	7.08
369.167	6.97
369.53	6.98
369.893	7.01
370.256	6.98
370.619	6.94
370.982	6.97
371.345	6.88
371.708	6.86
372.071	6.82
372.434	6.71
372.797	6.68
373.159	6.56
373.522	6.54
373.885	6.53
374.247	6.54
374.61	6.51
374.973	6.46
375.335	6.37
375.698	6.4
376.06	6.34
376.423	6.29
376.785	6.3
377.147	6.26
377.51	6.18
377.872	6.1
378.234	6.07
378.596	6.03
378.958	5.97
379.321	5.93
379.683	5.9
380.045	5.94
380.407	5.93
380.769	5.92
381.13	5.87
381.492	5.82
381.854	5.8
382.216	5.71
382.578	5.7
382.939	5.65
383.301	5.59
383.663	5.54
384.024	5.53
384.386	5.55
384.747	5.47
385.109	5.45
385.47	5.44
385.832	5.4
386.193	5.39
386.554	5.37
386.916	5.35
387.277	5.32
387.638	5.27
387.999	5.21
388.36	5.19
388.721	5.15
389.082	5.1
389.443	5.03
389.804	4.99
390.165	4.95
390.526	4.91
390.887	4.87
391.248	4.87
391.609	4.86
391.969	4.77
392.33	4.77
392.691	4.74
393.051	4.69
393.412	4.66
393.772	4.6
394.133	4.61
394.493	4.57
394.854	4.55
395.214	4.52
395.574	4.5
395.935	4.47
396.295	4.48
396.655	4.46
397.015	4.46
397.376	4.45
397.736	4.39
398.096	4.36
398.456	4.37
398.816	4.32
399.176	4.24
399.535	4.22
399.895	4.18
400.255	4.17
400.615	4.12
400.975	4.09
401.334	4.08
401.694	4.07
402.054	4.04
402.413	4.01
402.773	3.96
403.132	3.94
403.492	3.88
403.851	3.84
404.211	3.85
404.57	3.84
404.929	3.83
405.288	3.84
405.648	3.83
406.007	3.81
406.366	3.78
406.725	3.81
407.084	3.79
407.443	3.77
407.802	3.74
408.161	3.75
408.52	3.73
408.879	3.7
409.238	3.69
409.596	3.68
409.955	3.69
410.314	3.71
410.673	3.69
411.031	3.71
411.39	3.68
411.748	3.66
412.107	3.64
412.465	3.64
412.824	3.63
413.182	3.62
413.54	3.6
413.899	3.6
414.257	3.58
414.615	3.57
414.974	3.58
415.332	3.55
415.69	3.53
416.048	3.51
416.406	3.49
416.764	3.46
417.122	3.44
417.48	3.42
417.838	3.39
418.195	3.37
418.553	3.34
418.911	3.33
419.269	3.32
419.626	3.31
419.984	3.29
420.342	3.28
420.699	3.26
421.057	3.25
421.414	3.24
421.772	3.23
422.129	3.21
422.486	3.21
422.844	3.21
423.201	3.2
423.558	3.2
423.915	3.19
424.273	3.19
424.63	3.18
424.987	3.17
425.344	3.16
425.701	3.16
426.058	3.17
426.415	3.16
426.772	3.17
427.128	3.15
427.485	3.13
427.842	3.11
428.199	3.14
428.555	3.13
428.912	3.14
429.269	3.14
429.625	3.13
429.982	3.11
430.338	3.11
430.695	3.1
431.051	3.08
431.407	3.1
431.764	3.08
432.12	3.07
432.476	3.09
432.832	3.07
433.189	3.05
433.545	3.04
433.901	3.03
434.257	3.03
434.613	3.02
434.969	3.03
435.325	3.04
435.681	3.03
436.036	3.03
436.392	3.02
436.748	3.03
437.104	3.04
437.459	3.03
437.815	3.03
438.171	3.04
438.526	3.06
438.882	3.05
439.237	3.06
439.593	3.06
439.948	3.05
440.304	3.06
440.659	3.07
441.014	3.07
441.369	3.06
441.725	3.06
442.08	3.05
442.435	3.06
442.79	3.05
443.145	3.05
443.5	3.04
443.855	3.02
444.21	3.02
444.565	3.01
444.92	3.03
445.275	3.01
445.629	3
445.984	2.99
446.339	2.97
446.693	2.95
447.048	2.94
447.403	2.93
447.757	2.93
448.112	2.91
448.466	2.9
448.82	2.9
449.175	2.89
449.529	2.89
449.883	2.88
450.238	2.88
450.592	2.87
450.946	2.85
451.3	2.85
451.654	2.85
452.008	2.84
452.362	2.81
452.716	2.8
453.07	2.81
453.424	2.81
453.778	2.81
454.132	2.83
454.486	2.82
454.839	2.81
455.193	2.79
455.547	2.81
455.9	2.82
456.254	2.83
456.607	2.83
456.961	2.84
457.314	2.84
457.668	2.84
458.021	2.85
458.375	2.88
458.728	2.87
459.081	2.86
459.434	2.84
459.787	2.86
460.141	2.86
460.494	2.86
460.847	2.86
461.2	2.87
461.553	2.87
461.906	2.91
462.259	2.92
462.611	2.94
462.964	2.95
463.317	2.97
463.67	2.98
464.022	2.98
464.375	2.98
464.728	2.97
465.08	2.98
465.433	2.98
465.785	2.97
466.138	2.99
466.49	3
466.843	3.03
467.195	3.04
467.547	3.07
467.899	3.08
468.252	3.1
468.604	3.11
468.956	3.12
469.308	3.12
469.66	3.1
470.012	3.13
470.364	3.14
470.716	3.14
471.068	3.14
471.42	3.13
471.772	3.16
472.123	3.17
472.475	3.17
472.827	3.16
473.178	3.18
473.53	3.17
473.882	3.17
474.233	3.16
474.585	3.14
474.936	3.13
475.288	3.11
475.639	3.11
475.99	3.1
476.342	3.1
476.693	3.1
477.044	3.1
477.395	3.08
477.746	3.07
478.097	3.06
478.448	3.06
478.8	3.06
479.15	3.03
479.501	3.05
479.852	3.05
480.203	3.05
480.554	3.06
480.905	3.07
481.255	3.06
481.606	3.07
481.957	3.08
482.307	3.06
482.658	3.06
483.009	3.05
483.359	3.06
483.709	3.05
484.06	3.05
484.41	3.06
484.761	3.07
485.111	3.07
485.461	3.07
485.811	3.08
486.162	3.08
486.512	3.1
486.862	3.1
487.212	3.1
487.562	3.11
487.912	3.11
488.262	3.11
488.612	3.12
488.961	3.13
489.311	3.13
489.661	3.14
490.011	3.15
490.36	3.16
490.71	3.17
491.06	3.18
491.409	3.18
491.759	3.18
492.108	3.2
492.458	3.21
492.807	3.21
493.157	3.22
493.506	3.23
493.855	3.24
494.204	3.24
494.554	3.26
494.903	3.28
495.252	3.29
495.601	3.31
495.95	3.33
496.299	3.36
496.648	3.38
496.997	3.42
497.346	3.46
497.695	3.49
498.043	3.53
498.392	3.57
498.741	3.61
499.09	3.62
499.438	3.64
499.787	3.67
500.135	3.72
500.484	3.75
500.832	3.79
501.181	3.83
501.529	3.87
501.878	3.9
502.226	3.94
502.574	3.99
502.923	4.02
503.271	4.06
503.619	4.1
503.967	4.17
504.315	4.2
504.663	4.24
505.011	4.28
505.359	4.31
505.707	4.36
506.055	4.41
506.403	4.48
506.751	4.55
507.098	4.6
507.446	4.66
507.794	4.69
508.141	4.74
508.489	4.79
508.837	4.85
509.184	4.92
509.531	4.99
509.879	5.06
510.226	5.13
510.574	5.19
510.921	5.23
511.268	5.26
511.616	5.35
511.963	5.43
512.31	5.48
512.657	5.57
513.004	5.64
513.351	5.71
513.698	5.78
514.045	5.83
514.392	5.9
514.739	5.98
515.086	6.07
515.432	6.16
515.779	6.23
516.126	6.31
516.473	6.38
516.819	6.44
517.166	6.5
517.512	6.56
517.859	6.63
518.205	6.7
518.552	6.79
518.898	6.84
519.245	6.89
519.591	6.98
519.937	7.02
520.283	7.1
520.629	7.19
520.976	7.29
521.322	7.39
521.668	7.48
522.014	7.57
522.36	7.68
522.706	7.79
523.052	7.91
523.398	8.06
523.743	8.19
524.089	8.34
524.435	8.46
524.781	8.59
525.126	8.69
525.472	8.82
525.817	8.91
526.163	9.01
526.509	9.08
526.854	9.19
527.199	9.29
527.545	9.37
527.89	9.45
528.235	9.54
528.581	9.65
528.926	9.75
529.271	9.86
529.616	9.96
529.961	10.06
530.306	10.17
530.651	10.28
530.996	10.4
531.341	10.52
531.686	10.66
532.031	10.79
532.376	10.95
532.721	11.09
533.065	11.26
533.41	11.42
533.755	11.61
534.099	11.79
534.444	11.95
534.788	12.13
535.133	12.31
535.477	12.49
535.822	12.65
536.166	12.86
536.51	13.08
536.855	13.31
537.199	13.55
537.543	13.79
537.887	14.05
538.231	14.29
538.576	14.54
538.92	14.78
539.264	15.03
539.608	15.26
539.951	15.5
540.295	15.69
540.639	15.92
540.983	16.12
541.327	16.31
541.671	16.5
542.014	16.71
542.358	16.91
542.701	17.11
543.045	17.33
543.389	17.53
543.732	17.74
544.075	17.95
544.419	18.17
544.762	18.41
545.105	18.65
545.449	18.9
545.792	19.15
546.135	19.42
546.478	19.7
546.821	20
547.165	20.31
547.508	20.63
547.851	20.93
548.194	21.24
548.536	21.56
548.879	21.9
549.222	22.23
549.565	22.57
549.908	22.91
550.25	23.26
550.593	23.59
550.936	23.92
551.278	24.28
551.621	24.64
551.963	24.99
552.306	25.33
552.648	25.67
552.991	26.06
553.333	26.39
553.675	26.67
554.017	26.95
554.36	27.25
554.702	27.58
555.044	27.87
555.386	28.17
555.728	28.52
556.07	28.84
556.412	29.11
556.754	29.44
557.096	29.75
557.438	30.08
557.78	30.43
558.121	30.7
558.463	31.04
558.805	31.31
559.147	31.55
559.488	31.81
559.83	32.16
560.171	32.37
560.513	32.68
560.854	33.03
561.196	33.35
561.537	33.64
561.878	33.87
562.22	34.16
562.561	34.44
562.902	34.7
563.243	34.93
563.584	35.21
563.925	35.46
564.266	35.71
564.607	35.92
564.948	36.18
565.289	36.48
565.63	36.66
565.971	36.83
566.312	37.1
566.653	37.38
566.993	37.53
567.334	37.69
567.675	37.89
568.015	38.09
568.356	38.26
568.696	38.48
569.037	38.72
569.377	38.95
569.718	39.16
570.058	39.32
570.398	39.54
570.739	39.77
571.079	39.96
571.419	40.12
571.759	40.32
572.099	40.5
572.439	40.65
572.779	40.82
573.119	41.07
573.459	41.28
573.799	41.4
574.139	41.59
574.479	41.82
574.819	42
575.158	42.18
575.498	42.38
575.838	42.57
576.177	42.75
576.517	42.86
576.856	43.03
577.196	43.25
577.535	43.41
577.875	43.56
578.214	43.71
578.553	43.9
578.893	44.05
579.232	44.23
579.571	44.41
579.91	44.63
580.25	44.78
580.589	44.88
580.928	45.06
581.267	45.2
581.606	45.32
581.945	45.46
582.283	45.56
582.622	45.7
582.961	45.78
583.3	45.89
583.639	46.13
583.977	46.32
584.316	46.39
584.654	46.51
584.993	46.62
585.332	46.74
585.67	46.86
586.008	47
586.347	47
586.685	47.13
587.024	47.19
587.362	47.29
587.7	47.38
588.038	47.5
588.376	47.64
588.715	47.86
589.053	47.97
589.391	48.09
589.729	48.21
590.067	48.38
590.404	48.5
590.742	48.51
591.08	48.57
591.418	48.69
591.756	48.79
592.093	48.94
592.431	49.15
592.769	49.3
593.106	49.37
593.444	49.49
593.781	49.49
594.119	49.58
594.456	49.62
594.793	49.76
595.131	49.82
595.468	49.94
595.805	49.98
596.143	50.05
596.48	50.09
596.817	50.15
597.154	50.12
597.491	50.19
597.828	50.23
598.165	50.31
598.502	50.41
598.839	50.48
599.176	50.51
599.512	50.53
599.849	50.53
600.186	50.61
600.523	50.72
600.859	50.8
601.196	50.93
601.532	50.97
601.869	50.99
602.205	51.1
602.542	51.04
602.878	51.05
603.215	51.13
603.551	51.2
603.887	51.23
604.223	51.3
604.56	51.34
604.896	51.4
605.232	51.43
605.568	51.42
605.904	51.44
606.24	51.48
606.576	51.52
606.912	51.59
607.248	51.57
607.583	51.56
607.919	51.66
608.255	51.64
608.591	51.73
608.926	51.8
609.262	51.82
609.597	51.98
609.933	52.07
610.268	52.09
610.604	52.14
610.939	52.22
611.275	52.29
611.61	52.33
611.945	52.4
612.281	52.45
612.616	52.52
612.951	52.64
613.286	52.67
613.621	52.75
613.956	52.75
614.291	52.92
614.626	53.01
614.961	53.06
615.296	53.1
615.631	53.19
615.966	53.21
616.3	53.2
616.635	53.14
616.97	53.08
617.304	53.12
617.639	53.18
617.973	53.18
618.308	53.19
618.642	53.21
618.977	53.2
619.311	53.22
619.646	53.22
619.98	53.23
620.314	53.31
620.648	53.22
620.983	53.37
621.317	53.33
621.651	53.33
621.985	53.43
622.319	53.5
622.653	53.56
622.987	53.59
623.321	53.6
623.655	53.69
623.988	53.8
624.322	53.83
624.656	53.82
624.99	53.86
625.323	53.92
625.657	53.96
625.99	53.99
626.324	53.94
626.657	54.02
626.991	54.06
627.324	54.02
627.658	54.12
627.991	54.07
628.324	54.13
628.657	54.18
628.991	54.2
629.324	54.22
629.657	54.15
629.99	54.21
630.323	54.3
630.656	54.26
630.989	54.16
631.322	54.18
631.655	54.22
631.987	54.19
632.32	54.23
632.653	54.25
632.986	54.38
633.318	54.5
633.651	54.46
633.984	54.49
634.316	54.5
634.649	54.47
634.981	54.53
635.313	54.54
635.646	54.58
635.978	54.56
636.31	54.62
636.643	54.76
636.975	54.92
637.307	54.95
637.639	54.96
637.971	55.08
638.303	55.15
638.635	55.21
638.967	55.32
639.299	55.3
639.631	55.27
639.963	55.13
640.295	55.13
640.626	55.21
640.958	55.14
641.29	55.19
641.621	55.32
641.953	55.32
642.285	55.3
642.616	55.36
642.948	55.35
643.279	55.28
643.61	55.23
643.942	55.07
644.273	55.09
644.604	55.17
644.936	55.24
645.267	55.22
645.598	55.21
645.929	55.24
646.26	55.38
646.591	55.46
646.922	55.45
647.253	55.52
647.584	55.58
647.915	55.63
648.245	55.75
648.576	55.79
648.907	55.79
649.238	55.82
649.568	55.81
649.899	55.79
650.229	55.82
650.56	55.81
650.89	55.8
651.221	55.73
651.551	55.73
651.882	55.73
652.212	55.74
652.542	55.71
652.872	55.64
653.203	55.51
653.533	55.54
653.863	55.64
654.193	55.6
654.523	55.56
654.853	55.56
655.183	55.46
655.513	55.4
655.843	55.34
656.172	55.43
656.502	55.49
656.832	55.66
657.162	55.72
657.491	55.75
657.821	55.84
658.15	55.94
658.48	55.97
658.809	56.02
659.139	56.01
659.468	56.01
659.798	56.08
660.127	56.04
660.456	55.97
660.785	55.99
661.115	56.03
661.444	56
661.773	56.12
662.102	56.17
662.431	56.24
662.76	56.35
663.089	56.42
663.418	56.36
663.747	56.36
664.076	56.46
664.404	56.38
664.733	56.44
665.062	56.49
665.39	56.51
665.719	56.4
666.048	56.39
666.376	56.43
666.705	56.38
667.033	56.45
