Data from BA28416_Reflection_00004.txt Node
Date: Mon Nov 18 16:05:19 EST 2019
User: vgr7
Spectrometer: USB2G7710
Scans to average: 3
Trigger mode: 4
Integration Time (sec): 2.000000E-2
Electric dark correction enabled: true
Boxcar width: 10
XAxis mode: Wavelengths
Number of Pixels in Spectrum: 2048
>>>>>Begin Spectral Data<<<<<
177.721	251.09
178.105	395.57
178.488	472.14
178.871	3203.45
179.254	-891.74
179.636	-187.23
180.019	-3440.98
180.402	86.67
180.785	-0.23
181.168	33.82
181.55	116.15
181.933	87.12
182.316	91.47
182.698	104.92
183.081	115.91
183.463	107.94
183.846	108.81
184.228	144.46
184.611	112.58
184.993	130.37
185.376	134
185.758	144.9
186.14	145.78
186.522	141.68
186.904	121.32
187.287	125.7
187.669	103.91
188.051	111.24
188.433	81.41
188.815	74.67
189.197	84.96
189.579	60.51
189.961	74.27
190.342	59.88
190.724	104.95
191.106	70.44
191.488	47.04
191.869	20.77
192.251	-10.76
192.633	-2.9
193.014	23.64
193.396	28.79
193.777	13.15
194.159	7.69
194.54	83.17
194.922	-173.08
195.303	-464.26
195.684	-531.58
196.065	-169.19
196.447	-187.52
196.828	-199.8
197.209	-99.91
197.59	-114.39
197.971	-187.7
198.352	-127.3
198.733	-127.3
199.114	-116.61
199.495	-120.11
199.876	-122.95
200.257	-96.2
200.638	-74.65
201.018	-90.33
201.399	-101.56
201.78	-96.36
202.16	-116.44
202.541	-147.37
202.922	-359.79
203.302	-242.98
203.683	-802.05
204.063	-1235.42
204.444	-619.64
204.824	-1035.55
205.204	-1763.83
205.585	-744.61
205.965	-585.71
206.345	-616.93
206.725	-9063.64
207.106	1102.32
207.486	464.46
207.866	493.25
208.246	290.25
208.626	287.2
209.006	411.49
209.386	520.28
209.766	624.08
210.145	547.76
210.525	407.29
210.905	284.47
211.285	309.26
211.664	552.71
212.044	353.58
212.424	310.46
212.803	198.19
213.183	163.9
213.562	130.75
213.942	189.87
214.321	218.73
214.701	131.49
215.08	154.69
215.459	143.7
215.838	207.03
216.218	1180.75
216.597	110.66
216.976	248.61
217.355	1128.57
217.734	-20.4
218.113	1398.97
218.492	906.32
218.871	212.46
219.25	222.45
219.629	248.91
220.008	146.66
220.387	93.8
220.766	100
221.144	166.6
221.523	115.14
221.902	166.58
222.28	-2616.98
222.659	198.72
223.037	100
223.416	46.9
223.794	52.58
224.173	46.65
224.551	10.92
224.929	1.11
225.308	5.94
225.686	7.54
226.064	5.5
226.442	-3.37
226.821	0.91
227.199	1.18
227.577	-2.22
227.955	-3.41
228.333	-4.01
228.711	-4.27
229.089	-3.41
229.467	-7.04
229.845	-7.13
230.222	-8.47
230.6	-8.24
230.978	-6.46
231.356	-3.22
231.733	-3.96
232.111	-1.24
232.488	-2.34
232.866	-0.54
233.243	-1.78
233.621	-2.79
233.998	-1.99
234.376	-1.59
234.753	-1.66
235.13	-1.42
235.508	-0.69
235.885	1.29
236.262	0.4
236.639	-0.91
237.016	-0.13
237.393	1.45
237.77	2.79
238.147	4.06
238.524	3.18
238.901	3.29
239.278	2.77
239.655	3.9
240.032	2.89
240.409	2.55
240.785	2.72
241.162	3.05
241.539	3.17
241.915	2.58
242.292	2.49
242.668	2.77
243.045	2.59
243.421	2.46
243.798	2.32
244.174	2.71
244.551	2.82
244.927	2.44
245.303	2.67
245.679	2.5
246.056	2.21
246.432	2.18
246.808	2.14
247.184	2.06
247.56	1.63
247.936	1.65
248.312	1.99
248.688	1.89
249.064	1.91
249.44	1.93
249.815	2.07
250.191	2.3
250.567	2.07
250.943	1.94
251.318	2.09
251.694	2.14
252.069	1.96
252.445	2.09
252.82	2.07
253.196	1.94
253.571	1.87
253.947	1.94
254.322	2.47
254.697	2.44
255.073	2.37
255.448	2.39
255.823	2.63
256.198	2.63
256.573	2.57
256.948	2.61
257.323	2.55
257.698	2.4
258.073	2.4
258.448	2.39
258.823	2.74
259.198	2.69
259.573	2.77
259.948	2.68
260.322	2.43
260.697	2.54
261.072	2.55
261.446	2.59
261.821	2.45
262.195	2.42
262.57	2.42
262.944	2.46
263.319	2.53
263.693	2.38
264.067	2.27
264.442	2.31
264.816	2.23
265.19	2.21
265.564	2.24
265.938	1.96
266.313	1.92
266.687	1.62
267.061	1.73
267.435	1.83
267.809	2.04
268.183	2.25
268.556	2.1
268.93	2.18
269.304	2.21
269.678	2.42
270.051	2.29
270.425	2.3
270.799	2.26
271.172	2.22
271.546	2.38
271.919	2.26
272.293	2.23
272.666	2.31
273.04	2.34
273.413	2.47
273.787	2.59
274.16	2.71
274.533	2.72
274.906	2.67
275.279	2.64
275.653	2.59
276.026	2.51
276.399	2.58
276.772	2.41
277.145	2.3
277.518	2.3
277.891	2.45
278.263	2.31
278.636	2.41
279.009	2.51
279.382	2.56
279.755	2.77
280.127	2.82
280.5	3.06
280.872	3.2
281.245	2.96
281.617	3
281.99	2.97
282.362	2.97
282.735	2.74
283.107	2.73
283.479	2.79
283.852	2.93
284.224	2.87
284.596	2.95
284.968	2.91
285.34	2.97
285.713	2.99
286.085	3
286.457	3.04
286.829	3.04
287.201	2.93
287.572	2.74
287.944	2.69
288.316	2.43
288.688	2.3
289.06	2.32
289.431	2.36
289.803	2.43
290.175	2.5
290.546	2.8
290.918	2.68
291.289	2.75
291.661	2.71
292.032	2.83
292.403	2.79
292.775	2.96
293.146	2.81
293.517	2.76
293.889	2.76
294.26	2.69
294.631	2.71
295.002	2.72
295.373	2.88
295.744	2.81
296.115	2.9
296.486	2.97
296.857	3.1
297.228	3.16
297.599	3.08
297.97	3.11
298.34	2.97
298.711	3.08
299.082	2.98
299.452	3
299.823	3.06
300.194	3.03
300.564	3
300.935	3.05
301.305	2.97
301.676	3.14
302.046	3.15
302.416	3.19
302.787	3.19
303.157	3.25
303.527	3.31
303.897	3.22
304.267	3.21
304.637	3.11
305.008	3.11
305.378	3.24
305.748	3.33
306.117	3.46
306.487	3.29
306.857	3.29
307.227	3.37
307.597	3.21
307.967	3.37
308.336	3.33
308.706	3.33
309.076	3.39
309.445	3.28
309.815	3.23
310.184	3.21
310.554	3.26
310.923	3.18
311.293	3.22
311.662	3.31
312.031	3.26
312.401	3.28
312.77	3.19
313.139	3.09
313.508	2.94
313.877	2.87
314.246	2.83
314.616	2.82
314.985	2.72
315.353	2.72
315.722	2.67
316.091	2.66
316.46	2.67
316.829	2.74
317.198	2.67
317.567	2.64
317.935	2.58
318.304	2.65
318.672	2.52
319.041	2.51
319.41	2.57
319.778	2.55
320.147	2.64
320.515	2.65
320.883	2.59
321.252	2.76
321.62	2.65
321.988	2.76
322.357	2.79
322.725	2.86
323.093	2.95
323.461	2.87
323.829	2.81
324.197	2.88
324.565	2.76
324.933	2.84
325.301	2.91
325.669	2.93
326.037	2.86
326.405	2.93
326.772	2.88
327.14	2.84
327.508	2.83
327.875	2.72
328.243	2.74
328.61	2.79
328.978	2.74
329.346	2.85
329.713	2.76
330.08	2.87
330.448	2.69
330.815	2.59
331.182	2.67
331.55	2.79
331.917	2.68
332.284	2.82
332.651	2.79
333.018	2.81
333.385	2.73
333.752	2.74
334.119	2.84
334.486	2.9
334.853	2.85
335.22	2.8
335.587	2.82
335.954	2.8
336.32	2.65
336.687	2.53
337.054	2.52
337.42	2.54
337.787	2.45
338.153	2.5
338.52	2.56
338.886	2.39
339.253	2.24
339.619	2.28
339.986	2.16
340.352	2.21
340.718	2.13
341.084	2.17
341.451	2.12
341.817	2.03
342.183	2.01
342.549	2.09
342.915	2.15
343.281	2.15
343.647	2.11
344.013	2.26
344.379	2.29
344.745	2.26
345.11	2.27
345.476	2.23
345.842	2.28
346.208	2.27
346.573	2.38
346.939	2.54
347.304	2.54
347.67	2.48
348.035	2.41
348.401	2.41
348.766	2.39
349.132	2.51
349.497	2.49
349.862	2.56
350.228	2.53
350.593	2.54
350.958	2.58
351.323	2.59
351.688	2.49
352.053	2.53
352.418	2.53
352.783	2.61
353.148	2.57
353.513	2.55
353.878	2.48
354.243	2.55
354.608	2.45
354.972	2.43
355.337	2.44
355.702	2.46
356.066	2.56
356.431	2.59
356.795	2.58
357.16	2.55
357.524	2.45
357.889	2.4
358.253	2.44
358.618	2.41
358.982	2.46
359.346	2.43
359.71	2.46
360.075	2.49
360.439	2.5
360.803	2.52
361.167	2.54
361.531	2.56
361.895	2.53
362.259	2.52
362.623	2.5
362.987	2.55
363.351	2.58
363.714	2.56
364.078	2.56
364.442	2.45
364.806	2.53
365.169	2.54
365.533	2.55
365.896	2.54
366.26	2.52
366.623	2.5
366.987	2.57
367.35	2.55
367.714	2.58
368.077	2.53
368.44	2.55
368.803	2.5
369.167	2.5
369.53	2.46
369.893	2.49
370.256	2.55
370.619	2.56
370.982	2.52
371.345	2.53
371.708	2.52
372.071	2.56
372.434	2.52
372.797	2.53
373.159	2.54
373.522	2.55
373.885	2.63
374.247	2.66
374.61	2.65
374.973	2.65
375.335	2.68
375.698	2.72
376.06	2.69
376.423	2.76
376.785	2.77
377.147	2.83
377.51	2.86
377.872	2.89
378.234	2.92
378.596	2.95
378.958	2.88
379.321	2.88
379.683	2.93
380.045	2.91
380.407	2.93
380.769	2.94
381.13	2.92
381.492	2.9
381.854	2.92
382.216	2.91
382.578	2.92
382.939	2.88
383.301	2.87
383.663	2.9
384.024	2.83
384.386	2.81
384.747	2.82
385.109	2.82
385.47	2.77
385.832	2.72
386.193	2.71
386.554	2.74
386.916	2.77
387.277	2.77
387.638	2.77
387.999	2.77
388.36	2.77
388.721	2.78
389.082	2.78
389.443	2.73
389.804	2.7
390.165	2.7
390.526	2.69
390.887	2.73
391.248	2.73
391.609	2.78
391.969	2.81
392.33	2.78
392.691	2.77
393.051	2.76
393.412	2.79
393.772	2.8
394.133	2.82
394.493	2.8
394.854	2.8
395.214	2.81
395.574	2.83
395.935	2.84
396.295	2.86
396.655	2.84
397.015	2.84
397.376	2.88
397.736	2.85
398.096	2.88
398.456	2.84
398.816	2.84
399.176	2.82
399.535	2.81
399.895	2.8
400.255	2.83
400.615	2.86
400.975	2.84
401.334	2.82
401.694	2.81
402.054	2.82
402.413	2.83
402.773	2.8
403.132	2.77
403.492	2.74
403.851	2.75
404.211	2.75
404.57	2.76
404.929	2.76
405.288	2.76
405.648	2.75
406.007	2.74
406.366	2.74
406.725	2.76
407.084	2.78
407.443	2.79
407.802	2.76
408.161	2.74
408.52	2.72
408.879	2.73
409.238	2.75
409.596	2.75
409.955	2.73
410.314	2.78
410.673	2.76
411.031	2.78
411.39	2.73
411.748	2.74
412.107	2.73
412.465	2.73
412.824	2.72
413.182	2.68
413.54	2.69
413.899	2.72
414.257	2.73
414.615	2.7
414.974	2.71
415.332	2.71
415.69	2.72
416.048	2.72
416.406	2.74
416.764	2.73
417.122	2.72
417.48	2.73
417.838	2.72
418.195	2.71
418.553	2.73
418.911	2.74
419.269	2.74
419.626	2.75
419.984	2.75
420.342	2.76
420.699	2.78
421.057	2.78
421.414	2.76
421.772	2.76
422.129	2.75
422.486	2.74
422.844	2.75
423.201	2.76
423.558	2.76
423.915	2.77
424.273	2.78
424.63	2.78
424.987	2.77
425.344	2.76
425.701	2.78
426.058	2.78
426.415	2.78
426.772	2.79
427.128	2.79
427.485	2.8
427.842	2.81
428.199	2.8
428.555	2.8
428.912	2.81
429.269	2.83
429.625	2.84
429.982	2.85
430.338	2.84
430.695	2.85
431.051	2.84
431.407	2.84
431.764	2.81
432.12	2.8
432.476	2.8
432.832	2.8
433.189	2.79
433.545	2.79
433.901	2.77
434.257	2.76
434.613	2.77
434.969	2.74
435.325	2.74
435.681	2.76
436.036	2.74
436.392	2.74
436.748	2.73
437.104	2.72
437.459	2.72
437.815	2.73
438.171	2.73
438.526	2.73
438.882	2.73
439.237	2.75
439.593	2.75
439.948	2.75
440.304	2.75
440.659	2.74
441.014	2.75
441.369	2.75
441.725	2.77
442.08	2.78
442.435	2.8
442.79	2.79
443.145	2.79
443.5	2.79
443.855	2.77
444.21	2.78
444.565	2.8
444.92	2.82
445.275	2.8
445.629	2.79
445.984	2.78
446.339	2.77
446.693	2.76
447.048	2.76
447.403	2.75
447.757	2.75
448.112	2.75
448.466	2.75
448.82	2.75
449.175	2.74
449.529	2.72
449.883	2.71
450.238	2.69
450.592	2.69
450.946	2.69
451.3	2.71
451.654	2.7
452.008	2.69
452.362	2.64
452.716	2.66
453.07	2.67
453.424	2.67
453.778	2.68
454.132	2.66
454.486	2.67
454.839	2.69
455.193	2.71
455.547	2.7
455.9	2.7
456.254	2.7
456.607	2.72
456.961	2.72
457.314	2.72
457.668	2.73
458.021	2.74
458.375	2.75
458.728	2.75
459.081	2.74
459.434	2.72
459.787	2.74
460.141	2.72
460.494	2.74
460.847	2.75
461.2	2.75
461.553	2.76
461.906	2.76
462.259	2.77
462.611	2.77
462.964	2.8
463.317	2.8
463.67	2.81
464.022	2.81
464.375	2.81
464.728	2.81
465.08	2.82
465.433	2.83
465.785	2.84
466.138	2.83
466.49	2.84
466.843	2.85
467.195	2.85
467.547	2.87
467.899	2.86
468.252	2.85
468.604	2.84
468.956	2.82
469.308	2.82
469.66	2.8
470.012	2.8
470.364	2.77
470.716	2.76
471.068	2.77
471.42	2.77
471.772	2.76
472.123	2.77
472.475	2.77
472.827	2.77
473.178	2.77
473.53	2.78
473.882	2.79
474.233	2.81
474.585	2.77
474.936	2.76
475.288	2.75
475.639	2.78
475.99	2.78
476.342	2.8
476.693	2.84
477.044	2.86
477.395	2.88
477.746	2.88
478.097	2.88
478.448	2.87
478.8	2.86
479.15	2.87
479.501	2.88
479.852	2.88
480.203	2.87
480.554	2.87
480.905	2.86
481.255	2.87
481.606	2.87
481.957	2.88
482.307	2.89
482.658	2.89
483.009	2.89
483.359	2.88
483.709	2.89
484.06	2.88
484.41	2.88
484.761	2.88
485.111	2.89
485.461	2.89
485.811	2.89
486.162	2.89
486.512	2.9
486.862	2.89
487.212	2.88
487.562	2.89
487.912	2.9
488.262	2.9
488.612	2.89
488.961	2.89
489.311	2.9
489.661	2.9
490.011	2.91
490.36	2.91
490.71	2.92
491.06	2.92
491.409	2.92
491.759	2.91
492.108	2.91
492.458	2.9
492.807	2.9
493.157	2.9
493.506	2.91
493.855	2.9
494.204	2.91
494.554	2.91
494.903	2.9
495.252	2.89
495.601	2.9
495.95	2.91
496.299	2.89
496.648	2.9
496.997	2.9
497.346	2.89
497.695	2.9
498.043	2.9
498.392	2.9
498.741	2.91
499.09	2.89
499.438	2.91
499.787	2.93
500.135	2.94
500.484	2.95
500.832	2.95
501.181	2.97
501.529	2.96
501.878	2.97
502.226	2.99
502.574	3
502.923	2.98
503.271	2.98
503.619	3
503.967	3.01
504.315	3.01
504.663	3.02
505.011	3.02
505.359	3.01
505.707	3.03
506.055	3.05
506.403	3.06
506.751	3.05
507.098	3.03
507.446	3.04
507.794	3.01
508.141	3.01
508.489	2.99
508.837	3.01
509.184	3
509.531	2.99
509.879	3.01
510.226	3.04
510.574	3.05
510.921	3.06
511.268	3.06
511.616	3.06
511.963	3.06
512.31	3.06
512.657	3.09
513.004	3.08
513.351	3.07
513.698	3.07
514.045	3.09
514.392	3.12
514.739	3.11
515.086	3.14
515.432	3.15
515.779	3.15
516.126	3.17
516.473	3.17
516.819	3.19
517.166	3.19
517.512	3.16
517.859	3.15
518.205	3.14
518.552	3.14
518.898	3.13
519.245	3.12
519.591	3.14
519.937	3.12
520.283	3.13
520.629	3.12
520.976	3.12
521.322	3.12
521.668	3.1
522.014	3.1
522.36	3.11
522.706	3.09
523.052	3.09
523.398	3.11
523.743	3.11
524.089	3.1
524.435	3.1
524.781	3.12
525.126	3.13
525.472	3.14
525.817	3.15
526.163	3.17
526.509	3.17
526.854	3.16
527.199	3.17
527.545	3.17
527.89	3.17
528.235	3.16
528.581	3.17
528.926	3.18
529.271	3.18
529.616	3.17
529.961	3.18
530.306	3.19
530.651	3.17
530.996	3.17
531.341	3.17
531.686	3.17
532.031	3.18
532.376	3.17
532.721	3.18
533.065	3.17
533.41	3.18
533.755	3.18
534.099	3.19
534.444	3.18
534.788	3.2
535.133	3.2
535.477	3.21
535.822	3.2
536.166	3.21
536.51	3.22
536.855	3.22
537.199	3.23
537.543	3.23
537.887	3.24
538.231	3.24
538.576	3.24
538.92	3.25
539.264	3.25
539.608	3.25
539.951	3.24
540.295	3.25
540.639	3.25
540.983	3.27
541.327	3.27
541.671	3.26
542.014	3.25
542.358	3.26
542.701	3.26
543.045	3.27
543.389	3.27
543.732	3.26
544.075	3.27
544.419	3.27
544.762	3.26
545.105	3.27
545.449	3.26
545.792	3.27
546.135	3.26
546.478	3.27
546.821	3.26
547.165	3.24
547.508	3.24
547.851	3.25
548.194	3.23
548.536	3.24
548.879	3.27
549.222	3.26
549.565	3.27
549.908	3.28
550.25	3.29
550.593	3.3
550.936	3.3
551.278	3.28
551.621	3.31
551.963	3.35
552.306	3.33
552.648	3.34
552.991	3.35
553.333	3.35
553.675	3.34
554.017	3.37
554.36	3.39
554.702	3.4
555.044	3.33
555.386	3.34
555.728	3.34
556.07	3.34
556.412	3.34
556.754	3.32
557.096	3.31
557.438	3.3
557.78	3.31
558.121	3.3
558.463	3.34
558.805	3.34
559.147	3.31
559.488	3.29
559.83	3.31
560.171	3.27
560.513	3.27
560.854	3.27
561.196	3.26
561.537	3.26
561.878	3.26
562.22	3.29
562.561	3.31
562.902	3.3
563.243	3.28
563.584	3.26
563.925	3.28
564.266	3.28
564.607	3.28
564.948	3.27
565.289	3.27
565.63	3.27
565.971	3.22
566.312	3.22
566.653	3.25
566.993	3.23
567.334	3.27
567.675	3.27
568.015	3.29
568.356	3.3
568.696	3.32
569.037	3.34
569.377	3.35
569.718	3.36
570.058	3.36
570.398	3.38
570.739	3.4
571.079	3.4
571.419	3.42
571.759	3.42
572.099	3.43
572.439	3.42
572.779	3.43
573.119	3.47
573.459	3.48
573.799	3.48
574.139	3.49
574.479	3.48
574.819	3.47
575.158	3.44
575.498	3.42
575.838	3.41
576.177	3.38
576.517	3.37
576.856	3.38
577.196	3.38
577.535	3.37
577.875	3.35
578.214	3.33
578.553	3.31
578.893	3.3
579.232	3.27
579.571	3.3
579.91	3.3
580.25	3.26
580.589	3.28
580.928	3.29
581.267	3.28
581.606	3.29
581.945	3.31
582.283	3.34
582.622	3.35
582.961	3.38
583.3	3.41
583.639	3.41
583.977	3.42
584.316	3.44
584.654	3.46
584.993	3.5
585.332	3.52
585.67	3.5
586.008	3.54
586.347	3.55
586.685	3.5
587.024	3.47
587.362	3.47
587.7	3.45
588.038	3.46
588.376	3.48
588.715	3.48
589.053	3.5
589.391	3.51
589.729	3.52
590.067	3.49
590.404	3.49
590.742	3.5
591.08	3.47
591.418	3.47
591.756	3.45
592.093	3.45
592.431	3.47
592.769	3.5
593.106	3.47
593.444	3.45
593.781	3.48
594.119	3.51
594.456	3.52
594.793	3.53
595.131	3.49
595.468	3.5
595.805	3.49
596.143	3.49
596.48	3.48
596.817	3.46
597.154	3.47
597.491	3.47
597.828	3.45
598.165	3.46
598.502	3.44
598.839	3.46
599.176	3.42
599.512	3.39
599.849	3.37
600.186	3.34
600.523	3.38
600.859	3.4
601.196	3.39
601.532	3.37
601.869	3.35
602.205	3.36
602.542	3.35
602.878	3.37
603.215	3.36
603.551	3.38
603.887	3.4
604.223	3.4
604.56	3.42
604.896	3.44
605.232	3.47
605.568	3.46
605.904	3.44
606.24	3.52
606.576	3.53
606.912	3.53
607.248	3.55
607.583	3.55
607.919	3.56
608.255	3.54
608.591	3.56
608.926	3.6
609.262	3.61
609.597	3.62
609.933	3.62
610.268	3.6
610.604	3.59
610.939	3.6
611.275	3.58
611.61	3.55
611.945	3.53
612.281	3.5
612.616	3.51
612.951	3.55
613.286	3.49
613.621	3.49
613.956	3.49
614.291	3.54
614.626	3.53
614.961	3.49
615.296	3.53
615.631	3.5
615.966	3.52
616.3	3.55
616.635	3.5
616.97	3.51
617.304	3.53
617.639	3.52
617.973	3.48
618.308	3.48
618.642	3.47
618.977	3.45
619.311	3.43
619.646	3.43
619.98	3.38
620.314	3.42
620.648	3.43
620.983	3.44
621.317	3.45
621.651	3.43
621.985	3.46
622.319	3.46
622.653	3.49
622.987	3.46
623.321	3.44
623.655	3.47
623.988	3.49
624.322	3.46
624.656	3.45
624.99	3.47
625.323	3.52
625.657	3.57
625.99	3.61
626.324	3.63
626.657	3.64
626.991	3.64
627.324	3.61
627.658	3.58
627.991	3.6
628.324	3.58
628.657	3.63
628.991	3.62
629.324	3.65
629.657	3.67
629.99	3.71
630.323	3.7
630.656	3.71
630.989	3.73
631.322	3.77
631.655	3.8
631.987	3.83
632.32	3.75
632.653	3.71
632.986	3.7
633.318	3.73
633.651	3.7
633.984	3.75
634.316	3.76
634.649	3.76
634.981	3.74
635.313	3.74
635.646	3.72
635.978	3.76
636.31	3.73
636.643	3.69
636.975	3.68
637.307	3.68
637.639	3.7
637.971	3.66
638.303	3.65
638.635	3.62
638.967	3.59
639.299	3.69
639.631	3.65
639.963	3.63
640.295	3.61
640.626	3.63
640.958	3.63
641.29	3.66
641.621	3.64
641.953	3.63
642.285	3.68
642.616	3.67
642.948	3.61
643.279	3.55
643.61	3.62
643.942	3.6
644.273	3.58
644.604	3.59
644.936	3.55
645.267	3.58
645.598	3.6
645.929	3.58
646.26	3.53
646.591	3.6
646.922	3.63
647.253	3.61
647.584	3.65
647.915	3.63
648.245	3.59
648.576	3.63
648.907	3.68
649.238	3.63
649.568	3.67
649.899	3.71
650.229	3.77
650.56	3.69
650.89	3.75
651.221	3.77
651.551	3.71
651.882	3.74
652.212	3.72
652.542	3.71
652.872	3.73
653.203	3.67
653.533	3.7
653.863	3.74
654.193	3.75
654.523	3.69
654.853	3.76
655.183	3.81
655.513	3.81
655.843	3.74
656.172	3.74
656.502	3.75
656.832	3.71
657.162	3.72
657.491	3.76
657.821	3.72
658.15	3.73
658.48	3.74
658.809	3.74
659.139	3.72
659.468	3.7
659.798	3.74
660.127	3.8
660.456	3.77
660.785	3.76
661.115	3.71
661.444	3.74
661.773	3.69
662.102	3.68
662.431	3.71
662.76	3.74
663.089	3.74
663.418	3.67
663.747	3.7
664.076	3.7
664.404	3.68
664.733	3.7
665.062	3.74
665.39	3.83
665.719	3.82
666.048	3.89
666.376	3.9
666.705	3.84
667.033	3.86
667.362	3.88
667.69	3.81
668.018	3.91
668.347	3.91
668.675	3.93
669.003	3.96
669.331	4.01
669.659	4.02
669.987	4.02
670.315	4.11
670.643	4.1
670.971	4.14
671.299	4.18
671.627	4.18
671.955	4.13
672.283	4.12
672.61	4.08
672.938	4.1
673.266	4.23
673.593	4.31
673.921	4.22
674.249	4.21
674.576	4.21
674.904	4.14
675.231	4.11
675.558	4.03
675.886	3.98
676.213	3.89
676.54	3.91
676.867	3.93
677.195	3.88
