Data from BA28301_Reflection_00008.txt Node
Date: Mon Nov 18 15:45:15 EST 2019
User: vgr7
Spectrometer: USB2G7710
Scans to average: 3
Trigger mode: 4
Integration Time (sec): 2.000000E-2
Electric dark correction enabled: true
Boxcar width: 10
XAxis mode: Wavelengths
Number of Pixels in Spectrum: 2048
>>>>>Begin Spectral Data<<<<<
177.721	121.2
178.105	1385.71
178.488	266.31
178.871	-15.69
179.254	157.42
179.636	278.32
180.019	118.13
180.402	355.56
180.785	282.51
181.168	417.8
181.55	218.98
181.933	109.97
182.316	165.18
182.698	150.88
183.081	133.26
183.463	150.21
183.846	111.34
184.228	113.16
184.611	119.95
184.993	124.51
185.376	151.32
185.758	258.07
186.14	353.08
186.522	491.55
186.904	-527.35
187.287	2520.17
187.669	-405.69
188.051	-546.37
188.433	-292.6
188.815	-476.71
189.197	-1171.89
189.579	-333.55
189.961	-464.4
190.342	-688.5
190.724	-412.52
191.106	-253.6
191.488	-355.32
191.869	-159.99
192.251	-136.04
192.633	-204.71
193.014	-443.45
193.396	-485.18
193.777	-1115.95
194.159	-4488.24
194.54	-871.55
194.922	-801.61
195.303	-1394.81
195.684	1467.78
196.065	-897.81
196.447	27982.35
196.828	-1440.79
197.209	-651.19
197.59	-3321.49
197.971	-6227.27
198.352	-531.08
198.733	-290.77
199.114	-580.53
199.495	-183.96
199.876	-234.7
200.257	-180.59
200.638	-82.44
201.018	-59.13
201.399	-36.51
201.78	-21.48
202.16	-44.42
202.541	-38.05
202.922	-28.55
203.302	-42.26
203.683	-40.74
204.063	-105.29
204.444	-86.17
204.824	-34.53
205.204	-56.84
205.585	-75.67
205.965	-83.05
206.345	-157.21
206.725	-546.15
207.106	5953.66
207.486	267.97
207.866	271.13
208.246	290.64
208.626	493.97
209.006	623.31
209.386	352.4
209.766	288
210.145	223.14
210.525	351.22
210.905	753.12
211.285	97300
211.664	-4138.53
212.044	1409.09
212.424	-559.13
212.803	-281.3
213.183	-396.38
213.562	-209.92
213.942	-131.7
214.321	-102.43
214.701	-90.42
215.08	-52.81
215.459	-54.4
215.838	-36.43
216.218	-44.26
216.597	-28.16
216.976	-38.31
217.355	-22.21
217.734	-14.63
218.113	-24.68
218.492	-19.49
218.871	-18.71
219.25	-18.09
219.629	-11.69
220.008	-18.2
220.387	-16.2
220.766	-17.37
221.144	-10.14
221.523	-8.18
221.902	-21.22
222.28	-18.6
222.659	-13.62
223.037	-21.08
223.416	-25.65
223.794	-26.53
224.173	-24.6
224.551	-26.37
224.929	-26.22
225.308	-26.25
225.686	-23.89
226.064	-16.66
226.442	-15.79
226.821	-16.38
227.199	-15.52
227.577	-18.08
227.955	-17.73
228.333	-17.97
228.711	-14.87
229.089	-11.72
229.467	-12.8
229.845	-10.34
230.222	-9.19
230.6	-9.48
230.978	-9.17
231.356	-3.57
231.733	-4.25
232.111	-3.16
232.488	-2.21
232.866	1.1
233.243	1.15
233.621	0.74
233.998	1.34
234.376	1.32
234.753	3.06
235.13	2.69
235.508	4.14
235.885	3.74
236.262	2.9
236.639	3.35
237.016	1.82
237.393	2.7
237.77	1.95
238.147	2.16
238.524	2.24
238.901	2.8
239.278	2.25
239.655	3.41
240.032	3.45
240.409	2.82
240.785	2.05
241.162	1.99
241.539	2.46
241.915	2.03
242.292	1.76
242.668	1.67
243.045	2
243.421	1.81
243.798	1.94
244.174	1.69
244.551	1.66
244.927	1.69
245.303	1.82
245.679	2.29
246.056	2.13
246.432	2.14
246.808	2.09
247.184	2.01
247.56	1.72
247.936	1.78
248.312	1.84
248.688	1.79
249.064	1.72
249.44	1.68
249.815	1.87
250.191	2.06
250.567	2.08
250.943	2.02
251.318	1.96
251.694	2.07
252.069	2.2
252.445	1.99
252.82	2.08
253.196	1.99
253.571	1.53
253.947	1.79
254.322	1.99
254.697	1.96
255.073	1.88
255.448	1.96
255.823	2.09
256.198	2.32
256.573	2.46
256.948	2.63
257.323	2.78
257.698	2.79
258.073	2.8
258.448	2.77
258.823	2.78
259.198	2.95
259.573	2.86
259.948	2.9
260.322	2.96
260.697	2.93
261.072	2.81
261.446	2.92
261.821	2.79
262.195	2.73
262.57	2.77
262.944	2.74
263.319	2.69
263.693	2.6
264.067	2.68
264.442	2.86
264.816	2.94
265.19	2.69
265.564	2.67
265.938	2.63
266.313	2.64
266.687	2.58
267.061	2.65
267.435	2.71
267.809	2.84
268.183	2.94
268.556	2.79
268.93	2.93
269.304	2.97
269.678	3.22
270.051	3.13
270.425	3.15
270.799	3.28
271.172	3.34
271.546	3.32
271.919	3.23
272.293	3.05
272.666	3.06
273.04	3.14
273.413	3.03
273.787	3.01
274.16	3.01
274.533	2.99
274.906	2.98
275.279	3.02
275.653	2.94
276.026	2.97
276.399	3.08
276.772	3.12
277.145	2.93
277.518	2.72
277.891	2.73
278.263	2.65
278.636	2.57
279.009	2.58
279.382	2.65
279.755	2.62
280.127	2.67
280.5	2.54
280.872	2.65
281.245	2.59
281.617	2.66
281.99	2.69
282.362	2.78
282.735	2.63
283.107	2.63
283.479	2.68
283.852	2.62
284.224	2.71
284.596	2.74
284.968	2.87
285.34	2.95
285.713	2.93
286.085	3
286.457	3.13
286.829	3.14
287.201	3.14
287.572	3.16
287.944	3.07
288.316	3.09
288.688	3.04
289.06	3.14
289.431	3.13
289.803	3.1
290.175	3.18
290.546	3.32
290.918	3.38
291.289	3.33
291.661	3.43
292.032	3.37
292.403	3.28
292.775	3.32
293.146	3.24
293.517	3.27
293.889	3.32
294.26	3.18
294.631	3.15
295.002	3.14
295.373	3.09
295.744	3.25
296.115	3.31
296.486	3.21
296.857	3.2
297.228	3.33
297.599	3.38
297.97	3.27
298.34	3.23
298.711	3.23
299.082	3.21
299.452	3.23
299.823	3.25
300.194	3.3
300.564	3.28
300.935	3.37
301.305	3.38
301.676	3.46
302.046	3.49
302.416	3.7
302.787	3.77
303.157	3.85
303.527	3.88
303.897	3.91
304.267	4.2
304.637	4.26
305.008	4.2
305.378	4.13
305.748	4.19
306.117	4.18
306.487	4.33
306.857	4.57
307.227	4.52
307.597	4.57
307.967	4.78
308.336	4.8
308.706	4.78
309.076	4.86
309.445	4.75
309.815	4.76
310.184	4.71
310.554	4.75
310.923	4.78
311.293	4.79
311.662	4.79
312.031	4.56
312.401	4.66
312.77	4.67
313.139	4.81
313.508	4.92
313.877	4.87
314.246	4.81
314.616	4.77
314.985	4.78
315.353	4.75
315.722	4.62
316.091	4.69
316.46	4.72
316.829	4.76
317.198	4.9
317.567	5
317.935	5.07
318.304	5.05
318.672	5.07
319.041	5.2
319.41	5.2
319.778	5.45
320.147	5.57
320.515	5.45
320.883	5.55
321.252	5.68
321.62	5.91
321.988	5.93
322.357	5.98
322.725	6.08
323.093	6.24
323.461	6.17
323.829	6.28
324.197	6.38
324.565	6.34
324.933	6.26
325.301	6.37
325.669	6.35
326.037	6.38
326.405	6.46
326.772	6.53
327.14	6.62
327.508	6.65
327.875	6.45
328.243	6.7
328.61	6.62
328.978	6.57
329.346	6.53
329.713	6.59
330.08	6.56
330.448	6.54
330.815	6.37
331.182	6.58
331.55	6.57
331.917	6.66
332.284	6.86
332.651	6.99
333.018	6.91
333.385	6.98
333.752	6.97
334.119	7.01
334.486	6.85
334.853	6.89
335.22	6.85
335.587	7.03
335.954	6.9
336.32	6.9
336.687	7.01
337.054	7.06
337.42	7.08
337.787	7.15
338.153	7.18
338.52	7.38
338.886	7.3
339.253	7.38
339.619	7.36
339.986	7.36
340.352	7.48
340.718	7.59
341.084	7.54
341.451	7.65
341.817	7.72
342.183	7.8
342.549	7.75
342.915	7.8
343.281	7.88
343.647	7.92
344.013	8.06
344.379	7.97
344.745	8.09
345.11	8.15
345.476	8.18
345.842	8.23
346.208	8.22
346.573	8.34
346.939	8.34
347.304	8.44
347.67	8.47
348.035	8.39
348.401	8.35
348.766	8.41
349.132	8.5
349.497	8.41
349.862	8.53
350.228	8.65
350.593	8.67
350.958	8.52
351.323	8.71
351.688	8.68
352.053	8.73
352.418	8.71
352.783	8.74
353.148	8.72
353.513	8.73
353.878	8.71
354.243	8.75
354.608	8.83
354.972	8.71
355.337	8.75
355.702	8.78
356.066	8.84
356.431	8.85
356.795	8.73
357.16	8.76
357.524	8.62
357.889	8.6
358.253	8.68
358.618	8.71
358.982	8.54
359.346	8.51
359.71	8.47
360.075	8.39
360.439	8.35
360.803	8.31
361.167	8.3
361.531	8.36
361.895	8.29
362.259	8.17
362.623	8.17
362.987	8.07
363.351	8.11
363.714	8.12
364.078	8.08
364.442	8.07
364.806	7.99
365.169	8.02
365.533	7.96
365.896	7.87
366.26	7.9
366.623	7.93
366.987	7.89
367.35	7.88
367.714	7.84
368.077	7.79
368.44	7.78
368.803	7.71
369.167	7.61
369.53	7.53
369.893	7.52
370.256	7.56
370.619	7.52
370.982	7.33
371.345	7.25
371.708	7.21
372.071	7.17
372.434	7.16
372.797	7.16
373.159	7.08
373.522	7.05
373.885	7.03
374.247	7.01
374.61	7
374.973	6.92
375.335	6.94
375.698	6.95
376.06	6.86
376.423	6.85
376.785	6.83
377.147	6.81
377.51	6.76
377.872	6.65
378.234	6.62
378.596	6.61
378.958	6.52
379.321	6.5
379.683	6.45
380.045	6.42
380.407	6.37
380.769	6.37
381.13	6.31
381.492	6.23
381.854	6.18
382.216	6.12
382.578	6.13
382.939	6.05
383.301	5.95
383.663	5.89
384.024	5.83
384.386	5.82
384.747	5.76
385.109	5.74
385.47	5.7
385.832	5.68
386.193	5.65
386.554	5.65
386.916	5.62
387.277	5.62
387.638	5.57
387.999	5.5
388.36	5.46
388.721	5.46
389.082	5.42
389.443	5.36
389.804	5.34
390.165	5.28
390.526	5.28
390.887	5.26
391.248	5.31
391.609	5.27
391.969	5.21
392.33	5.21
392.691	5.18
393.051	5.17
393.412	5.15
393.772	5.11
394.133	5.09
394.493	5.05
394.854	5.01
395.214	4.98
395.574	4.95
395.935	4.9
396.295	4.85
396.655	4.8
397.015	4.77
397.376	4.68
397.736	4.65
398.096	4.61
398.456	4.59
398.816	4.54
399.176	4.51
399.535	4.5
399.895	4.46
400.255	4.41
400.615	4.36
400.975	4.35
401.334	4.32
401.694	4.29
402.054	4.27
402.413	4.2
402.773	4.18
403.132	4.17
403.492	4.14
403.851	4.11
404.211	4.08
404.57	4.02
404.929	4.05
405.288	4.04
405.648	4.01
406.007	4.02
406.366	3.98
406.725	4.04
407.084	4.02
407.443	3.99
407.802	4.01
408.161	3.98
408.52	3.93
408.879	3.91
409.238	3.88
409.596	3.87
409.955	3.89
410.314	3.87
410.673	3.85
411.031	3.86
411.39	3.85
411.748	3.88
412.107	3.92
412.465	3.9
412.824	3.91
413.182	3.87
413.54	3.82
413.899	3.84
414.257	3.77
414.615	3.76
414.974	3.77
415.332	3.72
415.69	3.71
416.048	3.7
416.406	3.7
416.764	3.67
417.122	3.65
417.48	3.6
417.838	3.6
418.195	3.58
418.553	3.57
418.911	3.55
419.269	3.53
419.626	3.51
419.984	3.49
420.342	3.47
420.699	3.44
421.057	3.42
421.414	3.4
421.772	3.39
422.129	3.38
422.486	3.37
422.844	3.36
423.201	3.33
423.558	3.32
423.915	3.31
424.273	3.32
424.63	3.3
424.987	3.29
425.344	3.28
425.701	3.27
426.058	3.26
426.415	3.27
426.772	3.25
427.128	3.22
427.485	3.22
427.842	3.18
428.199	3.22
428.555	3.23
428.912	3.23
429.269	3.23
429.625	3.23
429.982	3.2
430.338	3.2
430.695	3.22
431.051	3.22
431.407	3.2
431.764	3.19
432.12	3.21
432.476	3.2
432.832	3.19
433.189	3.2
433.545	3.18
433.901	3.17
434.257	3.18
434.613	3.2
434.969	3.19
435.325	3.22
435.681	3.21
436.036	3.2
436.392	3.19
436.748	3.17
437.104	3.16
437.459	3.15
437.815	3.14
438.171	3.14
438.526	3.15
438.882	3.16
439.237	3.16
439.593	3.14
439.948	3.15
440.304	3.14
440.659	3.15
441.014	3.15
441.369	3.14
441.725	3.13
442.08	3.12
442.435	3.12
442.79	3.1
443.145	3.1
443.5	3.11
443.855	3.1
444.21	3.1
444.565	3.09
444.92	3.11
445.275	3.11
445.629	3.11
445.984	3.1
446.339	3.09
446.693	3.06
447.048	3.06
447.403	3.04
447.757	3.04
448.112	3
448.466	3.01
448.82	2.99
449.175	3.01
449.529	2.99
449.883	2.97
450.238	2.96
450.592	2.97
450.946	2.95
451.3	2.94
451.654	2.94
452.008	2.95
452.362	2.93
452.716	2.94
453.07	2.93
453.424	2.94
453.778	2.96
454.132	2.98
454.486	2.98
454.839	2.99
455.193	2.98
455.547	2.98
455.9	2.99
456.254	3.03
456.607	3.02
456.961	3.03
457.314	3.04
457.668	3.05
458.021	3.02
458.375	3.03
458.728	3.03
459.081	3.03
459.434	3.03
459.787	3.03
460.141	3.01
460.494	3.02
460.847	3.02
461.2	3.01
461.553	3.02
461.906	3.03
462.259	3.05
462.611	3.07
462.964	3.09
463.317	3.09
463.67	3.06
464.022	3.06
464.375	3.06
464.728	3.07
465.08	3.1
465.433	3.12
465.785	3.11
466.138	3.1
466.49	3.11
466.843	3.11
467.195	3.11
467.547	3.13
467.899	3.12
468.252	3.12
468.604	3.1
468.956	3.11
469.308	3.1
469.66	3.08
470.012	3.08
470.364	3.07
470.716	3.08
471.068	3.12
471.42	3.1
471.772	3.12
472.123	3.12
472.475	3.11
472.827	3.12
473.178	3.13
473.53	3.14
473.882	3.14
474.233	3.15
474.585	3.13
474.936	3.13
475.288	3.13
475.639	3.13
475.99	3.14
476.342	3.12
476.693	3.11
477.044	3.14
477.395	3.13
477.746	3.15
478.097	3.12
478.448	3.11
478.8	3.12
479.15	3.1
479.501	3.1
479.852	3.09
480.203	3.09
480.554	3.09
480.905	3.1
481.255	3.1
481.606	3.11
481.957	3.12
482.307	3.12
482.658	3.13
483.009	3.13
483.359	3.13
483.709	3.15
484.06	3.16
484.41	3.17
484.761	3.17
485.111	3.17
485.461	3.19
485.811	3.19
486.162	3.19
486.512	3.2
486.862	3.21
487.212	3.22
487.562	3.22
487.912	3.23
488.262	3.23
488.612	3.23
488.961	3.24
489.311	3.25
489.661	3.25
490.011	3.26
490.36	3.27
490.71	3.28
491.06	3.28
491.409	3.28
491.759	3.28
492.108	3.28
492.458	3.29
492.807	3.29
493.157	3.31
493.506	3.34
493.855	3.36
494.204	3.37
494.554	3.39
494.903	3.39
495.252	3.41
495.601	3.44
495.95	3.47
496.299	3.47
496.648	3.49
496.997	3.53
497.346	3.58
497.695	3.62
498.043	3.65
498.392	3.69
498.741	3.72
499.09	3.75
499.438	3.82
499.787	3.84
500.135	3.87
500.484	3.9
500.832	3.94
501.181	3.99
501.529	4.01
501.878	4.07
502.226	4.14
502.574	4.19
502.923	4.23
503.271	4.27
503.619	4.35
503.967	4.42
504.315	4.46
504.663	4.47
505.011	4.52
505.359	4.56
505.707	4.63
506.055	4.68
506.403	4.74
506.751	4.78
507.098	4.83
507.446	4.91
507.794	4.96
508.141	5.01
508.489	5.06
508.837	5.12
509.184	5.19
509.531	5.27
509.879	5.35
510.226	5.43
510.574	5.51
510.921	5.58
511.268	5.62
511.616	5.7
511.963	5.79
512.31	5.85
512.657	5.92
513.004	5.98
513.351	6.07
513.698	6.15
514.045	6.24
514.392	6.34
514.739	6.42
515.086	6.53
515.432	6.61
515.779	6.69
516.126	6.78
516.473	6.86
516.819	6.92
517.166	7
517.512	7.06
517.859	7.14
518.205	7.2
518.552	7.29
518.898	7.35
519.245	7.39
519.591	7.49
519.937	7.58
520.283	7.68
520.629	7.78
520.976	7.88
521.322	7.98
521.668	8.09
522.014	8.18
522.36	8.29
522.706	8.41
523.052	8.55
523.398	8.71
523.743	8.86
524.089	9.02
524.435	9.17
524.781	9.29
525.126	9.42
525.472	9.56
525.817	9.67
526.163	9.78
526.509	9.9
526.854	9.99
527.199	10.09
527.545	10.19
527.89	10.29
528.235	10.39
528.581	10.48
528.926	10.58
529.271	10.7
529.616	10.8
529.961	10.91
530.306	11.02
530.651	11.14
530.996	11.27
531.341	11.4
531.686	11.53
532.031	11.68
532.376	11.83
532.721	11.98
533.065	12.14
533.41	12.32
533.755	12.49
534.099	12.69
534.444	12.86
534.788	13.03
535.133	13.2
535.477	13.38
535.822	13.56
536.166	13.75
536.51	14
536.855	14.24
537.199	14.5
537.543	14.76
537.887	15
538.231	15.25
538.576	15.52
538.92	15.77
539.264	16.03
539.608	16.28
539.951	16.52
540.295	16.73
540.639	16.96
540.983	17.18
541.327	17.37
541.671	17.56
542.014	17.79
542.358	17.99
542.701	18.21
543.045	18.45
543.389	18.68
543.732	18.88
544.075	19.12
544.419	19.33
544.762	19.57
545.105	19.85
545.449	20.09
545.792	20.35
546.135	20.64
546.478	20.94
546.821	21.23
547.165	21.51
547.508	21.85
547.851	22.14
548.194	22.44
548.536	22.79
548.879	23.13
549.222	23.42
549.565	23.76
549.908	24.08
550.25	24.41
550.593	24.71
550.936	25.01
551.278	25.35
551.621	25.68
551.963	25.97
552.306	26.25
552.648	26.56
552.991	26.88
553.333	27.16
553.675	27.46
554.017	27.76
554.36	28.1
554.702	28.39
555.044	28.64
555.386	28.91
555.728	29.15
556.07	29.47
556.412	29.79
556.754	30.09
557.096	30.43
557.438	30.75
557.78	31.11
558.121	31.48
558.463	31.75
558.805	32.08
559.147	32.41
559.488	32.73
559.83	33.04
560.171	33.3
560.513	33.6
560.854	33.85
561.196	34.17
561.537	34.42
561.878	34.66
562.22	34.98
562.561	35.25
562.902	35.51
563.243	35.78
563.584	36.01
563.925	36.24
564.266	36.46
564.607	36.66
564.948	36.89
565.289	37.16
565.63	37.4
565.971	37.55
566.312	37.72
566.653	37.95
566.993	38.2
567.334	38.42
567.675	38.61
568.015	38.84
568.356	39.02
568.696	39.23
569.037	39.44
569.377	39.61
569.718	39.84
570.058	40.06
570.398	40.24
570.739	40.44
571.079	40.64
571.419	40.83
571.759	41.05
572.099	41.21
572.439	41.31
572.779	41.44
573.119	41.67
573.459	41.88
573.799	42.04
574.139	42.14
574.479	42.32
574.819	42.51
575.158	42.66
575.498	42.88
575.838	43.05
576.177	43.18
576.517	43.38
576.856	43.48
577.196	43.59
577.535	43.73
577.875	43.87
578.214	43.99
578.553	44.1
578.893	44.22
579.232	44.38
579.571	44.53
579.91	44.7
580.25	44.89
580.589	45
580.928	45.1
581.267	45.25
581.606	45.35
581.945	45.45
582.283	45.6
582.622	45.66
582.961	45.77
583.3	45.92
583.639	46.1
583.977	46.28
584.316	46.43
584.654	46.58
584.993	46.71
585.332	46.82
585.67	46.98
586.008	47.06
586.347	47.11
586.685	47.2
587.024	47.35
587.362	47.41
587.7	47.45
588.038	47.59
588.376	47.75
588.715	47.86
589.053	47.93
589.391	47.98
589.729	48.12
590.067	48.2
590.404	48.24
590.742	48.27
591.08	48.34
591.418	48.41
591.756	48.51
592.093	48.55
592.431	48.72
592.769	48.81
593.106	48.93
593.444	49
593.781	49.1
594.119	49.08
594.456	49.12
594.793	49.25
595.131	49.3
595.468	49.35
595.805	49.45
596.143	49.46
596.48	49.55
596.817	49.56
597.154	49.6
597.491	49.69
597.828	49.78
598.165	49.91
598.502	50.04
598.839	50.09
599.176	50.24
599.512	50.23
599.849	50.33
600.186	50.4
600.523	50.51
600.859	50.51
601.196	50.65
601.532	50.68
601.869	50.78
602.205	50.81
602.542	50.82
602.878	50.86
603.215	51.05
603.551	51.08
603.887	51.06
604.223	51.12
604.56	51.2
604.896	51.19
605.232	51.22
605.568	51.21
605.904	51.27
606.24	51.24
606.576	51.37
606.912	51.41
607.248	51.47
607.583	51.48
607.919	51.53
608.255	51.56
608.591	51.68
608.926	51.68
609.262	51.74
609.597	51.85
609.933	51.93
610.268	51.91
610.604	52.02
610.939	52.12
611.275	52.14
611.61	52.17
611.945	52.27
612.281	52.33
612.616	52.36
612.951	52.41
613.286	52.5
613.621	52.46
613.956	52.48
614.291	52.54
614.626	52.61
614.961	52.66
615.296	52.64
615.631	52.65
615.966	52.72
616.3	52.7
616.635	52.68
616.97	52.65
617.304	52.68
617.639	52.72
617.973	52.8
618.308	52.84
618.642	52.86
618.977	52.7
619.311	52.69
619.646	52.72
619.98	52.71
620.314	52.74
620.648	52.74
620.983	52.78
621.317	52.71
621.651	52.78
621.985	52.85
622.319	52.99
622.653	53.1
622.987	53.01
623.321	53.07
623.655	53.1
623.988	53.16
624.322	53.19
624.656	53.15
624.99	53.14
625.323	53.2
625.657	53.22
625.99	53.36
626.324	53.37
626.657	53.36
626.991	53.38
627.324	53.38
627.658	53.44
627.991	53.47
628.324	53.51
628.657	53.53
628.991	53.54
629.324	53.53
629.657	53.53
629.99	53.55
630.323	53.61
630.656	53.52
630.989	53.48
631.322	53.53
631.655	53.56
631.987	53.61
632.32	53.64
632.653	53.66
632.986	53.75
633.318	53.76
633.651	53.83
633.984	53.87
634.316	53.86
634.649	53.81
634.981	53.85
635.313	53.95
635.646	53.97
635.978	53.99
636.31	53.96
636.643	53.97
636.975	54.15
637.307	54.14
637.639	54.26
637.971	54.23
638.303	54.18
638.635	54.11
638.967	54.12
639.299	54.11
639.631	54.08
639.963	54.02
640.295	54
640.626	54.05
640.958	54.12
641.29	54.22
641.621	54.27
641.953	54.26
642.285	54.23
642.616	54.3
642.948	54.31
643.279	54.41
643.61	54.42
643.942	54.3
644.273	54.3
644.604	54.31
644.936	54.41
645.267	54.37
645.598	54.48
645.929	54.61
646.26	54.68
646.591	54.64
646.922	54.53
647.253	54.62
647.584	54.57
647.915	54.52
648.245	54.55
648.576	54.65
648.907	54.62
649.238	54.63
649.568	54.6
649.899	54.64
650.229	54.59
650.56	54.6
650.89	54.73
651.221	54.78
651.551	54.81
651.882	54.76
652.212	54.87
652.542	54.84
652.872	54.69
653.203	54.66
653.533	54.8
653.863	54.93
654.193	54.86
654.523	55.01
654.853	55.02
655.183	54.96
655.513	54.92
655.843	54.83
656.172	54.87
656.502	54.85
656.832	54.85
657.162	54.9
657.491	54.84
657.821	54.74
658.15	54.88
658.48	54.89
658.809	54.96
659.139	54.86
659.468	54.82
659.798	54.87
660.127	54.89
660.456	54.85
660.785	54.75
661.115	54.86
661.444	54.88
661.773	54.97
662.102	55
662.431	54.96
662.76	55.1
663.089	54.99
663.418	55.03
663.747	55.11
664.076	55.18
664.404	55.24
664.733	55.32
665.062	55.27
665.39	55.27
665.719	55.33
666.048	55.47
