Data from BA28308_Reflection_00006.txt Node
Date: Mon Nov 18 15:38:49 EST 2019
User: vgr7
Spectrometer: USB2G7710
Scans to average: 3
Trigger mode: 4
Integration Time (sec): 2.000000E-2
Electric dark correction enabled: true
Boxcar width: 10
XAxis mode: Wavelengths
Number of Pixels in Spectrum: 2048
>>>>>Begin Spectral Data<<<<<
177.721	-150.75
178.105	-23.84
178.488	108.2
178.871	130.64
179.254	93.32
179.636	-51.79
180.019	68.49
180.402	170.59
180.785	60.4
181.168	124.25
181.55	92.05
181.933	73.05
182.316	91.39
182.698	130.41
183.081	142.71
183.463	118.97
183.846	143.31
184.228	156.86
184.611	92.71
184.993	162.36
185.376	163.37
185.758	205.12
186.14	691.89
186.522	594.78
186.904	516.56
187.287	502.97
187.669	637.21
188.051	841.51
188.433	-645.31
188.815	-139.55
189.197	-110.65
189.579	-158.68
189.961	-98.41
190.342	-84.53
190.724	-67.32
191.106	-49.75
191.488	-52.71
191.869	-46.94
192.251	-60.82
192.633	-64.79
193.014	-92.95
193.396	-156.52
193.777	-195.23
194.159	-152.47
194.54	-68.78
194.922	-74.77
195.303	-88.48
195.684	-89.07
196.065	-90.22
196.447	-121.89
196.828	-159.24
197.209	-139.21
197.59	-156.77
197.971	-170.68
198.352	-145.12
198.733	-212.38
199.114	-221.58
199.495	-202.14
199.876	-218.92
200.257	-178.2
200.638	-128.43
201.018	-150.14
201.399	-120.81
201.78	-113.95
202.16	-187.06
202.541	-244.39
202.922	-314.61
203.302	-257.09
203.683	-238.59
204.063	-560.35
204.444	-674.3
204.824	-639.05
205.204	-1389.36
205.585	-39614.29
205.965	5761.54
206.345	444.64
206.725	393.92
207.106	275.05
207.486	222.55
207.866	198.25
208.246	213.8
208.626	242.53
209.006	743.04
209.386	454.89
209.766	457.5
210.145	283.64
210.525	-4494.59
210.905	-152.43
211.285	-383.02
211.664	-452.76
212.044	8.43
212.424	15.7
212.803	63.43
213.183	17.16
213.562	5.98
213.942	26
214.321	22.37
214.701	19.45
215.08	17.26
215.459	10.7
215.838	7.22
216.218	-5.4
216.597	8.42
216.976	15.76
217.355	16.88
217.734	17.32
218.113	1.72
218.492	-7.73
218.871	-30.53
219.25	-12.5
219.629	-19.4
220.008	-39.11
220.387	-43.71
220.766	-76.36
221.144	-134.63
221.523	-180.78
221.902	-264.38
222.28	-290.77
222.659	-291.15
223.037	-158.58
223.416	-155.88
223.794	-157.1
224.173	-128.46
224.551	-108.96
224.929	-101.15
225.308	-92.82
225.686	-77.28
226.064	-52.88
226.442	-43.52
226.821	-28.16
227.199	-31.59
227.577	-28.99
227.955	-25.35
228.333	-24.8
228.711	-20.91
229.089	-13.98
229.467	-14.13
229.845	-9.12
230.222	-8.23
230.6	-7.06
230.978	-5.56
231.356	-3.77
231.733	-1.09
232.111	0.76
232.488	1.83
232.866	1.73
233.243	2.53
233.621	1.28
233.998	-0.2
234.376	-2.15
234.753	-2.56
235.13	-0.55
235.508	-0.22
235.885	-0.56
236.262	0.32
236.639	-0.16
237.016	-0.99
237.393	1.57
237.77	1.06
238.147	1.35
238.524	2.43
238.901	3.15
239.278	2.95
239.655	3.79
240.032	3.21
240.409	2.78
240.785	2.63
241.162	3.08
241.539	3.64
241.915	3.52
242.292	3.63
242.668	4.01
243.045	3.92
243.421	3.7
243.798	3.87
244.174	3.89
244.551	4.16
244.927	4.18
245.303	4.09
245.679	4.11
246.056	4.05
246.432	3.79
246.808	3.62
247.184	3.53
247.56	3.2
247.936	3.33
248.312	3.2
248.688	3.29
249.064	3.07
249.44	3.06
249.815	3.11
250.191	3.3
250.567	2.96
250.943	2.81
251.318	3.14
251.694	3.02
252.069	2.81
252.445	2.62
252.82	2.56
253.196	2.29
253.571	2.09
253.947	2.22
254.322	2.56
254.697	2.38
255.073	2.64
255.448	2.67
255.823	3.01
256.198	3.16
256.573	3.21
256.948	3.43
257.323	3.48
257.698	3.36
258.073	3.55
258.448	3.57
258.823	3.82
259.198	3.58
259.573	3.72
259.948	3.75
260.322	3.74
260.697	3.75
261.072	3.91
261.446	3.87
261.821	3.88
262.195	3.97
262.57	4.03
262.944	4.05
263.319	4.12
263.693	3.82
264.067	3.79
264.442	3.78
264.816	3.61
265.19	3.47
265.564	3.85
265.938	3.67
266.313	3.63
266.687	3.48
267.061	3.74
267.435	3.64
267.809	3.66
268.183	3.72
268.556	3.72
268.93	3.61
269.304	3.8
269.678	3.81
270.051	3.62
270.425	3.72
270.799	3.52
271.172	3.56
271.546	3.69
271.919	3.79
272.293	3.84
272.666	3.87
273.04	3.99
273.413	3.76
273.787	3.65
274.16	3.77
274.533	3.81
274.906	3.75
275.279	3.85
275.653	3.78
276.026	3.69
276.399	3.55
276.772	3.72
277.145	3.52
277.518	3.53
277.891	3.5
278.263	3.52
278.636	3.64
279.009	3.7
279.382	3.74
279.755	3.65
280.127	3.85
280.5	4.01
280.872	4.03
281.245	4.09
281.617	4.25
281.99	4.16
282.362	4.01
282.735	3.93
283.107	3.83
283.479	3.92
283.852	4.16
284.224	4.34
284.596	4.2
284.968	4.3
285.34	4.25
285.713	4.24
286.085	4.2
286.457	4.28
286.829	4.2
287.201	4.18
287.572	4.06
287.944	3.88
288.316	3.82
288.688	3.84
289.06	3.79
289.431	3.76
289.803	3.81
290.175	3.82
290.546	3.83
290.918	3.92
291.289	3.83
291.661	3.63
292.032	3.68
292.403	3.8
292.775	3.84
293.146	3.8
293.517	3.81
293.889	3.83
294.26	3.87
294.631	3.92
295.002	3.93
295.373	4.03
295.744	4.17
296.115	4.2
296.486	4.01
296.857	4.07
297.228	4.09
297.599	4.04
297.97	4.04
298.34	4.16
298.711	4.16
299.082	4.2
299.452	4.2
299.823	4.09
300.194	4.06
300.564	3.99
300.935	4.17
301.305	4.15
301.676	4.06
302.046	3.99
302.416	3.97
302.787	4
303.157	4.02
303.527	3.87
303.897	3.76
304.267	4
304.637	3.97
305.008	4.05
305.378	4.09
305.748	4.21
306.117	4.04
306.487	4.09
306.857	4.1
307.227	4.17
307.597	4.25
307.967	4.09
308.336	4.14
308.706	4.04
309.076	4.17
309.445	4.28
309.815	4.22
310.184	4.19
310.554	4.2
310.923	4.23
311.293	4.31
311.662	4.26
312.031	4.15
312.401	4.09
312.77	4.03
313.139	4.03
313.508	3.96
313.877	4.05
314.246	3.86
314.616	3.81
314.985	3.75
315.353	3.63
315.722	3.8
316.091	3.75
316.46	3.74
316.829	3.71
317.198	3.66
317.567	3.63
317.935	3.64
318.304	3.65
318.672	3.65
319.041	3.71
319.41	3.83
319.778	3.88
320.147	3.95
320.515	3.8
320.883	3.71
321.252	3.7
321.62	3.57
321.988	3.66
322.357	3.72
322.725	3.83
323.093	3.95
323.461	3.85
323.829	3.99
324.197	4
324.565	4.01
324.933	4.05
325.301	4.13
325.669	4.09
326.037	4.03
326.405	4.06
326.772	4.06
327.14	4.04
327.508	4
327.875	3.9
328.243	3.99
328.61	4
328.978	3.99
329.346	4.05
329.713	4.08
330.08	4.1
330.448	3.87
330.815	3.73
331.182	3.76
331.55	3.65
331.917	3.66
332.284	3.67
332.651	3.67
333.018	3.73
333.385	3.79
333.752	3.92
334.119	3.89
334.486	3.81
334.853	3.89
335.22	4.04
335.587	4.19
335.954	4.21
336.32	4.19
336.687	4.19
337.054	4.24
337.42	4.26
337.787	4.3
338.153	4.32
338.52	4.44
338.886	4.37
339.253	4.4
339.619	4.41
339.986	4.35
340.352	4.4
340.718	4.3
341.084	4.19
341.451	4.18
341.817	4.11
342.183	4.07
342.549	4.04
342.915	3.93
343.281	3.87
343.647	3.86
344.013	3.91
344.379	3.91
344.745	3.87
345.11	3.82
345.476	3.81
345.842	3.89
346.208	3.86
346.573	3.93
346.939	3.96
347.304	3.91
347.67	3.88
348.035	3.91
348.401	3.9
348.766	3.94
349.132	3.94
349.497	4.01
349.862	4.07
350.228	4.03
350.593	3.96
350.958	3.99
351.323	3.98
351.688	4.03
352.053	4.02
352.418	4.15
352.783	4.17
353.148	4.2
353.513	4.19
353.878	4.15
354.243	4.14
354.608	4.15
354.972	4.12
355.337	4.22
355.702	4.2
356.066	4.23
356.431	4.24
356.795	4.15
357.16	4.14
357.524	4.14
357.889	4.22
358.253	4.26
358.618	4.3
358.982	4.3
359.346	4.31
359.71	4.32
360.075	4.28
360.439	4.28
360.803	4.21
361.167	4.24
361.531	4.18
361.895	4.18
362.259	4.12
362.623	4.17
362.987	4.11
363.351	4.1
363.714	4.15
364.078	4.15
364.442	4.15
364.806	4.09
365.169	4.14
365.533	4.11
365.896	4.18
366.26	4.14
366.623	4.14
366.987	4
367.35	4.02
367.714	4.03
368.077	4.03
368.44	4.05
368.803	4.02
369.167	4.1
369.53	4.07
369.893	4.11
370.256	4.03
370.619	4.13
370.982	4.12
371.345	4.08
371.708	4.11
372.071	4.17
372.434	4.23
372.797	4.2
373.159	4.16
373.522	4.1
373.885	4.06
374.247	4.06
374.61	4.17
374.973	4.15
375.335	4.17
375.698	4.15
376.06	4.16
376.423	4.16
376.785	4.18
377.147	4.22
377.51	4.2
377.872	4.24
378.234	4.14
378.596	4.09
378.958	4.07
379.321	4.06
379.683	4.04
380.045	4.06
380.407	4.05
380.769	4.08
381.13	4.09
381.492	4.09
381.854	4.07
382.216	4.1
382.578	4.13
382.939	4.1
383.301	4.11
383.663	4.16
384.024	4.14
384.386	4.16
384.747	4.17
385.109	4.19
385.47	4.18
385.832	4.2
386.193	4.25
386.554	4.29
386.916	4.28
387.277	4.3
387.638	4.32
387.999	4.3
388.36	4.3
388.721	4.32
389.082	4.35
389.443	4.34
389.804	4.3
390.165	4.3
390.526	4.29
390.887	4.3
391.248	4.3
391.609	4.33
391.969	4.31
392.33	4.33
392.691	4.34
393.051	4.33
393.412	4.34
393.772	4.32
394.133	4.32
394.493	4.31
394.854	4.31
395.214	4.28
395.574	4.31
395.935	4.28
396.295	4.28
396.655	4.29
397.015	4.33
397.376	4.35
397.736	4.34
398.096	4.37
398.456	4.34
398.816	4.36
399.176	4.34
399.535	4.35
399.895	4.34
400.255	4.37
400.615	4.4
400.975	4.4
401.334	4.4
401.694	4.38
402.054	4.4
402.413	4.39
402.773	4.38
403.132	4.4
403.492	4.43
403.851	4.42
404.211	4.41
404.57	4.38
404.929	4.4
405.288	4.41
405.648	4.35
406.007	4.37
406.366	4.34
406.725	4.33
407.084	4.33
407.443	4.33
407.802	4.28
408.161	4.24
408.52	4.19
408.879	4.2
409.238	4.23
409.596	4.24
409.955	4.22
410.314	4.25
410.673	4.21
411.031	4.21
411.39	4.25
411.748	4.25
412.107	4.28
412.465	4.27
412.824	4.29
413.182	4.32
413.54	4.33
413.899	4.34
414.257	4.38
414.615	4.38
414.974	4.4
415.332	4.41
415.69	4.42
416.048	4.46
416.406	4.45
416.764	4.42
417.122	4.45
417.48	4.46
417.838	4.46
418.195	4.47
418.553	4.47
418.911	4.46
419.269	4.47
419.626	4.45
419.984	4.43
420.342	4.43
420.699	4.43
421.057	4.42
421.414	4.42
421.772	4.4
422.129	4.39
422.486	4.37
422.844	4.36
423.201	4.36
423.558	4.36
423.915	4.35
424.273	4.36
424.63	4.33
424.987	4.33
425.344	4.33
425.701	4.32
426.058	4.31
426.415	4.31
426.772	4.31
427.128	4.31
427.485	4.33
427.842	4.32
428.199	4.31
428.555	4.31
428.912	4.31
429.269	4.31
429.625	4.34
429.982	4.33
430.338	4.36
430.695	4.37
431.051	4.36
431.407	4.36
431.764	4.36
432.12	4.35
432.476	4.33
432.832	4.32
433.189	4.33
433.545	4.33
433.901	4.33
434.257	4.32
434.613	4.32
434.969	4.3
435.325	4.31
435.681	4.3
436.036	4.28
436.392	4.28
436.748	4.28
437.104	4.26
437.459	4.26
437.815	4.24
438.171	4.25
438.526	4.26
438.882	4.27
439.237	4.27
439.593	4.29
439.948	4.31
440.304	4.31
440.659	4.3
441.014	4.3
441.369	4.28
441.725	4.28
442.08	4.26
442.435	4.27
442.79	4.25
443.145	4.25
443.5	4.25
443.855	4.24
444.21	4.24
444.565	4.25
444.92	4.25
445.275	4.27
445.629	4.25
445.984	4.25
446.339	4.23
446.693	4.22
447.048	4.21
447.403	4.2
447.757	4.19
448.112	4.2
448.466	4.2
448.82	4.21
449.175	4.22
449.529	4.23
449.883	4.22
450.238	4.24
450.592	4.26
450.946	4.27
451.3	4.26
451.654	4.28
452.008	4.3
452.362	4.31
452.716	4.29
453.07	4.29
453.424	4.28
453.778	4.28
454.132	4.28
454.486	4.27
454.839	4.26
455.193	4.26
455.547	4.23
455.9	4.23
456.254	4.21
456.607	4.21
456.961	4.21
457.314	4.21
457.668	4.2
458.021	4.19
458.375	4.19
458.728	4.19
459.081	4.17
459.434	4.14
459.787	4.13
460.141	4.12
460.494	4.12
460.847	4.14
461.2	4.14
461.553	4.16
461.906	4.16
462.259	4.16
462.611	4.17
462.964	4.19
463.317	4.19
463.67	4.18
464.022	4.18
464.375	4.17
464.728	4.17
465.08	4.18
465.433	4.16
465.785	4.16
466.138	4.18
466.49	4.17
466.843	4.18
467.195	4.19
467.547	4.2
467.899	4.21
468.252	4.2
468.604	4.19
468.956	4.18
469.308	4.2
469.66	4.17
470.012	4.19
470.364	4.18
470.716	4.16
471.068	4.2
471.42	4.19
471.772	4.2
472.123	4.22
472.475	4.22
472.827	4.23
473.178	4.25
473.53	4.25
473.882	4.24
474.233	4.26
474.585	4.24
474.936	4.23
475.288	4.2
475.639	4.21
475.99	4.23
476.342	4.24
476.693	4.24
477.044	4.25
477.395	4.24
477.746	4.25
478.097	4.26
478.448	4.25
478.8	4.26
479.15	4.23
479.501	4.22
479.852	4.23
480.203	4.25
480.554	4.25
480.905	4.27
481.255	4.28
481.606	4.3
481.957	4.32
482.307	4.33
482.658	4.35
483.009	4.35
483.359	4.35
483.709	4.36
484.06	4.36
484.41	4.37
484.761	4.37
485.111	4.38
485.461	4.39
485.811	4.39
486.162	4.39
486.512	4.42
486.862	4.43
487.212	4.42
487.562	4.41
487.912	4.42
488.262	4.41
488.612	4.41
488.961	4.4
489.311	4.39
489.661	4.4
490.011	4.41
490.36	4.4
490.71	4.4
491.06	4.39
491.409	4.39
491.759	4.38
492.108	4.37
492.458	4.36
492.807	4.36
493.157	4.36
493.506	4.37
493.855	4.35
494.204	4.35
494.554	4.36
494.903	4.36
495.252	4.35
495.601	4.35
495.95	4.37
496.299	4.37
496.648	4.35
496.997	4.34
497.346	4.34
497.695	4.37
498.043	4.36
498.392	4.36
498.741	4.37
499.09	4.37
499.438	4.39
499.787	4.42
500.135	4.42
500.484	4.43
500.832	4.44
501.181	4.46
501.529	4.46
501.878	4.48
502.226	4.5
502.574	4.48
502.923	4.51
503.271	4.49
503.619	4.52
503.967	4.53
504.315	4.53
504.663	4.53
505.011	4.52
505.359	4.52
505.707	4.52
506.055	4.51
506.403	4.51
506.751	4.51
507.098	4.51
507.446	4.52
507.794	4.52
508.141	4.5
508.489	4.52
508.837	4.54
509.184	4.52
509.531	4.54
509.879	4.56
510.226	4.57
510.574	4.57
510.921	4.56
511.268	4.58
511.616	4.59
511.963	4.59
512.31	4.58
512.657	4.6
513.004	4.61
513.351	4.65
513.698	4.68
514.045	4.65
514.392	4.65
514.739	4.64
515.086	4.66
515.432	4.66
515.779	4.65
516.126	4.66
516.473	4.67
516.819	4.66
517.166	4.67
517.512	4.67
517.859	4.67
518.205	4.68
518.552	4.68
518.898	4.7
519.245	4.71
519.591	4.71
519.937	4.7
520.283	4.72
520.629	4.71
520.976	4.71
521.322	4.73
521.668	4.76
522.014	4.78
522.36	4.79
522.706	4.8
523.052	4.8
523.398	4.8
523.743	4.82
524.089	4.82
524.435	4.82
524.781	4.84
525.126	4.86
525.472	4.87
525.817	4.87
526.163	4.87
526.509	4.88
526.854	4.88
527.199	4.9
527.545	4.89
527.89	4.88
528.235	4.89
528.581	4.9
528.926	4.89
529.271	4.88
529.616	4.88
529.961	4.88
530.306	4.88
530.651	4.88
530.996	4.88
531.341	4.88
531.686	4.89
532.031	4.89
532.376	4.89
532.721	4.89
533.065	4.89
533.41	4.9
533.755	4.89
534.099	4.9
534.444	4.91
534.788	4.93
535.133	4.93
535.477	4.93
535.822	4.93
536.166	4.96
536.51	4.97
536.855	4.96
537.199	4.96
537.543	4.97
537.887	4.96
538.231	4.97
538.576	4.98
538.92	4.99
539.264	4.98
539.608	4.99
539.951	5
540.295	4.99
540.639	4.99
540.983	5
541.327	4.99
541.671	4.97
542.014	4.96
542.358	4.96
542.701	4.95
543.045	4.95
543.389	4.93
543.732	4.94
544.075	4.95
544.419	4.95
544.762	4.97
545.105	5
545.449	5
545.792	5
546.135	5
546.478	5
546.821	4.99
547.165	4.98
547.508	5
547.851	4.99
548.194	4.99
548.536	4.97
548.879	5.01
549.222	5.01
549.565	5.01
549.908	5.02
550.25	5.02
550.593	5.02
550.936	5
551.278	4.99
551.621	5
551.963	5
552.306	4.95
552.648	4.94
552.991	4.94
553.333	4.92
553.675	4.93
554.017	4.95
554.36	4.95
554.702	4.97
555.044	4.97
555.386	4.97
555.728	4.99
556.07	4.99
556.412	4.97
556.754	4.97
557.096	4.97
557.438	4.94
557.78	4.96
558.121	5
558.463	5.01
558.805	5.02
559.147	5
559.488	5.03
559.83	5.04
560.171	5.03
560.513	5.07
560.854	5.05
561.196	5.04
561.537	5.05
561.878	5.05
562.22	5.05
562.561	5.07
562.902	5.05
563.243	5.05
563.584	5.07
563.925	5.13
564.266	5.15
564.607	5.15
564.948	5.14
565.289	5.13
565.63	5.15
565.971	5.13
566.312	5.14
566.653	5.14
566.993	5.13
567.334	5.09
567.675	5.08
568.015	5.09
568.356	5.1
568.696	5.1
569.037	5.11
569.377	5.13
569.718	5.12
570.058	5.14
570.398	5.13
570.739	5.12
571.079	5.07
571.419	5.07
571.759	5.1
572.099	5.1
572.439	5.11
572.779	5.12
573.119	5.12
573.459	5.14
573.799	5.15
574.139	5.14
574.479	5.19
574.819	5.19
575.158	5.19
575.498	5.19
575.838	5.17
576.177	5.13
576.517	5.1
576.856	5.11
577.196	5.1
577.535	5.1
577.875	5.12
578.214	5.16
578.553	5.16
578.893	5.12
579.232	5.11
579.571	5.09
579.91	5.06
580.25	5.08
580.589	5.03
580.928	5.01
581.267	5.01
581.606	4.97
581.945	4.96
582.283	4.93
582.622	4.92
582.961	4.94
583.3	4.97
583.639	4.98
583.977	4.97
584.316	4.98
584.654	4.98
584.993	4.98
585.332	4.99
585.67	4.98
586.008	5.01
586.347	5.01
586.685	5.03
587.024	5.03
587.362	5.03
587.7	5.08
588.038	5.09
588.376	5.1
588.715	5.15
589.053	5.2
589.391	5.22
589.729	5.27
590.067	5.23
590.404	5.26
590.742	5.22
591.08	5.2
591.418	5.22
591.756	5.23
592.093	5.23
592.431	5.2
592.769	5.22
593.106	5.22
593.444	5.21
593.781	5.2
594.119	5.22
594.456	5.23
594.793	5.22
595.131	5.2
595.468	5.21
595.805	5.18
596.143	5.15
596.48	5.17
596.817	5.12
597.154	5.14
597.491	5.11
597.828	5.12
598.165	5.16
598.502	5.11
598.839	5.1
599.176	5.1
599.512	5.11
599.849	5.12
600.186	5.13
600.523	5.16
600.859	5.2
601.196	5.17
601.532	5.16
601.869	5.15
602.205	5.19
602.542	5.2
602.878	5.23
603.215	5.19
603.551	5.21
603.887	5.24
604.223	5.28
604.56	5.32
604.896	5.34
605.232	5.35
605.568	5.36
605.904	5.37
606.24	5.39
606.576	5.38
606.912	5.39
607.248	5.37
607.583	5.36
607.919	5.33
608.255	5.33
608.591	5.34
608.926	5.37
609.262	5.37
609.597	5.38
609.933	5.38
610.268	5.43
610.604	5.44
610.939	5.42
611.275	5.39
611.61	5.34
611.945	5.34
612.281	5.33
612.616	5.34
612.951	5.33
613.286	5.28
613.621	5.31
613.956	5.3
614.291	5.32
614.626	5.31
614.961	5.33
615.296	5.33
615.631	5.37
615.966	5.35
616.3	5.31
616.635	5.27
616.97	5.23
617.304	5.24
617.639	5.26
617.973	5.22
618.308	5.23
618.642	5.29
618.977	5.29
619.311	5.31
619.646	5.36
619.98	5.36
620.314	5.39
620.648	5.36
620.983	5.34
621.317	5.35
621.651	5.35
621.985	5.34
622.319	5.36
622.653	5.31
622.987	5.33
623.321	5.32
623.655	5.39
623.988	5.43
624.322	5.36
624.656	5.37
624.99	5.45
625.323	5.47
625.657	5.44
625.99	5.46
626.324	5.43
626.657	5.38
626.991	5.39
627.324	5.4
627.658	5.41
627.991	5.4
628.324	5.43
628.657	5.45
628.991	5.44
629.324	5.43
629.657	5.45
629.99	5.48
630.323	5.54
630.656	5.5
630.989	5.47
631.322	5.55
631.655	5.52
631.987	5.51
632.32	5.45
632.653	5.5
632.986	5.51
633.318	5.49
633.651	5.51
633.984	5.52
634.316	5.54
634.649	5.52
634.981	5.53
635.313	5.51
635.646	5.51
635.978	5.53
636.31	5.56
636.643	5.57
636.975	5.54
637.307	5.47
637.639	5.46
637.971	5.5
638.303	5.46
638.635	5.45
638.967	5.4
639.299	5.47
639.631	5.41
639.963	5.35
640.295	5.39
640.626	5.46
640.958	5.5
641.29	5.46
641.621	5.52
641.953	5.53
642.285	5.51
642.616	5.55
642.948	5.53
643.279	5.51
643.61	5.48
643.942	5.5
644.273	5.51
644.604	5.53
644.936	5.5
645.267	5.45
645.598	5.42
645.929	5.47
646.26	5.47
646.591	5.49
646.922	5.51
647.253	5.49
647.584	5.51
647.915	5.48
648.245	5.47
648.576	5.47
648.907	5.5
649.238	5.46
649.568	5.42
649.899	5.41
650.229	5.45
650.56	5.5
650.89	5.5
651.221	5.52
651.551	5.48
651.882	5.56
652.212	5.65
652.542	5.71
652.872	5.69
653.203	5.65
653.533	5.74
653.863	5.76
654.193	5.78
654.523	5.7
654.853	5.7
655.183	5.74
655.513	5.77
655.843	5.73
656.172	5.79
656.502	5.79
656.832	5.79
657.162	5.82
657.491	5.77
657.821	5.8
658.15	5.81
658.48	5.87
658.809	5.82
659.139	5.74
659.468	5.74
659.798	5.74
660.127	5.79
660.456	5.74
660.785	5.81
661.115	5.82
661.444	5.84
661.773	5.85
662.102	5.85
662.431	5.86
662.76	5.82
663.089	5.77
663.418	5.75
663.747	5.76
664.076	5.7
664.404	5.7
664.733	5.67
665.062	5.7
665.39	5.63
665.719	5.55
666.048	5.55
666.376	5.51
666.705	5.47
667.033	5.42
667.362	5.43
667.69	5.35
668.018	5.4
668.347	5.36
668.675	5.31
669.003	5.32
669.331	5.35
669.659	5.39
669.987	5.41
670.315	5.44
670.643	5.45
670.971	5.43
671.299	5.48
671.627	5.48
671.955	5.4
672.283	5.48
672.61	5.51
672.938	5.52
673.266	5.53
673.593	5.65
673.921	5.73
674.249	5.75
674.576	5.74
674.904	5.73
675.231	5.78
675.558	5.83
675.886	5.83
676.213	5.78
676.54	5.75
676.867	5.86
677.195	5.91
677.522	5.92
