Data from BA28301_Reflection_00002.txt Node
Date: Mon Nov 18 15:44:58 EST 2019
User: vgr7
Spectrometer: USB2G7710
Scans to average: 3
Trigger mode: 4
Integration Time (sec): 2.000000E-2
Electric dark correction enabled: true
Boxcar width: 10
XAxis mode: Wavelengths
Number of Pixels in Spectrum: 2048
>>>>>Begin Spectral Data<<<<<
177.721	-253.36
178.105	-2185.71
178.488	257.78
178.871	-138.03
179.254	291.39
179.636	243.36
180.019	-20.85
180.402	277.78
180.785	-227
181.168	-111.86
181.55	111.33
181.933	98.89
182.316	148.56
182.698	109.04
183.081	101.85
183.463	98.8
183.846	84.88
184.228	101.76
184.611	101.9
184.993	94.55
185.376	119.96
185.758	176.84
186.14	317.93
186.522	372.55
186.904	-505.9
187.287	1595.8
187.669	-237.13
188.051	-359.02
188.433	-178.81
188.815	-295.56
189.197	-969.12
189.579	-191.61
189.961	-192.33
190.342	-166.94
190.724	-38.44
191.106	-55.29
191.488	-73.81
191.869	-3.55
192.251	-6.85
192.633	-28.45
193.014	-37.09
193.396	-100.26
193.777	-212.29
194.159	-229.41
194.54	12.47
194.922	-25.22
195.303	-121.45
195.684	148.63
196.065	-105.69
196.447	4570.59
196.828	-183.99
197.209	-39.46
197.59	-180.99
197.971	-736.36
198.352	-104.08
198.733	-150.62
199.114	-349.91
199.495	-105.29
199.876	-144.46
200.257	-64
200.638	-45.61
201.018	-71.83
201.399	-56.81
201.78	-37.35
202.16	-75.68
202.541	-131.79
202.922	-172.09
203.302	-197.57
203.683	-131.69
204.063	-162.1
204.444	-127.54
204.824	-148.56
205.204	-168.69
205.585	-183.67
205.965	-146
206.345	-229.76
206.725	-853.85
207.106	7807.32
207.486	366.52
207.866	243.47
208.246	246.51
208.626	304.52
209.006	367.67
209.386	231.37
209.766	156.29
210.145	123.6
210.525	153.04
210.905	306.1
211.285	34500
211.664	-1973.39
212.044	681.82
212.424	-265.11
212.803	-161.5
213.183	-195.76
213.562	-114.74
213.942	-79.61
214.321	-62.09
214.701	-34.06
215.08	-12.14
215.459	-11.93
215.838	-16.62
216.218	-19.89
216.597	-3.35
216.976	2.35
217.355	8.19
217.734	9.91
218.113	12.35
218.492	16.23
218.871	17.51
219.25	22.71
219.629	29.71
220.008	25.2
220.387	25.87
220.766	34.9
221.144	36.99
221.523	37.74
221.902	33.05
222.28	30.06
222.659	24.57
223.037	27.48
223.416	22.77
223.794	18.4
224.173	14.4
224.551	11.35
224.929	1.61
225.308	-0.45
225.686	-2.98
226.064	-2.62
226.442	-3.16
226.821	-2.47
227.199	-5.65
227.577	-7.56
227.955	-9.07
228.333	-7.63
228.711	-6.71
229.089	-5.61
229.467	-4.78
229.845	-4.42
230.222	-4.25
230.6	-4.16
230.978	-4.38
231.356	-1.86
231.733	-1.2
232.111	0.66
232.488	0.72
232.866	1.32
233.243	2.48
233.621	2.36
233.998	2.92
234.376	3.33
234.753	1.92
235.13	3.89
235.508	3.76
235.885	4.47
236.262	3.34
236.639	4.18
237.016	4.73
237.393	6.44
237.77	7.25
238.147	7.82
238.524	7.79
238.901	7.74
239.278	7.52
239.655	7.92
240.032	7.53
240.409	6.35
240.785	6.39
241.162	6.3
241.539	6.92
241.915	6.19
242.292	5.42
242.668	5.73
243.045	5.5
243.421	5.35
243.798	4.94
244.174	4.92
244.551	4.75
244.927	4.48
245.303	4.25
245.679	4.13
246.056	4.06
246.432	4.32
246.808	4.15
247.184	3.85
247.56	3.58
247.936	3.36
248.312	3.6
248.688	3.62
249.064	3.65
249.44	3.36
249.815	3.54
250.191	3.79
250.567	3.91
250.943	3.71
251.318	3.99
251.694	4.04
252.069	4.01
252.445	4.09
252.82	4.21
253.196	4
253.571	4.14
253.947	4.25
254.322	4.01
254.697	3.98
255.073	4.06
255.448	3.99
255.823	4.23
256.198	4.25
256.573	4.36
256.948	4.31
257.323	4.35
257.698	4.21
258.073	4.25
258.448	4.14
258.823	4.18
259.198	4.15
259.573	4.06
259.948	3.91
260.322	3.87
260.697	3.93
261.072	3.98
261.446	4.05
261.821	3.9
262.195	4.05
262.57	3.99
262.944	4.05
263.319	4.16
263.693	4.07
264.067	4.05
264.442	4.04
264.816	4.09
265.19	4.01
265.564	4.39
265.938	4.17
266.313	4.16
266.687	4.2
267.061	4.15
267.435	4.35
267.809	4.47
268.183	4.61
268.556	4.41
268.93	4.43
269.304	4.36
269.678	4.45
270.051	4.26
270.425	4.44
270.799	4.46
271.172	4.49
271.546	4.47
271.919	4.45
272.293	4.47
272.666	4.53
273.04	4.66
273.413	4.33
273.787	4.42
274.16	4.46
274.533	4.42
274.906	4.33
275.279	4.38
275.653	4.39
276.026	4.24
276.399	4.31
276.772	4.43
277.145	4.44
277.518	4.38
277.891	4.4
278.263	4.34
278.636	4.18
279.009	4.01
279.382	4.07
279.755	4.12
280.127	4.21
280.5	4.23
280.872	4.28
281.245	4.4
281.617	4.56
281.99	4.5
282.362	4.58
282.735	4.46
283.107	4.34
283.479	4.36
283.852	4.38
284.224	4.36
284.596	4.2
284.968	4.18
285.34	4.28
285.713	4.21
286.085	4.2
286.457	4.37
286.829	4.57
287.201	4.63
287.572	4.54
287.944	4.49
288.316	4.37
288.688	4.42
289.06	4.35
289.431	4.28
289.803	4.35
290.175	4.26
290.546	4.44
290.918	4.53
291.289	4.58
291.661	4.71
292.032	4.69
292.403	4.84
292.775	4.85
293.146	4.82
293.517	4.91
293.889	4.96
294.26	4.84
294.631	4.8
295.002	4.82
295.373	4.89
295.744	4.79
296.115	4.71
296.486	4.45
296.857	4.56
297.228	4.58
297.599	4.6
297.97	4.66
298.34	4.61
298.711	4.6
299.082	4.55
299.452	4.47
299.823	4.58
300.194	4.49
300.564	4.48
300.935	4.5
301.305	4.48
301.676	4.56
302.046	4.66
302.416	4.71
302.787	4.71
303.157	4.67
303.527	4.68
303.897	4.8
304.267	4.98
304.637	5.07
305.008	5.14
305.378	5.11
305.748	5.12
306.117	5.04
306.487	5.01
306.857	5.1
307.227	5.04
307.597	4.96
307.967	4.96
308.336	5.02
308.706	5.02
309.076	5.03
309.445	4.89
309.815	4.88
310.184	4.72
310.554	4.56
310.923	4.54
311.293	4.63
311.662	4.58
312.031	4.53
312.401	4.41
312.77	4.35
313.139	4.42
313.508	4.46
313.877	4.54
314.246	4.58
314.616	4.48
314.985	4.53
315.353	4.44
315.722	4.55
316.091	4.46
316.46	4.35
316.829	4.34
317.198	4.28
317.567	4.22
317.935	4.26
318.304	4.35
318.672	4.39
319.041	4.44
319.41	4.51
319.778	4.51
320.147	4.51
320.515	4.5
320.883	4.39
321.252	4.39
321.62	4.47
321.988	4.42
322.357	4.53
322.725	4.47
323.093	4.53
323.461	4.41
323.829	4.43
324.197	4.59
324.565	4.67
324.933	4.79
325.301	4.81
325.669	4.86
326.037	4.81
326.405	4.75
326.772	4.76
327.14	4.9
327.508	4.92
327.875	4.95
328.243	4.99
328.61	5.01
328.978	5.08
329.346	5.18
329.713	5.11
330.08	5.1
330.448	5.18
330.815	5.04
331.182	5.07
331.55	5.06
331.917	4.91
332.284	4.95
332.651	4.9
333.018	4.83
333.385	4.84
333.752	4.93
334.119	5
334.486	4.89
334.853	4.73
335.22	4.71
335.587	4.75
335.954	4.7
336.32	4.81
336.687	4.75
337.054	4.61
337.42	4.72
337.787	4.75
338.153	4.62
338.52	4.81
338.886	4.77
339.253	4.82
339.619	4.82
339.986	4.75
340.352	4.75
340.718	4.81
341.084	4.76
341.451	4.81
341.817	4.85
342.183	4.91
342.549	5
342.915	5.04
343.281	5
343.647	4.92
344.013	4.85
344.379	4.79
344.745	4.8
345.11	4.88
345.476	4.87
345.842	4.96
346.208	4.92
346.573	5.09
346.939	5.11
347.304	5.17
347.67	5.13
348.035	5.15
348.401	5.14
348.766	5.27
349.132	5.25
349.497	5.26
349.862	5.33
350.228	5.26
350.593	5.29
350.958	5.27
351.323	5.34
351.688	5.34
352.053	5.37
352.418	5.36
352.783	5.25
353.148	5.14
353.513	5.19
353.878	5.14
354.243	5.07
354.608	5.05
354.972	5.04
355.337	5.07
355.702	5.11
356.066	5.17
356.431	5.05
356.795	5.08
357.16	5.03
357.524	4.95
357.889	4.96
358.253	4.91
358.618	4.96
358.982	5.03
359.346	4.98
359.71	4.98
360.075	5.02
360.439	5.07
360.803	5.11
361.167	5.04
361.531	5.06
361.895	5.04
362.259	5
362.623	4.99
362.987	5.05
363.351	5.07
363.714	5.03
364.078	5.02
364.442	5.01
364.806	5.03
365.169	5.02
365.533	5.07
365.896	5.12
366.26	5.05
366.623	5.01
366.987	5.02
367.35	5.1
367.714	5.14
368.077	5.15
368.44	5.15
368.803	5.17
369.167	5.15
369.53	5.11
369.893	5.17
370.256	5.17
370.619	5.04
370.982	5
371.345	4.94
371.708	5.02
372.071	4.92
372.434	4.93
372.797	4.96
373.159	4.87
373.522	4.88
373.885	5.03
374.247	5.06
374.61	5.11
374.973	5
375.335	4.99
375.698	4.95
376.06	4.94
376.423	4.95
376.785	5.02
377.147	5.09
377.51	5.11
377.872	5.11
378.234	5.15
378.596	5.13
378.958	5.15
379.321	5.14
379.683	5.24
380.045	5.24
380.407	5.27
380.769	5.35
381.13	5.33
381.492	5.24
381.854	5.27
382.216	5.22
382.578	5.28
382.939	5.22
383.301	5.24
383.663	5.25
384.024	5.26
384.386	5.26
384.747	5.27
385.109	5.28
385.47	5.28
385.832	5.3
386.193	5.33
386.554	5.33
386.916	5.34
387.277	5.29
387.638	5.28
387.999	5.24
388.36	5.22
388.721	5.23
389.082	5.26
389.443	5.26
389.804	5.27
390.165	5.22
390.526	5.24
390.887	5.21
391.248	5.23
391.609	5.2
391.969	5.17
392.33	5.17
392.691	5.17
393.051	5.2
393.412	5.18
393.772	5.15
394.133	5.17
394.493	5.16
394.854	5.16
395.214	5.2
395.574	5.19
395.935	5.18
396.295	5.19
396.655	5.18
397.015	5.15
397.376	5.16
397.736	5.18
398.096	5.24
398.456	5.3
398.816	5.28
399.176	5.28
399.535	5.27
399.895	5.24
400.255	5.22
400.615	5.22
400.975	5.21
401.334	5.22
401.694	5.19
402.054	5.18
402.413	5.18
402.773	5.15
403.132	5.18
403.492	5.2
403.851	5.18
404.211	5.18
404.57	5.16
404.929	5.14
405.288	5.16
405.648	5.14
406.007	5.13
406.366	5.15
406.725	5.17
407.084	5.21
407.443	5.2
407.802	5.21
408.161	5.17
408.52	5.21
408.879	5.23
409.238	5.27
409.596	5.28
409.955	5.27
410.314	5.29
410.673	5.27
411.031	5.27
411.39	5.26
411.748	5.25
412.107	5.27
412.465	5.29
412.824	5.28
413.182	5.23
413.54	5.24
413.899	5.22
414.257	5.24
414.615	5.22
414.974	5.26
415.332	5.27
415.69	5.31
416.048	5.29
416.406	5.29
416.764	5.26
417.122	5.27
417.48	5.26
417.838	5.26
418.195	5.26
418.553	5.25
418.911	5.25
419.269	5.27
419.626	5.24
419.984	5.23
420.342	5.24
420.699	5.26
421.057	5.25
421.414	5.25
421.772	5.24
422.129	5.25
422.486	5.25
422.844	5.25
423.201	5.23
423.558	5.23
423.915	5.22
424.273	5.24
424.63	5.22
424.987	5.23
425.344	5.22
425.701	5.21
426.058	5.23
426.415	5.23
426.772	5.22
427.128	5.22
427.485	5.23
427.842	5.2
428.199	5.19
428.555	5.19
428.912	5.2
429.269	5.21
429.625	5.2
429.982	5.18
430.338	5.16
430.695	5.17
431.051	5.15
431.407	5.15
431.764	5.14
432.12	5.14
432.476	5.16
432.832	5.16
433.189	5.19
433.545	5.16
433.901	5.15
434.257	5.16
434.613	5.2
434.969	5.19
435.325	5.22
435.681	5.23
436.036	5.21
436.392	5.21
436.748	5.21
437.104	5.2
437.459	5.2
437.815	5.19
438.171	5.19
438.526	5.2
438.882	5.2
439.237	5.2
439.593	5.21
439.948	5.18
440.304	5.17
440.659	5.15
441.014	5.17
441.369	5.15
441.725	5.14
442.08	5.13
442.435	5.13
442.79	5.13
443.145	5.13
443.5	5.14
443.855	5.11
444.21	5.11
444.565	5.11
444.92	5.11
445.275	5.1
445.629	5.11
445.984	5.11
446.339	5.09
446.693	5.08
447.048	5.07
447.403	5.08
447.757	5.09
448.112	5.09
448.466	5.08
448.82	5.1
449.175	5.09
449.529	5.09
449.883	5.08
450.238	5.07
450.592	5.05
450.946	5.04
451.3	5.08
451.654	5.08
452.008	5.09
452.362	5.08
452.716	5.08
453.07	5.08
453.424	5.09
453.778	5.11
454.132	5.12
454.486	5.12
454.839	5.12
455.193	5.11
455.547	5.14
455.9	5.16
456.254	5.14
456.607	5.15
456.961	5.15
457.314	5.16
457.668	5.16
458.021	5.15
458.375	5.17
458.728	5.17
459.081	5.17
459.434	5.17
459.787	5.16
460.141	5.18
460.494	5.18
460.847	5.18
461.2	5.17
461.553	5.17
461.906	5.19
462.259	5.2
462.611	5.21
462.964	5.21
463.317	5.21
463.67	5.22
464.022	5.21
464.375	5.23
464.728	5.24
465.08	5.25
465.433	5.28
465.785	5.28
466.138	5.26
466.49	5.25
466.843	5.26
467.195	5.3
467.547	5.29
467.899	5.29
468.252	5.28
468.604	5.29
468.956	5.3
469.308	5.31
469.66	5.29
470.012	5.29
470.364	5.28
470.716	5.29
471.068	5.3
471.42	5.31
471.772	5.33
472.123	5.34
472.475	5.33
472.827	5.33
473.178	5.34
473.53	5.34
473.882	5.34
474.233	5.35
474.585	5.34
474.936	5.33
475.288	5.33
475.639	5.34
475.99	5.35
476.342	5.35
476.693	5.34
477.044	5.34
477.395	5.36
477.746	5.35
478.097	5.35
478.448	5.34
478.8	5.34
479.15	5.31
479.501	5.31
479.852	5.31
480.203	5.31
480.554	5.31
480.905	5.31
481.255	5.33
481.606	5.33
481.957	5.34
482.307	5.35
482.658	5.36
483.009	5.37
483.359	5.37
483.709	5.37
484.06	5.38
484.41	5.38
484.761	5.38
485.111	5.39
485.461	5.39
485.811	5.4
486.162	5.41
486.512	5.41
486.862	5.42
487.212	5.42
487.562	5.43
487.912	5.43
488.262	5.44
488.612	5.44
488.961	5.44
489.311	5.43
489.661	5.43
490.011	5.43
490.36	5.42
490.71	5.43
491.06	5.43
491.409	5.43
491.759	5.43
492.108	5.44
492.458	5.44
492.807	5.42
493.157	5.43
493.506	5.43
493.855	5.44
494.204	5.44
494.554	5.45
494.903	5.44
495.252	5.44
495.601	5.45
495.95	5.46
496.299	5.48
496.648	5.5
496.997	5.51
497.346	5.53
497.695	5.54
498.043	5.54
498.392	5.54
498.741	5.54
499.09	5.54
499.438	5.53
499.787	5.55
500.135	5.57
500.484	5.59
500.832	5.6
501.181	5.6
501.529	5.6
501.878	5.62
502.226	5.66
502.574	5.68
502.923	5.65
503.271	5.64
503.619	5.67
503.967	5.65
504.315	5.63
504.663	5.66
505.011	5.68
505.359	5.7
505.707	5.72
506.055	5.72
506.403	5.74
506.751	5.77
507.098	5.75
507.446	5.78
507.794	5.79
508.141	5.78
508.489	5.79
508.837	5.8
509.184	5.81
509.531	5.79
509.879	5.8
510.226	5.84
510.574	5.88
510.921	5.87
511.268	5.89
511.616	5.94
511.963	5.92
512.31	5.91
512.657	5.91
513.004	5.92
513.351	5.93
513.698	5.95
514.045	5.94
514.392	5.96
514.739	5.94
515.086	5.95
515.432	5.96
515.779	5.96
516.126	5.95
516.473	5.96
516.819	5.97
517.166	5.96
517.512	5.95
517.859	5.93
518.205	5.93
518.552	5.93
518.898	5.9
519.245	5.89
519.591	5.91
519.937	5.92
520.283	5.92
520.629	5.94
520.976	5.94
521.322	5.94
521.668	5.94
522.014	5.95
522.36	5.96
522.706	5.96
523.052	5.96
523.398	5.99
523.743	6
524.089	6.01
524.435	6.03
524.781	6.02
525.126	6.03
525.472	6.04
525.817	6.07
526.163	6.09
526.509	6.12
526.854	6.13
527.199	6.12
527.545	6.13
527.89	6.13
528.235	6.13
528.581	6.14
528.926	6.15
529.271	6.16
529.616	6.15
529.961	6.16
530.306	6.17
530.651	6.17
530.996	6.17
531.341	6.16
531.686	6.16
532.031	6.19
532.376	6.2
532.721	6.2
533.065	6.18
533.41	6.18
533.755	6.17
534.099	6.18
534.444	6.19
534.788	6.2
535.133	6.19
535.477	6.19
535.822	6.2
536.166	6.19
536.51	6.19
536.855	6.18
537.199	6.18
537.543	6.17
537.887	6.17
538.231	6.17
538.576	6.19
538.92	6.21
539.264	6.19
539.608	6.2
539.951	6.21
540.295	6.23
540.639	6.23
540.983	6.23
541.327	6.23
541.671	6.22
542.014	6.23
542.358	6.25
542.701	6.25
543.045	6.25
543.389	6.26
543.732	6.26
544.075	6.28
544.419	6.29
544.762	6.31
545.105	6.3
545.449	6.32
545.792	6.31
546.135	6.32
546.478	6.32
546.821	6.33
547.165	6.31
547.508	6.31
547.851	6.34
548.194	6.33
548.536	6.34
548.879	6.35
549.222	6.34
549.565	6.35
549.908	6.37
550.25	6.37
550.593	6.38
550.936	6.35
551.278	6.37
551.621	6.38
551.963	6.39
552.306	6.39
552.648	6.38
552.991	6.4
553.333	6.42
553.675	6.41
554.017	6.42
554.36	6.45
554.702	6.45
555.044	6.42
555.386	6.43
555.728	6.44
556.07	6.47
556.412	6.47
556.754	6.45
557.096	6.43
557.438	6.47
557.78	6.48
558.121	6.52
558.463	6.5
558.805	6.48
559.147	6.45
559.488	6.45
559.83	6.45
560.171	6.45
560.513	6.42
560.854	6.42
561.196	6.37
561.537	6.36
561.878	6.33
562.22	6.34
562.561	6.32
562.902	6.31
563.243	6.27
563.584	6.27
563.925	6.29
564.266	6.32
564.607	6.29
564.948	6.3
565.289	6.3
565.63	6.31
565.971	6.34
566.312	6.36
566.653	6.37
566.993	6.34
567.334	6.33
567.675	6.31
568.015	6.34
568.356	6.35
568.696	6.36
569.037	6.39
569.377	6.44
569.718	6.45
570.058	6.45
570.398	6.45
570.739	6.49
571.079	6.48
571.419	6.46
571.759	6.5
572.099	6.5
572.439	6.46
572.779	6.45
573.119	6.45
573.459	6.45
573.799	6.47
574.139	6.47
574.479	6.47
574.819	6.49
575.158	6.48
575.498	6.51
575.838	6.51
576.177	6.49
576.517	6.47
576.856	6.48
577.196	6.46
577.535	6.49
577.875	6.48
578.214	6.45
578.553	6.47
578.893	6.44
579.232	6.41
579.571	6.45
579.91	6.49
580.25	6.47
580.589	6.47
580.928	6.47
581.267	6.52
581.606	6.5
581.945	6.54
582.283	6.53
582.622	6.53
582.961	6.52
583.3	6.58
583.639	6.6
583.977	6.6
584.316	6.61
584.654	6.62
584.993	6.59
585.332	6.64
585.67	6.61
586.008	6.63
586.347	6.61
586.685	6.63
587.024	6.6
587.362	6.6
587.7	6.61
588.038	6.58
588.376	6.58
588.715	6.58
589.053	6.61
589.391	6.63
589.729	6.64
590.067	6.65
590.404	6.63
590.742	6.62
591.08	6.61
591.418	6.64
591.756	6.66
592.093	6.73
592.431	6.71
592.769	6.73
593.106	6.75
593.444	6.78
593.781	6.75
594.119	6.76
594.456	6.77
594.793	6.78
595.131	6.78
595.468	6.77
595.805	6.82
596.143	6.79
596.48	6.79
596.817	6.82
597.154	6.83
597.491	6.79
597.828	6.8
598.165	6.82
598.502	6.8
598.839	6.78
599.176	6.77
599.512	6.78
599.849	6.81
600.186	6.77
600.523	6.79
600.859	6.83
601.196	6.85
601.532	6.85
601.869	6.86
602.205	6.87
602.542	6.87
602.878	6.85
603.215	6.87
603.551	6.88
603.887	6.85
604.223	6.83
604.56	6.85
604.896	6.86
605.232	6.84
605.568	6.85
605.904	6.85
606.24	6.85
606.576	6.86
606.912	6.83
607.248	6.85
607.583	6.89
607.919	6.86
608.255	6.82
608.591	6.86
608.926	6.88
609.262	6.92
609.597	6.96
609.933	6.98
610.268	6.99
610.604	7
610.939	7
611.275	7.06
611.61	7.04
611.945	7.01
612.281	7.02
612.616	7.03
612.951	7.03
613.286	6.97
613.621	6.95
613.956	6.98
614.291	6.98
614.626	6.95
614.961	6.99
615.296	7
615.631	7.05
615.966	7.04
616.3	6.98
616.635	6.95
616.97	6.93
617.304	6.87
617.639	6.88
617.973	6.86
618.308	6.81
618.642	6.89
618.977	6.86
619.311	6.87
619.646	6.89
619.98	6.91
620.314	6.97
620.648	6.96
620.983	6.97
621.317	6.97
621.651	6.93
621.985	6.91
622.319	6.95
622.653	6.87
622.987	6.87
623.321	6.9
623.655	6.89
623.988	6.9
624.322	6.91
624.656	6.95
624.99	6.95
625.323	6.96
625.657	6.95
625.99	6.96
626.324	6.95
626.657	6.92
626.991	6.97
627.324	6.93
627.658	6.94
627.991	6.96
628.324	7.02
628.657	7.08
628.991	7.07
629.324	7.08
629.657	7.11
629.99	7.1
630.323	7.08
630.656	7.11
630.989	7.16
631.322	7.18
631.655	7.13
631.987	7.19
632.32	7.21
632.653	7.19
632.986	7.24
633.318	7.25
633.651	7.24
633.984	7.2
634.316	7.24
634.649	7.27
634.981	7.27
635.313	7.24
635.646	7.19
635.978	7.18
636.31	7.18
636.643	7.17
636.975	7.14
637.307	7.15
637.639	7.14
637.971	7.1
638.303	7.09
638.635	7.08
638.967	7.04
639.299	7.07
639.631	7.07
639.963	7.01
640.295	6.99
640.626	6.97
640.958	7.02
641.29	7.03
641.621	7.02
641.953	7.03
642.285	7.03
642.616	7.09
642.948	7.16
643.279	7.15
643.61	7.16
643.942	7.2
644.273	7.17
644.604	7.14
644.936	7.19
645.267	7.22
645.598	7.27
645.929	7.3
646.26	7.28
646.591	7.26
646.922	7.29
647.253	7.32
647.584	7.35
647.915	7.39
648.245	7.38
648.576	7.38
648.907	7.33
649.238	7.34
649.568	7.36
649.899	7.36
650.229	7.32
650.56	7.35
650.89	7.37
651.221	7.45
651.551	7.5
651.882	7.45
652.212	7.48
652.542	7.49
652.872	7.44
653.203	7.42
653.533	7.51
653.863	7.48
654.193	7.59
654.523	7.62
654.853	7.54
655.183	7.54
655.513	7.53
655.843	7.44
656.172	7.41
656.502	7.38
656.832	7.36
657.162	7.34
657.491	7.29
657.821	7.29
658.15	7.22
658.48	7.2
658.809	7.22
659.139	7.17
659.468	7.15
659.798	7.2
660.127	7.2
660.456	7.22
660.785	7.27
661.115	7.2
661.444	7.24
661.773	7.28
662.102	7.33
662.431	7.35
662.76	7.42
663.089	7.41
663.418	7.37
663.747	7.38
664.076	7.53
664.404	7.54
664.733	7.58
665.062	7.67
665.39	7.72
665.719	7.68
666.048	7.72
666.376	7.71
666.705	7.65
667.033	7.63
667.362	7.57
667.69	7.61
668.018	7.62
668.347	7.55
668.675	7.61
669.003	7.53
669.331	7.59
669.659	7.61
669.987	7.61
670.315	7.61
670.643	7.63
670.971	7.58
671.299	7.68
671.627	7.7
671.955	7.55
672.283	7.52
672.61	7.57
672.938	7.59
673.266	7.69
673.593	7.82
673.921	7.9
674.249	7.97
674.576	7.88
674.904	7.85
675.231	7.85
675.558	7.72
675.886	7.84
676.213	7.77
676.54	7.79
