Data from BA28306_Reflection_00008.txt Node
Date: Mon Nov 18 15:53:46 EST 2019
User: vgr7
Spectrometer: USB2G7710
Scans to average: 3
Trigger mode: 4
Integration Time (sec): 2.000000E-2
Electric dark correction enabled: true
Boxcar width: 10
XAxis mode: Wavelengths
Number of Pixels in Spectrum: 2048
>>>>>Begin Spectral Data<<<<<
177.721	1080.58
178.105	-78.34
178.488	-114.4
178.871	-36.79
179.254	23.08
179.636	186.73
180.019	-151.32
180.402	50
180.785	-41.18
181.168	-77.71
181.55	-25.17
181.933	135.38
182.316	114.33
182.698	134.78
183.081	145.64
183.463	158.16
183.846	592.39
184.228	-469.06
184.611	-900
184.993	-69.88
185.376	2.88
185.758	38.88
186.14	-57.74
186.522	-56.88
186.904	-46.18
187.287	-56.34
187.669	-14.03
188.051	-5.8
188.433	-1.68
188.815	9.24
189.197	9.56
189.579	17.93
189.961	9.59
190.342	-22.66
190.724	-8.07
191.106	9.53
191.488	11.65
191.869	45.08
192.251	42.19
192.633	49.96
193.014	24.1
193.396	-49.76
193.777	-23.27
194.159	-14.86
194.54	-20.07
194.922	-2.01
195.303	8.94
195.684	23.66
196.065	38.6
196.447	13.97
196.828	4.42
197.209	18.13
197.59	6.85
197.971	-9.41
198.352	12.96
198.733	-49.13
199.114	-37.21
199.495	-27.08
199.876	-52.88
200.257	-45.36
200.638	-24.06
201.018	-46.06
201.399	-46.98
201.78	-41.56
202.16	-90.71
202.541	-115.57
202.922	-179.47
203.302	-308.45
203.683	-333.15
204.063	-549.04
204.444	-373.59
204.824	-230.37
205.204	-231.56
205.585	-203.92
205.965	-147.84
206.345	-201.6
206.725	-140.41
207.106	-175.81
207.486	-249
207.866	-181.35
208.246	-116.94
208.626	-129.56
209.006	-72.59
209.386	-87.53
209.766	-77.68
210.145	-34.46
210.525	-15.16
210.905	-7.37
211.285	6.89
211.664	9.13
212.044	21.12
212.424	18.29
212.803	21.57
213.183	20.68
213.562	11.44
213.942	17.01
214.321	24.71
214.701	20.23
215.08	11.65
215.459	0.51
215.838	-0.66
216.218	-41.04
216.597	-43.24
216.976	-59.43
217.355	-46.39
217.734	-56.23
218.113	-57.48
218.492	-52.8
218.871	-49.67
219.25	-45.75
219.629	-47.4
220.008	-60.29
220.387	-63.16
220.766	-59.3
221.144	-62.52
221.523	-58.91
221.902	-73.72
222.28	-84.13
222.659	-62.54
223.037	-45.49
223.416	-55.49
223.794	-63.78
224.173	-39.67
224.551	-27.66
224.929	-28.05
225.308	-24.3
225.686	-17.01
226.064	-24.76
226.442	-19.75
226.821	-11.76
227.199	-13.24
227.577	-16.28
227.955	-15.32
228.333	-8.56
228.711	-3.09
229.089	0.42
229.467	-1.77
229.845	1.19
230.222	4.32
230.6	1.39
230.978	-1.18
231.356	1.95
231.733	2.32
232.111	4.25
232.488	4.21
232.866	6.95
233.243	6.85
233.621	7.22
233.998	10.21
234.376	9.84
234.753	8.39
235.13	7.3
235.508	8.1
235.885	7.64
236.262	5.32
236.639	3.67
237.016	4.26
237.393	5.95
237.77	6.79
238.147	6.67
238.524	7.07
238.901	8.21
239.278	7.75
239.655	7.98
240.032	7.55
240.409	7.17
240.785	6.86
241.162	6.52
241.539	6.54
241.915	6.41
242.292	6.33
242.668	6.28
243.045	6.64
243.421	6.54
243.798	6.3
244.174	6.28
244.551	6.14
244.927	5.92
245.303	5.77
245.679	5.51
246.056	5.83
246.432	5.8
246.808	5.54
247.184	5.43
247.56	5.27
247.936	5.28
248.312	5.26
248.688	5.28
249.064	5.51
249.44	5.44
249.815	5.46
250.191	5.45
250.567	5.34
250.943	5.1
251.318	5.39
251.694	5.47
252.069	5.45
252.445	5.76
252.82	5.85
253.196	5.82
253.571	5.86
253.947	5.62
254.322	5.64
254.697	5.72
255.073	5.68
255.448	5.55
255.823	5.13
256.198	5.11
256.573	4.99
256.948	4.76
257.323	4.97
257.698	4.63
258.073	4.49
258.448	4.49
258.823	4.53
259.198	4.33
259.573	4.42
259.948	4.32
260.322	4.34
260.697	4.36
261.072	4.41
261.446	4.39
261.821	4.39
262.195	4.39
262.57	4.36
262.944	4.37
263.319	4.37
263.693	4.55
264.067	4.69
264.442	4.71
264.816	4.62
265.19	4.42
265.564	4.53
265.938	4.59
266.313	4.61
266.687	4.7
267.061	4.65
267.435	4.55
267.809	4.62
268.183	4.42
268.556	4.18
268.93	4.28
269.304	4.31
269.678	4.13
270.051	4.15
270.425	4.12
270.799	4.16
271.172	4.39
271.546	4.26
271.919	4.19
272.293	4.15
272.666	4.48
273.04	4.65
273.413	4.73
273.787	4.81
274.16	4.8
274.533	4.76
274.906	4.62
275.279	4.66
275.653	4.74
276.026	4.82
276.399	4.8
276.772	4.69
277.145	4.68
277.518	4.79
277.891	4.83
278.263	4.81
278.636	4.74
279.009	4.58
279.382	4.83
279.755	4.78
280.127	5.09
280.5	4.96
280.872	4.87
281.245	4.85
281.617	4.94
281.99	5.08
282.362	5.15
282.735	5.29
283.107	5.31
283.479	5.18
283.852	5.16
284.224	5.29
284.596	5.23
284.968	5.35
285.34	5.5
285.713	5.45
286.085	5.47
286.457	5.53
286.829	5.54
287.201	5.41
287.572	5.4
287.944	5.24
288.316	5.2
288.688	5.25
289.06	5.19
289.431	5.15
289.803	5.21
290.175	5.11
290.546	5.23
290.918	5.19
291.289	5.27
291.661	5.27
292.032	5.31
292.403	5.42
292.775	5.53
293.146	5.31
293.517	5.46
293.889	5.56
294.26	5.51
294.631	5.43
295.002	5.49
295.373	5.62
295.744	5.69
296.115	5.69
296.486	5.53
296.857	5.63
297.228	5.65
297.599	5.48
297.97	5.67
298.34	5.62
298.711	5.79
299.082	5.9
299.452	5.96
299.823	5.98
300.194	6.12
300.564	5.99
300.935	6.23
301.305	6.2
301.676	6.29
302.046	6.47
302.416	6.71
302.787	6.69
303.157	6.75
303.527	6.7
303.897	6.71
304.267	7.06
304.637	7.07
305.008	7.09
305.378	7.28
305.748	7.22
306.117	7.22
306.487	7.25
306.857	7.31
307.227	7.37
307.597	7.39
307.967	7.45
308.336	7.45
308.706	7.41
309.076	7.43
309.445	7.46
309.815	7.47
310.184	7.44
310.554	7.53
310.923	7.53
311.293	7.67
311.662	7.89
312.031	7.81
312.401	7.91
312.77	8.07
313.139	8.19
313.508	8.17
313.877	8.32
314.246	8.45
314.616	8.45
314.985	8.61
315.353	8.6
315.722	8.58
316.091	8.69
316.46	8.68
316.829	8.77
317.198	8.86
317.567	8.98
317.935	8.87
318.304	8.9
318.672	8.97
319.041	8.98
319.41	8.94
319.778	8.9
320.147	8.93
320.515	8.83
320.883	8.83
321.252	9.07
321.62	9.01
321.988	8.95
322.357	9.08
322.725	8.99
323.093	9.27
323.461	9.27
323.829	9.27
324.197	9.29
324.565	9.37
324.933	9.24
325.301	9.28
325.669	9.44
326.037	9.54
326.405	9.55
326.772	9.63
327.14	9.65
327.508	9.82
327.875	9.88
328.243	9.89
328.61	9.92
328.978	9.91
329.346	10.06
329.713	10.03
330.08	10.03
330.448	9.96
330.815	9.81
331.182	9.95
331.55	9.96
331.917	10.01
332.284	10.05
332.651	10.15
333.018	10.12
333.385	10.28
333.752	10.27
334.119	10.37
334.486	10.33
334.853	10.27
335.22	10.19
335.587	10.14
335.954	10.27
336.32	10.23
336.687	10.25
337.054	10.18
337.42	10.33
337.787	10.31
338.153	10.4
338.52	10.51
338.886	10.41
339.253	10.51
339.619	10.58
339.986	10.59
340.352	10.61
340.718	10.67
341.084	10.57
341.451	10.68
341.817	10.69
342.183	10.74
342.549	10.8
342.915	10.9
343.281	10.98
343.647	11.01
344.013	10.99
344.379	10.97
344.745	11.06
345.11	11
345.476	11.04
345.842	11.09
346.208	11.04
346.573	11.08
346.939	11.11
347.304	11.12
347.67	11.06
348.035	11
348.401	10.98
348.766	11.03
349.132	10.96
349.497	10.88
349.862	10.91
350.228	10.87
350.593	10.79
350.958	10.84
351.323	10.75
351.688	10.77
352.053	10.86
352.418	10.86
352.783	10.76
353.148	10.67
353.513	10.64
353.878	10.72
354.243	10.72
354.608	10.71
354.972	10.65
355.337	10.69
355.702	10.8
356.066	10.84
356.431	10.75
356.795	10.77
357.16	10.76
357.524	10.64
357.889	10.63
358.253	10.69
358.618	10.65
358.982	10.64
359.346	10.61
359.71	10.51
360.075	10.46
360.439	10.43
360.803	10.5
361.167	10.48
361.531	10.39
361.895	10.36
362.259	10.33
362.623	10.35
362.987	10.31
363.351	10.26
363.714	10.2
364.078	10.23
364.442	10.15
364.806	10.16
365.169	10.18
365.533	10.19
365.896	10.09
366.26	10.01
366.623	9.96
366.987	9.91
367.35	9.87
367.714	9.77
368.077	9.8
368.44	9.63
368.803	9.57
369.167	9.5
369.53	9.41
369.893	9.34
370.256	9.27
370.619	9.16
370.982	9.09
371.345	9.04
371.708	9.02
372.071	9
372.434	8.94
372.797	8.86
373.159	8.79
373.522	8.77
373.885	8.71
374.247	8.69
374.61	8.64
374.973	8.58
375.335	8.58
375.698	8.48
376.06	8.51
376.423	8.4
376.785	8.46
377.147	8.52
377.51	8.44
377.872	8.4
378.234	8.35
378.596	8.31
378.958	8.23
379.321	8.09
379.683	8.04
380.045	8.03
380.407	8
380.769	7.91
381.13	7.87
381.492	7.86
381.854	7.83
382.216	7.76
382.578	7.74
382.939	7.68
383.301	7.69
383.663	7.63
384.024	7.66
384.386	7.57
384.747	7.5
385.109	7.54
385.47	7.48
385.832	7.5
386.193	7.47
386.554	7.37
386.916	7.36
387.277	7.33
387.638	7.24
387.999	7.17
388.36	7.17
388.721	7.1
389.082	7.06
389.443	7.01
389.804	6.97
390.165	6.95
390.526	6.92
390.887	6.85
391.248	6.83
391.609	6.8
391.969	6.76
392.33	6.68
392.691	6.62
393.051	6.56
393.412	6.54
393.772	6.49
394.133	6.5
394.493	6.49
394.854	6.47
395.214	6.48
395.574	6.47
395.935	6.41
396.295	6.41
396.655	6.38
397.015	6.37
397.376	6.32
397.736	6.26
398.096	6.24
398.456	6.2
398.816	6.17
399.176	6.07
399.535	6.04
399.895	5.99
400.255	5.97
400.615	5.92
400.975	5.89
401.334	5.86
401.694	5.81
402.054	5.77
402.413	5.72
402.773	5.65
403.132	5.6
403.492	5.6
403.851	5.56
404.211	5.52
404.57	5.45
404.929	5.46
405.288	5.45
405.648	5.41
406.007	5.39
406.366	5.34
406.725	5.38
407.084	5.38
407.443	5.39
407.802	5.36
408.161	5.38
408.52	5.32
408.879	5.27
409.238	5.29
409.596	5.28
409.955	5.26
410.314	5.27
410.673	5.26
411.031	5.23
411.39	5.21
411.748	5.18
412.107	5.19
412.465	5.16
412.824	5.14
413.182	5.12
413.54	5.1
413.899	5.12
414.257	5.12
414.615	5.06
414.974	5.07
415.332	5.04
415.69	5.02
416.048	4.99
416.406	5.02
416.764	4.99
417.122	4.97
417.48	4.93
417.838	4.91
418.195	4.89
418.553	4.89
418.911	4.88
419.269	4.89
419.626	4.87
419.984	4.87
420.342	4.86
420.699	4.84
421.057	4.84
421.414	4.79
421.772	4.76
422.129	4.76
422.486	4.74
422.844	4.74
423.201	4.73
423.558	4.73
423.915	4.69
424.273	4.68
424.63	4.67
424.987	4.67
425.344	4.66
425.701	4.64
426.058	4.62
426.415	4.63
426.772	4.61
427.128	4.59
427.485	4.6
427.842	4.58
428.199	4.6
428.555	4.59
428.912	4.63
429.269	4.63
429.625	4.61
429.982	4.59
430.338	4.57
430.695	4.57
431.051	4.58
431.407	4.62
431.764	4.6
432.12	4.59
432.476	4.6
432.832	4.58
433.189	4.62
433.545	4.62
433.901	4.59
434.257	4.59
434.613	4.61
434.969	4.58
435.325	4.58
435.681	4.55
436.036	4.54
436.392	4.53
436.748	4.52
437.104	4.52
437.459	4.53
437.815	4.55
438.171	4.53
438.526	4.53
438.882	4.49
439.237	4.5
439.593	4.5
439.948	4.5
440.304	4.5
440.659	4.47
441.014	4.48
441.369	4.47
441.725	4.45
442.08	4.44
442.435	4.44
442.79	4.43
443.145	4.43
443.5	4.44
443.855	4.43
444.21	4.41
444.565	4.4
444.92	4.38
445.275	4.36
445.629	4.36
445.984	4.36
446.339	4.34
446.693	4.31
447.048	4.31
447.403	4.3
447.757	4.29
448.112	4.29
448.466	4.28
448.82	4.27
449.175	4.28
449.529	4.27
449.883	4.26
450.238	4.27
450.592	4.28
450.946	4.24
451.3	4.22
451.654	4.23
452.008	4.23
452.362	4.22
452.716	4.23
453.07	4.23
453.424	4.22
453.778	4.23
454.132	4.22
454.486	4.21
454.839	4.21
455.193	4.19
455.547	4.19
455.9	4.2
456.254	4.2
456.607	4.19
456.961	4.19
457.314	4.18
457.668	4.17
458.021	4.15
458.375	4.16
458.728	4.17
459.081	4.18
459.434	4.19
459.787	4.2
460.141	4.19
460.494	4.2
460.847	4.18
461.2	4.18
461.553	4.22
461.906	4.25
462.259	4.28
462.611	4.28
462.964	4.29
463.317	4.3
463.67	4.32
464.022	4.32
464.375	4.33
464.728	4.34
465.08	4.35
465.433	4.36
465.785	4.38
466.138	4.38
466.49	4.4
466.843	4.41
467.195	4.4
467.547	4.42
467.899	4.41
468.252	4.44
468.604	4.45
468.956	4.41
469.308	4.41
469.66	4.4
470.012	4.44
470.364	4.45
470.716	4.47
471.068	4.46
471.42	4.48
471.772	4.49
472.123	4.5
472.475	4.49
472.827	4.5
473.178	4.52
473.53	4.51
473.882	4.5
474.233	4.51
474.585	4.5
474.936	4.49
475.288	4.48
475.639	4.5
475.99	4.52
476.342	4.52
476.693	4.53
477.044	4.52
477.395	4.49
477.746	4.47
478.097	4.47
478.448	4.47
478.8	4.45
479.15	4.44
479.501	4.43
479.852	4.43
480.203	4.43
480.554	4.45
480.905	4.46
481.255	4.46
481.606	4.45
481.957	4.45
482.307	4.45
482.658	4.45
483.009	4.44
483.359	4.42
483.709	4.43
484.06	4.43
484.41	4.44
484.761	4.45
485.111	4.45
485.461	4.46
485.811	4.46
486.162	4.46
486.512	4.48
486.862	4.49
487.212	4.5
487.562	4.5
487.912	4.49
488.262	4.49
488.612	4.49
488.961	4.5
489.311	4.51
489.661	4.52
490.011	4.53
490.36	4.54
490.71	4.56
491.06	4.57
491.409	4.59
491.759	4.58
492.108	4.59
492.458	4.61
492.807	4.6
493.157	4.62
493.506	4.64
493.855	4.65
494.204	4.66
494.554	4.68
494.903	4.68
495.252	4.71
495.601	4.73
495.95	4.78
496.299	4.8
496.648	4.83
496.997	4.87
497.346	4.9
497.695	4.93
498.043	4.96
498.392	5
498.741	5.02
499.09	5.06
499.438	5.09
499.787	5.12
500.135	5.17
500.484	5.21
500.832	5.28
501.181	5.33
501.529	5.37
501.878	5.43
502.226	5.48
502.574	5.51
502.923	5.55
503.271	5.59
503.619	5.66
503.967	5.71
504.315	5.73
504.663	5.76
505.011	5.83
505.359	5.87
505.707	5.91
506.055	5.97
506.403	6.04
506.751	6.12
507.098	6.18
507.446	6.25
507.794	6.32
508.141	6.34
508.489	6.38
508.837	6.43
509.184	6.45
509.531	6.53
509.879	6.59
510.226	6.65
510.574	6.7
510.921	6.76
511.268	6.81
511.616	6.9
511.963	6.99
512.31	7.04
512.657	7.12
513.004	7.21
513.351	7.3
513.698	7.39
514.045	7.46
514.392	7.55
514.739	7.63
515.086	7.71
515.432	7.8
515.779	7.87
516.126	7.97
516.473	8.07
516.819	8.15
517.166	8.22
517.512	8.3
517.859	8.39
518.205	8.47
518.552	8.56
518.898	8.62
519.245	8.7
519.591	8.79
519.937	8.86
520.283	8.94
520.629	9.01
520.976	9.09
521.322	9.18
521.668	9.28
522.014	9.4
522.36	9.52
522.706	9.62
523.052	9.77
523.398	9.92
523.743	10.06
524.089	10.21
524.435	10.36
524.781	10.49
525.126	10.64
525.472	10.74
525.817	10.85
526.163	10.95
526.509	11.04
526.854	11.15
527.199	11.24
527.545	11.34
527.89	11.43
528.235	11.52
528.581	11.63
528.926	11.73
529.271	11.81
529.616	11.9
529.961	12.02
530.306	12.13
530.651	12.23
530.996	12.35
531.341	12.47
531.686	12.6
532.031	12.73
532.376	12.87
532.721	13.02
533.065	13.17
533.41	13.35
533.755	13.51
534.099	13.67
534.444	13.86
534.788	14.03
535.133	14.2
535.477	14.39
535.822	14.56
536.166	14.75
536.51	15
536.855	15.23
537.199	15.47
537.543	15.72
537.887	15.98
538.231	16.24
538.576	16.49
538.92	16.74
539.264	17.01
539.608	17.25
539.951	17.47
540.295	17.69
540.639	17.91
540.983	18.15
541.327	18.36
541.671	18.57
542.014	18.77
542.358	18.98
542.701	19.18
543.045	19.43
543.389	19.66
543.732	19.89
544.075	20.13
544.419	20.37
544.762	20.62
545.105	20.87
545.449	21.15
545.792	21.44
546.135	21.73
546.478	22.05
546.821	22.38
547.165	22.68
547.508	23.04
547.851	23.37
548.194	23.69
548.536	24.04
548.879	24.39
549.222	24.76
549.565	25.16
549.908	25.53
550.25	25.88
550.593	26.24
550.936	26.57
551.278	26.97
551.621	27.3
551.963	27.64
552.306	28.02
552.648	28.36
552.991	28.7
553.333	29.04
553.675	29.35
554.017	29.7
554.36	30.03
554.702	30.34
555.044	30.65
555.386	31
555.728	31.33
556.07	31.67
556.412	32
556.754	32.32
557.096	32.68
557.438	33.01
557.78	33.35
558.121	33.73
558.463	34.04
558.805	34.39
559.147	34.72
559.488	35.07
559.83	35.46
560.171	35.83
560.513	36.2
560.854	36.52
561.196	36.85
561.537	37.2
561.878	37.5
562.22	37.92
562.561	38.17
562.902	38.5
563.243	38.77
563.584	39.12
563.925	39.39
564.266	39.62
564.607	39.94
564.948	40.22
565.289	40.51
565.63	40.75
565.971	41.06
566.312	41.36
566.653	41.61
566.993	41.82
567.334	42.05
567.675	42.26
568.015	42.57
568.356	42.81
568.696	43.04
569.037	43.26
569.377	43.46
569.718	43.77
570.058	43.91
570.398	44.19
570.739	44.4
571.079	44.62
571.419	44.88
571.759	45.14
572.099	45.28
572.439	45.5
572.779	45.73
573.119	45.93
573.459	46.11
573.799	46.26
574.139	46.46
574.479	46.66
574.819	46.88
575.158	46.98
575.498	47.22
575.838	47.4
576.177	47.63
576.517	47.78
576.856	48
577.196	48.3
577.535	48.5
577.875	48.69
578.214	49.01
578.553	49.22
578.893	49.36
579.232	49.61
579.571	49.77
579.91	49.94
580.25	50.12
580.589	50.32
580.928	50.55
581.267	50.72
581.606	50.88
581.945	51.06
582.283	51.28
582.622	51.39
582.961	51.63
583.3	51.81
583.639	52.03
583.977	52.12
584.316	52.2
584.654	52.35
584.993	52.45
585.332	52.5
585.67	52.59
586.008	52.72
586.347	52.9
586.685	53.05
587.024	53.26
587.362	53.39
587.7	53.52
588.038	53.68
588.376	53.82
588.715	53.95
589.053	54.08
589.391	54.23
589.729	54.27
590.067	54.38
590.404	54.45
590.742	54.52
591.08	54.59
591.418	54.74
591.756	54.8
592.093	54.97
592.431	55.16
592.769	55.31
593.106	55.45
593.444	55.55
593.781	55.66
594.119	55.74
594.456	55.78
594.793	55.87
595.131	55.91
595.468	56.02
595.805	56.07
596.143	56.2
596.48	56.32
596.817	56.42
597.154	56.5
597.491	56.6
597.828	56.6
598.165	56.7
598.502	56.74
598.839	56.82
599.176	56.89
599.512	56.91
599.849	56.98
600.186	57.07
600.523	57.25
600.859	57.36
601.196	57.41
601.532	57.54
601.869	57.64
602.205	57.71
602.542	57.82
602.878	57.84
603.215	57.92
603.551	57.92
603.887	58.08
604.223	58.07
604.56	58.16
604.896	58.3
605.232	58.33
605.568	58.41
605.904	58.52
606.24	58.59
606.576	58.58
606.912	58.62
607.248	58.63
607.583	58.67
607.919	58.73
608.255	58.8
608.591	58.86
608.926	58.92
609.262	59.03
609.597	59.05
609.933	59.23
610.268	59.28
610.604	59.39
610.939	59.38
611.275	59.52
611.61	59.5
611.945	59.56
612.281	59.7
612.616	59.82
612.951	59.86
613.286	59.94
613.621	60.19
613.956	60.26
614.291	60.38
614.626	60.45
614.961	60.43
615.296	60.47
615.631	60.49
615.966	60.54
616.3	60.61
616.635	60.63
616.97	60.64
617.304	60.64
617.639	60.71
617.973	60.84
618.308	60.86
618.642	61
618.977	61.09
619.311	61.08
619.646	61.15
619.98	61.18
620.314	61.24
620.648	61.1
620.983	61.17
621.317	61.15
621.651	61.12
621.985	61.17
622.319	61.15
622.653	61.23
622.987	61.33
623.321	61.4
623.655	61.5
623.988	61.45
624.322	61.55
624.656	61.5
624.99	61.49
625.323	61.53
625.657	61.42
625.99	61.34
626.324	61.41
626.657	61.44
626.991	61.39
627.324	61.36
627.658	61.43
627.991	61.54
628.324	61.69
628.657	61.62
628.991	61.74
629.324	61.92
629.657	61.95
629.99	61.97
630.323	61.98
630.656	62.03
630.989	62.14
631.322	62.08
631.655	62.07
631.987	61.99
632.32	61.97
632.653	62.18
632.986	62.35
633.318	62.4
633.651	62.36
633.984	62.46
634.316	62.5
634.649	62.63
634.981	62.55
635.313	62.41
635.646	62.57
635.978	62.6
636.31	62.59
636.643	62.61
636.975	62.51
637.307	62.61
637.639	62.57
637.971	62.54
638.303	62.62
638.635	62.74
638.967	62.86
639.299	62.92
639.631	62.87
639.963	62.79
640.295	62.75
640.626	62.77
640.958	62.9
641.29	62.91
641.621	62.91
641.953	62.98
642.285	63.13
642.616	63.28
642.948	63.18
643.279	63.2
643.61	63.24
643.942	63.33
644.273	63.16
644.604	63.25
644.936	63.37
645.267	63.46
645.598	63.38
645.929	63.42
646.26	63.45
646.591	63.42
646.922	63.39
647.253	63.39
647.584	63.38
647.915	63.32
648.245	63.25
648.576	63.19
648.907	63.24
649.238	63.18
649.568	63.07
649.899	63.1
650.229	63.17
650.56	63.1
650.89	63.04
651.221	63.21
651.551	63.06
651.882	63.04
652.212	62.89
652.542	62.9
652.872	62.88
653.203	62.97
653.533	63.04
653.863	63.15
654.193	63.13
654.523	63.27
654.853	63.33
655.183	63.43
655.513	63.48
655.843	63.45
656.172	63.55
656.502	63.64
656.832	63.69
657.162	63.65
657.491	63.63
657.821	63.72
658.15	63.76
658.48	63.86
658.809	63.89
659.139	63.94
659.468	64.06
659.798	64.11
660.127	64.09
660.456	64.18
660.785	64.1
661.115	64.25
661.444	64.16
661.773	64.22
662.102	64.29
662.431	64.23
662.76	64.13
663.089	64.13
663.418	64.1
663.747	64.12
664.076	64.04
664.404	64.1
664.733	64.02
665.062	63.95
665.39	63.98
665.719	63.97
