Data from BA28473_Reflection_00002.txt Node
Date: Mon Nov 18 15:28:06 EST 2019
User: vgr7
Spectrometer: USB2G7710
Scans to average: 3
Trigger mode: 4
Integration Time (sec): 2.000000E-2
Electric dark correction enabled: true
Boxcar width: 10
XAxis mode: Wavelengths
Number of Pixels in Spectrum: 2048
>>>>>Begin Spectral Data<<<<<
177.721	140.43
178.105	19.86
178.488	-89.94
178.871	-85.52
179.254	-137.94
179.636	111.24
180.019	-6.87
180.402	112.5
180.785	619.48
181.168	1090.38
181.55	514.1
181.933	9.01
182.316	-18.48
182.698	-24.04
183.081	-31.99
183.463	-59.77
183.846	-40.46
184.228	-51.85
184.611	-50.11
184.993	-151.27
185.376	-165.11
185.758	-114.24
186.14	-100.17
186.522	-43.12
186.904	-48.31
187.287	-38.72
187.669	-102.64
188.051	-85.63
188.433	-134.79
188.815	-135.16
189.197	-43.38
189.579	22.15
189.961	31.54
190.342	146.19
190.724	-103.34
191.106	-158.35
191.488	-207.69
191.869	-75.66
192.251	-239.83
192.633	-133.72
193.014	38.86
193.396	85.53
193.777	168.6
194.159	134.04
194.54	-24.75
194.922	13.26
195.303	77.74
195.684	71.49
196.065	54.42
196.447	188.77
196.828	-961.22
197.209	-314.2
197.59	389.59
197.971	172.44
198.352	98.68
198.733	130.46
199.114	51.8
199.495	51.08
199.876	56.1
200.257	77.45
200.638	80.98
201.018	46
201.399	38.81
201.78	33.83
202.16	6.46
202.541	-12.42
202.922	-21.32
203.302	-20.41
203.683	-19.04
204.063	-56.83
204.444	-49.82
204.824	-19.04
205.204	-23.28
205.585	-31.19
205.965	-22.07
206.345	-36.1
206.725	-72.53
207.106	-181.9
207.486	-220.13
207.866	-365.75
208.246	-247.57
208.626	-175.31
209.006	-103.28
209.386	-86.22
209.766	-89.98
210.145	-50.21
210.525	-35.42
210.905	-18.25
211.285	-36.35
211.664	-51.25
212.044	-33.03
212.424	-29.59
212.803	-132.68
213.183	-55.97
213.562	-57.2
213.942	-60.22
214.321	-45.09
214.701	-21.68
215.08	-23.98
215.459	-2.22
215.838	-6.45
216.218	-39.25
216.597	-38.33
216.976	-50.37
217.355	-87.47
217.734	-84.08
218.113	-64.79
218.492	-47.63
218.871	-75.18
219.25	-60.08
219.629	-38.72
220.008	-39.47
220.387	-51.56
220.766	-34.84
221.144	-56.8
221.523	-41.54
221.902	-32.15
222.28	-32.13
222.659	-37.79
223.037	-21.53
223.416	-26.2
223.794	-32.09
224.173	-24.06
224.551	-6.34
224.929	-2.71
225.308	12.29
225.686	18.87
226.064	16.71
226.442	10.87
226.821	11.59
227.199	10.79
227.577	10.77
227.955	7.51
228.333	9.65
228.711	12.01
229.089	13.42
229.467	12.1
229.845	9.93
230.222	12.8
230.6	12.22
230.978	12.14
231.356	11.18
231.733	13.14
232.111	11.31
232.488	9.33
232.866	11.77
233.243	10.1
233.621	9.06
233.998	9.92
234.376	10.06
234.753	10.37
235.13	11.36
235.508	10.51
235.885	12.57
236.262	11.44
236.639	10.02
237.016	8.67
237.393	9.34
237.77	10.1
238.147	9.61
238.524	9.31
238.901	9.36
239.278	9.28
239.655	9.79
240.032	10.69
240.409	10.15
240.785	9.92
241.162	9.82
241.539	9.17
241.915	9.12
242.292	8.7
242.668	8.62
243.045	7.93
243.421	7.91
243.798	7.68
244.174	8.05
244.551	7.77
244.927	8.02
245.303	7.93
245.679	7.78
246.056	7.57
246.432	7.62
246.808	7.79
247.184	7.63
247.56	7.51
247.936	7.42
248.312	7.17
248.688	7.02
249.064	6.83
249.44	6.97
249.815	6.97
250.191	7.39
250.567	7.49
250.943	7.74
251.318	7.94
251.694	7.94
252.069	7.63
252.445	7.78
252.82	7.74
253.196	7.77
253.571	7.73
253.947	7.78
254.322	7.94
254.697	7.49
255.073	7.51
255.448	7.39
255.823	7.46
256.198	7.75
256.573	7.48
256.948	7.4
257.323	7.38
257.698	7.27
258.073	7.03
258.448	6.91
258.823	6.72
259.198	6.42
259.573	6.31
259.948	6.34
260.322	6.44
260.697	6.29
261.072	6.13
261.446	6.21
261.821	6.14
262.195	6.17
262.57	6.28
262.944	6.27
263.319	6.3
263.693	6.25
264.067	6.07
264.442	6.34
264.816	6.43
265.19	6.4
265.564	6.33
265.938	6.2
266.313	6.33
266.687	6.29
267.061	6.45
267.435	6.58
267.809	6.57
268.183	6.49
268.556	6.5
268.93	6.49
269.304	6.41
269.678	6.44
270.051	6.22
270.425	6.22
270.799	6.13
271.172	6.06
271.546	6
271.919	6.1
272.293	5.99
272.666	6.03
273.04	6.05
273.413	6.01
273.787	6.08
274.16	5.94
274.533	6.04
274.906	6.11
275.279	6.1
275.653	6.15
276.026	6.05
276.399	6.2
276.772	6.4
277.145	6.31
277.518	6.36
277.891	6.48
278.263	6.39
278.636	6.51
279.009	6.4
279.382	6.51
279.755	6.42
280.127	6.73
280.5	6.78
280.872	6.79
281.245	6.73
281.617	6.82
281.99	6.84
282.362	6.71
282.735	6.49
283.107	6.51
283.479	6.47
283.852	6.46
284.224	6.24
284.596	6.22
284.968	6.46
285.34	6.44
285.713	6.49
286.085	6.65
286.457	6.78
286.829	6.87
287.201	6.84
287.572	6.78
287.944	6.57
288.316	6.41
288.688	6.41
289.06	6.36
289.431	6.38
289.803	6.38
290.175	6.41
290.546	6.59
290.918	6.72
291.289	6.83
291.661	7.07
292.032	7.3
292.403	7.26
292.775	7.09
293.146	7.13
293.517	7.16
293.889	7.16
294.26	7.19
294.631	7.16
295.002	7.17
295.373	7.16
295.744	7.31
296.115	7.41
296.486	7.35
296.857	7.5
297.228	7.42
297.599	7.45
297.97	7.47
298.34	7.42
298.711	7.4
299.082	7.35
299.452	7.3
299.823	7.34
300.194	7.26
300.564	7.33
300.935	7.4
301.305	7.23
301.676	7.11
302.046	7.09
302.416	7.19
302.787	7.06
303.157	7.1
303.527	6.94
303.897	6.82
304.267	7
304.637	7
305.008	7.17
305.378	7.3
305.748	7.46
306.117	7.51
306.487	7.53
306.857	7.52
307.227	7.5
307.597	7.36
307.967	7.4
308.336	7.33
308.706	7.29
309.076	7.58
309.445	7.54
309.815	7.52
310.184	7.53
310.554	7.62
310.923	7.62
311.293	7.62
311.662	7.69
312.031	7.58
312.401	7.56
312.77	7.52
313.139	7.46
313.508	7.33
313.877	7.3
314.246	7.2
314.616	7.24
314.985	7.18
315.353	7.17
315.722	7.19
316.091	7.17
316.46	7.1
316.829	6.97
317.198	7.07
317.567	6.92
317.935	6.86
318.304	6.95
318.672	7.02
319.041	7.06
319.41	7.08
319.778	6.97
320.147	6.98
320.515	6.74
320.883	6.57
321.252	6.81
321.62	6.86
321.988	7.04
322.357	7.03
322.725	6.97
323.093	7.04
323.461	7.19
323.829	7.27
324.197	7.49
324.565	7.45
324.933	7.55
325.301	7.64
325.669	7.71
326.037	7.73
326.405	7.68
326.772	7.76
327.14	7.9
327.508	8.01
327.875	7.83
328.243	8.16
328.61	8.13
328.978	8.01
329.346	8.1
329.713	7.98
330.08	8.08
330.448	8.07
330.815	8.07
331.182	8.13
331.55	7.99
331.917	7.81
332.284	7.81
332.651	7.73
333.018	7.76
333.385	7.69
333.752	7.64
334.119	7.81
334.486	7.67
334.853	7.63
335.22	7.62
335.587	7.86
335.954	7.72
336.32	7.74
336.687	7.73
337.054	7.68
337.42	7.65
337.787	7.71
338.153	7.81
338.52	7.72
338.886	7.38
339.253	7.4
339.619	7.53
339.986	7.61
340.352	7.62
340.718	7.47
341.084	7.5
341.451	7.54
341.817	7.4
342.183	7.4
342.549	7.33
342.915	7.3
343.281	7.29
343.647	7.26
344.013	7.39
344.379	7.39
344.745	7.33
345.11	7.29
345.476	7.18
345.842	7.07
346.208	7.17
346.573	7.41
346.939	7.56
347.304	7.4
347.67	7.27
348.035	7.25
348.401	7.3
348.766	7.27
349.132	7.26
349.497	7.3
349.862	7.41
350.228	7.43
350.593	7.37
350.958	7.36
351.323	7.44
351.688	7.41
352.053	7.48
352.418	7.5
352.783	7.58
353.148	7.59
353.513	7.67
353.878	7.62
354.243	7.59
354.608	7.54
354.972	7.6
355.337	7.69
355.702	7.76
356.066	7.8
356.431	7.76
356.795	7.82
357.16	7.78
357.524	7.74
357.889	7.71
358.253	7.78
358.618	7.86
358.982	7.73
359.346	7.69
359.71	7.67
360.075	7.69
360.439	7.61
360.803	7.58
361.167	7.55
361.531	7.51
361.895	7.52
362.259	7.49
362.623	7.48
362.987	7.46
363.351	7.38
363.714	7.35
364.078	7.38
364.442	7.29
364.806	7.31
365.169	7.29
365.533	7.31
365.896	7.29
366.26	7.25
366.623	7.31
366.987	7.33
367.35	7.28
367.714	7.31
368.077	7.41
368.44	7.42
368.803	7.38
369.167	7.41
369.53	7.4
369.893	7.46
370.256	7.43
370.619	7.39
370.982	7.46
371.345	7.46
371.708	7.46
372.071	7.43
372.434	7.43
372.797	7.46
373.159	7.36
373.522	7.38
373.885	7.37
374.247	7.4
374.61	7.46
374.973	7.46
375.335	7.41
375.698	7.36
376.06	7.35
376.423	7.42
376.785	7.46
377.147	7.44
377.51	7.41
377.872	7.48
378.234	7.5
378.596	7.5
378.958	7.51
379.321	7.57
379.683	7.6
380.045	7.6
380.407	7.6
380.769	7.69
381.13	7.66
381.492	7.63
381.854	7.62
382.216	7.56
382.578	7.61
382.939	7.62
383.301	7.67
383.663	7.72
384.024	7.67
384.386	7.7
384.747	7.72
385.109	7.72
385.47	7.69
385.832	7.7
386.193	7.7
386.554	7.7
386.916	7.66
387.277	7.63
387.638	7.64
387.999	7.63
388.36	7.59
388.721	7.58
389.082	7.63
389.443	7.62
389.804	7.65
390.165	7.63
390.526	7.65
390.887	7.6
391.248	7.57
391.609	7.68
391.969	7.66
392.33	7.62
392.691	7.63
393.051	7.6
393.412	7.6
393.772	7.58
394.133	7.61
394.493	7.59
394.854	7.62
395.214	7.64
395.574	7.62
395.935	7.65
396.295	7.69
396.655	7.67
397.015	7.72
397.376	7.72
397.736	7.73
398.096	7.73
398.456	7.74
398.816	7.74
399.176	7.66
399.535	7.64
399.895	7.66
400.255	7.65
400.615	7.69
400.975	7.67
401.334	7.66
401.694	7.61
402.054	7.62
402.413	7.63
402.773	7.58
403.132	7.57
403.492	7.61
403.851	7.56
404.211	7.53
404.57	7.51
404.929	7.52
405.288	7.5
405.648	7.51
406.007	7.52
406.366	7.51
406.725	7.53
407.084	7.56
407.443	7.53
407.802	7.56
408.161	7.55
408.52	7.55
408.879	7.57
409.238	7.61
409.596	7.64
409.955	7.63
410.314	7.7
410.673	7.69
411.031	7.68
411.39	7.73
411.748	7.74
412.107	7.78
412.465	7.74
412.824	7.75
413.182	7.73
413.54	7.76
413.899	7.78
414.257	7.79
414.615	7.75
414.974	7.78
415.332	7.76
415.69	7.77
416.048	7.75
416.406	7.76
416.764	7.73
417.122	7.73
417.48	7.73
417.838	7.71
418.195	7.72
418.553	7.71
418.911	7.69
419.269	7.71
419.626	7.7
419.984	7.7
420.342	7.7
420.699	7.69
421.057	7.66
421.414	7.64
421.772	7.66
422.129	7.68
422.486	7.66
422.844	7.66
423.201	7.66
423.558	7.68
423.915	7.67
424.273	7.7
424.63	7.7
424.987	7.68
425.344	7.67
425.701	7.68
426.058	7.68
426.415	7.68
426.772	7.66
427.128	7.66
427.485	7.66
427.842	7.68
428.199	7.69
428.555	7.72
428.912	7.73
429.269	7.7
429.625	7.68
429.982	7.7
430.338	7.71
430.695	7.7
431.051	7.7
431.407	7.69
431.764	7.67
432.12	7.67
432.476	7.71
432.832	7.7
433.189	7.69
433.545	7.7
433.901	7.7
434.257	7.72
434.613	7.72
434.969	7.71
435.325	7.69
435.681	7.69
436.036	7.7
436.392	7.7
436.748	7.7
437.104	7.71
437.459	7.71
437.815	7.71
438.171	7.73
438.526	7.75
438.882	7.77
439.237	7.78
439.593	7.78
439.948	7.76
440.304	7.78
440.659	7.79
441.014	7.78
441.369	7.75
441.725	7.73
442.08	7.73
442.435	7.73
442.79	7.73
443.145	7.72
443.5	7.7
443.855	7.68
444.21	7.7
444.565	7.69
444.92	7.69
445.275	7.67
445.629	7.66
445.984	7.66
446.339	7.65
446.693	7.62
447.048	7.61
447.403	7.62
447.757	7.6
448.112	7.58
448.466	7.58
448.82	7.6
449.175	7.62
449.529	7.62
449.883	7.63
450.238	7.62
450.592	7.64
450.946	7.62
451.3	7.66
451.654	7.63
452.008	7.64
452.362	7.63
452.716	7.65
453.07	7.64
453.424	7.62
453.778	7.62
454.132	7.63
454.486	7.62
454.839	7.6
455.193	7.62
455.547	7.63
455.9	7.66
456.254	7.65
456.607	7.67
456.961	7.68
457.314	7.69
457.668	7.71
458.021	7.7
458.375	7.72
458.728	7.7
459.081	7.72
459.434	7.72
459.787	7.73
460.141	7.74
460.494	7.75
460.847	7.75
461.2	7.75
461.553	7.76
461.906	7.77
462.259	7.78
462.611	7.79
462.964	7.79
463.317	7.77
463.67	7.79
464.022	7.78
464.375	7.75
464.728	7.72
465.08	7.72
465.433	7.74
465.785	7.74
466.138	7.74
466.49	7.73
466.843	7.72
467.195	7.69
467.547	7.69
467.899	7.7
468.252	7.71
468.604	7.71
468.956	7.72
469.308	7.73
469.66	7.73
470.012	7.72
470.364	7.72
470.716	7.71
471.068	7.69
471.42	7.69
471.772	7.72
472.123	7.77
472.475	7.78
472.827	7.77
473.178	7.78
473.53	7.78
473.882	7.8
474.233	7.82
474.585	7.83
474.936	7.83
475.288	7.8
475.639	7.79
475.99	7.79
476.342	7.79
476.693	7.8
477.044	7.83
477.395	7.83
477.746	7.83
478.097	7.85
478.448	7.88
478.8	7.87
479.15	7.85
479.501	7.84
479.852	7.83
480.203	7.83
480.554	7.85
480.905	7.86
481.255	7.85
481.606	7.86
481.957	7.89
482.307	7.9
482.658	7.9
483.009	7.89
483.359	7.9
483.709	7.9
484.06	7.9
484.41	7.9
484.761	7.92
485.111	7.91
485.461	7.91
485.811	7.91
486.162	7.91
486.512	7.92
486.862	7.93
487.212	7.95
487.562	7.96
487.912	7.95
488.262	7.95
488.612	7.96
488.961	7.97
489.311	7.95
489.661	7.94
490.011	7.95
490.36	7.97
490.71	7.97
491.06	7.98
491.409	7.98
491.759	7.96
492.108	7.95
492.458	7.96
492.807	7.95
493.157	7.94
493.506	7.93
493.855	7.94
494.204	7.92
494.554	7.9
494.903	7.88
495.252	7.88
495.601	7.89
495.95	7.87
496.299	7.86
496.648	7.85
496.997	7.85
497.346	7.87
497.695	7.87
498.043	7.88
498.392	7.86
498.741	7.86
499.09	7.87
499.438	7.88
499.787	7.9
500.135	7.91
500.484	7.91
500.832	7.91
501.181	7.9
501.529	7.92
501.878	7.93
502.226	7.92
502.574	7.93
502.923	7.94
503.271	7.96
503.619	7.96
503.967	7.96
504.315	7.98
504.663	7.97
505.011	7.97
505.359	7.93
505.707	7.97
506.055	7.97
506.403	7.99
506.751	7.97
507.098	7.97
507.446	8
507.794	8.02
508.141	8.05
508.489	8.06
508.837	8.07
509.184	8.07
509.531	8.11
509.879	8.13
510.226	8.12
510.574	8.11
510.921	8.15
511.268	8.17
511.616	8.17
511.963	8.17
512.31	8.19
512.657	8.22
513.004	8.2
513.351	8.22
513.698	8.24
514.045	8.26
514.392	8.27
514.739	8.28
515.086	8.3
515.432	8.3
515.779	8.29
516.126	8.3
516.473	8.31
516.819	8.31
517.166	8.31
517.512	8.32
517.859	8.34
518.205	8.32
518.552	8.33
518.898	8.32
519.245	8.33
519.591	8.31
519.937	8.31
520.283	8.31
520.629	8.31
520.976	8.29
521.322	8.29
521.668	8.29
522.014	8.3
522.36	8.29
522.706	8.27
523.052	8.27
523.398	8.27
523.743	8.3
524.089	8.29
524.435	8.29
524.781	8.3
525.126	8.29
525.472	8.29
525.817	8.3
526.163	8.31
526.509	8.33
526.854	8.34
527.199	8.35
527.545	8.35
527.89	8.35
528.235	8.37
528.581	8.37
528.926	8.37
529.271	8.36
529.616	8.38
529.961	8.39
530.306	8.39
530.651	8.39
530.996	8.37
531.341	8.38
531.686	8.38
532.031	8.39
532.376	8.39
532.721	8.41
533.065	8.41
533.41	8.41
533.755	8.4
534.099	8.42
534.444	8.41
534.788	8.44
535.133	8.44
535.477	8.45
535.822	8.46
536.166	8.48
536.51	8.5
536.855	8.49
537.199	8.49
537.543	8.49
537.887	8.49
538.231	8.51
538.576	8.53
538.92	8.52
539.264	8.52
539.608	8.52
539.951	8.52
540.295	8.52
540.639	8.52
540.983	8.53
541.327	8.51
541.671	8.51
542.014	8.49
542.358	8.5
542.701	8.47
543.045	8.47
543.389	8.46
543.732	8.45
544.075	8.47
544.419	8.48
544.762	8.49
545.105	8.5
545.449	8.49
545.792	8.49
546.135	8.52
546.478	8.53
546.821	8.53
547.165	8.53
547.508	8.55
547.851	8.54
548.194	8.51
548.536	8.52
548.879	8.55
549.222	8.57
549.565	8.57
549.908	8.59
550.25	8.6
550.593	8.61
550.936	8.6
551.278	8.59
551.621	8.59
551.963	8.62
552.306	8.63
552.648	8.66
552.991	8.65
553.333	8.65
553.675	8.63
554.017	8.65
554.36	8.64
554.702	8.62
555.044	8.65
555.386	8.68
555.728	8.67
556.07	8.68
556.412	8.67
556.754	8.67
557.096	8.64
557.438	8.64
557.78	8.62
558.121	8.65
558.463	8.67
558.805	8.67
559.147	8.65
559.488	8.63
559.83	8.62
560.171	8.63
560.513	8.65
560.854	8.63
561.196	8.62
561.537	8.64
561.878	8.63
562.22	8.62
562.561	8.6
562.902	8.64
563.243	8.62
563.584	8.64
563.925	8.66
564.266	8.69
564.607	8.69
564.948	8.71
565.289	8.69
565.63	8.67
565.971	8.67
566.312	8.68
566.653	8.7
566.993	8.68
567.334	8.68
567.675	8.68
568.015	8.73
568.356	8.73
568.696	8.76
569.037	8.77
569.377	8.76
569.718	8.79
570.058	8.76
570.398	8.77
570.739	8.78
571.079	8.79
571.419	8.8
571.759	8.81
572.099	8.8
572.439	8.84
572.779	8.83
573.119	8.82
573.459	8.82
573.799	8.82
574.139	8.82
574.479	8.84
574.819	8.83
575.158	8.8
575.498	8.79
575.838	8.78
576.177	8.75
576.517	8.77
576.856	8.79
577.196	8.79
577.535	8.81
577.875	8.83
578.214	8.82
578.553	8.83
578.893	8.8
579.232	8.82
579.571	8.8
579.91	8.81
580.25	8.81
580.589	8.79
580.928	8.78
581.267	8.78
581.606	8.7
581.945	8.68
582.283	8.67
582.622	8.71
582.961	8.72
583.3	8.74
583.639	8.76
583.977	8.72
584.316	8.7
584.654	8.69
584.993	8.66
585.332	8.65
585.67	8.65
586.008	8.66
586.347	8.65
586.685	8.67
587.024	8.74
587.362	8.74
587.7	8.76
588.038	8.8
588.376	8.8
588.715	8.85
589.053	8.91
589.391	9
589.729	8.97
590.067	8.97
590.404	8.99
590.742	8.96
591.08	8.95
591.418	8.98
591.756	8.97
592.093	8.99
592.431	9
592.769	8.98
593.106	9.01
593.444	9
593.781	8.99
594.119	8.96
594.456	8.96
594.793	8.92
595.131	8.91
595.468	8.94
595.805	8.95
596.143	8.9
596.48	8.85
596.817	8.85
597.154	8.9
597.491	8.92
597.828	8.91
598.165	8.94
598.502	8.93
598.839	8.94
599.176	8.92
599.512	8.96
599.849	9.01
600.186	8.99
600.523	9
600.859	9.05
601.196	9.05
601.532	9.08
601.869	9.12
602.205	9.1
602.542	9.08
602.878	9.08
603.215	9.1
603.551	9.13
603.887	9.17
604.223	9.12
604.56	9.13
604.896	9.17
605.232	9.16
605.568	9.18
605.904	9.17
606.24	9.18
606.576	9.16
606.912	9.15
607.248	9.17
607.583	9.21
607.919	9.18
608.255	9.15
608.591	9.16
608.926	9.12
609.262	9.19
609.597	9.21
609.933	9.23
610.268	9.25
610.604	9.26
610.939	9.24
611.275	9.23
611.61	9.23
611.945	9.21
612.281	9.23
612.616	9.24
612.951	9.27
613.286	9.25
613.621	9.26
613.956	9.27
614.291	9.26
614.626	9.19
614.961	9.18
615.296	9.19
615.631	9.17
615.966	9.22
616.3	9.14
616.635	9.15
616.97	9.16
617.304	9.16
617.639	9.18
617.973	9.19
618.308	9.21
618.642	9.16
618.977	9.18
619.311	9.16
619.646	9.17
619.98	9.19
620.314	9.24
620.648	9.29
620.983	9.28
621.317	9.28
621.651	9.33
621.985	9.35
622.319	9.43
622.653	9.49
622.987	9.48
623.321	9.51
623.655	9.51
623.988	9.52
624.322	9.5
624.656	9.46
624.99	9.46
625.323	9.52
625.657	9.58
625.99	9.6
626.324	9.65
626.657	9.63
626.991	9.64
627.324	9.6
627.658	9.59
627.991	9.61
628.324	9.6
628.657	9.62
628.991	9.64
629.324	9.62
629.657	9.61
629.99	9.66
630.323	9.67
630.656	9.67
630.989	9.71
631.322	9.72
631.655	9.76
631.987	9.78
632.32	9.72
632.653	9.67
632.986	9.66
633.318	9.62
633.651	9.68
633.984	9.67
634.316	9.71
634.649	9.69
634.981	9.64
635.313	9.67
635.646	9.62
635.978	9.63
636.31	9.58
636.643	9.59
636.975	9.54
637.307	9.53
637.639	9.53
637.971	9.48
638.303	9.48
638.635	9.45
638.967	9.42
639.299	9.46
639.631	9.48
639.963	9.46
640.295	9.47
640.626	9.45
640.958	9.42
641.29	9.4
641.621	9.43
641.953	9.47
642.285	9.5
642.616	9.58
642.948	9.53
643.279	9.58
643.61	9.55
643.942	9.62
644.273	9.64
644.604	9.66
644.936	9.64
645.267	9.67
645.598	9.65
645.929	9.67
646.26	9.71
646.591	9.7
646.922	9.66
647.253	9.64
647.584	9.63
647.915	9.69
648.245	9.73
648.576	9.67
648.907	9.66
649.238	9.62
649.568	9.62
649.899	9.66
650.229	9.61
650.56	9.65
650.89	9.62
651.221	9.61
651.551	9.56
651.882	9.64
652.212	9.58
652.542	9.63
652.872	9.62
653.203	9.53
653.533	9.65
653.863	9.68
654.193	9.68
654.523	9.75
654.853	9.8
655.183	9.76
655.513	9.79
655.843	9.82
656.172	9.82
656.502	9.74
656.832	9.73
657.162	9.82
657.491	9.82
657.821	9.88
658.15	9.95
658.48	9.95
658.809	9.94
659.139	9.97
659.468	9.98
659.798	10
660.127	10.02
660.456	9.94
660.785	9.98
661.115	10.01
661.444	9.99
661.773	9.95
662.102	9.95
662.431	9.99
662.76	10
663.089	10.01
663.418	10.05
663.747	10.03
664.076	10.04
664.404	9.98
664.733	9.96
665.062	9.9
665.39	9.91
665.719	9.89
666.048	9.94
666.376	9.91
666.705	9.91
667.033	9.93
667.362	9.98
667.69	9.93
668.018	9.97
668.347	9.97
668.675	9.97
669.003	9.97
669.331	9.95
669.659	9.92
669.987	9.91
670.315	9.95
670.643	10.02
670.971	9.97
671.299	10.06
671.627	10.08
671.955	10.08
672.283	10.1
672.61	10.07
672.938	10.06
673.266	10.07
673.593	10.19
673.921	10.15
674.249	10.15
674.576	10.13
674.904	10.13
675.231	10.15
675.558	10.23
675.886	10.21
676.213	10.22
676.54	10.3
676.867	10.43
