Data from BA28470_Reflection_00005.txt Node
Date: Mon Nov 18 15:09:59 EST 2019
User: vgr7
Spectrometer: USB2G7710
Scans to average: 3
Trigger mode: 4
Integration Time (sec): 2.000000E-2
Electric dark correction enabled: true
Boxcar width: 10
XAxis mode: Wavelengths
Number of Pixels in Spectrum: 2048
>>>>>Begin Spectral Data<<<<<
177.721	161.44
178.105	100
178.488	-148.91
178.871	111.03
179.254	-66.05
179.636	86.73
180.019	-173.94
180.402	42.42
180.785	-5818.92
181.168	-188.08
181.55	-163.84
181.933	157.32
182.316	141.47
182.698	207.54
183.081	112.92
183.463	86.02
183.846	85.59
184.228	34.82
184.611	35.67
184.993	56.58
185.376	102.88
185.758	145.14
186.14	200.15
186.522	115.94
186.904	83.09
187.287	259.33
187.669	144.27
188.051	54.82
188.433	24.81
188.815	-50.23
189.197	-58.2
189.579	-79.62
189.961	-42.36
190.342	-975.47
190.724	296.91
191.106	-1547.89
191.488	-592.31
191.869	250.98
192.251	86.18
192.633	67.38
193.014	91.56
193.396	156.03
193.777	9.47
194.159	-28.32
194.54	-39.07
194.922	-66.54
195.303	-33.67
195.684	-31.11
196.065	-11.95
196.447	-52.02
196.828	-76.63
197.209	-83.08
197.59	-88.48
197.971	-66.06
198.352	-43.63
198.733	-60.28
199.114	-56.6
199.495	-56.98
199.876	-55.02
200.257	-52.63
200.638	-46.04
201.018	-53.37
201.399	-61.48
201.78	-44.17
202.16	-43.18
202.541	-45.06
202.922	-50.58
203.302	-65.93
203.683	-106.48
204.063	-294.02
204.444	-145.39
204.824	-124.86
205.204	-139.48
205.585	-209.37
205.965	-555.38
206.345	-744.5
206.725	1070.91
207.106	-2036.69
207.486	407.15
207.866	1638.07
208.246	3365.49
208.626	909.77
209.006	-1768.57
209.386	-869.23
209.766	-377.76
210.145	-351.4
210.525	-349.82
210.905	-434.01
211.285	-430.32
211.664	-207.11
212.044	-185.35
212.424	-179.49
212.803	-191.01
213.183	-200.43
213.562	-140.4
213.942	-125.46
214.321	-110.51
214.701	-101.09
215.08	-111.02
215.459	-88.14
215.838	-89.89
216.218	-92.65
216.597	-71.82
216.976	-62.74
217.355	-55.51
217.734	-61.05
218.113	-47.5
218.492	-43.94
218.871	-47.32
219.25	-33.48
219.629	-47.79
220.008	-45.36
220.387	-55.42
220.766	-55.77
221.144	-50.51
221.523	-51.75
221.902	-56.22
222.28	-67.29
222.659	-56.75
223.037	-58.18
223.416	-56.45
223.794	-48.6
224.173	-43.35
224.551	-39.52
224.929	-52.45
225.308	-46.95
225.686	-40.79
226.064	-41.38
226.442	-37.46
226.821	-29.86
227.199	-29.58
227.577	-20.16
227.955	-20.03
228.333	-16.34
228.711	-13.22
229.089	-7.66
229.467	-6.98
229.845	-8.84
230.222	-8.67
230.6	-7.85
230.978	-5.72
231.356	-3.21
231.733	-3.05
232.111	-2.35
232.488	-2.82
232.866	-0.16
233.243	1.11
233.621	-0.89
233.998	0.75
234.376	-1.19
234.753	-0.53
235.13	0.38
235.508	0.66
235.885	2.02
236.262	2.21
236.639	2.22
237.016	1.57
237.393	1.63
237.77	3.97
238.147	4.68
238.524	4.36
238.901	3.67
239.278	3.44
239.655	4.24
240.032	3.8
240.409	3.66
240.785	3.5
241.162	3.51
241.539	3.79
241.915	3.57
242.292	3.82
242.668	4.46
243.045	4.61
243.421	4.23
243.798	3.89
244.174	4.29
244.551	4.15
244.927	3.84
245.303	3.75
245.679	3.5
246.056	3.58
246.432	3.67
246.808	4.05
247.184	3.66
247.56	3.43
247.936	3.48
248.312	3.47
248.688	3.26
249.064	3.02
249.44	2.94
249.815	3.19
250.191	3.14
250.567	2.9
250.943	2.78
251.318	2.91
251.694	3.02
252.069	2.55
252.445	2.62
252.82	2.6
253.196	2.62
253.571	2.72
253.947	2.59
254.322	2.65
254.697	2.19
255.073	2.5
255.448	2.26
255.823	2.39
256.198	2.38
256.573	2.49
256.948	2.65
257.323	2.9
257.698	2.75
258.073	2.79
258.448	2.7
258.823	2.89
259.198	2.85
259.573	2.89
259.948	3.06
260.322	3.01
260.697	3.13
261.072	3.12
261.446	3.14
261.821	3.13
262.195	3.09
262.57	3.15
262.944	3.06
263.319	3.27
263.693	3.34
264.067	3.37
264.442	3.5
264.816	3.59
265.19	3.43
265.564	3.34
265.938	3.33
266.313	3.41
266.687	3.36
267.061	3.59
267.435	3.69
267.809	3.77
268.183	3.91
268.556	3.63
268.93	3.64
269.304	3.68
269.678	3.71
270.051	3.79
270.425	3.66
270.799	3.89
271.172	3.92
271.546	3.85
271.919	3.86
272.293	3.94
272.666	4.06
273.04	4.15
273.413	4.27
273.787	4.28
274.16	4.33
274.533	4.27
274.906	4.01
275.279	3.85
275.653	3.91
276.026	3.74
276.399	3.9
276.772	3.92
277.145	3.74
277.518	3.73
277.891	3.68
278.263	3.6
278.636	3.39
279.009	3.48
279.382	3.48
279.755	3.43
280.127	3.44
280.5	3.37
280.872	3.41
281.245	3.38
281.617	3.37
281.99	3.52
282.362	3.63
282.735	3.69
283.107	3.65
283.479	3.48
283.852	3.47
284.224	3.66
284.596	3.56
284.968	3.53
285.34	3.6
285.713	3.65
286.085	3.79
286.457	3.88
286.829	3.85
287.201	3.84
287.572	3.84
287.944	3.69
288.316	3.63
288.688	3.54
289.06	3.54
289.431	3.54
289.803	3.45
290.175	3.53
290.546	3.68
290.918	3.79
291.289	3.82
291.661	3.98
292.032	3.74
292.403	3.78
292.775	3.85
293.146	3.69
293.517	3.65
293.889	3.67
294.26	3.6
294.631	3.59
295.002	3.64
295.373	3.71
295.744	3.76
296.115	3.8
296.486	3.75
296.857	3.72
297.228	3.75
297.599	3.63
297.97	3.46
298.34	3.46
298.711	3.43
299.082	3.37
299.452	3.37
299.823	3.52
300.194	3.61
300.564	3.56
300.935	3.66
301.305	3.66
301.676	3.6
302.046	3.52
302.416	3.48
302.787	3.45
303.157	3.34
303.527	3.32
303.897	3.24
304.267	3.3
304.637	3.46
305.008	3.53
305.378	3.63
305.748	3.82
306.117	3.58
306.487	3.63
306.857	3.76
307.227	3.67
307.597	3.59
307.967	3.58
308.336	3.69
308.706	3.63
309.076	3.6
309.445	3.59
309.815	3.62
310.184	3.56
310.554	3.52
310.923	3.64
311.293	3.68
311.662	3.73
312.031	3.71
312.401	3.66
312.77	3.59
313.139	3.66
313.508	3.61
313.877	3.58
314.246	3.59
314.616	3.64
314.985	3.59
315.353	3.58
315.722	3.54
316.091	3.51
316.46	3.46
316.829	3.41
317.198	3.47
317.567	3.45
317.935	3.37
318.304	3.3
318.672	3.21
319.041	3.15
319.41	3.18
319.778	3.19
320.147	3.18
320.515	3.2
320.883	3.18
321.252	3.12
321.62	3.2
321.988	3.15
322.357	2.99
322.725	3.03
323.093	3.04
323.461	3.01
323.829	3.04
324.197	3.15
324.565	3.26
324.933	3.23
325.301	3.37
325.669	3.56
326.037	3.7
326.405	3.79
326.772	3.81
327.14	3.72
327.508	3.81
327.875	3.61
328.243	3.59
328.61	3.52
328.978	3.41
329.346	3.52
329.713	3.35
330.08	3.32
330.448	3.31
330.815	3.28
331.182	3.29
331.55	3.27
331.917	3.26
332.284	3.2
332.651	3.29
333.018	3.29
333.385	3.08
333.752	3.04
334.119	3.05
334.486	3.04
334.853	3.06
335.22	2.98
335.587	3.05
335.954	3.12
336.32	3.08
336.687	3.17
337.054	3.14
337.42	3.27
337.787	3.33
338.153	3.3
338.52	3.37
338.886	3.39
339.253	3.39
339.619	3.49
339.986	3.49
340.352	3.54
340.718	3.49
341.084	3.59
341.451	3.6
341.817	3.58
342.183	3.65
342.549	3.8
342.915	3.84
343.281	3.88
343.647	3.86
344.013	3.9
344.379	3.87
344.745	3.88
345.11	3.93
345.476	3.97
345.842	3.98
346.208	3.98
346.573	3.95
346.939	4.02
347.304	3.95
347.67	3.94
348.035	3.83
348.401	3.95
348.766	3.95
349.132	4.05
349.497	3.96
349.862	3.91
350.228	3.83
350.593	3.77
350.958	3.81
351.323	3.85
351.688	3.93
352.053	4.02
352.418	4.04
352.783	4.03
353.148	3.98
353.513	4.11
353.878	4.08
354.243	4.13
354.608	4.14
354.972	4.17
355.337	4.23
355.702	4.3
356.066	4.3
356.431	4.26
356.795	4.21
357.16	4.18
357.524	4.12
357.889	4.04
358.253	4.08
358.618	4.1
358.982	4.05
359.346	4.02
359.71	3.93
360.075	3.94
360.439	3.97
360.803	4
361.167	3.93
361.531	3.9
361.895	3.88
362.259	3.83
362.623	3.81
362.987	3.75
363.351	3.72
363.714	3.75
364.078	3.77
364.442	3.67
364.806	3.73
365.169	3.82
365.533	3.82
365.896	3.82
366.26	3.77
366.623	3.74
366.987	3.7
367.35	3.74
367.714	3.74
368.077	3.67
368.44	3.66
368.803	3.64
369.167	3.61
369.53	3.6
369.893	3.59
370.256	3.58
370.619	3.57
370.982	3.59
371.345	3.45
371.708	3.48
372.071	3.52
372.434	3.54
372.797	3.54
373.159	3.61
373.522	3.6
373.885	3.67
374.247	3.82
374.61	3.85
374.973	3.81
375.335	3.75
375.698	3.74
376.06	3.69
376.423	3.72
376.785	3.77
377.147	3.83
377.51	3.87
377.872	3.93
378.234	3.93
378.596	3.95
378.958	3.97
379.321	3.98
379.683	4.01
380.045	3.98
380.407	3.96
380.769	3.89
381.13	3.88
381.492	3.85
381.854	3.8
382.216	3.79
382.578	3.81
382.939	3.83
383.301	3.91
383.663	3.93
384.024	3.92
384.386	4
384.747	3.96
385.109	3.97
385.47	3.89
385.832	3.9
386.193	3.92
386.554	3.93
386.916	3.9
387.277	3.88
387.638	3.88
387.999	3.88
388.36	3.9
388.721	3.93
389.082	3.89
389.443	3.84
389.804	3.86
390.165	3.86
390.526	3.92
390.887	3.85
391.248	3.9
391.609	3.89
391.969	3.83
392.33	3.82
392.691	3.8
393.051	3.81
393.412	3.83
393.772	3.77
394.133	3.79
394.493	3.81
394.854	3.82
395.214	3.83
395.574	3.84
395.935	3.86
396.295	3.9
396.655	3.94
397.015	3.96
397.376	3.93
397.736	3.98
398.096	3.92
398.456	3.94
398.816	3.93
399.176	3.89
399.535	3.89
399.895	3.87
400.255	3.91
400.615	3.94
400.975	3.92
401.334	3.95
401.694	3.92
402.054	3.91
402.413	3.9
402.773	3.9
403.132	3.89
403.492	3.89
403.851	3.86
404.211	3.85
404.57	3.85
404.929	3.86
405.288	3.81
405.648	3.82
406.007	3.83
406.366	3.82
406.725	3.85
407.084	3.83
407.443	3.82
407.802	3.8
408.161	3.81
408.52	3.79
408.879	3.79
409.238	3.82
409.596	3.81
409.955	3.81
410.314	3.82
410.673	3.8
411.031	3.81
411.39	3.78
411.748	3.77
412.107	3.78
412.465	3.8
412.824	3.81
413.182	3.82
413.54	3.8
413.899	3.84
414.257	3.81
414.615	3.86
414.974	3.87
415.332	3.89
415.69	3.86
416.048	3.87
416.406	3.86
416.764	3.86
417.122	3.85
417.48	3.85
417.838	3.84
418.195	3.87
418.553	3.87
418.911	3.89
419.269	3.9
419.626	3.9
419.984	3.88
420.342	3.88
420.699	3.89
421.057	3.9
421.414	3.87
421.772	3.89
422.129	3.89
422.486	3.89
422.844	3.88
423.201	3.88
423.558	3.88
423.915	3.91
424.273	3.91
424.63	3.91
424.987	3.93
425.344	3.93
425.701	3.91
426.058	3.9
426.415	3.88
426.772	3.88
427.128	3.88
427.485	3.89
427.842	3.89
428.199	3.91
428.555	3.91
428.912	3.94
429.269	3.92
429.625	3.92
429.982	3.91
430.338	3.91
430.695	3.91
431.051	3.92
431.407	3.9
431.764	3.9
432.12	3.9
432.476	3.9
432.832	3.89
433.189	3.91
433.545	3.93
433.901	3.94
434.257	3.93
434.613	3.95
434.969	3.94
435.325	3.94
435.681	3.94
436.036	3.93
436.392	3.93
436.748	3.93
437.104	3.94
437.459	3.94
437.815	3.95
438.171	3.96
438.526	3.97
438.882	3.97
439.237	3.97
439.593	3.98
439.948	3.97
440.304	3.98
440.659	3.97
441.014	3.97
441.369	3.96
441.725	3.96
442.08	3.95
442.435	3.95
442.79	3.96
443.145	3.95
443.5	3.93
443.855	3.95
444.21	3.94
444.565	3.95
444.92	3.96
445.275	3.94
445.629	3.93
445.984	3.94
446.339	3.92
446.693	3.92
447.048	3.91
447.403	3.9
447.757	3.91
448.112	3.91
448.466	3.9
448.82	3.9
449.175	3.91
449.529	3.9
449.883	3.88
450.238	3.87
450.592	3.87
450.946	3.87
451.3	3.85
451.654	3.88
452.008	3.86
452.362	3.85
452.716	3.85
453.07	3.86
453.424	3.85
453.778	3.88
454.132	3.87
454.486	3.87
454.839	3.86
455.193	3.84
455.547	3.85
455.9	3.87
456.254	3.87
456.607	3.85
456.961	3.86
457.314	3.88
457.668	3.9
458.021	3.9
458.375	3.92
458.728	3.93
459.081	3.92
459.434	3.91
459.787	3.92
460.141	3.93
460.494	3.93
460.847	3.93
461.2	3.92
461.553	3.92
461.906	3.93
462.259	3.95
462.611	3.97
462.964	3.99
463.317	3.98
463.67	4
464.022	4.02
464.375	4.01
464.728	4.03
465.08	4.01
465.433	4.01
465.785	4.01
466.138	4.01
466.49	4.03
466.843	4.03
467.195	4.03
467.547	4.03
467.899	4.03
468.252	4.03
468.604	4.02
468.956	4.01
469.308	4.02
469.66	4
470.012	4
470.364	3.98
470.716	3.97
471.068	3.97
471.42	3.97
471.772	3.99
472.123	4
472.475	4.01
472.827	4.01
473.178	4
473.53	4
473.882	3.99
474.233	3.99
474.585	3.99
474.936	3.99
475.288	3.98
475.639	3.98
475.99	4.01
476.342	4.02
476.693	4.04
477.044	4.06
477.395	4.05
477.746	4.05
478.097	4.04
478.448	4.05
478.8	4.03
479.15	4.02
479.501	4.02
479.852	4.04
480.203	4.04
480.554	4.06
480.905	4.06
481.255	4.07
481.606	4.08
481.957	4.09
482.307	4.09
482.658	4.1
483.009	4.1
483.359	4.11
483.709	4.11
484.06	4.1
484.41	4.11
484.761	4.11
485.111	4.12
485.461	4.13
485.811	4.12
486.162	4.12
486.512	4.12
486.862	4.12
487.212	4.12
487.562	4.12
487.912	4.12
488.262	4.12
488.612	4.12
488.961	4.12
489.311	4.11
489.661	4.12
490.011	4.13
490.36	4.13
490.71	4.12
491.06	4.12
491.409	4.13
491.759	4.12
492.108	4.12
492.458	4.11
492.807	4.11
493.157	4.12
493.506	4.14
493.855	4.12
494.204	4.12
494.554	4.12
494.903	4.12
495.252	4.11
495.601	4.1
495.95	4.1
496.299	4.1
496.648	4.1
496.997	4.09
497.346	4.08
497.695	4.09
498.043	4.08
498.392	4.08
498.741	4.08
499.09	4.08
499.438	4.09
499.787	4.07
500.135	4.09
500.484	4.09
500.832	4.09
501.181	4.12
501.529	4.12
501.878	4.14
502.226	4.12
502.574	4.11
502.923	4.1
503.271	4.11
503.619	4.09
503.967	4.09
504.315	4.08
504.663	4.08
505.011	4.1
505.359	4.09
505.707	4.08
506.055	4.09
506.403	4.12
506.751	4.11
507.098	4.12
507.446	4.12
507.794	4.13
508.141	4.13
508.489	4.13
508.837	4.15
509.184	4.14
509.531	4.15
509.879	4.19
510.226	4.22
510.574	4.2
510.921	4.24
511.268	4.25
511.616	4.27
511.963	4.27
512.31	4.26
512.657	4.28
513.004	4.28
513.351	4.28
513.698	4.27
514.045	4.27
514.392	4.26
514.739	4.26
515.086	4.27
515.432	4.28
515.779	4.28
516.126	4.28
516.473	4.3
516.819	4.31
517.166	4.32
517.512	4.32
517.859	4.34
518.205	4.32
518.552	4.32
518.898	4.33
519.245	4.33
519.591	4.33
519.937	4.32
520.283	4.34
520.629	4.34
520.976	4.35
521.322	4.37
521.668	4.37
522.014	4.39
522.36	4.41
522.706	4.41
523.052	4.44
523.398	4.47
523.743	4.45
524.089	4.45
524.435	4.44
524.781	4.44
525.126	4.46
525.472	4.48
525.817	4.47
526.163	4.45
526.509	4.46
526.854	4.47
527.199	4.49
527.545	4.49
527.89	4.5
528.235	4.49
528.581	4.49
528.926	4.51
529.271	4.5
529.616	4.48
529.961	4.48
530.306	4.47
530.651	4.46
530.996	4.47
531.341	4.47
531.686	4.46
532.031	4.47
532.376	4.47
532.721	4.46
533.065	4.48
533.41	4.49
533.755	4.47
534.099	4.49
534.444	4.47
534.788	4.48
535.133	4.49
535.477	4.5
535.822	4.48
536.166	4.47
536.51	4.48
536.855	4.49
537.199	4.51
537.543	4.51
537.887	4.53
538.231	4.53
538.576	4.53
538.92	4.54
539.264	4.54
539.608	4.54
539.951	4.55
540.295	4.53
540.639	4.54
540.983	4.56
541.327	4.55
541.671	4.56
542.014	4.56
542.358	4.55
542.701	4.55
543.045	4.57
543.389	4.57
543.732	4.57
544.075	4.58
544.419	4.59
544.762	4.58
545.105	4.58
545.449	4.58
545.792	4.58
546.135	4.58
546.478	4.58
546.821	4.56
547.165	4.56
547.508	4.57
547.851	4.57
548.194	4.54
548.536	4.54
548.879	4.55
549.222	4.55
549.565	4.56
549.908	4.58
550.25	4.57
550.593	4.59
550.936	4.56
551.278	4.55
551.621	4.56
551.963	4.56
552.306	4.54
552.648	4.53
552.991	4.56
553.333	4.56
553.675	4.55
554.017	4.58
554.36	4.58
554.702	4.57
555.044	4.57
555.386	4.6
555.728	4.61
556.07	4.61
556.412	4.59
556.754	4.57
557.096	4.55
557.438	4.55
557.78	4.54
558.121	4.57
558.463	4.59
558.805	4.58
559.147	4.58
559.488	4.57
559.83	4.59
560.171	4.58
560.513	4.61
560.854	4.61
561.196	4.62
561.537	4.66
561.878	4.67
562.22	4.69
562.561	4.68
562.902	4.67
563.243	4.66
563.584	4.69
563.925	4.7
564.266	4.71
564.607	4.69
564.948	4.69
565.289	4.7
565.63	4.69
565.971	4.64
566.312	4.65
566.653	4.66
566.993	4.68
567.334	4.68
567.675	4.66
568.015	4.69
568.356	4.71
568.696	4.67
569.037	4.68
569.377	4.68
569.718	4.68
570.058	4.69
570.398	4.7
570.739	4.69
571.079	4.69
571.419	4.68
571.759	4.72
572.099	4.71
572.439	4.7
572.779	4.69
573.119	4.72
573.459	4.72
573.799	4.73
574.139	4.71
574.479	4.73
574.819	4.73
575.158	4.72
575.498	4.69
575.838	4.68
576.177	4.68
576.517	4.67
576.856	4.71
577.196	4.69
577.535	4.67
577.875	4.7
578.214	4.69
578.553	4.7
578.893	4.69
579.232	4.73
579.571	4.74
579.91	4.77
580.25	4.78
580.589	4.78
580.928	4.81
581.267	4.84
581.606	4.79
581.945	4.8
582.283	4.77
582.622	4.77
582.961	4.78
583.3	4.74
583.639	4.76
583.977	4.72
584.316	4.71
584.654	4.74
584.993	4.67
585.332	4.69
585.67	4.67
586.008	4.66
586.347	4.61
586.685	4.62
587.024	4.62
587.362	4.62
587.7	4.66
588.038	4.66
588.376	4.61
588.715	4.63
589.053	4.65
589.391	4.69
589.729	4.72
590.067	4.75
590.404	4.79
590.742	4.82
591.08	4.81
591.418	4.88
591.756	4.85
592.093	4.91
592.431	4.91
592.769	4.96
593.106	4.97
593.444	4.99
593.781	4.98
594.119	4.99
594.456	5
594.793	5
595.131	4.99
595.468	4.98
595.805	5.01
596.143	5.02
596.48	5.02
596.817	5.01
597.154	4.99
597.491	4.99
597.828	4.99
598.165	4.98
598.502	4.96
598.839	4.97
599.176	4.98
599.512	4.99
599.849	4.95
600.186	4.96
600.523	4.99
600.859	5
601.196	4.99
601.532	4.97
601.869	4.94
602.205	4.91
602.542	4.92
602.878	4.91
603.215	4.88
603.551	4.87
603.887	4.86
604.223	4.87
604.56	4.88
604.896	4.88
605.232	4.9
605.568	4.91
605.904	4.9
606.24	4.91
606.576	4.88
606.912	4.88
607.248	4.88
607.583	4.86
607.919	4.84
608.255	4.85
608.591	4.87
608.926	4.9
609.262	4.92
609.597	4.93
609.933	4.94
610.268	4.96
610.604	4.96
610.939	4.94
611.275	4.96
611.61	4.92
611.945	4.91
612.281	4.91
612.616	4.91
612.951	4.93
613.286	4.89
613.621	4.93
613.956	4.96
614.291	4.97
614.626	4.95
614.961	4.98
615.296	4.96
615.631	4.98
615.966	5.02
616.3	5.05
616.635	5.09
616.97	5.07
617.304	5.07
617.639	5.12
617.973	5.15
618.308	5.15
618.642	5.23
618.977	5.19
619.311	5.21
619.646	5.22
619.98	5.22
620.314	5.27
620.648	5.25
620.983	5.28
621.317	5.29
621.651	5.34
621.985	5.32
622.319	5.37
622.653	5.37
622.987	5.29
623.321	5.33
623.655	5.36
623.988	5.36
624.322	5.32
624.656	5.32
624.99	5.32
625.323	5.31
625.657	5.28
625.99	5.36
626.324	5.33
626.657	5.3
626.991	5.27
627.324	5.23
627.658	5.24
627.991	5.23
628.324	5.2
628.657	5.15
628.991	5.13
629.324	5.08
629.657	5.03
629.99	5.04
630.323	5.02
630.656	5.02
630.989	5.05
631.322	5.1
631.655	5.08
631.987	5.1
632.32	5.08
632.653	5.08
632.986	5.03
633.318	5.02
633.651	5.09
633.984	5.13
634.316	5.12
634.649	5.1
634.981	5.06
635.313	5.1
635.646	5.16
635.978	5.2
636.31	5.17
636.643	5.21
636.975	5.25
637.307	5.25
637.639	5.18
637.971	5.14
638.303	5.14
638.635	5.11
638.967	5.05
639.299	5.1
639.631	5.05
639.963	5.06
640.295	5.02
640.626	4.99
640.958	5.02
641.29	5.07
641.621	5.1
641.953	5.09
642.285	5.05
642.616	5.08
642.948	5.07
643.279	5.12
643.61	5.11
643.942	5.15
644.273	5.2
644.604	5.3
644.936	5.33
645.267	5.32
645.598	5.3
645.929	5.41
646.26	5.41
646.591	5.5
646.922	5.52
647.253	5.55
647.584	5.55
647.915	5.54
648.245	5.49
648.576	5.49
648.907	5.58
649.238	5.66
649.568	5.65
649.899	5.63
650.229	5.61
650.56	5.63
650.89	5.56
651.221	5.55
651.551	5.47
651.882	5.47
652.212	5.48
652.542	5.55
652.872	5.49
653.203	5.44
653.533	5.4
653.863	5.41
654.193	5.43
654.523	5.41
654.853	5.41
655.183	5.51
655.513	5.43
655.843	5.36
656.172	5.27
656.502	5.25
656.832	5.3
657.162	5.36
657.491	5.36
657.821	5.39
658.15	5.34
658.48	5.33
658.809	5.29
659.139	5.18
659.468	5.17
659.798	5.2
660.127	5.28
660.456	5.31
660.785	5.33
661.115	5.37
661.444	5.38
661.773	5.39
662.102	5.37
662.431	5.43
662.76	5.49
663.089	5.51
663.418	5.51
663.747	5.44
664.076	5.47
664.404	5.48
664.733	5.52
665.062	5.53
665.39	5.57
665.719	5.63
666.048	5.72
666.376	5.67
666.705	5.68
667.033	5.63
667.362	5.68
667.69	5.55
668.018	5.58
668.347	5.57
668.675	5.57
669.003	5.67
669.331	5.74
669.659	5.73
669.987	5.76
670.315	5.81
670.643	5.84
670.971	5.81
671.299	5.76
671.627	5.74
671.955	5.66
672.283	5.63
672.61	5.62
672.938	5.72
673.266	5.75
673.593	5.81
673.921	5.78
674.249	5.72
674.576	5.85
674.904	5.8
675.231	5.81
675.558	5.75
675.886	5.66
676.213	5.55
