Data from BA28301_Reflection_00004.txt Node
Date: Mon Nov 18 15:45:04 EST 2019
User: vgr7
Spectrometer: USB2G7710
Scans to average: 3
Trigger mode: 4
Integration Time (sec): 2.000000E-2
Electric dark correction enabled: true
Boxcar width: 10
XAxis mode: Wavelengths
Number of Pixels in Spectrum: 2048
>>>>>Begin Spectral Data<<<<<
177.721	121.2
178.105	1385.71
178.488	189.55
178.871	-75.53
179.254	243.54
179.636	-193.71
180.019	-316.92
180.402	488.89
180.785	-333.46
181.168	112.71
181.55	235.98
181.933	149.86
182.316	199.68
182.698	181.4
183.081	144.34
183.463	150.21
183.846	128.34
184.228	105.27
184.611	114.25
184.993	157.18
185.376	172.7
185.758	218.55
186.14	405.8
186.522	537.62
186.904	-816.89
187.287	2368.91
187.669	-597.04
188.051	-658.78
188.433	-326.74
188.815	-532.16
189.197	-923.04
189.579	-209.68
189.961	-256.01
190.342	-355.85
190.724	-191.61
191.106	-186.25
191.488	-289.23
191.869	-126.22
192.251	-127.29
192.633	-177.82
193.014	-311.26
193.396	-422.76
193.777	-1315.28
194.159	-4417.65
194.54	-845.3
194.922	-640.61
195.303	-1415.57
195.684	1340.12
196.065	-832.17
196.447	24452.94
196.828	-1313.9
197.209	-736.77
197.59	-3519.83
197.971	-6009.09
198.352	-493.41
198.733	-275.93
199.114	-557.84
199.495	-172.89
199.876	-195.32
200.257	-126.78
200.638	-79.87
201.018	-83.79
201.399	-40.71
201.78	6.43
202.16	-8.78
202.541	-50.83
202.922	-86.4
203.302	-116.95
203.683	-89.56
204.063	-132.41
204.444	-73.11
204.824	-69.12
205.204	-38.6
205.585	-52.24
205.965	-71.43
206.345	-137.43
206.725	-675.38
207.106	5953.66
207.486	288.13
207.866	229.65
208.246	242.98
208.626	313.13
209.006	262.41
209.386	215.13
209.766	217.9
210.145	180.04
210.525	150.24
210.905	291.58
211.285	22900
211.664	-1111.01
212.044	536.36
212.424	-423.42
212.803	-215.56
213.183	-309.51
213.562	-154.21
213.942	-123.62
214.321	-96.17
214.701	-69.08
215.08	-45.71
215.459	-37.12
215.838	-39.35
216.218	-41.26
216.597	-32.87
216.976	-43.11
217.355	-39.93
217.734	-36.38
218.113	-32.68
218.492	-41.08
218.871	-52.15
219.25	-59.46
219.629	-56.37
220.008	-50.94
220.387	-44.63
220.766	-40.66
221.144	-45.29
221.523	-53.82
221.902	-56.61
222.28	-70.59
222.659	-69.48
223.037	-69.32
223.416	-67.53
223.794	-58.79
224.173	-61.07
224.551	-55.54
224.929	-55.14
225.308	-46.5
225.686	-38.4
226.064	-36.1
226.442	-32.15
226.821	-22.5
227.199	-23.46
227.577	-19.06
227.955	-18.34
228.333	-14.75
228.711	-14.09
229.089	-9.07
229.467	-10.98
229.845	-9.04
230.222	-4.93
230.6	-5.78
230.978	-6.15
231.356	-3.2
231.733	-2.85
232.111	-0.77
232.488	1
232.866	2.41
233.243	4.18
233.621	3.71
233.998	6.09
234.376	5.38
234.753	5.45
235.13	6.71
235.508	5.54
235.885	5.38
236.262	4.75
236.639	5.31
237.016	2.57
237.393	5.24
237.77	6.03
238.147	6.31
238.524	7.23
238.901	8.12
239.278	7.28
239.655	7.22
240.032	6.94
240.409	5.63
240.785	5.66
241.162	5.56
241.539	6.08
241.915	5.72
242.292	6.18
242.668	6
243.045	5.86
243.421	5.72
243.798	5.7
244.174	5.38
244.551	5.54
244.927	5.5
245.303	5.15
245.679	5.16
246.056	5.12
246.432	4.79
246.808	4.72
247.184	4.59
247.56	4.64
247.936	4.76
248.312	4.99
248.688	4.78
249.064	4.53
249.44	4.44
249.815	4.38
250.191	4.23
250.567	4.12
250.943	3.8
251.318	3.96
251.694	4.01
252.069	4
252.445	3.9
252.82	4.08
253.196	4.12
253.571	4.08
253.947	4.03
254.322	4.64
254.697	4.45
255.073	4.41
255.448	4.36
255.823	4.08
256.198	4.06
256.573	4.19
256.948	4.36
257.323	4.46
257.698	4.49
258.073	4.47
258.448	4.35
258.823	4.48
259.198	4.2
259.573	4.22
259.948	4.24
260.322	4.21
260.697	4.15
261.072	4.12
261.446	4.02
261.821	3.99
262.195	3.74
262.57	3.65
262.944	3.58
263.319	3.47
263.693	3.39
264.067	3.41
264.442	3.48
264.816	3.3
265.19	3.31
265.564	3.27
265.938	3.13
266.313	3.09
266.687	3.24
267.061	3.4
267.435	3.5
267.809	3.52
268.183	3.53
268.556	3.61
268.93	3.71
269.304	3.64
269.678	3.67
270.051	3.71
270.425	3.88
270.799	3.97
271.172	4.01
271.546	4.09
271.919	3.95
272.293	3.91
272.666	4.09
273.04	4.02
273.413	3.88
273.787	3.95
274.16	4.11
274.533	4.02
274.906	3.98
275.279	3.99
275.653	3.93
276.026	3.94
276.399	3.85
276.772	3.86
277.145	3.92
277.518	3.86
277.891	3.93
278.263	3.84
278.636	3.89
279.009	3.92
279.382	4.12
279.755	4.06
280.127	3.99
280.5	4.01
280.872	4.03
281.245	4.16
281.617	4.25
281.99	4.33
282.362	4.48
282.735	4.47
283.107	4.42
283.479	4.63
283.852	4.7
284.224	4.75
284.596	4.82
284.968	4.92
285.34	4.94
285.713	4.9
286.085	4.89
286.457	4.91
286.829	4.95
287.201	4.78
287.572	4.84
287.944	4.84
288.316	4.81
288.688	4.77
289.06	4.76
289.431	4.77
289.803	4.77
290.175	4.74
290.546	4.88
290.918	4.86
291.289	4.71
291.661	4.67
292.032	4.71
292.403	4.59
292.775	4.61
293.146	4.57
293.517	4.51
293.889	4.63
294.26	4.59
294.631	4.6
295.002	4.62
295.373	4.61
295.744	4.66
296.115	4.71
296.486	4.61
296.857	4.67
297.228	4.69
297.599	4.61
297.97	4.52
298.34	4.53
298.711	4.51
299.082	4.51
299.452	4.5
299.823	4.48
300.194	4.46
300.564	4.25
300.935	4.38
301.305	4.34
301.676	4.26
302.046	4.28
302.416	4.17
302.787	4.25
303.157	4.26
303.527	4.19
303.897	4.1
304.267	4.28
304.637	4.34
305.008	4.4
305.378	4.46
305.748	4.5
306.117	4.23
306.487	4.35
306.857	4.35
307.227	4.31
307.597	4.37
307.967	4.36
308.336	4.5
308.706	4.35
309.076	4.39
309.445	4.42
309.815	4.35
310.184	4.31
310.554	4.25
310.923	4.22
311.293	4.21
311.662	4.22
312.031	4.03
312.401	3.86
312.77	3.96
313.139	4.08
313.508	4.03
313.877	4.14
314.246	4.06
314.616	4.04
314.985	3.98
315.353	3.85
315.722	3.88
316.091	3.84
316.46	3.91
316.829	3.94
317.198	3.85
317.567	3.9
317.935	4.01
318.304	4.07
318.672	4.04
319.041	4.19
319.41	4.13
319.778	4.23
320.147	4.31
320.515	4.02
320.883	3.88
321.252	3.95
321.62	4.1
321.988	4.04
322.357	4.05
322.725	4.05
323.093	4.21
323.461	4.23
323.829	4.25
324.197	4.33
324.565	4.31
324.933	4.35
325.301	4.34
325.669	4.31
326.037	4.33
326.405	4.32
326.772	4.3
327.14	4.46
327.508	4.38
327.875	4.4
328.243	4.4
328.61	4.36
328.978	4.34
329.346	4.29
329.713	4.36
330.08	4.31
330.448	4.29
330.815	4.16
331.182	4.14
331.55	3.98
331.917	3.84
332.284	3.97
332.651	3.91
333.018	3.91
333.385	4.03
333.752	4.14
334.119	4.27
334.486	4.27
334.853	4.2
335.22	4.28
335.587	4.26
335.954	4.34
336.32	4.36
336.687	4.43
337.054	4.37
337.42	4.24
337.787	4.35
338.153	4.4
338.52	4.47
338.886	4.4
339.253	4.45
339.619	4.47
339.986	4.52
340.352	4.55
340.718	4.44
341.084	4.3
341.451	4.17
341.817	4.13
342.183	4.06
342.549	3.94
342.915	3.95
343.281	3.93
343.647	3.81
344.013	3.77
344.379	3.75
344.745	3.83
345.11	3.85
345.476	3.84
345.842	3.82
346.208	3.8
346.573	3.88
346.939	3.98
347.304	3.97
347.67	3.87
348.035	3.83
348.401	3.93
348.766	4.05
349.132	4.01
349.497	3.9
349.862	3.98
350.228	4.01
350.593	3.99
350.958	3.96
351.323	4.1
351.688	4.18
352.053	4.23
352.418	4.19
352.783	4.24
353.148	4.25
353.513	4.31
353.878	4.35
354.243	4.28
354.608	4.26
354.972	4.25
355.337	4.3
355.702	4.39
356.066	4.47
356.431	4.42
356.795	4.48
357.16	4.52
357.524	4.5
357.889	4.52
358.253	4.58
358.618	4.61
358.982	4.6
359.346	4.48
359.71	4.4
360.075	4.41
360.439	4.4
360.803	4.38
361.167	4.32
361.531	4.25
361.895	4.28
362.259	4.27
362.623	4.26
362.987	4.19
363.351	4.16
363.714	4.09
364.078	4.09
364.442	4.05
364.806	4.07
365.169	4.05
365.533	4.05
365.896	4.02
366.26	4.01
366.623	4.01
366.987	4.04
367.35	4.02
367.714	4.01
368.077	4.02
368.44	4.06
368.803	4.09
369.167	4.13
369.53	4.13
369.893	4.15
370.256	4.19
370.619	4.2
370.982	4.17
371.345	4.13
371.708	4.17
372.071	4.18
372.434	4.15
372.797	4.17
373.159	4.18
373.522	4.2
373.885	4.28
374.247	4.26
374.61	4.34
374.973	4.34
375.335	4.33
375.698	4.29
376.06	4.27
376.423	4.29
376.785	4.29
377.147	4.36
377.51	4.33
377.872	4.32
378.234	4.31
378.596	4.34
378.958	4.33
379.321	4.32
379.683	4.34
380.045	4.35
380.407	4.32
380.769	4.27
381.13	4.27
381.492	4.18
381.854	4.17
382.216	4.11
382.578	4.09
382.939	4.04
383.301	4.05
383.663	4.05
384.024	4.04
384.386	4.04
384.747	3.99
385.109	3.99
385.47	4
385.832	4.01
386.193	3.99
386.554	4.05
386.916	4.04
387.277	4.03
387.638	4.06
387.999	4.05
388.36	4.07
388.721	4.06
389.082	4.05
389.443	4.02
389.804	4.02
390.165	4.06
390.526	4.08
390.887	4.07
391.248	4.12
391.609	4.1
391.969	4.09
392.33	4.09
392.691	4.11
393.051	4.1
393.412	4.1
393.772	4.09
394.133	4.09
394.493	4.07
394.854	4.04
395.214	4.02
395.574	4.05
395.935	4.07
396.295	4.08
396.655	4.09
397.015	4.14
397.376	4.14
397.736	4.12
398.096	4.15
398.456	4.18
398.816	4.15
399.176	4.14
399.535	4.14
399.895	4.13
400.255	4.13
400.615	4.13
400.975	4.1
401.334	4.11
401.694	4.12
402.054	4.12
402.413	4.15
402.773	4.16
403.132	4.12
403.492	4.09
403.851	4.07
404.211	4.09
404.57	4.06
404.929	4.04
405.288	4.06
405.648	4.02
406.007	4.01
406.366	4.01
406.725	4.07
407.084	4.09
407.443	4.11
407.802	4.09
408.161	4.11
408.52	4.12
408.879	4.12
409.238	4.11
409.596	4.1
409.955	4.09
410.314	4.09
410.673	4.09
411.031	4.11
411.39	4.12
411.748	4.11
412.107	4.12
412.465	4.16
412.824	4.13
413.182	4.12
413.54	4.12
413.899	4.11
414.257	4.08
414.615	4.05
414.974	4.03
415.332	4.05
415.69	4.04
416.048	4.05
416.406	4.06
416.764	4.06
417.122	4.07
417.48	4.07
417.838	4.06
418.195	4.08
418.553	4.07
418.911	4.06
419.269	4.06
419.626	4.04
419.984	4.05
420.342	4.05
420.699	4.05
421.057	4.05
421.414	4.04
421.772	4.04
422.129	4.05
422.486	4.05
422.844	4.06
423.201	4.06
423.558	4.06
423.915	4.07
424.273	4.07
424.63	4.07
424.987	4.06
425.344	4.05
425.701	4.03
426.058	4.04
426.415	4.05
426.772	4.06
427.128	4.08
427.485	4.07
427.842	4.06
428.199	4.07
428.555	4.07
428.912	4.07
429.269	4.08
429.625	4.07
429.982	4.07
430.338	4.05
430.695	4.05
431.051	4.03
431.407	4.02
431.764	4.02
432.12	4.01
432.476	4.02
432.832	4.03
433.189	4.05
433.545	4.04
433.901	4.06
434.257	4.04
434.613	4.04
434.969	4.04
435.325	4.05
435.681	4.04
436.036	4.05
436.392	4.07
436.748	4.06
437.104	4.06
437.459	4.06
437.815	4.06
438.171	4.07
438.526	4.08
438.882	4.08
439.237	4.07
439.593	4.08
439.948	4.09
440.304	4.09
440.659	4.08
441.014	4.09
441.369	4.05
441.725	4.05
442.08	4.05
442.435	4.05
442.79	4.06
443.145	4.07
443.5	4.05
443.855	4.04
444.21	4.04
444.565	4.06
444.92	4.07
445.275	4.06
445.629	4.06
445.984	4.04
446.339	4.04
446.693	4.04
447.048	4.03
447.403	4.01
447.757	4.01
448.112	4.01
448.466	4
448.82	4.01
449.175	4.01
449.529	4
449.883	3.99
450.238	3.98
450.592	3.96
450.946	3.95
451.3	3.96
451.654	3.94
452.008	3.94
452.362	3.92
452.716	3.93
453.07	3.94
453.424	3.95
453.778	3.95
454.132	3.96
454.486	3.97
454.839	3.98
455.193	3.97
455.547	3.97
455.9	3.96
456.254	3.97
456.607	3.97
456.961	3.97
457.314	3.99
457.668	3.98
458.021	3.99
458.375	4.01
458.728	4.01
459.081	4.02
459.434	4
459.787	3.98
460.141	3.98
460.494	3.97
460.847	3.97
461.2	3.96
461.553	3.96
461.906	3.97
462.259	3.97
462.611	4
462.964	4.01
463.317	4.04
463.67	4.03
464.022	4.03
464.375	4.03
464.728	4.03
465.08	4.04
465.433	4.04
465.785	4.01
466.138	4.02
466.49	4
466.843	4.01
467.195	4.04
467.547	4.04
467.899	4.05
468.252	4.04
468.604	4.06
468.956	4.05
469.308	4.05
469.66	4.03
470.012	4.01
470.364	4.03
470.716	4.02
471.068	4.04
471.42	4.03
471.772	4.03
472.123	4.04
472.475	4.06
472.827	4.06
473.178	4.07
473.53	4.06
473.882	4.1
474.233	4.12
474.585	4.1
474.936	4.1
475.288	4.1
475.639	4.09
475.99	4.09
476.342	4.1
476.693	4.1
477.044	4.13
477.395	4.13
477.746	4.1
478.097	4.1
478.448	4.1
478.8	4.11
479.15	4.1
479.501	4.09
479.852	4.11
480.203	4.12
480.554	4.13
480.905	4.15
481.255	4.14
481.606	4.13
481.957	4.15
482.307	4.15
482.658	4.16
483.009	4.17
483.359	4.16
483.709	4.16
484.06	4.16
484.41	4.15
484.761	4.15
485.111	4.16
485.461	4.16
485.811	4.15
486.162	4.15
486.512	4.16
486.862	4.18
487.212	4.17
487.562	4.17
487.912	4.16
488.262	4.16
488.612	4.16
488.961	4.16
489.311	4.15
489.661	4.15
490.011	4.15
490.36	4.15
490.71	4.15
491.06	4.16
491.409	4.16
491.759	4.17
492.108	4.17
492.458	4.16
492.807	4.15
493.157	4.16
493.506	4.17
493.855	4.16
494.204	4.15
494.554	4.16
494.903	4.15
495.252	4.15
495.601	4.16
495.95	4.17
496.299	4.18
496.648	4.17
496.997	4.17
497.346	4.17
497.695	4.19
498.043	4.18
498.392	4.17
498.741	4.18
499.09	4.17
499.438	4.19
499.787	4.2
500.135	4.25
500.484	4.26
500.832	4.28
501.181	4.29
501.529	4.28
501.878	4.28
502.226	4.28
502.574	4.27
502.923	4.26
503.271	4.27
503.619	4.28
503.967	4.27
504.315	4.27
504.663	4.29
505.011	4.28
505.359	4.3
505.707	4.32
506.055	4.33
506.403	4.34
506.751	4.36
507.098	4.38
507.446	4.37
507.794	4.35
508.141	4.33
508.489	4.32
508.837	4.34
509.184	4.35
509.531	4.36
509.879	4.4
510.226	4.43
510.574	4.41
510.921	4.4
511.268	4.41
511.616	4.42
511.963	4.43
512.31	4.43
512.657	4.43
513.004	4.45
513.351	4.45
513.698	4.46
514.045	4.44
514.392	4.44
514.739	4.45
515.086	4.49
515.432	4.5
515.779	4.51
516.126	4.5
516.473	4.5
516.819	4.51
517.166	4.51
517.512	4.52
517.859	4.52
518.205	4.54
518.552	4.56
518.898	4.56
519.245	4.56
519.591	4.56
519.937	4.54
520.283	4.53
520.629	4.53
520.976	4.54
521.322	4.53
521.668	4.54
522.014	4.53
522.36	4.52
522.706	4.51
523.052	4.51
523.398	4.52
523.743	4.52
524.089	4.52
524.435	4.52
524.781	4.52
525.126	4.53
525.472	4.53
525.817	4.53
526.163	4.55
526.509	4.54
526.854	4.54
527.199	4.55
527.545	4.56
527.89	4.55
528.235	4.55
528.581	4.57
528.926	4.56
529.271	4.56
529.616	4.56
529.961	4.56
530.306	4.57
530.651	4.57
530.996	4.57
531.341	4.58
531.686	4.58
532.031	4.57
532.376	4.57
532.721	4.57
533.065	4.57
533.41	4.57
533.755	4.59
534.099	4.61
534.444	4.62
534.788	4.62
535.133	4.62
535.477	4.63
535.822	4.62
536.166	4.63
536.51	4.63
536.855	4.63
537.199	4.64
537.543	4.64
537.887	4.65
538.231	4.65
538.576	4.65
538.92	4.64
539.264	4.64
539.608	4.65
539.951	4.66
540.295	4.66
540.639	4.66
540.983	4.65
541.327	4.64
541.671	4.65
542.014	4.66
542.358	4.66
542.701	4.66
543.045	4.66
543.389	4.68
543.732	4.68
544.075	4.68
544.419	4.69
544.762	4.69
545.105	4.71
545.449	4.7
545.792	4.7
546.135	4.71
546.478	4.71
546.821	4.7
547.165	4.68
547.508	4.7
547.851	4.69
548.194	4.67
548.536	4.68
548.879	4.69
549.222	4.66
549.565	4.67
549.908	4.68
550.25	4.68
550.593	4.67
550.936	4.67
551.278	4.67
551.621	4.66
551.963	4.64
552.306	4.62
552.648	4.63
552.991	4.64
553.333	4.62
553.675	4.62
554.017	4.6
554.36	4.62
554.702	4.61
555.044	4.62
555.386	4.62
555.728	4.64
556.07	4.63
556.412	4.63
556.754	4.63
557.096	4.61
557.438	4.64
557.78	4.66
558.121	4.69
558.463	4.7
558.805	4.7
559.147	4.72
559.488	4.73
559.83	4.73
560.171	4.71
560.513	4.76
560.854	4.79
561.196	4.82
561.537	4.79
561.878	4.78
562.22	4.77
562.561	4.76
562.902	4.74
563.243	4.7
563.584	4.71
563.925	4.72
564.266	4.71
564.607	4.67
564.948	4.66
565.289	4.63
565.63	4.63
565.971	4.59
566.312	4.58
566.653	4.55
566.993	4.55
567.334	4.55
567.675	4.56
568.015	4.58
568.356	4.58
568.696	4.6
569.037	4.62
569.377	4.62
569.718	4.65
570.058	4.65
570.398	4.65
570.739	4.65
571.079	4.65
571.419	4.68
571.759	4.71
572.099	4.72
572.439	4.72
572.779	4.72
573.119	4.74
573.459	4.78
573.799	4.83
574.139	4.83
574.479	4.85
574.819	4.84
575.158	4.81
575.498	4.81
575.838	4.82
576.177	4.83
576.517	4.83
576.856	4.84
577.196	4.83
577.535	4.84
577.875	4.88
578.214	4.88
578.553	4.91
578.893	4.88
579.232	4.87
579.571	4.89
579.91	4.87
580.25	4.89
580.589	4.91
580.928	4.89
581.267	4.91
581.606	4.9
581.945	4.92
582.283	4.95
582.622	4.93
582.961	4.91
583.3	4.9
583.639	4.9
583.977	4.93
584.316	4.93
584.654	4.94
584.993	4.92
585.332	4.88
585.67	4.85
586.008	4.88
586.347	4.88
586.685	4.9
587.024	4.88
587.362	4.88
587.7	4.84
588.038	4.84
588.376	4.84
588.715	4.83
589.053	4.84
589.391	4.85
589.729	4.87
590.067	4.89
590.404	4.92
590.742	4.93
591.08	4.89
591.418	4.94
591.756	4.94
592.093	4.95
592.431	4.98
592.769	5
593.106	4.98
593.444	4.97
593.781	4.97
594.119	5.02
594.456	5.04
594.793	5.05
595.131	5.02
595.468	5.02
595.805	5.05
596.143	5.04
596.48	4.99
596.817	4.98
597.154	4.96
597.491	4.93
597.828	4.92
598.165	4.94
598.502	4.91
598.839	4.91
599.176	4.9
599.512	4.88
599.849	4.88
600.186	4.89
600.523	4.93
600.859	4.93
601.196	4.92
601.532	4.9
601.869	4.89
602.205	4.92
602.542	4.91
602.878	4.87
603.215	4.89
603.551	4.92
603.887	4.92
604.223	4.93
604.56	4.96
604.896	4.98
605.232	4.97
605.568	4.98
605.904	4.98
606.24	4.96
606.576	4.97
606.912	4.95
607.248	4.95
607.583	4.95
607.919	4.94
608.255	4.91
608.591	4.9
608.926	4.88
609.262	4.86
609.597	4.88
609.933	4.93
610.268	4.92
610.604	4.93
610.939	4.93
611.275	4.94
611.61	4.9
611.945	4.9
612.281	4.91
612.616	4.95
612.951	4.97
613.286	5.03
613.621	5.06
613.956	5.08
614.291	5.1
614.626	5.06
614.961	5.05
615.296	5.03
615.631	5.07
615.966	5.12
616.3	5.19
616.635	5.17
616.97	5.15
617.304	5.14
617.639	5.12
617.973	5.08
618.308	5.08
618.642	5.1
618.977	5.11
619.311	5.12
619.646	5.09
619.98	5.1
620.314	5.1
620.648	5.09
620.983	5.09
621.317	5.08
621.651	5.09
621.985	5.11
622.319	5.19
622.653	5.18
622.987	5.2
623.321	5.14
623.655	5.15
623.988	5.15
624.322	5.16
624.656	5.21
624.99	5.25
625.323	5.28
625.657	5.29
625.99	5.28
626.324	5.27
626.657	5.29
626.991	5.28
627.324	5.25
627.658	5.28
627.991	5.3
628.324	5.34
628.657	5.33
628.991	5.31
629.324	5.29
629.657	5.31
629.99	5.31
630.323	5.34
630.656	5.36
630.989	5.38
631.322	5.4
631.655	5.33
631.987	5.35
632.32	5.28
632.653	5.26
632.986	5.28
633.318	5.25
633.651	5.27
633.984	5.25
634.316	5.22
634.649	5.19
634.981	5.16
635.313	5.11
635.646	5.14
635.978	5.15
636.31	5.15
636.643	5.16
636.975	5.21
637.307	5.21
637.639	5.18
637.971	5.11
638.303	5.07
638.635	5.07
638.967	5.1
639.299	5.19
639.631	5.19
639.963	5.2
640.295	5.19
640.626	5.15
640.958	5.24
641.29	5.25
641.621	5.29
641.953	5.24
642.285	5.29
642.616	5.29
642.948	5.29
643.279	5.3
643.61	5.27
643.942	5.17
644.273	5.15
644.604	5.14
644.936	5.19
645.267	5.18
645.598	5.17
645.929	5.14
646.26	5.12
646.591	5.14
646.922	5.12
647.253	5.19
647.584	5.22
647.915	5.13
648.245	5.19
648.576	5.22
648.907	5.34
649.238	5.3
649.568	5.3
649.899	5.32
650.229	5.36
650.56	5.37
650.89	5.43
651.221	5.41
651.551	5.38
651.882	5.4
652.212	5.47
652.542	5.51
652.872	5.45
653.203	5.47
653.533	5.49
653.863	5.48
654.193	5.44
654.523	5.42
654.853	5.48
655.183	5.43
655.513	5.38
655.843	5.32
656.172	5.33
656.502	5.32
656.832	5.33
657.162	5.32
657.491	5.35
657.821	5.34
658.15	5.31
658.48	5.34
658.809	5.34
659.139	5.3
659.468	5.27
659.798	5.33
660.127	5.3
660.456	5.26
660.785	5.27
661.115	5.27
661.444	5.28
661.773	5.3
662.102	5.27
662.431	5.31
662.76	5.33
663.089	5.26
663.418	5.26
663.747	5.21
664.076	5.22
664.404	5.23
664.733	5.25
665.062	5.38
665.39	5.39
665.719	5.28
666.048	5.34
666.376	5.34
666.705	5.29
667.033	5.23
667.362	5.23
667.69	5.25
668.018	5.25
668.347	5.26
668.675	5.27
669.003	5.37
669.331	5.36
669.659	5.32
669.987	5.41
670.315	5.45
670.643	5.51
670.971	5.49
671.299	5.43
671.627	5.45
671.955	5.39
672.283	5.4
672.61	5.46
672.938	5.46
673.266	5.52
673.593	5.63
673.921	5.71
674.249	5.76
674.576	5.72
674.904	5.72
675.231	5.69
