Data from BA28417_Reflection_00007.txt Node
Date: Mon Nov 18 16:11:09 EST 2019
User: vgr7
Spectrometer: USB2G7710
Scans to average: 3
Trigger mode: 4
Integration Time (sec): 2.000000E-2
Electric dark correction enabled: true
Boxcar width: 10
XAxis mode: Wavelengths
Number of Pixels in Spectrum: 2048
>>>>>Begin Spectral Data<<<<<
177.721	-22.79
178.105	-67.14
178.488	-21.49
178.871	-3.69
179.254	53.27
179.636	-274.02
180.019	94.62
180.402	242.86
180.785	-73.81
181.168	2364.71
181.55	48.67
181.933	90.39
182.316	57.86
182.698	38.22
183.081	46.71
183.463	13.77
183.846	32
184.228	-25.55
184.611	6.91
184.993	-39.49
185.376	-101.52
185.758	-63.35
186.14	-336.24
186.522	-78.32
186.904	-242.94
187.287	-186.01
187.669	2365.82
188.051	221.15
188.433	115.14
188.815	63.69
189.197	25.12
189.579	75.19
189.961	67.65
190.342	58.48
190.724	63.03
191.106	83.23
191.488	89.98
191.869	86.18
192.251	60.37
192.633	79.23
193.014	112.53
193.396	174.75
193.777	110.18
194.159	52.53
194.54	46.19
194.922	34.32
195.303	28.87
195.684	23.39
196.065	45.25
196.447	34.47
196.828	47.64
197.209	79.82
197.59	28.53
197.971	-9.31
198.352	9.35
198.733	-3.73
199.114	15.78
199.495	17.42
199.876	27.22
200.257	40.87
200.638	47.91
201.018	64.6
201.399	53.4
201.78	55.18
202.16	63.93
202.541	70.96
202.922	61.6
203.302	38.28
203.683	46.99
204.063	38.74
204.444	63.81
204.824	42.41
205.204	25.33
205.585	58.75
205.965	95.33
206.345	99.6
206.725	107.78
207.106	59.36
207.486	83.41
207.866	47.19
208.246	40.28
208.626	26.33
209.006	27.77
209.386	37.79
209.766	21.78
210.145	42.04
210.525	18.6
210.905	22.03
211.285	39.97
211.664	29.02
212.044	31.86
212.424	42.62
212.803	43.46
213.183	60.98
213.562	51.12
213.942	33.77
214.321	39.97
214.701	40.34
215.08	51.19
215.459	37.66
215.838	52.26
216.218	43.24
216.597	53.38
216.976	55.54
217.355	72.46
217.734	58.47
218.113	43.44
218.492	85.42
218.871	62.89
219.25	57
219.629	43.51
220.008	97.32
220.387	9.75
220.766	584.54
221.144	-162.57
221.523	32.55
221.902	-112.41
222.28	125.84
222.659	-33.23
223.037	-2311.76
223.416	-644.68
223.794	-1.94
224.173	34.46
224.551	46.95
224.929	26.98
225.308	12.84
225.686	25.59
226.064	22.48
226.442	19.21
226.821	27.42
227.199	26.72
227.577	30.35
227.955	26.84
228.333	25.43
228.711	23.13
229.089	23.58
229.467	20.45
229.845	16.19
230.222	17.65
230.6	12.89
230.978	11.22
231.356	12.41
231.733	13.29
232.111	11.96
232.488	9.83
232.866	11.02
233.243	11.68
233.621	10.93
233.998	11.45
234.376	10.17
234.753	9.34
235.13	8.93
235.508	7.42
235.885	8.3
236.262	7.47
236.639	8.21
237.016	7.25
237.393	8.98
237.77	10.04
238.147	9.7
238.524	8.93
238.901	9.54
239.278	8.53
239.655	8.21
240.032	7.49
240.409	7.16
240.785	7.11
241.162	6.97
241.539	6.43
241.915	6.15
242.292	5.6
242.668	5.81
243.045	5.52
243.421	5.33
243.798	4.9
244.174	4.84
244.551	4.32
244.927	4.26
245.303	4.17
245.679	4.15
246.056	4.24
246.432	4.3
246.808	4.23
247.184	4.01
247.56	3.74
247.936	3.9
248.312	3.99
248.688	3.99
249.064	3.9
249.44	4.04
249.815	4.14
250.191	4.45
250.567	4.43
250.943	4.26
251.318	4.42
251.694	4.59
252.069	4.59
252.445	4.79
252.82	4.96
253.196	4.83
253.571	4.55
253.947	4.35
254.322	4.48
254.697	4.5
255.073	4.72
255.448	4.69
255.823	4.29
256.198	4.14
256.573	3.81
256.948	3.75
257.323	4.01
257.698	3.87
258.073	3.95
258.448	3.59
258.823	3.9
259.198	3.78
259.573	3.62
259.948	3.57
260.322	3.71
260.697	3.66
261.072	3.54
261.446	3.65
261.821	3.71
262.195	3.78
262.57	3.66
262.944	3.6
263.319	3.7
263.693	3.98
264.067	4.13
264.442	4.2
264.816	4.2
265.19	3.9
265.564	3.88
265.938	3.69
266.313	3.89
266.687	3.75
267.061	3.88
267.435	3.88
267.809	3.9
268.183	3.74
268.556	3.67
268.93	3.72
269.304	3.71
269.678	3.81
270.051	3.75
270.425	3.66
270.799	3.69
271.172	3.6
271.546	3.47
271.919	3.2
272.293	3.17
272.666	3.2
273.04	3.31
273.413	3.33
273.787	3.43
274.16	3.34
274.533	3.44
274.906	3.43
275.279	3.48
275.653	3.56
276.026	3.41
276.399	3.43
276.772	3.7
277.145	3.51
277.518	3.52
277.891	3.52
278.263	3.48
278.636	3.55
279.009	3.58
279.382	3.87
279.755	3.98
280.127	4.09
280.5	4.09
280.872	3.91
281.245	3.87
281.617	3.83
281.99	3.95
282.362	3.83
282.735	3.7
283.107	3.69
283.479	3.54
283.852	3.62
284.224	3.7
284.596	3.63
284.968	3.69
285.34	3.65
285.713	3.63
286.085	3.75
286.457	3.67
286.829	3.67
287.201	3.6
287.572	3.48
287.944	3.38
288.316	3.23
288.688	3.32
289.06	3.38
289.431	3.37
289.803	3.38
290.175	3.37
290.546	3.53
290.918	3.5
291.289	3.75
291.661	3.88
292.032	3.8
292.403	3.72
292.775	3.65
293.146	3.67
293.517	3.71
293.889	3.71
294.26	3.85
294.631	3.82
295.002	3.7
295.373	3.93
295.744	4
296.115	4.2
296.486	4.07
296.857	4.01
297.228	3.98
297.599	3.88
297.97	3.82
298.34	3.74
298.711	3.86
299.082	3.74
299.452	3.62
299.823	3.8
300.194	3.84
300.564	3.84
300.935	3.79
301.305	3.78
301.676	3.82
302.046	3.79
302.416	3.95
302.787	3.93
303.157	3.9
303.527	3.98
303.897	3.88
304.267	4.34
304.637	4.46
305.008	4.55
305.378	4.67
305.748	4.87
306.117	4.9
306.487	4.72
306.857	4.68
307.227	4.75
307.597	4.61
307.967	4.6
308.336	4.73
308.706	4.78
309.076	4.81
309.445	4.77
309.815	4.68
310.184	4.66
310.554	4.78
310.923	4.74
311.293	4.73
311.662	4.79
312.031	4.51
312.401	4.51
312.77	4.49
313.139	4.4
313.508	4.42
313.877	4.44
314.246	4.65
314.616	4.7
314.985	4.75
315.353	4.78
315.722	4.82
316.091	4.83
316.46	4.79
316.829	4.88
317.198	4.85
317.567	5
317.935	4.96
318.304	4.94
318.672	5.07
319.041	5.02
319.41	5.09
319.778	5.21
320.147	5.2
320.515	5.27
320.883	5.37
321.252	5.41
321.62	5.42
321.988	5.2
322.357	5.15
322.725	5.23
323.093	5.23
323.461	5.21
323.829	5.19
324.197	5.29
324.565	5.18
324.933	5.22
325.301	5.14
325.669	5.21
326.037	5.11
326.405	5.15
326.772	5.32
327.14	5.41
327.508	5.33
327.875	5.29
328.243	5.27
328.61	5.19
328.978	5.07
329.346	5.08
329.713	5.2
330.08	5.32
330.448	5.26
330.815	5.2
331.182	5.26
331.55	5.17
331.917	5.13
332.284	5.32
332.651	5.39
333.018	5.47
333.385	5.42
333.752	5.51
334.119	5.49
334.486	5.43
334.853	5.44
335.22	5.48
335.587	5.52
335.954	5.62
336.32	5.71
336.687	5.85
337.054	5.88
337.42	6
337.787	6.01
338.153	5.89
338.52	5.99
338.886	5.95
339.253	6
339.619	6.05
339.986	5.87
340.352	5.85
340.718	5.72
341.084	5.63
341.451	5.72
341.817	5.72
342.183	5.66
342.549	5.54
342.915	5.58
343.281	5.47
343.647	5.36
344.013	5.42
344.379	5.29
344.745	5.25
345.11	5.1
345.476	5.06
345.842	5.17
346.208	5.12
346.573	5.23
346.939	5.35
347.304	5.29
347.67	5.28
348.035	5.35
348.401	5.44
348.766	5.58
349.132	5.54
349.497	5.41
349.862	5.47
350.228	5.53
350.593	5.51
350.958	5.6
351.323	5.65
351.688	5.6
352.053	5.69
352.418	5.72
352.783	5.75
353.148	5.77
353.513	5.76
353.878	5.75
354.243	5.72
354.608	5.68
354.972	5.73
355.337	5.71
355.702	5.74
356.066	5.74
356.431	5.67
356.795	5.64
357.16	5.7
357.524	5.61
357.889	5.54
358.253	5.59
358.618	5.61
358.982	5.53
359.346	5.52
359.71	5.45
360.075	5.43
360.439	5.44
360.803	5.39
361.167	5.34
361.531	5.32
361.895	5.25
362.259	5.23
362.623	5.16
362.987	5.17
363.351	5.06
363.714	5.04
364.078	5.09
364.442	5.09
364.806	5.02
365.169	5.04
365.533	5.08
365.896	4.97
366.26	4.94
366.623	4.98
366.987	4.93
367.35	4.92
367.714	4.9
368.077	4.86
368.44	4.85
368.803	4.83
369.167	4.77
369.53	4.75
369.893	4.78
370.256	4.83
370.619	4.83
370.982	4.8
371.345	4.81
371.708	4.71
372.071	4.63
372.434	4.64
372.797	4.64
373.159	4.53
373.522	4.5
373.885	4.49
374.247	4.46
374.61	4.47
374.973	4.45
375.335	4.41
375.698	4.41
376.06	4.35
376.423	4.31
376.785	4.35
377.147	4.34
377.51	4.24
377.872	4.22
378.234	4.16
378.596	4.18
378.958	4.12
379.321	4.11
379.683	4.15
380.045	4.14
380.407	4.06
380.769	4.06
381.13	4.09
381.492	4.03
381.854	4.01
382.216	3.95
382.578	3.93
382.939	3.92
383.301	3.9
383.663	3.92
384.024	3.93
384.386	3.97
384.747	3.97
385.109	3.97
385.47	3.89
385.832	3.9
386.193	3.89
386.554	3.89
386.916	3.83
387.277	3.83
387.638	3.81
387.999	3.81
388.36	3.81
388.721	3.78
389.082	3.8
389.443	3.78
389.804	3.75
390.165	3.71
390.526	3.7
390.887	3.65
391.248	3.64
391.609	3.62
391.969	3.55
392.33	3.5
392.691	3.49
393.051	3.52
393.412	3.53
393.772	3.47
394.133	3.49
394.493	3.52
394.854	3.48
395.214	3.44
395.574	3.41
395.935	3.37
396.295	3.37
396.655	3.31
397.015	3.29
397.376	3.28
397.736	3.27
398.096	3.26
398.456	3.29
398.816	3.29
399.176	3.26
399.535	3.27
399.895	3.24
400.255	3.23
400.615	3.23
400.975	3.2
401.334	3.21
401.694	3.14
402.054	3.12
402.413	3.11
402.773	3.12
403.132	3.12
403.492	3.14
403.851	3.09
404.211	3.11
404.57	3.11
404.929	3.12
405.288	3.12
405.648	3.07
406.007	3.05
406.366	3.04
406.725	3.08
407.084	3.06
407.443	3.08
407.802	3.1
408.161	3.09
408.52	3.07
408.879	3.06
409.238	3.1
409.596	3.11
409.955	3.08
410.314	3.1
410.673	3.06
411.031	3.05
411.39	3.1
411.748	3.06
412.107	3.06
412.465	3.07
412.824	3.05
413.182	3.08
413.54	3.05
413.899	3.05
414.257	3.03
414.615	3.03
414.974	3.04
415.332	3
415.69	2.96
416.048	2.96
416.406	2.95
416.764	2.91
417.122	2.9
417.48	2.88
417.838	2.87
418.195	2.89
418.553	2.89
418.911	2.86
419.269	2.86
419.626	2.84
419.984	2.83
420.342	2.83
420.699	2.83
421.057	2.85
421.414	2.83
421.772	2.82
422.129	2.82
422.486	2.8
422.844	2.8
423.201	2.8
423.558	2.79
423.915	2.78
424.273	2.79
424.63	2.79
424.987	2.8
425.344	2.82
425.701	2.81
426.058	2.8
426.415	2.81
426.772	2.82
427.128	2.82
427.485	2.81
427.842	2.8
428.199	2.8
428.555	2.77
428.912	2.78
429.269	2.79
429.625	2.77
429.982	2.77
430.338	2.77
430.695	2.78
431.051	2.78
431.407	2.8
431.764	2.8
432.12	2.79
432.476	2.77
432.832	2.73
433.189	2.73
433.545	2.73
433.901	2.74
434.257	2.73
434.613	2.74
434.969	2.74
435.325	2.74
435.681	2.73
436.036	2.73
436.392	2.72
436.748	2.69
437.104	2.68
437.459	2.68
437.815	2.68
438.171	2.67
438.526	2.67
438.882	2.67
439.237	2.68
439.593	2.67
439.948	2.67
440.304	2.69
440.659	2.69
441.014	2.69
441.369	2.65
441.725	2.64
442.08	2.63
442.435	2.64
442.79	2.63
443.145	2.64
443.5	2.65
443.855	2.64
444.21	2.64
444.565	2.65
444.92	2.66
445.275	2.64
445.629	2.64
445.984	2.65
446.339	2.65
446.693	2.64
447.048	2.63
447.403	2.64
447.757	2.62
448.112	2.61
448.466	2.61
448.82	2.63
449.175	2.64
449.529	2.64
449.883	2.63
450.238	2.62
450.592	2.62
450.946	2.61
451.3	2.61
451.654	2.61
452.008	2.61
452.362	2.6
452.716	2.61
453.07	2.62
453.424	2.62
453.778	2.61
454.132	2.61
454.486	2.62
454.839	2.62
455.193	2.6
455.547	2.59
455.9	2.6
456.254	2.6
456.607	2.6
456.961	2.6
457.314	2.61
457.668	2.61
458.021	2.61
458.375	2.63
458.728	2.63
459.081	2.63
459.434	2.63
459.787	2.63
460.141	2.62
460.494	2.62
460.847	2.62
461.2	2.62
461.553	2.63
461.906	2.64
462.259	2.64
462.611	2.65
462.964	2.67
463.317	2.66
463.67	2.66
464.022	2.67
464.375	2.65
464.728	2.66
465.08	2.67
465.433	2.67
465.785	2.67
466.138	2.66
466.49	2.68
466.843	2.68
467.195	2.68
467.547	2.69
467.899	2.69
468.252	2.68
468.604	2.69
468.956	2.68
469.308	2.66
469.66	2.66
470.012	2.68
470.364	2.68
470.716	2.69
471.068	2.69
471.42	2.7
471.772	2.74
472.123	2.74
472.475	2.75
472.827	2.74
473.178	2.74
473.53	2.75
473.882	2.74
474.233	2.76
474.585	2.74
474.936	2.75
475.288	2.72
475.639	2.73
475.99	2.71
476.342	2.72
476.693	2.72
477.044	2.73
477.395	2.73
477.746	2.72
478.097	2.72
478.448	2.73
478.8	2.71
479.15	2.67
479.501	2.66
479.852	2.65
480.203	2.66
480.554	2.66
480.905	2.66
481.255	2.65
481.606	2.65
481.957	2.66
482.307	2.67
482.658	2.67
483.009	2.68
483.359	2.67
483.709	2.68
484.06	2.68
484.41	2.69
484.761	2.68
485.111	2.69
485.461	2.69
485.811	2.69
486.162	2.69
486.512	2.71
486.862	2.71
487.212	2.71
487.562	2.71
487.912	2.71
488.262	2.71
488.612	2.72
488.961	2.72
489.311	2.71
489.661	2.71
490.011	2.72
490.36	2.71
490.71	2.72
491.06	2.72
491.409	2.72
491.759	2.71
492.108	2.73
492.458	2.72
492.807	2.72
493.157	2.73
493.506	2.73
493.855	2.73
494.204	2.75
494.554	2.75
494.903	2.76
495.252	2.77
495.601	2.79
495.95	2.79
496.299	2.81
496.648	2.82
496.997	2.83
497.346	2.85
497.695	2.87
498.043	2.88
498.392	2.89
498.741	2.92
499.09	2.93
499.438	2.94
499.787	2.96
500.135	2.98
500.484	2.99
500.832	3.01
501.181	3.06
501.529	3.04
501.878	3.09
502.226	3.11
502.574	3.13
502.923	3.15
503.271	3.16
503.619	3.19
503.967	3.22
504.315	3.24
504.663	3.25
505.011	3.28
505.359	3.32
505.707	3.36
506.055	3.38
506.403	3.41
506.751	3.45
507.098	3.49
507.446	3.52
507.794	3.55
508.141	3.58
508.489	3.59
508.837	3.65
509.184	3.68
509.531	3.73
509.879	3.76
510.226	3.8
510.574	3.85
510.921	3.87
511.268	3.92
511.616	3.98
511.963	4.02
512.31	4.06
512.657	4.12
513.004	4.16
513.351	4.21
513.698	4.26
514.045	4.3
514.392	4.35
514.739	4.4
515.086	4.45
515.432	4.5
515.779	4.55
516.126	4.58
516.473	4.63
516.819	4.66
517.166	4.71
517.512	4.75
517.859	4.8
518.205	4.84
518.552	4.89
518.898	4.94
519.245	5.01
519.591	5.04
519.937	5.06
520.283	5.1
520.629	5.16
520.976	5.22
521.322	5.28
521.668	5.34
522.014	5.4
522.36	5.48
522.706	5.57
523.052	5.65
523.398	5.75
523.743	5.85
524.089	5.96
524.435	6.04
524.781	6.13
525.126	6.23
525.472	6.32
525.817	6.38
526.163	6.45
526.509	6.52
526.854	6.59
527.199	6.67
527.545	6.74
527.89	6.8
528.235	6.87
528.581	6.94
528.926	7.01
529.271	7.08
529.616	7.14
529.961	7.23
530.306	7.31
530.651	7.4
530.996	7.48
531.341	7.57
531.686	7.67
532.031	7.77
532.376	7.88
532.721	7.99
533.065	8.11
533.41	8.22
533.755	8.35
534.099	8.47
534.444	8.62
534.788	8.75
535.133	8.89
535.477	9.03
535.822	9.2
536.166	9.38
536.51	9.58
536.855	9.79
537.199	9.97
537.543	10.19
537.887	10.4
538.231	10.62
538.576	10.86
538.92	11.08
539.264	11.3
539.608	11.48
539.951	11.67
540.295	11.86
540.639	12.05
540.983	12.26
541.327	12.45
541.671	12.63
542.014	12.81
542.358	12.99
542.701	13.18
543.045	13.37
543.389	13.55
543.732	13.74
544.075	13.94
544.419	14.13
544.762	14.36
545.105	14.6
545.449	14.84
545.792	15.07
546.135	15.31
546.478	15.58
546.821	15.88
547.165	16.15
547.508	16.46
547.851	16.76
548.194	17.04
548.536	17.34
548.879	17.66
549.222	18.01
549.565	18.32
549.908	18.65
550.25	19.01
550.593	19.33
550.936	19.66
551.278	19.98
551.621	20.36
551.963	20.67
552.306	20.98
552.648	21.32
552.991	21.67
553.333	22.03
553.675	22.35
554.017	22.71
554.36	23.08
554.702	23.38
555.044	23.71
555.386	24.04
555.728	24.39
556.07	24.73
556.412	25.06
556.754	25.44
557.096	25.81
557.438	26.11
557.78	26.51
558.121	26.84
558.463	27.18
558.805	27.52
559.147	27.88
559.488	28.25
559.83	28.56
560.171	28.88
560.513	29.2
560.854	29.57
561.196	29.82
561.537	30.17
561.878	30.51
562.22	30.83
562.561	31.11
562.902	31.41
563.243	31.76
563.584	32.07
563.925	32.34
564.266	32.62
564.607	32.97
564.948	33.24
565.289	33.54
565.63	33.84
565.971	34.08
566.312	34.37
566.653	34.62
566.993	34.91
567.334	35.19
567.675	35.48
568.015	35.76
568.356	36.09
568.696	36.37
569.037	36.6
569.377	36.87
569.718	37.18
570.058	37.51
570.398	37.72
570.739	38
571.079	38.32
571.419	38.59
571.759	38.85
572.099	39.1
572.439	39.35
572.779	39.61
573.119	39.88
573.459	40.12
573.799	40.4
574.139	40.6
574.479	40.82
574.819	41.07
575.158	41.3
575.498	41.57
575.838	41.84
576.177	42.16
576.517	42.42
576.856	42.64
577.196	42.84
577.535	43.14
577.875	43.34
578.214	43.57
578.553	43.85
578.893	44.08
579.232	44.27
579.571	44.49
579.91	44.79
580.25	45.01
580.589	45.28
580.928	45.51
581.267	45.79
581.606	46.09
581.945	46.22
582.283	46.42
582.622	46.6
582.961	46.74
583.3	46.87
583.639	47.09
583.977	47.34
584.316	47.49
584.654	47.64
584.993	47.88
585.332	48.05
585.67	48.23
586.008	48.42
586.347	48.65
586.685	48.87
587.024	48.97
587.362	49.15
587.7	49.3
588.038	49.42
588.376	49.56
588.715	49.7
589.053	49.94
589.391	50.03
589.729	50.22
590.067	50.48
590.404	50.65
590.742	50.8
591.08	50.92
591.418	51.09
591.756	51.22
592.093	51.31
592.431	51.5
592.769	51.67
593.106	51.8
593.444	51.93
593.781	52.05
594.119	52.24
594.456	52.4
594.793	52.5
595.131	52.67
595.468	52.81
595.805	52.89
596.143	53.03
596.48	53.17
596.817	53.25
597.154	53.29
597.491	53.41
597.828	53.45
598.165	53.58
598.502	53.73
598.839	53.88
599.176	54.02
599.512	54.15
599.849	54.25
600.186	54.38
600.523	54.52
600.859	54.68
601.196	54.76
601.532	54.86
601.869	54.95
602.205	55.03
602.542	55.14
602.878	55.27
603.215	55.34
603.551	55.4
603.887	55.44
604.223	55.51
604.56	55.58
604.896	55.69
605.232	55.73
605.568	55.85
605.904	55.96
606.24	56.13
606.576	56.17
606.912	56.26
607.248	56.32
607.583	56.45
607.919	56.51
608.255	56.68
608.591	56.76
608.926	56.89
609.262	56.99
609.597	57.06
609.933	57.09
610.268	57.22
610.604	57.28
610.939	57.33
611.275	57.39
611.61	57.47
611.945	57.6
612.281	57.72
612.616	57.77
612.951	57.79
613.286	57.81
613.621	57.88
613.956	57.86
614.291	57.98
614.626	57.97
614.961	58.04
615.296	57.98
615.631	58.1
615.966	58.23
616.3	58.33
616.635	58.42
616.97	58.5
617.304	58.45
617.639	58.63
617.973	58.74
618.308	58.9
618.642	59.03
618.977	59.11
619.311	59.23
619.646	59.18
619.98	59.31
620.314	59.44
620.648	59.63
620.983	59.83
621.317	59.88
621.651	59.95
621.985	60.05
622.319	60.24
622.653	60.33
622.987	60.35
623.321	60.38
623.655	60.46
623.988	60.54
624.322	60.59
624.656	60.7
624.99	60.8
625.323	60.83
625.657	60.84
625.99	60.87
626.324	60.82
626.657	60.92
626.991	60.91
627.324	60.78
627.658	60.78
627.991	60.76
628.324	60.84
628.657	60.89
628.991	60.94
629.324	60.94
629.657	60.9
629.99	61.01
630.323	61.01
630.656	61
630.989	61.11
631.322	61.16
631.655	61.15
631.987	61.18
632.32	61.18
632.653	61.19
632.986	61.22
633.318	61.26
633.651	61.33
633.984	61.36
634.316	61.5
634.649	61.48
634.981	61.58
635.313	61.6
635.646	61.71
635.978	61.77
636.31	61.8
636.643	61.86
636.975	61.77
637.307	61.82
637.639	61.94
637.971	61.88
638.303	61.9
638.635	61.91
638.967	61.92
639.299	62.03
639.631	62.08
639.963	62.18
640.295	62.25
640.626	62.41
640.958	62.53
641.29	62.49
641.621	62.57
641.953	62.56
642.285	62.61
642.616	62.48
642.948	62.48
643.279	62.51
643.61	62.49
643.942	62.51
644.273	62.7
644.604	62.65
644.936	62.67
645.267	62.74
645.598	62.78
645.929	62.87
646.26	62.79
646.591	62.88
646.922	62.91
647.253	62.94
647.584	62.9
647.915	62.94
648.245	63.08
648.576	63.13
648.907	63.17
649.238	63.09
649.568	63.18
649.899	63.14
650.229	63.12
650.56	63.14
650.89	63.25
651.221	63.26
651.551	63.37
651.882	63.47
652.212	63.42
652.542	63.33
652.872	63.36
653.203	63.45
653.533	63.53
653.863	63.44
654.193	63.44
654.523	63.32
654.853	63.32
655.183	63.29
655.513	63.31
655.843	63.34
656.172	63.39
656.502	63.46
656.832	63.46
657.162	63.48
657.491	63.63
657.821	63.65
658.15	63.56
658.48	63.51
658.809	63.54
659.139	63.64
659.468	63.79
659.798	63.77
660.127	63.75
660.456	63.62
660.785	63.74
661.115	63.8
661.444	63.92
661.773	63.98
662.102	64.1
662.431	64.13
662.76	64.2
663.089	64.28
663.418	64.34
663.747	64.57
664.076	64.75
664.404	64.67
664.733	64.69
665.062	64.85
665.39	64.96
665.719	64.93
666.048	64.95
666.376	65
666.705	65.07
667.033	65.02
667.362	65.17
667.69	65.15
668.018	65.15
668.347	65.19
668.675	65.26
669.003	65.19
669.331	65.24
669.659	65.12
