Data from BA28417_Reflection_00003.txt Node
Date: Mon Nov 18 16:11:01 EST 2019
User: vgr7
Spectrometer: USB2G7710
Scans to average: 3
Trigger mode: 4
Integration Time (sec): 2.000000E-2
Electric dark correction enabled: true
Boxcar width: 10
XAxis mode: Wavelengths
Number of Pixels in Spectrum: 2048
>>>>>Begin Spectral Data<<<<<
177.721	-125.42
178.105	-92.63
178.488	0.28
178.871	17.4
179.254	9.21
179.636	-85.04
180.019	155.97
180.402	152.38
180.785	136.12
181.168	-2488.24
181.55	-166.94
181.933	176.86
182.316	127.3
182.698	105.47
183.081	123.53
183.463	64.17
183.846	38.44
184.228	29.76
184.611	59.45
184.993	-45.38
185.376	-318.25
185.758	-290.44
186.14	-74.5
186.522	88.59
186.904	267.15
187.287	95.82
187.669	-254.43
188.051	-154.62
188.433	-26.45
188.815	-22.17
189.197	-10.77
189.579	22.03
189.961	-9.13
190.342	-22.13
190.724	-3.52
191.106	-51.43
191.488	-82.39
191.869	-47.18
192.251	-67.76
192.633	-84.82
193.014	-172.66
193.396	-413.4
193.777	-297.78
194.159	-225.29
194.54	-129.29
194.922	-113.14
195.303	-111.49
195.684	-97.18
196.065	-88.78
196.447	-79.25
196.828	-114.63
197.209	-149.65
197.59	-208.44
197.971	-185.44
198.352	-109.31
198.733	-108.11
199.114	-101.89
199.495	-95.51
199.876	-122.84
200.257	-91.44
200.638	-58.27
201.018	-60.77
201.399	-49.02
201.78	-41.91
202.16	-68.18
202.541	-88.89
202.922	-97.16
203.302	-108.51
203.683	-155.08
204.063	-190
204.444	-184.58
204.824	-170.35
205.204	-101.88
205.585	-117.86
205.965	-84.56
206.345	-98.14
206.725	-96.8
207.106	-84.01
207.486	-169.41
207.866	-156.53
208.246	-130.8
208.626	-141.2
209.006	-73.5
209.386	-133.42
209.766	-118.35
210.145	-63.4
210.525	-51.02
210.905	-39.11
211.285	-30.34
211.664	-12.91
212.044	-5.38
212.424	-15.37
212.803	0.3
213.183	0.92
213.562	24.39
213.942	18.62
214.321	-10.1
214.701	-25.5
215.08	-37.98
215.459	-8.47
215.838	1.88
216.218	5.27
216.597	13.25
216.976	1.32
217.355	25.06
217.734	-5.89
218.113	-32.85
218.492	-55.03
218.871	-114.64
219.25	-188.49
219.629	-290.84
220.008	-538.07
220.387	-715.88
220.766	-2106.19
221.144	1563.69
221.523	1009.09
221.902	825.54
222.28	656.66
222.659	453.13
223.037	17276.47
223.416	6185.11
223.794	-354.19
224.173	-222.28
224.551	-109.56
224.929	-73.67
225.308	-53.68
225.686	-36.83
226.064	-21.43
226.442	-18.65
226.821	-13.95
227.199	-14.77
227.577	-11.16
227.955	-10.6
228.333	-12.44
228.711	-8.9
229.089	-4.23
229.467	-4.41
229.845	-6.29
230.222	-3
230.6	-5.52
230.978	-5.2
231.356	-5.69
231.733	-7.14
232.111	-6.09
232.488	-8.71
232.866	-9.55
233.243	-8.16
233.621	-9.35
233.998	-8.5
234.376	-8.83
234.753	-7.56
235.13	-4.77
235.508	-4.41
235.885	-5.12
236.262	-4.43
236.639	-6.46
237.016	-4.66
237.393	-3.37
237.77	-2.03
238.147	-1.63
238.524	0.04
238.901	0.94
239.278	1.46
239.655	1.87
240.032	1.9
240.409	1.69
240.785	2.53
241.162	2.71
241.539	2.91
241.915	3.27
242.292	3.21
242.668	2.86
243.045	2.56
243.421	3.13
243.798	3.52
244.174	3.8
244.551	3.86
244.927	3.35
245.303	3.66
245.679	3.64
246.056	3.61
246.432	3.35
246.808	3.32
247.184	3.17
247.56	3.19
247.936	3.19
248.312	3.31
248.688	2.97
249.064	2.91
249.44	2.95
249.815	2.87
250.191	3.08
250.567	3.09
250.943	3
251.318	2.69
251.694	2.56
252.069	2.19
252.445	2.5
252.82	2.78
253.196	2.38
253.571	2.52
253.947	2.4
254.322	2.71
254.697	2.79
255.073	2.8
255.448	2.61
255.823	2.69
256.198	2.98
256.573	3.19
256.948	3.23
257.323	3.4
257.698	3.4
258.073	3.31
258.448	3.37
258.823	3.41
259.198	3.46
259.573	3.42
259.948	3.47
260.322	3.27
260.697	3.15
261.072	2.97
261.446	2.78
261.821	2.79
262.195	2.68
262.57	2.69
262.944	2.65
263.319	2.78
263.693	2.65
264.067	2.42
264.442	2.38
264.816	2.23
265.19	2.06
265.564	2.01
265.938	2.02
266.313	2.04
266.687	1.99
267.061	1.93
267.435	1.98
267.809	2.07
268.183	2.1
268.556	2.16
268.93	2.36
269.304	2.48
269.678	2.59
270.051	2.63
270.425	2.61
270.799	2.74
271.172	2.7
271.546	2.78
271.919	2.83
272.293	2.77
272.666	2.91
273.04	2.96
273.413	2.97
273.787	2.96
274.16	3.07
274.533	3.07
274.906	2.94
275.279	2.94
275.653	2.82
276.026	2.72
276.399	2.63
276.772	2.73
277.145	2.87
277.518	3.01
277.891	3.07
278.263	3.01
278.636	3.04
279.009	3.18
279.382	3.38
279.755	3.32
280.127	3.22
280.5	3.18
280.872	3.12
281.245	3.06
281.617	3.29
281.99	3.28
282.362	3.26
282.735	3.36
283.107	3.32
283.479	3.35
283.852	3.37
284.224	3.37
284.596	3.46
284.968	3.37
285.34	3.36
285.713	3.36
286.085	3.46
286.457	3.44
286.829	3.37
287.201	3.3
287.572	3.37
287.944	3.43
288.316	3.37
288.688	3.41
289.06	3.35
289.431	3.31
289.803	3.24
290.175	3.3
290.546	3.36
290.918	3.33
291.289	3.4
291.661	3.48
292.032	3.52
292.403	3.43
292.775	3.51
293.146	3.34
293.517	3.3
293.889	3.17
294.26	3.21
294.631	3.24
295.002	3.19
295.373	3.25
295.744	3.29
296.115	3.32
296.486	3.2
296.857	3.38
297.228	3.25
297.599	3.26
297.97	3.32
298.34	3.23
298.711	3.31
299.082	3.19
299.452	3.13
299.823	3.26
300.194	3.18
300.564	3.16
300.935	3.26
301.305	3.14
301.676	3.11
302.046	3.1
302.416	3.19
302.787	3.13
303.157	3.09
303.527	3.11
303.897	3.15
304.267	3.3
304.637	3.15
305.008	3.07
305.378	3.1
305.748	2.99
306.117	3.07
306.487	3
306.857	3.11
307.227	3.16
307.597	3.05
307.967	3.11
308.336	2.97
308.706	2.88
309.076	2.97
309.445	3.01
309.815	2.89
310.184	2.73
310.554	2.72
310.923	2.66
311.293	2.62
311.662	2.55
312.031	2.53
312.401	2.57
312.77	2.62
313.139	2.59
313.508	2.6
313.877	2.53
314.246	2.5
314.616	2.46
314.985	2.37
315.353	2.35
315.722	2.3
316.091	2.39
316.46	2.44
316.829	2.41
317.198	2.4
317.567	2.49
317.935	2.5
318.304	2.49
318.672	2.47
319.041	2.57
319.41	2.65
319.778	2.52
320.147	2.41
320.515	2.48
320.883	2.43
321.252	2.53
321.62	2.61
321.988	2.64
322.357	2.55
322.725	2.6
323.093	2.57
323.461	2.61
323.829	2.58
324.197	2.55
324.565	2.55
324.933	2.52
325.301	2.4
325.669	2.38
326.037	2.43
326.405	2.39
326.772	2.37
327.14	2.37
327.508	2.43
327.875	2.53
328.243	2.48
328.61	2.41
328.978	2.41
329.346	2.41
329.713	2.31
330.08	2.42
330.448	2.42
330.815	2.38
331.182	2.44
331.55	2.42
331.917	2.56
332.284	2.6
332.651	2.75
333.018	2.86
333.385	2.92
333.752	3
334.119	3.12
334.486	3.08
334.853	3.08
335.22	3.11
335.587	3.07
335.954	3.09
336.32	3.22
336.687	3.16
337.054	3.07
337.42	3.26
337.787	3.28
338.153	3.31
338.52	3.37
338.886	3.26
339.253	3.26
339.619	3.19
339.986	3.14
340.352	3.17
340.718	3.12
341.084	3.01
341.451	2.95
341.817	3
342.183	2.93
342.549	2.91
342.915	2.96
343.281	2.85
343.647	2.8
344.013	2.81
344.379	2.8
344.745	2.88
345.11	2.8
345.476	2.78
345.842	2.78
346.208	2.72
346.573	2.75
346.939	2.78
347.304	2.74
347.67	2.72
348.035	2.64
348.401	2.62
348.766	2.81
349.132	2.81
349.497	2.71
349.862	2.85
350.228	2.89
350.593	2.76
350.958	2.88
351.323	2.97
351.688	2.94
352.053	2.95
352.418	2.94
352.783	2.9
353.148	2.97
353.513	3.01
353.878	3.12
354.243	3.17
354.608	3.27
354.972	3.23
355.337	3.37
355.702	3.47
356.066	3.52
356.431	3.39
356.795	3.42
357.16	3.4
357.524	3.32
357.889	3.27
358.253	3.33
358.618	3.31
358.982	3.29
359.346	3.23
359.71	3.23
360.075	3.25
360.439	3.33
360.803	3.32
361.167	3.26
361.531	3.2
361.895	3.18
362.259	3.13
362.623	3.19
362.987	3.16
363.351	3.07
363.714	3.09
364.078	3.09
364.442	3.08
364.806	3.13
365.169	3.12
365.533	3.12
365.896	3.12
366.26	3.11
366.623	3.12
366.987	3.15
367.35	3.19
367.714	3.17
368.077	3.13
368.44	3.11
368.803	3.18
369.167	3.18
369.53	3.13
369.893	3.14
370.256	3.16
370.619	3.11
370.982	3.12
371.345	3.08
371.708	3.07
372.071	3.06
372.434	2.99
372.797	3
373.159	3.02
373.522	2.99
373.885	3.02
374.247	3
374.61	3
374.973	3
375.335	2.99
375.698	2.98
376.06	3
376.423	2.97
376.785	3
377.147	3.1
377.51	3.1
377.872	3.06
378.234	3.07
378.596	3.1
378.958	3.06
379.321	3.1
379.683	3.12
380.045	3.18
380.407	3.24
380.769	3.25
381.13	3.25
381.492	3.23
381.854	3.2
382.216	3.19
382.578	3.17
382.939	3.14
383.301	3.16
383.663	3.12
384.024	3.11
384.386	3.15
384.747	3.1
385.109	3.11
385.47	3.12
385.832	3.12
386.193	3.11
386.554	3.13
386.916	3.08
387.277	3.07
387.638	3.06
387.999	2.98
388.36	2.91
388.721	2.94
389.082	2.94
389.443	2.94
389.804	2.95
390.165	2.93
390.526	2.95
390.887	2.94
391.248	2.98
391.609	2.96
391.969	2.93
392.33	2.92
392.691	2.89
393.051	2.88
393.412	2.86
393.772	2.85
394.133	2.87
394.493	2.91
394.854	2.89
395.214	2.88
395.574	2.9
395.935	2.92
396.295	2.94
396.655	2.93
397.015	2.95
397.376	2.94
397.736	2.96
398.096	2.97
398.456	2.97
398.816	2.97
399.176	2.95
399.535	2.95
399.895	2.98
400.255	2.97
400.615	2.96
400.975	2.95
401.334	2.96
401.694	2.95
402.054	2.9
402.413	2.91
402.773	2.92
403.132	2.93
403.492	2.95
403.851	2.92
404.211	2.94
404.57	2.93
404.929	2.93
405.288	2.92
405.648	2.9
406.007	2.93
406.366	2.87
406.725	2.91
407.084	2.91
407.443	2.9
407.802	2.92
408.161	2.92
408.52	2.89
408.879	2.89
409.238	2.91
409.596	2.93
409.955	2.96
410.314	2.99
410.673	2.99
411.031	3.01
411.39	3.02
411.748	3.03
412.107	3.02
412.465	3.02
412.824	3.02
413.182	3.03
413.54	3.01
413.899	3.08
414.257	3.09
414.615	3.06
414.974	3.05
415.332	3.05
415.69	3.06
416.048	3.1
416.406	3.1
416.764	3.09
417.122	3.1
417.48	3.08
417.838	3.09
418.195	3.09
418.553	3.09
418.911	3.09
419.269	3.09
419.626	3.09
419.984	3.09
420.342	3.1
420.699	3.09
421.057	3.08
421.414	3.04
421.772	3.04
422.129	3.05
422.486	3.05
422.844	3.05
423.201	3.04
423.558	3.04
423.915	3.05
424.273	3.05
424.63	3.05
424.987	3.06
425.344	3.04
425.701	3.04
426.058	3.03
426.415	3.04
426.772	3.04
427.128	3.03
427.485	3.03
427.842	3.03
428.199	3.04
428.555	3.06
428.912	3.08
429.269	3.1
429.625	3.09
429.982	3.09
430.338	3.1
430.695	3.11
431.051	3.08
431.407	3.07
431.764	3.09
432.12	3.07
432.476	3.07
432.832	3.07
433.189	3.07
433.545	3.06
433.901	3.05
434.257	3.04
434.613	3.04
434.969	3.05
435.325	3.04
435.681	3.06
436.036	3.06
436.392	3.06
436.748	3.04
437.104	3.03
437.459	3.02
437.815	3.02
438.171	3.04
438.526	3.06
438.882	3.07
439.237	3.06
439.593	3.08
439.948	3.07
440.304	3.08
440.659	3.09
441.014	3.1
441.369	3.1
441.725	3.1
442.08	3.1
442.435	3.1
442.79	3.1
443.145	3.09
443.5	3.07
443.855	3.08
444.21	3.08
444.565	3.1
444.92	3.1
445.275	3.11
445.629	3.08
445.984	3.08
446.339	3.08
446.693	3.05
447.048	3.05
447.403	3.04
447.757	3.03
448.112	3.02
448.466	3
448.82	3
449.175	3.01
449.529	3.01
449.883	3
450.238	3
450.592	3
450.946	3
451.3	2.98
451.654	2.99
452.008	3
452.362	3
452.716	2.99
453.07	3.02
453.424	3.01
453.778	2.99
454.132	3
454.486	3
454.839	3.01
455.193	3
455.547	3.02
455.9	3.04
456.254	3.05
456.607	3.03
456.961	3.02
457.314	3.04
457.668	3.04
458.021	3.04
458.375	3.05
458.728	3.07
459.081	3.07
459.434	3.05
459.787	3.06
460.141	3.06
460.494	3.05
460.847	3.06
461.2	3.07
461.553	3.1
461.906	3.09
462.259	3.09
462.611	3.11
462.964	3.12
463.317	3.11
463.67	3.11
464.022	3.13
464.375	3.16
464.728	3.15
465.08	3.15
465.433	3.15
465.785	3.15
466.138	3.13
466.49	3.11
466.843	3.13
467.195	3.11
467.547	3.12
467.899	3.11
468.252	3.1
468.604	3.11
468.956	3.09
469.308	3.1
469.66	3.08
470.012	3.05
470.364	3.04
470.716	3.05
471.068	3.04
471.42	3.02
471.772	3.01
472.123	3.03
472.475	3.04
472.827	3.05
473.178	3.06
473.53	3.05
473.882	3.07
474.233	3.09
474.585	3.09
474.936	3.07
475.288	3.08
475.639	3.1
475.99	3.1
476.342	3.11
476.693	3.12
477.044	3.15
477.395	3.16
477.746	3.15
478.097	3.13
478.448	3.16
478.8	3.16
479.15	3.15
479.501	3.16
479.852	3.17
480.203	3.18
480.554	3.19
480.905	3.21
481.255	3.2
481.606	3.2
481.957	3.22
482.307	3.21
482.658	3.2
483.009	3.21
483.359	3.21
483.709	3.21
484.06	3.2
484.41	3.2
484.761	3.21
485.111	3.2
485.461	3.21
485.811	3.21
486.162	3.21
486.512	3.22
486.862	3.22
487.212	3.21
487.562	3.21
487.912	3.2
488.262	3.2
488.612	3.2
488.961	3.2
489.311	3.2
489.661	3.2
490.011	3.21
490.36	3.21
490.71	3.2
491.06	3.21
491.409	3.21
491.759	3.21
492.108	3.2
492.458	3.22
492.807	3.21
493.157	3.21
493.506	3.21
493.855	3.21
494.204	3.2
494.554	3.21
494.903	3.2
495.252	3.2
495.601	3.23
495.95	3.22
496.299	3.2
496.648	3.18
496.997	3.19
497.346	3.19
497.695	3.18
498.043	3.19
498.392	3.19
498.741	3.22
499.09	3.21
499.438	3.22
499.787	3.21
500.135	3.25
500.484	3.27
500.832	3.28
501.181	3.29
501.529	3.29
501.878	3.31
502.226	3.32
502.574	3.31
502.923	3.3
503.271	3.31
503.619	3.34
503.967	3.35
504.315	3.35
504.663	3.38
505.011	3.4
505.359	3.39
505.707	3.36
506.055	3.36
506.403	3.36
506.751	3.35
507.098	3.36
507.446	3.35
507.794	3.32
508.141	3.32
508.489	3.31
508.837	3.33
509.184	3.32
509.531	3.32
509.879	3.36
510.226	3.38
510.574	3.38
510.921	3.37
511.268	3.38
511.616	3.39
511.963	3.39
512.31	3.38
512.657	3.39
513.004	3.39
513.351	3.4
513.698	3.39
514.045	3.4
514.392	3.4
514.739	3.4
515.086	3.41
515.432	3.4
515.779	3.4
516.126	3.4
516.473	3.41
516.819	3.42
517.166	3.41
517.512	3.39
517.859	3.4
518.205	3.4
518.552	3.4
518.898	3.4
519.245	3.4
519.591	3.41
519.937	3.4
520.283	3.42
520.629	3.42
520.976	3.44
521.322	3.43
521.668	3.43
522.014	3.44
522.36	3.46
522.706	3.46
523.052	3.48
523.398	3.48
523.743	3.5
524.089	3.5
524.435	3.5
524.781	3.52
525.126	3.53
525.472	3.54
525.817	3.56
526.163	3.56
526.509	3.55
526.854	3.56
527.199	3.56
527.545	3.57
527.89	3.57
528.235	3.57
528.581	3.58
528.926	3.59
529.271	3.58
529.616	3.58
529.961	3.58
530.306	3.57
530.651	3.57
530.996	3.56
531.341	3.56
531.686	3.55
532.031	3.55
532.376	3.55
532.721	3.55
533.065	3.54
533.41	3.54
533.755	3.55
534.099	3.55
534.444	3.55
534.788	3.56
535.133	3.56
535.477	3.56
535.822	3.56
536.166	3.55
536.51	3.56
536.855	3.58
537.199	3.59
537.543	3.59
537.887	3.6
538.231	3.58
538.576	3.58
538.92	3.59
539.264	3.58
539.608	3.58
539.951	3.58
540.295	3.58
540.639	3.59
540.983	3.58
541.327	3.59
541.671	3.59
542.014	3.59
542.358	3.59
542.701	3.59
543.045	3.6
543.389	3.61
543.732	3.62
544.075	3.61
544.419	3.6
544.762	3.59
545.105	3.6
545.449	3.63
545.792	3.62
546.135	3.64
546.478	3.64
546.821	3.64
547.165	3.64
547.508	3.65
547.851	3.64
548.194	3.64
548.536	3.63
548.879	3.64
549.222	3.64
549.565	3.63
549.908	3.61
550.25	3.61
550.593	3.59
550.936	3.58
551.278	3.58
551.621	3.6
551.963	3.61
552.306	3.6
552.648	3.59
552.991	3.64
553.333	3.62
553.675	3.63
554.017	3.64
554.36	3.65
554.702	3.63
555.044	3.62
555.386	3.62
555.728	3.62
556.07	3.61
556.412	3.59
556.754	3.58
557.096	3.6
557.438	3.61
557.78	3.64
558.121	3.63
558.463	3.66
558.805	3.63
559.147	3.66
559.488	3.66
559.83	3.68
560.171	3.62
560.513	3.63
560.854	3.61
561.196	3.61
561.537	3.61
561.878	3.62
562.22	3.6
562.561	3.6
562.902	3.6
563.243	3.63
563.584	3.63
563.925	3.65
564.266	3.64
564.607	3.61
564.948	3.61
565.289	3.62
565.63	3.59
565.971	3.58
566.312	3.57
566.653	3.56
566.993	3.56
567.334	3.56
567.675	3.56
568.015	3.55
568.356	3.56
568.696	3.55
569.037	3.56
569.377	3.57
569.718	3.61
570.058	3.62
570.398	3.58
570.739	3.6
571.079	3.62
571.419	3.61
571.759	3.64
572.099	3.64
572.439	3.65
572.779	3.64
573.119	3.66
573.459	3.69
573.799	3.7
574.139	3.7
574.479	3.7
574.819	3.67
575.158	3.7
575.498	3.69
575.838	3.71
576.177	3.71
576.517	3.7
576.856	3.7
577.196	3.7
577.535	3.71
577.875	3.73
578.214	3.71
578.553	3.76
578.893	3.72
579.232	3.71
579.571	3.71
579.91	3.7
580.25	3.68
580.589	3.64
580.928	3.65
581.267	3.67
581.606	3.68
581.945	3.76
582.283	3.75
582.622	3.75
582.961	3.77
583.3	3.77
583.639	3.81
583.977	3.82
584.316	3.83
584.654	3.82
584.993	3.78
585.332	3.79
585.67	3.74
586.008	3.76
586.347	3.77
586.685	3.74
587.024	3.74
587.362	3.75
587.7	3.74
588.038	3.77
588.376	3.73
588.715	3.72
589.053	3.69
589.391	3.72
589.729	3.75
590.067	3.72
590.404	3.74
590.742	3.7
591.08	3.66
591.418	3.64
591.756	3.67
592.093	3.71
592.431	3.7
592.769	3.73
593.106	3.71
593.444	3.7
593.781	3.74
594.119	3.76
594.456	3.76
594.793	3.77
595.131	3.74
595.468	3.74
595.805	3.78
596.143	3.78
596.48	3.77
596.817	3.75
597.154	3.76
597.491	3.74
597.828	3.75
598.165	3.77
598.502	3.75
598.839	3.74
599.176	3.76
599.512	3.78
599.849	3.79
600.186	3.81
600.523	3.84
600.859	3.82
601.196	3.84
601.532	3.84
601.869	3.82
602.205	3.78
602.542	3.82
602.878	3.79
603.215	3.79
603.551	3.78
603.887	3.76
604.223	3.76
604.56	3.77
604.896	3.77
605.232	3.78
605.568	3.8
605.904	3.79
606.24	3.77
606.576	3.73
606.912	3.74
607.248	3.72
607.583	3.75
607.919	3.74
608.255	3.72
608.591	3.76
608.926	3.78
609.262	3.83
609.597	3.81
609.933	3.82
610.268	3.82
610.604	3.84
610.939	3.85
611.275	3.89
611.61	3.9
611.945	3.89
612.281	3.89
612.616	3.92
612.951	3.92
613.286	3.93
613.621	4
613.956	3.92
614.291	3.95
614.626	3.91
614.961	3.95
615.296	3.94
615.631	3.92
615.966	3.88
616.3	3.92
616.635	3.92
616.97	3.94
617.304	3.93
617.639	3.93
617.973	3.89
618.308	3.85
618.642	3.83
618.977	3.79
619.311	3.79
619.646	3.78
619.98	3.8
620.314	3.81
620.648	3.78
620.983	3.85
621.317	3.82
621.651	3.83
621.985	3.81
622.319	3.81
622.653	3.79
622.987	3.83
623.321	3.77
623.655	3.75
623.988	3.8
624.322	3.77
624.656	3.84
624.99	3.87
625.323	3.87
625.657	3.87
625.99	3.89
626.324	3.92
626.657	3.9
626.991	3.89
627.324	3.91
627.658	3.91
627.991	3.92
628.324	3.91
628.657	3.9
628.991	3.91
629.324	3.95
629.657	3.99
629.99	4
630.323	4.02
630.656	4.04
630.989	4.02
631.322	4.05
631.655	4
631.987	4.02
632.32	4.03
632.653	4
632.986	4.04
633.318	4
633.651	4.07
633.984	4.06
634.316	3.98
634.649	3.97
634.981	3.95
635.313	4.05
635.646	4.07
635.978	4.09
636.31	4.03
636.643	3.96
636.975	3.97
637.307	3.95
637.639	3.9
637.971	3.89
638.303	3.91
638.635	3.86
638.967	3.86
639.299	3.89
639.631	3.9
639.963	3.84
640.295	3.83
640.626	3.79
640.958	3.86
641.29	3.92
641.621	3.94
641.953	3.95
642.285	3.9
642.616	3.93
642.948	3.89
643.279	3.94
643.61	4.02
643.942	4.05
644.273	4.08
644.604	4.1
644.936	4.08
645.267	4.05
645.598	4.13
645.929	4.13
646.26	4.16
646.591	4.17
646.922	4.18
647.253	4.27
647.584	4.27
647.915	4.18
648.245	4.21
648.576	4.2
648.907	4.2
649.238	4.14
649.568	4.14
649.899	4.12
650.229	4.13
650.56	4.04
650.89	4
651.221	4.1
651.551	4.12
651.882	4.16
652.212	4.15
652.542	4.1
652.872	4.02
653.203	3.97
653.533	4.04
653.863	4.1
654.193	4.02
654.523	4.03
654.853	4.1
655.183	4.1
655.513	4.12
655.843	4.11
656.172	4.12
656.502	4.15
656.832	4.19
657.162	4.19
657.491	4.25
657.821	4.21
658.15	4.14
658.48	4.16
658.809	4.15
659.139	4.17
659.468	4.16
659.798	4.23
660.127	4.23
660.456	4.24
660.785	4.22
661.115	4.28
661.444	4.25
661.773	4.28
662.102	4.26
662.431	4.22
662.76	4.28
663.089	4.24
663.418	4.23
663.747	4.16
664.076	4.16
664.404	4.2
664.733	4.26
665.062	4.29
665.39	4.27
665.719	4.19
666.048	4.17
666.376	4.19
666.705	4.17
667.033	4.17
667.362	4.23
667.69	4.23
668.018	4.24
668.347	4.28
668.675	4.25
669.003	4.33
669.331	4.37
669.659	4.34
669.987	4.4
670.315	4.45
670.643	4.51
670.971	4.42
671.299	4.37
671.627	4.39
671.955	4.34
672.283	4.32
672.61	4.4
672.938	4.43
673.266	4.52
673.593	4.62
673.921	4.58
674.249	4.48
674.576	4.42
674.904	4.43
675.231	4.41
675.558	4.36
675.886	4.29
676.213	4.29
676.54	4.31
676.867	4.35
677.195	4.32
677.522	4.29
677.849	4.4
678.176	4.41
