Data from BA28306_Reflection_00009.txt Node
Date: Mon Nov 18 15:53:49 EST 2019
User: vgr7
Spectrometer: USB2G7710
Scans to average: 3
Trigger mode: 4
Integration Time (sec): 2.000000E-2
Electric dark correction enabled: true
Boxcar width: 10
XAxis mode: Wavelengths
Number of Pixels in Spectrum: 2048
>>>>>Begin Spectral Data<<<<<
177.721	1837.86
178.105	55.41
178.488	111.46
178.871	19.81
179.254	23.08
179.636	630.61
180.019	-351.67
180.402	204.55
180.785	-37.28
181.168	-82.23
181.55	-8.67
181.933	152.71
182.316	152.15
182.698	202.91
183.081	285.06
183.463	563.41
183.846	1262.44
184.228	-1496.69
184.611	-2152.17
184.993	-311.56
185.376	-73.96
185.758	-137.16
186.14	-135.89
186.522	-85.76
186.904	-57.79
187.287	-67.44
187.669	59.8
188.051	88.04
188.433	9.54
188.815	59.2
189.197	75.93
189.579	56.18
189.961	66.69
190.342	35.19
190.724	51.39
191.106	49.07
191.488	21.78
191.869	59.57
192.251	42.19
192.633	54.44
193.014	63.89
193.396	34.86
193.777	42.41
194.159	20.37
194.54	46.39
194.922	23.99
195.303	8.94
195.684	-42.13
196.065	-29.45
196.447	-23.79
196.828	-70.94
197.209	-83.51
197.59	-78.29
197.971	-80.49
198.352	20.48
198.733	0.27
199.114	23.91
199.495	29.5
199.876	29.41
200.257	59.6
200.638	46.64
201.018	34.63
201.399	15.5
201.78	13.09
202.16	16.48
202.541	-18.5
202.922	-23.41
203.302	-30.07
203.683	7.93
204.063	-49.61
204.444	-29.81
204.824	-23.82
205.204	-31.03
205.585	-28.41
205.965	-19.18
206.345	-71.24
206.725	-68.66
207.106	-126.25
207.486	-195.09
207.866	-203.81
208.246	-161.59
208.626	-180.44
209.006	-118.84
209.386	-138.31
209.766	-126.92
210.145	-109.72
210.525	-73.52
210.905	-74.02
211.285	-35.19
211.664	-19.71
212.044	-12.44
212.424	-2.09
212.803	5.68
213.183	19.39
213.562	18.14
213.942	20.95
214.321	29.72
214.701	44.91
215.08	53.2
215.459	53.55
215.838	55.55
216.218	50.31
216.597	67.39
216.976	66.04
217.355	55.95
217.734	50.11
218.113	54.86
218.492	62.3
218.871	41.81
219.25	31.45
219.629	17.37
220.008	24.99
220.387	6.68
220.766	5.02
221.144	-11.94
221.523	-24.16
221.902	-31.2
222.28	-42.37
222.659	-40.89
223.037	-31.16
223.416	-52.09
223.794	-52.8
224.173	-47.48
224.551	-40.5
224.929	-45.79
225.308	-32
225.686	-21.01
226.064	-17.91
226.442	-14.34
226.821	-3.05
227.199	-2.51
227.577	0.12
227.955	-2.61
228.333	2.96
228.711	5.53
229.089	9.53
229.467	10.67
229.845	10.86
230.222	9.33
230.6	8.41
230.978	6.71
231.356	10.35
231.733	9.71
232.111	10.31
232.488	9.08
232.866	10.27
233.243	9.7
233.621	9.47
233.998	10.94
234.376	10.72
234.753	9.1
235.13	10.22
235.508	10.07
235.885	9.91
236.262	8.16
236.639	7.71
237.016	6.35
237.393	7.11
237.77	7.38
238.147	7.64
238.524	8.35
238.901	8.3
239.278	7.99
239.655	8.35
240.032	7.9
240.409	7.62
240.785	7.28
241.162	6.85
241.539	7.08
241.915	6.61
242.292	6.19
242.668	6.37
243.045	6.04
243.421	5.47
243.798	5.31
244.174	5.62
244.551	5.55
244.927	5.67
245.303	5.56
245.679	5.66
246.056	5.64
246.432	5.59
246.808	5.52
247.184	5.34
247.56	4.91
247.936	4.99
248.312	5.13
248.688	5.15
249.064	4.99
249.44	4.77
249.815	4.75
250.191	4.85
250.567	4.84
250.943	4.88
251.318	4.97
251.694	5.14
252.069	4.97
252.445	5.14
252.82	5.14
253.196	5.42
253.571	5.29
253.947	5.59
254.322	5.47
254.697	5.47
255.073	5.48
255.448	5.63
255.823	5.18
256.198	5.27
256.573	5.04
256.948	5.35
257.323	5.7
257.698	5.9
258.073	5.87
258.448	5.78
258.823	5.77
259.198	5.73
259.573	5.71
259.948	5.67
260.322	5.56
260.697	5.44
261.072	5.27
261.446	5.24
261.821	4.93
262.195	5.08
262.57	5.04
262.944	4.93
263.319	4.95
263.693	5.14
264.067	5.15
264.442	5.39
264.816	5.16
265.19	4.95
265.564	4.79
265.938	4.65
266.313	4.57
266.687	4.47
267.061	4.65
267.435	4.62
267.809	4.71
268.183	4.76
268.556	4.67
268.93	4.69
269.304	4.64
269.678	4.77
270.051	4.67
270.425	4.6
270.799	4.71
271.172	4.74
271.546	4.67
271.919	4.55
272.293	4.53
272.666	4.56
273.04	4.62
273.413	4.6
273.787	4.64
274.16	4.77
274.533	4.75
274.906	4.59
275.279	4.63
275.653	4.62
276.026	4.54
276.399	4.79
276.772	4.9
277.145	4.84
277.518	4.88
277.891	4.91
278.263	4.93
278.636	4.94
279.009	5.01
279.382	5.17
279.755	5.1
280.127	5.19
280.5	5.26
280.872	5.18
281.245	5.15
281.617	5.15
281.99	5.07
282.362	5.08
282.735	4.95
283.107	4.89
283.479	4.85
283.852	4.77
284.224	4.7
284.596	4.72
284.968	4.72
285.34	4.79
285.713	4.74
286.085	4.85
286.457	4.83
286.829	4.85
287.201	4.84
287.572	4.92
287.944	4.84
288.316	4.78
288.688	4.88
289.06	4.81
289.431	4.81
289.803	4.87
290.175	4.92
290.546	5.25
290.918	5.32
291.289	5.27
291.661	5.42
292.032	5.36
292.403	5.33
292.775	5.3
293.146	5.28
293.517	5.3
293.889	5.32
294.26	5.38
294.631	5.4
295.002	5.29
295.373	5.31
295.744	5.35
296.115	5.31
296.486	5.23
296.857	5.36
297.228	5.47
297.599	5.52
297.97	5.63
298.34	5.63
298.711	5.7
299.082	5.68
299.452	5.71
299.823	5.94
300.194	6.02
300.564	6.09
300.935	6.23
301.305	6.4
301.676	6.43
302.046	6.51
302.416	6.67
302.787	6.72
303.157	6.78
303.527	6.89
303.897	7.18
304.267	7.34
304.637	7.36
305.008	7.47
305.378	7.6
305.748	7.59
306.117	7.59
306.487	7.62
306.857	7.84
307.227	7.79
307.597	7.84
307.967	7.93
308.336	8.01
308.706	8
309.076	7.89
309.445	7.84
309.815	7.84
310.184	7.81
310.554	7.98
310.923	8.04
311.293	8.06
311.662	8.08
312.031	8.06
312.401	8.06
312.77	8.08
313.139	8.07
313.508	8.14
313.877	8.13
314.246	8.09
314.616	8.02
314.985	8.12
315.353	8.05
315.722	8.1
316.091	8.24
316.46	8.34
316.829	8.55
317.198	8.89
317.567	8.95
317.935	9.01
318.304	9.02
318.672	8.99
319.041	9.09
319.41	8.83
319.778	8.98
320.147	9.14
320.515	9.17
320.883	9.15
321.252	9.28
321.62	9.41
321.988	9.5
322.357	9.52
322.725	9.63
323.093	9.76
323.461	9.71
323.829	9.85
324.197	9.9
324.565	9.89
324.933	9.75
325.301	9.8
325.669	9.85
326.037	9.85
326.405	10.07
326.772	10.14
327.14	10.44
327.508	10.31
327.875	10.24
328.243	10.29
328.61	10.23
328.978	10.29
329.346	10.37
329.713	10.41
330.08	10.52
330.448	10.4
330.815	10.28
331.182	10.29
331.55	10.27
331.917	10.31
332.284	10.35
332.651	10.4
333.018	10.5
333.385	10.38
333.752	10.63
334.119	10.49
334.486	10.5
334.853	10.5
335.22	10.61
335.587	10.73
335.954	10.67
336.32	10.81
336.687	10.73
337.054	10.56
337.42	10.54
337.787	10.67
338.153	10.8
338.52	10.97
338.886	10.95
339.253	10.84
339.619	10.72
339.986	10.7
340.352	10.73
340.718	10.72
341.084	10.82
341.451	10.87
341.817	10.96
342.183	10.91
342.549	10.89
342.915	10.98
343.281	10.92
343.647	10.94
344.013	10.99
344.379	10.89
344.745	11.01
345.11	11.09
345.476	11.06
345.842	11.01
346.208	10.93
346.573	11.06
346.939	11.16
347.304	11.22
347.67	11.14
348.035	11.11
348.401	11.09
348.766	11.04
349.132	10.88
349.497	10.88
349.862	10.93
350.228	10.94
350.593	10.89
350.958	10.89
351.323	10.92
351.688	10.91
352.053	11.11
352.418	11.12
352.783	11.11
353.148	11.08
353.513	10.98
353.878	10.98
354.243	10.92
354.608	10.86
354.972	10.84
355.337	10.92
355.702	10.95
356.066	10.99
356.431	10.96
356.795	11.01
357.16	10.92
357.524	10.79
357.889	10.73
358.253	10.72
358.618	10.72
358.982	10.66
359.346	10.52
359.71	10.34
360.075	10.29
360.439	10.25
360.803	10.23
361.167	10.28
361.531	10.24
361.895	10.21
362.259	10.19
362.623	10.14
362.987	10.12
363.351	10.1
363.714	9.98
364.078	9.96
364.442	9.84
364.806	9.78
365.169	9.76
365.533	9.78
365.896	9.64
366.26	9.62
366.623	9.58
366.987	9.59
367.35	9.69
367.714	9.65
368.077	9.6
368.44	9.56
368.803	9.49
369.167	9.39
369.53	9.3
369.893	9.34
370.256	9.33
370.619	9.31
370.982	9.19
371.345	9.14
371.708	9.1
372.071	9.08
372.434	9.06
372.797	9.03
373.159	8.95
373.522	9
373.885	9.02
374.247	8.98
374.61	8.92
374.973	8.83
375.335	8.76
375.698	8.71
376.06	8.68
376.423	8.63
376.785	8.64
377.147	8.67
377.51	8.53
377.872	8.52
378.234	8.41
378.596	8.4
378.958	8.35
379.321	8.32
379.683	8.25
380.045	8.18
380.407	8.15
380.769	8.1
381.13	8.02
381.492	7.87
381.854	7.86
382.216	7.8
382.578	7.72
382.939	7.68
383.301	7.57
383.663	7.5
384.024	7.48
384.386	7.46
384.747	7.42
385.109	7.38
385.47	7.3
385.832	7.29
386.193	7.25
386.554	7.2
386.916	7.14
387.277	7.1
387.638	7.11
387.999	7.07
388.36	7.03
388.721	7.02
389.082	7.01
389.443	6.92
389.804	6.91
390.165	6.88
390.526	6.84
390.887	6.81
391.248	6.77
391.609	6.77
391.969	6.71
392.33	6.66
392.691	6.65
393.051	6.59
393.412	6.51
393.772	6.49
394.133	6.49
394.493	6.48
394.854	6.45
395.214	6.4
395.574	6.36
395.935	6.32
396.295	6.32
396.655	6.28
397.015	6.25
397.376	6.19
397.736	6.14
398.096	6.11
398.456	6.07
398.816	6.04
399.176	5.97
399.535	5.92
399.895	5.88
400.255	5.84
400.615	5.84
400.975	5.84
401.334	5.77
401.694	5.75
402.054	5.68
402.413	5.68
402.773	5.64
403.132	5.59
403.492	5.57
403.851	5.52
404.211	5.5
404.57	5.48
404.929	5.48
405.288	5.48
405.648	5.44
406.007	5.44
406.366	5.42
406.725	5.41
407.084	5.38
407.443	5.39
407.802	5.39
408.161	5.34
408.52	5.29
408.879	5.29
409.238	5.28
409.596	5.27
409.955	5.24
410.314	5.24
410.673	5.24
411.031	5.23
411.39	5.18
411.748	5.18
412.107	5.16
412.465	5.15
412.824	5.13
413.182	5.11
413.54	5.11
413.899	5.1
414.257	5.09
414.615	5.07
414.974	5.07
415.332	5.02
415.69	5
416.048	5
416.406	5
416.764	4.97
417.122	4.96
417.48	4.93
417.838	4.92
418.195	4.9
418.553	4.87
418.911	4.85
419.269	4.82
419.626	4.81
419.984	4.78
420.342	4.75
420.699	4.75
421.057	4.75
421.414	4.73
421.772	4.72
422.129	4.71
422.486	4.68
422.844	4.69
423.201	4.68
423.558	4.68
423.915	4.67
424.273	4.66
424.63	4.66
424.987	4.66
425.344	4.64
425.701	4.63
426.058	4.62
426.415	4.61
426.772	4.61
427.128	4.59
427.485	4.6
427.842	4.58
428.199	4.57
428.555	4.54
428.912	4.54
429.269	4.53
429.625	4.52
429.982	4.51
430.338	4.5
430.695	4.51
431.051	4.5
431.407	4.49
431.764	4.48
432.12	4.45
432.476	4.47
432.832	4.46
433.189	4.46
433.545	4.48
433.901	4.48
434.257	4.46
434.613	4.47
434.969	4.45
435.325	4.46
435.681	4.47
436.036	4.48
436.392	4.48
436.748	4.47
437.104	4.47
437.459	4.48
437.815	4.46
438.171	4.45
438.526	4.44
438.882	4.44
439.237	4.44
439.593	4.45
439.948	4.42
440.304	4.42
440.659	4.42
441.014	4.41
441.369	4.39
441.725	4.39
442.08	4.37
442.435	4.37
442.79	4.36
443.145	4.35
443.5	4.34
443.855	4.32
444.21	4.32
444.565	4.33
444.92	4.32
445.275	4.31
445.629	4.3
445.984	4.31
446.339	4.3
446.693	4.28
447.048	4.27
447.403	4.28
447.757	4.27
448.112	4.27
448.466	4.25
448.82	4.26
449.175	4.27
449.529	4.26
449.883	4.25
450.238	4.25
450.592	4.25
450.946	4.23
451.3	4.23
451.654	4.22
452.008	4.19
452.362	4.17
452.716	4.17
453.07	4.18
453.424	4.16
453.778	4.17
454.132	4.17
454.486	4.17
454.839	4.16
455.193	4.17
455.547	4.16
455.9	4.16
456.254	4.17
456.607	4.18
456.961	4.17
457.314	4.18
457.668	4.19
458.021	4.18
458.375	4.21
458.728	4.22
459.081	4.21
459.434	4.21
459.787	4.22
460.141	4.21
460.494	4.21
460.847	4.22
461.2	4.22
461.553	4.23
461.906	4.25
462.259	4.26
462.611	4.26
462.964	4.27
463.317	4.29
463.67	4.29
464.022	4.29
464.375	4.3
464.728	4.33
465.08	4.34
465.433	4.34
465.785	4.34
466.138	4.35
466.49	4.37
466.843	4.4
467.195	4.39
467.547	4.42
467.899	4.4
468.252	4.4
468.604	4.42
468.956	4.42
469.308	4.42
469.66	4.39
470.012	4.41
470.364	4.41
470.716	4.42
471.068	4.43
471.42	4.42
471.772	4.45
472.123	4.43
472.475	4.43
472.827	4.42
473.178	4.44
473.53	4.45
473.882	4.44
474.233	4.44
474.585	4.44
474.936	4.42
475.288	4.44
475.639	4.44
475.99	4.42
476.342	4.41
476.693	4.4
477.044	4.44
477.395	4.44
477.746	4.44
478.097	4.43
478.448	4.4
478.8	4.39
479.15	4.38
479.501	4.39
479.852	4.37
480.203	4.4
480.554	4.4
480.905	4.41
481.255	4.41
481.606	4.42
481.957	4.43
482.307	4.44
482.658	4.44
483.009	4.43
483.359	4.43
483.709	4.44
484.06	4.45
484.41	4.44
484.761	4.44
485.111	4.44
485.461	4.45
485.811	4.46
486.162	4.46
486.512	4.46
486.862	4.47
487.212	4.47
487.562	4.47
487.912	4.46
488.262	4.46
488.612	4.48
488.961	4.47
489.311	4.48
489.661	4.49
490.011	4.49
490.36	4.5
490.71	4.52
491.06	4.52
491.409	4.53
491.759	4.54
492.108	4.54
492.458	4.56
492.807	4.55
493.157	4.58
493.506	4.6
493.855	4.63
494.204	4.64
494.554	4.66
494.903	4.66
495.252	4.69
495.601	4.71
495.95	4.73
496.299	4.74
496.648	4.75
496.997	4.76
497.346	4.8
497.695	4.86
498.043	4.89
498.392	4.91
498.741	4.96
499.09	4.97
499.438	5.03
499.787	5.06
500.135	5.14
500.484	5.17
500.832	5.24
501.181	5.27
501.529	5.32
501.878	5.38
502.226	5.45
502.574	5.5
502.923	5.54
503.271	5.57
503.619	5.65
503.967	5.7
504.315	5.75
504.663	5.79
505.011	5.83
505.359	5.88
505.707	5.93
506.055	5.98
506.403	6.08
506.751	6.1
507.098	6.18
507.446	6.22
507.794	6.29
508.141	6.35
508.489	6.41
508.837	6.48
509.184	6.53
509.531	6.61
509.879	6.66
510.226	6.75
510.574	6.82
510.921	6.87
511.268	6.94
511.616	7.03
511.963	7.11
512.31	7.19
512.657	7.26
513.004	7.36
513.351	7.44
513.698	7.51
514.045	7.61
514.392	7.69
514.739	7.77
515.086	7.85
515.432	7.94
515.779	8.03
516.126	8.13
516.473	8.23
516.819	8.32
517.166	8.42
517.512	8.48
517.859	8.56
518.205	8.63
518.552	8.71
518.898	8.78
519.245	8.88
519.591	8.96
519.937	9.02
520.283	9.11
520.629	9.22
520.976	9.31
521.322	9.42
521.668	9.51
522.014	9.64
522.36	9.77
522.706	9.9
523.052	10.02
523.398	10.18
523.743	10.33
524.089	10.48
524.435	10.6
524.781	10.74
525.126	10.91
525.472	11.05
525.817	11.17
526.163	11.28
526.509	11.37
526.854	11.45
527.199	11.57
527.545	11.66
527.89	11.75
528.235	11.85
528.581	11.95
528.926	12.07
529.271	12.19
529.616	12.28
529.961	12.38
530.306	12.52
530.651	12.63
530.996	12.75
531.341	12.88
531.686	13.03
532.031	13.19
532.376	13.31
532.721	13.48
533.065	13.63
533.41	13.81
533.755	14
534.099	14.19
534.444	14.36
534.788	14.54
535.133	14.74
535.477	14.92
535.822	15.14
536.166	15.35
536.51	15.55
536.855	15.81
537.199	16.07
537.543	16.32
537.887	16.58
538.231	16.87
538.576	17.15
538.92	17.42
539.264	17.65
539.608	17.91
539.951	18.16
540.295	18.39
540.639	18.62
540.983	18.83
541.327	19.03
541.671	19.25
542.014	19.49
542.358	19.72
542.701	19.93
543.045	20.15
543.389	20.38
543.732	20.63
544.075	20.86
544.419	21.11
544.762	21.35
545.105	21.61
545.449	21.87
545.792	22.16
546.135	22.46
546.478	22.8
546.821	23.1
547.165	23.41
547.508	23.77
547.851	24.08
548.194	24.44
548.536	24.83
548.879	25.2
549.222	25.54
549.565	25.9
549.908	26.29
550.25	26.66
550.593	26.97
550.936	27.36
551.278	27.72
551.621	28.13
551.963	28.54
552.306	28.93
552.648	29.27
552.991	29.61
553.333	29.96
553.675	30.33
554.017	30.73
554.36	31.04
554.702	31.36
555.044	31.73
555.386	32.12
555.728	32.43
556.07	32.81
556.412	33.14
556.754	33.45
557.096	33.81
557.438	34.16
557.78	34.6
558.121	34.93
558.463	35.34
558.805	35.62
559.147	35.98
559.488	36.34
559.83	36.73
560.171	37.1
560.513	37.46
560.854	37.77
561.196	38.09
561.537	38.42
561.878	38.77
562.22	39.1
562.561	39.45
562.902	39.82
563.243	40.11
563.584	40.42
563.925	40.71
564.266	40.99
564.607	41.27
564.948	41.53
565.289	41.84
565.63	42.05
565.971	42.33
566.312	42.55
566.653	42.82
566.993	43.04
567.334	43.26
567.675	43.51
568.015	43.8
568.356	44.07
568.696	44.34
569.037	44.52
569.377	44.74
569.718	44.93
570.058	45.13
570.398	45.38
570.739	45.59
571.079	45.88
571.419	46.08
571.759	46.29
572.099	46.45
572.439	46.69
572.779	46.92
573.119	47.1
573.459	47.29
573.799	47.4
574.139	47.62
574.479	47.84
574.819	48.03
575.158	48.13
575.498	48.32
575.838	48.51
576.177	48.73
576.517	48.98
576.856	49.13
577.196	49.36
577.535	49.54
577.875	49.8
578.214	49.98
578.553	50.21
578.893	50.37
579.232	50.61
579.571	50.74
579.91	50.85
580.25	51.03
580.589	51.23
580.928	51.46
581.267	51.63
581.606	51.81
581.945	51.93
582.283	52.11
582.622	52.28
582.961	52.44
583.3	52.64
583.639	52.82
583.977	53
584.316	53.05
584.654	53.17
584.993	53.24
585.332	53.35
585.67	53.43
586.008	53.57
586.347	53.68
586.685	53.82
587.024	54.03
587.362	54.21
587.7	54.3
588.038	54.42
588.376	54.56
588.715	54.58
589.053	54.72
589.391	54.91
589.729	54.98
590.067	55.07
590.404	55.16
590.742	55.19
591.08	55.29
591.418	55.44
591.756	55.54
592.093	55.73
592.431	55.91
592.769	56.06
593.106	56.19
593.444	56.3
593.781	56.39
594.119	56.48
594.456	56.43
594.793	56.58
595.131	56.64
595.468	56.75
595.805	56.87
596.143	56.96
596.48	57.06
596.817	57.09
597.154	57.16
597.491	57.22
597.828	57.25
598.165	57.26
598.502	57.33
598.839	57.41
599.176	57.49
599.512	57.5
599.849	57.6
600.186	57.67
600.523	57.89
600.859	57.98
601.196	58.06
601.532	58.28
601.869	58.35
602.205	58.43
602.542	58.44
602.878	58.44
603.215	58.5
603.551	58.49
603.887	58.61
604.223	58.64
604.56	58.7
604.896	58.8
605.232	58.9
605.568	58.94
605.904	59.05
606.24	59.06
606.576	59.09
606.912	59.11
607.248	59.27
607.583	59.23
607.919	59.26
608.255	59.29
608.591	59.32
608.926	59.36
609.262	59.43
609.597	59.47
609.933	59.68
610.268	59.72
610.604	59.82
610.939	59.86
611.275	59.92
611.61	59.99
611.945	60.08
612.281	60.13
612.616	60.29
612.951	60.33
613.286	60.37
613.621	60.54
613.956	60.64
614.291	60.58
614.626	60.7
614.961	60.81
615.296	60.88
615.631	60.96
615.966	61.05
616.3	61.08
616.635	61.18
616.97	61.1
617.304	61.15
617.639	61.22
617.973	61.33
618.308	61.34
618.642	61.4
618.977	61.42
619.311	61.46
619.646	61.47
619.98	61.5
620.314	61.57
620.648	61.53
620.983	61.5
621.317	61.52
621.651	61.51
621.985	61.49
622.319	61.49
622.653	61.54
622.987	61.56
623.321	61.66
623.655	61.79
623.988	61.81
624.322	61.88
624.656	61.87
624.99	61.83
625.323	61.96
625.657	61.93
625.99	61.89
626.324	61.89
626.657	61.9
626.991	61.9
627.324	61.9
627.658	61.93
627.991	62.11
628.324	62.13
628.657	62.07
628.991	62.14
629.324	62.25
629.657	62.2
629.99	62.21
630.323	62.19
630.656	62.1
630.989	62.14
631.322	62.15
631.655	62.13
631.987	62.18
632.32	62.13
632.653	62.24
632.986	62.34
633.318	62.46
633.651	62.47
633.984	62.5
634.316	62.61
634.649	62.62
634.981	62.52
635.313	62.47
635.646	62.51
635.978	62.51
636.31	62.48
636.643	62.57
636.975	62.6
637.307	62.66
637.639	62.74
637.971	62.79
638.303	62.88
638.635	62.94
638.967	62.86
639.299	62.88
639.631	62.82
639.963	62.87
640.295	62.8
640.626	62.85
640.958	62.93
641.29	62.82
641.621	62.84
641.953	62.94
642.285	63.09
642.616	63.12
642.948	63.16
643.279	63.24
643.61	63.32
643.942	63.29
644.273	63.2
644.604	63.28
644.936	63.24
645.267	63.2
645.598	63.28
645.929	63.36
646.26	63.44
646.591	63.47
646.922	63.53
647.253	63.57
647.584	63.55
647.915	63.5
648.245	63.43
648.576	63.49
648.907	63.44
649.238	63.49
649.568	63.6
649.899	63.68
650.229	63.75
650.56	63.89
650.89	63.95
651.221	64.05
651.551	63.92
651.882	64.02
652.212	63.97
652.542	63.93
652.872	63.94
653.203	63.92
653.533	63.94
653.863	63.88
654.193	63.87
654.523	63.9
654.853	63.86
655.183	64.02
655.513	64.04
655.843	64.16
656.172	64.23
656.502	64.23
656.832	64.19
657.162	64.19
657.491	63.97
657.821	64.02
658.15	63.91
658.48	63.88
658.809	63.79
659.139	63.83
659.468	63.87
659.798	63.95
660.127	63.96
660.456	63.92
660.785	63.85
661.115	63.91
661.444	63.89
661.773	64.07
662.102	64.1
662.431	64.09
662.76	64.04
663.089	63.9
663.418	63.88
663.747	63.87
664.076	63.81
664.404	63.95
664.733	63.97
665.062	64.14
665.39	64.29
665.719	64.4
