Data from BA28300_Reflection_00003.txt Node
Date: Mon Nov 18 15:58:03 EST 2019
User: vgr7
Spectrometer: USB2G7710
Scans to average: 3
Trigger mode: 4
Integration Time (sec): 2.000000E-2
Electric dark correction enabled: true
Boxcar width: 10
XAxis mode: Wavelengths
Number of Pixels in Spectrum: 2048
>>>>>Begin Spectral Data<<<<<
177.721	-142.82
178.105	-1135.29
178.488	274.29
178.871	84.77
179.254	151.9
179.636	107.73
180.019	37.43
180.402	5.56
180.785	-153.78
181.168	29.18
181.55	-12.78
181.933	114.33
182.316	135.96
182.698	134.01
183.081	149.29
183.463	196.46
183.846	228.54
184.228	200.82
184.611	216.78
184.993	-2223.94
185.376	-9252.94
185.758	398.89
186.14	463.32
186.522	330.77
186.904	229.36
187.287	598.07
187.669	-68.44
188.051	-1049.53
188.433	2937.84
188.815	-124.7
189.197	-45.42
189.579	-51.08
189.961	-218.33
190.342	-124.67
190.724	-32.02
191.106	-0.16
191.488	47.08
191.869	126.93
192.251	141.78
192.633	-10.37
193.014	38.78
193.396	-25.9
193.777	-81.49
194.159	185.71
194.54	-2900
194.922	282.32
195.303	-135.96
195.684	-702.82
196.065	40.75
196.447	136.34
196.828	71.06
197.209	32.94
197.59	73.61
197.971	93.41
198.352	-15.86
198.733	7.33
199.114	-41.97
199.495	-83.67
199.876	-42.68
200.257	-65.6
200.638	-45.5
201.018	-11.01
201.399	-27.17
201.78	-28.29
202.16	-28.8
202.541	-42.17
202.922	-72.49
203.302	-124.84
203.683	-240.76
204.063	-207.25
204.444	-227.86
204.824	-244.66
205.204	-285.99
205.585	-175.99
205.965	-151.12
206.345	-255.72
206.725	-415.29
207.106	-1488.24
207.486	-583
207.866	-3406.02
208.246	-523.13
208.626	-330.92
209.006	-194.46
209.386	-278.8
209.766	-265.12
210.145	-138.39
210.525	-103.62
210.905	-97.73
211.285	-108.02
211.664	-66.04
212.044	-61.66
212.424	-52.77
212.803	-57.2
213.183	-73.21
213.562	-67.94
213.942	-74.66
214.321	-41.11
214.701	-70.02
215.08	-60.32
215.459	-50.15
215.838	-24.39
216.218	-21.52
216.597	-22.72
216.976	-34.12
217.355	-27.47
217.734	-46.4
218.113	-67
218.492	-55.98
218.871	-58.29
219.25	-51.17
219.629	-49.53
220.008	-46.23
220.387	-45.04
220.766	-43.64
221.144	-34
221.523	-47.92
221.902	-50.45
222.28	-58.7
222.659	-57.57
223.037	-46.1
223.416	-43.63
223.794	-46.65
224.173	-48.86
224.551	-39.96
224.929	-40.57
225.308	-25.9
225.686	-23.79
226.064	-20.97
226.442	-19.75
226.821	-10.25
227.199	-9.8
227.577	-8.77
227.955	-13.41
228.333	-16.11
228.711	-13.69
229.089	-11.31
229.467	-13.39
229.845	-8.43
230.222	-4.78
230.6	-3.57
230.978	-6.4
231.356	-3.98
231.733	-3.16
232.111	-1.51
232.488	-4.26
232.866	-1.77
233.243	-4.03
233.621	-3.88
233.998	-3.43
234.376	-3.95
234.753	-6.5
235.13	-5.49
235.508	-5.17
235.885	-3.56
236.262	-2.22
236.639	-3.23
237.016	-2.81
237.393	0.33
237.77	0.98
238.147	0.77
238.524	0.52
238.901	1.5
239.278	0.95
239.655	1.38
240.032	1.93
240.409	2.2
240.785	2.41
241.162	2.31
241.539	2.14
241.915	2.78
242.292	2.53
242.668	2.8
243.045	3.12
243.421	2.9
243.798	2.78
244.174	2.82
244.551	2.95
244.927	2.67
245.303	2.66
245.679	2.45
246.056	2.12
246.432	2.25
246.808	2.36
247.184	2.2
247.56	2.02
247.936	1.97
248.312	2.02
248.688	1.92
249.064	1.82
249.44	2.24
249.815	2.07
250.191	2.36
250.567	2.41
250.943	2.02
251.318	2.07
251.694	2.37
252.069	2.22
252.445	2.2
252.82	2.23
253.196	2.09
253.571	2.05
253.947	2.55
254.322	2.98
254.697	2.38
255.073	2.34
255.448	2.27
255.823	2.11
256.198	2.48
256.573	2.53
256.948	2.67
257.323	2.7
257.698	2.61
258.073	2.51
258.448	2.54
258.823	2.77
259.198	2.71
259.573	2.49
259.948	2.61
260.322	2.68
260.697	2.65
261.072	2.82
261.446	2.82
261.821	2.75
262.195	2.73
262.57	2.95
262.944	3.02
263.319	3.13
263.693	3.12
264.067	3.06
264.442	3.25
264.816	3.3
265.19	3.12
265.564	3.31
265.938	3.49
266.313	3.41
266.687	3.26
267.061	3.49
267.435	3.53
267.809	3.57
268.183	3.58
268.556	3.6
268.93	3.53
269.304	3.61
269.678	3.74
270.051	3.76
270.425	3.73
270.799	3.87
271.172	3.82
271.546	3.87
271.919	3.7
272.293	3.46
272.666	3.39
273.04	3.43
273.413	3.32
273.787	3.21
274.16	3.34
274.533	3.43
274.906	3.32
275.279	3.46
275.653	3.45
276.026	3.42
276.399	3.59
276.772	3.62
277.145	3.58
277.518	3.45
277.891	3.27
278.263	3.14
278.636	3
279.009	3.03
279.382	3.02
279.755	3.04
280.127	3.21
280.5	3.34
280.872	3.38
281.245	3.34
281.617	3.54
281.99	3.51
282.362	3.54
282.735	3.46
283.107	3.43
283.479	3.4
283.852	3.34
284.224	3.23
284.596	3.12
284.968	3.15
285.34	3.21
285.713	3.26
286.085	3.43
286.457	3.58
286.829	3.63
287.201	3.78
287.572	3.68
287.944	3.65
288.316	3.65
288.688	3.51
289.06	3.54
289.431	3.47
289.803	3.61
290.175	3.61
290.546	3.74
290.918	3.86
291.289	3.85
291.661	4.01
292.032	4.07
292.403	4.14
292.775	4.16
293.146	4.08
293.517	4.13
293.889	4.05
294.26	3.9
294.631	3.93
295.002	3.86
295.373	3.99
295.744	3.9
296.115	3.84
296.486	3.85
296.857	3.96
297.228	3.95
297.599	3.82
297.97	3.78
298.34	3.74
298.711	3.64
299.082	3.64
299.452	3.6
299.823	3.72
300.194	3.69
300.564	3.62
300.935	3.75
301.305	3.57
301.676	3.62
302.046	3.71
302.416	3.64
302.787	3.62
303.157	3.61
303.527	3.78
303.897	3.84
304.267	3.92
304.637	3.81
305.008	3.89
305.378	3.88
305.748	3.9
306.117	3.82
306.487	3.95
306.857	4.16
307.227	4.15
307.597	3.92
307.967	3.92
308.336	3.95
308.706	3.82
309.076	3.94
309.445	3.92
309.815	3.92
310.184	3.93
310.554	3.92
310.923	3.91
311.293	3.73
311.662	3.8
312.031	3.74
312.401	3.74
312.77	3.79
313.139	3.8
313.508	3.98
313.877	4.04
314.246	3.91
314.616	3.67
314.985	3.76
315.353	3.85
315.722	4.01
316.091	4.09
316.46	3.9
316.829	3.93
317.198	4.03
317.567	4.09
317.935	4.07
318.304	4.01
318.672	3.91
319.041	4.14
319.41	3.97
319.778	4.11
320.147	4.09
320.515	3.96
320.883	4.01
321.252	3.85
321.62	3.87
321.988	3.85
322.357	3.96
322.725	3.91
323.093	3.86
323.461	3.76
323.829	3.71
324.197	4
324.565	3.91
324.933	3.88
325.301	3.83
325.669	3.79
326.037	3.9
326.405	4.02
326.772	3.93
327.14	3.97
327.508	3.97
327.875	3.87
328.243	3.79
328.61	3.79
328.978	3.76
329.346	3.84
329.713	3.89
330.08	3.91
330.448	3.75
330.815	3.72
331.182	3.65
331.55	3.64
331.917	3.53
332.284	3.7
332.651	3.77
333.018	3.76
333.385	3.72
333.752	3.72
334.119	3.72
334.486	3.76
334.853	3.79
335.22	3.69
335.587	3.94
335.954	3.98
336.32	3.94
336.687	3.99
337.054	3.94
337.42	3.95
337.787	4.01
338.153	4.12
338.52	4.13
338.886	4.11
339.253	4.12
339.619	4.11
339.986	3.98
340.352	3.9
340.718	3.87
341.084	3.88
341.451	3.85
341.817	3.84
342.183	3.78
342.549	3.82
342.915	3.94
343.281	3.86
343.647	3.83
344.013	3.9
344.379	3.82
344.745	3.85
345.11	3.81
345.476	3.77
345.842	3.76
346.208	3.84
346.573	3.9
346.939	3.94
347.304	3.98
347.67	3.98
348.035	3.95
348.401	3.99
348.766	4.07
349.132	4.13
349.497	4.08
349.862	4.18
350.228	4.07
350.593	4.02
350.958	4.04
351.323	4.13
351.688	4.05
352.053	4.16
352.418	4.16
352.783	4.27
353.148	4.21
353.513	4.22
353.878	4.14
354.243	4.17
354.608	4.13
354.972	4.13
355.337	4.25
355.702	4.34
356.066	4.4
356.431	4.27
356.795	4.34
357.16	4.39
357.524	4.34
357.889	4.39
358.253	4.46
358.618	4.49
358.982	4.44
359.346	4.43
359.71	4.38
360.075	4.38
360.439	4.33
360.803	4.3
361.167	4.27
361.531	4.3
361.895	4.25
362.259	4.25
362.623	4.29
362.987	4.2
363.351	4.14
363.714	4.06
364.078	4.16
364.442	4.09
364.806	4.08
365.169	4.03
365.533	4.05
365.896	4.02
366.26	3.96
366.623	3.95
366.987	3.98
367.35	4
367.714	3.95
368.077	3.92
368.44	3.92
368.803	3.91
369.167	3.94
369.53	3.96
369.893	4
370.256	3.96
370.619	3.98
370.982	4
371.345	4.04
371.708	4.09
372.071	4.12
372.434	4.15
372.797	4.2
373.159	4.18
373.522	4.19
373.885	4.27
374.247	4.23
374.61	4.24
374.973	4.21
375.335	4.24
375.698	4.28
376.06	4.32
376.423	4.32
376.785	4.31
377.147	4.32
377.51	4.29
377.872	4.28
378.234	4.25
378.596	4.24
378.958	4.22
379.321	4.14
379.683	4.13
380.045	4.15
380.407	4.16
380.769	4.19
381.13	4.17
381.492	4.07
381.854	4.12
382.216	4.11
382.578	4.16
382.939	4.11
383.301	4.08
383.663	4.05
384.024	4.05
384.386	4.11
384.747	4.07
385.109	4.12
385.47	4.16
385.832	4.2
386.193	4.24
386.554	4.28
386.916	4.26
387.277	4.28
387.638	4.25
387.999	4.2
388.36	4.15
388.721	4.16
389.082	4.23
389.443	4.24
389.804	4.23
390.165	4.21
390.526	4.24
390.887	4.25
391.248	4.3
391.609	4.34
391.969	4.29
392.33	4.33
392.691	4.28
393.051	4.27
393.412	4.3
393.772	4.3
394.133	4.25
394.493	4.3
394.854	4.27
395.214	4.25
395.574	4.33
395.935	4.38
396.295	4.4
396.655	4.36
397.015	4.39
397.376	4.4
397.736	4.42
398.096	4.46
398.456	4.46
398.816	4.5
399.176	4.44
399.535	4.47
399.895	4.46
400.255	4.49
400.615	4.52
400.975	4.47
401.334	4.43
401.694	4.45
402.054	4.46
402.413	4.49
402.773	4.5
403.132	4.45
403.492	4.42
403.851	4.43
404.211	4.44
404.57	4.42
404.929	4.43
405.288	4.41
405.648	4.38
406.007	4.4
406.366	4.37
406.725	4.42
407.084	4.39
407.443	4.38
407.802	4.4
408.161	4.37
408.52	4.38
408.879	4.38
409.238	4.39
409.596	4.36
409.955	4.34
410.314	4.37
410.673	4.38
411.031	4.4
411.39	4.38
411.748	4.36
412.107	4.37
412.465	4.38
412.824	4.38
413.182	4.37
413.54	4.38
413.899	4.4
414.257	4.4
414.615	4.41
414.974	4.44
415.332	4.42
415.69	4.42
416.048	4.42
416.406	4.45
416.764	4.44
417.122	4.44
417.48	4.43
417.838	4.43
418.195	4.43
418.553	4.44
418.911	4.44
419.269	4.44
419.626	4.45
419.984	4.44
420.342	4.45
420.699	4.46
421.057	4.46
421.414	4.44
421.772	4.44
422.129	4.46
422.486	4.44
422.844	4.45
423.201	4.45
423.558	4.44
423.915	4.44
424.273	4.45
424.63	4.47
424.987	4.47
425.344	4.47
425.701	4.5
426.058	4.51
426.415	4.52
426.772	4.51
427.128	4.51
427.485	4.51
427.842	4.49
428.199	4.5
428.555	4.49
428.912	4.53
429.269	4.54
429.625	4.54
429.982	4.56
430.338	4.57
430.695	4.59
431.051	4.6
431.407	4.6
431.764	4.6
432.12	4.58
432.476	4.59
432.832	4.58
433.189	4.57
433.545	4.54
433.901	4.54
434.257	4.58
434.613	4.58
434.969	4.58
435.325	4.6
435.681	4.59
436.036	4.6
436.392	4.59
436.748	4.55
437.104	4.54
437.459	4.52
437.815	4.51
438.171	4.51
438.526	4.52
438.882	4.51
439.237	4.52
439.593	4.54
439.948	4.54
440.304	4.57
440.659	4.56
441.014	4.58
441.369	4.56
441.725	4.53
442.08	4.54
442.435	4.54
442.79	4.54
443.145	4.54
443.5	4.53
443.855	4.52
444.21	4.53
444.565	4.53
444.92	4.54
445.275	4.53
445.629	4.53
445.984	4.53
446.339	4.54
446.693	4.52
447.048	4.5
447.403	4.49
447.757	4.47
448.112	4.45
448.466	4.44
448.82	4.45
449.175	4.47
449.529	4.45
449.883	4.45
450.238	4.44
450.592	4.44
450.946	4.42
451.3	4.42
451.654	4.43
452.008	4.44
452.362	4.43
452.716	4.44
453.07	4.45
453.424	4.44
453.778	4.44
454.132	4.45
454.486	4.46
454.839	4.46
455.193	4.5
455.547	4.52
455.9	4.52
456.254	4.53
456.607	4.52
456.961	4.53
457.314	4.51
457.668	4.52
458.021	4.51
458.375	4.54
458.728	4.54
459.081	4.55
459.434	4.53
459.787	4.54
460.141	4.54
460.494	4.53
460.847	4.55
461.2	4.55
461.553	4.56
461.906	4.58
462.259	4.61
462.611	4.6
462.964	4.61
463.317	4.62
463.67	4.63
464.022	4.65
464.375	4.67
464.728	4.7
465.08	4.69
465.433	4.71
465.785	4.72
466.138	4.73
466.49	4.73
466.843	4.74
467.195	4.73
467.547	4.76
467.899	4.74
468.252	4.74
468.604	4.77
468.956	4.75
469.308	4.73
469.66	4.72
470.012	4.72
470.364	4.7
470.716	4.69
471.068	4.71
471.42	4.68
471.772	4.7
472.123	4.7
472.475	4.74
472.827	4.76
473.178	4.74
473.53	4.72
473.882	4.72
474.233	4.73
474.585	4.72
474.936	4.7
475.288	4.72
475.639	4.74
475.99	4.71
476.342	4.7
476.693	4.71
477.044	4.72
477.395	4.73
477.746	4.75
478.097	4.77
478.448	4.76
478.8	4.76
479.15	4.74
479.501	4.74
479.852	4.74
480.203	4.75
480.554	4.77
480.905	4.79
481.255	4.79
481.606	4.8
481.957	4.82
482.307	4.84
482.658	4.84
483.009	4.84
483.359	4.85
483.709	4.86
484.06	4.86
484.41	4.87
484.761	4.86
485.111	4.86
485.461	4.86
485.811	4.86
486.162	4.85
486.512	4.86
486.862	4.85
487.212	4.86
487.562	4.85
487.912	4.85
488.262	4.84
488.612	4.85
488.961	4.85
489.311	4.85
489.661	4.85
490.011	4.84
490.36	4.82
490.71	4.82
491.06	4.82
491.409	4.81
491.759	4.79
492.108	4.8
492.458	4.79
492.807	4.79
493.157	4.79
493.506	4.81
493.855	4.82
494.204	4.83
494.554	4.82
494.903	4.82
495.252	4.81
495.601	4.82
495.95	4.83
496.299	4.84
496.648	4.82
496.997	4.81
497.346	4.83
497.695	4.87
498.043	4.86
498.392	4.87
498.741	4.89
499.09	4.89
499.438	4.88
499.787	4.89
500.135	4.89
500.484	4.9
500.832	4.89
501.181	4.9
501.529	4.88
501.878	4.9
502.226	4.92
502.574	4.93
502.923	4.92
503.271	4.9
503.619	4.89
503.967	4.9
504.315	4.9
504.663	4.9
505.011	4.87
505.359	4.87
505.707	4.88
506.055	4.88
506.403	4.88
506.751	4.89
507.098	4.88
507.446	4.9
507.794	4.89
508.141	4.91
508.489	4.9
508.837	4.91
509.184	4.92
509.531	4.92
509.879	4.93
510.226	4.96
510.574	4.97
510.921	4.98
511.268	4.97
511.616	4.98
511.963	4.99
512.31	5.02
512.657	5.04
513.004	5.05
513.351	5.07
513.698	5.09
514.045	5.09
514.392	5.14
514.739	5.14
515.086	5.16
515.432	5.16
515.779	5.17
516.126	5.18
516.473	5.18
516.819	5.18
517.166	5.17
517.512	5.16
517.859	5.19
518.205	5.18
518.552	5.2
518.898	5.19
519.245	5.17
519.591	5.15
519.937	5.14
520.283	5.13
520.629	5.13
520.976	5.14
521.322	5.14
521.668	5.13
522.014	5.13
522.36	5.12
522.706	5.12
523.052	5.13
523.398	5.14
523.743	5.14
524.089	5.15
524.435	5.16
524.781	5.18
525.126	5.17
525.472	5.2
525.817	5.21
526.163	5.22
526.509	5.25
526.854	5.26
527.199	5.27
527.545	5.27
527.89	5.28
528.235	5.27
528.581	5.28
528.926	5.29
529.271	5.3
529.616	5.3
529.961	5.31
530.306	5.33
530.651	5.33
530.996	5.34
531.341	5.34
531.686	5.35
532.031	5.35
532.376	5.35
532.721	5.34
533.065	5.33
533.41	5.34
533.755	5.34
534.099	5.34
534.444	5.34
534.788	5.34
535.133	5.32
535.477	5.35
535.822	5.35
536.166	5.36
536.51	5.34
536.855	5.35
537.199	5.35
537.543	5.35
537.887	5.35
538.231	5.34
538.576	5.35
538.92	5.35
539.264	5.34
539.608	5.35
539.951	5.36
540.295	5.37
540.639	5.39
540.983	5.39
541.327	5.4
541.671	5.42
542.014	5.43
542.358	5.44
542.701	5.43
543.045	5.42
543.389	5.43
543.732	5.44
544.075	5.44
544.419	5.45
544.762	5.43
545.105	5.43
545.449	5.43
545.792	5.44
546.135	5.46
546.478	5.48
546.821	5.49
547.165	5.5
547.508	5.49
547.851	5.49
548.194	5.48
548.536	5.47
548.879	5.48
549.222	5.49
549.565	5.49
549.908	5.51
550.25	5.53
550.593	5.52
550.936	5.52
551.278	5.53
551.621	5.53
551.963	5.58
552.306	5.56
552.648	5.57
552.991	5.58
553.333	5.56
553.675	5.59
554.017	5.58
554.36	5.56
554.702	5.59
555.044	5.59
555.386	5.62
555.728	5.62
556.07	5.65
556.412	5.64
556.754	5.62
557.096	5.61
557.438	5.62
557.78	5.63
558.121	5.67
558.463	5.69
558.805	5.7
559.147	5.66
559.488	5.67
559.83	5.69
560.171	5.68
560.513	5.68
560.854	5.67
561.196	5.65
561.537	5.66
561.878	5.64
562.22	5.64
562.561	5.65
562.902	5.66
563.243	5.65
563.584	5.66
563.925	5.67
564.266	5.67
564.607	5.63
564.948	5.63
565.289	5.61
565.63	5.59
565.971	5.57
566.312	5.6
566.653	5.6
566.993	5.6
567.334	5.61
567.675	5.6
568.015	5.61
568.356	5.63
568.696	5.65
569.037	5.66
569.377	5.65
569.718	5.65
570.058	5.65
570.398	5.65
570.739	5.65
571.079	5.66
571.419	5.66
571.759	5.68
572.099	5.68
572.439	5.69
572.779	5.71
573.119	5.75
573.459	5.74
573.799	5.78
574.139	5.78
574.479	5.77
574.819	5.8
575.158	5.78
575.498	5.78
575.838	5.76
576.177	5.71
576.517	5.69
576.856	5.69
577.196	5.71
577.535	5.71
577.875	5.73
578.214	5.71
578.553	5.72
578.893	5.7
579.232	5.7
579.571	5.68
579.91	5.63
580.25	5.58
580.589	5.56
580.928	5.56
581.267	5.53
581.606	5.53
581.945	5.48
582.283	5.45
582.622	5.44
582.961	5.47
583.3	5.55
583.639	5.61
583.977	5.6
584.316	5.55
584.654	5.57
584.993	5.55
585.332	5.59
585.67	5.62
586.008	5.63
586.347	5.64
586.685	5.65
587.024	5.67
587.362	5.68
587.7	5.69
588.038	5.7
588.376	5.74
588.715	5.74
589.053	5.81
589.391	5.83
589.729	5.85
590.067	5.84
590.404	5.79
590.742	5.78
591.08	5.78
591.418	5.78
591.756	5.77
592.093	5.78
592.431	5.78
592.769	5.76
593.106	5.75
593.444	5.71
593.781	5.69
594.119	5.7
594.456	5.68
594.793	5.66
595.131	5.62
595.468	5.63
595.805	5.62
596.143	5.6
596.48	5.6
596.817	5.64
597.154	5.65
597.491	5.67
597.828	5.65
598.165	5.63
598.502	5.65
598.839	5.66
599.176	5.65
599.512	5.65
599.849	5.68
600.186	5.7
600.523	5.76
600.859	5.79
601.196	5.8
601.532	5.84
601.869	5.85
602.205	5.87
602.542	5.88
602.878	5.88
603.215	5.86
603.551	5.88
603.887	5.88
604.223	5.9
604.56	5.93
604.896	5.94
605.232	5.98
605.568	5.98
605.904	5.99
606.24	6.02
606.576	6.02
606.912	6.02
607.248	6.01
607.583	6
607.919	6.02
608.255	6.04
608.591	6.06
608.926	6.06
609.262	6.08
609.597	6.09
609.933	6.13
610.268	6.17
610.604	6.2
610.939	6.17
611.275	6.18
611.61	6.17
611.945	6.22
612.281	6.2
612.616	6.18
612.951	6.21
613.286	6.23
613.621	6.21
613.956	6.17
614.291	6.19
614.626	6.2
614.961	6.19
615.296	6.19
615.631	6.19
615.966	6.22
616.3	6.19
616.635	6.15
616.97	6.16
617.304	6.15
617.639	6.12
617.973	6.18
618.308	6.13
618.642	6.14
618.977	6.14
619.311	6.15
619.646	6.18
619.98	6.15
620.314	6.15
620.648	6.19
620.983	6.27
621.317	6.31
621.651	6.3
621.985	6.32
622.319	6.29
622.653	6.34
622.987	6.34
623.321	6.37
623.655	6.37
623.988	6.36
624.322	6.39
624.656	6.38
624.99	6.37
625.323	6.42
625.657	6.4
625.99	6.38
626.324	6.38
626.657	6.4
626.991	6.42
627.324	6.41
627.658	6.42
627.991	6.38
628.324	6.4
628.657	6.39
628.991	6.38
629.324	6.41
629.657	6.37
629.99	6.37
630.323	6.38
630.656	6.43
630.989	6.48
631.322	6.46
631.655	6.44
631.987	6.46
632.32	6.38
632.653	6.4
632.986	6.36
633.318	6.38
633.651	6.35
633.984	6.34
634.316	6.34
634.649	6.28
634.981	6.28
635.313	6.23
635.646	6.27
635.978	6.23
636.31	6.23
636.643	6.24
636.975	6.23
637.307	6.22
637.639	6.16
637.971	6.1
638.303	6.1
638.635	6.07
638.967	6.06
639.299	6.18
639.631	6.14
639.963	6.21
640.295	6.23
640.626	6.23
640.958	6.28
641.29	6.28
641.621	6.33
641.953	6.27
642.285	6.32
642.616	6.29
642.948	6.32
643.279	6.33
643.61	6.32
643.942	6.35
644.273	6.36
644.604	6.36
644.936	6.34
645.267	6.35
645.598	6.43
645.929	6.42
646.26	6.42
646.591	6.47
646.922	6.43
647.253	6.42
647.584	6.44
647.915	6.35
648.245	6.38
648.576	6.36
648.907	6.4
649.238	6.4
649.568	6.4
649.899	6.41
650.229	6.42
650.56	6.47
650.89	6.46
651.221	6.51
651.551	6.55
651.882	6.55
652.212	6.53
652.542	6.5
652.872	6.52
653.203	6.43
653.533	6.47
653.863	6.45
654.193	6.42
654.523	6.48
654.853	6.47
655.183	6.39
655.513	6.35
655.843	6.35
656.172	6.36
656.502	6.41
656.832	6.41
657.162	6.4
657.491	6.32
657.821	6.31
658.15	6.27
658.48	6.28
658.809	6.32
659.139	6.34
659.468	6.32
659.798	6.32
660.127	6.38
660.456	6.34
660.785	6.38
661.115	6.46
661.444	6.4
661.773	6.42
662.102	6.48
662.431	6.55
662.76	6.61
663.089	6.64
663.418	6.58
663.747	6.56
664.076	6.57
664.404	6.62
664.733	6.71
665.062	6.74
665.39	6.71
665.719	6.75
666.048	6.74
666.376	6.74
666.705	6.69
667.033	6.62
667.362	6.64
667.69	6.7
668.018	6.69
668.347	6.71
668.675	6.78
669.003	6.79
669.331	6.83
669.659	6.76
669.987	6.71
670.315	6.74
670.643	6.82
670.971	6.78
671.299	6.84
671.627	6.86
671.955	6.81
672.283	6.83
672.61	6.83
672.938	6.91
673.266	6.94
673.593	7.07
673.921	7.07
674.249	7.07
674.576	6.98
674.904	6.94
675.231	6.92
675.558	6.86
675.886	6.76
676.213	6.66
