Data from BA28473_Reflection_00008.txt Node
Date: Mon Nov 18 15:28:28 EST 2019
User: vgr7
Spectrometer: USB2G7710
Scans to average: 3
Trigger mode: 4
Integration Time (sec): 2.000000E-2
Electric dark correction enabled: true
Boxcar width: 10
XAxis mode: Wavelengths
Number of Pixels in Spectrum: 2048
>>>>>Begin Spectral Data<<<<<
177.721	156.22
178.105	138.33
178.488	155.99
178.871	20.81
179.254	-115.43
179.636	12.92
180.019	-823.66
180.402	100
180.785	-536.36
181.168	-198.08
181.55	-142.29
181.933	162.66
182.316	135.78
182.698	89.59
183.081	66.6
183.463	33.27
183.846	44.34
184.228	46.85
184.611	66.59
184.993	244.31
185.376	158.32
185.758	84.98
186.14	115.98
186.522	82.11
186.904	100.55
187.287	148.32
187.669	134
188.051	161.67
188.433	165.1
188.815	129.1
189.197	181.41
189.579	117.45
189.961	58.44
190.342	60.74
190.724	-101.82
191.106	-329.84
191.488	-443.77
191.869	-149.69
192.251	-354.04
192.633	-282.3
193.014	105.63
193.396	214.33
193.777	498.42
194.159	793.62
194.54	-312.47
194.922	-181.07
195.303	-273.61
195.684	-427.49
196.065	-108.75
196.447	-482.25
196.828	4406.12
197.209	1526.04
197.59	-1560.63
197.971	-525.2
198.352	-197.3
198.733	-220.64
199.114	-62.76
199.495	-45.16
199.876	-26.98
200.257	-46.6
200.638	-7.69
201.018	-8.74
201.399	-2.93
201.78	12.14
202.16	-1.64
202.541	-15.44
202.922	-32.12
203.302	-45.71
203.683	-50.95
204.063	-80.65
204.444	-76.28
204.824	-63.45
205.204	-33.86
205.585	-35.6
205.965	-43.55
206.345	-71.05
206.725	-97.68
207.106	-281.15
207.486	-295.11
207.866	-476.59
208.246	-318.07
208.626	-246.13
209.006	-167.45
209.386	-174.11
209.766	-194.79
210.145	-202.19
210.525	-179.24
210.905	-107.15
211.285	-57.35
211.664	-34.41
212.044	-16.4
212.424	25.2
212.803	37.55
213.183	-15.78
213.562	-8.87
213.942	-1.07
214.321	13.03
214.701	2.86
215.08	7.67
215.459	10.82
215.838	21.4
216.218	27.08
216.597	47.22
216.976	69.22
217.355	86.61
217.734	76.99
218.113	76.5
218.492	69.14
218.871	73.28
219.25	68.19
219.629	38.1
220.008	11.81
220.387	-16.96
220.766	-9.3
221.144	-11.26
221.523	1.67
221.902	-0.99
222.28	3.57
222.659	9.23
223.037	18.25
223.416	6.98
223.794	-4
224.173	-3.59
224.551	-2.06
224.929	-8.7
225.308	-4.84
225.686	-3.37
226.064	-3.23
226.442	-0.62
226.821	0.34
227.199	-3.32
227.577	-2.13
227.955	-1.74
228.333	1.47
228.711	6.27
229.089	10.09
229.467	7.3
229.845	6.93
230.222	6.9
230.6	6.82
230.978	2.5
231.356	3.32
231.733	5.27
232.111	5.2
232.488	3.34
232.866	1.86
233.243	1.27
233.621	1.12
233.998	2.67
234.376	2.03
234.753	3.08
235.13	3.45
235.508	3.82
235.885	5.68
236.262	6.34
236.639	4.5
237.016	3.78
237.393	4.67
237.77	5.68
238.147	5.37
238.524	5.92
238.901	7.17
239.278	7.85
239.655	7.91
240.032	8.1
240.409	8.37
240.785	8.21
241.162	8.54
241.539	8.28
241.915	8.08
242.292	7.77
242.668	7.24
243.045	7.02
243.421	6.7
243.798	6.76
244.174	6.44
244.551	6.56
244.927	6.36
245.303	6.57
245.679	6.42
246.056	6.44
246.432	6.28
246.808	6.51
247.184	6.18
247.56	5.96
247.936	5.93
248.312	5.63
248.688	6.11
249.064	5.74
249.44	5.81
249.815	5.71
250.191	5.92
250.567	6.1
250.943	6.14
251.318	6.39
251.694	6.16
252.069	6.07
252.445	6.22
252.82	6.4
253.196	6.35
253.571	6.62
253.947	6.72
254.322	6.78
254.697	6.49
255.073	6.61
255.448	6.56
255.823	6.25
256.198	6.47
256.573	6.05
256.948	6.14
257.323	6.02
257.698	5.93
258.073	5.87
258.448	5.65
258.823	5.75
259.198	5.45
259.573	5.46
259.948	5.48
260.322	5.48
260.697	5.44
261.072	5.24
261.446	5.2
261.821	5.12
262.195	5.08
262.57	4.87
262.944	4.98
263.319	5.03
263.693	4.93
264.067	4.83
264.442	5.05
264.816	4.93
265.19	4.96
265.564	5.01
265.938	4.95
266.313	5.08
266.687	5.1
267.061	5.27
267.435	5.35
267.809	5.46
268.183	5.4
268.556	5.25
268.93	5.38
269.304	5.16
269.678	5.24
270.051	5.2
270.425	5.38
270.799	5.31
271.172	5.18
271.546	5.25
271.919	5.12
272.293	4.9
272.666	4.9
273.04	4.79
273.413	4.73
273.787	4.6
274.16	4.54
274.533	4.42
274.906	4.4
275.279	4.26
275.653	4.2
276.026	4.01
276.399	4.11
276.772	3.97
277.145	4.16
277.518	4.11
277.891	4.25
278.263	3.96
278.636	3.89
279.009	4.04
279.382	4.18
279.755	4.22
280.127	4.28
280.5	4.45
280.872	4.66
281.245	4.65
281.617	4.96
281.99	4.98
282.362	5.09
282.735	5.07
283.107	5.05
283.479	5.03
283.852	5.13
284.224	5.06
284.596	5.21
284.968	5.24
285.34	5.21
285.713	5.15
286.085	5.29
286.457	5.37
286.829	5.32
287.201	5.36
287.572	5.4
287.944	5.5
288.316	5.56
288.688	5.54
289.06	5.59
289.431	5.53
289.803	5.56
290.175	5.55
290.546	5.76
290.918	5.81
291.289	5.88
291.661	5.97
292.032	6.01
292.403	6.08
292.775	6.03
293.146	6.07
293.517	6.07
293.889	6.17
294.26	6.21
294.631	6.27
295.002	6.32
295.373	6.39
295.744	6.32
296.115	6.31
296.486	6.2
296.857	6.28
297.228	6.23
297.599	6.18
297.97	6.2
298.34	6.16
298.711	6.28
299.082	6.39
299.452	6.36
299.823	6.51
300.194	6.39
300.564	6.47
300.935	6.52
301.305	6.58
301.676	6.65
302.046	6.75
302.416	6.81
302.787	6.87
303.157	6.96
303.527	7.06
303.897	7.21
304.267	7.53
304.637	7.56
305.008	7.8
305.378	8.14
305.748	8.32
306.117	8.25
306.487	8.37
306.857	8.4
307.227	8.51
307.597	8.48
307.967	8.67
308.336	8.75
308.706	8.91
309.076	8.98
309.445	9.07
309.815	9.08
310.184	9.09
310.554	9.06
310.923	9.02
311.293	9.11
311.662	9.02
312.031	8.9
312.401	8.95
312.77	8.96
313.139	8.86
313.508	8.88
313.877	8.98
314.246	8.89
314.616	8.98
314.985	9
315.353	9.1
315.722	9.09
316.091	9.04
316.46	8.97
316.829	9.25
317.198	9.29
317.567	9.29
317.935	9.36
318.304	9.67
318.672	9.88
319.041	10
319.41	10.01
319.778	9.96
320.147	9.96
320.515	10.04
320.883	10.12
321.252	10.22
321.62	10.3
321.988	10.34
322.357	10.29
322.725	10.23
323.093	10.31
323.461	10.45
323.829	10.61
324.197	10.65
324.565	10.61
324.933	10.73
325.301	10.7
325.669	10.73
326.037	10.61
326.405	10.63
326.772	10.56
327.14	10.72
327.508	10.86
327.875	10.9
328.243	10.95
328.61	11.03
328.978	11.13
329.346	11.14
329.713	11.05
330.08	11.09
330.448	11.22
330.815	11.17
331.182	11.17
331.55	11.2
331.917	11.34
332.284	11.42
332.651	11.39
333.018	11.52
333.385	11.72
333.752	11.71
334.119	11.75
334.486	11.74
334.853	11.76
335.22	11.75
335.587	11.88
335.954	11.85
336.32	11.82
336.687	11.79
337.054	11.87
337.42	12.07
337.787	12.2
338.153	12.24
338.52	12.42
338.886	12.35
339.253	12.36
339.619	12.33
339.986	12.29
340.352	12.35
340.718	12.34
341.084	12.29
341.451	12.42
341.817	12.44
342.183	12.4
342.549	12.45
342.915	12.58
343.281	12.62
343.647	12.62
344.013	12.69
344.379	12.72
344.745	12.64
345.11	12.74
345.476	12.73
345.842	12.81
346.208	12.77
346.573	12.84
346.939	12.96
347.304	12.95
347.67	12.89
348.035	12.93
348.401	13.03
348.766	12.97
349.132	12.93
349.497	12.94
349.862	13.07
350.228	12.99
350.593	12.96
350.958	12.92
351.323	12.97
351.688	12.99
352.053	12.96
352.418	13.18
352.783	13.18
353.148	13.12
353.513	13.08
353.878	13.03
354.243	13.11
354.608	12.99
354.972	13.03
355.337	13.12
355.702	13.18
356.066	13.2
356.431	13.25
356.795	13.26
357.16	13.26
357.524	13.32
357.889	13.42
358.253	13.42
358.618	13.54
358.982	13.53
359.346	13.39
359.71	13.39
360.075	13.29
360.439	13.34
360.803	13.32
361.167	13.3
361.531	13.31
361.895	13.21
362.259	13.26
362.623	13.25
362.987	13.17
363.351	13.06
363.714	13.09
364.078	13.09
364.442	13.02
364.806	13.07
365.169	12.94
365.533	12.86
365.896	12.83
366.26	12.7
366.623	12.69
366.987	12.81
367.35	12.83
367.714	12.81
368.077	12.71
368.44	12.77
368.803	12.79
369.167	12.81
369.53	12.84
369.893	12.79
370.256	12.79
370.619	12.73
370.982	12.79
371.345	12.68
371.708	12.68
372.071	12.63
372.434	12.5
372.797	12.56
373.159	12.53
373.522	12.51
373.885	12.48
374.247	12.42
374.61	12.4
374.973	12.31
375.335	12.35
375.698	12.25
376.06	12.16
376.423	12.09
376.785	12.06
377.147	12.04
377.51	11.96
377.872	11.93
378.234	11.97
378.596	11.85
378.958	11.75
379.321	11.68
379.683	11.74
380.045	11.71
380.407	11.64
380.769	11.58
381.13	11.51
381.492	11.52
381.854	11.48
382.216	11.4
382.578	11.4
382.939	11.34
383.301	11.31
383.663	11.25
384.024	11.2
384.386	11.15
384.747	11.15
385.109	11.13
385.47	11.08
385.832	11.05
386.193	11.07
386.554	11.04
386.916	10.99
387.277	10.89
387.638	10.85
387.999	10.76
388.36	10.75
388.721	10.77
389.082	10.67
389.443	10.59
389.804	10.52
390.165	10.48
390.526	10.42
390.887	10.41
391.248	10.39
391.609	10.33
391.969	10.28
392.33	10.17
392.691	10.13
393.051	10.04
393.412	9.96
393.772	9.88
394.133	9.88
394.493	9.84
394.854	9.77
395.214	9.75
395.574	9.7
395.935	9.66
396.295	9.56
396.655	9.52
397.015	9.48
397.376	9.46
397.736	9.37
398.096	9.33
398.456	9.28
398.816	9.23
399.176	9.24
399.535	9.18
399.895	9.12
400.255	9.09
400.615	9.07
400.975	9.03
401.334	8.95
401.694	8.87
402.054	8.82
402.413	8.83
402.773	8.72
403.132	8.73
403.492	8.68
403.851	8.66
404.211	8.61
404.57	8.59
404.929	8.56
405.288	8.51
405.648	8.44
406.007	8.42
406.366	8.39
406.725	8.34
407.084	8.31
407.443	8.28
407.802	8.26
408.161	8.21
408.52	8.19
408.879	8.21
409.238	8.22
409.596	8.18
409.955	8.14
410.314	8.15
410.673	8.11
411.031	8.1
411.39	8.08
411.748	8.09
412.107	8.08
412.465	8.02
412.824	8
413.182	7.96
413.54	7.94
413.899	7.93
414.257	7.88
414.615	7.84
414.974	7.82
415.332	7.78
415.69	7.73
416.048	7.67
416.406	7.62
416.764	7.57
417.122	7.54
417.48	7.49
417.838	7.47
418.195	7.43
418.553	7.38
418.911	7.34
419.269	7.31
419.626	7.27
419.984	7.25
420.342	7.25
420.699	7.26
421.057	7.23
421.414	7.19
421.772	7.17
422.129	7.15
422.486	7.12
422.844	7.1
423.201	7.08
423.558	7.07
423.915	7.03
424.273	7.02
424.63	7
424.987	7
425.344	6.98
425.701	6.96
426.058	6.95
426.415	6.92
426.772	6.9
427.128	6.88
427.485	6.86
427.842	6.82
428.199	6.77
428.555	6.73
428.912	6.74
429.269	6.71
429.625	6.68
429.982	6.67
430.338	6.66
430.695	6.66
431.051	6.64
431.407	6.64
431.764	6.62
432.12	6.6
432.476	6.58
432.832	6.57
433.189	6.56
433.545	6.57
433.901	6.57
434.257	6.55
434.613	6.58
434.969	6.58
435.325	6.59
435.681	6.61
436.036	6.63
436.392	6.61
436.748	6.62
437.104	6.63
437.459	6.61
437.815	6.61
438.171	6.64
438.526	6.64
438.882	6.66
439.237	6.68
439.593	6.68
439.948	6.66
440.304	6.66
440.659	6.65
441.014	6.65
441.369	6.64
441.725	6.62
442.08	6.6
442.435	6.6
442.79	6.59
443.145	6.56
443.5	6.53
443.855	6.48
444.21	6.47
444.565	6.47
444.92	6.47
445.275	6.45
445.629	6.42
445.984	6.41
446.339	6.37
446.693	6.34
447.048	6.33
447.403	6.32
447.757	6.31
448.112	6.28
448.466	6.26
448.82	6.25
449.175	6.26
449.529	6.24
449.883	6.21
450.238	6.2
450.592	6.18
450.946	6.13
451.3	6.16
451.654	6.14
452.008	6.13
452.362	6.08
452.716	6.07
453.07	6.05
453.424	6.03
453.778	6.03
454.132	6.03
454.486	6.01
454.839	6
455.193	6
455.547	6
455.9	5.98
456.254	5.98
456.607	5.97
456.961	5.95
457.314	5.96
457.668	5.95
458.021	5.97
458.375	6.01
458.728	6.01
459.081	6.01
459.434	6.02
459.787	6.05
460.141	6.04
460.494	6.05
460.847	6.08
461.2	6.08
461.553	6.08
461.906	6.11
462.259	6.13
462.611	6.15
462.964	6.19
463.317	6.19
463.67	6.2
464.022	6.23
464.375	6.26
464.728	6.27
465.08	6.28
465.433	6.29
465.785	6.29
466.138	6.31
466.49	6.35
466.843	6.35
467.195	6.36
467.547	6.37
467.899	6.38
468.252	6.38
468.604	6.41
468.956	6.44
469.308	6.46
469.66	6.47
470.012	6.49
470.364	6.52
470.716	6.57
471.068	6.6
471.42	6.62
471.772	6.65
472.123	6.68
472.475	6.7
472.827	6.7
473.178	6.73
473.53	6.73
473.882	6.74
474.233	6.77
474.585	6.78
474.936	6.79
475.288	6.83
475.639	6.85
475.99	6.84
476.342	6.85
476.693	6.84
477.044	6.85
477.395	6.83
477.746	6.8
478.097	6.78
478.448	6.77
478.8	6.75
479.15	6.71
479.501	6.68
479.852	6.68
480.203	6.67
480.554	6.67
480.905	6.68
481.255	6.68
481.606	6.67
481.957	6.67
482.307	6.68
482.658	6.65
483.009	6.64
483.359	6.65
483.709	6.64
484.06	6.63
484.41	6.63
484.761	6.63
485.111	6.62
485.461	6.63
485.811	6.63
486.162	6.63
486.512	6.64
486.862	6.65
487.212	6.66
487.562	6.66
487.912	6.67
488.262	6.66
488.612	6.67
488.961	6.67
489.311	6.68
489.661	6.68
490.011	6.7
490.36	6.71
490.71	6.72
491.06	6.73
491.409	6.76
491.759	6.77
492.108	6.78
492.458	6.81
492.807	6.82
493.157	6.86
493.506	6.89
493.855	6.93
494.204	6.95
494.554	6.98
494.903	7.01
495.252	7.03
495.601	7.09
495.95	7.13
496.299	7.19
496.648	7.22
496.997	7.28
497.346	7.35
497.695	7.41
498.043	7.46
498.392	7.53
498.741	7.59
499.09	7.65
499.438	7.75
499.787	7.82
500.135	7.9
500.484	7.95
500.832	8.03
501.181	8.12
501.529	8.21
501.878	8.33
502.226	8.44
502.574	8.54
502.923	8.62
503.271	8.7
503.619	8.8
503.967	8.9
504.315	8.99
504.663	9.09
505.011	9.19
505.359	9.29
505.707	9.4
506.055	9.51
506.403	9.63
506.751	9.71
507.098	9.79
507.446	9.91
507.794	10.02
508.141	10.15
508.489	10.25
508.837	10.35
509.184	10.43
509.531	10.53
509.879	10.67
510.226	10.79
510.574	10.9
510.921	11.01
511.268	11.15
511.616	11.31
511.963	11.46
512.31	11.59
512.657	11.75
513.004	11.89
513.351	12.05
513.698	12.22
514.045	12.38
514.392	12.56
514.739	12.71
515.086	12.88
515.432	13.04
515.779	13.2
516.126	13.38
516.473	13.53
516.819	13.68
517.166	13.79
517.512	13.94
517.859	14.12
518.205	14.27
518.552	14.4
518.898	14.52
519.245	14.64
519.591	14.78
519.937	14.88
520.283	15.02
520.629	15.18
520.976	15.33
521.322	15.51
521.668	15.68
522.014	15.89
522.36	16.06
522.706	16.25
523.052	16.48
523.398	16.71
523.743	16.98
524.089	17.22
524.435	17.48
524.781	17.69
525.126	17.88
525.472	18.06
525.817	18.27
526.163	18.44
526.509	18.62
526.854	18.78
527.199	18.96
527.545	19.12
527.89	19.26
528.235	19.41
528.581	19.58
528.926	19.76
529.271	19.91
529.616	20.08
529.961	20.25
530.306	20.43
530.651	20.61
530.996	20.8
531.341	21
531.686	21.19
532.031	21.42
532.376	21.66
532.721	21.91
533.065	22.14
533.41	22.39
533.755	22.62
534.099	22.88
534.444	23.13
534.788	23.4
535.133	23.66
535.477	23.96
535.822	24.24
536.166	24.51
536.51	24.87
536.855	25.18
537.199	25.53
537.543	25.85
537.887	26.19
538.231	26.58
538.576	26.94
538.92	27.29
539.264	27.6
539.608	27.9
539.951	28.2
540.295	28.5
540.639	28.78
540.983	29.07
541.327	29.33
541.671	29.58
542.014	29.84
542.358	30.11
542.701	30.32
543.045	30.58
543.389	30.82
543.732	31.04
544.075	31.33
544.419	31.58
544.762	31.89
545.105	32.17
545.449	32.48
545.792	32.8
546.135	33.15
546.478	33.52
546.821	33.9
547.165	34.24
547.508	34.58
547.851	34.92
548.194	35.27
548.536	35.6
548.879	35.96
549.222	36.33
549.565	36.63
549.908	36.96
550.25	37.3
550.593	37.68
550.936	38.04
551.278	38.38
551.621	38.72
551.963	39.09
552.306	39.45
552.648	39.72
552.991	40.03
553.333	40.36
553.675	40.64
554.017	40.86
554.36	41.14
554.702	41.42
555.044	41.72
555.386	41.92
555.728	42.24
556.07	42.58
556.412	42.81
556.754	43.12
557.096	43.43
557.438	43.79
557.78	44.1
558.121	44.39
558.463	44.68
558.805	44.96
559.147	45.21
559.488	45.5
559.83	45.81
560.171	46.07
560.513	46.31
560.854	46.56
561.196	46.8
561.537	47.07
561.878	47.28
562.22	47.55
562.561	47.81
562.902	48.05
563.243	48.3
563.584	48.52
563.925	48.78
564.266	48.95
564.607	49.16
564.948	49.35
565.289	49.54
565.63	49.76
565.971	50.01
566.312	50.19
566.653	50.34
566.993	50.53
567.334	50.7
567.675	50.83
568.015	51.01
568.356	51.22
568.696	51.34
569.037	51.58
569.377	51.73
569.718	51.92
570.058	52.09
570.398	52.2
570.739	52.4
571.079	52.55
571.419	52.81
571.759	52.88
572.099	53.05
572.439	53.27
572.779	53.37
573.119	53.49
573.459	53.67
573.799	53.86
574.139	53.91
574.479	54.04
574.819	54.16
575.158	54.27
575.498	54.41
575.838	54.61
576.177	54.72
576.517	54.89
576.856	55.04
577.196	55.13
577.535	55.29
577.875	55.45
578.214	55.55
578.553	55.66
578.893	55.85
579.232	55.92
579.571	55.88
579.91	56.03
580.25	56.16
580.589	56.28
580.928	56.35
581.267	56.53
581.606	56.62
581.945	56.77
582.283	56.91
582.622	57.03
582.961	57.09
583.3	57.21
583.639	57.24
583.977	57.31
584.316	57.48
584.654	57.54
584.993	57.66
585.332	57.78
585.67	57.82
586.008	57.94
586.347	58.14
586.685	58.32
587.024	58.43
587.362	58.47
587.7	58.45
588.038	58.55
588.376	58.57
588.715	58.75
589.053	58.81
589.391	58.94
589.729	58.97
590.067	58.93
590.404	58.95
590.742	59.02
591.08	59.06
591.418	59.13
591.756	59.31
592.093	59.35
592.431	59.5
592.769	59.57
593.106	59.66
593.444	59.6
593.781	59.73
594.119	59.72
594.456	59.81
594.793	59.9
595.131	59.99
595.468	60.16
595.805	60.09
596.143	60.17
596.48	60.16
596.817	60.22
597.154	60.42
597.491	60.54
597.828	60.62
598.165	60.71
598.502	60.73
598.839	60.72
599.176	60.73
599.512	60.77
599.849	60.79
600.186	60.79
600.523	60.87
600.859	60.92
601.196	61.05
601.532	61.13
601.869	61.19
602.205	61.17
602.542	61.18
602.878	61.3
603.215	61.25
603.551	61.24
603.887	61.3
604.223	61.3
604.56	61.35
604.896	61.37
605.232	61.46
605.568	61.55
605.904	61.57
606.24	61.56
606.576	61.6
606.912	61.68
607.248	61.72
607.583	61.77
607.919	61.77
608.255	61.8
608.591	61.88
608.926	61.91
609.262	62.01
609.597	62.07
609.933	62.08
610.268	62.22
610.604	62.3
610.939	62.42
611.275	62.41
611.61	62.38
611.945	62.52
612.281	62.52
612.616	62.46
612.951	62.51
613.286	62.63
613.621	62.7
613.956	62.75
614.291	62.7
614.626	62.78
614.961	62.74
615.296	62.75
615.631	62.65
615.966	62.68
616.3	62.79
616.635	62.8
616.97	62.89
617.304	62.86
617.639	62.98
617.973	62.88
618.308	63.01
618.642	63.11
618.977	63.07
619.311	63.15
619.646	63.22
619.98	63.31
620.314	63.35
620.648	63.33
620.983	63.34
621.317	63.46
621.651	63.52
621.985	63.65
622.319	63.72
622.653	63.83
622.987	63.86
623.321	63.73
623.655	63.69
623.988	63.72
624.322	63.83
624.656	63.84
624.99	63.95
625.323	63.86
625.657	63.83
625.99	63.83
626.324	63.84
626.657	63.85
626.991	63.86
627.324	63.83
627.658	63.85
627.991	63.88
628.324	63.93
628.657	64.02
628.991	64.04
629.324	64.06
629.657	64.03
629.99	64.09
630.323	64.14
630.656	64.2
630.989	64.14
631.322	64.21
631.655	64.24
631.987	64.17
632.32	64.35
632.653	64.4
632.986	64.49
633.318	64.5
633.651	64.59
633.984	64.63
634.316	64.77
634.649	64.7
634.981	64.72
635.313	64.71
635.646	64.69
635.978	64.71
636.31	64.7
636.643	64.81
636.975	64.78
637.307	64.82
637.639	64.81
637.971	64.84
638.303	64.92
638.635	65.07
638.967	65.2
639.299	65.16
639.631	65.08
639.963	65.12
640.295	65.19
640.626	65.1
640.958	65.08
641.29	65.08
641.621	65.29
641.953	65.27
642.285	65.3
642.616	65.32
642.948	65.32
643.279	65.29
643.61	65.17
643.942	65.25
644.273	65.33
644.604	65.26
644.936	65.3
645.267	65.21
645.598	65.18
645.929	65.14
646.26	65.22
646.591	65.3
646.922	65.2
647.253	65.02
647.584	65.1
647.915	65.06
648.245	64.96
648.576	64.8
648.907	64.81
649.238	64.9
649.568	64.91
649.899	64.9
650.229	65
650.56	65.17
650.89	65.06
651.221	65
651.551	65.19
651.882	65.22
652.212	65.19
652.542	65.05
652.872	65.01
653.203	64.97
653.533	65.07
653.863	65.1
654.193	65.34
654.523	65.45
654.853	65.46
655.183	65.48
655.513	65.48
655.843	65.5
656.172	65.55
656.502	65.42
656.832	65.49
657.162	65.49
657.491	65.43
657.821	65.58
658.15	65.62
658.48	65.57
658.809	65.7
659.139	65.79
659.468	65.87
659.798	65.9
660.127	65.87
660.456	65.96
660.785	66.06
661.115	65.88
661.444	65.86
661.773	66.03
662.102	66.11
662.431	66.2
662.76	66.29
