Data from BA28467_Reflection_00012.txt Node
Date: Mon Nov 18 15:33:25 EST 2019
User: vgr7
Spectrometer: USB2G7710
Scans to average: 3
Trigger mode: 4
Integration Time (sec): 2.000000E-2
Electric dark correction enabled: true
Boxcar width: 10
XAxis mode: Wavelengths
Number of Pixels in Spectrum: 2048
>>>>>Begin Spectral Data<<<<<
177.721	-64.84
178.105	-148.73
178.488	-74.35
178.871	-25
179.254	-90.95
179.636	-20.55
180.019	986.08
180.402	26.67
180.785	142.55
181.168	-237.84
181.55	125.97
181.933	170.23
182.316	131.28
182.698	84.36
183.081	148.54
183.463	233.84
183.846	388.83
184.228	736.68
184.611	1163.83
184.993	1042.08
185.376	-948.46
185.758	-1021.34
186.14	-762.84
186.522	-304.45
186.904	-301
187.287	-1900
187.669	-567.98
188.051	916.33
188.433	-503.71
188.815	-260.03
189.197	-437.16
189.579	-337.07
189.961	-347.55
190.342	-229.74
190.724	-127.54
191.106	-123.67
191.488	-144.09
191.869	-104.06
192.251	-142.3
192.633	-200.69
193.014	-255.53
193.396	-373.73
193.777	-410.18
194.159	-392.89
194.54	-459.19
194.922	-321.05
195.303	-498.44
195.684	-299.69
196.065	-141.51
196.447	-285.58
196.828	-1195.37
197.209	-271.35
197.59	-702.78
197.971	2639.13
198.352	-5219.15
198.733	450.07
199.114	539.93
199.495	440.34
199.876	239.63
200.257	-680.88
200.638	-50.22
201.018	-27.95
201.399	-14.08
201.78	-24.56
202.16	-54.31
202.541	-81.14
202.922	-187.37
203.302	-145.33
203.683	-133.53
204.063	-468.02
204.444	-306.85
204.824	-129.15
205.204	-315.53
205.585	-121.83
205.965	-79.42
206.345	-150.97
206.725	-144.02
207.106	-209.02
207.486	-288.06
207.866	-186.67
208.246	-522.57
208.626	783.42
209.006	280.28
209.386	111.9
209.766	110.95
210.145	910.13
210.525	-454.74
210.905	-20.48
211.285	38.11
211.664	-62.9
212.044	-23.16
212.424	-18.82
212.803	-31.25
213.183	-3.71
213.562	-18.15
213.942	-11.63
214.321	-6.88
214.701	-18.46
215.08	-25.39
215.459	-20.68
215.838	-25.76
216.218	-31.68
216.597	-10.81
216.976	-10.09
217.355	-6.94
217.734	-25.5
218.113	-21.07
218.492	2.44
218.871	-11.15
219.25	-13
219.629	-1.16
220.008	-32.92
220.387	-26.96
220.766	-16.83
221.144	-40.74
221.523	-27.76
221.902	-40.91
222.28	-47.33
222.659	0.21
223.037	-3.25
223.416	-7.21
223.794	-14.56
224.173	-7.78
224.551	-6.3
224.929	-17.48
225.308	1.35
225.686	6.95
226.064	4.49
226.442	1.18
226.821	6.25
227.199	1.75
227.577	-1.43
227.955	0.66
228.333	-1.62
228.711	2.02
229.089	6.34
229.467	0.04
229.845	3.39
230.222	2.17
230.6	-3.83
230.978	-1.38
231.356	1.31
231.733	4.45
232.111	6.19
232.488	3.4
232.866	5.47
233.243	1.58
233.621	2.05
233.998	1.39
234.376	0.06
234.753	-1.46
235.13	-0.85
235.508	1.01
235.885	1.08
236.262	1.75
236.639	0.77
237.016	1.15
237.393	3.44
237.77	4.11
238.147	4.26
238.524	5.94
238.901	5.12
239.278	4.93
239.655	4.44
240.032	3.98
240.409	4.05
240.785	3.9
241.162	4.73
241.539	4.48
241.915	5.55
242.292	5.35
242.668	5.48
243.045	5.36
243.421	5.1
243.798	4.84
244.174	4.63
244.551	4.43
244.927	4.15
245.303	4.21
245.679	4.19
246.056	3.9
246.432	3.78
246.808	3.89
247.184	3.64
247.56	3.62
247.936	3.52
248.312	3.41
248.688	3.51
249.064	3.43
249.44	3.53
249.815	3.31
250.191	3.51
250.567	3.65
250.943	3.74
251.318	3.92
251.694	4.2
252.069	4.22
252.445	4.28
252.82	4.45
253.196	4.2
253.571	4.09
253.947	4.47
254.322	4.41
254.697	4.14
255.073	4.11
255.448	3.91
255.823	3.85
256.198	4.04
256.573	3.93
256.948	3.92
257.323	3.9
257.698	4.02
258.073	4.07
258.448	3.95
258.823	3.91
259.198	3.87
259.573	3.75
259.948	3.55
260.322	3.55
260.697	3.47
261.072	3.47
261.446	3.57
261.821	3.53
262.195	3.71
262.57	3.73
262.944	3.83
263.319	3.95
263.693	3.98
264.067	4.08
264.442	4.09
264.816	4.03
265.19	4.06
265.564	3.8
265.938	3.66
266.313	3.59
266.687	3.6
267.061	3.69
267.435	3.54
267.809	3.89
268.183	4.01
268.556	3.95
268.93	4.09
269.304	3.95
269.678	4.05
270.051	3.81
270.425	3.79
270.799	3.78
271.172	3.73
271.546	3.66
271.919	3.41
272.293	3.41
272.666	3.44
273.04	3.4
273.413	3.58
273.787	3.65
274.16	3.76
274.533	3.79
274.906	3.67
275.279	3.91
275.653	3.72
276.026	3.5
276.399	3.44
276.772	3.33
277.145	3.24
277.518	3.07
277.891	3.2
278.263	3.29
278.636	3.41
279.009	3.43
279.382	3.51
279.755	3.67
280.127	3.79
280.5	3.75
280.872	3.78
281.245	3.58
281.617	3.56
281.99	3.5
282.362	3.58
282.735	3.55
283.107	3.56
283.479	3.64
283.852	3.7
284.224	3.71
284.596	3.74
284.968	3.76
285.34	3.82
285.713	3.83
286.085	3.83
286.457	3.73
286.829	3.78
287.201	3.78
287.572	3.7
287.944	3.57
288.316	3.6
288.688	3.65
289.06	3.75
289.431	3.75
289.803	3.77
290.175	3.68
290.546	3.8
290.918	3.78
291.289	3.83
291.661	3.93
292.032	4.03
292.403	4.03
292.775	4.13
293.146	4.05
293.517	4.06
293.889	4.1
294.26	4.08
294.631	4.08
295.002	4.08
295.373	4.16
295.744	4.29
296.115	4.39
296.486	4.26
296.857	4.18
297.228	4.24
297.599	4.19
297.97	4.22
298.34	4.2
298.711	4.19
299.082	4.26
299.452	4.27
299.823	4.46
300.194	4.36
300.564	4.35
300.935	4.48
301.305	4.42
301.676	4.4
302.046	4.53
302.416	4.56
302.787	4.56
303.157	4.62
303.527	4.5
303.897	4.49
304.267	4.76
304.637	4.77
305.008	4.78
305.378	5.04
305.748	5.15
306.117	5.17
306.487	5.32
306.857	5.26
307.227	5.37
307.597	5.23
307.967	5.5
308.336	5.57
308.706	5.69
309.076	5.9
309.445	6.03
309.815	5.93
310.184	5.87
310.554	5.94
310.923	5.99
311.293	5.96
311.662	5.86
312.031	5.85
312.401	5.93
312.77	5.98
313.139	5.89
313.508	5.97
313.877	6
314.246	6.03
314.616	6.09
314.985	6.16
315.353	6.25
315.722	6.28
316.091	6.3
316.46	6.39
316.829	6.34
317.198	6.28
317.567	6.31
317.935	6.33
318.304	6.41
318.672	6.36
319.041	6.61
319.41	6.85
319.778	6.8
320.147	6.94
320.515	6.99
320.883	7.02
321.252	7.02
321.62	6.95
321.988	6.95
322.357	6.99
322.725	6.82
323.093	6.98
323.461	6.91
323.829	6.89
324.197	6.94
324.565	7.02
324.933	7.1
325.301	7.29
325.669	7.4
326.037	7.44
326.405	7.59
326.772	7.63
327.14	7.59
327.508	7.53
327.875	7.52
328.243	7.54
328.61	7.63
328.978	7.54
329.346	7.62
329.713	7.55
330.08	7.61
330.448	7.73
330.815	7.63
331.182	7.76
331.55	7.89
331.917	7.92
332.284	7.88
332.651	7.88
333.018	7.82
333.385	7.8
333.752	7.89
334.119	7.92
334.486	7.95
334.853	7.95
335.22	8.03
335.587	8.07
335.954	8.19
336.32	8.32
336.687	8.54
337.054	8.61
337.42	8.77
337.787	8.77
338.153	8.75
338.52	8.83
338.886	8.85
339.253	8.81
339.619	8.81
339.986	8.9
340.352	8.99
340.718	8.99
341.084	9.07
341.451	9.11
341.817	9.1
342.183	9.19
342.549	9.3
342.915	9.45
343.281	9.55
343.647	9.47
344.013	9.29
344.379	9.22
344.745	9.2
345.11	9.08
345.476	9.1
345.842	9.09
346.208	9.09
346.573	9.04
346.939	9.15
347.304	9.12
347.67	9.06
348.035	9.06
348.401	9.08
348.766	9.12
349.132	9.08
349.497	9.18
349.862	9.07
350.228	9.07
350.593	8.99
350.958	8.97
351.323	8.95
351.688	9.08
352.053	9.06
352.418	9.15
352.783	9.21
353.148	9.18
353.513	9.18
353.878	9.11
354.243	9.18
354.608	9.2
354.972	9.17
355.337	9.25
355.702	9.24
356.066	9.31
356.431	9.28
356.795	9.31
357.16	9.17
357.524	9.1
357.889	9.06
358.253	9.03
358.618	9.04
358.982	9.03
359.346	8.97
359.71	8.89
360.075	8.83
360.439	8.84
360.803	8.8
361.167	8.81
361.531	8.84
361.895	8.79
362.259	8.68
362.623	8.68
362.987	8.65
363.351	8.65
363.714	8.61
364.078	8.55
364.442	8.5
364.806	8.46
365.169	8.51
365.533	8.47
365.896	8.42
366.26	8.33
366.623	8.33
366.987	8.28
367.35	8.33
367.714	8.29
368.077	8.2
368.44	8.16
368.803	8.16
369.167	8.06
369.53	8
369.893	8.04
370.256	7.93
370.619	7.8
370.982	7.69
371.345	7.64
371.708	7.63
372.071	7.51
372.434	7.54
372.797	7.49
373.159	7.46
373.522	7.45
373.885	7.45
374.247	7.4
374.61	7.31
374.973	7.25
375.335	7.22
375.698	7.25
376.06	7.2
376.423	7.13
376.785	7.1
377.147	7.14
377.51	7.1
377.872	7.2
378.234	7.21
378.596	7.18
378.958	7.11
379.321	7.14
379.683	7.15
380.045	7.08
380.407	7.04
380.769	6.96
381.13	6.89
381.492	6.83
381.854	6.79
382.216	6.78
382.578	6.78
382.939	6.73
383.301	6.64
383.663	6.58
384.024	6.55
384.386	6.55
384.747	6.52
385.109	6.44
385.47	6.34
385.832	6.3
386.193	6.31
386.554	6.29
386.916	6.24
387.277	6.21
387.638	6.23
387.999	6.18
388.36	6.18
388.721	6.16
389.082	6.13
389.443	6.07
389.804	6.02
390.165	5.93
390.526	5.91
390.887	5.88
391.248	5.9
391.609	5.88
391.969	5.87
392.33	5.79
392.691	5.76
393.051	5.71
393.412	5.68
393.772	5.59
394.133	5.57
394.493	5.5
394.854	5.44
395.214	5.38
395.574	5.35
395.935	5.31
396.295	5.31
396.655	5.25
397.015	5.18
397.376	5.13
397.736	5.14
398.096	5.07
398.456	5.03
398.816	5.01
399.176	4.94
399.535	4.86
399.895	4.83
400.255	4.81
400.615	4.8
400.975	4.74
401.334	4.75
401.694	4.71
402.054	4.67
402.413	4.64
402.773	4.58
403.132	4.59
403.492	4.58
403.851	4.55
404.211	4.55
404.57	4.57
404.929	4.58
405.288	4.53
405.648	4.54
406.007	4.53
406.366	4.5
406.725	4.48
407.084	4.47
407.443	4.48
407.802	4.47
408.161	4.44
408.52	4.42
408.879	4.36
409.238	4.37
409.596	4.4
409.955	4.39
410.314	4.4
410.673	4.33
411.031	4.32
411.39	4.28
411.748	4.29
412.107	4.26
412.465	4.27
412.824	4.27
413.182	4.23
413.54	4.2
413.899	4.18
414.257	4.17
414.615	4.13
414.974	4.11
415.332	4.08
415.69	4.05
416.048	4.05
416.406	4.06
416.764	4.03
417.122	3.99
417.48	3.97
417.838	3.95
418.195	3.96
418.553	3.95
418.911	3.92
419.269	3.9
419.626	3.89
419.984	3.85
420.342	3.83
420.699	3.83
421.057	3.85
421.414	3.84
421.772	3.82
422.129	3.81
422.486	3.81
422.844	3.81
423.201	3.8
423.558	3.78
423.915	3.78
424.273	3.77
424.63	3.75
424.987	3.76
425.344	3.75
425.701	3.74
426.058	3.72
426.415	3.74
426.772	3.73
427.128	3.71
427.485	3.73
427.842	3.72
428.199	3.71
428.555	3.67
428.912	3.66
429.269	3.67
429.625	3.66
429.982	3.64
430.338	3.65
430.695	3.66
431.051	3.64
431.407	3.64
431.764	3.64
432.12	3.64
432.476	3.6
432.832	3.59
433.189	3.57
433.545	3.56
433.901	3.56
434.257	3.54
434.613	3.56
434.969	3.58
435.325	3.57
435.681	3.58
436.036	3.59
436.392	3.59
436.748	3.59
437.104	3.59
437.459	3.57
437.815	3.56
438.171	3.55
438.526	3.57
438.882	3.57
439.237	3.58
439.593	3.6
439.948	3.61
440.304	3.61
440.659	3.6
441.014	3.61
441.369	3.58
441.725	3.58
442.08	3.58
442.435	3.56
442.79	3.57
443.145	3.57
443.5	3.56
443.855	3.55
444.21	3.55
444.565	3.55
444.92	3.55
445.275	3.54
445.629	3.53
445.984	3.51
446.339	3.5
446.693	3.48
447.048	3.45
447.403	3.45
447.757	3.45
448.112	3.45
448.466	3.45
448.82	3.46
449.175	3.46
449.529	3.45
449.883	3.45
450.238	3.43
450.592	3.41
450.946	3.41
451.3	3.39
451.654	3.38
452.008	3.38
452.362	3.38
452.716	3.39
453.07	3.39
453.424	3.4
453.778	3.4
454.132	3.41
454.486	3.4
454.839	3.41
455.193	3.4
455.547	3.4
455.9	3.42
456.254	3.44
456.607	3.46
456.961	3.47
457.314	3.46
457.668	3.46
458.021	3.44
458.375	3.46
458.728	3.46
459.081	3.46
459.434	3.47
459.787	3.48
460.141	3.48
460.494	3.48
460.847	3.48
461.2	3.49
461.553	3.5
461.906	3.52
462.259	3.53
462.611	3.56
462.964	3.56
463.317	3.55
463.67	3.56
464.022	3.54
464.375	3.52
464.728	3.52
465.08	3.56
465.433	3.59
465.785	3.6
466.138	3.59
466.49	3.61
466.843	3.6
467.195	3.59
467.547	3.6
467.899	3.63
468.252	3.61
468.604	3.61
468.956	3.61
469.308	3.6
469.66	3.59
470.012	3.59
470.364	3.61
470.716	3.62
471.068	3.62
471.42	3.64
471.772	3.68
472.123	3.71
472.475	3.7
472.827	3.72
473.178	3.72
473.53	3.75
473.882	3.76
474.233	3.77
474.585	3.77
474.936	3.76
475.288	3.75
475.639	3.78
475.99	3.78
476.342	3.77
476.693	3.77
477.044	3.77
477.395	3.75
477.746	3.73
478.097	3.71
478.448	3.71
478.8	3.69
479.15	3.66
479.501	3.64
479.852	3.64
480.203	3.63
480.554	3.63
480.905	3.63
481.255	3.62
481.606	3.63
481.957	3.64
482.307	3.66
482.658	3.65
483.009	3.65
483.359	3.64
483.709	3.64
484.06	3.64
484.41	3.66
484.761	3.66
485.111	3.66
485.461	3.67
485.811	3.67
486.162	3.67
486.512	3.69
486.862	3.7
487.212	3.71
487.562	3.71
487.912	3.72
488.262	3.71
488.612	3.72
488.961	3.72
489.311	3.73
489.661	3.73
490.011	3.74
490.36	3.75
490.71	3.76
491.06	3.77
491.409	3.78
491.759	3.78
492.108	3.79
492.458	3.81
492.807	3.81
493.157	3.83
493.506	3.84
493.855	3.84
494.204	3.84
494.554	3.85
494.903	3.86
495.252	3.89
495.601	3.93
495.95	3.95
496.299	3.97
496.648	3.99
496.997	4
497.346	4.03
497.695	4.08
498.043	4.12
498.392	4.17
498.741	4.18
499.09	4.21
499.438	4.25
499.787	4.28
500.135	4.31
500.484	4.35
500.832	4.39
501.181	4.46
501.529	4.53
501.878	4.56
502.226	4.59
502.574	4.62
502.923	4.66
503.271	4.7
503.619	4.76
503.967	4.81
504.315	4.86
504.663	4.9
505.011	4.94
505.359	4.97
505.707	5.03
506.055	5.09
506.403	5.15
506.751	5.23
507.098	5.3
507.446	5.39
507.794	5.44
508.141	5.51
508.489	5.56
508.837	5.62
509.184	5.69
509.531	5.77
509.879	5.85
510.226	5.91
510.574	5.97
510.921	6.05
511.268	6.11
511.616	6.2
511.963	6.3
512.31	6.35
512.657	6.45
513.004	6.53
513.351	6.62
513.698	6.7
514.045	6.77
514.392	6.84
514.739	6.91
515.086	7.01
515.432	7.09
515.779	7.17
516.126	7.27
516.473	7.35
516.819	7.44
517.166	7.51
517.512	7.6
517.859	7.69
518.205	7.75
518.552	7.85
518.898	7.93
519.245	7.98
519.591	8.07
519.937	8.12
520.283	8.19
520.629	8.28
520.976	8.37
521.322	8.47
521.668	8.58
522.014	8.68
522.36	8.77
522.706	8.89
523.052	9.02
523.398	9.14
523.743	9.28
524.089	9.42
524.435	9.56
524.781	9.7
525.126	9.83
525.472	9.96
525.817	10.06
526.163	10.17
526.509	10.26
526.854	10.36
527.199	10.46
527.545	10.54
527.89	10.63
528.235	10.72
528.581	10.81
528.926	10.91
529.271	11
529.616	11.12
529.961	11.21
530.306	11.32
530.651	11.44
530.996	11.55
531.341	11.67
531.686	11.8
532.031	11.92
532.376	12.05
532.721	12.19
533.065	12.34
533.41	12.47
533.755	12.63
534.099	12.8
534.444	12.98
534.788	13.14
535.133	13.31
535.477	13.49
535.822	13.66
536.166	13.86
536.51	14.1
536.855	14.31
537.199	14.56
537.543	14.82
537.887	15.06
538.231	15.29
538.576	15.54
538.92	15.8
539.264	16.04
539.608	16.29
539.951	16.48
540.295	16.68
540.639	16.89
540.983	17.1
541.327	17.29
541.671	17.48
542.014	17.69
542.358	17.89
542.701	18.08
543.045	18.31
543.389	18.51
543.732	18.71
544.075	18.94
544.419	19.16
544.762	19.37
545.105	19.61
545.449	19.9
545.792	20.17
546.135	20.46
546.478	20.79
546.821	21.04
547.165	21.38
547.508	21.72
547.851	22.06
548.194	22.38
548.536	22.69
548.879	23.04
549.222	23.4
549.565	23.73
549.908	24.1
550.25	24.41
550.593	24.75
550.936	25.1
551.278	25.38
551.621	25.7
551.963	26.06
552.306	26.39
552.648	26.64
552.991	26.97
553.333	27.22
553.675	27.49
554.017	27.82
554.36	28.08
554.702	28.34
555.044	28.67
555.386	28.97
555.728	29.29
556.07	29.57
556.412	29.85
556.754	30.14
557.096	30.44
557.438	30.73
557.78	31.04
558.121	31.36
558.463	31.71
558.805	31.98
559.147	32.25
559.488	32.57
559.83	32.87
560.171	33.13
560.513	33.5
560.854	33.8
561.196	34.1
561.537	34.41
561.878	34.71
562.22	34.93
562.561	35.16
562.902	35.42
563.243	35.69
563.584	35.93
563.925	36.18
564.266	36.38
564.607	36.66
564.948	36.93
565.289	37.16
565.63	37.43
565.971	37.65
566.312	37.9
566.653	38.11
566.993	38.39
567.334	38.62
567.675	38.8
568.015	38.98
568.356	39.19
568.696	39.39
569.037	39.56
569.377	39.78
569.718	39.98
570.058	40.19
570.398	40.39
570.739	40.59
571.079	40.84
571.419	41.08
571.759	41.23
572.099	41.36
572.439	41.51
572.779	41.59
573.119	41.78
573.459	41.94
573.799	42.11
574.139	42.19
574.479	42.31
574.819	42.46
575.158	42.61
575.498	42.71
575.838	42.89
576.177	43.05
576.517	43.2
576.856	43.4
577.196	43.55
577.535	43.71
577.875	43.84
578.214	43.95
578.553	44.07
578.893	44.21
579.232	44.33
579.571	44.49
579.91	44.78
580.25	44.91
580.589	45.01
580.928	45.12
581.267	45.31
581.606	45.54
581.945	45.68
582.283	45.82
582.622	46.01
582.961	46.12
583.3	46.29
583.639	46.47
583.977	46.61
584.316	46.69
584.654	46.78
584.993	46.86
585.332	46.98
585.67	47.11
586.008	47.25
586.347	47.44
586.685	47.54
587.024	47.55
587.362	47.7
587.7	47.81
588.038	47.96
588.376	48.07
588.715	48.05
589.053	48.09
589.391	48.14
589.729	48.18
590.067	48.24
590.404	48.28
590.742	48.34
591.08	48.39
591.418	48.51
591.756	48.6
592.093	48.7
592.431	48.72
592.769	48.82
593.106	48.9
593.444	48.94
593.781	48.99
594.119	49.04
594.456	49.08
594.793	49.12
595.131	49.13
595.468	49.13
595.805	49.24
596.143	49.37
596.48	49.41
596.817	49.51
597.154	49.56
597.491	49.68
597.828	49.72
598.165	49.79
598.502	49.82
598.839	49.87
599.176	49.92
599.512	49.97
599.849	49.96
600.186	49.98
600.523	50.06
600.859	50.08
601.196	50.16
601.532	50.18
601.869	50.21
602.205	50.27
602.542	50.35
602.878	50.31
603.215	50.3
603.551	50.4
603.887	50.4
604.223	50.43
604.56	50.42
604.896	50.5
605.232	50.5
605.568	50.56
605.904	50.63
606.24	50.67
606.576	50.75
606.912	50.85
607.248	50.88
607.583	50.95
607.919	51.07
608.255	51.08
608.591	51.14
608.926	51.29
609.262	51.35
609.597	51.41
609.933	51.53
610.268	51.57
610.604	51.6
610.939	51.68
611.275	51.75
611.61	51.82
611.945	51.83
612.281	51.88
612.616	51.92
612.951	51.97
613.286	52.06
613.621	52.09
613.956	52.16
614.291	52.24
614.626	52.2
614.961	52.16
615.296	52.25
615.631	52.35
615.966	52.29
616.3	52.32
616.635	52.34
616.97	52.4
617.304	52.47
617.639	52.45
617.973	52.48
618.308	52.44
618.642	52.38
618.977	52.35
619.311	52.44
619.646	52.52
619.98	52.5
620.314	52.56
620.648	52.67
620.983	52.64
621.317	52.68
621.651	52.76
621.985	52.89
622.319	52.98
622.653	52.93
622.987	53.02
623.321	52.98
623.655	53
623.988	52.99
624.322	53.04
624.656	53.2
624.99	53.19
625.323	53.27
625.657	53.28
625.99	53.36
626.324	53.42
626.657	53.32
626.991	53.31
627.324	53.27
627.658	53.28
627.991	53.35
628.324	53.38
628.657	53.41
628.991	53.39
629.324	53.4
629.657	53.39
629.99	53.4
630.323	53.39
630.656	53.42
630.989	53.38
631.322	53.33
631.655	53.32
631.987	53.4
632.32	53.42
632.653	53.48
632.986	53.56
633.318	53.52
633.651	53.6
633.984	53.63
634.316	53.6
634.649	53.56
634.981	53.51
635.313	53.56
635.646	53.52
635.978	53.51
636.31	53.52
636.643	53.6
636.975	53.57
637.307	53.66
637.639	53.72
637.971	53.8
638.303	53.93
638.635	53.8
638.967	53.75
639.299	53.79
639.631	53.74
639.963	53.74
640.295	53.86
640.626	53.91
640.958	54.12
641.29	54.26
641.621	54.31
641.953	54.42
642.285	54.42
642.616	54.5
642.948	54.49
643.279	54.6
643.61	54.59
643.942	54.54
644.273	54.63
644.604	54.61
644.936	54.65
645.267	54.62
645.598	54.72
645.929	54.86
646.26	54.85
646.591	54.87
646.922	54.76
647.253	54.71
647.584	54.67
647.915	54.59
648.245	54.6
648.576	54.64
648.907	54.48
649.238	54.42
649.568	54.44
649.899	54.45
650.229	54.34
650.56	54.51
650.89	54.67
651.221	54.63
651.551	54.61
651.882	54.64
652.212	54.62
652.542	54.6
652.872	54.56
653.203	54.56
653.533	54.66
653.863	54.64
654.193	54.57
654.523	54.56
654.853	54.4
655.183	54.38
655.513	54.34
655.843	54.44
656.172	54.54
656.502	54.52
656.832	54.54
657.162	54.56
657.491	54.44
657.821	54.4
658.15	54.51
658.48	54.46
658.809	54.46
659.139	54.54
659.468	54.5
659.798	54.52
660.127	54.52
660.456	54.58
660.785	54.59
661.115	54.69
661.444	54.66
661.773	54.79
662.102	54.8
662.431	54.81
662.76	54.92
663.089	54.93
663.418	55.03
663.747	55.07
664.076	55.11
664.404	55.15
664.733	55.15
665.062	55.07
665.39	55.22
665.719	55.23
666.048	55.09
666.376	55.25
666.705	55.23
