Data from BA28304_Reflection_00007.txt Node
Date: Mon Nov 18 15:36:09 EST 2019
User: vgr7
Spectrometer: USB2G7710
Scans to average: 3
Trigger mode: 4
Integration Time (sec): 2.000000E-2
Electric dark correction enabled: true
Boxcar width: 10
XAxis mode: Wavelengths
Number of Pixels in Spectrum: 2048
>>>>>Begin Spectral Data<<<<<
177.721	77.99
178.105	48.4
178.488	-66.59
178.871	-256.44
179.254	-287.1
179.636	-46.27
180.019	21.91
180.402	125.81
180.785	370.68
181.168	2350
181.55	-1311.76
181.933	160.34
182.316	113.69
182.698	48.53
183.081	81.15
183.463	239.53
183.846	-125.26
184.228	-150.58
184.611	-118.18
184.993	100
185.376	212.15
185.758	130.05
186.14	111.99
186.522	11
186.904	129.56
187.287	-306.37
187.669	-12.15
188.051	89.23
188.433	191.88
188.815	159.28
189.197	84.84
189.579	71.05
189.961	42.34
190.342	24.91
190.724	10.25
191.106	19.62
191.488	19.33
191.869	40.46
192.251	19.98
192.633	22.97
193.014	28.74
193.396	37.48
193.777	31.14
194.159	11.99
194.54	19.33
194.922	22.28
195.303	38.56
195.684	49.75
196.065	44.11
196.447	15.8
196.828	15.21
197.209	46.26
197.59	42.78
197.971	57.23
198.352	84.71
198.733	117.45
199.114	100
199.495	74.54
199.876	90.76
200.257	203.86
200.638	133.23
201.018	113.43
201.399	73.03
201.78	76.24
202.16	72.83
202.541	107.91
202.922	293.9
203.302	286.77
203.683	24.9
204.063	-35900
204.444	112.85
204.824	50.57
205.204	-1.24
205.585	2.82
205.965	-1.77
206.345	-137.19
206.725	-131.02
207.106	-265.42
207.486	557.4
207.866	-732.37
208.246	-71.13
208.626	-129.54
209.006	-122.92
209.386	-288.49
209.766	-298.87
210.145	-103.22
210.525	-53.23
210.905	-65.45
211.285	-12.79
211.664	-0.03
212.044	-0.86
212.424	15.12
212.803	19.2
213.183	48.92
213.562	58.68
213.942	75.86
214.321	92.52
214.701	134.5
215.08	116.9
215.459	72.05
215.838	27.54
216.218	-15.05
216.597	22.56
216.976	37.31
217.355	51.2
217.734	56.51
218.113	35.46
218.492	28.33
218.871	20.07
219.25	9.05
219.629	4.15
220.008	3.19
220.387	3.98
220.766	6.08
221.144	-5.5
221.523	-11.48
221.902	-14.78
222.28	-24.36
222.659	-8.32
223.037	3.04
223.416	16.81
223.794	29.14
224.173	40.79
224.551	36.09
224.929	30.34
225.308	20.19
225.686	21.99
226.064	24.4
226.442	18.64
226.821	23.21
227.199	19.9
227.577	18.96
227.955	18.24
228.333	16.96
228.711	16.86
229.089	16.19
229.467	15.35
229.845	16.66
230.222	17.35
230.6	14.59
230.978	12.88
231.356	12.59
231.733	12.83
232.111	11.71
232.488	11.1
232.866	11.9
233.243	12.89
233.621	10.53
233.998	11.46
234.376	11.54
234.753	8.7
235.13	9.75
235.508	10.09
235.885	8.76
236.262	8.59
236.639	8.83
237.016	7.81
237.393	8.48
237.77	8.95
238.147	9.26
238.524	7.99
238.901	8.05
239.278	8.06
239.655	8.49
240.032	8.16
240.409	7.49
240.785	7.33
241.162	7.54
241.539	7.95
241.915	7.44
242.292	7.54
242.668	8.13
243.045	7.87
243.421	7.58
243.798	7.71
244.174	7.88
244.551	8.07
244.927	8.13
245.303	8.23
245.679	8.11
246.056	8.07
246.432	8.29
246.808	8.31
247.184	8.05
247.56	7.63
247.936	7.85
248.312	7.97
248.688	7.97
249.064	7.96
249.44	7.82
249.815	7.77
250.191	7.76
250.567	7.59
250.943	7.61
251.318	7.75
251.694	7.66
252.069	7.57
252.445	7.19
252.82	7.24
253.196	7.2
253.571	7.1
253.947	6.88
254.322	7.15
254.697	6.88
255.073	7.11
255.448	7.38
255.823	7.07
256.198	6.96
256.573	7.13
256.948	7.3
257.323	7.41
257.698	7.36
258.073	7.46
258.448	7.56
258.823	7.49
259.198	7.39
259.573	7.35
259.948	7.41
260.322	7.51
260.697	7.49
261.072	7.29
261.446	7.23
261.821	7.28
262.195	7.15
262.57	7.26
262.944	7.02
263.319	6.95
263.693	6.81
264.067	7.15
264.442	7.25
264.816	7.02
265.19	6.94
265.564	6.93
265.938	6.76
266.313	6.62
266.687	6.81
267.061	6.9
267.435	6.85
267.809	6.64
268.183	6.68
268.556	6.61
268.93	6.77
269.304	6.83
269.678	6.95
270.051	6.81
270.425	6.77
270.799	6.98
271.172	6.92
271.546	7.15
271.919	6.82
272.293	6.64
272.666	6.82
273.04	6.93
273.413	6.9
273.787	7
274.16	7.07
274.533	6.96
274.906	6.81
275.279	6.93
275.653	7.01
276.026	6.85
276.399	6.96
276.772	7.04
277.145	6.79
277.518	6.67
277.891	6.68
278.263	6.59
278.636	6.5
279.009	6.58
279.382	6.53
279.755	6.61
280.127	6.86
280.5	6.52
280.872	6.46
281.245	6.44
281.617	6.59
281.99	6.74
282.362	6.69
282.735	6.75
283.107	6.78
283.479	6.8
283.852	7
284.224	6.97
284.596	6.94
284.968	7.18
285.34	7.27
285.713	7.38
286.085	7.4
286.457	7.44
286.829	7.42
287.201	7.46
287.572	7.52
287.944	7.44
288.316	7.6
288.688	7.64
289.06	7.79
289.431	7.96
289.803	8
290.175	8.14
290.546	8.28
290.918	8.37
291.289	8.56
291.661	8.54
292.032	8.64
292.403	8.66
292.775	8.72
293.146	8.71
293.517	8.7
293.889	8.89
294.26	8.94
294.631	9.13
295.002	9.17
295.373	9.3
295.744	9.37
296.115	9.46
296.486	9.36
296.857	9.36
297.228	9.35
297.599	9.26
297.97	9.32
298.34	9.32
298.711	9.4
299.082	9.28
299.452	9.38
299.823	9.58
300.194	9.7
300.564	9.74
300.935	9.77
301.305	9.94
301.676	10.06
302.046	10.35
302.416	10.48
302.787	10.55
303.157	10.54
303.527	10.58
303.897	10.74
304.267	10.9
304.637	10.96
305.008	10.97
305.378	11.17
305.748	11.45
306.117	11.52
306.487	11.55
306.857	11.83
307.227	11.94
307.597	11.88
307.967	12.09
308.336	12.19
308.706	12.46
309.076	12.49
309.445	12.53
309.815	12.39
310.184	12.39
310.554	12.61
310.923	12.72
311.293	12.8
311.662	12.8
312.031	13.02
312.401	13.26
312.77	13.4
313.139	13.47
313.508	13.43
313.877	13.56
314.246	13.67
314.616	13.74
314.985	13.88
315.353	14.02
315.722	14.16
316.091	14.31
316.46	14.35
316.829	14.61
317.198	14.81
317.567	15.03
317.935	15.01
318.304	15.11
318.672	15.09
319.041	15.15
319.41	15.45
319.778	15.57
320.147	15.69
320.515	15.64
320.883	15.7
321.252	15.82
321.62	15.94
321.988	16.04
322.357	16.11
322.725	16.09
323.093	16.2
323.461	16.17
323.829	16.19
324.197	16.31
324.565	16.42
324.933	16.37
325.301	16.49
325.669	16.77
326.037	16.76
326.405	16.97
326.772	17.24
327.14	17.27
327.508	17.32
327.875	17.32
328.243	17.51
328.61	17.68
328.978	17.73
329.346	17.83
329.713	17.97
330.08	18.18
330.448	18.36
330.815	18.51
331.182	18.61
331.55	18.75
331.917	18.91
332.284	18.99
332.651	19.03
333.018	19.13
333.385	19.05
333.752	19.14
334.119	19.29
334.486	19.19
334.853	19.23
335.22	19.26
335.587	19.23
335.954	19.26
336.32	19.23
336.687	19.26
337.054	19.29
337.42	19.34
337.787	19.29
338.153	19.2
338.52	19.27
338.886	19.18
339.253	19.21
339.619	19.18
339.986	19.18
340.352	19.43
340.718	19.57
341.084	19.72
341.451	19.84
341.817	20
342.183	19.97
342.549	20.06
342.915	20.19
343.281	20.38
343.647	20.41
344.013	20.58
344.379	20.53
344.745	20.72
345.11	20.77
345.476	20.92
345.842	21.02
346.208	21.15
346.573	21.3
346.939	21.5
347.304	21.58
347.67	21.6
348.035	21.59
348.401	21.59
348.766	21.67
349.132	21.7
349.497	21.64
349.862	21.85
350.228	21.72
350.593	21.6
350.958	21.67
351.323	21.77
351.688	21.72
352.053	21.79
352.418	21.76
352.783	21.74
353.148	21.64
353.513	21.8
353.878	21.65
354.243	21.7
354.608	21.67
354.972	21.58
355.337	21.64
355.702	21.6
356.066	21.55
356.431	21.55
356.795	21.56
357.16	21.54
357.524	21.42
357.889	21.51
358.253	21.59
358.618	21.48
358.982	21.49
359.346	21.49
359.71	21.51
360.075	21.48
360.439	21.46
360.803	21.43
361.167	21.28
361.531	21.29
361.895	21.25
362.259	21.14
362.623	21.19
362.987	21.1
363.351	21.11
363.714	21.02
364.078	20.94
364.442	20.85
364.806	20.8
365.169	20.81
365.533	20.77
365.896	20.71
366.26	20.65
366.623	20.55
366.987	20.45
367.35	20.39
367.714	20.28
368.077	20.3
368.44	20.26
368.803	20.16
369.167	20.1
369.53	19.96
369.893	19.96
370.256	19.87
370.619	19.81
370.982	19.6
371.345	19.61
371.708	19.59
372.071	19.56
372.434	19.51
372.797	19.45
373.159	19.36
373.522	19.34
373.885	19.33
374.247	19.26
374.61	19.24
374.973	19.1
375.335	19.06
375.698	18.85
376.06	18.76
376.423	18.75
376.785	18.7
377.147	18.73
377.51	18.64
377.872	18.56
378.234	18.51
378.596	18.47
378.958	18.32
379.321	18.21
379.683	18.12
380.045	17.98
380.407	17.93
380.769	17.87
381.13	17.75
381.492	17.6
381.854	17.51
382.216	17.39
382.578	17.37
382.939	17.29
383.301	17.21
383.663	17.18
384.024	17.1
384.386	17.01
384.747	16.95
385.109	16.86
385.47	16.73
385.832	16.61
386.193	16.55
386.554	16.51
386.916	16.42
387.277	16.32
387.638	16.28
387.999	16.11
388.36	15.99
388.721	15.91
389.082	15.85
389.443	15.74
389.804	15.62
390.165	15.52
390.526	15.43
390.887	15.38
391.248	15.28
391.609	15.19
391.969	15.05
392.33	14.9
392.691	14.79
393.051	14.72
393.412	14.63
393.772	14.54
394.133	14.45
394.493	14.3
394.854	14.2
395.214	14.11
395.574	14.08
395.935	14.01
396.295	13.88
396.655	13.76
397.015	13.66
397.376	13.57
397.736	13.48
398.096	13.37
398.456	13.25
398.816	13.16
399.176	13.03
399.535	12.95
399.895	12.88
400.255	12.8
400.615	12.73
400.975	12.64
401.334	12.52
401.694	12.38
402.054	12.32
402.413	12.28
402.773	12.14
403.132	12.07
403.492	12.01
403.851	11.93
404.211	11.86
404.57	11.8
404.929	11.75
405.288	11.71
405.648	11.63
406.007	11.57
406.366	11.51
406.725	11.5
407.084	11.43
407.443	11.33
407.802	11.29
408.161	11.24
408.52	11.2
408.879	11.16
409.238	11.17
409.596	11.16
409.955	11.08
410.314	11.08
410.673	11.01
411.031	10.94
411.39	10.91
411.748	10.87
412.107	10.85
412.465	10.78
412.824	10.7
413.182	10.61
413.54	10.57
413.899	10.52
414.257	10.46
414.615	10.41
414.974	10.41
415.332	10.3
415.69	10.19
416.048	10.12
416.406	10.07
416.764	9.97
417.122	9.88
417.48	9.79
417.838	9.71
418.195	9.63
418.553	9.57
418.911	9.49
419.269	9.43
419.626	9.36
419.984	9.29
420.342	9.22
420.699	9.2
421.057	9.15
421.414	9.06
421.772	9
422.129	8.96
422.486	8.9
422.844	8.86
423.201	8.82
423.558	8.77
423.915	8.71
424.273	8.69
424.63	8.65
424.987	8.64
425.344	8.61
425.701	8.57
426.058	8.54
426.415	8.53
426.772	8.51
427.128	8.48
427.485	8.46
427.842	8.44
428.199	8.41
428.555	8.36
428.912	8.38
429.269	8.36
429.625	8.31
429.982	8.27
430.338	8.25
430.695	8.25
431.051	8.24
431.407	8.24
431.764	8.2
432.12	8.19
432.476	8.16
432.832	8.16
433.189	8.16
433.545	8.15
433.901	8.13
434.257	8.1
434.613	8.12
434.969	8.11
435.325	8.13
435.681	8.15
436.036	8.15
436.392	8.15
436.748	8.13
437.104	8.14
437.459	8.15
437.815	8.15
438.171	8.14
438.526	8.17
438.882	8.16
439.237	8.17
439.593	8.16
439.948	8.14
440.304	8.14
440.659	8.13
441.014	8.14
441.369	8.11
441.725	8.09
442.08	8.06
442.435	8.04
442.79	8.01
443.145	7.97
443.5	7.96
443.855	7.91
444.21	7.88
444.565	7.85
444.92	7.82
445.275	7.79
445.629	7.76
445.984	7.71
446.339	7.68
446.693	7.63
447.048	7.58
447.403	7.57
447.757	7.52
448.112	7.49
448.466	7.43
448.82	7.41
449.175	7.4
449.529	7.38
449.883	7.35
450.238	7.31
450.592	7.28
450.946	7.23
451.3	7.19
451.654	7.18
452.008	7.19
452.362	7.15
452.716	7.14
453.07	7.14
453.424	7.12
453.778	7.11
454.132	7.1
454.486	7.12
454.839	7.11
455.193	7.1
455.547	7.12
455.9	7.13
456.254	7.15
456.607	7.16
456.961	7.17
457.314	7.17
457.668	7.2
458.021	7.2
458.375	7.23
458.728	7.25
459.081	7.25
459.434	7.23
459.787	7.26
460.141	7.26
460.494	7.26
460.847	7.28
461.2	7.31
461.553	7.35
461.906	7.38
462.259	7.43
462.611	7.48
462.964	7.52
463.317	7.55
463.67	7.58
464.022	7.61
464.375	7.62
464.728	7.68
465.08	7.7
465.433	7.76
465.785	7.77
466.138	7.84
466.49	7.89
466.843	7.96
467.195	8.02
467.547	8.06
467.899	8.11
468.252	8.15
468.604	8.2
468.956	8.22
469.308	8.23
469.66	8.25
470.012	8.24
470.364	8.24
470.716	8.28
471.068	8.3
471.42	8.32
471.772	8.37
472.123	8.4
472.475	8.45
472.827	8.47
473.178	8.51
473.53	8.5
473.882	8.49
474.233	8.48
474.585	8.47
474.936	8.48
475.288	8.48
475.639	8.44
475.99	8.42
476.342	8.39
476.693	8.38
477.044	8.36
477.395	8.37
477.746	8.35
478.097	8.29
478.448	8.25
478.8	8.23
479.15	8.18
479.501	8.14
479.852	8.13
480.203	8.09
480.554	8.07
480.905	8.05
481.255	8.05
481.606	8.04
481.957	8.03
482.307	8.01
482.658	8.01
483.009	8.02
483.359	8.01
483.709	8.02
484.06	8.01
484.41	8.02
484.761	8.02
485.111	8.03
485.461	8.04
485.811	8.05
486.162	8.05
486.512	8.08
486.862	8.09
487.212	8.09
487.562	8.11
487.912	8.13
488.262	8.15
488.612	8.17
488.961	8.2
489.311	8.22
489.661	8.26
490.011	8.28
490.36	8.31
490.71	8.35
491.06	8.38
491.409	8.42
491.759	8.45
492.108	8.51
492.458	8.55
492.807	8.62
493.157	8.67
493.506	8.74
493.855	8.79
494.204	8.86
494.554	8.94
494.903	9
495.252	9.09
495.601	9.18
495.95	9.28
496.299	9.38
496.648	9.5
496.997	9.6
497.346	9.73
497.695	9.83
498.043	9.95
498.392	10.07
498.741	10.22
499.09	10.34
499.438	10.46
499.787	10.6
500.135	10.72
500.484	10.86
500.832	10.99
501.181	11.14
501.529	11.28
501.878	11.45
502.226	11.62
502.574	11.78
502.923	11.92
503.271	12.07
503.619	12.24
503.967	12.39
504.315	12.54
504.663	12.7
505.011	12.84
505.359	13.01
505.707	13.19
506.055	13.32
506.403	13.52
506.751	13.68
507.098	13.85
507.446	14.05
507.794	14.24
508.141	14.4
508.489	14.58
508.837	14.77
509.184	14.93
509.531	15.13
509.879	15.31
510.226	15.53
510.574	15.71
510.921	15.86
511.268	16.02
511.616	16.2
511.963	16.39
512.31	16.59
512.657	16.79
513.004	16.98
513.351	17.21
513.698	17.43
514.045	17.63
514.392	17.86
514.739	18.03
515.086	18.23
515.432	18.44
515.779	18.64
516.126	18.83
516.473	19.02
516.819	19.15
517.166	19.31
517.512	19.47
517.859	19.66
518.205	19.86
518.552	20.05
518.898	20.22
519.245	20.4
519.591	20.56
519.937	20.7
520.283	20.9
520.629	21.1
520.976	21.27
521.322	21.48
521.668	21.69
522.014	21.93
522.36	22.15
522.706	22.37
523.052	22.66
523.398	22.98
523.743	23.26
524.089	23.6
524.435	23.9
524.781	24.19
525.126	24.44
525.472	24.67
525.817	24.89
526.163	25.11
526.509	25.31
526.854	25.49
527.199	25.69
527.545	25.86
527.89	26.01
528.235	26.2
528.581	26.39
528.926	26.56
529.271	26.75
529.616	26.94
529.961	27.15
530.306	27.35
530.651	27.52
530.996	27.76
531.341	27.99
531.686	28.23
532.031	28.47
532.376	28.72
532.721	28.97
533.065	29.22
533.41	29.49
533.755	29.76
534.099	30.03
534.444	30.32
534.788	30.61
535.133	30.91
535.477	31.21
535.822	31.51
536.166	31.86
536.51	32.25
536.855	32.62
537.199	32.96
537.543	33.33
537.887	33.76
538.231	34.12
538.576	34.52
538.92	34.88
539.264	35.23
539.608	35.54
539.951	35.87
540.295	36.2
540.639	36.47
540.983	36.74
541.327	37.06
541.671	37.32
542.014	37.58
542.358	37.85
542.701	38.07
543.045	38.34
543.389	38.57
543.732	38.78
544.075	39.04
544.419	39.32
544.762	39.62
545.105	39.86
545.449	40.16
545.792	40.43
546.135	40.74
546.478	41.06
546.821	41.43
547.165	41.77
547.508	42.12
547.851	42.49
548.194	42.88
548.536	43.19
548.879	43.59
549.222	43.93
549.565	44.29
549.908	44.7
550.25	45.07
550.593	45.43
550.936	45.8
551.278	46.13
551.621	46.47
551.963	46.75
552.306	47.14
552.648	47.45
552.991	47.78
553.333	48.02
553.675	48.32
554.017	48.57
554.36	48.81
554.702	49.11
555.044	49.43
555.386	49.64
555.728	49.92
556.07	50.18
556.412	50.5
556.754	50.72
557.096	50.99
557.438	51.25
557.78	51.6
558.121	51.93
558.463	52.18
558.805	52.49
559.147	52.71
559.488	52.96
559.83	53.17
560.171	53.35
560.513	53.65
560.854	53.88
561.196	54.13
561.537	54.41
561.878	54.57
562.22	54.75
562.561	54.93
562.902	55.17
563.243	55.34
563.584	55.57
563.925	55.78
564.266	55.94
564.607	56.11
564.948	56.24
565.289	56.38
565.63	56.59
565.971	56.76
566.312	57
566.653	57.18
566.993	57.37
567.334	57.55
567.675	57.67
568.015	57.81
568.356	58.01
568.696	58.19
569.037	58.36
569.377	58.54
569.718	58.77
570.058	58.88
570.398	59.03
570.739	59.11
571.079	59.25
571.419	59.42
571.759	59.59
572.099	59.73
572.439	59.91
572.779	59.99
573.119	60.1
573.459	60.17
573.799	60.26
574.139	60.34
574.479	60.47
574.819	60.59
575.158	60.67
575.498	60.68
575.838	60.76
576.177	60.86
576.517	60.95
576.856	61.02
577.196	61.15
577.535	61.27
577.875	61.44
578.214	61.57
578.553	61.7
578.893	61.77
579.232	61.87
579.571	61.96
579.91	62.15
580.25	62.27
580.589	62.39
580.928	62.53
581.267	62.76
581.606	62.81
581.945	62.95
582.283	63.15
582.622	63.34
582.961	63.54
583.3	63.62
583.639	63.68
583.977	63.78
584.316	63.86
584.654	64
584.993	64.01
585.332	64.11
585.67	64.13
586.008	64.18
586.347	64.27
586.685	64.16
587.024	64.2
587.362	64.33
587.7	64.35
588.038	64.35
588.376	64.33
588.715	64.4
589.053	64.44
589.391	64.44
589.729	64.5
590.067	64.46
590.404	64.56
590.742	64.59
591.08	64.67
591.418	64.82
591.756	64.83
592.093	64.88
592.431	64.91
592.769	64.99
593.106	64.96
593.444	65.03
593.781	65.12
594.119	65.26
594.456	65.23
594.793	65.29
595.131	65.39
595.468	65.46
595.805	65.61
596.143	65.65
596.48	65.74
596.817	65.72
597.154	65.81
597.491	65.79
597.828	65.88
598.165	65.88
598.502	65.85
598.839	65.84
599.176	65.84
599.512	65.93
599.849	65.98
600.186	66.16
600.523	66.21
600.859	66.33
601.196	66.26
601.532	66.29
601.869	66.39
602.205	66.46
602.542	66.45
602.878	66.41
603.215	66.54
603.551	66.57
603.887	66.62
604.223	66.62
604.56	66.66
604.896	66.63
605.232	66.65
605.568	66.62
605.904	66.7
606.24	66.84
606.576	66.83
606.912	66.84
607.248	66.88
607.583	66.86
607.919	66.9
608.255	66.92
608.591	66.95
608.926	66.92
609.262	66.89
609.597	66.92
609.933	66.91
610.268	66.86
610.604	66.81
610.939	66.9
611.275	66.88
611.61	66.97
611.945	67.02
612.281	67.12
612.616	67.28
612.951	67.32
613.286	67.36
613.621	67.35
613.956	67.38
614.291	67.33
614.626	67.37
614.961	67.4
615.296	67.53
615.631	67.57
615.966	67.76
616.3	67.87
616.635	67.87
616.97	67.93
617.304	67.93
617.639	68
617.973	68.03
618.308	68.1
618.642	68.1
618.977	68.07
619.311	68.09
619.646	68.11
619.98	68.11
620.314	68.05
620.648	68.06
620.983	68.09
621.317	68.12
621.651	68.23
621.985	68.19
622.319	68.18
622.653	68.18
622.987	68.08
623.321	68.13
623.655	68.22
623.988	68.36
624.322	68.46
624.656	68.53
624.99	68.57
625.323	68.57
625.657	68.5
625.99	68.56
626.324	68.4
626.657	68.41
626.991	68.49
627.324	68.54
627.658	68.66
627.991	68.73
628.324	68.74
628.657	68.64
628.991	68.69
629.324	68.73
629.657	68.82
629.99	68.9
630.323	68.88
630.656	68.88
630.989	68.98
631.322	68.92
631.655	68.89
631.987	68.83
632.32	68.94
632.653	69.1
632.986	69.3
633.318	69.45
633.651	69.52
633.984	69.53
634.316	69.53
634.649	69.51
634.981	69.38
635.313	69.44
635.646	69.67
635.978	69.69
636.31	69.69
636.643	69.71
636.975	69.71
637.307	69.68
637.639	69.71
637.971	69.62
638.303	69.89
638.635	69.9
638.967	69.92
639.299	69.99
639.631	69.96
639.963	69.83
640.295	69.9
640.626	69.81
640.958	69.77
641.29	69.88
641.621	69.79
641.953	69.95
642.285	70.01
642.616	69.9
642.948	69.95
643.279	69.95
643.61	69.99
643.942	70.01
644.273	69.99
644.604	69.99
644.936	69.84
645.267	69.65
645.598	69.67
645.929	69.69
646.26	69.48
646.591	69.49
646.922	69.55
647.253	69.58
647.584	69.51
647.915	69.62
648.245	69.54
648.576	69.67
648.907	69.56
649.238	69.57
649.568	69.51
649.899	69.54
650.229	69.58
650.56	69.57
650.89	69.64
651.221	69.76
651.551	69.79
651.882	69.96
652.212	69.93
652.542	69.85
652.872	69.91
653.203	70.02
653.533	70.06
653.863	70.06
654.193	70.05
654.523	70.25
654.853	70.21
655.183	70.36
655.513	70.34
655.843	70.46
656.172	70.45
656.502	70.52
656.832	70.51
657.162	70.56
657.491	70.64
657.821	70.55
658.15	70.47
658.48	70.51
658.809	70.43
659.139	70.42
659.468	70.56
659.798	70.57
