Data from BA28467_Reflection_00013.txt Node
Date: Mon Nov 18 15:33:29 EST 2019
User: vgr7
Spectrometer: USB2G7710
Scans to average: 3
Trigger mode: 4
Integration Time (sec): 2.000000E-2
Electric dark correction enabled: true
Boxcar width: 10
XAxis mode: Wavelengths
Number of Pixels in Spectrum: 2048
>>>>>Begin Spectral Data<<<<<
177.721	118.67
178.105	186.29
178.488	177.18
178.871	210.17
179.254	-15.58
179.636	80.24
180.019	1251.9
180.402	73.33
180.785	-304.26
181.168	-156.76
181.55	164.94
181.933	83.21
182.316	54.19
182.698	16.34
183.081	-29.71
183.463	-196.37
183.846	-518.53
184.228	-913.84
184.611	-840.43
184.993	-706.95
185.376	677.09
185.758	522.59
186.14	426.68
186.522	183.92
186.904	203.36
187.287	504.58
187.669	263.06
188.051	-229.45
188.433	250.08
188.815	114.04
189.197	216.04
189.579	104.88
189.961	99
190.342	95.56
190.724	47.82
191.106	38.59
191.488	24.8
191.869	3.12
192.251	-1.73
192.633	-8.52
193.014	14.03
193.396	-0.92
193.777	5.92
194.159	2.37
194.54	44.76
194.922	41.44
195.303	58.84
195.684	30.05
196.065	58.32
196.447	99.16
196.828	438.08
197.209	82.09
197.59	362.18
197.971	-1247.83
198.352	3142.55
198.733	-217.07
199.114	-341.77
199.495	-322.56
199.876	-156.71
200.257	669.72
200.638	188.21
201.018	74.31
201.399	68.49
201.78	88.01
202.16	105.48
202.541	89.88
202.922	139.54
203.302	117.2
203.683	124.19
204.063	269.45
204.444	213.49
204.824	115.58
205.204	296.12
205.585	115.08
205.965	48.81
206.345	38.43
206.725	6.56
207.106	-49.57
207.486	-80.46
207.866	-55.66
208.246	-207.39
208.626	677.89
209.006	136.62
209.386	87.36
209.766	127.38
210.145	1783.54
210.525	-739.42
210.905	-170.22
211.285	-68.3
211.664	-89.4
212.044	-77.11
212.424	-52.17
212.803	-74.83
213.183	-66.74
213.562	-37.97
213.942	-25.68
214.321	-21.28
214.701	-14.81
215.08	-11.73
215.459	-4.99
215.838	9.72
216.218	1.38
216.597	36.78
216.976	41.27
217.355	52.84
217.734	42.3
218.113	63.14
218.492	61.58
218.871	42.52
219.25	59.3
219.629	49.75
220.008	51.21
220.387	34.78
220.766	37.16
221.144	23.59
221.523	2.77
221.902	-8.82
222.28	-11.6
222.659	-2.53
223.037	3.13
223.416	5.42
223.794	11.36
224.173	12.13
224.551	11.26
224.929	-8.37
225.308	-8.64
225.686	-5.85
226.064	-2.74
226.442	-4.33
226.821	3.32
227.199	-0.49
227.577	-1.66
227.955	-5.18
228.333	0.26
228.711	-1.15
229.089	4.49
229.467	0.52
229.845	1.96
230.222	3.83
230.6	1.25
230.978	0.97
231.356	4.57
231.733	3.11
232.111	3.78
232.488	3.06
232.866	6.41
233.243	6.6
233.621	5.96
233.998	6.31
234.376	6.83
234.753	5.23
235.13	5.78
235.508	6.3
235.885	7.05
236.262	5.52
236.639	6.04
237.016	5.17
237.393	6.96
237.77	6.94
238.147	5.76
238.524	5.8
238.901	6.58
239.278	4.89
239.655	4.54
240.032	3.94
240.409	3.35
240.785	3.58
241.162	3.57
241.539	3.75
241.915	3.43
242.292	3.28
242.668	3.47
243.045	3.73
243.421	3.17
243.798	3.55
244.174	3.55
244.551	3.62
244.927	3.28
245.303	3.36
245.679	3.29
246.056	3.47
246.432	3.53
246.808	3.37
247.184	3.43
247.56	3.34
247.936	3.66
248.312	3.64
248.688	3.52
249.064	3.44
249.44	3.54
249.815	3.49
250.191	3.57
250.567	3.59
250.943	3.36
251.318	3.8
251.694	3.74
252.069	3.7
252.445	3.68
252.82	3.83
253.196	3.43
253.571	3.56
253.947	3.59
254.322	3.75
254.697	3.67
255.073	3.63
255.448	3.76
255.823	3.81
256.198	3.79
256.573	3.81
256.948	3.89
257.323	3.79
257.698	3.75
258.073	3.69
258.448	3.64
258.823	3.68
259.198	3.59
259.573	3.52
259.948	3.59
260.322	3.41
260.697	3.46
261.072	3.57
261.446	3.45
261.821	3.28
262.195	3.21
262.57	3.14
262.944	3.14
263.319	3.06
263.693	2.91
264.067	3.09
264.442	3
264.816	2.99
265.19	3
265.564	3.1
265.938	2.93
266.313	2.8
266.687	2.77
267.061	2.85
267.435	2.8
267.809	2.74
268.183	2.88
268.556	2.8
268.93	2.87
269.304	2.9
269.678	3.15
270.051	3.14
270.425	3.17
270.799	3.23
271.172	3.33
271.546	3.27
271.919	3.04
272.293	3.11
272.666	2.96
273.04	2.98
273.413	2.86
273.787	2.98
274.16	3.16
274.533	3.31
274.906	3.25
275.279	3.27
275.653	3.46
276.026	3.43
276.399	3.51
276.772	3.61
277.145	3.79
277.518	3.79
277.891	3.77
278.263	3.76
278.636	3.69
279.009	3.65
279.382	3.69
279.755	3.69
280.127	3.74
280.5	3.81
280.872	3.89
281.245	3.91
281.617	3.97
281.99	3.93
282.362	3.84
282.735	3.62
283.107	3.55
283.479	3.48
283.852	3.48
284.224	3.42
284.596	3.3
284.968	3.17
285.34	3.15
285.713	3.23
286.085	3.32
286.457	3.36
286.829	3.45
287.201	3.58
287.572	3.55
287.944	3.41
288.316	3.43
288.688	3.46
289.06	3.45
289.431	3.35
289.803	3.32
290.175	3.33
290.546	3.48
290.918	3.6
291.289	3.54
291.661	3.65
292.032	3.78
292.403	3.85
292.775	4.02
293.146	3.91
293.517	3.9
293.889	3.88
294.26	3.92
294.631	3.85
295.002	3.76
295.373	3.84
295.744	4.01
296.115	4.07
296.486	4.01
296.857	4.13
297.228	4.25
297.599	4.41
297.97	4.48
298.34	4.52
298.711	4.55
299.082	4.6
299.452	4.53
299.823	4.52
300.194	4.53
300.564	4.38
300.935	4.58
301.305	4.61
301.676	4.66
302.046	4.67
302.416	4.76
302.787	4.8
303.157	4.95
303.527	4.87
303.897	4.88
304.267	4.96
304.637	5.02
305.008	5.04
305.378	5.05
305.748	5.07
306.117	5.01
306.487	5.01
306.857	5.09
307.227	5.1
307.597	5.15
307.967	5.31
308.336	5.45
308.706	5.27
309.076	5.25
309.445	5.17
309.815	5.2
310.184	5.24
310.554	5.31
310.923	5.18
311.293	5.31
311.662	5.4
312.031	5.44
312.401	5.53
312.77	5.6
313.139	5.69
313.508	5.67
313.877	5.79
314.246	5.94
314.616	5.99
314.985	6.12
315.353	6.17
315.722	6.14
316.091	6.09
316.46	6.24
316.829	6.35
317.198	6.66
317.567	6.75
317.935	6.75
318.304	6.85
318.672	7.03
319.041	7.06
319.41	7.1
319.778	7.09
320.147	6.94
320.515	6.92
320.883	6.78
321.252	6.93
321.62	7.02
321.988	6.9
322.357	6.9
322.725	6.97
323.093	7
323.461	6.92
323.829	7.14
324.197	7.33
324.565	7.43
324.933	7.39
325.301	7.51
325.669	7.58
326.037	7.55
326.405	7.65
326.772	7.7
327.14	7.71
327.508	7.74
327.875	7.73
328.243	7.86
328.61	7.98
328.978	7.97
329.346	7.95
329.713	8.05
330.08	8.11
330.448	8.06
330.815	8.01
331.182	8.22
331.55	8.13
331.917	8.03
332.284	7.99
332.651	8.07
333.018	8.12
333.385	8.25
333.752	8.14
334.119	8.18
334.486	8.18
334.853	8.42
335.22	8.51
335.587	8.63
335.954	8.55
336.32	8.58
336.687	8.68
337.054	8.73
337.42	8.8
337.787	8.88
338.153	9.01
338.52	9.11
338.886	9.09
339.253	9.16
339.619	9.23
339.986	9.36
340.352	9.31
340.718	9.2
341.084	9.22
341.451	9.45
341.817	9.42
342.183	9.4
342.549	9.31
342.915	9.47
343.281	9.5
343.647	9.64
344.013	9.7
344.379	9.66
344.745	9.72
345.11	9.66
345.476	9.69
345.842	9.56
346.208	9.58
346.573	9.63
346.939	9.8
347.304	9.78
347.67	9.64
348.035	9.59
348.401	9.64
348.766	9.66
349.132	9.69
349.497	9.72
349.862	9.74
350.228	9.8
350.593	9.72
350.958	9.69
351.323	9.65
351.688	9.6
352.053	9.61
352.418	9.56
352.783	9.63
353.148	9.68
353.513	9.78
353.878	9.82
354.243	9.87
354.608	9.71
354.972	9.75
355.337	9.79
355.702	9.86
356.066	9.9
356.431	9.8
356.795	9.73
357.16	9.69
357.524	9.71
357.889	9.57
358.253	9.51
358.618	9.52
358.982	9.49
359.346	9.51
359.71	9.47
360.075	9.48
360.439	9.46
360.803	9.35
361.167	9.31
361.531	9.22
361.895	9.12
362.259	9.05
362.623	9.03
362.987	9.03
363.351	9.03
363.714	8.96
364.078	8.97
364.442	8.91
364.806	8.92
365.169	8.9
365.533	8.87
365.896	8.86
366.26	8.87
366.623	8.8
366.987	8.72
367.35	8.68
367.714	8.64
368.077	8.53
368.44	8.48
368.803	8.47
369.167	8.47
369.53	8.4
369.893	8.45
370.256	8.41
370.619	8.33
370.982	8.25
371.345	8.17
371.708	8.09
372.071	8.02
372.434	7.9
372.797	7.88
373.159	7.88
373.522	7.81
373.885	7.78
374.247	7.78
374.61	7.71
374.973	7.65
375.335	7.57
375.698	7.59
376.06	7.53
376.423	7.44
376.785	7.43
377.147	7.41
377.51	7.31
377.872	7.26
378.234	7.27
378.596	7.22
378.958	7.21
379.321	7.2
379.683	7.16
380.045	7.18
380.407	7.08
380.769	7.07
381.13	7.06
381.492	6.94
381.854	6.88
382.216	6.81
382.578	6.77
382.939	6.74
383.301	6.65
383.663	6.59
384.024	6.52
384.386	6.49
384.747	6.49
385.109	6.47
385.47	6.4
385.832	6.35
386.193	6.35
386.554	6.28
386.916	6.22
387.277	6.22
387.638	6.17
387.999	6.14
388.36	6.07
388.721	5.98
389.082	5.94
389.443	5.87
389.804	5.85
390.165	5.8
390.526	5.79
390.887	5.74
391.248	5.75
391.609	5.75
391.969	5.69
392.33	5.65
392.691	5.58
393.051	5.56
393.412	5.52
393.772	5.45
394.133	5.46
394.493	5.39
394.854	5.34
395.214	5.3
395.574	5.24
395.935	5.2
396.295	5.16
396.655	5.14
397.015	5.12
397.376	5.1
397.736	5.05
398.096	4.98
398.456	4.96
398.816	4.88
399.176	4.83
399.535	4.77
399.895	4.74
400.255	4.75
400.615	4.73
400.975	4.71
401.334	4.71
401.694	4.65
402.054	4.65
402.413	4.6
402.773	4.54
403.132	4.48
403.492	4.49
403.851	4.48
404.211	4.44
404.57	4.43
404.929	4.41
405.288	4.42
405.648	4.39
406.007	4.38
406.366	4.36
406.725	4.34
407.084	4.34
407.443	4.32
407.802	4.29
408.161	4.23
408.52	4.18
408.879	4.15
409.238	4.15
409.596	4.14
409.955	4.14
410.314	4.15
410.673	4.17
411.031	4.12
411.39	4.07
411.748	4.06
412.107	4.04
412.465	4.03
412.824	4.01
413.182	3.98
413.54	3.95
413.899	3.94
414.257	3.94
414.615	3.93
414.974	3.9
415.332	3.88
415.69	3.87
416.048	3.86
416.406	3.82
416.764	3.8
417.122	3.77
417.48	3.76
417.838	3.74
418.195	3.72
418.553	3.72
418.911	3.72
419.269	3.7
419.626	3.69
419.984	3.66
420.342	3.64
420.699	3.63
421.057	3.61
421.414	3.6
421.772	3.57
422.129	3.56
422.486	3.54
422.844	3.51
423.201	3.5
423.558	3.48
423.915	3.48
424.273	3.47
424.63	3.45
424.987	3.43
425.344	3.41
425.701	3.39
426.058	3.37
426.415	3.36
426.772	3.35
427.128	3.34
427.485	3.32
427.842	3.31
428.199	3.33
428.555	3.33
428.912	3.32
429.269	3.34
429.625	3.33
429.982	3.33
430.338	3.32
430.695	3.33
431.051	3.32
431.407	3.33
431.764	3.34
432.12	3.34
432.476	3.34
432.832	3.33
433.189	3.34
433.545	3.34
433.901	3.33
434.257	3.33
434.613	3.35
434.969	3.35
435.325	3.36
435.681	3.35
436.036	3.34
436.392	3.33
436.748	3.31
437.104	3.3
437.459	3.29
437.815	3.31
438.171	3.3
438.526	3.31
438.882	3.3
439.237	3.29
439.593	3.31
439.948	3.3
440.304	3.3
440.659	3.3
441.014	3.29
441.369	3.28
441.725	3.26
442.08	3.24
442.435	3.24
442.79	3.22
443.145	3.21
443.5	3.2
443.855	3.19
444.21	3.18
444.565	3.18
444.92	3.18
445.275	3.16
445.629	3.17
445.984	3.15
446.339	3.13
446.693	3.11
447.048	3.09
447.403	3.08
447.757	3.06
448.112	3.04
448.466	3.03
448.82	3.01
449.175	3.02
449.529	3.03
449.883	3.01
450.238	3.01
450.592	3
450.946	2.99
451.3	2.99
451.654	3
452.008	3
452.362	2.98
452.716	2.97
453.07	2.96
453.424	2.96
453.778	2.99
454.132	2.97
454.486	2.98
454.839	2.99
455.193	3.01
455.547	3.01
455.9	3.02
456.254	3.03
456.607	3.03
456.961	3.03
457.314	3.04
457.668	3.04
458.021	3.04
458.375	3.05
458.728	3.05
459.081	3.04
459.434	3.04
459.787	3.05
460.141	3.06
460.494	3.07
460.847	3.07
461.2	3.06
461.553	3.09
461.906	3.11
462.259	3.11
462.611	3.13
462.964	3.15
463.317	3.18
463.67	3.21
464.022	3.23
464.375	3.23
464.728	3.25
465.08	3.27
465.433	3.29
465.785	3.29
466.138	3.29
466.49	3.32
466.843	3.33
467.195	3.33
467.547	3.35
467.899	3.35
468.252	3.35
468.604	3.39
468.956	3.36
469.308	3.37
469.66	3.37
470.012	3.38
470.364	3.39
470.716	3.39
471.068	3.37
471.42	3.37
471.772	3.39
472.123	3.39
472.475	3.4
472.827	3.41
473.178	3.43
473.53	3.45
473.882	3.45
474.233	3.46
474.585	3.46
474.936	3.44
475.288	3.43
475.639	3.44
475.99	3.41
476.342	3.42
476.693	3.43
477.044	3.42
477.395	3.41
477.746	3.39
478.097	3.37
478.448	3.37
478.8	3.36
479.15	3.32
479.501	3.3
479.852	3.29
480.203	3.27
480.554	3.26
480.905	3.25
481.255	3.23
481.606	3.23
481.957	3.24
482.307	3.26
482.658	3.26
483.009	3.26
483.359	3.27
483.709	3.27
484.06	3.26
484.41	3.27
484.761	3.26
485.111	3.27
485.461	3.27
485.811	3.28
486.162	3.27
486.512	3.29
486.862	3.31
487.212	3.31
487.562	3.33
487.912	3.35
488.262	3.35
488.612	3.37
488.961	3.37
489.311	3.39
489.661	3.39
490.011	3.4
490.36	3.41
490.71	3.41
491.06	3.42
491.409	3.44
491.759	3.44
492.108	3.47
492.458	3.49
492.807	3.51
493.157	3.52
493.506	3.55
493.855	3.58
494.204	3.59
494.554	3.62
494.903	3.63
495.252	3.65
495.601	3.69
495.95	3.71
496.299	3.75
496.648	3.76
496.997	3.8
497.346	3.85
497.695	3.89
498.043	3.92
498.392	3.96
498.741	3.99
499.09	4.05
499.438	4.09
499.787	4.11
500.135	4.16
500.484	4.21
500.832	4.26
501.181	4.28
501.529	4.33
501.878	4.38
502.226	4.43
502.574	4.48
502.923	4.54
503.271	4.58
503.619	4.62
503.967	4.69
504.315	4.74
504.663	4.79
505.011	4.85
505.359	4.92
505.707	4.98
506.055	5.06
506.403	5.13
506.751	5.2
507.098	5.28
507.446	5.33
507.794	5.41
508.141	5.46
508.489	5.54
508.837	5.62
509.184	5.71
509.531	5.79
509.879	5.87
510.226	5.95
510.574	6.04
510.921	6.12
511.268	6.19
511.616	6.28
511.963	6.39
512.31	6.46
512.657	6.55
513.004	6.64
513.351	6.73
513.698	6.81
514.045	6.91
514.392	7.01
514.739	7.13
515.086	7.21
515.432	7.32
515.779	7.41
516.126	7.5
516.473	7.6
516.819	7.71
517.166	7.8
517.512	7.9
517.859	7.98
518.205	8.08
518.552	8.19
518.898	8.27
519.245	8.34
519.591	8.45
519.937	8.55
520.283	8.63
520.629	8.72
520.976	8.83
521.322	8.93
521.668	9.05
522.014	9.16
522.36	9.3
522.706	9.45
523.052	9.6
523.398	9.75
523.743	9.91
524.089	10.09
524.435	10.23
524.781	10.39
525.126	10.54
525.472	10.69
525.817	10.82
526.163	10.95
526.509	11.05
526.854	11.16
527.199	11.26
527.545	11.37
527.89	11.49
528.235	11.61
528.581	11.72
528.926	11.84
529.271	11.97
529.616	12.08
529.961	12.21
530.306	12.32
530.651	12.46
530.996	12.6
531.341	12.71
531.686	12.87
532.031	13.02
532.376	13.17
532.721	13.32
533.065	13.48
533.41	13.66
533.755	13.86
534.099	14.04
534.444	14.24
534.788	14.42
535.133	14.61
535.477	14.78
535.822	15
536.166	15.22
536.51	15.45
536.855	15.72
537.199	15.97
537.543	16.24
537.887	16.51
538.231	16.79
538.576	17.1
538.92	17.36
539.264	17.6
539.608	17.86
539.951	18.11
540.295	18.32
540.639	18.52
540.983	18.75
541.327	18.94
541.671	19.14
542.014	19.35
542.358	19.55
542.701	19.76
543.045	19.97
543.389	20.18
543.732	20.38
544.075	20.58
544.419	20.82
544.762	21.06
545.105	21.28
545.449	21.54
545.792	21.78
546.135	22.04
546.478	22.36
546.821	22.65
547.165	22.96
547.508	23.26
547.851	23.61
548.194	23.91
548.536	24.26
548.879	24.58
549.222	24.93
549.565	25.29
549.908	25.66
550.25	25.97
550.593	26.3
550.936	26.64
551.278	26.98
551.621	27.26
551.963	27.59
552.306	27.9
552.648	28.15
552.991	28.46
553.333	28.78
553.675	29.05
554.017	29.33
554.36	29.6
554.702	29.89
555.044	30.15
555.386	30.45
555.728	30.72
556.07	30.99
556.412	31.23
556.754	31.47
557.096	31.71
557.438	32.02
557.78	32.27
558.121	32.52
558.463	32.78
558.805	33.03
559.147	33.28
559.488	33.56
559.83	33.82
560.171	34.05
560.513	34.36
560.854	34.61
561.196	34.89
561.537	35.14
561.878	35.42
562.22	35.67
562.561	35.92
562.902	36.12
563.243	36.33
563.584	36.53
563.925	36.7
564.266	36.91
564.607	37.09
564.948	37.34
565.289	37.56
565.63	37.77
565.971	37.97
566.312	38.19
566.653	38.41
566.993	38.61
567.334	38.79
567.675	38.94
568.015	39.09
568.356	39.19
568.696	39.35
569.037	39.49
569.377	39.62
569.718	39.77
570.058	39.94
570.398	40.13
570.739	40.32
571.079	40.55
571.419	40.72
571.759	40.89
572.099	40.96
572.439	41.1
572.779	41.22
573.119	41.4
573.459	41.52
573.799	41.65
574.139	41.77
574.479	41.92
574.819	42.07
575.158	42.22
575.498	42.36
575.838	42.52
576.177	42.6
576.517	42.76
576.856	42.91
577.196	43.01
577.535	43.13
577.875	43.24
578.214	43.33
578.553	43.43
578.893	43.5
579.232	43.62
579.571	43.76
579.91	43.93
580.25	43.98
580.589	44.1
580.928	44.2
581.267	44.37
581.606	44.47
581.945	44.5
582.283	44.54
582.622	44.69
582.961	44.74
583.3	44.88
583.639	44.97
583.977	45.03
584.316	45.18
584.654	45.24
584.993	45.33
585.332	45.5
585.67	45.59
586.008	45.7
586.347	45.81
586.685	45.89
587.024	45.88
587.362	46.03
587.7	46.09
588.038	46.16
588.376	46.24
588.715	46.3
589.053	46.38
589.391	46.44
589.729	46.45
590.067	46.56
590.404	46.62
590.742	46.71
591.08	46.73
591.418	46.82
591.756	46.89
592.093	46.97
592.431	46.92
592.769	46.99
593.106	47.02
593.444	47.12
593.781	47.16
594.119	47.23
594.456	47.29
594.793	47.31
595.131	47.34
595.468	47.32
595.805	47.38
596.143	47.46
596.48	47.53
596.817	47.61
597.154	47.62
597.491	47.67
597.828	47.7
598.165	47.78
598.502	47.81
598.839	47.92
599.176	47.94
599.512	48
599.849	48.12
600.186	48.14
600.523	48.23
600.859	48.3
601.196	48.37
601.532	48.3
601.869	48.34
602.205	48.36
602.542	48.42
602.878	48.48
603.215	48.48
603.551	48.46
603.887	48.42
604.223	48.47
604.56	48.58
604.896	48.66
605.232	48.65
605.568	48.71
605.904	48.68
606.24	48.73
606.576	48.79
606.912	48.77
607.248	48.78
607.583	48.78
607.919	48.82
608.255	48.88
608.591	49.01
608.926	49.09
609.262	49.15
609.597	49.22
609.933	49.22
610.268	49.28
610.604	49.33
610.939	49.46
611.275	49.48
611.61	49.49
611.945	49.49
612.281	49.55
612.616	49.56
612.951	49.62
613.286	49.66
613.621	49.7
613.956	49.76
614.291	49.88
614.626	49.85
614.961	49.88
615.296	49.9
615.631	49.94
615.966	50.03
616.3	50.02
616.635	49.99
616.97	50.1
617.304	50.09
617.639	50.2
617.973	50.2
618.308	50.23
618.642	50.24
618.977	50.25
619.311	50.22
619.646	50.29
619.98	50.32
620.314	50.43
620.648	50.39
620.983	50.47
621.317	50.45
621.651	50.5
621.985	50.56
622.319	50.59
622.653	50.5
622.987	50.5
623.321	50.49
623.655	50.5
623.988	50.51
624.322	50.52
624.656	50.61
624.99	50.62
625.323	50.71
625.657	50.71
625.99	50.73
626.324	50.78
626.657	50.8
626.991	50.78
627.324	50.76
627.658	50.79
627.991	50.78
628.324	50.85
628.657	50.93
628.991	50.84
629.324	50.82
629.657	50.84
629.99	50.78
630.323	50.81
630.656	50.84
630.989	50.82
631.322	50.74
631.655	50.63
631.987	50.67
632.32	50.65
632.653	50.74
632.986	50.8
633.318	50.83
633.651	50.83
633.984	50.86
634.316	50.75
634.649	50.72
634.981	50.69
635.313	50.7
635.646	50.62
635.978	50.72
636.31	50.71
636.643	50.79
636.975	50.82
637.307	50.93
637.639	51.02
637.971	51.04
638.303	51.12
638.635	51.14
638.967	51.12
639.299	51.19
639.631	51.04
639.963	50.91
640.295	50.91
640.626	50.98
640.958	51.07
641.29	51.13
641.621	51.23
641.953	51.16
642.285	51.19
642.616	51.16
642.948	51.09
643.279	51.14
643.61	51.12
643.942	51.14
644.273	51.15
644.604	50.99
644.936	51.07
645.267	51.22
645.598	51.29
645.929	51.3
646.26	51.19
646.591	51.21
646.922	51.21
647.253	51.28
647.584	51.16
647.915	51.16
648.245	51.24
648.576	51.22
648.907	51.32
649.238	51.32
649.568	51.37
649.899	51.47
650.229	51.41
650.56	51.46
650.89	51.43
651.221	51.4
651.551	51.53
651.882	51.51
652.212	51.46
652.542	51.51
652.872	51.53
653.203	51.6
653.533	51.63
653.863	51.72
654.193	51.6
654.523	51.66
654.853	51.6
655.183	51.71
655.513	51.75
655.843	51.84
656.172	51.88
656.502	51.91
656.832	51.98
657.162	52.11
657.491	52.05
657.821	52.23
658.15	52.35
658.48	52.27
658.809	52.29
659.139	52.38
659.468	52.22
659.798	52.23
660.127	52.24
660.456	52.32
660.785	52.37
661.115	52.46
661.444	52.44
661.773	52.51
662.102	52.49
662.431	52.53
662.76	52.62
663.089	52.54
663.418	52.56
663.747	52.48
664.076	52.5
664.404	52.5
664.733	52.34
665.062	52.23
665.39	52.31
665.719	52.25
666.048	52.08
666.376	52.3
666.705	52.2
667.033	52.1
667.362	52.05
667.69	52.04
668.018	51.95
668.347	51.92
