Data from BA28306_Reflection_00011.txt Node
Date: Mon Nov 18 15:53:55 EST 2019
User: vgr7
Spectrometer: USB2G7710
Scans to average: 3
Trigger mode: 4
Integration Time (sec): 2.000000E-2
Electric dark correction enabled: true
Boxcar width: 10
XAxis mode: Wavelengths
Number of Pixels in Spectrum: 2048
>>>>>Begin Spectral Data<<<<<
177.721	1536.89
178.105	87.26
178.488	-4.75
178.871	38.68
179.254	78.02
179.636	273.47
180.019	-149.56
180.402	45.45
180.785	-41.83
181.168	-106.33
181.55	-51.31
181.933	140.43
182.316	108.02
182.698	152.52
183.081	136.51
183.463	317.64
183.846	993.4
184.228	-1004.97
184.611	-1273.91
184.993	-176.71
185.376	-30.2
185.758	-124.94
186.14	-111.29
186.522	-98.27
186.904	-47.14
187.287	-23.96
187.669	-39.46
188.051	-56.39
188.433	-28.51
188.815	-36.55
189.197	-49.64
189.579	-59.36
189.961	-97.14
190.342	-106.75
190.724	-68
191.106	-106.11
191.488	-80.08
191.869	-93.12
192.251	-212.34
192.633	-197.24
193.014	-224.24
193.396	-247.88
193.777	-149.41
194.159	-131.93
194.54	-156.09
194.922	-172.55
195.303	-194.81
195.684	-176.68
196.065	-154.2
196.447	-205.5
196.828	-284.49
197.209	-277.19
197.59	-308.39
197.971	-323.69
198.352	-258.17
198.733	-384.9
199.114	-260.7
199.495	-216.12
199.876	-186.41
200.257	-165.72
200.638	-136.33
201.018	-149.53
201.399	-155.51
201.78	-137.57
202.16	-163.51
202.541	-186.84
202.922	-246.43
203.302	-388.82
203.683	-406
204.063	-617.66
204.444	-460.43
204.824	-260.91
205.204	-263.93
205.585	-275.81
205.965	-202.68
206.345	-292.14
206.725	-234.85
207.106	-280.91
207.486	-461.16
207.866	-414.04
208.246	-333.89
208.626	-373.65
209.006	-265.74
209.386	-320.49
209.766	-307.06
210.145	-284.16
210.525	-209.38
210.905	-219.76
211.285	-152.96
211.664	-140.79
212.044	-105.21
212.424	-91.73
212.803	-99.63
213.183	-88.46
213.562	-77.11
213.942	-83.05
214.321	-71.85
214.701	-85.6
215.08	-76.71
215.459	-56.1
215.838	-58.26
216.218	-78.05
216.597	-61.01
216.976	-66.4
217.355	-42.08
217.734	-46.02
218.113	-46.45
218.492	-46.33
218.871	-55.04
219.25	-61.15
219.629	-65.26
220.008	-81.5
220.387	-80.52
220.766	-70.77
221.144	-92.12
221.523	-83.43
221.902	-84.26
222.28	-82.06
222.659	-65.66
223.037	-56.92
223.416	-59.08
223.794	-63.99
224.173	-49.9
224.551	-51.66
224.929	-50.61
225.308	-46.59
225.686	-43.56
226.064	-40.62
226.442	-40.9
226.821	-28.23
227.199	-26.49
227.577	-23.86
227.955	-23.86
228.333	-23.73
228.711	-23.01
229.089	-15.49
229.467	-18.08
229.845	-18.79
230.222	-20.19
230.6	-22.96
230.978	-22.88
231.356	-21.43
231.733	-17.95
232.111	-16.68
232.488	-13.68
232.866	-13.02
233.243	-12.37
233.621	-9.3
233.998	-8.24
234.376	-8.4
234.753	-7.41
235.13	-6.63
235.508	-4.4
235.885	-4.21
236.262	-4.96
236.639	-5.63
237.016	-5.13
237.393	-3.48
237.77	-0.86
238.147	0.82
238.524	3.22
238.901	4.52
239.278	5.43
239.655	4.8
240.032	4.91
240.409	4.63
240.785	4.79
241.162	5.09
241.539	4.62
241.915	5
242.292	5.19
242.668	4.76
243.045	5
243.421	4.88
243.798	4.97
244.174	4.96
244.551	5.08
244.927	4.89
245.303	4.91
245.679	4.64
246.056	4.63
246.432	4.43
246.808	4.14
247.184	3.64
247.56	3.74
247.936	3.52
248.312	3.56
248.688	3.78
249.064	3.62
249.44	3.69
249.815	3.57
250.191	3.6
250.567	3.65
250.943	3.6
251.318	3.56
251.694	3.39
252.069	3.42
252.445	3.51
252.82	3.42
253.196	3.26
253.571	3.27
253.947	3.52
254.322	3.69
254.697	3.76
255.073	3.93
255.448	3.91
255.823	4.12
256.198	4.23
256.573	3.95
256.948	3.94
257.323	4.11
257.698	4.08
258.073	4.07
258.448	4.31
258.823	4.19
259.198	4.07
259.573	4.23
259.948	4.33
260.322	4.25
260.697	4.22
261.072	4.17
261.446	4.19
261.821	4.01
262.195	3.95
262.57	3.94
262.944	3.89
263.319	3.78
263.693	3.66
264.067	3.6
264.442	3.62
264.816	3.58
265.19	3.3
265.564	3.31
265.938	3.17
266.313	3.05
266.687	3.06
267.061	2.99
267.435	2.86
267.809	2.86
268.183	2.8
268.556	2.82
268.93	2.99
269.304	2.92
269.678	3.07
270.051	2.88
270.425	2.85
270.799	2.86
271.172	2.97
271.546	3.12
271.919	3.06
272.293	3.12
272.666	3.23
273.04	3.27
273.413	3.48
273.787	3.58
274.16	3.48
274.533	3.57
274.906	3.62
275.279	3.85
275.653	3.9
276.026	4.02
276.399	3.99
276.772	3.96
277.145	4.05
277.518	3.97
277.891	4.23
278.263	4.15
278.636	4.28
279.009	4.21
279.382	4.09
279.755	4.14
280.127	4.19
280.5	4.29
280.872	4.35
281.245	4.11
281.617	4.25
281.99	4.32
282.362	4.35
282.735	4.3
283.107	4.12
283.479	4.09
283.852	4.06
284.224	4.21
284.596	4.21
284.968	4.15
285.34	4.15
285.713	4.17
286.085	4.32
286.457	4.25
286.829	4.38
287.201	4.42
287.572	4.37
287.944	4.25
288.316	4.19
288.688	4.1
289.06	4.06
289.431	3.9
289.803	3.93
290.175	3.95
290.546	4.16
290.918	4.15
291.289	4.2
291.661	4.29
292.032	4.27
292.403	4.24
292.775	4.39
293.146	4.36
293.517	4.16
293.889	4.13
294.26	4.17
294.631	4.08
295.002	3.95
295.373	3.96
295.744	4.01
296.115	4.03
296.486	4.03
296.857	4.14
297.228	4.22
297.599	4.11
297.97	4.17
298.34	4.16
298.711	4.19
299.082	4.04
299.452	4.14
299.823	4.15
300.194	4.1
300.564	4
300.935	4.07
301.305	4.12
301.676	4.2
302.046	4.26
302.416	4.41
302.787	4.62
303.157	4.73
303.527	4.74
303.897	4.74
304.267	5.06
304.637	5.12
305.008	5.23
305.378	5.38
305.748	5.39
306.117	5.21
306.487	5.26
306.857	5.41
307.227	5.28
307.597	5.39
307.967	5.48
308.336	5.54
308.706	5.55
309.076	5.63
309.445	5.51
309.815	5.62
310.184	5.35
310.554	5.25
310.923	5.26
311.293	5.31
311.662	5.19
312.031	5.03
312.401	4.95
312.77	4.99
313.139	5.09
313.508	4.95
313.877	5.09
314.246	5.15
314.616	5.02
314.985	4.98
315.353	4.96
315.722	5
316.091	5.16
316.46	5.02
316.829	5
317.198	5.2
317.567	5.05
317.935	5.23
318.304	5.26
318.672	5.22
319.041	5.26
319.41	5.42
319.778	5.43
320.147	5.43
320.515	5.45
320.883	5.34
321.252	5.42
321.62	5.44
321.988	5.42
322.357	5.49
322.725	5.59
323.093	5.59
323.461	5.69
323.829	5.57
324.197	5.63
324.565	5.75
324.933	5.75
325.301	5.74
325.669	5.79
326.037	5.81
326.405	5.82
326.772	5.89
327.14	5.9
327.508	5.87
327.875	5.84
328.243	5.82
328.61	5.82
328.978	5.85
329.346	6.1
329.713	5.93
330.08	6.01
330.448	5.93
330.815	5.85
331.182	5.76
331.55	5.69
331.917	5.92
332.284	5.93
332.651	5.83
333.018	6
333.385	5.89
333.752	5.97
334.119	6.07
334.486	5.99
334.853	5.99
335.22	6.03
335.587	6.23
335.954	6.27
336.32	6.29
336.687	6.24
337.054	5.99
337.42	6.21
337.787	6.27
338.153	6.32
338.52	6.4
338.886	6.35
339.253	6.41
339.619	6.29
339.986	6.25
340.352	6.32
340.718	6.23
341.084	6.37
341.451	6.45
341.817	6.45
342.183	6.58
342.549	6.46
342.915	6.47
343.281	6.45
343.647	6.42
344.013	6.43
344.379	6.42
344.745	6.46
345.11	6.46
345.476	6.45
345.842	6.42
346.208	6.4
346.573	6.5
346.939	6.5
347.304	6.37
347.67	6.36
348.035	6.32
348.401	6.47
348.766	6.4
349.132	6.31
349.497	6.26
349.862	6.27
350.228	6.36
350.593	6.32
350.958	6.32
351.323	6.38
351.688	6.33
352.053	6.44
352.418	6.47
352.783	6.36
353.148	6.27
353.513	6.35
353.878	6.4
354.243	6.38
354.608	6.42
354.972	6.5
355.337	6.46
355.702	6.5
356.066	6.39
356.431	6.4
356.795	6.45
357.16	6.46
357.524	6.28
357.889	6.26
358.253	6.33
358.618	6.31
358.982	6.19
359.346	6.12
359.71	6.08
360.075	6.06
360.439	6.1
360.803	6.14
361.167	6.09
361.531	6.02
361.895	5.96
362.259	5.92
362.623	5.96
362.987	5.99
363.351	5.98
363.714	6.02
364.078	6.05
364.442	5.96
364.806	5.91
365.169	5.97
365.533	5.99
365.896	5.91
366.26	5.88
366.623	5.87
366.987	5.91
367.35	5.88
367.714	5.79
368.077	5.75
368.44	5.74
368.803	5.68
369.167	5.7
369.53	5.66
369.893	5.67
370.256	5.69
370.619	5.65
370.982	5.58
371.345	5.52
371.708	5.42
372.071	5.42
372.434	5.3
372.797	5.24
373.159	5.18
373.522	5.18
373.885	5.19
374.247	5.21
374.61	5.11
374.973	5.11
375.335	5.13
375.698	5.13
376.06	5.07
376.423	5.08
376.785	5.05
377.147	5.05
377.51	4.97
377.872	4.87
378.234	4.89
378.596	4.89
378.958	4.78
379.321	4.82
379.683	4.83
380.045	4.92
380.407	4.95
380.769	4.93
381.13	4.9
381.492	4.81
381.854	4.73
382.216	4.75
382.578	4.69
382.939	4.62
383.301	4.6
383.663	4.57
384.024	4.53
384.386	4.5
384.747	4.5
385.109	4.5
385.47	4.45
385.832	4.39
386.193	4.36
386.554	4.36
386.916	4.32
387.277	4.32
387.638	4.27
387.999	4.22
388.36	4.21
388.721	4.22
389.082	4.23
389.443	4.23
389.804	4.27
390.165	4.27
390.526	4.28
390.887	4.2
391.248	4.23
391.609	4.21
391.969	4.2
392.33	4.2
392.691	4.18
393.051	4.19
393.412	4.16
393.772	4.18
394.133	4.17
394.493	4.14
394.854	4.09
395.214	4.07
395.574	4.05
395.935	3.99
396.295	3.98
396.655	3.95
397.015	3.94
397.376	3.88
397.736	3.86
398.096	3.86
398.456	3.89
398.816	3.85
399.176	3.81
399.535	3.77
399.895	3.69
400.255	3.69
400.615	3.67
400.975	3.67
401.334	3.62
401.694	3.6
402.054	3.6
402.413	3.63
402.773	3.6
403.132	3.58
403.492	3.63
403.851	3.59
404.211	3.61
404.57	3.6
404.929	3.6
405.288	3.58
405.648	3.56
406.007	3.56
406.366	3.54
406.725	3.57
407.084	3.59
407.443	3.62
407.802	3.62
408.161	3.63
408.52	3.61
408.879	3.62
409.238	3.66
409.596	3.63
409.955	3.58
410.314	3.62
410.673	3.61
411.031	3.59
411.39	3.58
411.748	3.55
412.107	3.52
412.465	3.54
412.824	3.51
413.182	3.52
413.54	3.51
413.899	3.5
414.257	3.47
414.615	3.44
414.974	3.41
415.332	3.42
415.69	3.4
416.048	3.39
416.406	3.4
416.764	3.37
417.122	3.38
417.48	3.38
417.838	3.37
418.195	3.38
418.553	3.37
418.911	3.38
419.269	3.38
419.626	3.38
419.984	3.35
420.342	3.35
420.699	3.34
421.057	3.34
421.414	3.35
421.772	3.35
422.129	3.37
422.486	3.37
422.844	3.36
423.201	3.35
423.558	3.34
423.915	3.32
424.273	3.32
424.63	3.31
424.987	3.3
425.344	3.3
425.701	3.29
426.058	3.3
426.415	3.28
426.772	3.26
427.128	3.27
427.485	3.28
427.842	3.28
428.199	3.29
428.555	3.28
428.912	3.28
429.269	3.27
429.625	3.24
429.982	3.22
430.338	3.23
430.695	3.26
431.051	3.26
431.407	3.27
431.764	3.27
432.12	3.26
432.476	3.26
432.832	3.25
433.189	3.26
433.545	3.23
433.901	3.24
434.257	3.25
434.613	3.24
434.969	3.22
435.325	3.22
435.681	3.21
436.036	3.2
436.392	3.2
436.748	3.21
437.104	3.21
437.459	3.22
437.815	3.22
438.171	3.2
438.526	3.2
438.882	3.2
439.237	3.21
439.593	3.21
439.948	3.21
440.304	3.22
440.659	3.22
441.014	3.23
441.369	3.22
441.725	3.19
442.08	3.22
442.435	3.21
442.79	3.22
443.145	3.22
443.5	3.21
443.855	3.2
444.21	3.19
444.565	3.19
444.92	3.18
445.275	3.16
445.629	3.16
445.984	3.17
446.339	3.16
446.693	3.14
447.048	3.13
447.403	3.12
447.757	3.11
448.112	3.1
448.466	3.1
448.82	3.1
449.175	3.13
449.529	3.1
449.883	3.1
450.238	3.08
450.592	3.08
450.946	3.09
451.3	3.08
451.654	3.08
452.008	3.09
452.362	3.08
452.716	3.1
453.07	3.09
453.424	3.09
453.778	3.08
454.132	3.09
454.486	3.1
454.839	3.09
455.193	3.09
455.547	3.1
455.9	3.09
456.254	3.1
456.607	3.09
456.961	3.1
457.314	3.09
457.668	3.11
458.021	3.09
458.375	3.11
458.728	3.11
459.081	3.1
459.434	3.09
459.787	3.1
460.141	3.09
460.494	3.09
460.847	3.1
461.2	3.09
461.553	3.1
461.906	3.12
462.259	3.13
462.611	3.14
462.964	3.13
463.317	3.14
463.67	3.12
464.022	3.13
464.375	3.14
464.728	3.14
465.08	3.11
465.433	3.11
465.785	3.1
466.138	3.1
466.49	3.11
466.843	3.13
467.195	3.14
467.547	3.16
467.899	3.16
468.252	3.16
468.604	3.19
468.956	3.17
469.308	3.16
469.66	3.15
470.012	3.15
470.364	3.16
470.716	3.16
471.068	3.16
471.42	3.14
471.772	3.14
472.123	3.14
472.475	3.17
472.827	3.18
473.178	3.18
473.53	3.19
473.882	3.21
474.233	3.21
474.585	3.2
474.936	3.2
475.288	3.21
475.639	3.19
475.99	3.17
476.342	3.2
476.693	3.2
477.044	3.22
477.395	3.22
477.746	3.23
478.097	3.23
478.448	3.23
478.8	3.25
479.15	3.25
479.501	3.25
479.852	3.26
480.203	3.26
480.554	3.26
480.905	3.26
481.255	3.25
481.606	3.25
481.957	3.25
482.307	3.25
482.658	3.27
483.009	3.27
483.359	3.28
483.709	3.28
484.06	3.28
484.41	3.28
484.761	3.28
485.111	3.28
485.461	3.28
485.811	3.29
486.162	3.29
486.512	3.29
486.862	3.3
487.212	3.29
487.562	3.29
487.912	3.3
488.262	3.3
488.612	3.3
488.961	3.29
489.311	3.3
489.661	3.3
490.011	3.28
490.36	3.29
490.71	3.29
491.06	3.29
491.409	3.29
491.759	3.28
492.108	3.29
492.458	3.3
492.807	3.29
493.157	3.3
493.506	3.31
493.855	3.32
494.204	3.32
494.554	3.32
494.903	3.32
495.252	3.33
495.601	3.35
495.95	3.37
496.299	3.37
496.648	3.37
496.997	3.39
497.346	3.42
497.695	3.44
498.043	3.44
498.392	3.44
498.741	3.46
499.09	3.47
499.438	3.5
499.787	3.49
500.135	3.52
500.484	3.54
500.832	3.55
501.181	3.57
501.529	3.6
501.878	3.63
502.226	3.67
502.574	3.68
502.923	3.67
503.271	3.69
503.619	3.73
503.967	3.79
504.315	3.81
504.663	3.81
505.011	3.83
505.359	3.87
505.707	3.9
506.055	3.93
506.403	3.98
506.751	4.02
507.098	4.06
507.446	4.09
507.794	4.1
508.141	4.11
508.489	4.15
508.837	4.19
509.184	4.23
509.531	4.27
509.879	4.33
510.226	4.4
510.574	4.42
510.921	4.45
511.268	4.46
511.616	4.5
511.963	4.57
512.31	4.6
512.657	4.64
513.004	4.69
513.351	4.73
513.698	4.77
514.045	4.79
514.392	4.86
514.739	4.91
515.086	4.97
515.432	5.04
515.779	5.08
516.126	5.12
516.473	5.17
516.819	5.21
517.166	5.26
517.512	5.29
517.859	5.35
518.205	5.39
518.552	5.44
518.898	5.47
519.245	5.51
519.591	5.55
519.937	5.58
520.283	5.62
520.629	5.68
520.976	5.73
521.322	5.81
521.668	5.86
522.014	5.93
522.36	6.01
522.706	6.09
523.052	6.18
523.398	6.27
523.743	6.36
524.089	6.43
524.435	6.51
524.781	6.61
525.126	6.69
525.472	6.77
525.817	6.84
526.163	6.91
526.509	6.99
526.854	7.05
527.199	7.13
527.545	7.19
527.89	7.25
528.235	7.3
528.581	7.36
528.926	7.43
529.271	7.49
529.616	7.56
529.961	7.62
530.306	7.71
530.651	7.78
530.996	7.85
531.341	7.94
531.686	8.02
532.031	8.11
532.376	8.21
532.721	8.32
533.065	8.42
533.41	8.51
533.755	8.61
534.099	8.74
534.444	8.84
534.788	8.97
535.133	9.09
535.477	9.23
535.822	9.37
536.166	9.52
536.51	9.68
536.855	9.84
537.199	10.02
537.543	10.22
537.887	10.42
538.231	10.63
538.576	10.84
538.92	11.04
539.264	11.23
539.608	11.43
539.951	11.62
540.295	11.81
540.639	12.02
540.983	12.19
541.327	12.36
541.671	12.53
542.014	12.72
542.358	12.89
542.701	13.07
543.045	13.25
543.389	13.45
543.732	13.65
544.075	13.86
544.419	14.06
544.762	14.25
545.105	14.49
545.449	14.73
545.792	14.96
546.135	15.24
546.478	15.52
546.821	15.78
547.165	16.06
547.508	16.37
547.851	16.68
548.194	16.99
548.536	17.33
548.879	17.67
549.222	18
549.565	18.34
549.908	18.7
550.25	19.03
550.593	19.36
550.936	19.72
551.278	20.1
551.621	20.44
551.963	20.77
552.306	21.09
552.648	21.43
552.991	21.78
553.333	22.09
553.675	22.4
554.017	22.73
554.36	23.07
554.702	23.36
555.044	23.67
555.386	24.02
555.728	24.34
556.07	24.68
556.412	24.99
556.754	25.31
557.096	25.63
557.438	26
557.78	26.34
558.121	26.67
558.463	27
558.805	27.32
559.147	27.67
559.488	28
559.83	28.35
560.171	28.67
560.513	29.01
560.854	29.36
561.196	29.7
561.537	30.02
561.878	30.36
562.22	30.72
562.561	31.04
562.902	31.34
563.243	31.63
563.584	31.92
563.925	32.22
564.266	32.52
564.607	32.8
564.948	33.09
565.289	33.39
565.63	33.61
565.971	33.93
566.312	34.19
566.653	34.44
566.993	34.7
567.334	34.97
567.675	35.22
568.015	35.48
568.356	35.74
568.696	35.97
569.037	36.21
569.377	36.44
569.718	36.66
570.058	36.93
570.398	37.22
570.739	37.49
571.079	37.76
571.419	38.02
571.759	38.24
572.099	38.45
572.439	38.61
572.779	38.87
573.119	39.03
573.459	39.21
573.799	39.42
574.139	39.61
574.479	39.79
574.819	40
575.158	40.15
575.498	40.32
575.838	40.54
576.177	40.75
576.517	40.97
576.856	41.11
577.196	41.34
577.535	41.58
577.875	41.74
578.214	42.01
578.553	42.23
578.893	42.36
579.232	42.59
579.571	42.81
579.91	42.98
580.25	43.19
580.589	43.48
580.928	43.65
581.267	43.8
581.606	44.02
581.945	44.2
582.283	44.4
582.622	44.64
582.961	44.76
583.3	44.9
583.639	45.07
583.977	45.3
584.316	45.44
584.654	45.44
584.993	45.59
585.332	45.72
585.67	45.81
586.008	46.07
586.347	46.12
586.685	46.32
587.024	46.52
587.362	46.61
587.7	46.65
588.038	46.86
588.376	47.05
588.715	47.16
589.053	47.34
589.391	47.45
589.729	47.58
590.067	47.72
590.404	47.83
590.742	47.91
591.08	47.95
591.418	47.97
591.756	48.11
592.093	48.26
592.431	48.34
592.769	48.47
593.106	48.53
593.444	48.74
593.781	48.8
594.119	48.91
594.456	49.05
594.793	49.15
595.131	49.25
595.468	49.32
595.805	49.36
596.143	49.4
596.48	49.52
596.817	49.56
597.154	49.63
597.491	49.71
597.828	49.75
598.165	49.87
598.502	49.96
598.839	50.1
599.176	50.15
599.512	50.28
599.849	50.37
600.186	50.5
600.523	50.56
600.859	50.66
601.196	50.74
601.532	50.92
601.869	50.94
602.205	50.99
602.542	51.14
602.878	51.21
603.215	51.3
603.551	51.39
603.887	51.51
604.223	51.65
604.56	51.79
604.896	51.89
605.232	52.01
605.568	52.09
605.904	52.23
606.24	52.31
606.576	52.3
606.912	52.37
607.248	52.43
607.583	52.53
607.919	52.67
608.255	52.69
608.591	52.7
608.926	52.85
609.262	52.96
609.597	52.96
609.933	53.12
610.268	53.17
610.604	53.23
610.939	53.32
611.275	53.36
611.61	53.34
611.945	53.47
612.281	53.54
612.616	53.64
612.951	53.65
613.286	53.78
613.621	53.9
613.956	53.98
614.291	54
614.626	54.12
614.961	54.05
615.296	54.13
615.631	54.21
615.966	54.25
616.3	54.22
616.635	54.27
616.97	54.24
617.304	54.3
617.639	54.4
617.973	54.44
618.308	54.44
618.642	54.52
618.977	54.47
619.311	54.5
619.646	54.59
619.98	54.64
620.314	54.66
620.648	54.68
620.983	54.69
621.317	54.75
621.651	54.71
621.985	54.77
622.319	54.78
622.653	54.83
622.987	54.88
623.321	55.01
623.655	55.06
623.988	55.21
624.322	55.26
624.656	55.23
624.99	55.32
625.323	55.49
625.657	55.47
625.99	55.55
626.324	55.51
626.657	55.55
626.991	55.52
627.324	55.53
627.658	55.61
627.991	55.72
628.324	55.77
628.657	55.83
628.991	55.83
629.324	55.97
629.657	55.95
629.99	56.04
630.323	56.03
630.656	56.08
630.989	56.1
631.322	56.15
631.655	56.16
631.987	56.1
632.32	56
632.653	56.15
632.986	56.21
633.318	56.35
633.651	56.37
633.984	56.39
634.316	56.45
634.649	56.49
634.981	56.51
635.313	56.48
635.646	56.54
635.978	56.64
636.31	56.67
636.643	56.7
636.975	56.68
637.307	56.77
637.639	56.8
637.971	56.88
638.303	56.89
638.635	57
638.967	56.93
639.299	57.01
639.631	56.95
639.963	57.05
640.295	57.06
640.626	57.02
640.958	57.15
641.29	57.11
641.621	57.08
641.953	57.08
642.285	57.17
642.616	57.23
642.948	57.32
643.279	57.32
643.61	57.4
643.942	57.47
644.273	57.51
644.604	57.65
644.936	57.57
645.267	57.6
645.598	57.59
645.929	57.74
646.26	57.76
646.591	57.73
646.922	57.73
647.253	57.77
647.584	57.81
647.915	57.82
648.245	57.9
648.576	57.92
648.907	57.95
649.238	58.06
649.568	58.1
649.899	58.09
650.229	58.15
650.56	58.17
650.89	58.13
651.221	58.21
651.551	58.09
651.882	58.15
652.212	58.13
652.542	58.1
652.872	58.1
653.203	58.07
653.533	58.23
653.863	58.23
654.193	58.21
654.523	58.31
654.853	58.35
655.183	58.35
655.513	58.39
655.843	58.44
656.172	58.5
656.502	58.55
656.832	58.67
657.162	58.69
657.491	58.6
657.821	58.71
658.15	58.67
658.48	58.73
658.809	58.66
659.139	58.68
659.468	58.77
659.798	58.82
660.127	58.93
660.456	58.99
660.785	58.96
661.115	59.04
661.444	59.03
661.773	59.11
662.102	59.25
662.431	59.21
662.76	59.19
663.089	59.11
663.418	59.05
663.747	58.93
664.076	58.91
664.404	59.04
664.733	59.05
665.062	58.97
665.39	58.98
665.719	59.05
666.048	59.02
666.376	58.99
666.705	59.01
