Data from BA28299_Reflection_00005.txt Node
Date: Mon Nov 18 15:42:15 EST 2019
User: vgr7
Spectrometer: USB2G7710
Scans to average: 3
Trigger mode: 4
Integration Time (sec): 2.000000E-2
Electric dark correction enabled: true
Boxcar width: 10
XAxis mode: Wavelengths
Number of Pixels in Spectrum: 2048
>>>>>Begin Spectral Data<<<<<
177.721	9.83
178.105	-198.85
178.488	145.66
178.871	274.24
179.254	-55.25
179.636	126.4
180.019	65.49
180.402	26.92
180.785	331.29
181.168	-629.17
181.55	-122.22
181.933	167.76
182.316	113.87
182.698	92.08
183.081	97.55
183.463	108.31
183.846	110.88
184.228	1094.71
184.611	17033.33
184.993	-481.11
185.376	-264.12
185.758	-610.24
186.14	-461.4
186.522	-445.95
186.904	-187.78
187.287	-375.39
187.669	-107.75
188.051	-124.22
188.433	-125.73
188.815	-151.69
189.197	-156.91
189.579	-141.88
189.961	-166.05
190.342	-144.46
190.724	-116.14
191.106	-146.66
191.488	-145.22
191.869	-114.2
192.251	-120.01
192.633	-101.54
193.014	-96.41
193.396	-98.76
193.777	-86.91
194.159	-90.07
194.54	-82.79
194.922	-82.48
195.303	-83.13
195.684	-88.76
196.065	-68.21
196.447	-63.99
196.828	-56.45
197.209	-50.72
197.59	-54.82
197.971	-55.61
198.352	-34.89
198.733	-34.71
199.114	-20.28
199.495	-15.93
199.876	-13.1
200.257	-16.02
200.638	-25.51
201.018	-30.2
201.399	-31.5
201.78	-27.44
202.16	-32.59
202.541	-35.69
202.922	-55.17
203.302	-55.85
203.683	-62
204.063	-77.59
204.444	-88.25
204.824	-96.88
205.204	-101.08
205.585	-95.27
205.965	-82.98
206.345	-97.74
206.725	-132.05
207.106	-187.33
207.486	-241.12
207.866	-292.75
208.246	-219.37
208.626	-170.33
209.006	-137.59
209.386	-139.12
209.766	-132.65
210.145	-141.32
210.525	-106.52
210.905	-95.15
211.285	-85.42
211.664	-70.8
212.044	-77.49
212.424	-54.93
212.803	-63.49
213.183	-46.4
213.562	-30.86
213.942	-20.24
214.321	-25.85
214.701	-9.31
215.08	-5.73
215.459	-5.93
215.838	-12.41
216.218	-19.92
216.597	-28.52
216.976	-32.94
217.355	-31.04
217.734	-25.2
218.113	-22.77
218.492	-30.77
218.871	-29.92
219.25	-33.61
219.629	-35.56
220.008	-20.86
220.387	-32.99
220.766	-11.47
221.144	-39.64
221.523	-67.82
221.902	-77.1
222.28	-78.27
222.659	-68.26
223.037	-59.14
223.416	-66.3
223.794	-51.97
224.173	-53.32
224.551	-47.82
224.929	-47.3
225.308	-45.87
225.686	-44.25
226.064	-36.95
226.442	-33.26
226.821	-29.5
227.199	-30.54
227.577	-31.65
227.955	-31.81
228.333	-30.32
228.711	-31.44
229.089	-23.42
229.467	-23.19
229.845	-21.07
230.222	-16.71
230.6	-13.78
230.978	-15.17
231.356	-10.95
231.733	-11.44
232.111	-8.66
232.488	-7.62
232.866	-5.73
233.243	-4.78
233.621	-4.42
233.998	-3.74
234.376	-4.96
234.753	-4.95
235.13	-3.24
235.508	-3.14
235.885	-3.58
236.262	-4.64
236.639	-4.93
237.016	-5.58
237.393	-3.06
237.77	-1.96
238.147	-1.71
238.524	-2.36
238.901	-0.8
239.278	-0.67
239.655	0.65
240.032	0.94
240.409	1.27
240.785	0.83
241.162	1
241.539	1.42
241.915	1.89
242.292	2.19
242.668	2.93
243.045	3.04
243.421	3.31
243.798	3.41
244.174	3.73
244.551	4.11
244.927	4.04
245.303	3.87
245.679	3.92
246.056	4.02
246.432	4.03
246.808	3.87
247.184	3.73
247.56	3.53
247.936	3.44
248.312	3.48
248.688	3.8
249.064	3.86
249.44	3.89
249.815	3.74
250.191	3.73
250.567	3.38
250.943	3.33
251.318	3.31
251.694	3.43
252.069	3.43
252.445	3.28
252.82	3.3
253.196	3.34
253.571	2.93
253.947	2.6
254.322	2.71
254.697	2.83
255.073	2.74
255.448	2.62
255.823	2.68
256.198	2.64
256.573	2.54
256.948	2.83
257.323	3.04
257.698	3.14
258.073	3.33
258.448	3.42
258.823	3.42
259.198	3.4
259.573	3.33
259.948	3.33
260.322	3.44
260.697	3.43
261.072	3.38
261.446	3.42
261.821	3.45
262.195	3.5
262.57	3.37
262.944	3.49
263.319	3.6
263.693	3.36
264.067	3.53
264.442	3.65
264.816	3.55
265.19	3.43
265.564	3.37
265.938	3.28
266.313	3.22
266.687	3.29
267.061	3.49
267.435	3.85
267.809	3.98
268.183	3.96
268.556	3.86
268.93	3.94
269.304	4
269.678	4
270.051	3.88
270.425	3.95
270.799	3.97
271.172	3.96
271.546	4.08
271.919	3.89
272.293	3.71
272.666	3.54
273.04	3.49
273.413	3.47
273.787	3.4
274.16	3.43
274.533	3.4
274.906	3.13
275.279	2.91
275.653	2.85
276.026	2.74
276.399	2.81
276.772	2.96
277.145	2.81
277.518	2.79
277.891	2.75
278.263	2.67
278.636	2.6
279.009	2.61
279.382	2.67
279.755	2.73
280.127	2.93
280.5	3.14
280.872	3.14
281.245	3.15
281.617	3.3
281.99	3.46
282.362	3.51
282.735	3.71
283.107	3.74
283.479	3.8
283.852	3.81
284.224	3.75
284.596	3.66
284.968	3.78
285.34	3.97
285.713	4.13
286.085	4.22
286.457	4.3
286.829	4.26
287.201	4.34
287.572	4.34
287.944	4.23
288.316	4.22
288.688	4.22
289.06	4.24
289.431	4.17
289.803	4.12
290.175	4.16
290.546	4.15
290.918	4.19
291.289	4.04
291.661	4.07
292.032	4.21
292.403	4.2
292.775	4.29
293.146	4.16
293.517	4.13
293.889	4.25
294.26	4.27
294.631	4.38
295.002	4.35
295.373	4.38
295.744	4.49
296.115	4.5
296.486	4.45
296.857	4.57
297.228	4.74
297.599	4.65
297.97	4.63
298.34	4.67
298.711	4.78
299.082	4.91
299.452	4.97
299.823	4.97
300.194	5.06
300.564	4.97
300.935	5.08
301.305	5.07
301.676	5.12
302.046	5.18
302.416	5.18
302.787	5.26
303.157	5.36
303.527	5.37
303.897	5.38
304.267	5.71
304.637	5.56
305.008	5.4
305.378	5.5
305.748	5.6
306.117	5.53
306.487	5.46
306.857	5.35
307.227	5.38
307.597	5.36
307.967	5.26
308.336	5.38
308.706	5.31
309.076	5.24
309.445	5.08
309.815	4.98
310.184	4.95
310.554	4.85
310.923	4.83
311.293	4.78
311.662	4.69
312.031	4.4
312.401	4.47
312.77	4.51
313.139	4.6
313.508	4.48
313.877	4.52
314.246	4.48
314.616	4.57
314.985	4.43
315.353	4.33
315.722	4.38
316.091	4.26
316.46	4.24
316.829	4.19
317.198	4.24
317.567	4.25
317.935	4.32
318.304	4.35
318.672	4.11
319.041	4.17
319.41	4.24
319.778	4.48
320.147	4.48
320.515	4.48
320.883	4.44
321.252	4.46
321.62	4.48
321.988	4.49
322.357	4.38
322.725	4.39
323.093	4.57
323.461	4.54
323.829	4.6
324.197	4.66
324.565	4.74
324.933	4.69
325.301	4.72
325.669	4.61
326.037	4.61
326.405	4.7
326.772	4.75
327.14	4.79
327.508	4.75
327.875	4.65
328.243	4.67
328.61	4.59
328.978	4.61
329.346	4.64
329.713	4.58
330.08	4.6
330.448	4.64
330.815	4.43
331.182	4.46
331.55	4.43
331.917	4.46
332.284	4.64
332.651	4.67
333.018	4.7
333.385	4.8
333.752	4.79
334.119	4.94
334.486	4.9
334.853	4.78
335.22	4.74
335.587	4.74
335.954	4.73
336.32	4.73
336.687	4.74
337.054	4.78
337.42	4.75
337.787	4.82
338.153	4.79
338.52	4.98
338.886	4.89
339.253	4.82
339.619	4.83
339.986	4.79
340.352	4.79
340.718	4.75
341.084	4.71
341.451	4.78
341.817	4.78
342.183	4.76
342.549	4.85
342.915	4.97
343.281	5.07
343.647	5.07
344.013	5.06
344.379	4.97
344.745	4.96
345.11	5.07
345.476	5.06
345.842	5.09
346.208	5.02
346.573	5.12
346.939	5.23
347.304	5.22
347.67	5.05
348.035	5.08
348.401	5.12
348.766	5.17
349.132	5.12
349.497	5.07
349.862	5.19
350.228	5.25
350.593	5.19
350.958	5.2
351.323	5.26
351.688	5.26
352.053	5.47
352.418	5.46
352.783	5.46
353.148	5.47
353.513	5.49
353.878	5.51
354.243	5.48
354.608	5.44
354.972	5.42
355.337	5.52
355.702	5.52
356.066	5.6
356.431	5.58
356.795	5.67
357.16	5.63
357.524	5.5
357.889	5.44
358.253	5.4
358.618	5.37
358.982	5.29
359.346	5.33
359.71	5.27
360.075	5.23
360.439	5.26
360.803	5.3
361.167	5.3
361.531	5.22
361.895	5.23
362.259	5.24
362.623	5.19
362.987	5.22
363.351	5.19
363.714	5.14
364.078	5.14
364.442	5.07
364.806	5.09
365.169	5.11
365.533	5.12
365.896	5.12
366.26	5.12
366.623	5.18
366.987	5.17
367.35	5.17
367.714	5.23
368.077	5.14
368.44	5.07
368.803	5.04
369.167	5.09
369.53	5.03
369.893	4.99
370.256	5.01
370.619	5
370.982	5.01
371.345	4.99
371.708	5.01
372.071	5.05
372.434	5.06
372.797	5.05
373.159	5.01
373.522	5.04
373.885	5.01
374.247	4.98
374.61	4.94
374.973	4.94
375.335	4.92
375.698	4.98
376.06	4.96
376.423	4.96
376.785	4.99
377.147	5.09
377.51	5.13
377.872	5.19
378.234	5.14
378.596	5.15
378.958	5.15
379.321	5.16
379.683	5.14
380.045	5.13
380.407	5.18
380.769	5.19
381.13	5.17
381.492	5.17
381.854	5.14
382.216	5.18
382.578	5.25
382.939	5.22
383.301	5.16
383.663	5.18
384.024	5.17
384.386	5.2
384.747	5.14
385.109	5.14
385.47	5.1
385.832	5.14
386.193	5.11
386.554	5.17
386.916	5.18
387.277	5.2
387.638	5.2
387.999	5.17
388.36	5.22
388.721	5.28
389.082	5.29
389.443	5.32
389.804	5.35
390.165	5.3
390.526	5.35
390.887	5.36
391.248	5.4
391.609	5.45
391.969	5.44
392.33	5.48
392.691	5.49
393.051	5.48
393.412	5.5
393.772	5.49
394.133	5.46
394.493	5.43
394.854	5.45
395.214	5.45
395.574	5.46
395.935	5.47
396.295	5.44
396.655	5.45
397.015	5.44
397.376	5.41
397.736	5.41
398.096	5.39
398.456	5.43
398.816	5.44
399.176	5.38
399.535	5.39
399.895	5.36
400.255	5.35
400.615	5.37
400.975	5.39
401.334	5.43
401.694	5.41
402.054	5.44
402.413	5.45
402.773	5.45
403.132	5.44
403.492	5.42
403.851	5.42
404.211	5.44
404.57	5.43
404.929	5.43
405.288	5.43
405.648	5.4
406.007	5.39
406.366	5.39
406.725	5.42
407.084	5.41
407.443	5.39
407.802	5.4
408.161	5.42
408.52	5.38
408.879	5.36
409.238	5.4
409.596	5.4
409.955	5.36
410.314	5.38
410.673	5.36
411.031	5.38
411.39	5.38
411.748	5.4
412.107	5.42
412.465	5.42
412.824	5.44
413.182	5.48
413.54	5.48
413.899	5.47
414.257	5.5
414.615	5.47
414.974	5.5
415.332	5.51
415.69	5.5
416.048	5.5
416.406	5.52
416.764	5.49
417.122	5.52
417.48	5.52
417.838	5.54
418.195	5.54
418.553	5.51
418.911	5.52
419.269	5.5
419.626	5.51
419.984	5.52
420.342	5.54
420.699	5.53
421.057	5.54
421.414	5.53
421.772	5.52
422.129	5.53
422.486	5.53
422.844	5.53
423.201	5.53
423.558	5.54
423.915	5.53
424.273	5.55
424.63	5.52
424.987	5.52
425.344	5.51
425.701	5.53
426.058	5.53
426.415	5.53
426.772	5.52
427.128	5.51
427.485	5.51
427.842	5.47
428.199	5.49
428.555	5.48
428.912	5.5
429.269	5.52
429.625	5.54
429.982	5.54
430.338	5.53
430.695	5.53
431.051	5.54
431.407	5.54
431.764	5.54
432.12	5.55
432.476	5.56
432.832	5.54
433.189	5.55
433.545	5.54
433.901	5.53
434.257	5.55
434.613	5.55
434.969	5.54
435.325	5.56
435.681	5.53
436.036	5.54
436.392	5.53
436.748	5.51
437.104	5.48
437.459	5.47
437.815	5.48
438.171	5.46
438.526	5.46
438.882	5.47
439.237	5.47
439.593	5.49
439.948	5.48
440.304	5.49
440.659	5.47
441.014	5.48
441.369	5.49
441.725	5.5
442.08	5.5
442.435	5.49
442.79	5.49
443.145	5.49
443.5	5.49
443.855	5.49
444.21	5.49
444.565	5.51
444.92	5.52
445.275	5.51
445.629	5.52
445.984	5.51
446.339	5.51
446.693	5.48
447.048	5.47
447.403	5.47
447.757	5.45
448.112	5.44
448.466	5.44
448.82	5.43
449.175	5.42
449.529	5.43
449.883	5.42
450.238	5.42
450.592	5.42
450.946	5.41
451.3	5.4
451.654	5.4
452.008	5.39
452.362	5.38
452.716	5.4
453.07	5.38
453.424	5.38
453.778	5.38
454.132	5.4
454.486	5.39
454.839	5.37
455.193	5.35
455.547	5.38
455.9	5.39
456.254	5.4
456.607	5.4
456.961	5.4
457.314	5.42
457.668	5.42
458.021	5.4
458.375	5.41
458.728	5.39
459.081	5.4
459.434	5.4
459.787	5.4
460.141	5.4
460.494	5.42
460.847	5.41
461.2	5.39
461.553	5.38
461.906	5.4
462.259	5.43
462.611	5.47
462.964	5.47
463.317	5.46
463.67	5.48
464.022	5.48
464.375	5.47
464.728	5.47
465.08	5.48
465.433	5.5
465.785	5.52
466.138	5.54
466.49	5.53
466.843	5.53
467.195	5.53
467.547	5.55
467.899	5.56
468.252	5.58
468.604	5.6
468.956	5.62
469.308	5.61
469.66	5.62
470.012	5.63
470.364	5.65
470.716	5.65
471.068	5.64
471.42	5.64
471.772	5.65
472.123	5.66
472.475	5.66
472.827	5.68
473.178	5.68
473.53	5.67
473.882	5.68
474.233	5.69
474.585	5.7
474.936	5.68
475.288	5.68
475.639	5.68
475.99	5.69
476.342	5.67
476.693	5.67
477.044	5.66
477.395	5.65
477.746	5.63
478.097	5.63
478.448	5.63
478.8	5.63
479.15	5.63
479.501	5.64
479.852	5.66
480.203	5.67
480.554	5.7
480.905	5.72
481.255	5.73
481.606	5.76
481.957	5.76
482.307	5.78
482.658	5.78
483.009	5.78
483.359	5.79
483.709	5.8
484.06	5.8
484.41	5.82
484.761	5.81
485.111	5.82
485.461	5.82
485.811	5.83
486.162	5.84
486.512	5.84
486.862	5.84
487.212	5.84
487.562	5.84
487.912	5.83
488.262	5.82
488.612	5.82
488.961	5.81
489.311	5.8
489.661	5.79
490.011	5.79
490.36	5.79
490.71	5.78
491.06	5.78
491.409	5.78
491.759	5.77
492.108	5.78
492.458	5.77
492.807	5.76
493.157	5.78
493.506	5.78
493.855	5.77
494.204	5.77
494.554	5.79
494.903	5.78
495.252	5.77
495.601	5.8
495.95	5.8
496.299	5.8
496.648	5.81
496.997	5.82
497.346	5.84
497.695	5.86
498.043	5.86
498.392	5.88
498.741	5.89
499.09	5.89
499.438	5.9
499.787	5.92
500.135	5.97
500.484	5.96
500.832	5.98
501.181	5.99
501.529	5.99
501.878	6
502.226	6.01
502.574	6.02
502.923	6.02
503.271	6.02
503.619	6.04
503.967	6.05
504.315	6.04
504.663	6.05
505.011	6.03
505.359	6.02
505.707	6.03
506.055	6.05
506.403	6.07
506.751	6.09
507.098	6.07
507.446	6.07
507.794	6.07
508.141	6.09
508.489	6.14
508.837	6.16
509.184	6.17
509.531	6.17
509.879	6.2
510.226	6.22
510.574	6.25
510.921	6.26
511.268	6.27
511.616	6.29
511.963	6.29
512.31	6.31
512.657	6.35
513.004	6.35
513.351	6.35
513.698	6.34
514.045	6.35
514.392	6.39
514.739	6.38
515.086	6.42
515.432	6.4
515.779	6.4
516.126	6.41
516.473	6.42
516.819	6.43
517.166	6.44
517.512	6.44
517.859	6.45
518.205	6.45
518.552	6.47
518.898	6.47
519.245	6.49
519.591	6.5
519.937	6.49
520.283	6.52
520.629	6.53
520.976	6.56
521.322	6.56
521.668	6.57
522.014	6.6
522.36	6.61
522.706	6.62
523.052	6.64
523.398	6.64
523.743	6.63
524.089	6.64
524.435	6.63
524.781	6.64
525.126	6.64
525.472	6.66
525.817	6.67
526.163	6.67
526.509	6.68
526.854	6.68
527.199	6.69
527.545	6.68
527.89	6.69
528.235	6.69
528.581	6.7
528.926	6.7
529.271	6.7
529.616	6.69
529.961	6.7
530.306	6.7
530.651	6.7
530.996	6.71
531.341	6.72
531.686	6.74
532.031	6.75
532.376	6.75
532.721	6.76
533.065	6.76
533.41	6.76
533.755	6.78
534.099	6.8
534.444	6.81
534.788	6.82
535.133	6.81
535.477	6.83
535.822	6.83
536.166	6.82
536.51	6.81
536.855	6.82
537.199	6.81
537.543	6.82
537.887	6.81
538.231	6.8
538.576	6.81
538.92	6.81
539.264	6.8
539.608	6.81
539.951	6.78
540.295	6.81
540.639	6.82
540.983	6.8
541.327	6.8
541.671	6.8
542.014	6.8
542.358	6.81
542.701	6.82
543.045	6.82
543.389	6.84
543.732	6.85
544.075	6.86
544.419	6.86
544.762	6.86
545.105	6.86
545.449	6.88
545.792	6.86
546.135	6.85
546.478	6.87
546.821	6.86
547.165	6.89
547.508	6.87
547.851	6.87
548.194	6.89
548.536	6.88
548.879	6.89
549.222	6.89
549.565	6.88
549.908	6.86
550.25	6.86
550.593	6.86
550.936	6.85
551.278	6.87
551.621	6.89
551.963	6.9
552.306	6.9
552.648	6.89
552.991	6.93
553.333	6.94
553.675	6.93
554.017	6.95
554.36	6.91
554.702	6.93
555.044	6.93
555.386	6.92
555.728	6.93
556.07	6.93
556.412	6.96
556.754	6.95
557.096	6.99
557.438	6.99
557.78	7
558.121	7.04
558.463	7.02
558.805	6.99
559.147	6.97
559.488	7
559.83	7.03
560.171	7.02
560.513	7.02
560.854	6.99
561.196	7
561.537	7.01
561.878	6.99
562.22	6.98
562.561	6.98
562.902	7
563.243	6.99
563.584	6.97
563.925	6.99
564.266	6.96
564.607	6.98
564.948	6.97
565.289	6.93
565.63	6.96
565.971	6.98
566.312	6.99
566.653	6.98
566.993	6.98
567.334	6.97
567.675	6.94
568.015	6.95
568.356	6.96
568.696	6.97
569.037	6.96
569.377	6.96
569.718	6.97
570.058	6.98
570.398	7
570.739	6.99
571.079	6.97
571.419	6.97
571.759	6.98
572.099	6.98
572.439	7
572.779	7
573.119	7.01
573.459	7.06
573.799	7.07
574.139	7.08
574.479	7.07
574.819	7.1
575.158	7.11
575.498	7.08
575.838	7.09
576.177	7.07
576.517	7.06
576.856	7.07
577.196	7.05
577.535	7.03
577.875	7.07
578.214	7.06
578.553	7.1
578.893	7.1
579.232	7.11
579.571	7.11
579.91	7.11
580.25	7.11
580.589	7.05
580.928	7.03
581.267	7
581.606	7.02
581.945	7.04
582.283	7.06
582.622	7.07
582.961	7.12
583.3	7.18
583.639	7.23
583.977	7.24
584.316	7.26
584.654	7.28
584.993	7.25
585.332	7.3
585.67	7.31
586.008	7.29
586.347	7.28
586.685	7.24
587.024	7.22
587.362	7.25
587.7	7.28
588.038	7.3
588.376	7.3
588.715	7.34
589.053	7.32
589.391	7.33
589.729	7.38
590.067	7.34
590.404	7.34
590.742	7.35
591.08	7.3
591.418	7.31
591.756	7.3
592.093	7.3
592.431	7.29
592.769	7.28
593.106	7.28
593.444	7.26
593.781	7.3
594.119	7.3
594.456	7.27
594.793	7.28
595.131	7.3
595.468	7.32
595.805	7.31
596.143	7.32
596.48	7.32
596.817	7.26
597.154	7.27
597.491	7.26
597.828	7.23
598.165	7.25
598.502	7.21
598.839	7.23
599.176	7.23
599.512	7.22
599.849	7.2
600.186	7.19
600.523	7.25
600.859	7.26
601.196	7.28
601.532	7.3
601.869	7.28
602.205	7.26
602.542	7.29
602.878	7.3
603.215	7.27
603.551	7.29
603.887	7.34
604.223	7.34
604.56	7.34
604.896	7.35
605.232	7.36
605.568	7.42
605.904	7.4
606.24	7.41
606.576	7.4
606.912	7.43
607.248	7.45
607.583	7.47
607.919	7.47
608.255	7.48
608.591	7.52
608.926	7.52
609.262	7.53
609.597	7.49
609.933	7.48
610.268	7.53
610.604	7.54
610.939	7.53
611.275	7.52
611.61	7.52
611.945	7.58
612.281	7.56
612.616	7.51
612.951	7.54
613.286	7.54
613.621	7.56
613.956	7.53
614.291	7.56
614.626	7.54
614.961	7.56
615.296	7.57
615.631	7.54
615.966	7.55
616.3	7.57
616.635	7.62
616.97	7.66
617.304	7.64
617.639	7.65
617.973	7.68
618.308	7.66
618.642	7.68
618.977	7.61
619.311	7.62
619.646	7.68
619.98	7.67
620.314	7.7
620.648	7.73
620.983	7.78
621.317	7.73
621.651	7.76
621.985	7.74
622.319	7.74
622.653	7.74
622.987	7.79
623.321	7.81
623.655	7.8
623.988	7.82
624.322	7.81
624.656	7.85
624.99	7.81
625.323	7.88
625.657	7.86
625.99	7.87
626.324	7.89
626.657	7.89
626.991	7.9
627.324	7.91
627.658	7.89
627.991	7.91
628.324	7.95
628.657	7.88
628.991	7.89
629.324	7.88
629.657	7.9
629.99	7.88
630.323	7.86
630.656	7.87
630.989	7.87
631.322	7.88
631.655	7.86
631.987	7.88
632.32	7.86
632.653	7.87
632.986	7.9
633.318	7.9
633.651	7.87
633.984	7.87
634.316	7.85
634.649	7.84
634.981	7.8
635.313	7.77
635.646	7.77
635.978	7.79
636.31	7.8
636.643	7.71
636.975	7.72
637.307	7.69
637.639	7.65
637.971	7.6
638.303	7.57
638.635	7.51
638.967	7.48
639.299	7.5
639.631	7.49
639.963	7.51
640.295	7.54
640.626	7.58
640.958	7.63
641.29	7.67
641.621	7.71
641.953	7.76
642.285	7.77
642.616	7.83
642.948	7.77
643.279	7.83
643.61	7.91
643.942	7.92
644.273	7.93
644.604	7.94
644.936	7.91
645.267	7.94
645.598	8.01
645.929	8.05
646.26	8.09
646.591	8.12
646.922	8.09
647.253	8.09
647.584	8.07
647.915	7.94
648.245	7.9
648.576	7.9
648.907	7.85
649.238	7.85
649.568	7.83
649.899	7.93
650.229	7.86
650.56	7.92
650.89	7.93
651.221	7.98
651.551	7.96
651.882	7.97
652.212	7.93
652.542	7.91
652.872	7.89
653.203	7.88
653.533	7.79
653.863	7.75
654.193	7.7
654.523	7.67
654.853	7.78
655.183	7.82
655.513	7.8
655.843	7.84
656.172	7.88
656.502	7.92
656.832	7.9
657.162	7.96
657.491	7.91
657.821	7.9
658.15	7.92
658.48	7.97
658.809	8.02
659.139	8.06
659.468	8.04
659.798	8.09
660.127	8.12
660.456	8.21
660.785	8.22
661.115	8.26
661.444	8.36
661.773	8.3
662.102	8.33
662.431	8.4
662.76	8.43
663.089	8.45
663.418	8.49
663.747	8.53
664.076	8.47
664.404	8.49
664.733	8.59
665.062	8.55
665.39	8.51
665.719	8.44
666.048	8.47
666.376	8.5
666.705	8.44
667.033	8.42
667.362	8.43
667.69	8.51
668.018	8.48
668.347	8.48
668.675	8.51
669.003	8.52
669.331	8.5
669.659	8.51
669.987	8.44
670.315	8.38
670.643	8.42
670.971	8.47
671.299	8.63
671.627	8.52
671.955	8.51
672.283	8.63
672.61	8.71
672.938	8.72
673.266	8.67
673.593	8.76
673.921	8.74
674.249	8.72
674.576	8.65
674.904	8.66
675.231	8.56
675.558	8.5
675.886	8.5
676.213	8.48
676.54	8.4
