Data from BA28304_Reflection_00004.txt Node
Date: Mon Nov 18 15:35:59 EST 2019
User: vgr7
Spectrometer: USB2G7710
Scans to average: 3
Trigger mode: 4
Integration Time (sec): 2.000000E-2
Electric dark correction enabled: true
Boxcar width: 10
XAxis mode: Wavelengths
Number of Pixels in Spectrum: 2048
>>>>>Begin Spectral Data<<<<<
177.721	100.82
178.105	60.69
178.488	68.53
178.871	401.98
179.254	35.48
179.636	64.63
180.019	117.35
180.402	158.06
180.785	-501.5
181.168	-2087.5
181.55	570.59
181.933	144.69
182.316	134.98
182.698	167.19
183.081	292.67
183.463	6053.49
183.846	-1039.93
184.228	-716.71
184.611	5845.45
184.993	3264.56
185.376	-1900
185.758	-327.38
186.14	-239.66
186.522	-290.61
186.904	-1072.41
187.287	-1135.06
187.669	-329.91
188.051	-553.5
188.433	-613.63
188.815	-431.28
189.197	-343.13
189.579	-210.99
189.961	-170.06
190.342	-124.47
190.724	-73.26
191.106	-74.46
191.488	-80.46
191.869	-78.06
192.251	-59.55
192.633	-49.93
193.014	-56.59
193.396	-88.75
193.777	-95.11
194.159	-107.51
194.54	-71.5
194.922	-66.47
195.303	-60.99
195.684	-61.21
196.065	-49.99
196.447	-22.91
196.828	-43.94
197.209	-65.85
197.59	-85.8
197.971	-89.31
198.352	-63.09
198.733	-70.63
199.114	-40.26
199.495	-36.61
199.876	-22.11
200.257	-49.49
200.638	-76
201.018	-70.12
201.399	-56.11
201.78	-32.28
202.16	-49.86
202.541	-151.81
202.922	-424.24
203.302	-1129.57
203.683	-498.05
204.063	334100
204.444	-743.68
204.824	-281.05
205.204	-104.47
205.585	-129.15
205.965	-191.17
206.345	-520.79
206.725	-424.06
207.106	-827.31
207.486	1974.44
207.866	-2454.91
208.246	-333.88
208.626	-312.33
209.006	-225.69
209.386	-346.04
209.766	-346.96
210.145	-152.33
210.525	-79.27
210.905	-62
211.285	-26.96
211.664	-15.79
212.044	-33.1
212.424	-18.56
212.803	-39.79
213.183	-61.24
213.562	-34.78
213.942	-1.03
214.321	13.51
214.701	5.43
215.08	-13.8
215.459	-10.85
215.838	-23.1
216.218	-26.72
216.597	-66.24
216.976	-40.18
217.355	-41.22
217.734	-45.75
218.113	-72.94
218.492	-76.78
218.871	-77.05
219.25	-83.8
219.629	-94.25
220.008	-46.75
220.387	-53.33
220.766	-54.35
221.144	-53.7
221.523	-44.57
221.902	-49.85
222.28	-45.31
222.659	-27.52
223.037	-13.47
223.416	-13.82
223.794	-8.71
224.173	-14.47
224.551	-0.39
224.929	-7.21
225.308	-3.18
225.686	-0.36
226.064	7.84
226.442	10.57
226.821	17.49
227.199	17.14
227.577	12.97
227.955	14
228.333	13.88
228.711	15.29
229.089	12.84
229.467	9.16
229.845	6.53
230.222	4.62
230.6	1.83
230.978	-1.03
231.356	1.74
231.733	3.22
232.111	6.48
232.488	5.86
232.866	5.9
233.243	7.5
233.621	8.16
233.998	7.77
234.376	7.3
234.753	5.65
235.13	4.83
235.508	5.44
235.885	5.17
236.262	3.86
236.639	2.72
237.016	4.9
237.393	5.89
237.77	6.02
238.147	5.36
238.524	5.6
238.901	5.8
239.278	6.24
239.655	5.74
240.032	5.13
240.409	4.53
240.785	4.68
241.162	4.39
241.539	3.92
241.915	3.99
242.292	3.67
242.668	3.48
243.045	3.52
243.421	3.62
243.798	3.5
244.174	3.53
244.551	3.97
244.927	4
245.303	4.09
245.679	4.35
246.056	4.17
246.432	4.15
246.808	4.33
247.184	3.83
247.56	3.66
247.936	3.5
248.312	3.44
248.688	3.4
249.064	3.22
249.44	3.19
249.815	3.13
250.191	3.23
250.567	3.43
250.943	3.33
251.318	3.24
251.694	3.19
252.069	3.23
252.445	3.04
252.82	2.67
253.196	2.52
253.571	2.37
253.947	2.71
254.322	2.67
254.697	2.36
255.073	2.49
255.448	2.97
255.823	3.1
256.198	3.41
256.573	3.35
256.948	3.45
257.323	3.65
257.698	3.67
258.073	3.58
258.448	3.45
258.823	3.53
259.198	3.54
259.573	3.63
259.948	3.53
260.322	3.58
260.697	3.63
261.072	3.58
261.446	3.53
261.821	3.47
262.195	3.55
262.57	3.53
262.944	3.45
263.319	3.18
263.693	3.18
264.067	3.27
264.442	3.43
264.816	3.45
265.19	3.19
265.564	3.03
265.938	2.96
266.313	3
266.687	3
267.061	3.19
267.435	3.03
267.809	3.08
268.183	3.03
268.556	3.17
268.93	3.35
269.304	3.47
269.678	3.54
270.051	3.5
270.425	3.69
270.799	3.73
271.172	3.82
271.546	3.75
271.919	3.59
272.293	3.52
272.666	3.44
273.04	3.62
273.413	3.57
273.787	3.61
274.16	3.53
274.533	3.48
274.906	3.42
275.279	3.47
275.653	3.42
276.026	3.43
276.399	3.34
276.772	3.22
277.145	3.05
277.518	2.98
277.891	2.96
278.263	2.75
278.636	2.75
279.009	2.7
279.382	2.91
279.755	2.84
280.127	2.93
280.5	3.05
280.872	3.08
281.245	3.13
281.617	3.2
281.99	3.23
282.362	3.32
282.735	3.14
283.107	3.14
283.479	3.23
283.852	3.14
284.224	3.12
284.596	3.08
284.968	3.32
285.34	3.31
285.713	3.19
286.085	3.29
286.457	3.31
286.829	3.34
287.201	3.29
287.572	3.3
287.944	3.24
288.316	3.32
288.688	3.28
289.06	3.29
289.431	3.27
289.803	3.36
290.175	3.34
290.546	3.38
290.918	3.36
291.289	3.32
291.661	3.51
292.032	3.75
292.403	3.78
292.775	3.73
293.146	3.71
293.517	3.8
293.889	3.78
294.26	3.78
294.631	3.8
295.002	3.76
295.373	3.75
295.744	3.82
296.115	3.78
296.486	3.69
296.857	3.64
297.228	3.68
297.599	3.55
297.97	3.51
298.34	3.59
298.711	3.69
299.082	3.66
299.452	3.57
299.823	3.46
300.194	3.49
300.564	3.4
300.935	3.5
301.305	3.45
301.676	3.45
302.046	3.46
302.416	3.62
302.787	3.69
303.157	3.71
303.527	3.63
303.897	3.52
304.267	3.62
304.637	3.59
305.008	3.59
305.378	3.63
305.748	3.65
306.117	3.51
306.487	3.49
306.857	3.55
307.227	3.6
307.597	3.47
307.967	3.44
308.336	3.5
308.706	3.39
309.076	3.49
309.445	3.4
309.815	3.45
310.184	3.31
310.554	3.3
310.923	3.24
311.293	3.23
311.662	3.27
312.031	3.19
312.401	3.27
312.77	3.22
313.139	3.16
313.508	3.23
313.877	3.23
314.246	3.27
314.616	3.14
314.985	3.21
315.353	3.21
315.722	3.21
316.091	3.04
316.46	3.05
316.829	3.04
317.198	3.21
317.567	3.12
317.935	3.01
318.304	3.11
318.672	3.07
319.041	3.13
319.41	3.03
319.778	3
320.147	2.95
320.515	2.78
320.883	2.92
321.252	2.82
321.62	2.9
321.988	2.97
322.357	3.09
322.725	2.99
323.093	3.06
323.461	3.06
323.829	3.06
324.197	3.09
324.565	2.96
324.933	2.96
325.301	2.89
325.669	2.89
326.037	2.84
326.405	2.99
326.772	2.98
327.14	3.02
327.508	3.1
327.875	2.96
328.243	3.06
328.61	3.08
328.978	3.07
329.346	3.04
329.713	2.89
330.08	2.78
330.448	2.68
330.815	2.52
331.182	2.48
331.55	2.55
331.917	2.57
332.284	2.61
332.651	2.42
333.018	2.54
333.385	2.49
333.752	2.36
334.119	2.31
334.486	2.23
334.853	2.23
335.22	2.19
335.587	2.3
335.954	2.3
336.32	2.27
336.687	2.24
337.054	2.27
337.42	2.3
337.787	2.42
338.153	2.51
338.52	2.61
338.886	2.61
339.253	2.54
339.619	2.55
339.986	2.55
340.352	2.66
340.718	2.66
341.084	2.69
341.451	2.72
341.817	2.79
342.183	2.85
342.549	2.8
342.915	2.89
343.281	2.87
343.647	2.86
344.013	2.88
344.379	2.84
344.745	2.88
345.11	2.89
345.476	2.92
345.842	2.82
346.208	2.78
346.573	2.88
346.939	2.98
347.304	2.96
347.67	2.96
348.035	2.99
348.401	3.01
348.766	3.03
349.132	3.03
349.497	2.99
349.862	2.99
350.228	3
350.593	2.91
350.958	2.9
351.323	2.94
351.688	2.95
352.053	3.08
352.418	3.09
352.783	3.07
353.148	2.97
353.513	3
353.878	3.04
354.243	3.01
354.608	3.07
354.972	3.05
355.337	3.09
355.702	3.12
356.066	3.14
356.431	3.11
356.795	3.15
357.16	3.13
357.524	3.08
357.889	3.05
358.253	3.05
358.618	3.11
358.982	3.08
359.346	3.02
359.71	2.92
360.075	2.94
360.439	2.98
360.803	2.97
361.167	2.97
361.531	2.95
361.895	2.92
362.259	2.86
362.623	2.91
362.987	2.91
363.351	2.9
363.714	2.83
364.078	2.89
364.442	2.81
364.806	2.82
365.169	2.85
365.533	2.85
365.896	2.84
366.26	2.85
366.623	2.86
366.987	2.86
367.35	2.9
367.714	2.89
368.077	2.86
368.44	2.9
368.803	2.95
369.167	2.94
369.53	2.91
369.893	2.87
370.256	2.84
370.619	2.8
370.982	2.73
371.345	2.75
371.708	2.71
372.071	2.74
372.434	2.65
372.797	2.61
373.159	2.62
373.522	2.62
373.885	2.55
374.247	2.59
374.61	2.6
374.973	2.6
375.335	2.56
375.698	2.62
376.06	2.59
376.423	2.58
376.785	2.66
377.147	2.7
377.51	2.76
377.872	2.81
378.234	2.76
378.596	2.8
378.958	2.84
379.321	2.86
379.683	2.88
380.045	2.95
380.407	2.98
380.769	3.01
381.13	3.03
381.492	3.02
381.854	2.99
382.216	2.99
382.578	2.98
382.939	2.98
383.301	2.9
383.663	2.91
384.024	2.91
384.386	2.87
384.747	2.84
385.109	2.86
385.47	2.77
385.832	2.81
386.193	2.79
386.554	2.74
386.916	2.71
387.277	2.72
387.638	2.73
387.999	2.74
388.36	2.74
388.721	2.77
389.082	2.77
389.443	2.77
389.804	2.77
390.165	2.79
390.526	2.79
390.887	2.79
391.248	2.78
391.609	2.78
391.969	2.77
392.33	2.79
392.691	2.71
393.051	2.76
393.412	2.79
393.772	2.8
394.133	2.83
394.493	2.86
394.854	2.87
395.214	2.84
395.574	2.81
395.935	2.83
396.295	2.82
396.655	2.83
397.015	2.83
397.376	2.85
397.736	2.81
398.096	2.82
398.456	2.82
398.816	2.84
399.176	2.8
399.535	2.8
399.895	2.79
400.255	2.85
400.615	2.83
400.975	2.84
401.334	2.82
401.694	2.82
402.054	2.78
402.413	2.75
402.773	2.76
403.132	2.76
403.492	2.76
403.851	2.76
404.211	2.77
404.57	2.79
404.929	2.79
405.288	2.81
405.648	2.81
406.007	2.82
406.366	2.79
406.725	2.84
407.084	2.84
407.443	2.85
407.802	2.85
408.161	2.84
408.52	2.8
408.879	2.78
409.238	2.79
409.596	2.82
409.955	2.81
410.314	2.82
410.673	2.8
411.031	2.78
411.39	2.78
411.748	2.78
412.107	2.75
412.465	2.77
412.824	2.77
413.182	2.78
413.54	2.79
413.899	2.81
414.257	2.79
414.615	2.78
414.974	2.78
415.332	2.76
415.69	2.78
416.048	2.81
416.406	2.83
416.764	2.82
417.122	2.8
417.48	2.79
417.838	2.8
418.195	2.82
418.553	2.82
418.911	2.81
419.269	2.8
419.626	2.82
419.984	2.82
420.342	2.82
420.699	2.82
421.057	2.82
421.414	2.83
421.772	2.82
422.129	2.83
422.486	2.84
422.844	2.83
423.201	2.82
423.558	2.81
423.915	2.81
424.273	2.82
424.63	2.83
424.987	2.84
425.344	2.85
425.701	2.85
426.058	2.85
426.415	2.86
426.772	2.86
427.128	2.86
427.485	2.85
427.842	2.82
428.199	2.83
428.555	2.83
428.912	2.83
429.269	2.86
429.625	2.84
429.982	2.82
430.338	2.84
430.695	2.84
431.051	2.83
431.407	2.83
431.764	2.83
432.12	2.82
432.476	2.83
432.832	2.8
433.189	2.79
433.545	2.79
433.901	2.79
434.257	2.77
434.613	2.78
434.969	2.78
435.325	2.81
435.681	2.82
436.036	2.82
436.392	2.8
436.748	2.8
437.104	2.8
437.459	2.79
437.815	2.81
438.171	2.83
438.526	2.83
438.882	2.84
439.237	2.84
439.593	2.86
439.948	2.84
440.304	2.86
440.659	2.87
441.014	2.88
441.369	2.86
441.725	2.88
442.08	2.88
442.435	2.85
442.79	2.83
443.145	2.82
443.5	2.81
443.855	2.81
444.21	2.81
444.565	2.82
444.92	2.84
445.275	2.82
445.629	2.8
445.984	2.8
446.339	2.78
446.693	2.76
447.048	2.76
447.403	2.75
447.757	2.75
448.112	2.75
448.466	2.74
448.82	2.73
449.175	2.73
449.529	2.71
449.883	2.74
450.238	2.74
450.592	2.74
450.946	2.73
451.3	2.73
451.654	2.73
452.008	2.72
452.362	2.7
452.716	2.69
453.07	2.71
453.424	2.72
453.778	2.73
454.132	2.74
454.486	2.73
454.839	2.74
455.193	2.73
455.547	2.73
455.9	2.75
456.254	2.77
456.607	2.77
456.961	2.79
457.314	2.77
457.668	2.78
458.021	2.78
458.375	2.78
458.728	2.8
459.081	2.8
459.434	2.79
459.787	2.81
460.141	2.82
460.494	2.82
460.847	2.82
461.2	2.81
461.553	2.82
461.906	2.83
462.259	2.84
462.611	2.86
462.964	2.87
463.317	2.85
463.67	2.84
464.022	2.84
464.375	2.82
464.728	2.84
465.08	2.83
465.433	2.83
465.785	2.84
466.138	2.82
466.49	2.81
466.843	2.82
467.195	2.81
467.547	2.81
467.899	2.81
468.252	2.8
468.604	2.83
468.956	2.84
469.308	2.83
469.66	2.83
470.012	2.83
470.364	2.84
470.716	2.84
471.068	2.85
471.42	2.85
471.772	2.88
472.123	2.88
472.475	2.9
472.827	2.91
473.178	2.91
473.53	2.93
473.882	2.93
474.233	2.93
474.585	2.93
474.936	2.91
475.288	2.91
475.639	2.94
475.99	2.92
476.342	2.9
476.693	2.91
477.044	2.91
477.395	2.91
477.746	2.91
478.097	2.91
478.448	2.92
478.8	2.92
479.15	2.91
479.501	2.9
479.852	2.89
480.203	2.9
480.554	2.9
480.905	2.91
481.255	2.91
481.606	2.92
481.957	2.93
482.307	2.94
482.658	2.95
483.009	2.94
483.359	2.94
483.709	2.94
484.06	2.94
484.41	2.94
484.761	2.94
485.111	2.94
485.461	2.94
485.811	2.94
486.162	2.94
486.512	2.95
486.862	2.95
487.212	2.96
487.562	2.95
487.912	2.96
488.262	2.95
488.612	2.95
488.961	2.94
489.311	2.95
489.661	2.95
490.011	2.94
490.36	2.94
490.71	2.95
491.06	2.96
491.409	2.95
491.759	2.94
492.108	2.95
492.458	2.95
492.807	2.95
493.157	2.96
493.506	2.96
493.855	2.96
494.204	2.95
494.554	2.95
494.903	2.95
495.252	2.95
495.601	2.96
495.95	2.97
496.299	2.96
496.648	2.95
496.997	2.94
497.346	2.96
497.695	2.94
498.043	2.95
498.392	2.94
498.741	2.96
499.09	2.95
499.438	2.95
499.787	2.96
500.135	2.97
500.484	2.97
500.832	2.95
501.181	2.96
501.529	2.97
501.878	2.98
502.226	2.99
502.574	3
502.923	2.99
503.271	2.99
503.619	3
503.967	3.02
504.315	3.01
504.663	3.01
505.011	3.02
505.359	3.02
505.707	3.04
506.055	3.03
506.403	3.04
506.751	3.04
507.098	3.04
507.446	3.03
507.794	3.03
508.141	3.04
508.489	3.05
508.837	3.05
509.184	3.05
509.531	3.06
509.879	3.07
510.226	3.08
510.574	3.08
510.921	3.08
511.268	3.07
511.616	3.09
511.963	3.1
512.31	3.11
512.657	3.12
513.004	3.11
513.351	3.12
513.698	3.13
514.045	3.13
514.392	3.13
514.739	3.13
515.086	3.13
515.432	3.12
515.779	3.12
516.126	3.12
516.473	3.14
516.819	3.14
517.166	3.13
517.512	3.11
517.859	3.12
518.205	3.13
518.552	3.14
518.898	3.12
519.245	3.12
519.591	3.11
519.937	3.1
520.283	3.09
520.629	3.1
520.976	3.1
521.322	3.11
521.668	3.11
522.014	3.12
522.36	3.12
522.706	3.12
523.052	3.12
523.398	3.12
523.743	3.12
524.089	3.14
524.435	3.14
524.781	3.17
525.126	3.16
525.472	3.16
525.817	3.16
526.163	3.17
526.509	3.18
526.854	3.2
527.199	3.21
527.545	3.21
527.89	3.21
528.235	3.21
528.581	3.21
528.926	3.22
529.271	3.22
529.616	3.22
529.961	3.23
530.306	3.23
530.651	3.23
530.996	3.23
531.341	3.23
531.686	3.23
532.031	3.22
532.376	3.24
532.721	3.23
533.065	3.24
533.41	3.24
533.755	3.23
534.099	3.23
534.444	3.22
534.788	3.22
535.133	3.24
535.477	3.24
535.822	3.25
536.166	3.24
536.51	3.25
536.855	3.26
537.199	3.26
537.543	3.27
537.887	3.28
538.231	3.28
538.576	3.28
538.92	3.27
539.264	3.27
539.608	3.28
539.951	3.29
540.295	3.29
540.639	3.28
540.983	3.29
541.327	3.3
541.671	3.3
542.014	3.3
542.358	3.3
542.701	3.3
543.045	3.3
543.389	3.3
543.732	3.31
544.075	3.31
544.419	3.3
544.762	3.3
545.105	3.3
545.449	3.29
545.792	3.3
546.135	3.32
546.478	3.32
546.821	3.29
547.165	3.3
547.508	3.32
547.851	3.32
548.194	3.31
548.536	3.31
548.879	3.31
549.222	3.32
549.565	3.31
549.908	3.32
550.25	3.32
550.593	3.33
550.936	3.31
551.278	3.31
551.621	3.29
551.963	3.3
552.306	3.29
552.648	3.29
552.991	3.29
553.333	3.27
553.675	3.27
554.017	3.28
554.36	3.26
554.702	3.26
555.044	3.26
555.386	3.27
555.728	3.26
556.07	3.3
556.412	3.28
556.754	3.3
557.096	3.29
557.438	3.3
557.78	3.31
558.121	3.33
558.463	3.37
558.805	3.4
559.147	3.39
559.488	3.39
559.83	3.4
560.171	3.38
560.513	3.41
560.854	3.38
561.196	3.41
561.537	3.46
561.878	3.42
562.22	3.41
562.561	3.4
562.902	3.42
563.243	3.38
563.584	3.37
563.925	3.38
564.266	3.37
564.607	3.38
564.948	3.38
565.289	3.37
565.63	3.36
565.971	3.33
566.312	3.36
566.653	3.35
566.993	3.34
567.334	3.35
567.675	3.37
568.015	3.41
568.356	3.39
568.696	3.4
569.037	3.42
569.377	3.45
569.718	3.49
570.058	3.47
570.398	3.48
570.739	3.51
571.079	3.5
571.419	3.51
571.759	3.51
572.099	3.49
572.439	3.51
572.779	3.48
573.119	3.53
573.459	3.54
573.799	3.53
574.139	3.51
574.479	3.51
574.819	3.49
575.158	3.48
575.498	3.49
575.838	3.47
576.177	3.44
576.517	3.43
576.856	3.41
577.196	3.43
577.535	3.41
577.875	3.4
578.214	3.41
578.553	3.41
578.893	3.38
579.232	3.37
579.571	3.36
579.91	3.38
580.25	3.38
580.589	3.34
580.928	3.39
581.267	3.4
581.606	3.4
581.945	3.39
582.283	3.38
582.622	3.33
582.961	3.3
583.3	3.29
583.639	3.31
583.977	3.3
584.316	3.31
584.654	3.34
584.993	3.34
585.332	3.34
585.67	3.29
586.008	3.29
586.347	3.29
586.685	3.31
587.024	3.3
587.362	3.26
587.7	3.26
588.038	3.27
588.376	3.29
588.715	3.29
589.053	3.33
589.391	3.36
589.729	3.4
590.067	3.44
590.404	3.49
590.742	3.47
591.08	3.46
591.418	3.44
591.756	3.42
592.093	3.42
592.431	3.39
592.769	3.42
593.106	3.41
593.444	3.43
593.781	3.4
594.119	3.39
594.456	3.41
594.793	3.42
595.131	3.41
595.468	3.39
595.805	3.43
596.143	3.43
596.48	3.41
596.817	3.39
597.154	3.37
597.491	3.36
597.828	3.36
598.165	3.38
598.502	3.38
598.839	3.38
599.176	3.39
599.512	3.43
599.849	3.46
600.186	3.48
600.523	3.51
600.859	3.54
601.196	3.57
601.532	3.55
601.869	3.54
602.205	3.57
602.542	3.61
602.878	3.6
603.215	3.55
603.551	3.6
603.887	3.64
604.223	3.67
604.56	3.69
604.896	3.65
605.232	3.68
605.568	3.69
605.904	3.7
606.24	3.74
606.576	3.73
606.912	3.73
607.248	3.72
607.583	3.71
607.919	3.7
608.255	3.68
608.591	3.7
608.926	3.71
609.262	3.69
609.597	3.67
609.933	3.68
610.268	3.68
610.604	3.69
610.939	3.65
611.275	3.65
611.61	3.67
611.945	3.72
612.281	3.71
612.616	3.73
612.951	3.74
613.286	3.7
613.621	3.7
613.956	3.7
614.291	3.73
614.626	3.69
614.961	3.71
615.296	3.68
615.631	3.7
615.966	3.73
616.3	3.76
616.635	3.72
616.97	3.7
617.304	3.72
617.639	3.72
617.973	3.78
618.308	3.72
618.642	3.73
618.977	3.72
619.311	3.7
619.646	3.69
619.98	3.66
620.314	3.64
620.648	3.65
620.983	3.65
621.317	3.66
621.651	3.69
621.985	3.74
622.319	3.81
622.653	3.79
622.987	3.73
623.321	3.7
623.655	3.74
623.988	3.79
624.322	3.83
624.656	3.82
624.99	3.78
625.323	3.81
625.657	3.79
625.99	3.83
626.324	3.84
626.657	3.86
626.991	3.89
627.324	3.92
627.658	3.93
627.991	3.95
628.324	3.97
628.657	3.97
628.991	3.95
629.324	3.96
629.657	4
629.99	4.05
630.323	4.08
630.656	4.1
630.989	4.09
631.322	4.09
631.655	4.08
631.987	4.07
632.32	4.09
632.653	4.1
632.986	4.09
633.318	4.13
633.651	4.12
633.984	4.09
634.316	4.12
634.649	4.12
634.981	4.12
635.313	4.08
635.646	4.11
635.978	4.12
636.31	4.09
636.643	4.09
636.975	4.06
637.307	4.04
637.639	4.01
637.971	4.01
638.303	4.01
638.635	4.05
638.967	4.02
639.299	4
639.631	3.97
639.963	3.95
640.295	3.91
640.626	3.95
640.958	3.99
641.29	3.97
641.621	3.93
641.953	3.94
642.285	3.95
642.616	4
642.948	3.98
643.279	3.98
643.61	4.01
643.942	4.03
644.273	4.05
644.604	4.1
644.936	4.09
645.267	4.03
645.598	4
645.929	4.04
646.26	4.04
646.591	4.06
646.922	4.04
647.253	4.07
647.584	3.94
647.915	3.89
648.245	3.84
648.576	3.91
648.907	3.94
649.238	3.91
649.568	3.89
649.899	3.91
650.229	3.86
650.56	3.82
650.89	3.82
651.221	3.83
651.551	3.81
651.882	3.78
652.212	3.8
652.542	3.83
652.872	3.87
653.203	3.94
653.533	3.94
653.863	3.94
654.193	3.95
654.523	4.05
654.853	4.08
655.183	4.13
655.513	4.05
655.843	3.91
656.172	3.93
656.502	3.87
656.832	3.82
657.162	3.9
657.491	3.91
657.821	3.91
658.15	3.89
658.48	3.95
658.809	3.96
659.139	3.99
659.468	4
659.798	3.99
660.127	3.99
660.456	4.04
660.785	4.1
661.115	4.08
661.444	4.04
661.773	4.08
662.102	4.03
662.431	4.11
662.76	4.24
663.089	4.29
663.418	4.3
663.747	4.28
664.076	4.32
664.404	4.33
664.733	4.39
665.062	4.43
665.39	4.41
665.719	4.48
666.048	4.5
666.376	4.43
666.705	4.47
667.033	4.41
667.362	4.43
667.69	4.39
668.018	4.41
668.347	4.47
668.675	4.48
669.003	4.53
669.331	4.6
669.659	4.6
669.987	4.54
670.315	4.62
670.643	4.64
670.971	4.62
671.299	4.65
671.627	4.61
671.955	4.56
672.283	4.54
672.61	4.42
672.938	4.29
673.266	4.32
673.593	4.38
673.921	4.37
674.249	4.3
674.576	4.31
674.904	4.23
675.231	4.2
675.558	4.16
675.886	4.19
676.213	4.12
676.54	4.16
676.867	4.13
677.195	4.1
