Data from BA28306_Reflection_00003.txt Node
Date: Mon Nov 18 15:53:30 EST 2019
User: vgr7
Spectrometer: USB2G7710
Scans to average: 3
Trigger mode: 4
Integration Time (sec): 2.000000E-2
Electric dark correction enabled: true
Boxcar width: 10
XAxis mode: Wavelengths
Number of Pixels in Spectrum: 2048
>>>>>Begin Spectral Data<<<<<
177.721	-2929.13
178.105	-301.27
178.488	-479.38
178.871	-381.13
179.254	-954.95
179.636	-160.2
180.019	47.28
180.402	68.18
180.785	49.25
181.168	90.96
181.55	50.48
181.933	125.99
182.316	93.12
182.698	95.74
183.081	134.85
183.463	291.37
183.846	1105.08
184.228	-1126.52
184.611	-2404.35
184.993	-446.41
185.376	-361.05
185.758	-750.86
186.14	-403.62
186.522	-275.36
186.904	-213.65
187.287	-327.38
187.669	-264.23
188.051	-258.79
188.433	-165.75
188.815	-214.74
189.197	-235.72
189.579	-301.59
189.961	-250.78
190.342	-234.23
190.724	-205.8
191.106	-252.31
191.488	-234.27
191.869	-251.24
192.251	-360.74
192.633	-294.32
193.014	-297.94
193.396	-230.42
193.777	-177.01
194.159	-151.01
194.54	-187.11
194.922	-188.3
195.303	-167.05
195.684	-175.83
196.065	-158.11
196.447	-176.96
196.828	-263.74
197.209	-242.18
197.59	-270.14
197.971	-301.39
198.352	-193.05
198.733	-278.77
199.114	-169.62
199.495	-123.62
199.876	-125.09
200.257	-134.9
200.638	-112.11
201.018	-146.54
201.399	-166.72
201.78	-155.03
202.16	-221.57
202.541	-199.08
202.922	-251.96
203.302	-397.1
203.683	-370.78
204.063	-622.16
204.444	-453.27
204.824	-286.45
205.204	-231.03
205.585	-203.42
205.965	-172.16
206.345	-281.79
206.725	-229.07
207.106	-271.73
207.486	-426.61
207.866	-352.9
208.246	-315.57
208.626	-343.37
209.006	-236.62
209.386	-268.82
209.766	-244.69
210.145	-210.47
210.525	-193.69
210.905	-202.93
211.285	-139.42
211.664	-134.84
212.044	-100.19
212.424	-95.89
212.803	-104.11
213.183	-124.34
213.562	-123.51
213.942	-110.2
214.321	-92.7
214.701	-98.86
215.08	-96.43
215.459	-86.2
215.838	-100.92
216.218	-110.62
216.597	-105.08
216.976	-88.89
217.355	-64.2
217.734	-64.13
218.113	-63.51
218.492	-53.91
218.871	-54.61
219.25	-44.27
219.629	-42.49
220.008	-54.82
220.387	-67.86
220.766	-65.88
221.144	-75.26
221.523	-80.73
221.902	-87.32
222.28	-104.25
222.659	-94.85
223.037	-93.42
223.416	-107.44
223.794	-113.63
224.173	-117.59
224.551	-94.47
224.929	-102.58
225.308	-108.82
225.686	-100.93
226.064	-84.23
226.442	-78.58
226.821	-63.92
227.199	-62.91
227.577	-64.47
227.955	-60.16
228.333	-56.59
228.711	-51.36
229.089	-42.37
229.467	-40.94
229.845	-36.86
230.222	-31.21
230.6	-29.62
230.978	-29.93
231.356	-26.25
231.733	-24.61
232.111	-19.95
232.488	-19.29
232.866	-18.42
233.243	-17.06
233.621	-14.67
233.998	-12.33
234.376	-13.29
234.753	-13.55
235.13	-14.12
235.508	-10.74
235.885	-8.05
236.262	-6.64
236.639	-5.43
237.016	-4.53
237.393	-2.67
237.77	-1.77
238.147	-1.74
238.524	-0.68
238.901	0.87
239.278	1.6
239.655	2.95
240.032	3
240.409	2.85
240.785	3.48
241.162	3.53
241.539	3.68
241.915	2.66
242.292	3.09
242.668	3.14
243.045	3.78
243.421	3.38
243.798	2.91
244.174	3.14
244.551	3.29
244.927	3.35
245.303	3.38
245.679	3.73
246.056	3.87
246.432	3.71
246.808	3.62
247.184	3.49
247.56	3.39
247.936	3.35
248.312	3.19
248.688	3.19
249.064	3.22
249.44	3.23
249.815	3.58
250.191	3.69
250.567	3.59
250.943	3.3
251.318	3.66
251.694	3.83
252.069	3.69
252.445	3.52
252.82	3.53
253.196	3.35
253.571	3.26
253.947	3.25
254.322	3.47
254.697	3.2
255.073	3.12
255.448	2.86
255.823	2.77
256.198	3.1
256.573	2.88
256.948	2.94
257.323	3.18
257.698	3.22
258.073	3.32
258.448	3.52
258.823	3.51
259.198	3.32
259.573	3.29
259.948	3.29
260.322	3.43
260.697	3.33
261.072	3.24
261.446	3.2
261.821	3.26
262.195	3.4
262.57	3.57
262.944	3.69
263.319	3.72
263.693	3.83
264.067	3.91
264.442	4.11
264.816	4.19
265.19	4.03
265.564	4.03
265.938	3.69
266.313	3.69
266.687	3.66
267.061	3.85
267.435	3.93
267.809	3.96
268.183	3.86
268.556	3.82
268.93	3.95
269.304	3.89
269.678	3.75
270.051	3.62
270.425	3.58
270.799	3.56
271.172	3.58
271.546	3.56
271.919	3.39
272.293	3.27
272.666	3.29
273.04	3.29
273.413	3.08
273.787	3.28
274.16	3.17
274.533	3.2
274.906	2.97
275.279	2.87
275.653	2.87
276.026	2.84
276.399	2.93
276.772	2.99
277.145	2.69
277.518	2.69
277.891	2.59
278.263	2.52
278.636	2.44
279.009	2.56
279.382	2.68
279.755	2.63
280.127	2.71
280.5	2.76
280.872	2.82
281.245	2.86
281.617	2.95
281.99	2.93
282.362	2.98
282.735	3.03
283.107	3.1
283.479	3.13
283.852	3.12
284.224	3.07
284.596	2.96
284.968	3.15
285.34	3.11
285.713	2.92
286.085	3.06
286.457	3.15
286.829	3.13
287.201	3.04
287.572	3.11
287.944	3.15
288.316	3.06
288.688	3.03
289.06	3.11
289.431	3.07
289.803	3.09
290.175	3.1
290.546	3.37
290.918	3.28
291.289	3.31
291.661	3.31
292.032	3.31
292.403	3.4
292.775	3.52
293.146	3.61
293.517	3.74
293.889	3.76
294.26	3.76
294.631	3.78
295.002	3.72
295.373	3.77
295.744	3.73
296.115	3.74
296.486	3.79
296.857	3.81
297.228	3.72
297.599	3.76
297.97	3.79
298.34	3.65
298.711	3.72
299.082	3.63
299.452	3.66
299.823	3.63
300.194	3.72
300.564	3.66
300.935	3.68
301.305	3.72
301.676	3.73
302.046	3.66
302.416	3.75
302.787	3.88
303.157	3.79
303.527	3.88
303.897	3.85
304.267	3.91
304.637	3.86
305.008	4.05
305.378	4.01
305.748	3.91
306.117	3.85
306.487	3.9
306.857	4.05
307.227	4.11
307.597	4.16
307.967	4.05
308.336	4.09
308.706	4.09
309.076	4.19
309.445	4.16
309.815	4.12
310.184	3.92
310.554	3.92
310.923	3.95
311.293	3.87
311.662	3.89
312.031	3.73
312.401	3.85
312.77	3.85
313.139	3.96
313.508	4.03
313.877	3.93
314.246	3.89
314.616	3.76
314.985	3.67
315.353	3.58
315.722	3.71
316.091	3.56
316.46	3.52
316.829	3.58
317.198	3.54
317.567	3.59
317.935	3.67
318.304	3.59
318.672	3.68
319.041	3.69
319.41	3.74
319.778	3.75
320.147	3.58
320.515	3.44
320.883	3.3
321.252	3.34
321.62	3.5
321.988	3.55
322.357	3.63
322.725	3.61
323.093	3.69
323.461	3.45
323.829	3.51
324.197	3.54
324.565	3.39
324.933	3.4
325.301	3.38
325.669	3.43
326.037	3.39
326.405	3.34
326.772	3.26
327.14	3.38
327.508	3.49
327.875	3.45
328.243	3.59
328.61	3.67
328.978	3.68
329.346	3.74
329.713	3.74
330.08	3.71
330.448	3.72
330.815	3.65
331.182	3.69
331.55	3.66
331.917	3.68
332.284	3.79
332.651	3.62
333.018	3.62
333.385	3.58
333.752	3.67
334.119	3.62
334.486	3.57
334.853	3.36
335.22	3.22
335.587	3.25
335.954	3.11
336.32	3.01
336.687	3.05
337.054	2.99
337.42	2.96
337.787	2.98
338.153	2.96
338.52	3.02
338.886	2.98
339.253	2.97
339.619	2.96
339.986	2.88
340.352	3
340.718	3.06
341.084	3.01
341.451	3.03
341.817	3.14
342.183	3.23
342.549	3.27
342.915	3.41
343.281	3.46
343.647	3.45
344.013	3.51
344.379	3.49
344.745	3.59
345.11	3.63
345.476	3.58
345.842	3.62
346.208	3.7
346.573	3.79
346.939	3.92
347.304	3.95
347.67	3.92
348.035	3.92
348.401	3.89
348.766	3.92
349.132	3.88
349.497	3.78
349.862	3.84
350.228	3.95
350.593	3.88
350.958	3.84
351.323	3.92
351.688	3.91
352.053	3.84
352.418	3.77
352.783	3.71
353.148	3.64
353.513	3.65
353.878	3.61
354.243	3.63
354.608	3.58
354.972	3.56
355.337	3.62
355.702	3.74
356.066	3.74
356.431	3.78
356.795	3.72
357.16	3.74
357.524	3.68
357.889	3.6
358.253	3.54
358.618	3.53
358.982	3.5
359.346	3.51
359.71	3.53
360.075	3.52
360.439	3.58
360.803	3.62
361.167	3.6
361.531	3.62
361.895	3.61
362.259	3.57
362.623	3.58
362.987	3.57
363.351	3.49
363.714	3.56
364.078	3.55
364.442	3.61
364.806	3.63
365.169	3.64
365.533	3.66
365.896	3.72
366.26	3.75
366.623	3.74
366.987	3.73
367.35	3.78
367.714	3.79
368.077	3.75
368.44	3.79
368.803	3.73
369.167	3.62
369.53	3.5
369.893	3.57
370.256	3.6
370.619	3.64
370.982	3.61
371.345	3.47
371.708	3.48
372.071	3.44
372.434	3.43
372.797	3.4
373.159	3.39
373.522	3.43
373.885	3.45
374.247	3.5
374.61	3.52
374.973	3.45
375.335	3.43
375.698	3.48
376.06	3.44
376.423	3.44
376.785	3.54
377.147	3.66
377.51	3.64
377.872	3.62
378.234	3.61
378.596	3.64
378.958	3.63
379.321	3.6
379.683	3.61
380.045	3.64
380.407	3.68
380.769	3.72
381.13	3.68
381.492	3.67
381.854	3.66
382.216	3.63
382.578	3.66
382.939	3.67
383.301	3.64
383.663	3.65
384.024	3.68
384.386	3.69
384.747	3.69
385.109	3.7
385.47	3.66
385.832	3.63
386.193	3.66
386.554	3.66
386.916	3.67
387.277	3.65
387.638	3.65
387.999	3.67
388.36	3.63
388.721	3.65
389.082	3.65
389.443	3.61
389.804	3.61
390.165	3.61
390.526	3.63
390.887	3.63
391.248	3.7
391.609	3.71
391.969	3.68
392.33	3.68
392.691	3.67
393.051	3.69
393.412	3.7
393.772	3.68
394.133	3.75
394.493	3.77
394.854	3.76
395.214	3.73
395.574	3.7
395.935	3.71
396.295	3.76
396.655	3.75
397.015	3.79
397.376	3.84
397.736	3.85
398.096	3.84
398.456	3.84
398.816	3.82
399.176	3.83
399.535	3.84
399.895	3.81
400.255	3.81
400.615	3.84
400.975	3.86
401.334	3.86
401.694	3.85
402.054	3.83
402.413	3.84
402.773	3.83
403.132	3.84
403.492	3.85
403.851	3.83
404.211	3.84
404.57	3.82
404.929	3.84
405.288	3.85
405.648	3.83
406.007	3.83
406.366	3.81
406.725	3.84
407.084	3.83
407.443	3.86
407.802	3.85
408.161	3.84
408.52	3.84
408.879	3.85
409.238	3.86
409.596	3.91
409.955	3.9
410.314	3.92
410.673	3.94
411.031	3.93
411.39	3.91
411.748	3.93
412.107	3.93
412.465	3.91
412.824	3.89
413.182	3.9
413.54	3.94
413.899	3.91
414.257	3.92
414.615	3.92
414.974	3.91
415.332	3.93
415.69	3.93
416.048	3.92
416.406	3.9
416.764	3.89
417.122	3.86
417.48	3.85
417.838	3.86
418.195	3.86
418.553	3.87
418.911	3.87
419.269	3.88
419.626	3.88
419.984	3.88
420.342	3.9
420.699	3.9
421.057	3.89
421.414	3.89
421.772	3.88
422.129	3.89
422.486	3.9
422.844	3.89
423.201	3.88
423.558	3.88
423.915	3.88
424.273	3.89
424.63	3.89
424.987	3.9
425.344	3.91
425.701	3.91
426.058	3.88
426.415	3.9
426.772	3.88
427.128	3.89
427.485	3.88
427.842	3.87
428.199	3.87
428.555	3.87
428.912	3.89
429.269	3.9
429.625	3.88
429.982	3.86
430.338	3.86
430.695	3.88
431.051	3.89
431.407	3.9
431.764	3.89
432.12	3.88
432.476	3.87
432.832	3.87
433.189	3.88
433.545	3.89
433.901	3.88
434.257	3.88
434.613	3.88
434.969	3.9
435.325	3.91
435.681	3.93
436.036	3.91
436.392	3.9
436.748	3.91
437.104	3.92
437.459	3.93
437.815	3.94
438.171	3.94
438.526	3.94
438.882	3.93
439.237	3.93
439.593	3.96
439.948	3.97
440.304	3.96
440.659	3.97
441.014	3.97
441.369	3.98
441.725	3.97
442.08	3.97
442.435	3.96
442.79	3.95
443.145	3.93
443.5	3.93
443.855	3.93
444.21	3.91
444.565	3.91
444.92	3.91
445.275	3.89
445.629	3.9
445.984	3.89
446.339	3.87
446.693	3.87
447.048	3.86
447.403	3.85
447.757	3.83
448.112	3.82
448.466	3.82
448.82	3.8
449.175	3.81
449.529	3.81
449.883	3.8
450.238	3.79
450.592	3.81
450.946	3.8
451.3	3.81
451.654	3.81
452.008	3.81
452.362	3.78
452.716	3.8
453.07	3.78
453.424	3.78
453.778	3.78
454.132	3.8
454.486	3.78
454.839	3.8
455.193	3.79
455.547	3.79
455.9	3.82
456.254	3.84
456.607	3.86
456.961	3.85
457.314	3.86
457.668	3.88
458.021	3.87
458.375	3.89
458.728	3.89
459.081	3.89
459.434	3.87
459.787	3.9
460.141	3.9
460.494	3.93
460.847	3.93
461.2	3.93
461.553	3.94
461.906	3.97
462.259	3.96
462.611	3.97
462.964	3.97
463.317	3.95
463.67	3.95
464.022	3.93
464.375	3.92
464.728	3.92
465.08	3.92
465.433	3.91
465.785	3.89
466.138	3.88
466.49	3.87
466.843	3.89
467.195	3.91
467.547	3.91
467.899	3.9
468.252	3.9
468.604	3.93
468.956	3.91
469.308	3.9
469.66	3.91
470.012	3.92
470.364	3.94
470.716	3.95
471.068	3.95
471.42	3.95
471.772	3.98
472.123	3.99
472.475	4
472.827	4.02
473.178	4.04
473.53	4.07
473.882	4.09
474.233	4.08
474.585	4.08
474.936	4.07
475.288	4.08
475.639	4.08
475.99	4.08
476.342	4.09
476.693	4.09
477.044	4.1
477.395	4.09
477.746	4.07
478.097	4.06
478.448	4.06
478.8	4.06
479.15	4.05
479.501	4.05
479.852	4.04
480.203	4.02
480.554	4.04
480.905	4.05
481.255	4.05
481.606	4.06
481.957	4.06
482.307	4.06
482.658	4.06
483.009	4.06
483.359	4.07
483.709	4.07
484.06	4.07
484.41	4.08
484.761	4.09
485.111	4.1
485.461	4.11
485.811	4.13
486.162	4.13
486.512	4.14
486.862	4.13
487.212	4.13
487.562	4.14
487.912	4.14
488.262	4.14
488.612	4.16
488.961	4.15
489.311	4.15
489.661	4.17
490.011	4.17
490.36	4.18
490.71	4.18
491.06	4.18
491.409	4.17
491.759	4.16
492.108	4.16
492.458	4.16
492.807	4.13
493.157	4.13
493.506	4.14
493.855	4.12
494.204	4.14
494.554	4.16
494.903	4.15
495.252	4.15
495.601	4.14
495.95	4.13
496.299	4.13
496.648	4.13
496.997	4.11
497.346	4.12
497.695	4.11
498.043	4.09
498.392	4.08
498.741	4.1
499.09	4.09
499.438	4.09
499.787	4.1
500.135	4.13
500.484	4.12
500.832	4.13
501.181	4.18
501.529	4.17
501.878	4.18
502.226	4.2
502.574	4.19
502.923	4.18
503.271	4.19
503.619	4.2
503.967	4.2
504.315	4.2
504.663	4.19
505.011	4.21
505.359	4.22
505.707	4.24
506.055	4.24
506.403	4.26
506.751	4.28
507.098	4.28
507.446	4.27
507.794	4.27
508.141	4.25
508.489	4.23
508.837	4.24
509.184	4.22
509.531	4.22
509.879	4.25
510.226	4.27
510.574	4.27
510.921	4.28
511.268	4.3
511.616	4.3
511.963	4.31
512.31	4.32
512.657	4.34
513.004	4.35
513.351	4.36
513.698	4.36
514.045	4.35
514.392	4.35
514.739	4.36
515.086	4.36
515.432	4.37
515.779	4.37
516.126	4.39
516.473	4.4
516.819	4.41
517.166	4.41
517.512	4.41
517.859	4.41
518.205	4.4
518.552	4.42
518.898	4.43
519.245	4.41
519.591	4.4
519.937	4.38
520.283	4.39
520.629	4.41
520.976	4.42
521.322	4.43
521.668	4.44
522.014	4.44
522.36	4.45
522.706	4.47
523.052	4.48
523.398	4.48
523.743	4.47
524.089	4.48
524.435	4.46
524.781	4.47
525.126	4.49
525.472	4.5
525.817	4.48
526.163	4.5
526.509	4.52
526.854	4.53
527.199	4.55
527.545	4.55
527.89	4.55
528.235	4.55
528.581	4.55
528.926	4.56
529.271	4.56
529.616	4.57
529.961	4.57
530.306	4.58
530.651	4.57
530.996	4.59
531.341	4.58
531.686	4.59
532.031	4.59
532.376	4.58
532.721	4.59
533.065	4.6
533.41	4.61
533.755	4.61
534.099	4.62
534.444	4.64
534.788	4.64
535.133	4.63
535.477	4.65
535.822	4.64
536.166	4.63
536.51	4.63
536.855	4.64
537.199	4.64
537.543	4.64
537.887	4.65
538.231	4.66
538.576	4.67
538.92	4.67
539.264	4.67
539.608	4.68
539.951	4.69
540.295	4.69
540.639	4.68
540.983	4.69
541.327	4.67
541.671	4.65
542.014	4.64
542.358	4.64
542.701	4.64
543.045	4.64
543.389	4.65
543.732	4.65
544.075	4.64
544.419	4.64
544.762	4.64
545.105	4.63
545.449	4.61
545.792	4.61
546.135	4.62
546.478	4.6
546.821	4.59
547.165	4.57
547.508	4.58
547.851	4.57
548.194	4.55
548.536	4.57
548.879	4.6
549.222	4.6
549.565	4.61
549.908	4.6
550.25	4.59
550.593	4.59
550.936	4.56
551.278	4.57
551.621	4.57
551.963	4.6
552.306	4.61
552.648	4.61
552.991	4.61
553.333	4.6
553.675	4.61
554.017	4.62
554.36	4.65
554.702	4.67
555.044	4.64
555.386	4.65
555.728	4.65
556.07	4.63
556.412	4.62
556.754	4.61
557.096	4.62
557.438	4.63
557.78	4.63
558.121	4.66
558.463	4.65
558.805	4.65
559.147	4.64
559.488	4.64
559.83	4.66
560.171	4.68
560.513	4.71
560.854	4.73
561.196	4.73
561.537	4.71
561.878	4.68
562.22	4.69
562.561	4.7
562.902	4.71
563.243	4.73
563.584	4.76
563.925	4.76
564.266	4.73
564.607	4.74
564.948	4.76
565.289	4.75
565.63	4.79
565.971	4.77
566.312	4.78
566.653	4.77
566.993	4.75
567.334	4.72
567.675	4.68
568.015	4.68
568.356	4.7
568.696	4.75
569.037	4.76
569.377	4.8
569.718	4.77
570.058	4.78
570.398	4.74
570.739	4.75
571.079	4.75
571.419	4.78
571.759	4.78
572.099	4.79
572.439	4.81
572.779	4.79
573.119	4.81
573.459	4.81
573.799	4.83
574.139	4.84
574.479	4.86
574.819	4.89
575.158	4.89
575.498	4.85
575.838	4.82
576.177	4.79
576.517	4.79
576.856	4.82
577.196	4.8
577.535	4.82
577.875	4.82
578.214	4.84
578.553	4.85
578.893	4.84
579.232	4.81
579.571	4.83
579.91	4.82
580.25	4.8
580.589	4.82
580.928	4.78
581.267	4.76
581.606	4.77
581.945	4.76
582.283	4.75
582.622	4.75
582.961	4.76
583.3	4.77
583.639	4.77
583.977	4.74
584.316	4.73
584.654	4.73
584.993	4.73
585.332	4.73
585.67	4.74
586.008	4.76
586.347	4.79
586.685	4.76
587.024	4.82
587.362	4.81
587.7	4.76
588.038	4.82
588.376	4.84
588.715	4.83
589.053	4.89
589.391	4.92
589.729	4.91
590.067	4.94
590.404	4.97
590.742	4.95
591.08	4.97
591.418	4.99
591.756	4.98
592.093	4.96
592.431	4.95
592.769	4.91
593.106	4.92
593.444	4.89
593.781	4.9
594.119	4.87
594.456	4.91
594.793	4.91
595.131	4.88
595.468	4.88
595.805	4.89
596.143	4.88
596.48	4.85
596.817	4.86
597.154	4.86
597.491	4.87
597.828	4.9
598.165	4.88
598.502	4.88
598.839	4.9
599.176	4.92
599.512	4.95
599.849	5.01
600.186	5
600.523	5.04
600.859	5.08
601.196	5.1
601.532	5.12
601.869	5.11
602.205	5.1
602.542	5.1
602.878	5.1
603.215	5.11
603.551	5.14
603.887	5.16
604.223	5.13
604.56	5.1
604.896	5.1
605.232	5.13
605.568	5.1
605.904	5.14
606.24	5.17
606.576	5.12
606.912	5.08
607.248	5.07
607.583	5.06
607.919	5.01
608.255	4.96
608.591	4.96
608.926	4.98
609.262	5
609.597	5.02
609.933	5.03
610.268	5
610.604	5.02
610.939	5.04
611.275	5.05
611.61	5.07
611.945	5.07
612.281	5.08
612.616	5.11
612.951	5.12
613.286	5.1
613.621	5.15
613.956	5.19
614.291	5.22
614.626	5.23
614.961	5.22
615.296	5.26
615.631	5.24
615.966	5.25
616.3	5.26
616.635	5.31
616.97	5.29
617.304	5.31
617.639	5.27
617.973	5.29
618.308	5.26
618.642	5.22
618.977	5.19
619.311	5.21
619.646	5.23
619.98	5.18
620.314	5.18
620.648	5.17
620.983	5.19
621.317	5.22
621.651	5.23
621.985	5.28
622.319	5.32
622.653	5.36
622.987	5.38
623.321	5.4
623.655	5.45
623.988	5.44
624.322	5.41
624.656	5.47
624.99	5.5
625.323	5.54
625.657	5.56
625.99	5.61
626.324	5.58
626.657	5.57
626.991	5.58
627.324	5.56
627.658	5.54
627.991	5.55
628.324	5.52
628.657	5.49
628.991	5.5
629.324	5.48
629.657	5.48
629.99	5.48
630.323	5.45
630.656	5.4
630.989	5.44
631.322	5.45
631.655	5.43
631.987	5.38
632.32	5.4
632.653	5.36
632.986	5.31
633.318	5.34
633.651	5.38
633.984	5.29
634.316	5.33
634.649	5.37
634.981	5.37
635.313	5.39
635.646	5.37
635.978	5.34
636.31	5.37
636.643	5.34
636.975	5.3
637.307	5.31
637.639	5.29
637.971	5.26
638.303	5.23
638.635	5.22
638.967	5.21
639.299	5.25
639.631	5.25
639.963	5.28
640.295	5.26
640.626	5.26
640.958	5.4
641.29	5.4
641.621	5.4
641.953	5.36
642.285	5.36
642.616	5.39
642.948	5.43
643.279	5.37
643.61	5.41
643.942	5.45
644.273	5.43
644.604	5.41
644.936	5.41
645.267	5.42
645.598	5.41
645.929	5.41
646.26	5.37
646.591	5.41
646.922	5.37
647.253	5.38
647.584	5.33
647.915	5.27
648.245	5.17
648.576	5.18
648.907	5.18
649.238	5.18
649.568	5.24
649.899	5.24
650.229	5.3
650.56	5.32
650.89	5.31
651.221	5.34
651.551	5.32
651.882	5.34
652.212	5.44
652.542	5.45
652.872	5.42
653.203	5.46
653.533	5.48
653.863	5.54
654.193	5.53
654.523	5.64
654.853	5.66
655.183	5.78
655.513	5.74
655.843	5.78
656.172	5.86
656.502	5.84
656.832	5.79
657.162	5.8
657.491	5.75
657.821	5.75
658.15	5.75
658.48	5.8
658.809	5.8
659.139	5.72
659.468	5.72
659.798	5.69
660.127	5.66
660.456	5.68
660.785	5.73
661.115	5.78
661.444	5.74
661.773	5.74
662.102	5.69
662.431	5.73
662.76	5.68
663.089	5.59
663.418	5.56
663.747	5.59
664.076	5.58
664.404	5.57
664.733	5.65
665.062	5.67
665.39	5.71
665.719	5.72
666.048	5.8
666.376	5.82
666.705	5.86
667.033	5.9
667.362	5.96
667.69	5.92
668.018	5.92
668.347	5.9
668.675	5.88
669.003	5.91
669.331	5.93
669.659	6
669.987	6.02
670.315	6.13
670.643	6.13
670.971	6.12
671.299	6.14
671.627	6.08
671.955	6.01
672.283	5.92
672.61	5.93
672.938	5.93
673.266	5.91
673.593	5.94
