Data from BA28300_Reflection_00002.txt Node
Date: Mon Nov 18 15:58:01 EST 2019
User: vgr7
Spectrometer: USB2G7710
Scans to average: 3
Trigger mode: 4
Integration Time (sec): 2.000000E-2
Electric dark correction enabled: true
Boxcar width: 10
XAxis mode: Wavelengths
Number of Pixels in Spectrum: 2048
>>>>>Begin Spectral Data<<<<<
177.721	115.67
178.105	100
178.488	-92.83
178.871	-40.86
179.254	58.48
179.636	49.74
180.019	67.07
180.402	94.44
180.785	94.66
181.168	260.94
181.55	686.47
181.933	157.34
182.316	137.85
182.698	91.13
183.081	123.8
183.463	104.95
183.846	104.85
184.228	86.56
184.611	75.84
184.993	-407.04
185.376	-2370.59
185.758	498.52
186.14	556.75
186.522	337.01
186.904	358.73
187.287	933.98
187.669	-318.82
188.051	-2086.92
188.433	6586.49
188.815	-246.91
189.197	-287.79
189.579	-176.26
189.961	-382.32
190.342	-613.66
190.724	-245.98
191.106	-214.79
191.488	-184.94
191.869	-201.62
192.251	-351.25
192.633	-582.27
193.014	467.35
193.396	273.66
193.777	-647.33
194.159	1300
194.54	-10135.29
194.922	829.28
195.303	-1517.98
195.684	-1590.14
196.065	-136.98
196.447	-118.03
196.828	-343.73
197.209	-132.49
197.59	-234.31
197.971	-190.11
198.352	-52.83
198.733	-48.28
199.114	-7.06
199.495	-43.74
199.876	-29.71
200.257	-32.48
200.638	-30.79
201.018	-41.05
201.399	-18.69
201.78	-16.63
202.16	-15.05
202.541	-43.97
202.922	-116.46
203.302	-272.59
203.683	-207.35
204.063	-114.04
204.444	-42.97
204.824	-13.89
205.204	-37.58
205.585	-70.53
205.965	-76.36
206.345	-151.84
206.725	-365.88
207.106	-2168.91
207.486	-851.01
207.866	-3586.75
208.246	-696.57
208.626	-425.31
209.006	-170.11
209.386	-242.86
209.766	-276.41
210.145	-145.48
210.525	-124.95
210.905	-78.09
211.285	-61.12
211.664	-44.38
212.044	-43.22
212.424	-70.35
212.803	-62.7
213.183	-51.69
213.562	-47.4
213.942	-53.7
214.321	-44.55
214.701	-53.56
215.08	-28.64
215.459	-5.4
215.838	9.06
216.218	20.64
216.597	24.36
216.976	18.66
217.355	-0.68
217.734	-4.46
218.113	4.82
218.492	16.25
218.871	16.75
219.25	13.96
219.629	-1.76
220.008	-1.49
220.387	-0.8
220.766	-5.53
221.144	-6.06
221.523	-16.86
221.902	-19.98
222.28	-18.91
222.659	-10.34
223.037	-9.04
223.416	-15.56
223.794	-31.51
224.173	-30.9
224.551	-21.06
224.929	-20.9
225.308	-6.73
225.686	-6.73
226.064	-4.79
226.442	-12.12
226.821	-14.28
227.199	-12.27
227.577	-10.62
227.955	-15.53
228.333	-15.92
228.711	-12.49
229.089	-8.6
229.467	-9.43
229.845	-9.53
230.222	-7.59
230.6	-8.27
230.978	-7.91
231.356	-3.85
231.733	-3.28
232.111	-2.11
232.488	-4.6
232.866	-3.19
233.243	-2.41
233.621	-4.41
233.998	-3.53
234.376	-3.26
234.753	-1.29
235.13	-1.39
235.508	-1.03
235.885	0.33
236.262	0.41
236.639	-1.32
237.016	-1.71
237.393	0.53
237.77	2.7
238.147	2.99
238.524	3.6
238.901	4.3
239.278	4.28
239.655	5.65
240.032	5.26
240.409	5.49
240.785	5.31
241.162	5.19
241.539	5.64
241.915	5.16
242.292	5.04
242.668	4.73
243.045	4.5
243.421	4.52
243.798	4.57
244.174	4.78
244.551	4.88
244.927	4.72
245.303	4.75
245.679	4.39
246.056	4.29
246.432	4.29
246.808	4.1
247.184	3.79
247.56	3.5
247.936	3.54
248.312	3.48
248.688	3.67
249.064	3.24
249.44	3.2
249.815	3.35
250.191	3.36
250.567	3.37
250.943	3.25
251.318	3.16
251.694	3.07
252.069	3.02
252.445	3.13
252.82	3.09
253.196	2.86
253.571	2.97
253.947	3.14
254.322	3.27
254.697	3.3
255.073	3.34
255.448	3.45
255.823	3.51
256.198	3.5
256.573	3.18
256.948	3.48
257.323	3.76
257.698	3.52
258.073	3.57
258.448	3.85
258.823	3.95
259.198	4.02
259.573	4.08
259.948	3.89
260.322	3.75
260.697	3.73
261.072	3.72
261.446	3.77
261.821	3.63
262.195	3.67
262.57	3.53
262.944	3.6
263.319	3.57
263.693	3.6
264.067	3.8
264.442	3.85
264.816	3.89
265.19	3.53
265.564	3.67
265.938	3.63
266.313	3.53
266.687	3.7
267.061	3.71
267.435	3.77
267.809	3.99
268.183	4.01
268.556	4.02
268.93	4.19
269.304	4.15
269.678	4.3
270.051	3.98
270.425	4.16
270.799	4.08
271.172	4.04
271.546	3.96
271.919	3.77
272.293	3.84
272.666	3.84
273.04	4.04
273.413	3.98
273.787	4.01
274.16	3.8
274.533	3.67
274.906	3.43
275.279	3.33
275.653	3.15
276.026	3.15
276.399	2.99
276.772	3.02
277.145	2.98
277.518	2.91
277.891	3.13
278.263	3.04
278.636	3.17
279.009	3.21
279.382	3.38
279.755	3.39
280.127	3.27
280.5	3.42
280.872	3.52
281.245	3.46
281.617	3.4
281.99	3.52
282.362	3.49
282.735	3.61
283.107	3.63
283.479	3.7
283.852	3.69
284.224	3.84
284.596	3.8
284.968	3.78
285.34	3.76
285.713	3.63
286.085	3.63
286.457	3.69
286.829	3.76
287.201	3.59
287.572	3.4
287.944	3.34
288.316	3.21
288.688	3.12
289.06	3.29
289.431	3.45
289.803	3.52
290.175	3.66
290.546	3.8
290.918	3.91
291.289	3.88
291.661	3.93
292.032	3.97
292.403	3.98
292.775	3.99
293.146	3.92
293.517	3.96
293.889	3.97
294.26	3.8
294.631	3.79
295.002	3.81
295.373	3.92
295.744	4.11
296.115	4.14
296.486	3.99
296.857	4
297.228	4
297.599	3.91
297.97	3.86
298.34	3.69
298.711	3.63
299.082	3.65
299.452	3.69
299.823	3.76
300.194	3.72
300.564	3.7
300.935	3.83
301.305	3.89
301.676	3.98
302.046	3.99
302.416	3.95
302.787	4
303.157	4.04
303.527	3.87
303.897	3.89
304.267	4.1
304.637	3.98
305.008	4.07
305.378	4.21
305.748	4.27
306.117	4.37
306.487	4.45
306.857	4.48
307.227	4.55
307.597	4.29
307.967	4.29
308.336	4.33
308.706	4.28
309.076	4.25
309.445	4.15
309.815	4.27
310.184	4.25
310.554	4.23
310.923	4.24
311.293	4.27
311.662	4.3
312.031	4.3
312.401	4.29
312.77	4.18
313.139	4.12
313.508	4.18
313.877	4.1
314.246	4.02
314.616	3.99
314.985	3.96
315.353	4.04
315.722	4.05
316.091	3.99
316.46	3.86
316.829	3.92
317.198	3.9
317.567	3.8
317.935	3.81
318.304	3.74
318.672	3.68
319.041	3.77
319.41	3.94
319.778	3.77
320.147	3.85
320.515	3.71
320.883	3.6
321.252	3.59
321.62	3.71
321.988	3.76
322.357	3.76
322.725	3.78
323.093	3.88
323.461	3.84
323.829	3.97
324.197	4.12
324.565	4.07
324.933	4.24
325.301	4.35
325.669	4.35
326.037	4.41
326.405	4.55
326.772	4.44
327.14	4.26
327.508	4.42
327.875	4.43
328.243	4.58
328.61	4.63
328.978	4.55
329.346	4.62
329.713	4.48
330.08	4.58
330.448	4.44
330.815	4.31
331.182	4.19
331.55	4.18
331.917	4.05
332.284	4.12
332.651	4.09
333.018	3.99
333.385	3.98
333.752	3.96
334.119	3.94
334.486	3.99
334.853	4.02
335.22	4
335.587	3.92
335.954	3.9
336.32	3.89
336.687	3.95
337.054	3.97
337.42	4.14
337.787	4.16
338.153	4.2
338.52	4.41
338.886	4.48
339.253	4.43
339.619	4.55
339.986	4.49
340.352	4.4
340.718	4.41
341.084	4.35
341.451	4.44
341.817	4.45
342.183	4.45
342.549	4.44
342.915	4.39
343.281	4.33
343.647	4.33
344.013	4.36
344.379	4.25
344.745	4.22
345.11	4.16
345.476	4.15
345.842	4.08
346.208	3.91
346.573	4.08
346.939	4.11
347.304	4.02
347.67	3.94
348.035	3.99
348.401	4
348.766	4.11
349.132	4.05
349.497	4.03
349.862	4.14
350.228	4.13
350.593	4.19
350.958	4.34
351.323	4.28
351.688	4.31
352.053	4.35
352.418	4.32
352.783	4.38
353.148	4.27
353.513	4.37
353.878	4.34
354.243	4.26
354.608	4.27
354.972	4.32
355.337	4.4
355.702	4.52
356.066	4.59
356.431	4.48
356.795	4.46
357.16	4.44
357.524	4.31
357.889	4.3
358.253	4.23
358.618	4.19
358.982	4.22
359.346	4.11
359.71	4.13
360.075	4.12
360.439	4.12
360.803	4.17
361.167	4.09
361.531	4.14
361.895	3.99
362.259	3.92
362.623	3.88
362.987	3.86
363.351	3.79
363.714	3.8
364.078	3.82
364.442	3.83
364.806	3.8
365.169	3.8
365.533	3.76
365.896	3.79
366.26	3.77
366.623	3.77
366.987	3.83
367.35	3.82
367.714	3.85
368.077	3.81
368.44	3.81
368.803	3.83
369.167	3.79
369.53	3.93
369.893	4
370.256	4.06
370.619	4.11
370.982	4.03
371.345	3.96
371.708	4.08
372.071	4.04
372.434	4.05
372.797	4.1
373.159	4.13
373.522	4.17
373.885	4.21
374.247	4.26
374.61	4.28
374.973	4.27
375.335	4.24
375.698	4.23
376.06	4.2
376.423	4.25
376.785	4.29
377.147	4.29
377.51	4.27
377.872	4.27
378.234	4.22
378.596	4.24
378.958	4.22
379.321	4.16
379.683	4.26
380.045	4.27
380.407	4.27
380.769	4.31
381.13	4.28
381.492	4.27
381.854	4.24
382.216	4.27
382.578	4.26
382.939	4.29
383.301	4.27
383.663	4.29
384.024	4.28
384.386	4.32
384.747	4.32
385.109	4.35
385.47	4.31
385.832	4.29
386.193	4.3
386.554	4.29
386.916	4.29
387.277	4.27
387.638	4.28
387.999	4.24
388.36	4.22
388.721	4.2
389.082	4.2
389.443	4.16
389.804	4.1
390.165	4.08
390.526	4.06
390.887	4.1
391.248	4.12
391.609	4.13
391.969	4.12
392.33	4.12
392.691	4.14
393.051	4.16
393.412	4.18
393.772	4.17
394.133	4.19
394.493	4.19
394.854	4.17
395.214	4.14
395.574	4.19
395.935	4.2
396.295	4.25
396.655	4.24
397.015	4.29
397.376	4.31
397.736	4.31
398.096	4.32
398.456	4.36
398.816	4.34
399.176	4.31
399.535	4.3
399.895	4.3
400.255	4.27
400.615	4.28
400.975	4.27
401.334	4.27
401.694	4.25
402.054	4.21
402.413	4.22
402.773	4.21
403.132	4.16
403.492	4.17
403.851	4.17
404.211	4.18
404.57	4.12
404.929	4.13
405.288	4.15
405.648	4.16
406.007	4.16
406.366	4.18
406.725	4.21
407.084	4.21
407.443	4.21
407.802	4.23
408.161	4.22
408.52	4.25
408.879	4.27
409.238	4.27
409.596	4.3
409.955	4.3
410.314	4.35
410.673	4.37
411.031	4.36
411.39	4.36
411.748	4.37
412.107	4.43
412.465	4.43
412.824	4.43
413.182	4.41
413.54	4.37
413.899	4.37
414.257	4.34
414.615	4.37
414.974	4.38
415.332	4.37
415.69	4.37
416.048	4.33
416.406	4.33
416.764	4.32
417.122	4.34
417.48	4.35
417.838	4.32
418.195	4.33
418.553	4.34
418.911	4.34
419.269	4.33
419.626	4.32
419.984	4.32
420.342	4.33
420.699	4.35
421.057	4.36
421.414	4.35
421.772	4.35
422.129	4.34
422.486	4.34
422.844	4.34
423.201	4.34
423.558	4.36
423.915	4.37
424.273	4.38
424.63	4.37
424.987	4.37
425.344	4.38
425.701	4.38
426.058	4.37
426.415	4.37
426.772	4.38
427.128	4.38
427.485	4.37
427.842	4.36
428.199	4.36
428.555	4.35
428.912	4.38
429.269	4.39
429.625	4.4
429.982	4.39
430.338	4.39
430.695	4.37
431.051	4.36
431.407	4.36
431.764	4.37
432.12	4.37
432.476	4.38
432.832	4.37
433.189	4.38
433.545	4.37
433.901	4.38
434.257	4.39
434.613	4.41
434.969	4.42
435.325	4.43
435.681	4.43
436.036	4.43
436.392	4.41
436.748	4.4
437.104	4.39
437.459	4.39
437.815	4.39
438.171	4.41
438.526	4.43
438.882	4.43
439.237	4.45
439.593	4.44
439.948	4.44
440.304	4.46
440.659	4.45
441.014	4.47
441.369	4.45
441.725	4.43
442.08	4.42
442.435	4.42
442.79	4.44
443.145	4.44
443.5	4.46
443.855	4.46
444.21	4.46
444.565	4.47
444.92	4.48
445.275	4.48
445.629	4.48
445.984	4.49
446.339	4.47
446.693	4.44
447.048	4.46
447.403	4.45
447.757	4.45
448.112	4.45
448.466	4.44
448.82	4.44
449.175	4.47
449.529	4.47
449.883	4.47
450.238	4.44
450.592	4.45
450.946	4.43
451.3	4.45
451.654	4.46
452.008	4.46
452.362	4.46
452.716	4.47
453.07	4.49
453.424	4.47
453.778	4.5
454.132	4.51
454.486	4.5
454.839	4.51
455.193	4.52
455.547	4.51
455.9	4.53
456.254	4.52
456.607	4.53
456.961	4.51
457.314	4.5
457.668	4.51
458.021	4.5
458.375	4.51
458.728	4.5
459.081	4.5
459.434	4.48
459.787	4.47
460.141	4.46
460.494	4.47
460.847	4.48
461.2	4.48
461.553	4.48
461.906	4.47
462.259	4.47
462.611	4.47
462.964	4.49
463.317	4.5
463.67	4.53
464.022	4.53
464.375	4.53
464.728	4.54
465.08	4.54
465.433	4.53
465.785	4.54
466.138	4.53
466.49	4.55
466.843	4.57
467.195	4.57
467.547	4.58
467.899	4.55
468.252	4.51
468.604	4.54
468.956	4.54
469.308	4.56
469.66	4.52
470.012	4.53
470.364	4.53
470.716	4.5
471.068	4.49
471.42	4.48
471.772	4.53
472.123	4.53
472.475	4.52
472.827	4.54
473.178	4.53
473.53	4.54
473.882	4.56
474.233	4.57
474.585	4.56
474.936	4.56
475.288	4.57
475.639	4.6
475.99	4.6
476.342	4.58
476.693	4.56
477.044	4.61
477.395	4.61
477.746	4.61
478.097	4.61
478.448	4.6
478.8	4.59
479.15	4.56
479.501	4.57
479.852	4.58
480.203	4.57
480.554	4.57
480.905	4.58
481.255	4.57
481.606	4.57
481.957	4.59
482.307	4.59
482.658	4.59
483.009	4.58
483.359	4.58
483.709	4.61
484.06	4.62
484.41	4.63
484.761	4.63
485.111	4.63
485.461	4.65
485.811	4.65
486.162	4.66
486.512	4.68
486.862	4.69
487.212	4.69
487.562	4.7
487.912	4.71
488.262	4.71
488.612	4.72
488.961	4.72
489.311	4.72
489.661	4.73
490.011	4.74
490.36	4.74
490.71	4.75
491.06	4.74
491.409	4.74
491.759	4.74
492.108	4.75
492.458	4.76
492.807	4.75
493.157	4.75
493.506	4.76
493.855	4.75
494.204	4.74
494.554	4.73
494.903	4.72
495.252	4.71
495.601	4.71
495.95	4.7
496.299	4.7
496.648	4.69
496.997	4.69
497.346	4.72
497.695	4.74
498.043	4.73
498.392	4.71
498.741	4.73
499.09	4.72
499.438	4.71
499.787	4.69
500.135	4.7
500.484	4.69
500.832	4.69
501.181	4.7
501.529	4.7
501.878	4.74
502.226	4.76
502.574	4.76
502.923	4.76
503.271	4.77
503.619	4.79
503.967	4.79
504.315	4.79
504.663	4.77
505.011	4.76
505.359	4.77
505.707	4.8
506.055	4.79
506.403	4.79
506.751	4.79
507.098	4.81
507.446	4.81
507.794	4.83
508.141	4.84
508.489	4.82
508.837	4.83
509.184	4.84
509.531	4.84
509.879	4.88
510.226	4.9
510.574	4.91
510.921	4.92
511.268	4.94
511.616	4.94
511.963	4.94
512.31	4.96
512.657	4.97
513.004	4.96
513.351	4.97
513.698	4.98
514.045	5
514.392	5.01
514.739	5.03
515.086	5.02
515.432	5.01
515.779	5.04
516.126	5.04
516.473	5.02
516.819	5.04
517.166	5.02
517.512	5.02
517.859	5.03
518.205	5.02
518.552	5.03
518.898	5.04
519.245	5.04
519.591	5.03
519.937	5.02
520.283	5.02
520.629	5.03
520.976	5.05
521.322	5.05
521.668	5.05
522.014	5.06
522.36	5.06
522.706	5.08
523.052	5.09
523.398	5.11
523.743	5.13
524.089	5.12
524.435	5.13
524.781	5.13
525.126	5.13
525.472	5.14
525.817	5.14
526.163	5.14
526.509	5.16
526.854	5.16
527.199	5.17
527.545	5.17
527.89	5.18
528.235	5.16
528.581	5.16
528.926	5.16
529.271	5.16
529.616	5.16
529.961	5.15
530.306	5.16
530.651	5.15
530.996	5.16
531.341	5.15
531.686	5.16
532.031	5.17
532.376	5.17
532.721	5.15
533.065	5.16
533.41	5.17
533.755	5.16
534.099	5.17
534.444	5.18
534.788	5.19
535.133	5.18
535.477	5.2
535.822	5.21
536.166	5.22
536.51	5.21
536.855	5.22
537.199	5.21
537.543	5.19
537.887	5.19
538.231	5.19
538.576	5.19
538.92	5.19
539.264	5.18
539.608	5.18
539.951	5.19
540.295	5.18
540.639	5.18
540.983	5.19
541.327	5.18
541.671	5.17
542.014	5.17
542.358	5.18
542.701	5.17
543.045	5.17
543.389	5.17
543.732	5.18
544.075	5.18
544.419	5.2
544.762	5.21
545.105	5.21
545.449	5.2
545.792	5.23
546.135	5.23
546.478	5.23
546.821	5.24
547.165	5.26
547.508	5.27
547.851	5.26
548.194	5.25
548.536	5.26
548.879	5.26
549.222	5.25
549.565	5.26
549.908	5.29
550.25	5.3
550.593	5.3
550.936	5.29
551.278	5.32
551.621	5.31
551.963	5.32
552.306	5.33
552.648	5.35
552.991	5.37
553.333	5.36
553.675	5.36
554.017	5.35
554.36	5.34
554.702	5.32
555.044	5.35
555.386	5.36
555.728	5.35
556.07	5.35
556.412	5.36
556.754	5.33
557.096	5.3
557.438	5.29
557.78	5.3
558.121	5.31
558.463	5.3
558.805	5.3
559.147	5.27
559.488	5.29
559.83	5.29
560.171	5.28
560.513	5.3
560.854	5.29
561.196	5.3
561.537	5.29
561.878	5.34
562.22	5.32
562.561	5.34
562.902	5.37
563.243	5.37
563.584	5.37
563.925	5.4
564.266	5.45
564.607	5.47
564.948	5.47
565.289	5.49
565.63	5.48
565.971	5.48
566.312	5.49
566.653	5.5
566.993	5.5
567.334	5.48
567.675	5.49
568.015	5.52
568.356	5.5
568.696	5.54
569.037	5.55
569.377	5.55
569.718	5.57
570.058	5.57
570.398	5.58
570.739	5.58
571.079	5.59
571.419	5.56
571.759	5.55
572.099	5.54
572.439	5.52
572.779	5.53
573.119	5.57
573.459	5.6
573.799	5.6
574.139	5.6
574.479	5.61
574.819	5.61
575.158	5.61
575.498	5.6
575.838	5.58
576.177	5.56
576.517	5.55
576.856	5.55
577.196	5.53
577.535	5.53
577.875	5.55
578.214	5.54
578.553	5.57
578.893	5.54
579.232	5.56
579.571	5.58
579.91	5.59
580.25	5.55
580.589	5.53
580.928	5.52
581.267	5.5
581.606	5.5
581.945	5.53
582.283	5.49
582.622	5.54
582.961	5.52
583.3	5.53
583.639	5.57
583.977	5.58
584.316	5.6
584.654	5.61
584.993	5.62
585.332	5.6
585.67	5.56
586.008	5.59
586.347	5.6
586.685	5.61
587.024	5.59
587.362	5.63
587.7	5.63
588.038	5.63
588.376	5.65
588.715	5.67
589.053	5.66
589.391	5.64
589.729	5.64
590.067	5.67
590.404	5.66
590.742	5.68
591.08	5.67
591.418	5.68
591.756	5.68
592.093	5.65
592.431	5.65
592.769	5.67
593.106	5.69
593.444	5.68
593.781	5.68
594.119	5.69
594.456	5.64
594.793	5.62
595.131	5.61
595.468	5.63
595.805	5.61
596.143	5.58
596.48	5.61
596.817	5.62
597.154	5.63
597.491	5.62
597.828	5.61
598.165	5.63
598.502	5.6
598.839	5.58
599.176	5.59
599.512	5.61
599.849	5.65
600.186	5.66
600.523	5.7
600.859	5.73
601.196	5.73
601.532	5.77
601.869	5.79
602.205	5.8
602.542	5.81
602.878	5.8
603.215	5.82
603.551	5.85
603.887	5.82
604.223	5.82
604.56	5.84
604.896	5.84
605.232	5.85
605.568	5.85
605.904	5.87
606.24	5.89
606.576	5.89
606.912	5.89
607.248	5.87
607.583	5.85
607.919	5.82
608.255	5.8
608.591	5.81
608.926	5.81
609.262	5.86
609.597	5.88
609.933	5.93
610.268	5.94
610.604	5.93
610.939	5.92
611.275	5.93
611.61	5.9
611.945	5.91
612.281	5.89
612.616	5.88
612.951	5.91
613.286	5.93
613.621	5.96
613.956	5.91
614.291	5.95
614.626	5.98
614.961	6
615.296	5.97
615.631	5.99
615.966	6.01
616.3	5.95
616.635	5.94
616.97	5.91
617.304	5.9
617.639	5.9
617.973	5.94
618.308	5.92
618.642	5.97
618.977	5.99
619.311	5.97
619.646	6.01
619.98	6.03
620.314	5.99
620.648	5.95
620.983	6.03
621.317	6.03
621.651	6
621.985	6.03
622.319	6.05
622.653	6.06
622.987	6.08
623.321	6.09
623.655	6.09
623.988	6.09
624.322	6.09
624.656	6.15
624.99	6.2
625.323	6.2
625.657	6.18
625.99	6.19
626.324	6.21
626.657	6.23
626.991	6.22
627.324	6.25
627.658	6.25
627.991	6.27
628.324	6.24
628.657	6.24
628.991	6.16
629.324	6.2
629.657	6.16
629.99	6.15
630.323	6.18
630.656	6.19
630.989	6.22
631.322	6.29
631.655	6.26
631.987	6.28
632.32	6.26
632.653	6.25
632.986	6.23
633.318	6.24
633.651	6.23
633.984	6.22
634.316	6.15
634.649	6.16
634.981	6.1
635.313	6.15
635.646	6.21
635.978	6.27
636.31	6.3
636.643	6.3
636.975	6.31
637.307	6.3
637.639	6.28
637.971	6.25
638.303	6.2
638.635	6.19
638.967	6.11
639.299	6.19
639.631	6.2
639.963	6.21
640.295	6.2
640.626	6.19
640.958	6.23
641.29	6.29
641.621	6.29
641.953	6.27
642.285	6.24
642.616	6.24
642.948	6.25
643.279	6.24
643.61	6.3
643.942	6.31
644.273	6.34
644.604	6.33
644.936	6.37
645.267	6.43
645.598	6.4
645.929	6.45
646.26	6.42
646.591	6.41
646.922	6.44
647.253	6.48
647.584	6.41
647.915	6.35
648.245	6.34
648.576	6.41
648.907	6.47
649.238	6.44
649.568	6.43
649.899	6.43
650.229	6.4
650.56	6.34
650.89	6.34
651.221	6.3
651.551	6.23
651.882	6.21
652.212	6.19
652.542	6.18
652.872	6.19
653.203	6.21
653.533	6.27
653.863	6.24
654.193	6.21
654.523	6.28
654.853	6.36
655.183	6.38
655.513	6.36
655.843	6.37
656.172	6.38
656.502	6.4
656.832	6.44
657.162	6.5
657.491	6.54
657.821	6.54
658.15	6.5
658.48	6.62
658.809	6.58
659.139	6.54
659.468	6.52
659.798	6.53
660.127	6.5
660.456	6.49
660.785	6.52
661.115	6.55
661.444	6.57
661.773	6.52
662.102	6.5
662.431	6.49
662.76	6.45
663.089	6.44
663.418	6.42
663.747	6.35
664.076	6.32
664.404	6.32
664.733	6.36
665.062	6.39
665.39	6.32
665.719	6.29
666.048	6.33
666.376	6.42
666.705	6.36
667.033	6.37
667.362	6.41
667.69	6.36
668.018	6.33
668.347	6.31
668.675	6.32
669.003	6.3
669.331	6.41
669.659	6.39
669.987	6.45
670.315	6.47
670.643	6.47
670.971	6.47
671.299	6.57
671.627	6.53
671.955	6.6
672.283	6.66
672.61	6.78
672.938	6.83
673.266	6.86
673.593	6.96
673.921	7.06
674.249	6.93
674.576	7
674.904	6.96
675.231	6.98
675.558	7.08
675.886	7.1
676.213	6.96
676.54	6.96
