Data from BA28472_Reflection_00011.txt Node
Date: Mon Nov 18 15:24:38 EST 2019
User: vgr7
Spectrometer: USB2G7710
Scans to average: 3
Trigger mode: 4
Integration Time (sec): 2.000000E-2
Electric dark correction enabled: true
Boxcar width: 10
XAxis mode: Wavelengths
Number of Pixels in Spectrum: 2048
>>>>>Begin Spectral Data<<<<<
177.721	-54.04
178.105	-34.19
178.488	-33.42
178.871	-33.27
179.254	4.58
179.636	-40.19
180.019	-445.45
180.402	42.31
180.785	37.09
181.168	176.53
181.55	-331.14
181.933	138.92
182.316	112.29
182.698	79.89
183.081	75.29
183.463	57.85
183.846	69.5
184.228	68.41
184.611	58.35
184.993	66.53
185.376	52.06
185.758	41.59
186.14	66.53
186.522	78.96
186.904	57.89
187.287	78.56
187.669	92.31
188.051	129.39
188.433	157.4
188.815	165.8
189.197	152.4
189.579	131.67
189.961	200.84
190.342	170.2
190.724	536.59
191.106	423.3
191.488	755.09
191.869	-341.65
192.251	-139.11
192.633	-91.01
193.014	-237.77
193.396	-337.58
193.777	-301.6
194.159	-324.06
194.54	-259.87
194.922	-154.34
195.303	-162.42
195.684	-150.15
196.065	-163.56
196.447	-106.9
196.828	-135.91
197.209	-153.14
197.59	-176.1
197.971	-152.63
198.352	-113.9
198.733	-119.2
199.114	-160.87
199.495	-157.84
199.876	-234.68
200.257	-360.3
200.638	-233.59
201.018	-220.37
201.399	-254.15
201.78	-186.65
202.16	-177.88
202.541	-230.62
202.922	-306.49
203.302	-250.7
203.683	-215.42
204.063	-196.88
204.444	-214.54
204.824	-319.02
205.204	-250.63
205.585	-226.05
205.965	-239.69
206.345	-289.82
206.725	-503.31
207.106	-389.34
207.486	-400.44
207.866	-328.89
208.246	-279.29
208.626	-499.42
209.006	-417.54
209.386	-447.15
209.766	-629.34
210.145	-1211.9
210.525	-725.55
210.905	-708.63
211.285	-816.36
211.664	-501.54
212.044	840.43
212.424	-1362.18
212.803	-196.08
213.183	-120.65
213.562	-402.46
213.942	921.92
214.321	8.86
214.701	-61.19
215.08	-195.89
215.459	-7.72
215.838	-22.12
216.218	-85.52
216.597	-20.19
216.976	-30.95
217.355	-53.68
217.734	-66.75
218.113	-52.87
218.492	-81.02
218.871	-101.43
219.25	-96.37
219.629	-108.7
220.008	-117.87
220.387	-123.9
220.766	-106.36
221.144	-148.07
221.523	-128.97
221.902	-146.18
222.28	-225.22
222.659	-178.72
223.037	-133.55
223.416	-175.15
223.794	-181.61
224.173	-161.43
224.551	-136.25
224.929	-105.42
225.308	-90.79
225.686	-70.5
226.064	-61.42
226.442	-54.2
226.821	-43.48
227.199	-36.27
227.577	-42.41
227.955	-36.12
228.333	-32.9
228.711	-31.12
229.089	-21.07
229.467	-22.88
229.845	-21.34
230.222	-20.33
230.6	-16.9
230.978	-16.65
231.356	-11.32
231.733	-9.24
232.111	-6.29
232.488	-4.22
232.866	-1.74
233.243	0.36
233.621	0.27
233.998	1.02
234.376	1.61
234.753	-0.15
235.13	-1.19
235.508	0.53
235.885	0.16
236.262	0.09
236.639	0.77
237.016	-1.45
237.393	0.37
237.77	1.43
238.147	1.69
238.524	2.13
238.901	2.75
239.278	2.66
239.655	3.05
240.032	1.73
240.409	1.47
240.785	1.34
241.162	1.5
241.539	2.12
241.915	2.51
242.292	2.04
242.668	2.52
243.045	2.99
243.421	2.98
243.798	2.83
244.174	2.82
244.551	2.75
244.927	2.97
245.303	3.04
245.679	3.28
246.056	3.45
246.432	3.57
246.808	3.63
247.184	3.34
247.56	3.25
247.936	3.31
248.312	3.36
248.688	3.47
249.064	3.45
249.44	3.33
249.815	3.43
250.191	3.69
250.567	3.71
250.943	3.47
251.318	3.57
251.694	3.44
252.069	3.33
252.445	3.63
252.82	3.53
253.196	3.64
253.571	3.47
253.947	3.52
254.322	3.39
254.697	3
255.073	3.06
255.448	3.01
255.823	2.98
256.198	2.98
256.573	2.93
256.948	3.09
257.323	3.36
257.698	3.5
258.073	3.45
258.448	3.3
258.823	3.34
259.198	3.12
259.573	3.24
259.948	3.28
260.322	3.26
260.697	3.19
261.072	3.11
261.446	3.1
261.821	3.04
262.195	3.08
262.57	3.12
262.944	3.1
263.319	3.03
263.693	3.11
264.067	3.09
264.442	3.01
264.816	2.97
265.19	2.7
265.564	2.46
265.938	2.49
266.313	2.39
266.687	2.34
267.061	2.6
267.435	2.59
267.809	2.54
268.183	2.43
268.556	2.37
268.93	2.43
269.304	2.43
269.678	2.51
270.051	2.56
270.425	2.56
270.799	2.72
271.172	2.82
271.546	2.67
271.919	2.72
272.293	2.85
272.666	2.78
273.04	2.94
273.413	2.9
273.787	2.9
274.16	2.96
274.533	2.89
274.906	2.73
275.279	2.72
275.653	2.83
276.026	2.77
276.399	2.93
276.772	2.89
277.145	2.91
277.518	3.01
277.891	2.89
278.263	2.97
278.636	2.91
279.009	2.78
279.382	3.08
279.755	3.02
280.127	2.88
280.5	2.86
280.872	2.93
281.245	2.94
281.617	3.11
281.99	3.22
282.362	3.29
282.735	3.31
283.107	3.29
283.479	3.41
283.852	3.56
284.224	3.54
284.596	3.57
284.968	3.65
285.34	3.61
285.713	3.6
286.085	3.49
286.457	3.65
286.829	3.77
287.201	3.68
287.572	3.61
287.944	3.64
288.316	3.58
288.688	3.43
289.06	3.44
289.431	3.31
289.803	3.35
290.175	3.4
290.546	3.49
290.918	3.53
291.289	3.42
291.661	3.36
292.032	3.39
292.403	3.44
292.775	3.45
293.146	3.38
293.517	3.35
293.889	3.49
294.26	3.46
294.631	3.42
295.002	3.33
295.373	3.39
295.744	3.45
296.115	3.56
296.486	3.48
296.857	3.51
297.228	3.54
297.599	3.41
297.97	3.37
298.34	3.42
298.711	3.54
299.082	3.57
299.452	3.6
299.823	3.69
300.194	3.61
300.564	3.46
300.935	3.52
301.305	3.5
301.676	3.51
302.046	3.54
302.416	3.72
302.787	3.92
303.157	4.03
303.527	4.12
303.897	4.15
304.267	4.42
304.637	4.47
305.008	4.57
305.378	4.73
305.748	4.94
306.117	5.01
306.487	5.07
306.857	5.09
307.227	5.05
307.597	5.12
307.967	5.17
308.336	5.34
308.706	5.4
309.076	5.6
309.445	5.66
309.815	5.69
310.184	5.62
310.554	5.54
310.923	5.43
311.293	5.45
311.662	5.46
312.031	5.46
312.401	5.56
312.77	5.69
313.139	5.79
313.508	5.8
313.877	5.85
314.246	5.68
314.616	5.69
314.985	5.72
315.353	5.64
315.722	5.69
316.091	5.7
316.46	5.61
316.829	5.56
317.198	5.46
317.567	5.39
317.935	5.44
318.304	5.62
318.672	5.75
319.041	5.81
319.41	5.93
319.778	6.03
320.147	5.92
320.515	5.82
320.883	5.85
321.252	5.89
321.62	5.82
321.988	6.01
322.357	6.08
322.725	6.16
323.093	6.34
323.461	6.32
323.829	6.35
324.197	6.54
324.565	6.66
324.933	6.8
325.301	6.94
325.669	6.92
326.037	6.92
326.405	6.97
326.772	6.93
327.14	7
327.508	6.93
327.875	7.01
328.243	7.08
328.61	7.12
328.978	7.17
329.346	7.23
329.713	7.28
330.08	7.42
330.448	7.37
330.815	7.27
331.182	7.33
331.55	7.35
331.917	7.27
332.284	7.34
332.651	7.4
333.018	7.35
333.385	7.37
333.752	7.47
334.119	7.42
334.486	7.47
334.853	7.37
335.22	7.37
335.587	7.41
335.954	7.32
336.32	7.23
336.687	7.14
337.054	7.15
337.42	7.12
337.787	7.11
338.153	7.19
338.52	7.27
338.886	7.28
339.253	7.32
339.619	7.51
339.986	7.54
340.352	7.55
340.718	7.58
341.084	7.67
341.451	7.65
341.817	7.67
342.183	7.67
342.549	7.74
342.915	7.77
343.281	7.77
343.647	7.81
344.013	7.91
344.379	7.99
344.745	7.95
345.11	7.96
345.476	7.9
345.842	7.96
346.208	7.91
346.573	7.96
346.939	8.01
347.304	7.84
347.67	7.72
348.035	7.71
348.401	7.65
348.766	7.6
349.132	7.56
349.497	7.62
349.862	7.66
350.228	7.74
350.593	7.67
350.958	7.63
351.323	7.75
351.688	7.81
352.053	7.84
352.418	7.84
352.783	7.88
353.148	7.87
353.513	7.9
353.878	7.9
354.243	7.92
354.608	7.94
354.972	7.94
355.337	7.98
355.702	7.99
356.066	8.14
356.431	8.12
356.795	8.11
357.16	8.1
357.524	8.07
357.889	7.97
358.253	8.07
358.618	8.09
358.982	8.03
359.346	7.91
359.71	7.86
360.075	7.92
360.439	7.89
360.803	7.97
361.167	7.88
361.531	7.89
361.895	7.82
362.259	7.75
362.623	7.88
362.987	7.85
363.351	7.8
363.714	7.69
364.078	7.7
364.442	7.64
364.806	7.61
365.169	7.56
365.533	7.55
365.896	7.44
366.26	7.44
366.623	7.41
366.987	7.42
367.35	7.44
367.714	7.41
368.077	7.32
368.44	7.21
368.803	7.22
369.167	7.19
369.53	7.07
369.893	7.01
370.256	6.92
370.619	6.9
370.982	6.85
371.345	6.8
371.708	6.73
372.071	6.73
372.434	6.64
372.797	6.66
373.159	6.59
373.522	6.54
373.885	6.5
374.247	6.44
374.61	6.41
374.973	6.29
375.335	6.23
375.698	6.22
376.06	6.17
376.423	6.13
376.785	6.12
377.147	6.17
377.51	6.13
377.872	6.12
378.234	6.06
378.596	6.05
378.958	6.02
379.321	6.03
379.683	6.02
380.045	5.99
380.407	5.92
380.769	5.92
381.13	5.86
381.492	5.78
381.854	5.76
382.216	5.68
382.578	5.71
382.939	5.6
383.301	5.57
383.663	5.52
384.024	5.49
384.386	5.45
384.747	5.44
385.109	5.46
385.47	5.37
385.832	5.36
386.193	5.31
386.554	5.28
386.916	5.27
387.277	5.21
387.638	5.19
387.999	5.15
388.36	5.12
388.721	5.17
389.082	5.16
389.443	5.07
389.804	5.08
390.165	5.03
390.526	5.06
390.887	5.05
391.248	5.06
391.609	5.02
391.969	4.98
392.33	4.97
392.691	4.92
393.051	4.88
393.412	4.85
393.772	4.82
394.133	4.79
394.493	4.72
394.854	4.69
395.214	4.69
395.574	4.67
395.935	4.62
396.295	4.58
396.655	4.54
397.015	4.53
397.376	4.47
397.736	4.41
398.096	4.39
398.456	4.38
398.816	4.31
399.176	4.23
399.535	4.18
399.895	4.12
400.255	4.08
400.615	4.06
400.975	4.04
401.334	4.02
401.694	4
402.054	3.94
402.413	3.91
402.773	3.85
403.132	3.79
403.492	3.75
403.851	3.72
404.211	3.73
404.57	3.72
404.929	3.71
405.288	3.72
405.648	3.68
406.007	3.62
406.366	3.64
406.725	3.67
407.084	3.67
407.443	3.66
407.802	3.68
408.161	3.67
408.52	3.62
408.879	3.61
409.238	3.6
409.596	3.64
409.955	3.64
410.314	3.65
410.673	3.66
411.031	3.68
411.39	3.68
411.748	3.64
412.107	3.64
412.465	3.61
412.824	3.61
413.182	3.61
413.54	3.59
413.899	3.58
414.257	3.56
414.615	3.55
414.974	3.55
415.332	3.52
415.69	3.49
416.048	3.49
416.406	3.49
416.764	3.44
417.122	3.45
417.48	3.42
417.838	3.41
418.195	3.41
418.553	3.4
418.911	3.38
419.269	3.38
419.626	3.36
419.984	3.36
420.342	3.34
420.699	3.32
421.057	3.33
421.414	3.3
421.772	3.29
422.129	3.29
422.486	3.28
422.844	3.28
423.201	3.27
423.558	3.27
423.915	3.25
424.273	3.26
424.63	3.23
424.987	3.23
425.344	3.22
425.701	3.21
426.058	3.2
426.415	3.19
426.772	3.17
427.128	3.16
427.485	3.15
427.842	3.14
428.199	3.15
428.555	3.15
428.912	3.16
429.269	3.17
429.625	3.15
429.982	3.13
430.338	3.1
430.695	3.1
431.051	3.08
431.407	3.09
431.764	3.1
432.12	3.08
432.476	3.08
432.832	3.06
433.189	3.06
433.545	3.06
433.901	3.06
434.257	3.06
434.613	3.08
434.969	3.08
435.325	3.08
435.681	3.09
436.036	3.07
436.392	3.05
436.748	3.04
437.104	3.03
437.459	3.03
437.815	3.03
438.171	3.03
438.526	3.04
438.882	3.04
439.237	3.04
439.593	3.05
439.948	3.04
440.304	3.07
440.659	3.07
441.014	3.06
441.369	3.05
441.725	3.05
442.08	3.03
442.435	3.03
442.79	3.03
443.145	3.03
443.5	3.01
443.855	3.02
444.21	3.01
444.565	3.03
444.92	3.04
445.275	3.02
445.629	3.01
445.984	3.02
446.339	3.02
446.693	3.01
447.048	3
447.403	2.99
447.757	2.97
448.112	2.96
448.466	2.96
448.82	2.96
449.175	2.96
449.529	2.94
449.883	2.93
450.238	2.9
450.592	2.91
450.946	2.9
451.3	2.9
451.654	2.89
452.008	2.86
452.362	2.85
452.716	2.86
453.07	2.87
453.424	2.86
453.778	2.83
454.132	2.83
454.486	2.82
454.839	2.82
455.193	2.83
455.547	2.83
455.9	2.83
456.254	2.83
456.607	2.84
456.961	2.85
457.314	2.86
457.668	2.89
458.021	2.87
458.375	2.86
458.728	2.87
459.081	2.88
459.434	2.86
459.787	2.89
460.141	2.88
460.494	2.88
460.847	2.87
461.2	2.87
461.553	2.86
461.906	2.87
462.259	2.89
462.611	2.9
462.964	2.89
463.317	2.92
463.67	2.93
464.022	2.93
464.375	2.92
464.728	2.92
465.08	2.92
465.433	2.92
465.785	2.94
466.138	2.94
466.49	2.94
466.843	2.98
467.195	2.96
467.547	2.99
467.899	3.01
468.252	3.02
468.604	3.04
468.956	3.05
469.308	3.07
469.66	3.07
470.012	3.07
470.364	3.09
470.716	3.08
471.068	3.09
471.42	3.12
471.772	3.15
472.123	3.17
472.475	3.18
472.827	3.23
473.178	3.25
473.53	3.25
473.882	3.26
474.233	3.26
474.585	3.26
474.936	3.25
475.288	3.24
475.639	3.25
475.99	3.25
476.342	3.28
476.693	3.27
477.044	3.28
477.395	3.26
477.746	3.24
478.097	3.23
478.448	3.21
478.8	3.17
479.15	3.16
479.501	3.16
479.852	3.13
480.203	3.12
480.554	3.12
480.905	3.13
481.255	3.13
481.606	3.13
481.957	3.13
482.307	3.13
482.658	3.12
483.009	3.12
483.359	3.12
483.709	3.11
484.06	3.1
484.41	3.1
484.761	3.1
485.111	3.11
485.461	3.11
485.811	3.11
486.162	3.12
486.512	3.13
486.862	3.12
487.212	3.14
487.562	3.13
487.912	3.13
488.262	3.13
488.612	3.12
488.961	3.12
489.311	3.12
489.661	3.12
490.011	3.11
490.36	3.11
490.71	3.12
491.06	3.12
491.409	3.13
491.759	3.12
492.108	3.13
492.458	3.13
492.807	3.13
493.157	3.15
493.506	3.17
493.855	3.16
494.204	3.16
494.554	3.16
494.903	3.16
495.252	3.16
495.601	3.18
495.95	3.2
496.299	3.2
496.648	3.22
496.997	3.24
497.346	3.29
497.695	3.33
498.043	3.35
498.392	3.37
498.741	3.41
499.09	3.43
499.438	3.46
499.787	3.49
500.135	3.53
500.484	3.56
500.832	3.59
501.181	3.64
501.529	3.71
501.878	3.76
502.226	3.82
502.574	3.87
502.923	3.91
503.271	3.98
503.619	4.05
503.967	4.12
504.315	4.18
504.663	4.22
505.011	4.28
505.359	4.36
505.707	4.43
506.055	4.49
506.403	4.57
506.751	4.64
507.098	4.73
507.446	4.79
507.794	4.85
508.141	4.93
508.489	5.01
508.837	5.08
509.184	5.15
509.531	5.23
509.879	5.34
510.226	5.45
510.574	5.53
510.921	5.61
511.268	5.69
511.616	5.8
511.963	5.88
512.31	5.96
512.657	6.06
513.004	6.16
513.351	6.28
513.698	6.4
514.045	6.51
514.392	6.62
514.739	6.73
515.086	6.86
515.432	6.98
515.779	7.11
516.126	7.24
516.473	7.36
516.819	7.49
517.166	7.59
517.512	7.71
517.859	7.81
518.205	7.92
518.552	8.03
518.898	8.11
519.245	8.24
519.591	8.36
519.937	8.45
520.283	8.57
520.629	8.7
520.976	8.81
521.322	8.95
521.668	9.08
522.014	9.25
522.36	9.4
522.706	9.57
523.052	9.72
523.398	9.91
523.743	10.09
524.089	10.25
524.435	10.42
524.781	10.58
525.126	10.76
525.472	10.93
525.817	11.07
526.163	11.21
526.509	11.33
526.854	11.47
527.199	11.6
527.545	11.71
527.89	11.82
528.235	11.95
528.581	12.08
528.926	12.21
529.271	12.35
529.616	12.47
529.961	12.59
530.306	12.73
530.651	12.87
530.996	13.03
531.341	13.2
531.686	13.38
532.031	13.54
532.376	13.7
532.721	13.87
533.065	14.06
533.41	14.26
533.755	14.48
534.099	14.68
534.444	14.87
534.788	15.1
535.133	15.32
535.477	15.53
535.822	15.74
536.166	15.99
536.51	16.23
536.855	16.54
537.199	16.82
537.543	17.11
537.887	17.4
538.231	17.71
538.576	18
538.92	18.3
539.264	18.6
539.608	18.9
539.951	19.17
540.295	19.42
540.639	19.69
540.983	19.93
541.327	20.18
541.671	20.45
542.014	20.66
542.358	20.87
542.701	21.13
543.045	21.37
543.389	21.59
543.732	21.84
544.075	22.09
544.419	22.36
544.762	22.63
545.105	22.88
545.449	23.15
545.792	23.47
546.135	23.77
546.478	24.07
546.821	24.39
547.165	24.74
547.508	25.08
547.851	25.4
548.194	25.72
548.536	26.04
548.879	26.37
549.222	26.74
549.565	27.09
549.908	27.44
550.25	27.77
550.593	28.12
550.936	28.46
551.278	28.77
551.621	29.12
551.963	29.49
552.306	29.85
552.648	30.23
552.991	30.55
553.333	30.82
553.675	31.19
554.017	31.5
554.36	31.77
554.702	32.1
555.044	32.37
555.386	32.66
555.728	32.96
556.07	33.28
556.412	33.6
556.754	33.91
557.096	34.22
557.438	34.56
557.78	34.9
558.121	35.23
558.463	35.51
558.805	35.85
559.147	36.07
559.488	36.32
559.83	36.54
560.171	36.81
560.513	37.13
560.854	37.37
561.196	37.68
561.537	38.01
561.878	38.2
562.22	38.48
562.561	38.74
562.902	38.97
563.243	39.17
563.584	39.37
563.925	39.65
564.266	39.89
564.607	40.11
564.948	40.33
565.289	40.53
565.63	40.78
565.971	40.93
566.312	41.18
566.653	41.38
566.993	41.57
567.334	41.77
567.675	41.98
568.015	42.17
568.356	42.32
568.696	42.49
569.037	42.67
569.377	42.88
569.718	43.06
570.058	43.23
570.398	43.49
570.739	43.7
571.079	43.87
571.419	44.04
571.759	44.21
572.099	44.35
572.439	44.5
572.779	44.65
573.119	44.8
573.459	44.96
573.799	45.15
574.139	45.34
574.479	45.46
574.819	45.59
575.158	45.82
575.498	46
575.838	46.18
576.177	46.38
576.517	46.55
576.856	46.71
577.196	46.87
577.535	46.97
577.875	47.14
578.214	47.24
578.553	47.34
578.893	47.49
579.232	47.69
579.571	47.82
579.91	47.93
580.25	48.08
580.589	48.2
580.928	48.35
581.267	48.46
581.606	48.67
581.945	48.85
582.283	48.9
582.622	49.02
582.961	49.11
583.3	49.27
583.639	49.35
583.977	49.54
584.316	49.66
584.654	49.74
584.993	49.77
585.332	49.94
585.67	50.07
586.008	50.16
586.347	50.24
586.685	50.38
587.024	50.52
587.362	50.66
587.7	50.82
588.038	50.91
588.376	50.98
588.715	51.07
589.053	51.1
589.391	51.16
589.729	51.2
590.067	51.28
590.404	51.36
590.742	51.47
591.08	51.47
591.418	51.59
591.756	51.68
592.093	51.85
592.431	51.95
592.769	52.05
593.106	52.2
593.444	52.26
593.781	52.28
594.119	52.4
594.456	52.49
594.793	52.5
595.131	52.51
595.468	52.57
595.805	52.66
596.143	52.72
596.48	52.84
596.817	52.93
597.154	52.98
597.491	53.06
597.828	53.09
598.165	53.17
598.502	53.17
598.839	53.32
599.176	53.32
599.512	53.27
599.849	53.33
600.186	53.38
600.523	53.5
600.859	53.59
601.196	53.64
601.532	53.7
601.869	53.81
602.205	53.9
602.542	53.98
602.878	53.97
603.215	54.06
603.551	54.08
603.887	54.17
604.223	54.19
604.56	54.16
604.896	54.24
605.232	54.29
605.568	54.37
605.904	54.42
606.24	54.58
606.576	54.72
606.912	54.8
607.248	54.8
607.583	54.89
607.919	54.97
608.255	54.98
608.591	55.05
608.926	55.06
609.262	55.17
609.597	55.29
609.933	55.35
610.268	55.37
610.604	55.46
610.939	55.5
611.275	55.59
611.61	55.7
611.945	55.76
612.281	55.84
612.616	55.99
612.951	56.1
613.286	56.08
613.621	56.1
613.956	56.14
614.291	56.3
614.626	56.27
614.961	56.32
615.296	56.44
615.631	56.58
615.966	56.68
616.3	56.64
616.635	56.68
616.97	56.77
617.304	56.79
617.639	56.84
617.973	56.87
618.308	56.91
618.642	56.92
618.977	56.95
619.311	56.94
619.646	56.83
619.98	56.72
620.314	56.74
620.648	56.76
620.983	56.83
621.317	56.84
621.651	56.93
621.985	56.93
622.319	56.88
622.653	56.74
622.987	56.86
623.321	56.91
623.655	56.93
623.988	56.96
624.322	56.97
624.656	56.99
624.99	57.05
625.323	57.12
625.657	57.13
625.99	57.19
626.324	57.33
626.657	57.4
626.991	57.47
627.324	57.46
627.658	57.52
627.991	57.53
628.324	57.62
628.657	57.53
628.991	57.56
629.324	57.59
629.657	57.72
629.99	57.66
630.323	57.66
630.656	57.73
630.989	57.72
631.322	57.83
631.655	57.8
631.987	57.8
632.32	57.82
632.653	57.89
632.986	57.91
633.318	57.87
633.651	57.84
633.984	57.91
634.316	58.04
634.649	58
634.981	58.06
635.313	58
635.646	58.15
635.978	58.31
636.31	58.41
636.643	58.38
636.975	58.45
637.307	58.43
637.639	58.37
637.971	58.42
638.303	58.33
638.635	58.42
638.967	58.49
639.299	58.54
639.631	58.59
639.963	58.6
640.295	58.63
640.626	58.77
640.958	58.75
641.29	58.68
641.621	58.73
641.953	58.73
642.285	58.83
642.616	58.79
642.948	58.72
643.279	58.76
643.61	58.83
643.942	58.79
644.273	58.89
644.604	58.88
644.936	58.97
645.267	59.06
645.598	59.16
645.929	59.1
646.26	59.03
646.591	59.1
646.922	58.99
647.253	58.97
647.584	58.99
647.915	59.03
648.245	59.04
648.576	59.05
648.907	59
649.238	58.91
649.568	58.95
649.899	58.9
650.229	58.91
650.56	58.91
650.89	58.94
651.221	59.02
651.551	59.14
651.882	59.12
652.212	59.11
652.542	58.97
652.872	58.99
653.203	58.97
653.533	59.03
653.863	59.1
654.193	59.12
654.523	59.26
654.853	59.29
655.183	59.41
655.513	59.48
655.843	59.54
656.172	59.66
656.502	59.76
656.832	59.86
657.162	59.85
657.491	59.87
657.821	59.83
658.15	59.75
658.48	59.71
658.809	59.71
659.139	59.81
659.468	59.93
659.798	60.02
660.127	60.04
660.456	60.01
660.785	60.09
661.115	60.21
661.444	60.01
661.773	60.09
662.102	60.17
662.431	60.12
662.76	60.22
663.089	60.1
663.418	60.07
663.747	60.13
664.076	60.1
664.404	60.14
664.733	60.25
665.062	60.33
