Data from BA28474_Reflection_00001.txt Node
Date: Mon Nov 18 15:30:26 EST 2019
User: vgr7
Spectrometer: USB2G7710
Scans to average: 3
Trigger mode: 4
Integration Time (sec): 2.000000E-2
Electric dark correction enabled: true
Boxcar width: 10
XAxis mode: Wavelengths
Number of Pixels in Spectrum: 2048
>>>>>Begin Spectral Data<<<<<
177.721	-6.63
178.105	-9.87
178.488	-46.46
178.871	-72.48
179.254	-283.08
179.636	66.92
180.019	-245.91
180.402	95.56
180.785	170.39
181.168	-156.22
181.55	-270.18
181.933	519.82
182.316	163.47
182.698	235.54
183.081	314.98
183.463	530.15
183.846	567.16
184.228	50655.56
184.611	-1020.43
184.993	-643.59
185.376	-226.02
185.758	-205.14
186.14	-164.77
186.522	-143.97
186.904	-172.89
187.287	-217.7
187.669	-145.49
188.051	-207.64
188.433	-175.22
188.815	-108.5
189.197	-125.26
189.579	-88.77
189.961	-34.34
190.342	-43.22
190.724	-22.19
191.106	-19.27
191.488	-15.9
191.869	14.25
192.251	17.27
192.633	44.85
193.014	36.79
193.396	27.28
193.777	27.18
194.159	15.19
194.54	-7.28
194.922	12.8
195.303	-6.28
195.684	-24.82
196.065	-9.21
196.447	-18.85
196.828	-46.04
197.209	-37.69
197.59	-28.83
197.971	-43.57
198.352	-35.62
198.733	-34.55
199.114	-37.23
199.495	-58.87
199.876	-72.5
200.257	-64.74
200.638	-72.72
201.018	-74.7
201.399	-84.22
201.78	-71.39
202.16	-104.95
202.541	-142.75
202.922	-264.06
203.302	-206.62
203.683	-167.07
204.063	-219.04
204.444	-176.26
204.824	-142.06
205.204	-127.74
205.585	-181.27
205.965	-234.77
206.345	-195.13
206.725	-228.05
207.106	-324.68
207.486	-245.03
207.866	-545.65
208.246	-230.76
208.626	-189.28
209.006	-108.41
209.386	-141.59
209.766	-176.26
210.145	-126.42
210.525	-106.12
210.905	-80.31
211.285	-85.3
211.664	-97.7
212.044	-83.63
212.424	-79.69
212.803	-92.04
213.183	-85.6
213.562	-71.7
213.942	-61.07
214.321	-52.56
214.701	-65.47
215.08	-67.73
215.459	-70.87
215.838	-75.38
216.218	-70.4
216.597	-78.11
216.976	-93.64
217.355	-73.62
217.734	-68.92
218.113	-68
218.492	-51.67
218.871	-59.05
219.25	-45.71
219.629	-50.34
220.008	-52.06
220.387	-47.89
220.766	-45.72
221.144	-84.67
221.523	-88.88
221.902	-73.49
222.28	-96.4
222.659	-65.4
223.037	-59.94
223.416	-55.78
223.794	-54.09
224.173	-71.33
224.551	-52.59
224.929	-41.24
225.308	-35.73
225.686	-29.47
226.064	-21.24
226.442	-22.91
226.821	-20.59
227.199	-19.19
227.577	-22.98
227.955	-19.15
228.333	-19.16
228.711	-17.03
229.089	-14.74
229.467	-15.32
229.845	-16.97
230.222	-14.04
230.6	-13.48
230.978	-10.57
231.356	-6.67
231.733	-5.41
232.111	-3.5
232.488	-5.04
232.866	-2.97
233.243	-0.58
233.621	-2.95
233.998	-3.32
234.376	-1.88
234.753	-1.11
235.13	-0.44
235.508	3.29
235.885	2.98
236.262	3.23
236.639	1.47
237.016	3.81
237.393	4.22
237.77	4.7
238.147	6.21
238.524	5.78
238.901	6.65
239.278	6.05
239.655	6.7
240.032	7.15
240.409	7.4
240.785	6.87
241.162	6.18
241.539	6.95
241.915	6.05
242.292	5.45
242.668	5.19
243.045	5.19
243.421	4.69
243.798	4.63
244.174	4.48
244.551	4.96
244.927	4.68
245.303	4.65
245.679	4.64
246.056	4.5
246.432	4.56
246.808	4.21
247.184	4.16
247.56	3.7
247.936	3.33
248.312	3.32
248.688	3.34
249.064	3.43
249.44	3.32
249.815	3.4
250.191	3.41
250.567	3.25
250.943	3.08
251.318	3.23
251.694	3.33
252.069	3.38
252.445	3.15
252.82	3.1
253.196	2.9
253.571	2.96
253.947	2.9
254.322	2.84
254.697	2.77
255.073	2.47
255.448	2.36
255.823	2.46
256.198	2.64
256.573	2.46
256.948	2.89
257.323	3.16
257.698	3.43
258.073	3.7
258.448	3.84
258.823	3.93
259.198	3.94
259.573	3.83
259.948	3.68
260.322	3.69
260.697	3.78
261.072	3.8
261.446	3.75
261.821	3.62
262.195	3.79
262.57	3.82
262.944	3.82
263.319	3.94
263.693	4
264.067	3.98
264.442	4.08
264.816	3.86
265.19	3.49
265.564	3.34
265.938	3.15
266.313	3.1
266.687	3.13
267.061	3.1
267.435	3.22
267.809	3.44
268.183	3.39
268.556	3.24
268.93	3.18
269.304	3.25
269.678	3.36
270.051	3.12
270.425	3.14
270.799	3.24
271.172	3.38
271.546	3.38
271.919	3.34
272.293	3.5
272.666	3.63
273.04	3.89
273.413	3.94
273.787	3.74
274.16	3.66
274.533	3.72
274.906	3.79
275.279	3.69
275.653	3.49
276.026	3.46
276.399	3.59
276.772	3.73
277.145	3.69
277.518	3.7
277.891	3.85
278.263	3.8
278.636	3.89
279.009	3.79
279.382	3.99
279.755	3.89
280.127	3.9
280.5	3.77
280.872	3.74
281.245	3.68
281.617	3.9
281.99	4.1
282.362	3.92
282.735	3.72
283.107	3.72
283.479	3.8
283.852	3.82
284.224	3.88
284.596	3.82
284.968	3.89
285.34	4.06
285.713	3.94
286.085	4.05
286.457	4.03
286.829	4.12
287.201	3.92
287.572	3.84
287.944	3.72
288.316	3.75
288.688	3.66
289.06	3.68
289.431	3.67
289.803	3.64
290.175	3.73
290.546	3.91
290.918	4.01
291.289	4.13
291.661	4.23
292.032	4.12
292.403	4.22
292.775	4.25
293.146	4.08
293.517	4.16
293.889	4.14
294.26	4.09
294.631	3.89
295.002	3.99
295.373	4.12
295.744	4.12
296.115	4.14
296.486	4.04
296.857	4
297.228	3.99
297.599	3.87
297.97	3.88
298.34	3.85
298.711	3.9
299.082	3.77
299.452	3.67
299.823	3.93
300.194	3.87
300.564	3.72
300.935	3.73
301.305	3.57
301.676	3.54
302.046	3.58
302.416	3.69
302.787	3.62
303.157	3.58
303.527	3.62
303.897	3.5
304.267	3.8
304.637	3.86
305.008	3.84
305.378	3.94
305.748	3.92
306.117	3.84
306.487	3.73
306.857	3.82
307.227	3.89
307.597	3.59
307.967	3.54
308.336	3.56
308.706	3.54
309.076	3.69
309.445	3.61
309.815	3.41
310.184	3.3
310.554	3.32
310.923	3.29
311.293	3.23
311.662	3.25
312.031	3.05
312.401	3.02
312.77	3.16
313.139	3.18
313.508	3.22
313.877	3.2
314.246	3.15
314.616	3.14
314.985	3
315.353	2.95
315.722	3.08
316.091	2.97
316.46	2.88
316.829	2.93
317.198	2.96
317.567	3.08
317.935	3.19
318.304	3.25
318.672	3.28
319.041	3.38
319.41	3.4
319.778	3.43
320.147	3.43
320.515	3.32
320.883	3.11
321.252	3.15
321.62	3.29
321.988	3.29
322.357	3.25
322.725	3.25
323.093	3.28
323.461	3.24
323.829	3.34
324.197	3.34
324.565	3.27
324.933	3.23
325.301	3.24
325.669	3.22
326.037	3.12
326.405	3.12
326.772	3.07
327.14	3.15
327.508	3.13
327.875	2.99
328.243	3.05
328.61	3.23
328.978	3.2
329.346	3.12
329.713	3.17
330.08	3.22
330.448	3.35
330.815	3.34
331.182	3.2
331.55	3.18
331.917	3.19
332.284	3.22
332.651	3.34
333.018	3.34
333.385	3.33
333.752	3.44
334.119	3.45
334.486	3.39
334.853	3.27
335.22	3.28
335.587	3.34
335.954	3.23
336.32	3.17
336.687	3.07
337.054	3.15
337.42	3.09
337.787	2.99
338.153	2.95
338.52	3.06
338.886	3.08
339.253	3.19
339.619	3.17
339.986	3.22
340.352	3.23
340.718	3.18
341.084	3.2
341.451	3.26
341.817	3.25
342.183	3.26
342.549	3.22
342.915	3.26
343.281	3.29
343.647	3.25
344.013	3.2
344.379	3.14
344.745	3.11
345.11	3.14
345.476	3.19
345.842	3.23
346.208	3.14
346.573	3.18
346.939	3.19
347.304	3.19
347.67	3.13
348.035	3
348.401	3.07
348.766	3.03
349.132	2.94
349.497	2.99
349.862	3.08
350.228	3.16
350.593	3.19
350.958	3.22
351.323	3.31
351.688	3.43
352.053	3.49
352.418	3.54
352.783	3.51
353.148	3.54
353.513	3.52
353.878	3.49
354.243	3.52
354.608	3.51
354.972	3.56
355.337	3.53
355.702	3.65
356.066	3.65
356.431	3.7
356.795	3.79
357.16	3.71
357.524	3.58
357.889	3.58
358.253	3.51
358.618	3.57
358.982	3.47
359.346	3.42
359.71	3.39
360.075	3.36
360.439	3.37
360.803	3.32
361.167	3.26
361.531	3.25
361.895	3.21
362.259	3.2
362.623	3.14
362.987	3.11
363.351	3.14
363.714	3.18
364.078	3.15
364.442	3.05
364.806	3.02
365.169	3.12
365.533	3.17
365.896	3.2
366.26	3.11
366.623	3.12
366.987	3.15
367.35	3.2
367.714	3.22
368.077	3.23
368.44	3.24
368.803	3.27
369.167	3.29
369.53	3.27
369.893	3.27
370.256	3.34
370.619	3.46
370.982	3.4
371.345	3.3
371.708	3.33
372.071	3.38
372.434	3.39
372.797	3.39
373.159	3.34
373.522	3.33
373.885	3.35
374.247	3.41
374.61	3.39
374.973	3.37
375.335	3.37
375.698	3.39
376.06	3.43
376.423	3.45
376.785	3.48
377.147	3.57
377.51	3.51
377.872	3.47
378.234	3.45
378.596	3.44
378.958	3.47
379.321	3.53
379.683	3.57
380.045	3.57
380.407	3.56
380.769	3.55
381.13	3.56
381.492	3.58
381.854	3.59
382.216	3.56
382.578	3.57
382.939	3.54
383.301	3.5
383.663	3.49
384.024	3.52
384.386	3.53
384.747	3.49
385.109	3.55
385.47	3.58
385.832	3.53
386.193	3.57
386.554	3.56
386.916	3.5
387.277	3.49
387.638	3.54
387.999	3.47
388.36	3.5
388.721	3.53
389.082	3.49
389.443	3.48
389.804	3.49
390.165	3.5
390.526	3.54
390.887	3.56
391.248	3.6
391.609	3.57
391.969	3.58
392.33	3.58
392.691	3.58
393.051	3.56
393.412	3.58
393.772	3.53
394.133	3.55
394.493	3.57
394.854	3.52
395.214	3.49
395.574	3.53
395.935	3.5
396.295	3.52
396.655	3.51
397.015	3.5
397.376	3.5
397.736	3.5
398.096	3.49
398.456	3.51
398.816	3.5
399.176	3.48
399.535	3.47
399.895	3.47
400.255	3.46
400.615	3.46
400.975	3.46
401.334	3.47
401.694	3.5
402.054	3.48
402.413	3.49
402.773	3.52
403.132	3.52
403.492	3.56
403.851	3.54
404.211	3.58
404.57	3.56
404.929	3.58
405.288	3.56
405.648	3.53
406.007	3.52
406.366	3.5
406.725	3.53
407.084	3.54
407.443	3.55
407.802	3.55
408.161	3.54
408.52	3.55
408.879	3.56
409.238	3.54
409.596	3.56
409.955	3.57
410.314	3.57
410.673	3.58
411.031	3.58
411.39	3.59
411.748	3.59
412.107	3.64
412.465	3.6
412.824	3.6
413.182	3.6
413.54	3.62
413.899	3.64
414.257	3.63
414.615	3.59
414.974	3.61
415.332	3.61
415.69	3.6
416.048	3.59
416.406	3.58
416.764	3.6
417.122	3.6
417.48	3.59
417.838	3.59
418.195	3.58
418.553	3.56
418.911	3.55
419.269	3.55
419.626	3.53
419.984	3.55
420.342	3.57
420.699	3.58
421.057	3.55
421.414	3.54
421.772	3.54
422.129	3.55
422.486	3.55
422.844	3.54
423.201	3.55
423.558	3.56
423.915	3.58
424.273	3.56
424.63	3.57
424.987	3.57
425.344	3.56
425.701	3.56
426.058	3.56
426.415	3.56
426.772	3.56
427.128	3.55
427.485	3.56
427.842	3.54
428.199	3.54
428.555	3.56
428.912	3.57
429.269	3.59
429.625	3.59
429.982	3.59
430.338	3.6
430.695	3.6
431.051	3.58
431.407	3.58
431.764	3.6
432.12	3.57
432.476	3.58
432.832	3.58
433.189	3.58
433.545	3.59
433.901	3.6
434.257	3.59
434.613	3.62
434.969	3.61
435.325	3.63
435.681	3.64
436.036	3.64
436.392	3.64
436.748	3.63
437.104	3.63
437.459	3.64
437.815	3.63
438.171	3.65
438.526	3.65
438.882	3.65
439.237	3.66
439.593	3.69
439.948	3.69
440.304	3.69
440.659	3.7
441.014	3.7
441.369	3.69
441.725	3.67
442.08	3.66
442.435	3.67
442.79	3.66
443.145	3.65
443.5	3.64
443.855	3.64
444.21	3.62
444.565	3.62
444.92	3.63
445.275	3.61
445.629	3.62
445.984	3.62
446.339	3.6
446.693	3.57
447.048	3.55
447.403	3.55
447.757	3.55
448.112	3.56
448.466	3.55
448.82	3.56
449.175	3.59
449.529	3.59
449.883	3.58
450.238	3.57
450.592	3.58
450.946	3.57
451.3	3.57
451.654	3.59
452.008	3.59
452.362	3.58
452.716	3.59
453.07	3.59
453.424	3.59
453.778	3.6
454.132	3.61
454.486	3.62
454.839	3.61
455.193	3.6
455.547	3.6
455.9	3.61
456.254	3.61
456.607	3.62
456.961	3.61
457.314	3.61
457.668	3.61
458.021	3.6
458.375	3.58
458.728	3.58
459.081	3.59
459.434	3.58
459.787	3.59
460.141	3.59
460.494	3.59
460.847	3.59
461.2	3.59
461.553	3.58
461.906	3.56
462.259	3.57
462.611	3.56
462.964	3.58
463.317	3.57
463.67	3.56
464.022	3.55
464.375	3.54
464.728	3.55
465.08	3.54
465.433	3.55
465.785	3.57
466.138	3.57
466.49	3.55
466.843	3.57
467.195	3.57
467.547	3.57
467.899	3.57
468.252	3.55
468.604	3.57
468.956	3.57
469.308	3.59
469.66	3.58
470.012	3.61
470.364	3.59
470.716	3.59
471.068	3.61
471.42	3.62
471.772	3.63
472.123	3.65
472.475	3.66
472.827	3.66
473.178	3.66
473.53	3.64
473.882	3.64
474.233	3.63
474.585	3.6
474.936	3.6
475.288	3.6
475.639	3.62
475.99	3.6
476.342	3.6
476.693	3.62
477.044	3.65
477.395	3.63
477.746	3.64
478.097	3.64
478.448	3.65
478.8	3.65
479.15	3.63
479.501	3.64
479.852	3.65
480.203	3.67
480.554	3.68
480.905	3.69
481.255	3.7
481.606	3.71
481.957	3.73
482.307	3.74
482.658	3.73
483.009	3.74
483.359	3.75
483.709	3.75
484.06	3.75
484.41	3.76
484.761	3.77
485.111	3.77
485.461	3.77
485.811	3.77
486.162	3.76
486.512	3.78
486.862	3.78
487.212	3.78
487.562	3.78
487.912	3.79
488.262	3.79
488.612	3.8
488.961	3.8
489.311	3.8
489.661	3.81
490.011	3.81
490.36	3.81
490.71	3.81
491.06	3.81
491.409	3.8
491.759	3.79
492.108	3.77
492.458	3.78
492.807	3.78
493.157	3.78
493.506	3.79
493.855	3.77
494.204	3.77
494.554	3.77
494.903	3.76
495.252	3.74
495.601	3.75
495.95	3.74
496.299	3.73
496.648	3.72
496.997	3.71
497.346	3.72
497.695	3.72
498.043	3.71
498.392	3.71
498.741	3.73
499.09	3.71
499.438	3.72
499.787	3.72
500.135	3.72
500.484	3.73
500.832	3.75
501.181	3.75
501.529	3.75
501.878	3.75
502.226	3.76
502.574	3.78
502.923	3.78
503.271	3.77
503.619	3.77
503.967	3.78
504.315	3.77
504.663	3.77
505.011	3.77
505.359	3.75
505.707	3.75
506.055	3.78
506.403	3.81
506.751	3.81
507.098	3.82
507.446	3.84
507.794	3.84
508.141	3.83
508.489	3.84
508.837	3.86
509.184	3.86
509.531	3.87
509.879	3.87
510.226	3.87
510.574	3.88
510.921	3.89
511.268	3.9
511.616	3.93
511.963	3.94
512.31	3.95
512.657	3.95
513.004	3.97
513.351	3.94
513.698	3.94
514.045	3.94
514.392	3.93
514.739	3.92
515.086	3.92
515.432	3.93
515.779	3.94
516.126	3.95
516.473	3.96
516.819	3.96
517.166	3.95
517.512	3.96
517.859	3.95
518.205	3.94
518.552	3.95
518.898	3.93
519.245	3.93
519.591	3.95
519.937	3.95
520.283	3.94
520.629	3.95
520.976	3.96
521.322	3.97
521.668	3.97
522.014	3.98
522.36	3.99
522.706	4.01
523.052	4.01
523.398	4
523.743	4.01
524.089	3.99
524.435	3.99
524.781	4.01
525.126	4.03
525.472	4.03
525.817	4.04
526.163	4.05
526.509	4.05
526.854	4.05
527.199	4.05
527.545	4.06
527.89	4.06
528.235	4.06
528.581	4.07
528.926	4.08
529.271	4.07
529.616	4.08
529.961	4.07
530.306	4.07
530.651	4.07
530.996	4.08
531.341	4.09
531.686	4.11
532.031	4.11
532.376	4.11
532.721	4.11
533.065	4.1
533.41	4.11
533.755	4.1
534.099	4.1
534.444	4.13
534.788	4.14
535.133	4.15
535.477	4.15
535.822	4.15
536.166	4.14
536.51	4.13
536.855	4.14
537.199	4.13
537.543	4.13
537.887	4.13
538.231	4.14
538.576	4.14
538.92	4.13
539.264	4.13
539.608	4.12
539.951	4.14
540.295	4.14
540.639	4.14
540.983	4.14
541.327	4.15
541.671	4.13
542.014	4.13
542.358	4.13
542.701	4.14
543.045	4.14
543.389	4.15
543.732	4.16
544.075	4.14
544.419	4.14
544.762	4.15
545.105	4.13
545.449	4.13
545.792	4.14
546.135	4.13
546.478	4.13
546.821	4.14
547.165	4.11
547.508	4.12
547.851	4.1
548.194	4.11
548.536	4.09
548.879	4.12
549.222	4.12
549.565	4.1
549.908	4.09
550.25	4.11
550.593	4.12
550.936	4.1
551.278	4.11
551.621	4.13
551.963	4.14
552.306	4.18
552.648	4.17
552.991	4.18
553.333	4.18
553.675	4.2
554.017	4.22
554.36	4.23
554.702	4.2
555.044	4.21
555.386	4.22
555.728	4.24
556.07	4.24
556.412	4.23
556.754	4.25
557.096	4.27
557.438	4.23
557.78	4.24
558.121	4.29
558.463	4.28
558.805	4.24
559.147	4.23
559.488	4.23
559.83	4.23
560.171	4.2
560.513	4.22
560.854	4.18
561.196	4.16
561.537	4.2
561.878	4.21
562.22	4.22
562.561	4.2
562.902	4.19
563.243	4.14
563.584	4.16
563.925	4.15
564.266	4.12
564.607	4.15
564.948	4.18
565.289	4.18
565.63	4.18
565.971	4.17
566.312	4.2
566.653	4.18
566.993	4.2
567.334	4.2
567.675	4.21
568.015	4.23
568.356	4.24
568.696	4.25
569.037	4.26
569.377	4.26
569.718	4.26
570.058	4.27
570.398	4.29
570.739	4.28
571.079	4.27
571.419	4.3
571.759	4.3
572.099	4.27
572.439	4.27
572.779	4.26
573.119	4.28
573.459	4.26
573.799	4.29
574.139	4.28
574.479	4.3
574.819	4.28
575.158	4.26
575.498	4.26
575.838	4.2
576.177	4.19
576.517	4.16
576.856	4.15
577.196	4.15
577.535	4.12
577.875	4.15
578.214	4.14
578.553	4.11
578.893	4.09
579.232	4.11
579.571	4.09
579.91	4.1
580.25	4.12
580.589	4.14
580.928	4.12
581.267	4.14
581.606	4.14
581.945	4.15
582.283	4.16
582.622	4.16
582.961	4.21
583.3	4.24
583.639	4.28
583.977	4.32
584.316	4.33
584.654	4.35
584.993	4.33
585.332	4.32
585.67	4.33
586.008	4.33
586.347	4.31
586.685	4.27
587.024	4.26
587.362	4.28
587.7	4.28
588.038	4.3
588.376	4.27
588.715	4.28
589.053	4.3
589.391	4.34
589.729	4.34
590.067	4.31
590.404	4.32
590.742	4.32
591.08	4.28
591.418	4.28
591.756	4.27
592.093	4.27
592.431	4.28
592.769	4.27
593.106	4.26
593.444	4.25
593.781	4.31
594.119	4.31
594.456	4.32
594.793	4.32
595.131	4.3
595.468	4.3
595.805	4.3
596.143	4.28
596.48	4.26
596.817	4.27
597.154	4.31
597.491	4.3
597.828	4.29
598.165	4.35
598.502	4.35
598.839	4.4
599.176	4.44
599.512	4.45
599.849	4.49
600.186	4.5
600.523	4.53
600.859	4.56
601.196	4.57
601.532	4.53
601.869	4.54
602.205	4.54
602.542	4.55
602.878	4.56
603.215	4.56
603.551	4.58
603.887	4.57
604.223	4.54
604.56	4.55
604.896	4.54
605.232	4.54
605.568	4.54
605.904	4.51
606.24	4.51
606.576	4.51
606.912	4.5
607.248	4.5
607.583	4.5
607.919	4.46
608.255	4.45
608.591	4.52
608.926	4.5
609.262	4.48
609.597	4.51
609.933	4.5
610.268	4.51
610.604	4.5
610.939	4.49
611.275	4.52
611.61	4.5
611.945	4.55
612.281	4.52
612.616	4.55
612.951	4.57
613.286	4.59
613.621	4.6
613.956	4.58
614.291	4.63
614.626	4.67
614.961	4.65
615.296	4.6
615.631	4.59
615.966	4.58
616.3	4.61
616.635	4.59
616.97	4.59
617.304	4.54
617.639	4.54
617.973	4.56
618.308	4.56
618.642	4.54
618.977	4.48
619.311	4.51
619.646	4.53
619.98	4.56
620.314	4.53
620.648	4.53
620.983	4.56
621.317	4.55
621.651	4.49
621.985	4.52
622.319	4.59
622.653	4.58
622.987	4.59
623.321	4.6
623.655	4.57
623.988	4.61
624.322	4.65
624.656	4.66
624.99	4.65
625.323	4.67
625.657	4.68
625.99	4.71
626.324	4.69
626.657	4.66
626.991	4.63
627.324	4.62
627.658	4.65
627.991	4.66
628.324	4.67
628.657	4.67
628.991	4.71
629.324	4.7
629.657	4.67
629.99	4.67
630.323	4.69
630.656	4.73
630.989	4.73
631.322	4.71
631.655	4.64
631.987	4.64
632.32	4.66
632.653	4.7
632.986	4.69
633.318	4.66
633.651	4.62
633.984	4.58
634.316	4.6
634.649	4.57
634.981	4.54
635.313	4.53
635.646	4.49
635.978	4.5
636.31	4.51
636.643	4.49
636.975	4.54
637.307	4.49
637.639	4.47
637.971	4.48
638.303	4.56
638.635	4.52
638.967	4.5
639.299	4.53
639.631	4.52
639.963	4.54
640.295	4.59
640.626	4.63
640.958	4.74
641.29	4.68
641.621	4.7
641.953	4.69
642.285	4.68
642.616	4.77
642.948	4.7
643.279	4.67
643.61	4.68
643.942	4.59
644.273	4.64
644.604	4.6
644.936	4.56
645.267	4.49
645.598	4.62
645.929	4.67
646.26	4.65
646.591	4.65
646.922	4.6
647.253	4.62
647.584	4.64
647.915	4.54
648.245	4.6
648.576	4.62
648.907	4.64
649.238	4.65
649.568	4.63
649.899	4.65
650.229	4.68
650.56	4.71
650.89	4.77
651.221	4.78
651.551	4.77
651.882	4.79
652.212	4.78
652.542	4.71
652.872	4.67
653.203	4.65
653.533	4.66
653.863	4.74
654.193	4.72
654.523	4.75
654.853	4.76
655.183	4.71
655.513	4.7
655.843	4.7
656.172	4.71
656.502	4.7
656.832	4.76
657.162	4.8
657.491	4.79
657.821	4.74
658.15	4.74
658.48	4.82
658.809	4.8
659.139	4.81
659.468	4.86
659.798	4.89
660.127	4.91
660.456	5
660.785	4.98
661.115	4.97
661.444	4.97
661.773	5
662.102	5.03
662.431	5.05
662.76	5.11
663.089	5.11
663.418	5.1
663.747	4.99
664.076	5.05
664.404	5.03
664.733	5.12
665.062	5.13
665.39	5.14
665.719	5.13
666.048	5.13
666.376	5.11
666.705	5.09
667.033	5.06
667.362	4.98
667.69	4.99
668.018	5.01
668.347	4.98
668.675	4.99
669.003	5.03
669.331	5.04
669.659	4.95
669.987	4.9
670.315	4.94
670.643	5.09
670.971	5.03
671.299	5.16
671.627	5.14
671.955	5.08
672.283	5.02
672.61	4.99
672.938	5.03
673.266	5.05
673.593	5.26
673.921	5.19
674.249	5.16
674.576	5.06
674.904	5.02
675.231	4.95
675.558	4.96
675.886	4.91
676.213	4.89
676.54	4.88
