Data from BA28473_Reflection_00004.txt Node
Date: Mon Nov 18 15:28:11 EST 2019
User: vgr7
Spectrometer: USB2G7710
Scans to average: 3
Trigger mode: 4
Integration Time (sec): 2.000000E-2
Electric dark correction enabled: true
Boxcar width: 10
XAxis mode: Wavelengths
Number of Pixels in Spectrum: 2048
>>>>>Begin Spectral Data<<<<<
177.721	5.24
178.105	5.92
178.488	-48.83
178.871	-110.41
179.254	-131.51
179.636	133.71
180.019	-83.21
180.402	137.5
180.785	255.84
181.168	475
181.55	126.43
181.933	74.25
182.316	36.66
182.698	29.38
183.081	44.47
183.463	35.7
183.846	5.86
184.228	22.29
184.611	37.53
184.993	79.63
185.376	100
185.758	68.65
186.14	115.14
186.522	85.19
186.904	106.64
187.287	100
187.669	100
188.051	88.56
188.433	93.6
188.815	100
189.197	121.87
189.579	116.11
189.961	55.99
190.342	210.85
190.724	-45.68
191.106	-140.53
191.488	-218.3
191.869	-80.68
192.251	-117.27
192.633	-60.27
193.014	32.42
193.396	-21.56
193.777	-74.14
194.159	-129.79
194.54	124.14
194.922	79.98
195.303	138.16
195.684	295.52
196.065	100
196.447	334.99
196.828	-2716.33
197.209	-858.58
197.59	534.39
197.971	185.04
198.352	127.69
198.733	127.42
199.114	52.46
199.495	45.93
199.876	33.31
200.257	28.68
200.638	22.8
201.018	3.39
201.399	-7.34
201.78	-0.54
202.16	-4.19
202.541	-33.26
202.922	-51.84
203.302	-73.14
203.683	-48.44
204.063	-51.7
204.444	-51.1
204.824	-36.71
205.204	-45.78
205.585	-50.89
205.965	-50.54
206.345	-72.6
206.725	-118.18
207.106	-245.29
207.486	-233.61
207.866	-363.26
208.246	-239.62
208.626	-146.19
209.006	-71.43
209.386	-88.12
209.766	-95.15
210.145	-112.89
210.525	-57.81
210.905	-12.29
211.285	-0.81
211.664	-36.13
212.044	-7.87
212.424	-22.92
212.803	-59.11
213.183	-51.17
213.562	-37.02
213.942	-34.14
214.321	-37.07
214.701	-16.97
215.08	-7.67
215.459	0.6
215.838	15.4
216.218	1.06
216.597	6.08
216.976	-2.84
217.355	-8.86
217.734	23.05
218.113	45.93
218.492	31.28
218.871	18.84
219.25	43.38
219.629	32.81
220.008	-9
220.387	-9.81
220.766	-2.71
221.144	24
221.523	10.17
221.902	9.62
222.28	13.97
222.659	27.58
223.037	18.45
223.416	20.62
223.794	8.47
224.173	1.19
224.551	7.2
224.929	15.89
225.308	14.42
225.686	4.58
226.064	5.12
226.442	3.15
226.821	4.19
227.199	0.75
227.577	-0.38
227.955	4.53
228.333	1.89
228.711	0.2
229.089	0.33
229.467	0.09
229.845	-0.34
230.222	-0.48
230.6	-2.87
230.978	-1.89
231.356	-0.21
231.733	0.12
232.111	3.59
232.488	5.23
232.866	4.38
233.243	5.74
233.621	5.04
233.998	3.92
234.376	4.42
234.753	4.08
235.13	2.91
235.508	5.67
235.885	6.57
236.262	6.7
236.639	6.06
237.016	5.1
237.393	5.21
237.77	5.58
238.147	4.85
238.524	5.44
238.901	4.8
239.278	3.94
239.655	4.94
240.032	4.43
240.409	3.55
240.785	3.64
241.162	3.58
241.539	3.83
241.915	3.72
242.292	3.34
242.668	3.37
243.045	3.86
243.421	3.6
243.798	3.03
244.174	3.49
244.551	3.47
244.927	3.62
245.303	3.78
245.679	3.88
246.056	4.16
246.432	3.85
246.808	4.17
247.184	3.94
247.56	3.71
247.936	3.81
248.312	3.66
248.688	3.5
249.064	3.35
249.44	3.38
249.815	3.42
250.191	3.57
250.567	3.52
250.943	3.47
251.318	3.56
251.694	3.96
252.069	3.69
252.445	3.68
252.82	3.67
253.196	3.63
253.571	3.34
253.947	3.11
254.322	3.37
254.697	3.08
255.073	3.18
255.448	3.26
255.823	3.24
256.198	3.54
256.573	3.61
256.948	3.89
257.323	3.81
257.698	3.73
258.073	3.69
258.448	3.8
258.823	3.73
259.198	3.69
259.573	3.86
259.948	3.81
260.322	4
260.697	3.99
261.072	3.87
261.446	4.13
261.821	4.04
262.195	4.15
262.57	4.25
262.944	4.38
263.319	4.34
263.693	4.48
264.067	4.57
264.442	4.72
264.816	4.54
265.19	4.56
265.564	4.73
265.938	4.86
266.313	4.89
266.687	4.86
267.061	4.83
267.435	4.34
267.809	4.51
268.183	4.47
268.556	4.34
268.93	4.57
269.304	4.3
269.678	4.53
270.051	4.56
270.425	4.29
270.799	4.13
271.172	4.21
271.546	4.11
271.919	3.95
272.293	3.85
272.666	3.97
273.04	4.08
273.413	4.11
273.787	4.11
274.16	4.08
274.533	4.12
274.906	4.08
275.279	4.14
275.653	4.09
276.026	4.04
276.399	4.17
276.772	4.29
277.145	4.24
277.518	4.14
277.891	4.05
278.263	4.1
278.636	4.18
279.009	4.11
279.382	4.17
279.755	4.27
280.127	4.42
280.5	4.51
280.872	4.53
281.245	4.4
281.617	4.4
281.99	4.39
282.362	4.42
282.735	4.33
283.107	4.21
283.479	4.1
283.852	3.94
284.224	3.75
284.596	3.63
284.968	3.71
285.34	3.71
285.713	3.66
286.085	3.81
286.457	3.86
286.829	3.95
287.201	3.96
287.572	3.8
287.944	3.64
288.316	3.58
288.688	3.52
289.06	3.5
289.431	3.49
289.803	3.66
290.175	3.62
290.546	3.82
290.918	3.91
291.289	3.94
291.661	4.03
292.032	4.11
292.403	4.01
292.775	4.2
293.146	4.14
293.517	3.94
293.889	3.99
294.26	4
294.631	3.94
295.002	3.84
295.373	4
295.744	4.04
296.115	4.12
296.486	3.94
296.857	3.97
297.228	4
297.599	3.8
297.97	3.86
298.34	3.78
298.711	3.88
299.082	3.82
299.452	3.98
299.823	4.05
300.194	4.22
300.564	4.01
300.935	4.04
301.305	4.22
301.676	4.22
302.046	4.18
302.416	4.17
302.787	4.12
303.157	4.1
303.527	4.02
303.897	3.94
304.267	4.18
304.637	4.09
305.008	3.98
305.378	4.08
305.748	4.07
306.117	4.07
306.487	3.99
306.857	4.08
307.227	3.96
307.597	3.96
307.967	3.8
308.336	3.79
308.706	3.77
309.076	3.76
309.445	3.67
309.815	3.67
310.184	3.69
310.554	3.79
310.923	3.62
311.293	3.6
311.662	3.53
312.031	3.49
312.401	3.62
312.77	3.71
313.139	3.67
313.508	3.66
313.877	3.64
314.246	3.72
314.616	3.64
314.985	3.59
315.353	3.42
315.722	3.44
316.091	3.41
316.46	3.41
316.829	3.53
317.198	3.54
317.567	3.54
317.935	3.41
318.304	3.4
318.672	3.5
319.041	3.54
319.41	3.53
319.778	3.48
320.147	3.39
320.515	3.34
320.883	3.32
321.252	3.32
321.62	3.34
321.988	3.14
322.357	3.19
322.725	3.24
323.093	3.39
323.461	3.4
323.829	3.54
324.197	3.53
324.565	3.44
324.933	3.39
325.301	3.49
325.669	3.49
326.037	3.57
326.405	3.53
326.772	3.74
327.14	3.83
327.508	4.03
327.875	3.96
328.243	3.96
328.61	3.9
328.978	3.81
329.346	3.83
329.713	3.86
330.08	3.8
330.448	3.74
330.815	3.66
331.182	3.67
331.55	3.54
331.917	3.57
332.284	3.61
332.651	3.69
333.018	3.66
333.385	3.77
333.752	3.76
334.119	3.85
334.486	3.62
334.853	3.5
335.22	3.24
335.587	3.4
335.954	3.37
336.32	3.46
336.687	3.51
337.054	3.44
337.42	3.52
337.787	3.63
338.153	3.67
338.52	3.78
338.886	3.73
339.253	3.71
339.619	3.7
339.986	3.73
340.352	3.73
340.718	3.63
341.084	3.58
341.451	3.48
341.817	3.5
342.183	3.5
342.549	3.54
342.915	3.59
343.281	3.5
343.647	3.55
344.013	3.52
344.379	3.47
344.745	3.6
345.11	3.56
345.476	3.51
345.842	3.48
346.208	3.44
346.573	3.47
346.939	3.53
347.304	3.43
347.67	3.45
348.035	3.36
348.401	3.39
348.766	3.36
349.132	3.41
349.497	3.38
349.862	3.52
350.228	3.56
350.593	3.58
350.958	3.59
351.323	3.57
351.688	3.51
352.053	3.63
352.418	3.62
352.783	3.6
353.148	3.57
353.513	3.58
353.878	3.61
354.243	3.67
354.608	3.71
354.972	3.75
355.337	3.74
355.702	3.85
356.066	3.9
356.431	3.86
356.795	3.81
357.16	3.84
357.524	3.74
357.889	3.7
358.253	3.71
358.618	3.79
358.982	3.71
359.346	3.66
359.71	3.59
360.075	3.54
360.439	3.61
360.803	3.63
361.167	3.63
361.531	3.54
361.895	3.48
362.259	3.42
362.623	3.44
362.987	3.43
363.351	3.36
363.714	3.35
364.078	3.38
364.442	3.37
364.806	3.31
365.169	3.31
365.533	3.32
365.896	3.31
366.26	3.24
366.623	3.3
366.987	3.38
367.35	3.39
367.714	3.36
368.077	3.3
368.44	3.33
368.803	3.29
369.167	3.29
369.53	3.29
369.893	3.34
370.256	3.35
370.619	3.29
370.982	3.28
371.345	3.24
371.708	3.26
372.071	3.25
372.434	3.25
372.797	3.26
373.159	3.26
373.522	3.29
373.885	3.26
374.247	3.23
374.61	3.23
374.973	3.2
375.335	3.24
375.698	3.25
376.06	3.19
376.423	3.23
376.785	3.28
377.147	3.28
377.51	3.23
377.872	3.3
378.234	3.35
378.596	3.38
378.958	3.36
379.321	3.42
379.683	3.49
380.045	3.52
380.407	3.52
380.769	3.56
381.13	3.53
381.492	3.53
381.854	3.54
382.216	3.55
382.578	3.57
382.939	3.55
383.301	3.56
383.663	3.6
384.024	3.61
384.386	3.61
384.747	3.62
385.109	3.64
385.47	3.58
385.832	3.57
386.193	3.58
386.554	3.64
386.916	3.58
387.277	3.56
387.638	3.59
387.999	3.6
388.36	3.59
388.721	3.63
389.082	3.66
389.443	3.64
389.804	3.64
390.165	3.63
390.526	3.64
390.887	3.61
391.248	3.62
391.609	3.62
391.969	3.63
392.33	3.64
392.691	3.65
393.051	3.65
393.412	3.65
393.772	3.63
394.133	3.63
394.493	3.63
394.854	3.65
395.214	3.6
395.574	3.61
395.935	3.61
396.295	3.61
396.655	3.59
397.015	3.61
397.376	3.57
397.736	3.56
398.096	3.56
398.456	3.61
398.816	3.6
399.176	3.57
399.535	3.55
399.895	3.52
400.255	3.5
400.615	3.5
400.975	3.5
401.334	3.49
401.694	3.46
402.054	3.44
402.413	3.38
402.773	3.39
403.132	3.37
403.492	3.35
403.851	3.35
404.211	3.31
404.57	3.28
404.929	3.3
405.288	3.32
405.648	3.33
406.007	3.3
406.366	3.28
406.725	3.3
407.084	3.3
407.443	3.32
407.802	3.34
408.161	3.32
408.52	3.32
408.879	3.33
409.238	3.32
409.596	3.36
409.955	3.4
410.314	3.39
410.673	3.37
411.031	3.4
411.39	3.37
411.748	3.39
412.107	3.47
412.465	3.48
412.824	3.47
413.182	3.45
413.54	3.48
413.899	3.51
414.257	3.52
414.615	3.53
414.974	3.52
415.332	3.5
415.69	3.52
416.048	3.53
416.406	3.53
416.764	3.56
417.122	3.56
417.48	3.57
417.838	3.58
418.195	3.59
418.553	3.57
418.911	3.56
419.269	3.56
419.626	3.54
419.984	3.55
420.342	3.56
420.699	3.56
421.057	3.56
421.414	3.55
421.772	3.56
422.129	3.56
422.486	3.56
422.844	3.57
423.201	3.56
423.558	3.58
423.915	3.57
424.273	3.58
424.63	3.58
424.987	3.56
425.344	3.55
425.701	3.55
426.058	3.57
426.415	3.6
426.772	3.61
427.128	3.6
427.485	3.58
427.842	3.58
428.199	3.58
428.555	3.56
428.912	3.56
429.269	3.56
429.625	3.56
429.982	3.56
430.338	3.57
430.695	3.57
431.051	3.52
431.407	3.53
431.764	3.52
432.12	3.51
432.476	3.51
432.832	3.5
433.189	3.51
433.545	3.49
433.901	3.48
434.257	3.5
434.613	3.53
434.969	3.53
435.325	3.52
435.681	3.54
436.036	3.55
436.392	3.55
436.748	3.54
437.104	3.54
437.459	3.51
437.815	3.52
438.171	3.52
438.526	3.55
438.882	3.55
439.237	3.55
439.593	3.55
439.948	3.54
440.304	3.56
440.659	3.56
441.014	3.56
441.369	3.55
441.725	3.52
442.08	3.51
442.435	3.52
442.79	3.52
443.145	3.49
443.5	3.49
443.855	3.48
444.21	3.49
444.565	3.5
444.92	3.52
445.275	3.5
445.629	3.51
445.984	3.51
446.339	3.51
446.693	3.49
447.048	3.5
447.403	3.51
447.757	3.51
448.112	3.5
448.466	3.51
448.82	3.52
449.175	3.53
449.529	3.52
449.883	3.53
450.238	3.53
450.592	3.55
450.946	3.54
451.3	3.54
451.654	3.54
452.008	3.54
452.362	3.53
452.716	3.55
453.07	3.54
453.424	3.53
453.778	3.52
454.132	3.53
454.486	3.52
454.839	3.51
455.193	3.51
455.547	3.5
455.9	3.51
456.254	3.51
456.607	3.52
456.961	3.52
457.314	3.53
457.668	3.52
458.021	3.52
458.375	3.54
458.728	3.53
459.081	3.53
459.434	3.52
459.787	3.51
460.141	3.5
460.494	3.5
460.847	3.5
461.2	3.48
461.553	3.5
461.906	3.51
462.259	3.52
462.611	3.52
462.964	3.53
463.317	3.52
463.67	3.53
464.022	3.52
464.375	3.52
464.728	3.51
465.08	3.51
465.433	3.5
465.785	3.5
466.138	3.51
466.49	3.49
466.843	3.49
467.195	3.52
467.547	3.52
467.899	3.52
468.252	3.55
468.604	3.57
468.956	3.55
469.308	3.55
469.66	3.56
470.012	3.58
470.364	3.57
470.716	3.57
471.068	3.57
471.42	3.55
471.772	3.56
472.123	3.58
472.475	3.58
472.827	3.6
473.178	3.6
473.53	3.6
473.882	3.61
474.233	3.62
474.585	3.58
474.936	3.59
475.288	3.59
475.639	3.59
475.99	3.6
476.342	3.62
476.693	3.62
477.044	3.6
477.395	3.6
477.746	3.61
478.097	3.61
478.448	3.6
478.8	3.61
479.15	3.6
479.501	3.6
479.852	3.61
480.203	3.62
480.554	3.63
480.905	3.63
481.255	3.64
481.606	3.66
481.957	3.68
482.307	3.68
482.658	3.67
483.009	3.67
483.359	3.68
483.709	3.67
484.06	3.67
484.41	3.67
484.761	3.67
485.111	3.66
485.461	3.66
485.811	3.66
486.162	3.66
486.512	3.67
486.862	3.67
487.212	3.67
487.562	3.67
487.912	3.66
488.262	3.65
488.612	3.65
488.961	3.64
489.311	3.64
489.661	3.64
490.011	3.63
490.36	3.62
490.71	3.61
491.06	3.62
491.409	3.62
491.759	3.63
492.108	3.63
492.458	3.63
492.807	3.63
493.157	3.64
493.506	3.63
493.855	3.62
494.204	3.62
494.554	3.63
494.903	3.62
495.252	3.62
495.601	3.63
495.95	3.63
496.299	3.64
496.648	3.63
496.997	3.64
497.346	3.66
497.695	3.67
498.043	3.68
498.392	3.66
498.741	3.65
499.09	3.65
499.438	3.66
499.787	3.66
500.135	3.68
500.484	3.66
500.832	3.69
501.181	3.69
501.529	3.69
501.878	3.7
502.226	3.7
502.574	3.72
502.923	3.72
503.271	3.71
503.619	3.71
503.967	3.72
504.315	3.7
504.663	3.69
505.011	3.7
505.359	3.69
505.707	3.71
506.055	3.72
506.403	3.72
506.751	3.71
507.098	3.71
507.446	3.71
507.794	3.72
508.141	3.7
508.489	3.71
508.837	3.72
509.184	3.71
509.531	3.72
509.879	3.73
510.226	3.76
510.574	3.76
510.921	3.77
511.268	3.78
511.616	3.8
511.963	3.8
512.31	3.8
512.657	3.81
513.004	3.82
513.351	3.81
513.698	3.83
514.045	3.83
514.392	3.82
514.739	3.82
515.086	3.84
515.432	3.86
515.779	3.85
516.126	3.85
516.473	3.84
516.819	3.85
517.166	3.83
517.512	3.81
517.859	3.82
518.205	3.82
518.552	3.83
518.898	3.82
519.245	3.83
519.591	3.83
519.937	3.82
520.283	3.82
520.629	3.83
520.976	3.82
521.322	3.83
521.668	3.84
522.014	3.84
522.36	3.85
522.706	3.86
523.052	3.89
523.398	3.91
523.743	3.9
524.089	3.9
524.435	3.91
524.781	3.92
525.126	3.92
525.472	3.92
525.817	3.92
526.163	3.93
526.509	3.93
526.854	3.94
527.199	3.95
527.545	3.95
527.89	3.95
528.235	3.96
528.581	3.97
528.926	3.97
529.271	3.97
529.616	3.96
529.961	3.95
530.306	3.94
530.651	3.93
530.996	3.95
531.341	3.95
531.686	3.95
532.031	3.96
532.376	3.95
532.721	3.94
533.065	3.94
533.41	3.95
533.755	3.95
534.099	3.95
534.444	3.96
534.788	3.97
535.133	3.98
535.477	3.99
535.822	3.98
536.166	3.98
536.51	3.98
536.855	4
537.199	4.02
537.543	4.02
537.887	4.02
538.231	4.03
538.576	4.04
538.92	4.05
539.264	4.05
539.608	4.06
539.951	4.06
540.295	4.06
540.639	4.06
540.983	4.07
541.327	4.06
541.671	4.06
542.014	4.04
542.358	4.03
542.701	4.03
543.045	4.02
543.389	4.02
543.732	4.03
544.075	4.02
544.419	4.02
544.762	4.02
545.105	4.02
545.449	4.01
545.792	4.01
546.135	4.01
546.478	4.01
546.821	4.01
547.165	4
547.508	4
547.851	4
548.194	3.98
548.536	3.97
548.879	3.99
549.222	4
549.565	4
549.908	4
550.25	4.01
550.593	4.03
550.936	4.03
551.278	4.04
551.621	4.03
551.963	4.05
552.306	4.04
552.648	4.05
552.991	4.09
553.333	4.09
553.675	4.08
554.017	4.07
554.36	4.11
554.702	4.13
555.044	4.13
555.386	4.18
555.728	4.19
556.07	4.2
556.412	4.18
556.754	4.19
557.096	4.19
557.438	4.18
557.78	4.18
558.121	4.19
558.463	4.21
558.805	4.2
559.147	4.18
559.488	4.19
559.83	4.19
560.171	4.16
560.513	4.17
560.854	4.18
561.196	4.2
561.537	4.2
561.878	4.18
562.22	4.18
562.561	4.11
562.902	4.12
563.243	4.13
563.584	4.15
563.925	4.15
564.266	4.13
564.607	4.16
564.948	4.16
565.289	4.13
565.63	4.12
565.971	4.1
566.312	4.09
566.653	4.12
566.993	4.11
567.334	4.08
567.675	4.06
568.015	4.08
568.356	4.06
568.696	4.05
569.037	4.05
569.377	4.05
569.718	4.09
570.058	4.09
570.398	4.07
570.739	4.06
571.079	4.07
571.419	4.07
571.759	4.06
572.099	4.07
572.439	4.1
572.779	4.12
573.119	4.15
573.459	4.16
573.799	4.14
574.139	4.14
574.479	4.19
574.819	4.22
575.158	4.2
575.498	4.22
575.838	4.22
576.177	4.22
576.517	4.21
576.856	4.21
577.196	4.2
577.535	4.22
577.875	4.22
578.214	4.2
578.553	4.25
578.893	4.24
579.232	4.24
579.571	4.23
579.91	4.23
580.25	4.24
580.589	4.26
580.928	4.3
581.267	4.31
581.606	4.21
581.945	4.2
582.283	4.22
582.622	4.22
582.961	4.2
583.3	4.23
583.639	4.27
583.977	4.25
584.316	4.21
584.654	4.19
584.993	4.18
585.332	4.22
585.67	4.23
586.008	4.2
586.347	4.17
586.685	4.17
587.024	4.16
587.362	4.15
587.7	4.14
588.038	4.15
588.376	4.12
588.715	4.2
589.053	4.21
589.391	4.22
589.729	4.21
590.067	4.22
590.404	4.23
590.742	4.18
591.08	4.15
591.418	4.23
591.756	4.25
592.093	4.26
592.431	4.24
592.769	4.23
593.106	4.23
593.444	4.25
593.781	4.21
594.119	4.22
594.456	4.22
594.793	4.23
595.131	4.19
595.468	4.2
595.805	4.16
596.143	4.14
596.48	4.1
596.817	4.13
597.154	4.14
597.491	4.13
597.828	4.16
598.165	4.18
598.502	4.15
598.839	4.12
599.176	4.12
599.512	4.13
599.849	4.13
600.186	4.14
600.523	4.16
600.859	4.19
601.196	4.2
601.532	4.22
601.869	4.18
602.205	4.19
602.542	4.23
602.878	4.25
603.215	4.27
603.551	4.32
603.887	4.32
604.223	4.32
604.56	4.35
604.896	4.34
605.232	4.4
605.568	4.43
605.904	4.45
606.24	4.47
606.576	4.5
606.912	4.49
607.248	4.5
607.583	4.52
607.919	4.53
608.255	4.52
608.591	4.51
608.926	4.55
609.262	4.59
609.597	4.59
609.933	4.57
610.268	4.59
610.604	4.58
610.939	4.54
611.275	4.59
611.61	4.54
611.945	4.57
612.281	4.53
612.616	4.49
612.951	4.53
613.286	4.54
613.621	4.52
613.956	4.49
614.291	4.5
614.626	4.47
614.961	4.45
615.296	4.45
615.631	4.44
615.966	4.44
616.3	4.4
616.635	4.37
616.97	4.38
617.304	4.36
617.639	4.39
617.973	4.41
618.308	4.34
618.642	4.37
618.977	4.35
619.311	4.3
619.646	4.3
619.98	4.31
620.314	4.28
620.648	4.27
620.983	4.32
621.317	4.35
621.651	4.35
621.985	4.45
622.319	4.49
622.653	4.54
622.987	4.54
623.321	4.52
623.655	4.55
623.988	4.62
624.322	4.59
624.656	4.57
624.99	4.58
625.323	4.57
625.657	4.6
625.99	4.59
626.324	4.61
626.657	4.66
626.991	4.65
627.324	4.65
627.658	4.64
627.991	4.66
628.324	4.68
628.657	4.67
628.991	4.6
629.324	4.63
629.657	4.6
629.99	4.6
630.323	4.63
630.656	4.63
630.989	4.61
631.322	4.62
631.655	4.61
631.987	4.6
632.32	4.59
632.653	4.55
632.986	4.56
633.318	4.59
633.651	4.6
633.984	4.61
634.316	4.61
634.649	4.62
634.981	4.61
635.313	4.57
635.646	4.6
635.978	4.6
636.31	4.56
636.643	4.58
636.975	4.57
637.307	4.6
637.639	4.56
637.971	4.54
638.303	4.55
638.635	4.55
638.967	4.57
639.299	4.59
639.631	4.62
639.963	4.62
640.295	4.64
640.626	4.61
640.958	4.62
641.29	4.6
641.621	4.58
641.953	4.61
642.285	4.65
642.616	4.67
642.948	4.65
643.279	4.66
643.61	4.68
643.942	4.77
644.273	4.72
644.604	4.73
644.936	4.71
645.267	4.7
645.598	4.73
645.929	4.73
646.26	4.77
646.591	4.77
646.922	4.74
647.253	4.7
647.584	4.69
647.915	4.6
648.245	4.6
648.576	4.65
648.907	4.6
649.238	4.6
649.568	4.54
649.899	4.6
650.229	4.56
650.56	4.51
650.89	4.41
651.221	4.44
651.551	4.46
651.882	4.56
652.212	4.64
652.542	4.7
652.872	4.66
653.203	4.64
653.533	4.66
653.863	4.66
654.193	4.69
654.523	4.63
654.853	4.72
655.183	4.7
655.513	4.67
655.843	4.68
656.172	4.6
656.502	4.6
656.832	4.58
657.162	4.65
657.491	4.64
657.821	4.65
658.15	4.7
658.48	4.72
658.809	4.64
659.139	4.53
659.468	4.47
659.798	4.52
660.127	4.54
660.456	4.56
660.785	4.58
661.115	4.57
661.444	4.63
661.773	4.6
662.102	4.64
662.431	4.67
662.76	4.71
663.089	4.74
663.418	4.8
663.747	4.83
664.076	4.8
664.404	4.84
664.733	4.9
665.062	4.81
665.39	4.8
665.719	4.81
666.048	4.92
666.376	4.89
666.705	4.82
667.033	4.84
667.362	4.85
667.69	4.85
668.018	4.86
668.347	4.84
668.675	4.92
669.003	4.87
669.331	4.86
669.659	4.86
669.987	4.87
670.315	4.82
670.643	4.73
670.971	4.65
671.299	4.64
671.627	4.68
671.955	4.74
672.283	4.78
672.61	4.66
672.938	4.67
673.266	4.75
673.593	4.92
673.921	4.9
674.249	4.84
674.576	4.89
674.904	4.86
675.231	4.82
675.558	4.78
675.886	4.87
676.213	4.86
676.54	4.87
676.867	4.96
677.195	4.9
677.522	4.97
677.849	5.03
678.176	5.05
678.503	4.97
678.83	4.89
679.157	4.88
679.484	5.03
679.81	5.02
680.137	4.93
