Data from BA28302_Reflection_00011.txt Node
Date: Mon Nov 18 15:48:54 EST 2019
User: vgr7
Spectrometer: USB2G7710
Scans to average: 3
Trigger mode: 4
Integration Time (sec): 2.000000E-2
Electric dark correction enabled: true
Boxcar width: 10
XAxis mode: Wavelengths
Number of Pixels in Spectrum: 2048
>>>>>Begin Spectral Data<<<<<
177.721	1194.08
178.105	-506.3
178.488	-910.85
178.871	-376.56
179.254	2472.88
179.636	-1742.11
180.019	836.4
180.402	38.64
180.785	-17.1
181.168	128.41
181.55	125.48
181.933	117.02
182.316	120.05
182.698	104.3
183.081	123.62
183.463	155.64
183.846	138.69
184.228	178.25
184.611	111.91
184.993	223.54
185.376	-20757.14
185.758	1842.57
186.14	-3277.05
186.522	332.3
186.904	579.5
187.287	514.76
187.669	437.15
188.051	304.98
188.433	399.71
188.815	278.17
189.197	1179.65
189.579	-5500
189.961	2574.58
190.342	495.44
190.724	-185.71
191.106	1307.92
191.488	108.39
191.869	161.2
192.251	283.31
192.633	3254.93
193.014	734.56
193.396	430.73
193.777	10513.79
194.159	-5500
194.54	-463.96
194.922	-294.76
195.303	-202.68
195.684	-129.42
196.065	-87.45
196.447	-57.11
196.828	-65.03
197.209	-6.26
197.59	-217.34
197.971	-617.24
198.352	-0.9
198.733	-190.63
199.114	-49.37
199.495	-26.72
199.876	18.62
200.257	13.27
200.638	10.14
201.018	26.73
201.399	23.98
201.78	70.43
202.16	56.1
202.541	57.52
202.922	94.96
203.302	21.51
203.683	-23.2
204.063	-97.75
204.444	-284.07
204.824	-1306.59
205.204	-547.89
205.585	-144.71
205.965	-72.14
206.345	-171.19
206.725	-125.15
207.106	1480.28
207.486	307.67
207.866	287.39
208.246	671.43
208.626	613.97
209.006	157.14
209.386	171.23
209.766	-175.3
210.145	-103.33
210.525	1.52
210.905	38.41
211.285	0.27
211.664	27.49
212.044	21.72
212.424	4.79
212.803	-0.03
213.183	32.87
213.562	44.26
213.942	57.3
214.321	50.68
214.701	33.23
215.08	20.72
215.459	20.25
215.838	27.43
216.218	20.17
216.597	28.74
216.976	18.55
217.355	16.92
217.734	19.47
218.113	21.04
218.492	10.11
218.871	-19.23
219.25	-9.3
219.629	-21.12
220.008	-6.27
220.387	10.89
220.766	6.99
221.144	-44.89
221.523	-61.84
221.902	-57.07
222.28	-64.28
222.659	-51.38
223.037	-40.48
223.416	-40.13
223.794	-49.73
224.173	-33.76
224.551	-33.32
224.929	-28.73
225.308	-19.37
225.686	-19.73
226.064	-18.1
226.442	-18.9
226.821	-16.28
227.199	-14.71
227.577	-11.53
227.955	-13.73
228.333	-13.91
228.711	-8.95
229.089	-2.82
229.467	-3.2
229.845	-1.45
230.222	1.2
230.6	2.08
230.978	3.49
231.356	3.33
231.733	5.21
232.111	5.79
232.488	7.23
232.866	6.72
233.243	4.21
233.621	6.09
233.998	7.77
234.376	8.66
234.753	10.21
235.13	9.8
235.508	8.99
235.885	10.14
236.262	9.65
236.639	7.24
237.016	6.7
237.393	7.57
237.77	7.1
238.147	5.9
238.524	5.35
238.901	5.46
239.278	6.07
239.655	6.07
240.032	5.85
240.409	5.55
240.785	5.44
241.162	5.25
241.539	4.94
241.915	4.74
242.292	4.52
242.668	4.49
243.045	4.7
243.421	4.44
243.798	4.31
244.174	4.22
244.551	4.25
244.927	4.1
245.303	4.18
245.679	4.28
246.056	4.21
246.432	4.4
246.808	4.44
247.184	4.39
247.56	4.36
247.936	4.1
248.312	4.13
248.688	4.12
249.064	4.28
249.44	4.31
249.815	4.33
250.191	4.31
250.567	4.14
250.943	3.94
251.318	4.16
251.694	4.07
252.069	4.23
252.445	4.4
252.82	4.47
253.196	4.37
253.571	4.46
253.947	4.48
254.322	4.51
254.697	4.4
255.073	4.22
255.448	3.93
255.823	4.07
256.198	4.18
256.573	4.22
256.948	4.24
257.323	4.36
257.698	4.3
258.073	4.33
258.448	4.35
258.823	4.36
259.198	4.27
259.573	4.27
259.948	4.17
260.322	4.12
260.697	4.05
261.072	3.93
261.446	3.79
261.821	3.91
262.195	3.95
262.57	3.95
262.944	3.91
263.319	3.92
263.693	3.83
264.067	3.77
264.442	3.94
264.816	3.86
265.19	3.74
265.564	3.63
265.938	3.57
266.313	3.58
266.687	3.81
267.061	3.87
267.435	4.05
267.809	4.09
268.183	4.13
268.556	4.25
268.93	4.22
269.304	4.28
269.678	4.26
270.051	4.27
270.425	4.28
270.799	4.34
271.172	4.42
271.546	4.4
271.919	4.43
272.293	4.28
272.666	4.4
273.04	4.29
273.413	4.34
273.787	4.49
274.16	4.52
274.533	4.42
274.906	4.32
275.279	4.27
275.653	4.33
276.026	4.22
276.399	4.25
276.772	4.42
277.145	4.27
277.518	4.34
277.891	4.29
278.263	4.16
278.636	4.17
279.009	4.13
279.382	4.3
279.755	4.24
280.127	4.43
280.5	4.22
280.872	4.41
281.245	4.43
281.617	4.41
281.99	4.46
282.362	4.52
282.735	4.4
283.107	4.41
283.479	4.28
283.852	4.3
284.224	4.28
284.596	4.16
284.968	4.27
285.34	4.12
285.713	4.03
286.085	3.96
286.457	4.04
286.829	4.07
287.201	4.07
287.572	4.09
287.944	3.89
288.316	4.01
288.688	3.9
289.06	3.87
289.431	3.73
289.803	3.8
290.175	3.67
290.546	3.81
290.918	3.82
291.289	3.93
291.661	3.96
292.032	4.05
292.403	3.97
292.775	4.01
293.146	4.05
293.517	4.17
293.889	4.38
294.26	4.29
294.631	4.38
295.002	4.26
295.373	4.31
295.744	4.47
296.115	4.43
296.486	4.48
296.857	4.52
297.228	4.66
297.599	4.5
297.97	4.53
298.34	4.54
298.711	4.45
299.082	4.36
299.452	4.3
299.823	4.26
300.194	4.35
300.564	4.46
300.935	4.6
301.305	4.55
301.676	4.41
302.046	4.57
302.416	4.47
302.787	4.49
303.157	4.47
303.527	4.36
303.897	4.28
304.267	4.26
304.637	4.14
305.008	4.1
305.378	4.23
305.748	4.18
306.117	4.09
306.487	4.21
306.857	4.3
307.227	4.32
307.597	4.22
307.967	4.26
308.336	4.07
308.706	4.02
309.076	4
309.445	4
309.815	3.89
310.184	3.89
310.554	3.95
310.923	3.92
311.293	3.95
311.662	3.97
312.031	3.97
312.401	4.09
312.77	4.07
313.139	4.02
313.508	4.07
313.877	4.07
314.246	4.06
314.616	4.08
314.985	4.07
315.353	4.17
315.722	4.15
316.091	4.03
316.46	3.94
316.829	4.02
317.198	4.1
317.567	4.08
317.935	4.13
318.304	4.13
318.672	4.14
319.041	4.22
319.41	4.32
319.778	4.34
320.147	4.31
320.515	4.23
320.883	4.08
321.252	4.12
321.62	4.1
321.988	4.04
322.357	3.99
322.725	3.97
323.093	3.99
323.461	4.02
323.829	4.26
324.197	4.42
324.565	4.34
324.933	4.32
325.301	4.3
325.669	4.39
326.037	4.38
326.405	4.38
326.772	4.33
327.14	4.31
327.508	4.21
327.875	4.11
328.243	4.28
328.61	4.37
328.978	4.35
329.346	4.52
329.713	4.47
330.08	4.5
330.448	4.43
330.815	4.27
331.182	4.3
331.55	4.22
331.917	4.14
332.284	4.24
332.651	4.1
333.018	4.18
333.385	4.14
333.752	4.16
334.119	4.11
334.486	4.03
334.853	4.01
335.22	4.02
335.587	4.17
335.954	4.2
336.32	4.2
336.687	4.26
337.054	4.21
337.42	4.31
337.787	4.39
338.153	4.5
338.52	4.58
338.886	4.39
339.253	4.39
339.619	4.36
339.986	4.32
340.352	4.4
340.718	4.31
341.084	4.29
341.451	4.37
341.817	4.43
342.183	4.48
342.549	4.51
342.915	4.57
343.281	4.49
343.647	4.34
344.013	4.4
344.379	4.35
344.745	4.26
345.11	4.18
345.476	4.13
345.842	4.14
346.208	4.19
346.573	4.35
346.939	4.41
347.304	4.36
347.67	4.31
348.035	4.27
348.401	4.31
348.766	4.37
349.132	4.35
349.497	4.28
349.862	4.32
350.228	4.26
350.593	4.27
350.958	4.28
351.323	4.38
351.688	4.35
352.053	4.39
352.418	4.47
352.783	4.54
353.148	4.47
353.513	4.5
353.878	4.41
354.243	4.37
354.608	4.28
354.972	4.28
355.337	4.33
355.702	4.46
356.066	4.49
356.431	4.43
356.795	4.5
357.16	4.47
357.524	4.39
357.889	4.47
358.253	4.46
358.618	4.53
358.982	4.53
359.346	4.52
359.71	4.45
360.075	4.4
360.439	4.41
360.803	4.43
361.167	4.4
361.531	4.43
361.895	4.39
362.259	4.41
362.623	4.39
362.987	4.38
363.351	4.3
363.714	4.28
364.078	4.22
364.442	4.09
364.806	4.1
365.169	4.1
365.533	4.08
365.896	4.06
366.26	4.04
366.623	3.97
366.987	3.96
367.35	3.99
367.714	3.97
368.077	3.89
368.44	3.88
368.803	3.9
369.167	3.85
369.53	3.81
369.893	3.84
370.256	3.86
370.619	3.8
370.982	3.77
371.345	3.7
371.708	3.75
372.071	3.79
372.434	3.75
372.797	3.75
373.159	3.71
373.522	3.71
373.885	3.63
374.247	3.65
374.61	3.68
374.973	3.67
375.335	3.7
375.698	3.69
376.06	3.68
376.423	3.64
376.785	3.65
377.147	3.74
377.51	3.7
377.872	3.74
378.234	3.8
378.596	3.82
378.958	3.86
379.321	3.83
379.683	3.79
380.045	3.84
380.407	3.85
380.769	3.83
381.13	3.79
381.492	3.79
381.854	3.76
382.216	3.69
382.578	3.73
382.939	3.7
383.301	3.69
383.663	3.67
384.024	3.67
384.386	3.69
384.747	3.66
385.109	3.64
385.47	3.56
385.832	3.52
386.193	3.54
386.554	3.57
386.916	3.61
387.277	3.61
387.638	3.59
387.999	3.54
388.36	3.54
388.721	3.55
389.082	3.59
389.443	3.58
389.804	3.61
390.165	3.56
390.526	3.56
390.887	3.55
391.248	3.61
391.609	3.59
391.969	3.56
392.33	3.53
392.691	3.52
393.051	3.59
393.412	3.58
393.772	3.54
394.133	3.52
394.493	3.49
394.854	3.46
395.214	3.48
395.574	3.5
395.935	3.5
396.295	3.52
396.655	3.48
397.015	3.48
397.376	3.46
397.736	3.48
398.096	3.5
398.456	3.52
398.816	3.47
399.176	3.47
399.535	3.46
399.895	3.48
400.255	3.51
400.615	3.46
400.975	3.49
401.334	3.49
401.694	3.45
402.054	3.46
402.413	3.49
402.773	3.43
403.132	3.43
403.492	3.42
403.851	3.39
404.211	3.4
404.57	3.41
404.929	3.42
405.288	3.41
405.648	3.43
406.007	3.4
406.366	3.38
406.725	3.38
407.084	3.38
407.443	3.35
407.802	3.35
408.161	3.36
408.52	3.31
408.879	3.31
409.238	3.3
409.596	3.29
409.955	3.3
410.314	3.34
410.673	3.3
411.031	3.3
411.39	3.32
411.748	3.32
412.107	3.3
412.465	3.32
412.824	3.32
413.182	3.28
413.54	3.28
413.899	3.31
414.257	3.31
414.615	3.32
414.974	3.31
415.332	3.29
415.69	3.27
416.048	3.27
416.406	3.29
416.764	3.3
417.122	3.28
417.48	3.25
417.838	3.26
418.195	3.28
418.553	3.27
418.911	3.25
419.269	3.25
419.626	3.25
419.984	3.24
420.342	3.24
420.699	3.25
421.057	3.24
421.414	3.22
421.772	3.22
422.129	3.23
422.486	3.23
422.844	3.24
423.201	3.24
423.558	3.24
423.915	3.23
424.273	3.22
424.63	3.21
424.987	3.23
425.344	3.2
425.701	3.21
426.058	3.22
426.415	3.23
426.772	3.23
427.128	3.23
427.485	3.23
427.842	3.22
428.199	3.2
428.555	3.22
428.912	3.24
429.269	3.23
429.625	3.23
429.982	3.23
430.338	3.23
430.695	3.23
431.051	3.23
431.407	3.23
431.764	3.23
432.12	3.24
432.476	3.24
432.832	3.27
433.189	3.27
433.545	3.25
433.901	3.24
434.257	3.23
434.613	3.23
434.969	3.21
435.325	3.2
435.681	3.21
436.036	3.21
436.392	3.2
436.748	3.18
437.104	3.18
437.459	3.18
437.815	3.17
438.171	3.16
438.526	3.17
438.882	3.17
439.237	3.17
439.593	3.16
439.948	3.15
440.304	3.15
440.659	3.14
441.014	3.15
441.369	3.14
441.725	3.14
442.08	3.15
442.435	3.14
442.79	3.13
443.145	3.13
443.5	3.13
443.855	3.12
444.21	3.13
444.565	3.13
444.92	3.13
445.275	3.12
445.629	3.12
445.984	3.11
446.339	3.09
446.693	3.09
447.048	3.08
447.403	3.1
447.757	3.07
448.112	3.07
448.466	3.06
448.82	3.07
449.175	3.08
449.529	3.07
449.883	3.07
450.238	3.07
450.592	3.07
450.946	3.06
451.3	3.06
451.654	3.05
452.008	3.05
452.362	3.05
452.716	3.06
453.07	3.07
453.424	3.08
453.778	3.09
454.132	3.1
454.486	3.1
454.839	3.06
455.193	3.09
455.547	3.09
455.9	3.09
456.254	3.1
456.607	3.09
456.961	3.08
457.314	3.08
457.668	3.1
458.021	3.09
458.375	3.1
458.728	3.09
459.081	3.1
459.434	3.09
459.787	3.1
460.141	3.11
460.494	3.12
460.847	3.13
461.2	3.13
461.553	3.13
461.906	3.14
462.259	3.17
462.611	3.18
462.964	3.19
463.317	3.19
463.67	3.2
464.022	3.19
464.375	3.18
464.728	3.18
465.08	3.17
465.433	3.17
465.785	3.16
466.138	3.18
466.49	3.16
466.843	3.16
467.195	3.16
467.547	3.16
467.899	3.16
468.252	3.13
468.604	3.11
468.956	3.1
469.308	3.09
469.66	3.07
470.012	3.06
470.364	3.07
470.716	3.07
471.068	3.07
471.42	3.06
471.772	3.08
472.123	3.09
472.475	3.1
472.827	3.1
473.178	3.12
473.53	3.1
473.882	3.11
474.233	3.12
474.585	3.09
474.936	3.08
475.288	3.08
475.639	3.09
475.99	3.11
476.342	3.11
476.693	3.11
477.044	3.13
477.395	3.11
477.746	3.1
478.097	3.1
478.448	3.09
478.8	3.09
479.15	3.1
479.501	3.1
479.852	3.1
480.203	3.09
480.554	3.1
480.905	3.11
481.255	3.11
481.606	3.11
481.957	3.12
482.307	3.13
482.658	3.13
483.009	3.13
483.359	3.13
483.709	3.15
484.06	3.15
484.41	3.15
484.761	3.15
485.111	3.15
485.461	3.16
485.811	3.15
486.162	3.15
486.512	3.15
486.862	3.15
487.212	3.16
487.562	3.17
487.912	3.16
488.262	3.16
488.612	3.17
488.961	3.17
489.311	3.18
489.661	3.17
490.011	3.17
490.36	3.17
490.71	3.17
491.06	3.16
491.409	3.16
491.759	3.17
492.108	3.15
492.458	3.16
492.807	3.15
493.157	3.16
493.506	3.17
493.855	3.16
494.204	3.16
494.554	3.16
494.903	3.15
495.252	3.16
495.601	3.16
495.95	3.15
496.299	3.15
496.648	3.14
496.997	3.15
497.346	3.15
497.695	3.14
498.043	3.14
498.392	3.12
498.741	3.13
499.09	3.13
499.438	3.14
499.787	3.15
500.135	3.18
500.484	3.18
500.832	3.17
501.181	3.19
501.529	3.19
501.878	3.2
502.226	3.21
502.574	3.21
502.923	3.21
503.271	3.23
503.619	3.23
503.967	3.25
504.315	3.26
504.663	3.28
505.011	3.3
505.359	3.32
505.707	3.36
506.055	3.36
506.403	3.36
506.751	3.36
507.098	3.36
507.446	3.36
507.794	3.37
508.141	3.39
508.489	3.38
508.837	3.41
509.184	3.4
509.531	3.4
509.879	3.42
510.226	3.45
510.574	3.46
510.921	3.47
511.268	3.47
511.616	3.47
511.963	3.47
512.31	3.47
512.657	3.47
513.004	3.46
513.351	3.49
513.698	3.49
514.045	3.51
514.392	3.51
514.739	3.51
515.086	3.53
515.432	3.53
515.779	3.53
516.126	3.54
516.473	3.56
516.819	3.56
517.166	3.57
517.512	3.55
517.859	3.55
518.205	3.55
518.552	3.58
518.898	3.58
519.245	3.59
519.591	3.62
519.937	3.61
520.283	3.62
520.629	3.63
520.976	3.64
521.322	3.64
521.668	3.65
522.014	3.68
522.36	3.68
522.706	3.7
523.052	3.74
523.398	3.76
523.743	3.76
524.089	3.77
524.435	3.77
524.781	3.79
525.126	3.81
525.472	3.82
525.817	3.84
526.163	3.85
526.509	3.86
526.854	3.86
527.199	3.89
527.545	3.91
527.89	3.91
528.235	3.93
528.581	3.96
528.926	3.96
529.271	3.97
529.616	3.97
529.961	3.98
530.306	3.99
530.651	4
530.996	4.03
531.341	4.05
531.686	4.09
532.031	4.1
532.376	4.12
532.721	4.16
533.065	4.18
533.41	4.22
533.755	4.24
534.099	4.27
534.444	4.28
534.788	4.31
535.133	4.34
535.477	4.38
535.822	4.39
536.166	4.43
536.51	4.48
536.855	4.52
537.199	4.57
537.543	4.62
537.887	4.67
538.231	4.72
538.576	4.78
538.92	4.83
539.264	4.9
539.608	4.96
539.951	5
540.295	5.04
540.639	5.08
540.983	5.15
541.327	5.2
541.671	5.26
542.014	5.33
542.358	5.39
542.701	5.46
543.045	5.53
543.389	5.62
543.732	5.67
544.075	5.77
544.419	5.84
544.762	5.93
545.105	6.03
545.449	6.12
545.792	6.22
546.135	6.33
546.478	6.43
546.821	6.55
547.165	6.67
547.508	6.83
547.851	6.96
548.194	7.08
548.536	7.24
548.879	7.43
549.222	7.58
549.565	7.74
549.908	7.91
550.25	8.08
550.593	8.25
550.936	8.46
551.278	8.67
551.621	8.88
551.963	9.09
552.306	9.27
552.648	9.49
552.991	9.73
553.333	9.95
553.675	10.13
554.017	10.36
554.36	10.62
554.702	10.85
555.044	11.11
555.386	11.42
555.728	11.66
556.07	11.92
556.412	12.18
556.754	12.47
557.096	12.75
557.438	13.08
557.78	13.38
558.121	13.72
558.463	14.05
558.805	14.38
559.147	14.69
559.488	15.01
559.83	15.34
560.171	15.62
560.513	15.95
560.854	16.33
561.196	16.67
561.537	17
561.878	17.31
562.22	17.61
562.561	17.92
562.902	18.3
563.243	18.63
563.584	18.95
563.925	19.26
564.266	19.57
564.607	19.9
564.948	20.21
565.289	20.5
565.63	20.8
565.971	21.08
566.312	21.42
566.653	21.75
566.993	22.08
567.334	22.44
567.675	22.8
568.015	23.17
568.356	23.49
568.696	23.83
569.037	24.19
569.377	24.53
569.718	24.87
570.058	25.18
570.398	25.5
570.739	25.84
571.079	26.16
571.419	26.49
571.759	26.81
572.099	27.12
572.439	27.39
572.779	27.68
573.119	27.98
573.459	28.25
573.799	28.56
574.139	28.82
574.479	29.09
574.819	29.34
575.158	29.5
575.498	29.82
575.838	30.11
576.177	30.31
576.517	30.61
576.856	30.87
577.196	31.13
577.535	31.41
577.875	31.74
578.214	32.05
578.553	32.34
578.893	32.55
579.232	32.9
579.571	33.23
579.91	33.48
580.25	33.77
580.589	34.12
580.928	34.4
581.267	34.74
581.606	35.04
581.945	35.34
582.283	35.66
582.622	35.89
582.961	36.14
583.3	36.46
583.639	36.74
583.977	37.04
584.316	37.32
584.654	37.61
584.993	37.85
585.332	38.15
585.67	38.37
586.008	38.71
586.347	38.9
586.685	39.14
587.024	39.42
587.362	39.68
587.7	39.9
588.038	40.13
588.376	40.35
588.715	40.58
589.053	40.8
589.391	41.1
589.729	41.32
590.067	41.53
590.404	41.76
590.742	41.96
591.08	42.14
591.418	42.33
591.756	42.5
592.093	42.72
592.431	42.9
592.769	43.16
593.106	43.37
593.444	43.58
593.781	43.76
594.119	43.94
594.456	44.17
594.793	44.23
595.131	44.36
595.468	44.55
595.805	44.67
596.143	44.81
596.48	44.95
596.817	45.18
597.154	45.32
597.491	45.46
597.828	45.63
598.165	45.8
598.502	45.98
598.839	46.18
599.176	46.35
599.512	46.54
599.849	46.77
600.186	46.93
600.523	47.1
600.859	47.37
601.196	47.58
601.532	47.78
601.869	48.02
602.205	48.25
602.542	48.35
602.878	48.46
603.215	48.66
603.551	48.78
603.887	48.89
604.223	49.06
604.56	49.18
604.896	49.32
605.232	49.41
605.568	49.52
605.904	49.65
606.24	49.75
606.576	49.92
606.912	49.98
607.248	50.16
607.583	50.25
607.919	50.32
608.255	50.44
608.591	50.48
608.926	50.64
609.262	50.76
609.597	50.91
609.933	51.09
610.268	51.14
610.604	51.28
610.939	51.38
611.275	51.5
611.61	51.63
611.945	51.77
612.281	51.85
612.616	52.06
612.951	52.17
613.286	52.32
613.621	52.45
613.956	52.61
614.291	52.69
614.626	52.88
614.961	53.02
615.296	53.18
615.631	53.3
615.966	53.38
616.3	53.43
616.635	53.56
616.97	53.63
617.304	53.73
617.639	53.8
617.973	53.94
618.308	54.03
618.642	54.19
618.977	54.25
619.311	54.42
619.646	54.4
619.98	54.57
620.314	54.65
620.648	54.74
620.983	54.85
621.317	54.93
621.651	55.03
621.985	55.09
622.319	55.19
622.653	55.28
622.987	55.34
623.321	55.43
623.655	55.49
623.988	55.62
624.322	55.73
624.656	55.9
624.99	55.93
625.323	56.02
625.657	56.12
625.99	56.13
626.324	56.17
626.657	56.26
626.991	56.29
627.324	56.4
627.658	56.47
627.991	56.59
628.324	56.65
628.657	56.69
628.991	56.8
629.324	56.86
629.657	57.03
629.99	57.1
630.323	57.2
630.656	57.33
630.989	57.44
631.322	57.57
631.655	57.5
631.987	57.61
632.32	57.66
632.653	57.76
632.986	57.92
633.318	58.05
633.651	58.12
633.984	58.2
634.316	58.15
634.649	58.12
634.981	58.09
635.313	58.21
635.646	58.25
635.978	58.24
636.31	58.23
636.643	58.17
636.975	58.27
637.307	58.3
637.639	58.32
637.971	58.22
638.303	58.28
638.635	58.45
638.967	58.55
639.299	58.63
639.631	58.56
639.963	58.58
640.295	58.63
640.626	58.69
640.958	58.78
641.29	58.82
641.621	58.94
641.953	59.01
642.285	59
642.616	59.13
642.948	59.12
643.279	59.22
643.61	59.33
643.942	59.34
644.273	59.46
644.604	59.42
644.936	59.56
645.267	59.55
645.598	59.51
645.929	59.44
646.26	59.43
646.591	59.55
646.922	59.59
647.253	59.6
647.584	59.77
647.915	59.81
648.245	59.95
648.576	60.09
648.907	60.18
649.238	60.29
649.568	60.28
649.899	60.37
650.229	60.43
650.56	60.54
650.89	60.72
651.221	60.83
651.551	60.99
651.882	61.14
652.212	61.21
652.542	61.35
652.872	61.47
653.203	61.64
653.533	61.7
653.863	61.73
654.193	61.83
654.523	61.81
654.853	61.85
655.183	61.9
655.513	61.86
655.843	61.85
656.172	61.8
656.502	61.86
656.832	61.99
657.162	62.15
657.491	62.11
657.821	62.04
658.15	61.94
658.48	61.98
658.809	62.03
659.139	62.1
659.468	62.1
659.798	62.16
660.127	62.13
660.456	62.13
660.785	62.15
661.115	62.25
661.444	62.24
661.773	62.2
662.102	62.18
662.431	62.23
662.76	62.26
663.089	62.28
663.418	62.39
663.747	62.39
664.076	62.31
664.404	62.39
664.733	62.47
665.062	62.66
665.39	62.78
665.719	62.63
666.048	62.66
666.376	62.71
666.705	62.7
667.033	62.8
667.362	62.87
667.69	62.9
668.018	62.78
668.347	62.9
668.675	63.07
669.003	63.2
669.331	63.22
