Data from BA28304_Reflection_00002.txt Node
Date: Mon Nov 18 15:35:53 EST 2019
User: vgr7
Spectrometer: USB2G7710
Scans to average: 3
Trigger mode: 4
Integration Time (sec): 2.000000E-2
Electric dark correction enabled: true
Boxcar width: 10
XAxis mode: Wavelengths
Number of Pixels in Spectrum: 2048
>>>>>Begin Spectral Data<<<<<
177.721	81.25
178.105	1.72
178.488	74.09
178.871	194.06
179.254	-52.49
179.636	44.55
180.019	13.23
180.402	138.71
180.785	671.43
181.168	8225
181.55	-5076.47
181.933	178.21
182.316	166.92
182.698	167.19
183.081	167.02
183.463	2844.19
183.846	-405.12
184.228	-340.84
184.611	1918.18
184.993	1289.87
185.376	-1114.95
185.758	-96.99
186.14	-167.73
186.522	-142.27
186.904	-688.18
187.287	-800.4
187.669	-153.67
188.051	-219.57
188.433	-154.21
188.815	-55.87
189.197	20.81
189.579	1.34
189.961	-20.13
190.342	-20.31
190.724	5.27
191.106	-8.37
191.488	-19.51
191.869	-18.51
192.251	-13.61
192.633	-25.08
193.014	-31.52
193.396	-45.88
193.777	-42.56
194.159	-45.26
194.54	-48.19
194.922	-30.49
195.303	-29.55
195.684	-42.37
196.065	-29.93
196.447	-37.43
196.828	-59.64
197.209	-72.78
197.59	-79.44
197.971	-86.93
198.352	-54.35
198.733	-105.53
199.114	-99.12
199.495	-59.52
199.876	-68.29
200.257	-106.14
200.638	-94.46
201.018	-90.26
201.399	-68.37
201.78	-77.43
202.16	-84.44
202.541	-116.22
202.922	-488.87
203.302	-1036.19
203.683	-381.22
204.063	328100
204.444	-589.51
204.824	-243.98
205.204	-107.44
205.585	-139.95
205.965	-153
206.345	-292.39
206.725	-160.96
207.106	-273.28
207.486	763.68
207.866	-1171.68
208.246	-183.49
208.626	-152.92
209.006	-83.4
209.386	-242.45
209.766	-253.61
210.145	-162.49
210.525	-97.3
210.905	-51.66
211.285	-34.36
211.664	-37.62
212.044	-35.16
212.424	-38.77
212.803	-55.18
213.183	-79.27
213.562	-79.05
213.942	-60.04
214.321	-71.31
214.701	-163.26
215.08	-145.63
215.459	-111.46
215.838	-79.2
216.218	-76.74
216.597	-106.5
216.976	-81.98
217.355	-34.57
217.734	-25.14
218.113	-5.92
218.492	-10.85
218.871	-30.64
219.25	-4.22
219.629	20.77
220.008	-5.26
220.387	-26.54
220.766	-8.48
221.144	-14.62
221.523	-23.19
221.902	-34.82
222.28	-38.62
222.659	-25.22
223.037	-21.9
223.416	-38
223.794	-40.5
224.173	-39.97
224.551	-29.14
224.929	-38.17
225.308	-35.8
225.686	-30.22
226.064	-25.64
226.442	-17.52
226.821	-12.32
227.199	-20.43
227.577	-20.29
227.955	-19.8
228.333	-16.64
228.711	-12.99
229.089	-8.82
229.467	-6.26
229.845	-5.2
230.222	-4.5
230.6	-4.87
230.978	-4.14
231.356	0.5
231.733	2.98
232.111	3.01
232.488	2.31
232.866	4.23
233.243	5.4
233.621	6.13
233.998	5.19
234.376	2.21
234.753	1.37
235.13	4.07
235.508	3.63
235.885	5.52
236.262	5.51
236.639	4.46
237.016	2.83
237.393	3.13
237.77	4.23
238.147	4.3
238.524	4.72
238.901	4.93
239.278	5.2
239.655	5.23
240.032	4.73
240.409	5.17
240.785	4.98
241.162	4.61
241.539	3.87
241.915	3.99
242.292	4.27
242.668	4.33
243.045	4.23
243.421	4.13
243.798	3.46
244.174	3.09
244.551	3.07
244.927	3.23
245.303	3.12
245.679	3.02
246.056	3.25
246.432	3.37
246.808	3.47
247.184	3.34
247.56	2.98
247.936	2.96
248.312	2.66
248.688	2.73
249.064	2.85
249.44	3.01
249.815	3.09
250.191	3.04
250.567	3.19
250.943	2.95
251.318	3.06
251.694	3.35
252.069	3.55
252.445	3.62
252.82	3.48
253.196	3.64
253.571	3.78
253.947	3.84
254.322	4.02
254.697	3.78
255.073	3.61
255.448	3.73
255.823	3.56
256.198	3.92
256.573	3.88
256.948	3.86
257.323	3.8
257.698	3.69
258.073	3.82
258.448	3.63
258.823	3.66
259.198	3.6
259.573	3.53
259.948	3.5
260.322	3.58
260.697	3.52
261.072	3.38
261.446	3.36
261.821	3.33
262.195	3.2
262.57	3.15
262.944	3.18
263.319	3.21
263.693	3.24
264.067	3.11
264.442	3.16
264.816	3.17
265.19	3.21
265.564	3.26
265.938	2.84
266.313	2.89
266.687	2.85
267.061	2.87
267.435	2.95
267.809	2.87
268.183	3
268.556	2.91
268.93	3.05
269.304	2.79
269.678	2.71
270.051	2.64
270.425	2.73
270.799	2.63
271.172	2.5
271.546	2.65
271.919	2.71
272.293	2.57
272.666	2.62
273.04	2.68
273.413	2.71
273.787	2.99
274.16	2.97
274.533	3.08
274.906	3.05
275.279	2.91
275.653	3.05
276.026	2.94
276.399	3
276.772	3.05
277.145	3.17
277.518	3.17
277.891	3.31
278.263	3.16
278.636	3.25
279.009	3.3
279.382	3.21
279.755	3.27
280.127	3.46
280.5	3.36
280.872	3.36
281.245	3.29
281.617	3.36
281.99	3.43
282.362	3.53
282.735	3.45
283.107	3.57
283.479	3.59
283.852	3.52
284.224	3.51
284.596	3.53
284.968	3.6
285.34	3.65
285.713	3.49
286.085	3.44
286.457	3.55
286.829	3.58
287.201	3.68
287.572	3.54
287.944	3.41
288.316	3.49
288.688	3.44
289.06	3.31
289.431	3.27
289.803	3.25
290.175	3.03
290.546	3.28
290.918	3.36
291.289	3.34
291.661	3.34
292.032	3.41
292.403	3.51
292.775	3.47
293.146	3.45
293.517	3.45
293.889	3.68
294.26	3.6
294.631	3.76
295.002	3.78
295.373	3.82
295.744	3.83
296.115	3.7
296.486	3.56
296.857	3.77
297.228	3.75
297.599	3.62
297.97	3.73
298.34	3.65
298.711	3.54
299.082	3.43
299.452	3.44
299.823	3.54
300.194	3.4
300.564	3.35
300.935	3.24
301.305	3.24
301.676	3.19
302.046	3.23
302.416	3.2
302.787	3.16
303.157	3.21
303.527	3.3
303.897	3.4
304.267	3.7
304.637	3.57
305.008	3.57
305.378	3.69
305.748	3.8
306.117	3.53
306.487	3.6
306.857	3.69
307.227	3.69
307.597	3.57
307.967	3.51
308.336	3.48
308.706	3.6
309.076	3.66
309.445	3.57
309.815	3.4
310.184	3.2
310.554	3.07
310.923	3.02
311.293	2.95
311.662	2.87
312.031	2.71
312.401	2.72
312.77	2.69
313.139	2.63
313.508	2.55
313.877	2.69
314.246	2.72
314.616	2.62
314.985	2.61
315.353	2.54
315.722	2.57
316.091	2.61
316.46	2.55
316.829	2.6
317.198	2.57
317.567	2.66
317.935	2.65
318.304	2.76
318.672	2.78
319.041	2.72
319.41	2.79
319.778	2.76
320.147	2.8
320.515	2.75
320.883	2.7
321.252	2.77
321.62	2.69
321.988	2.57
322.357	2.63
322.725	2.62
323.093	2.83
323.461	2.83
323.829	2.86
324.197	2.91
324.565	2.87
324.933	3
325.301	3.05
325.669	3.15
326.037	3.2
326.405	3.15
326.772	3.37
327.14	3.5
327.508	3.57
327.875	3.58
328.243	3.69
328.61	3.7
328.978	3.58
329.346	3.75
329.713	3.66
330.08	3.65
330.448	3.57
330.815	3.34
331.182	3.34
331.55	3.27
331.917	3.39
332.284	3.47
332.651	3.43
333.018	3.36
333.385	3.3
333.752	3.28
334.119	3.28
334.486	3.12
334.853	3
335.22	2.94
335.587	2.89
335.954	2.8
336.32	2.77
336.687	2.86
337.054	2.75
337.42	2.84
337.787	2.91
338.153	2.92
338.52	3
338.886	2.97
339.253	3.06
339.619	2.96
339.986	2.9
340.352	2.83
340.718	2.86
341.084	2.84
341.451	2.81
341.817	2.85
342.183	2.79
342.549	2.75
342.915	2.86
343.281	2.83
343.647	2.86
344.013	2.88
344.379	2.83
344.745	2.91
345.11	2.85
345.476	2.85
345.842	2.88
346.208	2.88
346.573	2.93
346.939	3.01
347.304	2.94
347.67	2.81
348.035	2.86
348.401	2.79
348.766	2.86
349.132	2.84
349.497	2.76
349.862	2.9
350.228	2.94
350.593	2.92
350.958	3.03
351.323	3.1
351.688	3.07
352.053	3.18
352.418	3.12
352.783	3.2
353.148	3.14
353.513	3.18
353.878	3.11
354.243	3.16
354.608	3.06
354.972	3.05
355.337	3.17
355.702	3.21
356.066	3.24
356.431	3.25
356.795	3.26
357.16	3.3
357.524	3.21
357.889	3.15
358.253	3.09
358.618	3.06
358.982	3
359.346	3.03
359.71	3
360.075	3.06
360.439	3.05
360.803	3.06
361.167	3
361.531	3.06
361.895	3.01
362.259	3.01
362.623	3.04
362.987	2.98
363.351	2.97
363.714	2.98
364.078	2.92
364.442	2.92
364.806	2.96
365.169	2.95
365.533	3.01
365.896	3.05
366.26	3.04
366.623	3.02
366.987	3.02
367.35	3.06
367.714	2.98
368.077	2.99
368.44	2.95
368.803	3
369.167	2.97
369.53	2.92
369.893	2.94
370.256	2.94
370.619	2.95
370.982	2.87
371.345	2.8
371.708	2.82
372.071	2.79
372.434	2.74
372.797	2.72
373.159	2.73
373.522	2.74
373.885	2.71
374.247	2.68
374.61	2.69
374.973	2.64
375.335	2.64
375.698	2.6
376.06	2.64
376.423	2.6
376.785	2.64
377.147	2.73
377.51	2.69
377.872	2.73
378.234	2.75
378.596	2.82
378.958	2.87
379.321	2.89
379.683	2.92
380.045	2.95
380.407	2.98
380.769	2.96
381.13	2.95
381.492	2.97
381.854	2.99
382.216	2.95
382.578	2.96
382.939	2.95
383.301	2.95
383.663	2.93
384.024	2.94
384.386	2.93
384.747	2.93
385.109	2.97
385.47	2.91
385.832	2.95
386.193	2.96
386.554	2.98
386.916	2.94
387.277	2.91
387.638	2.9
387.999	2.88
388.36	2.87
388.721	2.87
389.082	2.88
389.443	2.87
389.804	2.92
390.165	2.91
390.526	2.94
390.887	2.95
391.248	2.97
391.609	2.98
391.969	2.97
392.33	2.95
392.691	2.96
393.051	2.95
393.412	2.96
393.772	2.92
394.133	2.94
394.493	2.93
394.854	2.94
395.214	2.96
395.574	2.97
395.935	2.96
396.295	2.98
396.655	2.96
397.015	2.97
397.376	2.94
397.736	2.96
398.096	2.97
398.456	2.99
398.816	3
399.176	3
399.535	2.99
399.895	2.99
400.255	2.95
400.615	2.99
400.975	2.95
401.334	2.98
401.694	2.96
402.054	2.99
402.413	3
402.773	2.97
403.132	2.95
403.492	2.94
403.851	2.92
404.211	2.94
404.57	2.97
404.929	2.99
405.288	3
405.648	2.97
406.007	2.92
406.366	2.92
406.725	2.92
407.084	2.94
407.443	2.91
407.802	2.97
408.161	2.95
408.52	2.95
408.879	2.93
409.238	2.94
409.596	2.95
409.955	2.92
410.314	2.94
410.673	2.97
411.031	2.96
411.39	2.95
411.748	2.97
412.107	2.98
412.465	2.97
412.824	2.94
413.182	2.95
413.54	3.01
413.899	3.02
414.257	3.02
414.615	3.02
414.974	3.05
415.332	3.02
415.69	3.01
416.048	3.03
416.406	3.05
416.764	3.01
417.122	3.01
417.48	3.02
417.838	3.03
418.195	3.01
418.553	3.02
418.911	3.04
419.269	3.03
419.626	3.01
419.984	3
420.342	3.02
420.699	3.04
421.057	3.04
421.414	3.03
421.772	3.04
422.129	3.03
422.486	3.02
422.844	3.03
423.201	3.03
423.558	3.03
423.915	3.02
424.273	3.04
424.63	3.04
424.987	3.05
425.344	3.04
425.701	3.05
426.058	3.06
426.415	3.05
426.772	3.06
427.128	3.05
427.485	3.06
427.842	3.04
428.199	3.03
428.555	3.03
428.912	3.03
429.269	3.04
429.625	3.05
429.982	3.04
430.338	3.02
430.695	3.03
431.051	3.02
431.407	3.04
431.764	3.04
432.12	3.04
432.476	3.05
432.832	3.04
433.189	3.06
433.545	3.06
433.901	3.05
434.257	3.04
434.613	3.07
434.969	3.08
435.325	3.08
435.681	3.1
436.036	3.1
436.392	3.12
436.748	3.1
437.104	3.09
437.459	3.09
437.815	3.09
438.171	3.09
438.526	3.12
438.882	3.1
439.237	3.09
439.593	3.09
439.948	3.07
440.304	3.09
440.659	3.07
441.014	3.07
441.369	3.08
441.725	3.09
442.08	3.08
442.435	3.08
442.79	3.09
443.145	3.08
443.5	3.08
443.855	3.07
444.21	3.07
444.565	3.09
444.92	3.1
445.275	3.1
445.629	3.09
445.984	3.09
446.339	3.09
446.693	3.08
447.048	3.09
447.403	3.1
447.757	3.09
448.112	3.09
448.466	3.09
448.82	3.08
449.175	3.08
449.529	3.08
449.883	3.09
450.238	3.08
450.592	3.09
450.946	3.08
451.3	3.07
451.654	3.09
452.008	3.09
452.362	3.07
452.716	3.07
453.07	3.1
453.424	3.09
453.778	3.1
454.132	3.1
454.486	3.08
454.839	3.08
455.193	3.06
455.547	3.06
455.9	3.05
456.254	3.07
456.607	3.08
456.961	3.07
457.314	3.07
457.668	3.07
458.021	3.07
458.375	3.06
458.728	3.06
459.081	3.05
459.434	3.04
459.787	3.05
460.141	3.04
460.494	3.03
460.847	3.04
461.2	3.02
461.553	3.02
461.906	3.05
462.259	3.04
462.611	3.07
462.964	3.08
463.317	3.09
463.67	3.08
464.022	3.08
464.375	3.07
464.728	3.06
465.08	3.07
465.433	3.07
465.785	3.07
466.138	3.07
466.49	3.07
466.843	3.07
467.195	3.11
467.547	3.12
467.899	3.14
468.252	3.14
468.604	3.17
468.956	3.17
469.308	3.16
469.66	3.16
470.012	3.17
470.364	3.16
470.716	3.15
471.068	3.15
471.42	3.15
471.772	3.17
472.123	3.18
472.475	3.18
472.827	3.19
473.178	3.22
473.53	3.2
473.882	3.19
474.233	3.19
474.585	3.17
474.936	3.16
475.288	3.13
475.639	3.13
475.99	3.1
476.342	3.11
476.693	3.13
477.044	3.14
477.395	3.13
477.746	3.14
478.097	3.15
478.448	3.16
478.8	3.16
479.15	3.14
479.501	3.14
479.852	3.14
480.203	3.14
480.554	3.15
480.905	3.15
481.255	3.15
481.606	3.16
481.957	3.16
482.307	3.17
482.658	3.17
483.009	3.17
483.359	3.2
483.709	3.21
484.06	3.2
484.41	3.2
484.761	3.2
485.111	3.2
485.461	3.21
485.811	3.21
486.162	3.21
486.512	3.22
486.862	3.23
487.212	3.23
487.562	3.24
487.912	3.23
488.262	3.25
488.612	3.27
488.961	3.26
489.311	3.27
489.661	3.27
490.011	3.29
490.36	3.28
490.71	3.28
491.06	3.29
491.409	3.29
491.759	3.3
492.108	3.3
492.458	3.31
492.807	3.3
493.157	3.3
493.506	3.3
493.855	3.3
494.204	3.29
494.554	3.29
494.903	3.28
495.252	3.27
495.601	3.26
495.95	3.24
496.299	3.26
496.648	3.25
496.997	3.25
497.346	3.27
497.695	3.3
498.043	3.3
498.392	3.29
498.741	3.29
499.09	3.29
499.438	3.3
499.787	3.31
500.135	3.33
500.484	3.33
500.832	3.34
501.181	3.32
501.529	3.32
501.878	3.33
502.226	3.34
502.574	3.37
502.923	3.36
503.271	3.37
503.619	3.37
503.967	3.36
504.315	3.35
504.663	3.32
505.011	3.31
505.359	3.29
505.707	3.31
506.055	3.32
506.403	3.32
506.751	3.3
507.098	3.31
507.446	3.3
507.794	3.29
508.141	3.29
508.489	3.31
508.837	3.33
509.184	3.33
509.531	3.33
509.879	3.33
510.226	3.35
510.574	3.35
510.921	3.36
511.268	3.36
511.616	3.37
511.963	3.37
512.31	3.36
512.657	3.38
513.004	3.37
513.351	3.35
513.698	3.37
514.045	3.37
514.392	3.38
514.739	3.39
515.086	3.39
515.432	3.39
515.779	3.38
516.126	3.38
516.473	3.39
516.819	3.41
517.166	3.42
517.512	3.41
517.859	3.41
518.205	3.4
518.552	3.41
518.898	3.41
519.245	3.42
519.591	3.42
519.937	3.41
520.283	3.42
520.629	3.45
520.976	3.45
521.322	3.47
521.668	3.47
522.014	3.46
522.36	3.48
522.706	3.47
523.052	3.5
523.398	3.51
523.743	3.51
524.089	3.52
524.435	3.51
524.781	3.53
525.126	3.56
525.472	3.56
525.817	3.55
526.163	3.55
526.509	3.54
526.854	3.55
527.199	3.56
527.545	3.55
527.89	3.54
528.235	3.53
528.581	3.52
528.926	3.53
529.271	3.55
529.616	3.55
529.961	3.55
530.306	3.56
530.651	3.55
530.996	3.56
531.341	3.55
531.686	3.56
532.031	3.56
532.376	3.56
532.721	3.57
533.065	3.58
533.41	3.59
533.755	3.59
534.099	3.61
534.444	3.61
534.788	3.62
535.133	3.62
535.477	3.62
535.822	3.63
536.166	3.61
536.51	3.59
536.855	3.6
537.199	3.6
537.543	3.59
537.887	3.6
538.231	3.59
538.576	3.58
538.92	3.58
539.264	3.57
539.608	3.56
539.951	3.55
540.295	3.54
540.639	3.54
540.983	3.55
541.327	3.54
541.671	3.55
542.014	3.55
542.358	3.56
542.701	3.56
543.045	3.57
543.389	3.57
543.732	3.58
544.075	3.58
544.419	3.58
544.762	3.59
545.105	3.59
545.449	3.59
545.792	3.59
546.135	3.61
546.478	3.61
546.821	3.61
547.165	3.61
547.508	3.63
547.851	3.64
548.194	3.64
548.536	3.63
548.879	3.64
549.222	3.64
549.565	3.65
549.908	3.66
550.25	3.65
550.593	3.68
550.936	3.68
551.278	3.69
551.621	3.67
551.963	3.69
552.306	3.66
552.648	3.68
552.991	3.7
553.333	3.71
553.675	3.7
554.017	3.72
554.36	3.72
554.702	3.73
555.044	3.72
555.386	3.75
555.728	3.76
556.07	3.78
556.412	3.78
556.754	3.77
557.096	3.74
557.438	3.76
557.78	3.74
558.121	3.74
558.463	3.74
558.805	3.73
559.147	3.73
559.488	3.8
559.83	3.79
560.171	3.78
560.513	3.8
560.854	3.79
561.196	3.81
561.537	3.82
561.878	3.8
562.22	3.79
562.561	3.77
562.902	3.76
563.243	3.74
563.584	3.75
563.925	3.76
564.266	3.79
564.607	3.77
564.948	3.79
565.289	3.76
565.63	3.77
565.971	3.79
566.312	3.8
566.653	3.77
566.993	3.78
567.334	3.79
567.675	3.75
568.015	3.77
568.356	3.77
568.696	3.78
569.037	3.81
569.377	3.82
569.718	3.81
570.058	3.8
570.398	3.8
570.739	3.8
571.079	3.8
571.419	3.78
571.759	3.81
572.099	3.8
572.439	3.83
572.779	3.82
573.119	3.82
573.459	3.82
573.799	3.84
574.139	3.83
574.479	3.83
574.819	3.84
575.158	3.82
575.498	3.84
575.838	3.83
576.177	3.8
576.517	3.82
576.856	3.85
577.196	3.85
577.535	3.86
577.875	3.85
578.214	3.85
578.553	3.9
578.893	3.86
579.232	3.85
579.571	3.84
579.91	3.84
580.25	3.85
580.589	3.87
580.928	3.87
581.267	3.85
581.606	3.83
581.945	3.86
582.283	3.85
582.622	3.83
582.961	3.81
583.3	3.83
583.639	3.84
583.977	3.81
584.316	3.82
584.654	3.84
584.993	3.81
585.332	3.85
585.67	3.83
586.008	3.87
586.347	3.88
586.685	3.88
587.024	3.91
587.362	3.91
587.7	3.87
588.038	3.86
588.376	3.87
588.715	3.89
589.053	3.87
589.391	3.9
589.729	3.91
590.067	3.9
590.404	3.9
590.742	3.9
591.08	3.9
591.418	3.92
591.756	3.94
592.093	3.99
592.431	3.99
592.769	3.99
593.106	3.95
593.444	3.96
593.781	3.99
594.119	4.01
594.456	4
594.793	4.01
595.131	4.01
595.468	3.99
595.805	4.02
596.143	4.05
596.48	4.05
596.817	4.04
597.154	4.05
597.491	4.04
597.828	4.03
598.165	4.06
598.502	4.05
598.839	4.02
599.176	4.01
599.512	4
599.849	4
600.186	4.03
600.523	4.06
600.859	4.09
601.196	4.11
601.532	4.09
601.869	4.07
602.205	4.06
602.542	4.09
602.878	4.08
603.215	4.07
603.551	4.09
603.887	4.12
604.223	4.11
604.56	4.14
604.896	4.15
605.232	4.16
605.568	4.15
605.904	4.16
606.24	4.2
606.576	4.22
606.912	4.22
607.248	4.21
607.583	4.2
607.919	4.17
608.255	4.11
608.591	4.15
608.926	4.16
609.262	4.19
609.597	4.18
609.933	4.13
610.268	4.11
610.604	4.06
610.939	4.07
611.275	4.05
611.61	4.03
611.945	4.03
612.281	4.01
612.616	4.03
612.951	4.04
613.286	4.06
613.621	4.04
613.956	4
614.291	4.04
614.626	4.02
614.961	4.03
615.296	4.03
615.631	4.03
615.966	4.03
616.3	4.03
616.635	4.05
616.97	4.1
617.304	4.12
617.639	4.17
617.973	4.14
618.308	4.14
618.642	4.18
618.977	4.15
619.311	4.19
619.646	4.2
619.98	4.18
620.314	4.09
620.648	4.1
620.983	4.18
621.317	4.16
621.651	4.17
621.985	4.17
622.319	4.21
622.653	4.23
622.987	4.26
623.321	4.3
623.655	4.31
623.988	4.32
624.322	4.34
624.656	4.33
624.99	4.37
625.323	4.42
625.657	4.44
625.99	4.47
626.324	4.42
626.657	4.39
626.991	4.41
627.324	4.46
627.658	4.5
627.991	4.48
628.324	4.5
628.657	4.49
628.991	4.48
629.324	4.47
629.657	4.42
629.99	4.4
630.323	4.29
630.656	4.31
630.989	4.36
631.322	4.35
631.655	4.35
631.987	4.33
632.32	4.31
632.653	4.27
632.986	4.25
633.318	4.25
633.651	4.29
633.984	4.29
634.316	4.25
634.649	4.26
634.981	4.26
635.313	4.23
635.646	4.24
635.978	4.3
636.31	4.36
636.643	4.39
636.975	4.43
637.307	4.49
637.639	4.45
637.971	4.36
638.303	4.37
638.635	4.34
638.967	4.36
639.299	4.4
639.631	4.41
639.963	4.38
640.295	4.4
640.626	4.44
640.958	4.4
641.29	4.44
641.621	4.4
641.953	4.4
642.285	4.39
642.616	4.4
642.948	4.34
643.279	4.31
643.61	4.31
643.942	4.3
644.273	4.34
644.604	4.42
644.936	4.41
645.267	4.44
645.598	4.43
645.929	4.4
646.26	4.32
646.591	4.32
646.922	4.35
647.253	4.39
647.584	4.37
647.915	4.36
648.245	4.31
648.576	4.34
648.907	4.33
649.238	4.34
649.568	4.36
649.899	4.39
650.229	4.38
650.56	4.44
650.89	4.49
651.221	4.39
651.551	4.33
651.882	4.39
652.212	4.37
652.542	4.43
652.872	4.37
653.203	4.41
653.533	4.44
653.863	4.48
654.193	4.4
654.523	4.37
654.853	4.44
655.183	4.45
655.513	4.39
655.843	4.33
656.172	4.31
656.502	4.34
656.832	4.35
657.162	4.38
657.491	4.38
657.821	4.39
658.15	4.45
658.48	4.42
658.809	4.4
659.139	4.36
659.468	4.35
659.798	4.46
660.127	4.48
660.456	4.48
660.785	4.51
661.115	4.55
661.444	4.54
661.773	4.58
662.102	4.57
662.431	4.61
662.76	4.76
663.089	4.81
663.418	4.72
663.747	4.73
664.076	4.65
664.404	4.62
664.733	4.63
665.062	4.57
665.39	4.58
665.719	4.5
666.048	4.58
666.376	4.54
666.705	4.46
667.033	4.44
667.362	4.43
667.69	4.38
668.018	4.37
668.347	4.4
668.675	4.3
669.003	4.37
669.331	4.39
669.659	4.3
669.987	4.24
670.315	4.28
670.643	4.27
670.971	4.34
671.299	4.39
671.627	4.39
671.955	4.5
672.283	4.49
672.61	4.59
672.938	4.56
673.266	4.64
673.593	4.73
673.921	4.8
674.249	4.74
674.576	4.74
674.904	4.75
675.231	4.72
675.558	4.75
675.886	4.7
676.213	4.68
676.54	4.69
676.867	4.76
677.195	4.77
677.522	4.74
