Data from BA28416_Reflection_00011.txt Node
Date: Mon Nov 18 16:05:35 EST 2019
User: vgr7
Spectrometer: USB2G7710
Scans to average: 3
Trigger mode: 4
Integration Time (sec): 2.000000E-2
Electric dark correction enabled: true
Boxcar width: 10
XAxis mode: Wavelengths
Number of Pixels in Spectrum: 2048
>>>>>Begin Spectral Data<<<<<
177.721	135.81
178.105	311.82
178.488	415.56
178.871	2875.86
179.254	-1023.97
179.636	-173.94
180.019	-3211.48
180.402	113.33
180.785	-22.5
181.168	-29.68
181.55	-23.82
181.933	71.38
182.316	82.36
182.698	73.22
183.081	65.83
183.463	71.55
183.846	92.37
184.228	97.31
184.611	71.17
184.993	76.18
185.376	85.09
185.758	63.48
186.14	53.66
186.522	64.97
186.904	65.65
187.287	79.2
187.669	54.41
188.051	60.04
188.433	43.6
188.815	61.17
189.197	61.55
189.579	57.59
189.961	61.89
190.342	48.28
190.724	28.98
191.106	26.81
191.488	55.87
191.869	75.99
192.251	29.98
192.633	31.4
193.014	74.55
193.396	76.26
193.777	121.4
194.159	367.46
194.54	433.8
194.922	-310.92
195.303	-721.32
195.684	-692.24
196.065	-237.66
196.447	-200.13
196.828	-118.52
197.209	-85.1
197.59	-78.66
197.971	-91.8
198.352	-39.08
198.733	-90.02
199.114	-97.01
199.495	-62.28
199.876	-46.18
200.257	-37.65
200.638	-31.99
201.018	-34.28
201.399	-39.8
201.78	-28.26
202.16	-26.44
202.541	-32.94
202.922	-153.55
203.302	-135.71
203.683	-428.47
204.063	-683.7
204.444	-256.82
204.824	-247.83
205.204	-146.81
205.585	-27.97
205.965	-47.9
206.345	-153.2
206.725	-2263.64
207.106	262.41
207.486	141.7
207.866	151.64
208.246	109.4
208.626	95.7
209.006	67.66
209.386	98.16
209.766	111.2
210.145	103.51
210.525	47.47
210.905	5.16
211.285	-35.15
211.664	-74.28
212.044	-37.36
212.424	-12.51
212.803	24.81
213.183	55.2
213.562	52.17
213.942	48.08
214.321	43.46
214.701	11.37
215.08	50.67
215.459	54.84
215.838	60.13
216.218	87.58
216.597	-63.41
216.976	-54.8
217.355	-1157.14
217.734	-107.36
218.113	1234.02
218.492	439.92
218.871	49.28
219.25	11.92
219.629	102.92
220.008	103.11
220.387	52.43
220.766	41.61
221.144	83.85
221.523	36.08
221.902	-23.3
222.28	401.89
222.659	26.87
223.037	17.56
223.416	-19.07
223.794	-37.39
224.173	-41.08
224.551	-24.05
224.929	-45.04
225.308	-35.27
225.686	-16.51
226.064	-20.38
226.442	-15.51
226.821	-4.77
227.199	-2.89
227.577	-6.88
227.955	-2.88
228.333	-2.42
228.711	-3.82
229.089	0.69
229.467	0.43
229.845	1.14
230.222	0.14
230.6	0.04
230.978	2.48
231.356	6.3
231.733	5.75
232.111	5.67
232.488	6.01
232.866	8.32
233.243	8.81
233.621	6.89
233.998	8.6
234.376	8.89
234.753	7.83
235.13	7.24
235.508	6.61
235.885	6.61
236.262	5.36
236.639	5.44
237.016	4.67
237.393	6.46
237.77	7.39
238.147	6.55
238.524	4.92
238.901	5.41
239.278	5
239.655	5.92
240.032	6.5
240.409	6.38
240.785	5.71
241.162	5.38
241.539	5.51
241.915	4.9
242.292	4.47
242.668	4.47
243.045	4.46
243.421	4.41
243.798	4.06
244.174	3.94
244.551	4.18
244.927	3.73
245.303	3.69
245.679	3.59
246.056	3.81
246.432	3.9
246.808	3.88
247.184	3.56
247.56	3.19
247.936	3.08
248.312	2.87
248.688	3.01
249.064	2.87
249.44	2.9
249.815	3
250.191	3.42
250.567	3.4
250.943	3.31
251.318	3.47
251.694	3.28
252.069	3.31
252.445	3.31
252.82	3.59
253.196	3.38
253.571	3.09
253.947	3.2
254.322	3.37
254.697	3.13
255.073	3.35
255.448	3.48
255.823	3.32
256.198	3.54
256.573	3.22
256.948	3.5
257.323	3.71
257.698	3.82
258.073	3.42
258.448	3.31
258.823	3.29
259.198	3.08
259.573	3.15
259.948	3.11
260.322	3.04
260.697	2.98
261.072	2.81
261.446	2.98
261.821	2.72
262.195	2.67
262.57	2.74
262.944	2.77
263.319	2.74
263.693	2.76
264.067	2.62
264.442	2.8
264.816	2.73
265.19	2.38
265.564	2.18
265.938	2.2
266.313	2.26
266.687	2.36
267.061	2.6
267.435	2.68
267.809	2.77
268.183	2.8
268.556	2.61
268.93	2.93
269.304	2.93
269.678	3.17
270.051	3.19
270.425	3.17
270.799	3
271.172	3.05
271.546	3.01
271.919	2.99
272.293	2.86
272.666	2.75
273.04	2.92
273.413	2.98
273.787	3.06
274.16	3.09
274.533	3.01
274.906	2.82
275.279	2.76
275.653	2.77
276.026	2.75
276.399	3.03
276.772	3.06
277.145	2.96
277.518	2.82
277.891	2.66
278.263	2.48
278.636	2.54
279.009	2.52
279.382	2.72
279.755	2.73
280.127	3.07
280.5	3.25
280.872	3.28
281.245	3.34
281.617	3.42
281.99	3.46
282.362	3.47
282.735	3.38
283.107	3.46
283.479	3.53
283.852	3.51
284.224	3.56
284.596	3.47
284.968	3.49
285.34	3.67
285.713	3.83
286.085	4.01
286.457	4.08
286.829	4.06
287.201	3.99
287.572	4.11
287.944	3.83
288.316	3.72
288.688	3.7
289.06	3.6
289.431	3.61
289.803	3.6
290.175	3.62
290.546	3.78
290.918	3.78
291.289	3.77
291.661	3.84
292.032	3.7
292.403	3.65
292.775	3.76
293.146	3.62
293.517	3.51
293.889	3.45
294.26	3.47
294.631	3.55
295.002	3.49
295.373	3.32
295.744	3.47
296.115	3.62
296.486	3.47
296.857	3.5
297.228	3.54
297.599	3.42
297.97	3.44
298.34	3.46
298.711	3.49
299.082	3.48
299.452	3.46
299.823	3.54
300.194	3.62
300.564	3.55
300.935	3.58
301.305	3.6
301.676	3.64
302.046	3.67
302.416	3.78
302.787	3.9
303.157	3.99
303.527	4.09
303.897	4.07
304.267	4.33
304.637	4.48
305.008	4.37
305.378	4.57
305.748	4.64
306.117	4.7
306.487	4.66
306.857	4.73
307.227	4.69
307.597	4.73
307.967	4.68
308.336	4.71
308.706	4.72
309.076	4.89
309.445	4.87
309.815	4.71
310.184	4.63
310.554	4.48
310.923	4.45
311.293	4.41
311.662	4.41
312.031	4.32
312.401	4.36
312.77	4.36
313.139	4.36
313.508	4.3
313.877	4.3
314.246	4.36
314.616	4.43
314.985	4.61
315.353	4.46
315.722	4.59
316.091	4.57
316.46	4.55
316.829	4.48
317.198	4.56
317.567	4.78
317.935	4.71
318.304	4.95
318.672	4.87
319.041	4.96
319.41	4.98
319.778	5.04
320.147	4.92
320.515	4.95
320.883	4.93
321.252	5.03
321.62	4.97
321.988	5.04
322.357	4.87
322.725	4.66
323.093	4.89
323.461	4.88
323.829	4.98
324.197	5.04
324.565	5.08
324.933	5.03
325.301	5.01
325.669	5.09
326.037	5.07
326.405	5.25
326.772	5.28
327.14	5.39
327.508	5.36
327.875	5.19
328.243	5.24
328.61	5.29
328.978	5.29
329.346	5.47
329.713	5.38
330.08	5.64
330.448	5.64
330.815	5.6
331.182	5.65
331.55	5.68
331.917	5.75
332.284	5.92
332.651	5.95
333.018	5.94
333.385	5.93
333.752	5.88
334.119	5.77
334.486	5.65
334.853	5.55
335.22	5.59
335.587	5.81
335.954	5.77
336.32	5.57
336.687	5.65
337.054	5.59
337.42	5.65
337.787	5.5
338.153	5.58
338.52	5.68
338.886	5.59
339.253	5.59
339.619	5.64
339.986	5.52
340.352	5.59
340.718	5.62
341.084	5.59
341.451	5.58
341.817	5.7
342.183	5.73
342.549	5.69
342.915	5.8
343.281	5.87
343.647	5.93
344.013	6.08
344.379	6.09
344.745	6.06
345.11	6.07
345.476	6.11
345.842	6.2
346.208	6.08
346.573	6.14
346.939	6.18
347.304	6.16
347.67	6.1
348.035	6.06
348.401	6.11
348.766	6.13
349.132	6.18
349.497	6.19
349.862	6.39
350.228	6.47
350.593	6.31
350.958	6.27
351.323	6.26
351.688	6.29
352.053	6.29
352.418	6.31
352.783	6.29
353.148	6.22
353.513	6.04
353.878	6.12
354.243	6.14
354.608	6.08
354.972	6.07
355.337	6.16
355.702	6.29
356.066	6.24
356.431	6.24
356.795	6.29
357.16	6.26
357.524	6.08
357.889	6.07
358.253	6.14
358.618	6.12
358.982	6.04
359.346	5.97
359.71	5.91
360.075	5.88
360.439	5.89
360.803	5.89
361.167	5.94
361.531	5.91
361.895	5.83
362.259	5.81
362.623	5.82
362.987	5.77
363.351	5.69
363.714	5.76
364.078	5.76
364.442	5.68
364.806	5.64
365.169	5.68
365.533	5.69
365.896	5.69
366.26	5.66
366.623	5.68
366.987	5.74
367.35	5.71
367.714	5.65
368.077	5.6
368.44	5.58
368.803	5.57
369.167	5.5
369.53	5.45
369.893	5.43
370.256	5.41
370.619	5.37
370.982	5.24
371.345	5.12
371.708	5.1
372.071	5.08
372.434	5.06
372.797	5.01
373.159	4.91
373.522	4.85
373.885	4.89
374.247	4.91
374.61	4.78
374.973	4.75
375.335	4.75
375.698	4.73
376.06	4.75
376.423	4.71
376.785	4.72
377.147	4.74
377.51	4.74
377.872	4.68
378.234	4.67
378.596	4.77
378.958	4.72
379.321	4.7
379.683	4.74
380.045	4.73
380.407	4.72
380.769	4.71
381.13	4.67
381.492	4.58
381.854	4.53
382.216	4.55
382.578	4.54
382.939	4.51
383.301	4.53
383.663	4.45
384.024	4.43
384.386	4.37
384.747	4.39
385.109	4.35
385.47	4.29
385.832	4.29
386.193	4.2
386.554	4.19
386.916	4.16
387.277	4.12
387.638	4.13
387.999	4.08
388.36	4.07
388.721	4.03
389.082	4
389.443	4
389.804	3.98
390.165	3.92
390.526	3.94
390.887	3.87
391.248	3.89
391.609	3.85
391.969	3.86
392.33	3.81
392.691	3.81
393.051	3.76
393.412	3.74
393.772	3.73
394.133	3.7
394.493	3.7
394.854	3.67
395.214	3.64
395.574	3.61
395.935	3.55
396.295	3.59
396.655	3.6
397.015	3.55
397.376	3.52
397.736	3.54
398.096	3.49
398.456	3.47
398.816	3.45
399.176	3.46
399.535	3.46
399.895	3.44
400.255	3.43
400.615	3.43
400.975	3.39
401.334	3.38
401.694	3.37
402.054	3.31
402.413	3.3
402.773	3.26
403.132	3.27
403.492	3.29
403.851	3.26
404.211	3.27
404.57	3.24
404.929	3.27
405.288	3.27
405.648	3.26
406.007	3.27
406.366	3.25
406.725	3.23
407.084	3.22
407.443	3.2
407.802	3.18
408.161	3.19
408.52	3.2
408.879	3.2
409.238	3.2
409.596	3.21
409.955	3.17
410.314	3.2
410.673	3.19
411.031	3.16
411.39	3.16
411.748	3.13
412.107	3.13
412.465	3.09
412.824	3.08
413.182	3.06
413.54	3.06
413.899	3.05
414.257	3.03
414.615	2.99
414.974	2.99
415.332	2.98
415.69	2.96
416.048	2.92
416.406	2.9
416.764	2.87
417.122	2.89
417.48	2.88
417.838	2.85
418.195	2.84
418.553	2.84
418.911	2.81
419.269	2.82
419.626	2.82
419.984	2.81
420.342	2.82
420.699	2.83
421.057	2.81
421.414	2.81
421.772	2.81
422.129	2.8
422.486	2.82
422.844	2.81
423.201	2.8
423.558	2.81
423.915	2.81
424.273	2.81
424.63	2.8
424.987	2.81
425.344	2.82
425.701	2.82
426.058	2.82
426.415	2.82
426.772	2.81
427.128	2.8
427.485	2.81
427.842	2.77
428.199	2.76
428.555	2.77
428.912	2.77
429.269	2.75
429.625	2.75
429.982	2.71
430.338	2.71
430.695	2.72
431.051	2.7
431.407	2.7
431.764	2.71
432.12	2.69
432.476	2.69
432.832	2.67
433.189	2.67
433.545	2.66
433.901	2.67
434.257	2.66
434.613	2.67
434.969	2.66
435.325	2.66
435.681	2.68
436.036	2.67
436.392	2.68
436.748	2.68
437.104	2.67
437.459	2.69
437.815	2.69
438.171	2.7
438.526	2.71
438.882	2.7
439.237	2.7
439.593	2.71
439.948	2.7
440.304	2.7
440.659	2.7
441.014	2.71
441.369	2.69
441.725	2.68
442.08	2.69
442.435	2.67
442.79	2.68
443.145	2.66
443.5	2.65
443.855	2.64
444.21	2.63
444.565	2.62
444.92	2.62
445.275	2.6
445.629	2.59
445.984	2.58
446.339	2.57
446.693	2.56
447.048	2.55
447.403	2.55
447.757	2.55
448.112	2.54
448.466	2.51
448.82	2.52
449.175	2.52
449.529	2.52
449.883	2.51
450.238	2.52
450.592	2.51
450.946	2.5
451.3	2.49
451.654	2.5
452.008	2.51
452.362	2.5
452.716	2.5
453.07	2.5
453.424	2.5
453.778	2.51
454.132	2.49
454.486	2.49
454.839	2.49
455.193	2.48
455.547	2.49
455.9	2.5
456.254	2.5
456.607	2.49
456.961	2.48
457.314	2.49
457.668	2.47
458.021	2.46
458.375	2.48
458.728	2.5
459.081	2.49
459.434	2.5
459.787	2.51
460.141	2.53
460.494	2.53
460.847	2.54
461.2	2.53
461.553	2.55
461.906	2.55
462.259	2.56
462.611	2.58
462.964	2.59
463.317	2.59
463.67	2.6
464.022	2.6
464.375	2.6
464.728	2.6
465.08	2.61
465.433	2.63
465.785	2.61
466.138	2.6
466.49	2.62
466.843	2.6
467.195	2.59
467.547	2.61
467.899	2.61
468.252	2.63
468.604	2.66
468.956	2.65
469.308	2.66
469.66	2.64
470.012	2.64
470.364	2.64
470.716	2.65
471.068	2.66
471.42	2.67
471.772	2.67
472.123	2.68
472.475	2.7
472.827	2.72
473.178	2.74
473.53	2.74
473.882	2.74
474.233	2.76
474.585	2.75
474.936	2.73
475.288	2.74
475.639	2.73
475.99	2.7
476.342	2.71
476.693	2.7
477.044	2.73
477.395	2.73
477.746	2.72
478.097	2.72
478.448	2.73
478.8	2.72
479.15	2.69
479.501	2.69
479.852	2.67
480.203	2.66
480.554	2.66
480.905	2.66
481.255	2.66
481.606	2.67
481.957	2.68
482.307	2.67
482.658	2.67
483.009	2.67
483.359	2.68
483.709	2.68
484.06	2.69
484.41	2.68
484.761	2.68
485.111	2.68
485.461	2.67
485.811	2.67
486.162	2.68
486.512	2.69
486.862	2.68
487.212	2.68
487.562	2.69
487.912	2.69
488.262	2.69
488.612	2.69
488.961	2.68
489.311	2.68
489.661	2.69
490.011	2.69
490.36	2.69
490.71	2.7
491.06	2.7
491.409	2.7
491.759	2.7
492.108	2.72
492.458	2.72
492.807	2.73
493.157	2.74
493.506	2.74
493.855	2.77
494.204	2.79
494.554	2.82
494.903	2.83
495.252	2.82
495.601	2.84
495.95	2.84
496.299	2.84
496.648	2.86
496.997	2.88
497.346	2.91
497.695	2.92
498.043	2.93
498.392	2.94
498.741	2.98
499.09	3
499.438	3.01
499.787	3.04
500.135	3.09
500.484	3.11
500.832	3.14
501.181	3.16
501.529	3.16
501.878	3.2
502.226	3.25
502.574	3.29
502.923	3.35
503.271	3.4
503.619	3.48
503.967	3.53
504.315	3.55
504.663	3.61
505.011	3.67
505.359	3.74
505.707	3.81
506.055	3.84
506.403	3.9
506.751	3.97
507.098	4.02
507.446	4.08
507.794	4.13
508.141	4.19
508.489	4.23
508.837	4.29
509.184	4.34
509.531	4.39
509.879	4.47
510.226	4.53
510.574	4.6
510.921	4.66
511.268	4.7
511.616	4.79
511.963	4.83
512.31	4.88
512.657	4.95
513.004	5.01
513.351	5.13
513.698	5.22
514.045	5.29
514.392	5.4
514.739	5.47
515.086	5.57
515.432	5.69
515.779	5.79
516.126	5.9
516.473	6.01
516.819	6.11
517.166	6.2
517.512	6.29
517.859	6.37
518.205	6.45
518.552	6.55
518.898	6.65
519.245	6.76
519.591	6.87
519.937	6.96
520.283	7.09
520.629	7.19
520.976	7.32
521.322	7.45
521.668	7.56
522.014	7.72
522.36	7.88
522.706	8.02
523.052	8.21
523.398	8.4
523.743	8.58
524.089	8.75
524.435	8.92
524.781	9.11
525.126	9.28
525.472	9.44
525.817	9.58
526.163	9.7
526.509	9.85
526.854	9.96
527.199	10.08
527.545	10.18
527.89	10.31
528.235	10.44
528.581	10.57
528.926	10.71
529.271	10.85
529.616	10.99
529.961	11.11
530.306	11.25
530.651	11.38
530.996	11.55
531.341	11.73
531.686	11.89
532.031	12.05
532.376	12.24
532.721	12.43
533.065	12.65
533.41	12.86
533.755	13.06
534.099	13.29
534.444	13.54
534.788	13.77
535.133	13.99
535.477	14.19
535.822	14.42
536.166	14.68
536.51	14.94
536.855	15.22
537.199	15.53
537.543	15.87
537.887	16.19
538.231	16.5
538.576	16.8
538.92	17.11
539.264	17.39
539.608	17.64
539.951	17.89
540.295	18.12
540.639	18.38
540.983	18.62
541.327	18.85
541.671	19.08
542.014	19.31
542.358	19.51
542.701	19.77
543.045	20
543.389	20.23
543.732	20.45
544.075	20.7
544.419	20.97
544.762	21.19
545.105	21.43
545.449	21.69
545.792	21.98
546.135	22.27
546.478	22.59
546.821	22.93
547.165	23.26
547.508	23.6
547.851	23.96
548.194	24.28
548.536	24.63
548.879	24.95
549.222	25.3
549.565	25.66
549.908	25.95
550.25	26.34
550.593	26.67
550.936	27.04
551.278	27.36
551.621	27.73
551.963	28.05
552.306	28.39
552.648	28.75
552.991	29.08
553.333	29.39
553.675	29.67
554.017	29.97
554.36	30.27
554.702	30.55
555.044	30.8
555.386	31.07
555.728	31.36
556.07	31.67
556.412	31.94
556.754	32.25
557.096	32.57
557.438	32.8
557.78	33.1
558.121	33.4
558.463	33.68
558.805	33.88
559.147	34.19
559.488	34.5
559.83	34.7
560.171	34.94
560.513	35.21
560.854	35.51
561.196	35.76
561.537	36
561.878	36.26
562.22	36.51
562.561	36.74
562.902	36.94
563.243	37.17
563.584	37.4
563.925	37.61
564.266	37.87
564.607	38.12
564.948	38.3
565.289	38.48
565.63	38.67
565.971	38.93
566.312	39.12
566.653	39.33
566.993	39.56
567.334	39.76
567.675	40.03
568.015	40.24
568.356	40.44
568.696	40.68
569.037	40.92
569.377	41.13
569.718	41.35
570.058	41.52
570.398	41.76
570.739	41.95
571.079	42.14
571.419	42.26
571.759	42.44
572.099	42.62
572.439	42.83
572.779	43.02
573.119	43.17
573.459	43.35
573.799	43.52
574.139	43.67
574.479	43.83
574.819	43.93
575.158	44.08
575.498	44.22
575.838	44.33
576.177	44.44
576.517	44.54
576.856	44.72
577.196	44.91
577.535	45
577.875	45.24
578.214	45.43
578.553	45.66
578.893	45.77
579.232	46.01
579.571	46.17
579.91	46.37
580.25	46.55
580.589	46.77
580.928	46.8
581.267	47.03
581.606	47.18
581.945	47.39
582.283	47.49
582.622	47.71
582.961	47.86
583.3	48.03
583.639	48.28
583.977	48.41
584.316	48.57
584.654	48.72
584.993	48.8
585.332	48.93
585.67	49.08
586.008	49.25
586.347	49.29
586.685	49.39
587.024	49.44
587.362	49.54
587.7	49.62
588.038	49.84
588.376	49.91
588.715	50.03
589.053	50.16
589.391	50.33
589.729	50.34
590.067	50.49
590.404	50.6
590.742	50.75
591.08	50.86
591.418	50.97
591.756	51.14
592.093	51.27
592.431	51.35
592.769	51.38
593.106	51.45
593.444	51.62
593.781	51.74
594.119	51.86
594.456	51.94
594.793	52.02
595.131	52.08
595.468	52.09
595.805	52.18
596.143	52.24
596.48	52.35
596.817	52.53
597.154	52.62
597.491	52.75
597.828	52.77
598.165	52.8
598.502	52.9
598.839	52.95
599.176	52.99
599.512	53.07
599.849	53.2
600.186	53.33
600.523	53.33
600.859	53.42
601.196	53.52
601.532	53.59
601.869	53.68
602.205	53.76
602.542	53.95
602.878	54.04
603.215	54.15
603.551	54.14
603.887	54.18
604.223	54.24
604.56	54.29
604.896	54.3
605.232	54.39
605.568	54.43
605.904	54.43
606.24	54.46
606.576	54.52
606.912	54.59
607.248	54.64
607.583	54.76
607.919	54.82
608.255	54.82
608.591	54.92
608.926	54.97
609.262	55.07
609.597	55.07
609.933	55.09
610.268	55.01
610.604	55.15
610.939	55.23
611.275	55.24
611.61	55.31
611.945	55.49
612.281	55.5
612.616	55.52
612.951	55.63
613.286	55.74
613.621	55.83
613.956	55.85
614.291	55.87
614.626	55.95
614.961	56.03
615.296	56.1
615.631	56.14
615.966	56.29
616.3	56.39
616.635	56.43
616.97	56.55
617.304	56.59
617.639	56.67
617.973	56.7
618.308	56.77
618.642	56.71
618.977	56.65
619.311	56.73
619.646	56.84
619.98	56.88
620.314	56.92
620.648	56.98
620.983	57.07
621.317	57.09
621.651	57.08
621.985	57.1
622.319	57.12
622.653	57.2
622.987	57.14
623.321	57.14
623.655	57.24
623.988	57.21
624.322	57.27
624.656	57.24
624.99	57.21
625.323	57.2
625.657	57.29
625.99	57.34
626.324	57.36
626.657	57.36
626.991	57.35
627.324	57.46
627.658	57.51
627.991	57.46
628.324	57.57
628.657	57.68
628.991	57.67
629.324	57.8
629.657	57.81
629.99	57.85
630.323	57.88
630.656	57.85
630.989	57.9
631.322	58.03
631.655	57.98
631.987	58.08
632.32	58.16
632.653	58.18
632.986	58.19
633.318	58.26
633.651	58.33
633.984	58.4
634.316	58.46
634.649	58.53
634.981	58.65
635.313	58.71
635.646	58.68
635.978	58.8
636.31	58.74
636.643	58.75
636.975	58.87
637.307	58.86
637.639	58.94
637.971	59.06
638.303	59.02
638.635	59.1
638.967	59.08
639.299	59.14
639.631	59.15
639.963	59.12
640.295	59.16
640.626	59.22
640.958	59.21
641.29	59.17
641.621	59.1
641.953	59.13
642.285	59.19
642.616	59.34
642.948	59.24
643.279	59.29
643.61	59.32
643.942	59.34
644.273	59.34
644.604	59.41
644.936	59.43
645.267	59.38
645.598	59.48
645.929	59.51
646.26	59.57
646.591	59.61
646.922	59.71
647.253	59.78
647.584	59.73
647.915	59.69
648.245	59.61
648.576	59.64
648.907	59.77
649.238	59.72
649.568	59.58
649.899	59.68
650.229	59.79
650.56	59.87
650.89	59.8
651.221	59.82
651.551	59.8
651.882	59.78
652.212	59.92
652.542	59.91
652.872	59.93
653.203	59.84
653.533	59.86
653.863	59.96
654.193	59.95
654.523	59.97
654.853	60.03
655.183	60.16
655.513	60.09
655.843	59.94
656.172	59.91
656.502	60.01
656.832	60.04
657.162	60.01
657.491	60.06
657.821	60.13
658.15	60.19
658.48	60.16
658.809	60.19
659.139	60.16
659.468	60.18
659.798	60.23
660.127	60.28
660.456	60.3
660.785	60.28
661.115	60.28
661.444	60.4
661.773	60.44
662.102	60.5
662.431	60.52
662.76	60.64
663.089	60.63
663.418	60.71
663.747	60.71
664.076	60.74
664.404	60.69
664.733	60.66
665.062	60.76
665.39	60.95
665.719	61.01
666.048	61.05
666.376	61.01
666.705	60.91
667.033	60.94
667.362	61
667.69	61.05
668.018	61.12
668.347	61.01
668.675	61.08
