Data from BA28471_Reflection_00014.txt Node
Date: Mon Nov 18 15:21:38 EST 2019
User: vgr7
Spectrometer: USB2G7710
Scans to average: 3
Trigger mode: 4
Integration Time (sec): 2.000000E-2
Electric dark correction enabled: true
Boxcar width: 10
XAxis mode: Wavelengths
Number of Pixels in Spectrum: 2048
>>>>>Begin Spectral Data<<<<<
177.721	946.65
178.105	-189.02
178.488	-91.38
178.871	-82.67
179.254	5.9
179.636	-137.79
180.019	-90.23
180.402	82.05
180.785	943.37
181.168	45.73
181.55	95.77
181.933	68.05
182.316	85.56
182.698	84.48
183.081	78.74
183.463	97.9
183.846	174.55
184.228	218.74
184.611	459.18
184.993	2927.59
185.376	-333.18
185.758	-222.58
186.14	-1277.48
186.522	-11794.74
186.904	612.97
187.287	497.03
187.669	-527.97
188.051	-351
188.433	-153.54
188.815	-129.75
189.197	-139.33
189.579	-91.65
189.961	-85.03
190.342	-89.65
190.724	-62.81
191.106	-50.84
191.488	-52.98
191.869	-45.33
192.251	-68.17
192.633	-113.59
193.014	-283.05
193.396	-406.62
193.777	-469.65
194.159	-835.38
194.54	-288.47
194.922	-198.73
195.303	-421.86
195.684	-422.81
196.065	-178.05
196.447	-328.71
196.828	-590.97
197.209	-265.61
197.59	-342.18
197.971	-305.29
198.352	-306.45
198.733	-1084.99
199.114	-855.22
199.495	-330.38
199.876	-287.2
200.257	-153.21
200.638	-101.7
201.018	-100.82
201.399	-100.7
201.78	-75.08
202.16	-70.16
202.541	-74.63
202.922	-96.12
203.302	-89.76
203.683	-107.23
204.063	-154.64
204.444	-139.98
204.824	-121.54
205.204	-114.87
205.585	-129.74
205.965	-121.07
206.345	-107.35
206.725	-106.49
207.106	-107.16
207.486	-131.54
207.866	-123.16
208.246	-130.39
208.626	-149.06
209.006	-115.28
209.386	-151.24
209.766	-178.25
210.145	-159.41
210.525	-149.75
210.905	-120.95
211.285	-117.5
211.664	-88.02
212.044	-80.96
212.424	-87.8
212.803	-78.45
213.183	-73.33
213.562	-65.84
213.942	-66.93
214.321	-76.1
214.701	-99.57
215.08	-106.38
215.459	-94.37
215.838	-102.95
216.218	-103.71
216.597	-72.09
216.976	-82.41
217.355	-75.65
217.734	-74.74
218.113	-82.68
218.492	-85.42
218.871	-100.52
219.25	-100.81
219.629	-117.6
220.008	-124.89
220.387	-110.38
220.766	-112.31
221.144	-140.63
221.523	-162.03
221.902	-168.4
222.28	-177.28
222.659	-125.74
223.037	-101.65
223.416	-100.32
223.794	-91.43
224.173	-85.25
224.551	-74.26
224.929	-68.48
225.308	-52.74
225.686	-53.51
226.064	-40.38
226.442	-38.81
226.821	-26.36
227.199	-23.47
227.577	-19.5
227.955	-17.01
228.333	-19.45
228.711	-14.94
229.089	-8.5
229.467	-7.25
229.845	-10.62
230.222	-10.36
230.6	-10.18
230.978	-13.38
231.356	-12.75
231.733	-11.28
232.111	-8.34
232.488	-7.69
232.866	-8.08
233.243	-7.89
233.621	-8.56
233.998	-8.71
234.376	-8.88
234.753	-7.78
235.13	-7.21
235.508	-5.21
235.885	-6.3
236.262	-4.6
236.639	-4.72
237.016	-5.65
237.393	-4.24
237.77	-2.46
238.147	-1.33
238.524	0.04
238.901	1.63
239.278	2.24
239.655	3.52
240.032	3.34
240.409	2.99
240.785	3.53
241.162	3.72
241.539	5.12
241.915	5.53
242.292	5.71
242.668	5.62
243.045	5.35
243.421	5.14
243.798	5.09
244.174	5.02
244.551	4.96
244.927	5.06
245.303	5.15
245.679	5.15
246.056	5.08
246.432	4.83
246.808	4.8
247.184	4.68
247.56	4.4
247.936	4.43
248.312	4.77
248.688	4.71
249.064	4.82
249.44	4.44
249.815	4.32
250.191	4.32
250.567	4.32
250.943	4.48
251.318	4.53
251.694	4.75
252.069	4.65
252.445	4.68
252.82	4.86
253.196	4.75
253.571	5.02
253.947	5.08
254.322	5.2
254.697	5.19
255.073	5.36
255.448	5.02
255.823	4.87
256.198	4.75
256.573	4.73
256.948	4.87
257.323	5.01
257.698	5.06
258.073	5.05
258.448	5.07
258.823	5.08
259.198	5.04
259.573	5.02
259.948	5.04
260.322	5.04
260.697	4.94
261.072	4.92
261.446	4.79
261.821	4.74
262.195	4.71
262.57	4.58
262.944	4.41
263.319	4.45
263.693	4.48
264.067	4.35
264.442	4.31
264.816	4.08
265.19	3.97
265.564	3.98
265.938	3.92
266.313	3.68
266.687	3.6
267.061	3.7
267.435	3.77
267.809	3.81
268.183	3.89
268.556	3.66
268.93	3.74
269.304	3.65
269.678	3.89
270.051	3.78
270.425	3.83
270.799	3.86
271.172	4.06
271.546	4.02
271.919	4.06
272.293	4.16
272.666	4.25
273.04	4.2
273.413	4.13
273.787	4.26
274.16	4.44
274.533	4.42
274.906	4.3
275.279	4.15
275.653	4.14
276.026	4.03
276.399	4.24
276.772	4.17
277.145	4.2
277.518	4.22
277.891	4.41
278.263	4.34
278.636	4.62
279.009	4.51
279.382	4.64
279.755	4.65
280.127	4.7
280.5	4.78
280.872	4.89
281.245	5
281.617	4.95
281.99	5.02
282.362	5.08
282.735	5.11
283.107	5.2
283.479	5.36
283.852	5.41
284.224	5.51
284.596	5.46
284.968	5.55
285.34	5.45
285.713	5.39
286.085	5.43
286.457	5.34
286.829	5.36
287.201	5.35
287.572	5.37
287.944	5.32
288.316	5.37
288.688	5.24
289.06	5.2
289.431	5.25
289.803	5.22
290.175	5.18
290.546	5.21
290.918	5.18
291.289	5.02
291.661	4.99
292.032	4.91
292.403	5.05
292.775	5.19
293.146	5.14
293.517	5.27
293.889	5.36
294.26	5.47
294.631	5.52
295.002	5.51
295.373	5.56
295.744	5.54
296.115	5.4
296.486	5.46
296.857	5.51
297.228	5.54
297.599	5.63
297.97	5.74
298.34	5.83
298.711	5.94
299.082	6.06
299.452	6.12
299.823	6.26
300.194	6.21
300.564	6.14
300.935	6.2
301.305	6.22
301.676	6.33
302.046	6.35
302.416	6.44
302.787	6.45
303.157	6.5
303.527	6.57
303.897	6.72
304.267	6.84
304.637	6.88
305.008	6.96
305.378	6.98
305.748	7.02
306.117	7
306.487	7.13
306.857	7.32
307.227	7.36
307.597	7.43
307.967	7.61
308.336	7.72
308.706	7.93
309.076	7.93
309.445	8.02
309.815	8.06
310.184	8.08
310.554	8.22
310.923	8.26
311.293	8.46
311.662	8.55
312.031	8.65
312.401	8.72
312.77	8.83
313.139	9.01
313.508	9.2
313.877	9.29
314.246	9.35
314.616	9.33
314.985	9.51
315.353	9.58
315.722	9.81
316.091	9.9
316.46	9.89
316.829	9.93
317.198	9.97
317.567	10.04
317.935	10.22
318.304	10.3
318.672	10.45
319.041	10.5
319.41	10.69
319.778	10.88
320.147	11.07
320.515	11.02
320.883	10.98
321.252	10.91
321.62	11.07
321.988	10.98
322.357	11.06
322.725	11.02
323.093	11.09
323.461	10.94
323.829	10.94
324.197	11.09
324.565	11.32
324.933	11.47
325.301	11.47
325.669	11.53
326.037	11.54
326.405	11.55
326.772	11.56
327.14	11.63
327.508	11.66
327.875	11.5
328.243	11.56
328.61	11.54
328.978	11.49
329.346	11.54
329.713	11.61
330.08	11.75
330.448	11.8
330.815	11.76
331.182	11.85
331.55	11.85
331.917	11.85
332.284	11.89
332.651	11.81
333.018	11.95
333.385	11.95
333.752	12.1
334.119	12.32
334.486	12.32
334.853	12.21
335.22	12.14
335.587	12.42
335.954	12.46
336.32	12.63
336.687	12.81
337.054	12.86
337.42	12.97
337.787	12.97
338.153	13.04
338.52	13.17
338.886	13.11
339.253	13.16
339.619	13.34
339.986	13.43
340.352	13.6
340.718	13.55
341.084	13.69
341.451	13.81
341.817	13.75
342.183	13.85
342.549	13.97
342.915	14.07
343.281	13.95
343.647	14.05
344.013	14.15
344.379	14.09
344.745	14.23
345.11	14.27
345.476	14.29
345.842	14.31
346.208	14.27
346.573	14.42
346.939	14.52
347.304	14.36
347.67	14.35
348.035	14.41
348.401	14.5
348.766	14.47
349.132	14.46
349.497	14.46
349.862	14.56
350.228	14.59
350.593	14.55
350.958	14.64
351.323	14.61
351.688	14.62
352.053	14.67
352.418	14.54
352.783	14.58
353.148	14.52
353.513	14.59
353.878	14.62
354.243	14.71
354.608	14.71
354.972	14.8
355.337	14.83
355.702	14.75
356.066	14.76
356.431	14.78
356.795	14.78
357.16	14.85
357.524	14.76
357.889	14.73
358.253	14.89
358.618	14.94
358.982	14.93
359.346	14.79
359.71	14.83
360.075	14.82
360.439	14.78
360.803	14.82
361.167	14.75
361.531	14.74
361.895	14.69
362.259	14.63
362.623	14.55
362.987	14.5
363.351	14.59
363.714	14.59
364.078	14.57
364.442	14.41
364.806	14.34
365.169	14.39
365.533	14.37
365.896	14.19
366.26	14.08
366.623	14.1
366.987	14.02
367.35	13.95
367.714	13.91
368.077	13.88
368.44	13.82
368.803	13.82
369.167	13.83
369.53	13.72
369.893	13.73
370.256	13.74
370.619	13.69
370.982	13.53
371.345	13.45
371.708	13.36
372.071	13.38
372.434	13.28
372.797	13.22
373.159	13.19
373.522	13.23
373.885	13.18
374.247	13.09
374.61	13.15
374.973	13.11
375.335	13.05
375.698	12.97
376.06	12.89
376.423	12.78
376.785	12.72
377.147	12.73
377.51	12.66
377.872	12.65
378.234	12.6
378.596	12.56
378.958	12.51
379.321	12.44
379.683	12.42
380.045	12.4
380.407	12.28
380.769	12.22
381.13	12.08
381.492	12.01
381.854	11.98
382.216	11.87
382.578	11.8
382.939	11.72
383.301	11.67
383.663	11.69
384.024	11.73
384.386	11.68
384.747	11.63
385.109	11.58
385.47	11.47
385.832	11.41
386.193	11.37
386.554	11.31
386.916	11.28
387.277	11.2
387.638	11.18
387.999	11.14
388.36	11.07
388.721	11.04
389.082	11.01
389.443	10.93
389.804	10.9
390.165	10.83
390.526	10.78
390.887	10.75
391.248	10.67
391.609	10.61
391.969	10.55
392.33	10.48
392.691	10.47
393.051	10.43
393.412	10.39
393.772	10.34
394.133	10.31
394.493	10.26
394.854	10.21
395.214	10.11
395.574	10.06
395.935	9.98
396.295	9.91
396.655	9.84
397.015	9.78
397.376	9.73
397.736	9.71
398.096	9.66
398.456	9.6
398.816	9.57
399.176	9.47
399.535	9.38
399.895	9.3
400.255	9.22
400.615	9.18
400.975	9.14
401.334	9.07
401.694	9.02
402.054	9
402.413	8.99
402.773	8.95
403.132	8.92
403.492	8.93
403.851	8.9
404.211	8.87
404.57	8.85
404.929	8.85
405.288	8.84
405.648	8.81
406.007	8.76
406.366	8.68
406.725	8.68
407.084	8.67
407.443	8.65
407.802	8.63
408.161	8.6
408.52	8.54
408.879	8.53
409.238	8.53
409.596	8.47
409.955	8.41
410.314	8.38
410.673	8.38
411.031	8.35
411.39	8.31
411.748	8.31
412.107	8.33
412.465	8.24
412.824	8.21
413.182	8.22
413.54	8.21
413.899	8.24
414.257	8.2
414.615	8.14
414.974	8.11
415.332	8.09
415.69	8.03
416.048	8
416.406	7.97
416.764	7.89
417.122	7.87
417.48	7.86
417.838	7.86
418.195	7.81
418.553	7.77
418.911	7.76
419.269	7.73
419.626	7.69
419.984	7.69
420.342	7.66
420.699	7.62
421.057	7.59
421.414	7.55
421.772	7.53
422.129	7.51
422.486	7.5
422.844	7.48
423.201	7.46
423.558	7.45
423.915	7.42
424.273	7.41
424.63	7.38
424.987	7.35
425.344	7.33
425.701	7.32
426.058	7.29
426.415	7.27
426.772	7.25
427.128	7.22
427.485	7.2
427.842	7.17
428.199	7.15
428.555	7.14
428.912	7.13
429.269	7.13
429.625	7.12
429.982	7.09
430.338	7.09
430.695	7.11
431.051	7.09
431.407	7.09
431.764	7.1
432.12	7.12
432.476	7.12
432.832	7.11
433.189	7.1
433.545	7.14
433.901	7.12
434.257	7.11
434.613	7.13
434.969	7.1
435.325	7.11
435.681	7.12
436.036	7.12
436.392	7.13
436.748	7.13
437.104	7.1
437.459	7.13
437.815	7.1
438.171	7.1
438.526	7.14
438.882	7.13
439.237	7.1
439.593	7.09
439.948	7.09
440.304	7.09
440.659	7.08
441.014	7.05
441.369	7.05
441.725	7.05
442.08	7.02
442.435	7.01
442.79	7.01
443.145	7.01
443.5	6.99
443.855	6.97
444.21	6.96
444.565	6.97
444.92	6.94
445.275	6.93
445.629	6.9
445.984	6.87
446.339	6.87
446.693	6.85
447.048	6.83
447.403	6.82
447.757	6.78
448.112	6.76
448.466	6.75
448.82	6.73
449.175	6.72
449.529	6.72
449.883	6.67
450.238	6.65
450.592	6.63
450.946	6.62
451.3	6.61
451.654	6.59
452.008	6.59
452.362	6.58
452.716	6.58
453.07	6.58
453.424	6.58
453.778	6.56
454.132	6.56
454.486	6.54
454.839	6.55
455.193	6.57
455.547	6.58
455.9	6.59
456.254	6.61
456.607	6.6
456.961	6.61
457.314	6.65
457.668	6.66
458.021	6.66
458.375	6.65
458.728	6.65
459.081	6.67
459.434	6.67
459.787	6.68
460.141	6.67
460.494	6.69
460.847	6.71
461.2	6.71
461.553	6.74
461.906	6.77
462.259	6.77
462.611	6.8
462.964	6.82
463.317	6.85
463.67	6.86
464.022	6.9
464.375	6.9
464.728	6.92
465.08	6.94
465.433	6.96
465.785	7.01
466.138	7.05
466.49	7.04
466.843	7.07
467.195	7.08
467.547	7.13
467.899	7.16
468.252	7.15
468.604	7.16
468.956	7.17
469.308	7.18
469.66	7.2
470.012	7.19
470.364	7.19
470.716	7.17
471.068	7.18
471.42	7.18
471.772	7.23
472.123	7.25
472.475	7.27
472.827	7.26
473.178	7.27
473.53	7.27
473.882	7.29
474.233	7.28
474.585	7.28
474.936	7.26
475.288	7.25
475.639	7.28
475.99	7.3
476.342	7.29
476.693	7.3
477.044	7.3
477.395	7.31
477.746	7.29
478.097	7.31
478.448	7.29
478.8	7.29
479.15	7.24
479.501	7.25
479.852	7.25
480.203	7.24
480.554	7.23
480.905	7.24
481.255	7.24
481.606	7.23
481.957	7.24
482.307	7.25
482.658	7.24
483.009	7.25
483.359	7.25
483.709	7.25
484.06	7.25
484.41	7.25
484.761	7.26
485.111	7.27
485.461	7.26
485.811	7.28
486.162	7.29
486.512	7.32
486.862	7.31
487.212	7.31
487.562	7.33
487.912	7.34
488.262	7.36
488.612	7.37
488.961	7.4
489.311	7.4
489.661	7.42
490.011	7.43
490.36	7.43
490.71	7.45
491.06	7.47
491.409	7.49
491.759	7.51
492.108	7.53
492.458	7.56
492.807	7.6
493.157	7.65
493.506	7.66
493.855	7.7
494.204	7.72
494.554	7.77
494.903	7.8
495.252	7.85
495.601	7.88
495.95	7.94
496.299	7.98
496.648	8.03
496.997	8.07
497.346	8.16
497.695	8.23
498.043	8.3
498.392	8.36
498.741	8.43
499.09	8.5
499.438	8.59
499.787	8.68
500.135	8.77
500.484	8.82
500.832	8.91
501.181	8.98
501.529	9.1
501.878	9.21
502.226	9.3
502.574	9.39
502.923	9.49
503.271	9.59
503.619	9.72
503.967	9.85
504.315	9.96
504.663	10.07
505.011	10.22
505.359	10.33
505.707	10.46
506.055	10.59
506.403	10.74
506.751	10.85
507.098	10.99
507.446	11.1
507.794	11.24
508.141	11.38
508.489	11.52
508.837	11.66
509.184	11.8
509.531	11.94
509.879	12.09
510.226	12.23
510.574	12.36
510.921	12.46
511.268	12.59
511.616	12.76
511.963	12.93
512.31	13.06
512.657	13.23
513.004	13.39
513.351	13.58
513.698	13.74
514.045	13.92
514.392	14.08
514.739	14.3
515.086	14.48
515.432	14.64
515.779	14.8
516.126	14.96
516.473	15.11
516.819	15.3
517.166	15.44
517.512	15.61
517.859	15.77
518.205	15.94
518.552	16.1
518.898	16.2
519.245	16.34
519.591	16.48
519.937	16.63
520.283	16.78
520.629	16.92
520.976	17.08
521.322	17.24
521.668	17.42
522.014	17.58
522.36	17.77
522.706	17.98
523.052	18.21
523.398	18.48
523.743	18.7
524.089	18.95
524.435	19.19
524.781	19.42
525.126	19.63
525.472	19.83
525.817	20
526.163	20.2
526.509	20.34
526.854	20.49
527.199	20.62
527.545	20.76
527.89	20.9
528.235	21.04
528.581	21.19
528.926	21.34
529.271	21.49
529.616	21.65
529.961	21.78
530.306	21.93
530.651	22.04
530.996	22.21
531.341	22.35
531.686	22.52
532.031	22.68
532.376	22.85
532.721	23.01
533.065	23.2
533.41	23.36
533.755	23.57
534.099	23.78
534.444	23.96
534.788	24.15
535.133	24.35
535.477	24.55
535.822	24.77
536.166	24.99
536.51	25.23
536.855	25.46
537.199	25.75
537.543	26.02
537.887	26.32
538.231	26.59
538.576	26.88
538.92	27.13
539.264	27.41
539.608	27.66
539.951	27.92
540.295	28.11
540.639	28.34
540.983	28.53
541.327	28.71
541.671	28.92
542.014	29.13
542.358	29.33
542.701	29.53
543.045	29.7
543.389	29.88
543.732	30.04
544.075	30.23
544.419	30.41
544.762	30.62
545.105	30.82
545.449	31.05
545.792	31.28
546.135	31.52
546.478	31.76
546.821	32
547.165	32.25
547.508	32.53
547.851	32.82
548.194	33.08
548.536	33.37
548.879	33.65
549.222	33.92
549.565	34.23
549.908	34.47
550.25	34.77
550.593	35.08
550.936	35.37
551.278	35.68
551.621	35.97
551.963	36.23
552.306	36.51
552.648	36.77
552.991	37.01
553.333	37.26
553.675	37.45
554.017	37.74
554.36	37.97
554.702	38.21
555.044	38.45
555.386	38.7
555.728	38.93
556.07	39.18
556.412	39.43
556.754	39.63
557.096	39.86
557.438	40.09
557.78	40.29
558.121	40.54
558.463	40.75
558.805	40.99
559.147	41.19
559.488	41.42
559.83	41.61
560.171	41.83
560.513	42.05
560.854	42.27
561.196	42.4
561.537	42.57
561.878	42.81
562.22	42.99
562.561	43.17
562.902	43.37
563.243	43.52
563.584	43.69
563.925	43.83
564.266	44
564.607	44.09
564.948	44.3
565.289	44.43
565.63	44.6
565.971	44.73
566.312	44.85
566.653	44.94
566.993	45.08
567.334	45.22
567.675	45.35
568.015	45.54
568.356	45.65
568.696	45.81
569.037	45.98
569.377	46.05
569.718	46.18
570.058	46.33
570.398	46.4
570.739	46.53
571.079	46.69
571.419	46.83
571.759	46.99
572.099	47.1
572.439	47.21
572.779	47.29
573.119	47.42
573.459	47.6
573.799	47.76
574.139	47.91
574.479	48.05
574.819	48.15
575.158	48.23
575.498	48.34
575.838	48.42
576.177	48.45
576.517	48.62
576.856	48.74
577.196	48.8
577.535	48.95
577.875	49.04
578.214	49.11
578.553	49.22
578.893	49.27
579.232	49.36
579.571	49.48
579.91	49.62
580.25	49.69
580.589	49.78
580.928	49.86
581.267	49.91
581.606	49.94
581.945	50.02
582.283	50.06
582.622	50.16
582.961	50.24
583.3	50.3
583.639	50.35
583.977	50.43
584.316	50.59
584.654	50.71
584.993	50.8
585.332	50.94
585.67	51
586.008	51.11
586.347	51.15
586.685	51.24
587.024	51.37
587.362	51.43
587.7	51.48
588.038	51.5
588.376	51.57
588.715	51.68
589.053	51.76
589.391	51.85
589.729	51.92
590.067	52.02
590.404	52.2
590.742	52.26
591.08	52.33
591.418	52.33
591.756	52.34
592.093	52.31
592.431	52.29
592.769	52.31
593.106	52.4
593.444	52.44
593.781	52.48
594.119	52.54
594.456	52.6
594.793	52.58
595.131	52.65
595.468	52.69
595.805	52.68
596.143	52.77
596.48	52.79
596.817	52.83
597.154	52.8
597.491	52.75
597.828	52.8
598.165	52.8
598.502	52.84
598.839	52.94
599.176	53.02
599.512	53.08
599.849	53.18
600.186	53.21
600.523	53.28
600.859	53.35
601.196	53.32
601.532	53.34
601.869	53.4
602.205	53.43
602.542	53.51
602.878	53.44
603.215	53.44
603.551	53.46
603.887	53.5
604.223	53.52
604.56	53.6
604.896	53.66
605.232	53.75
605.568	53.75
605.904	53.75
606.24	53.86
606.576	53.93
606.912	53.95
607.248	54.01
607.583	54.01
607.919	54.02
608.255	54.05
608.591	54.12
608.926	54.12
609.262	54.16
609.597	54.13
609.933	54.33
610.268	54.27
610.604	54.34
610.939	54.34
611.275	54.41
611.61	54.39
611.945	54.33
612.281	54.38
612.616	54.48
612.951	54.55
613.286	54.57
613.621	54.58
613.956	54.64
614.291	54.66
614.626	54.72
614.961	54.68
615.296	54.75
615.631	54.74
615.966	54.85
616.3	54.88
616.635	54.99
616.97	54.91
617.304	54.99
617.639	54.98
617.973	55.05
618.308	55.05
618.642	55.15
618.977	55.3
619.311	55.3
619.646	55.3
619.98	55.35
620.314	55.33
620.648	55.33
620.983	55.28
621.317	55.29
621.651	55.35
621.985	55.48
622.319	55.45
622.653	55.57
622.987	55.61
623.321	55.65
623.655	55.7
623.988	55.77
624.322	55.81
624.656	55.88
624.99	55.86
625.323	55.86
625.657	55.78
625.99	55.68
626.324	55.71
626.657	55.74
626.991	55.69
627.324	55.71
627.658	55.73
627.991	55.85
628.324	55.82
628.657	55.8
628.991	55.75
629.324	55.85
629.657	55.85
629.99	55.87
630.323	55.85
630.656	55.76
630.989	55.75
631.322	55.77
631.655	55.8
631.987	55.84
632.32	55.83
632.653	55.86
632.986	55.92
633.318	55.89
633.651	55.86
633.984	55.88
634.316	55.89
634.649	55.88
634.981	55.73
635.313	55.76
635.646	55.84
635.978	55.85
636.31	55.8
636.643	55.74
636.975	55.69
637.307	55.7
637.639	55.81
637.971	55.78
638.303	55.77
638.635	55.72
638.967	55.77
639.299	55.9
639.631	55.99
639.963	56
640.295	56.14
640.626	56.23
640.958	56.2
641.29	56.24
641.621	56.26
641.953	56.37
642.285	56.46
642.616	56.45
642.948	56.45
643.279	56.45
643.61	56.52
643.942	56.59
644.273	56.58
644.604	56.49
644.936	56.61
645.267	56.64
645.598	56.64
645.929	56.62
646.26	56.6
646.591	56.58
646.922	56.59
647.253	56.5
647.584	56.44
647.915	56.57
648.245	56.48
648.576	56.44
648.907	56.43
649.238	56.31
649.568	56.29
649.899	56.29
650.229	56.2
650.56	56.17
650.89	56.18
651.221	56.19
651.551	56.25
651.882	56.2
652.212	56.22
652.542	56.18
652.872	56.18
653.203	56.18
653.533	56.21
653.863	56.15
654.193	56.13
654.523	56.15
654.853	56
655.183	56.13
655.513	56.01
655.843	56.11
656.172	56.11
656.502	56.16
656.832	56.2
657.162	56.39
657.491	56.35
657.821	56.34
658.15	56.33
658.48	56.24
658.809	56.23
659.139	56.16
