Data from BA28415_Reflection_00012.txt Node
Date: Mon Nov 18 16:02:32 EST 2019
User: vgr7
Spectrometer: USB2G7710
Scans to average: 3
Trigger mode: 4
Integration Time (sec): 2.000000E-2
Electric dark correction enabled: true
Boxcar width: 10
XAxis mode: Wavelengths
Number of Pixels in Spectrum: 2048
>>>>>Begin Spectral Data<<<<<
177.721	53.4
178.105	189.69
178.488	217.09
178.871	261.44
179.254	149.55
179.636	648.91
180.019	-453.97
180.402	75
180.785	259.83
181.168	24.14
181.55	24.97
181.933	74.85
182.316	72.5
182.698	105.58
183.081	84.17
183.463	73.31
183.846	72.86
184.228	71.41
184.611	80.04
184.993	107.83
185.376	40.41
185.758	2.21
186.14	77.64
186.522	64.83
186.904	79.87
187.287	95.87
187.669	115.14
188.051	208.45
188.433	128.88
188.815	-144.6
189.197	-48.89
189.579	-34.97
189.961	-34.06
190.342	-82.53
190.724	-11.76
191.106	-43.81
191.488	-98.85
191.869	-76.51
192.251	-129.14
192.633	-86.02
193.014	-112.42
193.396	-135.16
193.777	-168.51
194.159	-162.45
194.54	-61.82
194.922	-70.79
195.303	-51.87
195.684	-42.58
196.065	3.91
196.447	-107.67
196.828	-80.03
197.209	-15.16
197.59	-276.24
197.971	-49.57
198.352	-0.54
198.733	-661.06
199.114	-82.78
199.495	-52.33
199.876	83.4
200.257	157.55
200.638	-16.36
201.018	-126.15
201.399	-219.02
201.78	87.1
202.16	-10.8
202.541	102.73
202.922	65.31
203.302	101.38
203.683	148.02
204.063	213.73
204.444	343.01
204.824	331.12
205.204	307.93
205.585	1642.6
205.965	367.98
206.345	366.79
206.725	353.02
207.106	407.54
207.486	277.04
207.866	433
208.246	1046.88
208.626	348.95
209.006	1307.55
209.386	761.05
209.766	687.47
210.145	-4153.52
210.525	-6708.51
210.905	-477.29
211.285	-230.5
211.664	-203.21
212.044	-164.88
212.424	-127.73
212.803	-116.56
213.183	-125.17
213.562	-118.05
213.942	-66.06
214.321	-49.92
214.701	-49.91
215.08	-44.74
215.459	-55.91
215.838	2.55
216.218	-6.87
216.597	0.79
216.976	-9.28
217.355	5.95
217.734	-3.83
218.113	-10.51
218.492	-5.53
218.871	6.11
219.25	41.84
219.629	57.97
220.008	32.99
220.387	77.53
220.766	176.81
221.144	186.77
221.523	133.44
221.902	429.11
222.28	-114.38
222.659	-14.73
223.037	-1.81
223.416	-4.38
223.794	-27.35
224.173	-29.1
224.551	-26.79
224.929	-45.47
225.308	-40.57
225.686	-27.76
226.064	-20.25
226.442	-15.74
226.821	-10.33
227.199	-16.01
227.577	-8.52
227.955	-7.72
228.333	-7.83
228.711	-3.31
229.089	0.92
229.467	0.92
229.845	2.79
230.222	4.3
230.6	3.54
230.978	2.44
231.356	5.21
231.733	5.92
232.111	6.54
232.488	6.4
232.866	10.35
233.243	12.61
233.621	10.04
233.998	9.28
234.376	9.04
234.753	8.46
235.13	10.45
235.508	8.91
235.885	9.61
236.262	8.65
236.639	7.7
237.016	7.82
237.393	8.66
237.77	8.66
238.147	8.33
238.524	7.54
238.901	6.93
239.278	5.58
239.655	5.73
240.032	5.53
240.409	5.48
240.785	4.97
241.162	4.64
241.539	5.04
241.915	4.73
242.292	4.09
242.668	4.04
243.045	3.8
243.421	3.55
243.798	3.54
244.174	3.63
244.551	3.72
244.927	3.35
245.303	3.34
245.679	3.39
246.056	3.23
246.432	3.22
246.808	3.14
247.184	2.88
247.56	2.5
247.936	2.56
248.312	2.61
248.688	2.79
249.064	2.66
249.44	2.77
249.815	3.12
250.191	3.28
250.567	3.23
250.943	3.1
251.318	3.25
251.694	3.13
252.069	3.31
252.445	3.23
252.82	3.31
253.196	3.35
253.571	3.09
253.947	3.18
254.322	3.26
254.697	3.31
255.073	3.45
255.448	3.83
255.823	3.65
256.198	3.55
256.573	3.18
256.948	3.36
257.323	3.27
257.698	2.94
258.073	2.88
258.448	2.95
258.823	2.89
259.198	2.85
259.573	2.9
259.948	2.74
260.322	2.84
260.697	2.96
261.072	2.75
261.446	2.81
261.821	2.81
262.195	2.99
262.57	2.95
262.944	2.84
263.319	2.81
263.693	2.84
264.067	2.89
264.442	3.01
264.816	3
265.19	2.93
265.564	3
265.938	3.02
266.313	3.05
266.687	3.21
267.061	3.35
267.435	3.37
267.809	3.34
268.183	3.27
268.556	3.16
268.93	3.32
269.304	3.37
269.678	3.52
270.051	3.23
270.425	3.2
270.799	3.45
271.172	3.24
271.546	3.21
271.919	3.1
272.293	2.98
272.666	3.05
273.04	3
273.413	3.13
273.787	3.2
274.16	3.15
274.533	3.2
274.906	3.12
275.279	3.06
275.653	3.09
276.026	3.18
276.399	3.09
276.772	3.12
277.145	2.91
277.518	2.79
277.891	3
278.263	3.07
278.636	2.93
279.009	3.01
279.382	3.1
279.755	3.18
280.127	3.34
280.5	3.17
280.872	3.28
281.245	3.19
281.617	3.18
281.99	3.23
282.362	3.12
282.735	3.05
283.107	3.11
283.479	3.09
283.852	2.95
284.224	2.95
284.596	2.86
284.968	2.97
285.34	2.99
285.713	2.78
286.085	2.82
286.457	2.91
286.829	3.03
287.201	3.06
287.572	3.02
287.944	3.03
288.316	3.08
288.688	3.14
289.06	3.11
289.431	3.13
289.803	3.22
290.175	3.29
290.546	3.4
290.918	3.33
291.289	3.35
291.661	3.47
292.032	3.62
292.403	3.75
292.775	3.81
293.146	3.75
293.517	3.79
293.889	3.87
294.26	3.83
294.631	3.78
295.002	3.74
295.373	3.82
295.744	3.82
296.115	3.76
296.486	3.6
296.857	3.64
297.228	3.68
297.599	3.5
297.97	3.53
298.34	3.52
298.711	3.56
299.082	3.58
299.452	3.58
299.823	3.65
300.194	3.54
300.564	3.49
300.935	3.59
301.305	3.65
301.676	3.57
302.046	3.64
302.416	3.81
302.787	3.83
303.157	3.85
303.527	3.7
303.897	3.83
304.267	3.98
304.637	3.95
305.008	3.88
305.378	4.18
305.748	4.06
306.117	4.01
306.487	4.01
306.857	4.03
307.227	4.12
307.597	3.94
307.967	4.09
308.336	4.11
308.706	4.08
309.076	4.07
309.445	4.14
309.815	4.02
310.184	3.86
310.554	3.86
310.923	3.83
311.293	3.95
311.662	3.94
312.031	3.97
312.401	3.94
312.77	4.06
313.139	3.96
313.508	4.02
313.877	4
314.246	4.02
314.616	3.94
314.985	3.82
315.353	3.89
315.722	3.76
316.091	3.73
316.46	3.65
316.829	3.64
317.198	3.53
317.567	3.64
317.935	3.66
318.304	3.89
318.672	3.83
319.041	3.84
319.41	3.86
319.778	3.71
320.147	3.79
320.515	3.72
320.883	3.69
321.252	3.74
321.62	3.87
321.988	3.95
322.357	4.01
322.725	4.05
323.093	4.1
323.461	4.09
323.829	4.22
324.197	4.34
324.565	4.29
324.933	4.41
325.301	4.41
325.669	4.38
326.037	4.22
326.405	4.33
326.772	4.35
327.14	4.33
327.508	4.38
327.875	4.34
328.243	4.35
328.61	4.39
328.978	4.41
329.346	4.49
329.713	4.44
330.08	4.46
330.448	4.29
330.815	4.19
331.182	4.18
331.55	4.14
331.917	4.01
332.284	4.29
332.651	4.12
333.018	4.13
333.385	4.22
333.752	4.28
334.119	4.33
334.486	4.35
334.853	4.39
335.22	4.46
335.587	4.6
335.954	4.52
336.32	4.46
336.687	4.49
337.054	4.36
337.42	4.43
337.787	4.49
338.153	4.45
338.52	4.48
338.886	4.4
339.253	4.38
339.619	4.53
339.986	4.34
340.352	4.6
340.718	4.62
341.084	4.54
341.451	4.39
341.817	4.37
342.183	4.33
342.549	4.37
342.915	4.38
343.281	4.31
343.647	4.36
344.013	4.35
344.379	4.3
344.745	4.35
345.11	4.39
345.476	4.37
345.842	4.51
346.208	4.51
346.573	4.65
346.939	4.68
347.304	4.58
347.67	4.62
348.035	4.53
348.401	4.49
348.766	4.61
349.132	4.68
349.497	4.63
349.862	4.65
350.228	4.64
350.593	4.62
350.958	4.66
351.323	4.65
351.688	4.67
352.053	4.66
352.418	4.68
352.783	4.68
353.148	4.68
353.513	4.67
353.878	4.72
354.243	4.76
354.608	4.74
354.972	4.77
355.337	4.83
355.702	4.84
356.066	4.86
356.431	4.75
356.795	4.74
357.16	4.69
357.524	4.64
357.889	4.6
358.253	4.58
358.618	4.57
358.982	4.52
359.346	4.49
359.71	4.48
360.075	4.47
360.439	4.49
360.803	4.48
361.167	4.46
361.531	4.47
361.895	4.4
362.259	4.41
362.623	4.42
362.987	4.37
363.351	4.27
363.714	4.3
364.078	4.33
364.442	4.28
364.806	4.29
365.169	4.33
365.533	4.32
365.896	4.3
366.26	4.3
366.623	4.37
366.987	4.34
367.35	4.34
367.714	4.31
368.077	4.15
368.44	4.15
368.803	4.11
369.167	4.02
369.53	3.98
369.893	3.94
370.256	3.9
370.619	3.9
370.982	3.93
371.345	3.84
371.708	3.85
372.071	3.86
372.434	3.84
372.797	3.79
373.159	3.73
373.522	3.77
373.885	3.82
374.247	3.88
374.61	3.91
374.973	3.91
375.335	3.91
375.698	3.99
376.06	3.91
376.423	3.92
376.785	4
377.147	4.04
377.51	4.02
377.872	4.01
378.234	3.99
378.596	3.98
378.958	3.93
379.321	3.92
379.683	3.97
380.045	3.94
380.407	3.92
380.769	3.92
381.13	3.86
381.492	3.74
381.854	3.65
382.216	3.65
382.578	3.61
382.939	3.56
383.301	3.52
383.663	3.52
384.024	3.52
384.386	3.44
384.747	3.39
385.109	3.39
385.47	3.38
385.832	3.34
386.193	3.35
386.554	3.38
386.916	3.36
387.277	3.32
387.638	3.33
387.999	3.41
388.36	3.41
388.721	3.43
389.082	3.43
389.443	3.42
389.804	3.4
390.165	3.4
390.526	3.39
390.887	3.4
391.248	3.44
391.609	3.41
391.969	3.38
392.33	3.38
392.691	3.38
393.051	3.35
393.412	3.36
393.772	3.32
394.133	3.32
394.493	3.3
394.854	3.26
395.214	3.23
395.574	3.15
395.935	3.12
396.295	3.13
396.655	3.14
397.015	3.14
397.376	3.12
397.736	3.12
398.096	3.11
398.456	3.13
398.816	3.1
399.176	3.11
399.535	3.14
399.895	3.13
400.255	3.1
400.615	3.13
400.975	3.12
401.334	3.14
401.694	3.14
402.054	3.15
402.413	3.17
402.773	3.17
403.132	3.17
403.492	3.19
403.851	3.16
404.211	3.15
404.57	3.13
404.929	3.14
405.288	3.14
405.648	3.13
406.007	3.1
406.366	3.08
406.725	3.09
407.084	3.11
407.443	3.13
407.802	3.17
408.161	3.17
408.52	3.16
408.879	3.13
409.238	3.15
409.596	3.14
409.955	3.12
410.314	3.12
410.673	3.13
411.031	3.12
411.39	3.14
411.748	3.15
412.107	3.16
412.465	3.16
412.824	3.17
413.182	3.17
413.54	3.19
413.899	3.2
414.257	3.2
414.615	3.17
414.974	3.16
415.332	3.12
415.69	3.09
416.048	3.08
416.406	3.09
416.764	3.05
417.122	3.05
417.48	3.05
417.838	3.05
418.195	3.05
418.553	3.04
418.911	3.04
419.269	3.03
419.626	3.02
419.984	3.01
420.342	3
420.699	2.99
421.057	2.98
421.414	2.96
421.772	2.94
422.129	2.94
422.486	2.94
422.844	2.94
423.201	2.94
423.558	2.94
423.915	2.93
424.273	2.94
424.63	2.94
424.987	2.94
425.344	2.93
425.701	2.92
426.058	2.92
426.415	2.9
426.772	2.9
427.128	2.87
427.485	2.88
427.842	2.87
428.199	2.89
428.555	2.87
428.912	2.89
429.269	2.91
429.625	2.91
429.982	2.91
430.338	2.9
430.695	2.91
431.051	2.91
431.407	2.92
431.764	2.91
432.12	2.91
432.476	2.9
432.832	2.91
433.189	2.92
433.545	2.91
433.901	2.91
434.257	2.9
434.613	2.92
434.969	2.91
435.325	2.9
435.681	2.89
436.036	2.9
436.392	2.9
436.748	2.89
437.104	2.86
437.459	2.86
437.815	2.87
438.171	2.87
438.526	2.88
438.882	2.87
439.237	2.89
439.593	2.9
439.948	2.9
440.304	2.9
440.659	2.92
441.014	2.91
441.369	2.92
441.725	2.92
442.08	2.92
442.435	2.92
442.79	2.94
443.145	2.95
443.5	2.94
443.855	2.95
444.21	2.95
444.565	2.97
444.92	2.97
445.275	2.94
445.629	2.94
445.984	2.94
446.339	2.93
446.693	2.92
447.048	2.9
447.403	2.89
447.757	2.88
448.112	2.87
448.466	2.88
448.82	2.87
449.175	2.86
449.529	2.86
449.883	2.86
450.238	2.84
450.592	2.82
450.946	2.8
451.3	2.79
451.654	2.78
452.008	2.77
452.362	2.76
452.716	2.79
453.07	2.78
453.424	2.79
453.778	2.8
454.132	2.79
454.486	2.78
454.839	2.79
455.193	2.8
455.547	2.81
455.9	2.8
456.254	2.81
456.607	2.81
456.961	2.81
457.314	2.83
457.668	2.85
458.021	2.86
458.375	2.89
458.728	2.89
459.081	2.89
459.434	2.9
459.787	2.9
460.141	2.9
460.494	2.92
460.847	2.9
461.2	2.89
461.553	2.9
461.906	2.92
462.259	2.92
462.611	2.93
462.964	2.93
463.317	2.94
463.67	2.94
464.022	2.95
464.375	2.95
464.728	2.94
465.08	2.92
465.433	2.93
465.785	2.91
466.138	2.91
466.49	2.94
466.843	2.93
467.195	2.94
467.547	2.91
467.899	2.91
468.252	2.92
468.604	2.92
468.956	2.92
469.308	2.9
469.66	2.88
470.012	2.9
470.364	2.9
470.716	2.89
471.068	2.89
471.42	2.88
471.772	2.88
472.123	2.88
472.475	2.9
472.827	2.89
473.178	2.93
473.53	2.92
473.882	2.91
474.233	2.92
474.585	2.89
474.936	2.91
475.288	2.91
475.639	2.9
475.99	2.91
476.342	2.91
476.693	2.94
477.044	2.96
477.395	2.95
477.746	2.95
478.097	2.96
478.448	2.96
478.8	2.97
479.15	2.97
479.501	2.96
479.852	2.97
480.203	2.98
480.554	2.97
480.905	2.99
481.255	2.99
481.606	2.99
481.957	2.99
482.307	2.99
482.658	2.99
483.009	2.99
483.359	2.99
483.709	2.99
484.06	2.98
484.41	2.98
484.761	2.99
485.111	2.99
485.461	3
485.811	3
486.162	3
486.512	3.01
486.862	3.02
487.212	3.01
487.562	3
487.912	2.99
488.262	2.99
488.612	3
488.961	3
489.311	3.01
489.661	3.02
490.011	3.02
490.36	3.03
490.71	3.04
491.06	3.04
491.409	3.04
491.759	3.04
492.108	3.04
492.458	3.04
492.807	3.03
493.157	3.05
493.506	3.05
493.855	3.04
494.204	3.02
494.554	3.03
494.903	3.03
495.252	3.05
495.601	3.05
495.95	3.05
496.299	3.06
496.648	3.06
496.997	3.06
497.346	3.07
497.695	3.08
498.043	3.08
498.392	3.09
498.741	3.09
499.09	3.1
499.438	3.11
499.787	3.11
500.135	3.12
500.484	3.11
500.832	3.13
501.181	3.17
501.529	3.19
501.878	3.21
502.226	3.24
502.574	3.24
502.923	3.23
503.271	3.24
503.619	3.25
503.967	3.25
504.315	3.26
504.663	3.28
505.011	3.28
505.359	3.3
505.707	3.31
506.055	3.31
506.403	3.33
506.751	3.34
507.098	3.37
507.446	3.4
507.794	3.43
508.141	3.46
508.489	3.46
508.837	3.48
509.184	3.5
509.531	3.52
509.879	3.56
510.226	3.59
510.574	3.61
510.921	3.63
511.268	3.65
511.616	3.67
511.963	3.69
512.31	3.72
512.657	3.75
513.004	3.79
513.351	3.85
513.698	3.89
514.045	3.9
514.392	3.94
514.739	3.96
515.086	3.99
515.432	4
515.779	4.01
516.126	4.05
516.473	4.09
516.819	4.12
517.166	4.13
517.512	4.15
517.859	4.19
518.205	4.22
518.552	4.27
518.898	4.3
519.245	4.31
519.591	4.33
519.937	4.35
520.283	4.37
520.629	4.39
520.976	4.41
521.322	4.46
521.668	4.48
522.014	4.53
522.36	4.58
522.706	4.63
523.052	4.69
523.398	4.75
523.743	4.81
524.089	4.87
524.435	4.92
524.781	4.97
525.126	5.04
525.472	5.08
525.817	5.13
526.163	5.17
526.509	5.22
526.854	5.26
527.199	5.31
527.545	5.35
527.89	5.38
528.235	5.45
528.581	5.5
528.926	5.56
529.271	5.6
529.616	5.64
529.961	5.69
530.306	5.75
530.651	5.8
530.996	5.86
531.341	5.94
531.686	6
532.031	6.08
532.376	6.15
532.721	6.23
533.065	6.31
533.41	6.4
533.755	6.51
534.099	6.62
534.444	6.71
534.788	6.82
535.133	6.94
535.477	7.03
535.822	7.13
536.166	7.25
536.51	7.38
536.855	7.53
537.199	7.68
537.543	7.84
537.887	8.02
538.231	8.16
538.576	8.31
538.92	8.48
539.264	8.65
539.608	8.8
539.951	8.95
540.295	9.1
540.639	9.24
540.983	9.36
541.327	9.48
541.671	9.62
542.014	9.77
542.358	9.9
542.701	10.06
543.045	10.21
543.389	10.34
543.732	10.5
544.075	10.67
544.419	10.83
544.762	10.99
545.105	11.15
545.449	11.35
545.792	11.56
546.135	11.78
546.478	11.98
546.821	12.22
547.165	12.44
547.508	12.7
547.851	12.96
548.194	13.21
548.536	13.49
548.879	13.75
549.222	13.98
549.565	14.27
549.908	14.54
550.25	14.81
550.593	15.13
550.936	15.43
551.278	15.7
551.621	16
551.963	16.32
552.306	16.6
552.648	16.89
552.991	17.17
553.333	17.44
553.675	17.74
554.017	18.01
554.36	18.26
554.702	18.51
555.044	18.77
555.386	19.05
555.728	19.35
556.07	19.65
556.412	19.99
556.754	20.27
557.096	20.6
557.438	20.93
557.78	21.18
558.121	21.52
558.463	21.86
558.805	22.16
559.147	22.48
559.488	22.79
559.83	23.08
560.171	23.34
560.513	23.69
560.854	23.98
561.196	24.32
561.537	24.68
561.878	24.99
562.22	25.34
562.561	25.65
562.902	25.94
563.243	26.25
563.584	26.52
563.925	26.83
564.266	27.04
564.607	27.28
564.948	27.6
565.289	27.88
565.63	28.16
565.971	28.43
566.312	28.71
566.653	28.96
566.993	29.23
567.334	29.52
567.675	29.71
568.015	29.97
568.356	30.21
568.696	30.49
569.037	30.75
569.377	31.01
569.718	31.27
570.058	31.49
570.398	31.74
570.739	31.96
571.079	32.22
571.419	32.5
571.759	32.76
572.099	33.02
572.439	33.18
572.779	33.37
573.119	33.62
573.459	33.85
573.799	34.08
574.139	34.29
574.479	34.49
574.819	34.72
575.158	34.92
575.498	35.15
575.838	35.37
576.177	35.54
576.517	35.72
576.856	35.96
577.196	36.15
577.535	36.33
577.875	36.58
578.214	36.76
578.553	36.99
578.893	37.2
579.232	37.38
579.571	37.63
579.91	37.86
580.25	38.01
580.589	38.2
580.928	38.4
581.267	38.65
581.606	38.81
581.945	39.06
582.283	39.16
582.622	39.34
582.961	39.52
583.3	39.74
583.639	39.88
583.977	40.02
584.316	40.19
584.654	40.39
584.993	40.5
585.332	40.72
585.67	40.85
586.008	40.96
586.347	41.13
586.685	41.28
587.024	41.44
587.362	41.64
587.7	41.82
588.038	41.99
588.376	42.09
588.715	42.29
589.053	42.4
589.391	42.65
589.729	42.82
590.067	42.93
590.404	43.04
590.742	43.25
591.08	43.38
591.418	43.57
591.756	43.75
592.093	43.92
592.431	44.06
592.769	44.17
593.106	44.35
593.444	44.47
593.781	44.6
594.119	44.69
594.456	44.79
594.793	44.87
595.131	44.93
595.468	45.06
595.805	45.12
596.143	45.21
596.48	45.28
596.817	45.35
597.154	45.44
597.491	45.6
597.828	45.7
598.165	45.78
598.502	45.89
598.839	45.96
599.176	46.11
599.512	46.23
599.849	46.39
600.186	46.48
600.523	46.59
600.859	46.71
601.196	46.86
601.532	46.93
601.869	47.04
602.205	47.16
602.542	47.24
602.878	47.4
603.215	47.46
603.551	47.54
603.887	47.63
604.223	47.7
604.56	47.74
604.896	47.81
605.232	47.89
605.568	47.96
605.904	48.05
606.24	48.14
606.576	48.14
606.912	48.2
607.248	48.28
607.583	48.4
607.919	48.52
608.255	48.57
608.591	48.72
608.926	48.79
609.262	48.91
609.597	48.98
609.933	49.09
610.268	49.2
610.604	49.31
610.939	49.37
611.275	49.46
611.61	49.57
611.945	49.6
612.281	49.72
612.616	49.78
612.951	49.82
613.286	49.85
613.621	49.94
613.956	50.02
614.291	50.11
614.626	50.13
614.961	50.13
615.296	50.23
615.631	50.22
615.966	50.23
616.3	50.24
616.635	50.25
616.97	50.2
617.304	50.22
617.639	50.28
617.973	50.33
618.308	50.32
618.642	50.34
618.977	50.36
619.311	50.36
619.646	50.31
619.98	50.43
620.314	50.49
620.648	50.43
620.983	50.5
621.317	50.52
621.651	50.5
621.985	50.56
622.319	50.65
622.653	50.69
622.987	50.79
623.321	50.89
623.655	50.96
623.988	51.09
624.322	51.16
624.656	51.2
624.99	51.32
625.323	51.39
625.657	51.48
625.99	51.6
626.324	51.63
626.657	51.78
626.991	51.77
627.324	51.86
627.658	52
627.991	52.1
628.324	52.24
628.657	52.24
628.991	52.34
629.324	52.28
629.657	52.32
629.99	52.33
630.323	52.36
630.656	52.41
630.989	52.45
631.322	52.49
631.655	52.53
631.987	52.53
632.32	52.7
632.653	52.67
632.986	52.7
633.318	52.73
633.651	52.8
633.984	52.9
634.316	52.9
634.649	52.94
634.981	52.95
635.313	52.97
635.646	53.19
635.978	53.23
636.31	53.3
636.643	53.43
636.975	53.4
637.307	53.33
637.639	53.37
637.971	53.38
638.303	53.45
638.635	53.45
638.967	53.44
639.299	53.35
639.631	53.44
639.963	53.4
640.295	53.48
640.626	53.48
640.958	53.43
641.29	53.36
641.621	53.36
641.953	53.41
642.285	53.39
642.616	53.31
642.948	53.27
643.279	53.36
643.61	53.24
643.942	53.33
644.273	53.48
644.604	53.57
644.936	53.6
645.267	53.47
645.598	53.54
645.929	53.56
646.26	53.55
646.591	53.51
646.922	53.59
647.253	53.66
647.584	53.66
647.915	53.74
648.245	53.84
648.576	53.88
648.907	53.95
649.238	54.01
649.568	54.12
649.899	54.3
650.229	54.22
650.56	54.4
650.89	54.46
651.221	54.42
651.551	54.41
651.882	54.43
652.212	54.61
652.542	54.53
652.872	54.53
653.203	54.69
653.533	54.74
653.863	54.76
654.193	54.83
654.523	54.91
654.853	54.96
655.183	55.09
655.513	55.18
655.843	55.05
656.172	55
656.502	55.03
656.832	54.97
657.162	54.96
657.491	54.88
657.821	54.96
658.15	55
658.48	55.03
658.809	55.06
659.139	55.09
659.468	55.17
659.798	55.25
660.127	55.24
660.456	55.2
660.785	55.27
661.115	55.31
661.444	55.34
661.773	55.36
662.102	55.33
662.431	55.34
662.76	55.42
663.089	55.5
663.418	55.43
663.747	55.42
664.076	55.64
664.404	55.74
664.733	55.87
665.062	55.91
665.39	55.89
665.719	55.9
666.048	55.85
666.376	55.93
666.705	55.89
667.033	55.82
667.362	56
667.69	55.97
668.018	55.96
668.347	55.98
668.675	56.02
669.003	55.95
669.331	55.96
669.659	55.99
