Data from BA28471_Reflection_00008.txt Node
Date: Mon Nov 18 15:21:16 EST 2019
User: vgr7
Spectrometer: USB2G7710
Scans to average: 3
Trigger mode: 4
Integration Time (sec): 2.000000E-2
Electric dark correction enabled: true
Boxcar width: 10
XAxis mode: Wavelengths
Number of Pixels in Spectrum: 2048
>>>>>Begin Spectral Data<<<<<
177.721	-601.94
178.105	261.85
178.488	265.81
178.871	183.51
179.254	111.12
179.636	77.2
180.019	133.42
180.402	117.95
180.785	-827.71
181.168	-20.09
181.55	-37.42
181.933	39.3
182.316	79.06
182.698	114.74
183.081	64.78
183.463	31.79
183.846	82.17
184.228	68.46
184.611	153.06
184.993	548.28
185.376	178.34
185.758	-135.99
186.14	-462.91
186.522	-3426.32
186.904	293.08
187.287	224.3
187.669	-60.95
188.051	20.9
188.433	34.59
188.815	37.39
189.197	48.87
189.579	54.73
189.961	50.22
190.342	54.29
190.724	58.26
191.106	56.14
191.488	37.12
191.869	35.76
192.251	22.83
192.633	23.08
193.014	23.08
193.396	-15.31
193.777	-1.87
194.159	4.62
194.54	47.71
194.922	99.25
195.303	259.38
195.684	231.94
196.065	124.7
196.447	164.81
196.828	145.96
197.209	29.51
197.59	10.27
197.971	19.82
198.352	34.65
198.733	0.8
199.114	97.87
199.495	128.24
199.876	113.95
200.257	79.53
200.638	75.13
201.018	63.57
201.399	54.29
201.78	55.58
202.16	49.99
202.541	37.54
202.922	33.2
203.302	26.44
203.683	29.83
204.063	31.98
204.444	28.82
204.824	46
205.204	57.64
205.585	69.01
205.965	57.16
206.345	45
206.725	59.46
207.106	41.46
207.486	30.86
207.866	31.19
208.246	34.95
208.626	48.63
209.006	51.82
209.386	73.88
209.766	94.24
210.145	80.29
210.525	91.52
210.905	72.68
211.285	64.2
211.664	53
212.044	63.49
212.424	81.37
212.803	65.8
213.183	78.8
213.562	68.35
213.942	77.09
214.321	89.85
214.701	86.72
215.08	68.11
215.459	47.02
215.838	37.95
216.218	21.25
216.597	2.78
216.976	14.2
217.355	11.22
217.734	15.51
218.113	16.58
218.492	14.31
218.871	29.59
219.25	31.85
219.629	25.71
220.008	32.28
220.387	24.37
220.766	39.74
221.144	30.65
221.523	24.71
221.902	23.36
222.28	25.09
222.659	28.55
223.037	47.58
223.416	56.07
223.794	52.49
224.173	53.69
224.551	55.23
224.929	49.25
225.308	38.02
225.686	25.71
226.064	20.21
226.442	15.23
226.821	8.3
227.199	3.14
227.577	6.9
227.955	2.87
228.333	-1.33
228.711	-3.16
229.089	-1.48
229.467	-1.67
229.845	-1.37
230.222	-2.45
230.6	-3.75
230.978	-4.68
231.356	-2.19
231.733	0.58
232.111	1.99
232.488	1.83
232.866	0.9
233.243	1.53
233.621	2.15
233.998	2.59
234.376	1.16
234.753	2.92
235.13	3.53
235.508	2.57
235.885	2.92
236.262	3.7
236.639	3.23
237.016	2.75
237.393	3.6
237.77	4.33
238.147	5.2
238.524	4.81
238.901	5.37
239.278	5.32
239.655	4.7
240.032	4.37
240.409	4.13
240.785	4.37
241.162	4.35
241.539	4.12
241.915	4.44
242.292	4.46
242.668	3.95
243.045	3.92
243.421	3.97
243.798	3.66
244.174	3.57
244.551	3.84
244.927	3.78
245.303	4.02
245.679	4.2
246.056	4.07
246.432	3.89
246.808	3.87
247.184	3.53
247.56	3.58
247.936	3.62
248.312	3.59
248.688	3.41
249.064	3.06
249.44	3.18
249.815	3
250.191	3.18
250.567	3.17
250.943	3.12
251.318	3.49
251.694	3.66
252.069	3.62
252.445	3.61
252.82	3.83
253.196	3.44
253.571	3.04
253.947	3.16
254.322	3.41
254.697	3.54
255.073	3.59
255.448	3.54
255.823	3.48
256.198	3.66
256.573	4.1
256.948	4.65
257.323	4.61
257.698	4.79
258.073	4.65
258.448	4.61
258.823	4.59
259.198	4.39
259.573	4.37
259.948	4.39
260.322	4.51
260.697	4.44
261.072	4.46
261.446	4.56
261.821	4.54
262.195	4.77
262.57	4.58
262.944	4.56
263.319	4.48
263.693	4.58
264.067	4.55
264.442	4.58
264.816	4.42
265.19	4.36
265.564	4.18
265.938	4.03
266.313	3.98
266.687	4.02
267.061	4.06
267.435	4.15
267.809	4.13
268.183	4
268.556	4.12
268.93	4.18
269.304	4.11
269.678	4.09
270.051	3.85
270.425	3.83
270.799	4.05
271.172	4.05
271.546	3.89
271.919	3.84
272.293	3.77
272.666	3.71
273.04	3.8
273.413	3.71
273.787	3.85
274.16	3.89
274.533	3.79
274.906	3.75
275.279	3.71
275.653	3.75
276.026	3.62
276.399	3.45
276.772	3.43
277.145	3.43
277.518	3.38
277.891	3.37
278.263	3.42
278.636	3.38
279.009	3.53
279.382	3.66
279.755	3.63
280.127	3.69
280.5	3.69
280.872	3.77
281.245	3.89
281.617	3.91
281.99	4
282.362	4
282.735	3.94
283.107	3.91
283.479	4.01
283.852	4.03
284.224	4.03
284.596	4.11
284.968	4.12
285.34	4.12
285.713	4.19
286.085	4.25
286.457	4.23
286.829	4.24
287.201	4.26
287.572	4.23
287.944	4.13
288.316	4.16
288.688	4.17
289.06	4.23
289.431	4.26
289.803	4.31
290.175	4.35
290.546	4.49
290.918	4.45
291.289	4.54
291.661	4.6
292.032	4.72
292.403	4.68
292.775	4.78
293.146	4.74
293.517	4.71
293.889	4.82
294.26	4.91
294.631	4.98
295.002	4.86
295.373	4.85
295.744	4.84
296.115	4.94
296.486	4.86
296.857	4.9
297.228	4.93
297.599	4.83
297.97	4.96
298.34	4.99
298.711	5.15
299.082	5.04
299.452	5.09
299.823	5.2
300.194	5.22
300.564	5.2
300.935	5.3
301.305	5.35
301.676	5.38
302.046	5.41
302.416	5.48
302.787	5.62
303.157	5.72
303.527	5.79
303.897	5.84
304.267	5.98
304.637	6.11
305.008	6.24
305.378	6.48
305.748	6.45
306.117	6.34
306.487	6.29
306.857	6.49
307.227	6.54
307.597	6.42
307.967	6.45
308.336	6.57
308.706	6.61
309.076	6.62
309.445	6.61
309.815	6.54
310.184	6.39
310.554	6.45
310.923	6.47
311.293	6.47
311.662	6.46
312.031	6.45
312.401	6.35
312.77	6.4
313.139	6.31
313.508	6.36
313.877	6.44
314.246	6.49
314.616	6.43
314.985	6.42
315.353	6.49
315.722	6.49
316.091	6.45
316.46	6.47
316.829	6.67
317.198	6.71
317.567	6.73
317.935	6.91
318.304	6.84
318.672	6.94
319.041	7.08
319.41	7.05
319.778	7.1
320.147	7.29
320.515	7.22
320.883	7.32
321.252	7.54
321.62	7.58
321.988	7.55
322.357	7.63
322.725	7.69
323.093	7.87
323.461	7.99
323.829	8.02
324.197	8.03
324.565	8.02
324.933	8.07
325.301	8.2
325.669	8.21
326.037	8.28
326.405	8.26
326.772	8.32
327.14	8.48
327.508	8.6
327.875	8.51
328.243	8.64
328.61	8.64
328.978	8.59
329.346	8.72
329.713	8.84
330.08	8.87
330.448	8.95
330.815	8.79
331.182	8.76
331.55	8.87
331.917	9.03
332.284	9.1
332.651	9.18
333.018	9.32
333.385	9.46
333.752	9.62
334.119	9.81
334.486	9.75
334.853	9.75
335.22	9.69
335.587	9.85
335.954	9.86
336.32	9.85
336.687	10.01
337.054	10.05
337.42	10.02
337.787	10.01
338.153	10.05
338.52	10.24
338.886	10.21
339.253	10.22
339.619	10.19
339.986	10.2
340.352	10.07
340.718	10.05
341.084	9.96
341.451	10.04
341.817	10.15
342.183	10.17
342.549	10.29
342.915	10.38
343.281	10.31
343.647	10.22
344.013	10.34
344.379	10.2
344.745	10.21
345.11	10.24
345.476	10.2
345.842	10.18
346.208	10.05
346.573	10.22
346.939	10.21
347.304	10.17
347.67	10.19
348.035	10.34
348.401	10.33
348.766	10.38
349.132	10.36
349.497	10.18
349.862	10.24
350.228	10.12
350.593	10.14
350.958	10.25
351.323	10.28
351.688	10.27
352.053	10.39
352.418	10.46
352.783	10.51
353.148	10.57
353.513	10.5
353.878	10.57
354.243	10.55
354.608	10.56
354.972	10.69
355.337	10.63
355.702	10.53
356.066	10.49
356.431	10.49
356.795	10.44
357.16	10.38
357.524	10.34
357.889	10.37
358.253	10.35
358.618	10.28
358.982	10.31
359.346	10.23
359.71	10.12
360.075	10.09
360.439	10.01
360.803	10.01
361.167	10.06
361.531	10.04
361.895	9.98
362.259	9.95
362.623	9.9
362.987	9.87
363.351	9.87
363.714	9.86
364.078	9.81
364.442	9.73
364.806	9.76
365.169	9.76
365.533	9.73
365.896	9.69
366.26	9.57
366.623	9.48
366.987	9.46
367.35	9.45
367.714	9.39
368.077	9.3
368.44	9.3
368.803	9.25
369.167	9.12
369.53	9.1
369.893	9.09
370.256	9.04
370.619	9.03
370.982	8.98
371.345	8.91
371.708	8.86
372.071	8.85
372.434	8.83
372.797	8.73
373.159	8.67
373.522	8.62
373.885	8.67
374.247	8.68
374.61	8.63
374.973	8.54
375.335	8.42
375.698	8.45
376.06	8.41
376.423	8.35
376.785	8.31
377.147	8.23
377.51	8.13
377.872	8.07
378.234	7.97
378.596	7.96
378.958	7.92
379.321	7.87
379.683	7.87
380.045	7.8
380.407	7.78
380.769	7.71
381.13	7.64
381.492	7.57
381.854	7.49
382.216	7.44
382.578	7.45
382.939	7.44
383.301	7.37
383.663	7.27
384.024	7.21
384.386	7.23
384.747	7.22
385.109	7.21
385.47	7.09
385.832	7.07
386.193	7.04
386.554	7
386.916	6.94
387.277	6.91
387.638	6.83
387.999	6.77
388.36	6.75
388.721	6.75
389.082	6.7
389.443	6.62
389.804	6.54
390.165	6.49
390.526	6.43
390.887	6.35
391.248	6.32
391.609	6.32
391.969	6.27
392.33	6.2
392.691	6.14
393.051	6.13
393.412	6.07
393.772	5.99
394.133	5.92
394.493	5.88
394.854	5.75
395.214	5.74
395.574	5.71
395.935	5.63
396.295	5.57
396.655	5.54
397.015	5.52
397.376	5.5
397.736	5.42
398.096	5.36
398.456	5.3
398.816	5.23
399.176	5.12
399.535	5.08
399.895	5.04
400.255	4.96
400.615	4.93
400.975	4.86
401.334	4.8
401.694	4.79
402.054	4.75
402.413	4.76
402.773	4.7
403.132	4.67
403.492	4.62
403.851	4.59
404.211	4.56
404.57	4.51
404.929	4.51
405.288	4.49
405.648	4.49
406.007	4.49
406.366	4.49
406.725	4.53
407.084	4.5
407.443	4.5
407.802	4.53
408.161	4.49
408.52	4.49
408.879	4.49
409.238	4.47
409.596	4.46
409.955	4.45
410.314	4.46
410.673	4.43
411.031	4.43
411.39	4.4
411.748	4.38
412.107	4.38
412.465	4.33
412.824	4.3
413.182	4.27
413.54	4.28
413.899	4.27
414.257	4.22
414.615	4.2
414.974	4.2
415.332	4.16
415.69	4.14
416.048	4.1
416.406	4.09
416.764	4.07
417.122	4.05
417.48	3.99
417.838	3.98
418.195	3.95
418.553	3.92
418.911	3.91
419.269	3.88
419.626	3.85
419.984	3.83
420.342	3.82
420.699	3.8
421.057	3.76
421.414	3.73
421.772	3.71
422.129	3.68
422.486	3.65
422.844	3.65
423.201	3.64
423.558	3.64
423.915	3.61
424.273	3.6
424.63	3.58
424.987	3.57
425.344	3.56
425.701	3.55
426.058	3.55
426.415	3.53
426.772	3.52
427.128	3.51
427.485	3.51
427.842	3.5
428.199	3.52
428.555	3.52
428.912	3.51
429.269	3.5
429.625	3.49
429.982	3.48
430.338	3.45
430.695	3.47
431.051	3.47
431.407	3.48
431.764	3.46
432.12	3.46
432.476	3.48
432.832	3.47
433.189	3.47
433.545	3.47
433.901	3.46
434.257	3.48
434.613	3.5
434.969	3.51
435.325	3.51
435.681	3.48
436.036	3.47
436.392	3.49
436.748	3.47
437.104	3.48
437.459	3.49
437.815	3.5
438.171	3.49
438.526	3.49
438.882	3.48
439.237	3.49
439.593	3.49
439.948	3.48
440.304	3.47
440.659	3.45
441.014	3.47
441.369	3.46
441.725	3.44
442.08	3.43
442.435	3.4
442.79	3.39
443.145	3.38
443.5	3.38
443.855	3.36
444.21	3.37
444.565	3.37
444.92	3.36
445.275	3.34
445.629	3.33
445.984	3.33
446.339	3.32
446.693	3.31
447.048	3.3
447.403	3.28
447.757	3.27
448.112	3.26
448.466	3.24
448.82	3.26
449.175	3.24
449.529	3.23
449.883	3.22
450.238	3.2
450.592	3.22
450.946	3.22
451.3	3.21
451.654	3.22
452.008	3.2
452.362	3.19
452.716	3.19
453.07	3.2
453.424	3.18
453.778	3.18
454.132	3.19
454.486	3.19
454.839	3.2
455.193	3.2
455.547	3.2
455.9	3.22
456.254	3.21
456.607	3.23
456.961	3.23
457.314	3.26
457.668	3.28
458.021	3.28
458.375	3.28
458.728	3.28
459.081	3.28
459.434	3.29
459.787	3.3
460.141	3.31
460.494	3.31
460.847	3.32
461.2	3.31
461.553	3.32
461.906	3.33
462.259	3.34
462.611	3.36
462.964	3.38
463.317	3.37
463.67	3.38
464.022	3.4
464.375	3.39
464.728	3.39
465.08	3.4
465.433	3.41
465.785	3.41
466.138	3.42
466.49	3.44
466.843	3.44
467.195	3.44
467.547	3.46
467.899	3.46
468.252	3.49
468.604	3.52
468.956	3.53
469.308	3.54
469.66	3.55
470.012	3.56
470.364	3.58
470.716	3.61
471.068	3.61
471.42	3.61
471.772	3.65
472.123	3.65
472.475	3.64
472.827	3.66
473.178	3.68
473.53	3.68
473.882	3.68
474.233	3.68
474.585	3.7
474.936	3.7
475.288	3.7
475.639	3.69
475.99	3.7
476.342	3.69
476.693	3.69
477.044	3.68
477.395	3.65
477.746	3.63
478.097	3.63
478.448	3.62
478.8	3.6
479.15	3.57
479.501	3.55
479.852	3.53
480.203	3.52
480.554	3.51
480.905	3.51
481.255	3.5
481.606	3.51
481.957	3.5
482.307	3.5
482.658	3.5
483.009	3.49
483.359	3.49
483.709	3.5
484.06	3.5
484.41	3.51
484.761	3.51
485.111	3.52
485.461	3.53
485.811	3.53
486.162	3.53
486.512	3.55
486.862	3.56
487.212	3.56
487.562	3.57
487.912	3.58
488.262	3.59
488.612	3.6
488.961	3.61
489.311	3.61
489.661	3.62
490.011	3.64
490.36	3.65
490.71	3.66
491.06	3.67
491.409	3.68
491.759	3.68
492.108	3.7
492.458	3.71
492.807	3.72
493.157	3.74
493.506	3.77
493.855	3.78
494.204	3.81
494.554	3.87
494.903	3.9
495.252	3.93
495.601	3.95
495.95	4
496.299	4.02
496.648	4.06
496.997	4.1
497.346	4.15
497.695	4.18
498.043	4.22
498.392	4.24
498.741	4.27
499.09	4.32
499.438	4.39
499.787	4.44
500.135	4.5
500.484	4.57
500.832	4.63
501.181	4.71
501.529	4.77
501.878	4.85
502.226	4.92
502.574	4.99
502.923	5.07
503.271	5.12
503.619	5.21
503.967	5.32
504.315	5.38
504.663	5.46
505.011	5.57
505.359	5.67
505.707	5.78
506.055	5.89
506.403	5.99
506.751	6.05
507.098	6.15
507.446	6.26
507.794	6.32
508.141	6.4
508.489	6.49
508.837	6.59
509.184	6.69
509.531	6.78
509.879	6.92
510.226	7.04
510.574	7.14
510.921	7.23
511.268	7.32
511.616	7.43
511.963	7.56
512.31	7.65
512.657	7.76
513.004	7.89
513.351	8.05
513.698	8.18
514.045	8.31
514.392	8.44
514.739	8.59
515.086	8.74
515.432	8.89
515.779	9.04
516.126	9.19
516.473	9.31
516.819	9.45
517.166	9.56
517.512	9.68
517.859	9.83
518.205	9.99
518.552	10.13
518.898	10.26
519.245	10.37
519.591	10.52
519.937	10.66
520.283	10.8
520.629	10.96
520.976	11.11
521.322	11.32
521.668	11.48
522.014	11.65
522.36	11.86
522.706	12.04
523.052	12.26
523.398	12.52
523.743	12.76
524.089	12.98
524.435	13.21
524.781	13.43
525.126	13.65
525.472	13.84
525.817	14.03
526.163	14.2
526.509	14.37
526.854	14.54
527.199	14.71
527.545	14.85
527.89	14.98
528.235	15.15
528.581	15.3
528.926	15.47
529.271	15.64
529.616	15.8
529.961	15.97
530.306	16.14
530.651	16.28
530.996	16.47
531.341	16.66
531.686	16.86
532.031	17.09
532.376	17.29
532.721	17.51
533.065	17.71
533.41	17.95
533.755	18.19
534.099	18.43
534.444	18.67
534.788	18.91
535.133	19.13
535.477	19.38
535.822	19.64
536.166	19.91
536.51	20.17
536.855	20.49
537.199	20.84
537.543	21.16
537.887	21.51
538.231	21.86
538.576	22.21
538.92	22.52
539.264	22.81
539.608	23.11
539.951	23.43
540.295	23.71
540.639	24.01
540.983	24.24
541.327	24.48
541.671	24.74
542.014	25
542.358	25.29
542.701	25.5
543.045	25.77
543.389	26.03
543.732	26.32
544.075	26.57
544.419	26.83
544.762	27.11
545.105	27.41
545.449	27.71
545.792	28.03
546.135	28.37
546.478	28.74
546.821	29.1
547.165	29.44
547.508	29.81
547.851	30.17
548.194	30.55
548.536	30.95
548.879	31.34
549.222	31.73
549.565	32.13
549.908	32.59
550.25	32.96
550.593	33.32
550.936	33.67
551.278	34.07
551.621	34.46
551.963	34.87
552.306	35.25
552.648	35.59
552.991	35.93
553.333	36.29
553.675	36.66
554.017	36.98
554.36	37.3
554.702	37.63
555.044	37.95
555.386	38.31
555.728	38.59
556.07	38.94
556.412	39.25
556.754	39.57
557.096	39.91
557.438	40.21
557.78	40.54
558.121	40.97
558.463	41.3
558.805	41.65
559.147	42.01
559.488	42.31
559.83	42.65
560.171	42.96
560.513	43.26
560.854	43.53
561.196	43.79
561.537	44.07
561.878	44.42
562.22	44.75
562.561	45.02
562.902	45.27
563.243	45.53
563.584	45.86
563.925	46.11
564.266	46.31
564.607	46.55
564.948	46.82
565.289	46.98
565.63	47.18
565.971	47.38
566.312	47.54
566.653	47.75
566.993	47.95
567.334	48.18
567.675	48.37
568.015	48.58
568.356	48.83
568.696	49.08
569.037	49.28
569.377	49.43
569.718	49.65
570.058	49.87
570.398	50.04
570.739	50.19
571.079	50.35
571.419	50.62
571.759	50.86
572.099	50.99
572.439	51.24
572.779	51.43
573.119	51.63
573.459	51.84
573.799	52
574.139	52.2
574.479	52.39
574.819	52.57
575.158	52.71
575.498	52.84
575.838	52.94
576.177	53.06
576.517	53.22
576.856	53.39
577.196	53.59
577.535	53.79
577.875	53.98
578.214	54.19
578.553	54.34
578.893	54.42
579.232	54.66
579.571	54.81
579.91	54.93
580.25	55.06
580.589	55.15
580.928	55.27
581.267	55.37
581.606	55.45
581.945	55.65
582.283	55.78
582.622	55.96
582.961	56.11
583.3	56.26
583.639	56.43
583.977	56.56
584.316	56.67
584.654	56.85
584.993	56.96
585.332	57.08
585.67	57.12
586.008	57.26
586.347	57.31
586.685	57.39
587.024	57.55
587.362	57.66
587.7	57.83
588.038	57.98
588.376	58.14
588.715	58.3
589.053	58.4
589.391	58.52
589.729	58.57
590.067	58.62
590.404	58.74
590.742	58.81
591.08	58.86
591.418	58.93
591.756	58.95
592.093	59
592.431	59.03
592.769	59.13
593.106	59.2
593.444	59.25
593.781	59.35
594.119	59.42
594.456	59.46
594.793	59.53
595.131	59.56
595.468	59.59
595.805	59.65
596.143	59.77
596.48	59.79
596.817	59.94
597.154	60.08
597.491	60.11
597.828	60.24
598.165	60.35
598.502	60.48
598.839	60.61
599.176	60.73
599.512	60.87
599.849	60.95
600.186	61.04
600.523	61.21
600.859	61.29
601.196	61.31
601.532	61.43
601.869	61.51
602.205	61.6
602.542	61.75
602.878	61.79
603.215	61.75
603.551	61.81
603.887	61.77
604.223	61.76
604.56	61.85
604.896	61.84
605.232	61.87
605.568	61.84
605.904	61.82
606.24	61.92
606.576	61.89
606.912	61.91
607.248	61.97
607.583	61.97
607.919	62.07
608.255	62.11
608.591	62.2
608.926	62.18
609.262	62.27
609.597	62.24
609.933	62.26
610.268	62.29
610.604	62.42
610.939	62.44
611.275	62.45
611.61	62.47
611.945	62.53
612.281	62.59
612.616	62.69
612.951	62.83
613.286	62.77
613.621	62.9
613.956	62.98
614.291	63.09
614.626	63.11
614.961	63.04
615.296	63.14
615.631	63.13
615.966	63.26
616.3	63.24
616.635	63.35
616.97	63.33
617.304	63.39
617.639	63.38
617.973	63.42
618.308	63.57
618.642	63.59
618.977	63.65
619.311	63.71
619.646	63.74
619.98	63.72
620.314	63.81
620.648	63.76
620.983	63.8
621.317	63.76
621.651	63.93
621.985	64.06
622.319	64.06
622.653	64.09
622.987	64.09
623.321	64.08
623.655	64.05
623.988	64.17
624.322	64.22
624.656	64.23
624.99	64.31
625.323	64.36
625.657	64.36
625.99	64.3
626.324	64.27
626.657	64.27
626.991	64.31
627.324	64.36
627.658	64.42
627.991	64.45
628.324	64.46
628.657	64.39
628.991	64.36
629.324	64.43
629.657	64.38
629.99	64.35
630.323	64.43
630.656	64.42
630.989	64.39
631.322	64.43
631.655	64.42
631.987	64.46
632.32	64.33
632.653	64.39
632.986	64.52
633.318	64.59
633.651	64.65
633.984	64.68
634.316	64.66
634.649	64.78
634.981	64.76
635.313	64.79
635.646	64.87
635.978	64.94
636.31	64.98
636.643	65.04
636.975	65.14
637.307	65.15
637.639	65.19
637.971	65.24
638.303	65.3
638.635	65.37
638.967	65.43
639.299	65.67
639.631	65.7
639.963	65.66
640.295	65.68
640.626	65.62
640.958	65.63
641.29	65.69
641.621	65.56
641.953	65.61
642.285	65.65
642.616	65.55
642.948	65.54
643.279	65.48
643.61	65.53
643.942	65.46
644.273	65.47
644.604	65.48
644.936	65.55
645.267	65.43
645.598	65.34
645.929	65.31
646.26	65.25
646.591	65.25
646.922	65.34
647.253	65.39
647.584	65.47
647.915	65.48
648.245	65.45
648.576	65.49
648.907	65.44
649.238	65.44
649.568	65.49
649.899	65.41
650.229	65.47
650.56	65.51
650.89	65.55
651.221	65.55
651.551	65.44
651.882	65.47
652.212	65.54
652.542	65.59
652.872	65.5
653.203	65.54
653.533	65.61
653.863	65.57
654.193	65.36
654.523	65.35
654.853	65.33
655.183	65.31
655.513	65.26
655.843	65.4
656.172	65.44
656.502	65.52
656.832	65.62
657.162	65.7
657.491	65.75
657.821	65.77
658.15	65.83
658.48	65.98
658.809	65.94
659.139	65.88
659.468	65.93
659.798	66.02
660.127	66.01
660.456	65.96
660.785	65.99
661.115	66.08
661.444	66.04
661.773	66.12
662.102	66.17
662.431	66.3
662.76	66.17
663.089	66.19
663.418	66.12
663.747	65.98
664.076	65.91
664.404	65.95
664.733	66
665.062	65.99
665.39	65.87
665.719	65.73
666.048	65.76
666.376	65.72
666.705	65.73
667.033	65.74
667.362	65.84
