Data from BA28468_Reflection_00009.txt Node
Date: Mon Nov 18 15:15:00 EST 2019
User: vgr7
Spectrometer: USB2G7710
Scans to average: 3
Trigger mode: 4
Integration Time (sec): 2.000000E-2
Electric dark correction enabled: true
Boxcar width: 10
XAxis mode: Wavelengths
Number of Pixels in Spectrum: 2048
>>>>>Begin Spectral Data<<<<<
177.721	-44.79
178.105	-3471.43
178.488	51.94
178.871	53.97
179.254	68.46
179.636	7.89
180.019	-6.55
180.402	45.45
180.785	29.16
181.168	-9.12
181.55	87.87
181.933	-264.71
182.316	-183.12
182.698	-1.87
183.081	-32.85
183.463	23.08
183.846	-1823.08
184.228	-184.77
184.611	-18.58
184.993	10.87
185.376	11.75
185.758	24.52
186.14	10.4
186.522	42.43
186.904	51.83
187.287	21.68
187.669	10.31
188.051	28.29
188.433	37.1
188.815	37.05
189.197	40.44
189.579	39.01
189.961	38.32
190.342	39.7
190.724	35.64
191.106	32.28
191.488	42.91
191.869	53.57
192.251	49.72
192.633	47.15
193.014	45.73
193.396	39.11
193.777	30.88
194.159	38.72
194.54	37.91
194.922	38.56
195.303	48.95
195.684	52.27
196.065	46.92
196.447	39.61
196.828	41.76
197.209	43.49
197.59	31.42
197.971	32.06
198.352	33.26
198.733	41.2
199.114	49.99
199.495	30.52
199.876	27.5
200.257	32.88
200.638	38.97
201.018	42.32
201.399	49.39
201.78	60.21
202.16	50.25
202.541	35.73
202.922	32.88
203.302	36.32
203.683	38.41
204.063	34.62
204.444	34.95
204.824	27.96
205.204	22.34
205.585	28.65
205.965	30.43
206.345	32.57
206.725	22.66
207.106	18.12
207.486	22.85
207.866	36.72
208.246	38.33
208.626	40.35
209.006	42.2
209.386	38.06
209.766	29.29
210.145	39.76
210.525	71.03
210.905	67.83
211.285	56.98
211.664	57.11
212.044	60
212.424	57.54
212.803	48.78
213.183	74.65
213.562	67.78
213.942	78.16
214.321	81.46
214.701	64.87
215.08	55.91
215.459	67.6
215.838	60.74
216.218	47.91
216.597	52.05
216.976	54.04
217.355	50.49
217.734	54.73
218.113	50.55
218.492	39.14
218.871	32.98
219.25	36.5
219.629	37.27
220.008	41.98
220.387	53.51
220.766	58.24
221.144	48.84
221.523	53.57
221.902	55.23
222.28	48.65
222.659	63.05
223.037	69.02
223.416	60.38
223.794	55.65
224.173	58.61
224.551	45.35
224.929	39.39
225.308	36.56
225.686	32.75
226.064	33.84
226.442	34.88
226.821	35.06
227.199	32.2
227.577	28.45
227.955	27.1
228.333	20.76
228.711	21.32
229.089	21.5
229.467	18.08
229.845	13.53
230.222	14.35
230.6	12.96
230.978	10.39
231.356	10.62
231.733	12.25
232.111	12.43
232.488	14.51
232.866	14.43
233.243	15.58
233.621	16.75
233.998	17.03
234.376	15.15
234.753	14.41
235.13	13.54
235.508	14.23
235.885	14.28
236.262	13.56
236.639	11.77
237.016	10.55
237.393	11.02
237.77	12.29
238.147	12.28
238.524	11.29
238.901	11.36
239.278	10.83
239.655	10.04
240.032	9.71
240.409	9.02
240.785	8.7
241.162	7.79
241.539	7.46
241.915	7.1
242.292	7.29
242.668	7.28
243.045	7.34
243.421	7.35
243.798	7.09
244.174	7.11
244.551	7.02
244.927	6.96
245.303	6.99
245.679	6.9
246.056	6.68
246.432	6.46
246.808	6.43
247.184	6.29
247.56	6.3
247.936	6.26
248.312	6.39
248.688	6.37
249.064	6.34
249.44	6.17
249.815	5.95
250.191	5.83
250.567	5.79
250.943	5.62
251.318	5.69
251.694	5.54
252.069	5.42
252.445	5.65
252.82	5.62
253.196	5.51
253.571	5.33
253.947	5.31
254.322	5.6
254.697	5.68
255.073	5.56
255.448	5.19
255.823	4.97
256.198	4.86
256.573	4.88
256.948	4.95
257.323	5.18
257.698	5.15
258.073	5.18
258.448	5.02
258.823	5.18
259.198	4.93
259.573	5.01
259.948	5.14
260.322	5.14
260.697	5.13
261.072	5.1
261.446	5.04
261.821	5.06
262.195	5.07
262.57	4.92
262.944	4.81
263.319	4.89
263.693	5.13
264.067	5.14
264.442	5.28
264.816	5.38
265.19	5.29
265.564	5.37
265.938	5.22
266.313	5.34
266.687	5.21
267.061	5.4
267.435	5.41
267.809	5.35
268.183	5.26
268.556	5.04
268.93	5.12
269.304	5.18
269.678	5.26
270.051	5.21
270.425	5.26
270.799	5.44
271.172	5.45
271.546	5.19
271.919	5.02
272.293	4.84
272.666	4.8
273.04	4.75
273.413	4.74
273.787	4.9
274.16	4.86
274.533	4.83
274.906	4.89
275.279	4.75
275.653	4.74
276.026	4.72
276.399	4.8
276.772	4.78
277.145	4.55
277.518	4.29
277.891	4.24
278.263	4.24
278.636	4.28
279.009	4.23
279.382	4.43
279.755	4.47
280.127	4.47
280.5	4.58
280.872	4.73
281.245	4.62
281.617	4.72
281.99	4.79
282.362	4.95
282.735	4.77
283.107	4.78
283.479	4.74
283.852	4.78
284.224	4.8
284.596	4.75
284.968	4.96
285.34	5.21
285.713	5.2
286.085	5.19
286.457	5.16
286.829	5.15
287.201	5.06
287.572	5.09
287.944	5.1
288.316	4.95
288.688	4.89
289.06	4.94
289.431	4.83
289.803	4.84
290.175	4.82
290.546	5.06
290.918	5.11
291.289	5.23
291.661	5.24
292.032	5.29
292.403	5.42
292.775	5.35
293.146	5.21
293.517	5.36
293.889	5.43
294.26	5.55
294.631	5.63
295.002	5.66
295.373	5.7
295.744	5.79
296.115	5.97
296.486	5.84
296.857	5.9
297.228	5.98
297.599	5.87
297.97	5.76
298.34	5.64
298.711	5.75
299.082	5.75
299.452	5.83
299.823	5.86
300.194	5.83
300.564	5.76
300.935	5.84
301.305	5.77
301.676	5.83
302.046	5.73
302.416	5.85
302.787	6.07
303.157	6.06
303.527	6.05
303.897	6.1
304.267	6.25
304.637	6.38
305.008	6.44
305.378	6.68
305.748	6.96
306.117	7.04
306.487	6.96
306.857	7
307.227	7.17
307.597	7.29
307.967	7.4
308.336	7.58
308.706	7.57
309.076	7.67
309.445	7.66
309.815	7.74
310.184	7.61
310.554	7.58
310.923	7.84
311.293	7.94
311.662	7.79
312.031	7.91
312.401	7.94
312.77	8.09
313.139	8.16
313.508	8.22
313.877	8.3
314.246	8.39
314.616	8.43
314.985	8.41
315.353	8.44
315.722	8.51
316.091	8.72
316.46	8.94
316.829	8.97
317.198	9.03
317.567	9.11
317.935	9.21
318.304	9.32
318.672	9.2
319.041	9.28
319.41	9.43
319.778	9.37
320.147	9.49
320.515	9.31
320.883	9.33
321.252	9.28
321.62	9.25
321.988	9.42
322.357	9.5
322.725	9.55
323.093	9.68
323.461	9.66
323.829	9.64
324.197	9.68
324.565	9.74
324.933	9.92
325.301	9.95
325.669	10.15
326.037	10.12
326.405	10.22
326.772	10.22
327.14	10.4
327.508	10.58
327.875	10.49
328.243	10.72
328.61	10.69
328.978	10.75
329.346	11.01
329.713	10.98
330.08	10.97
330.448	11.01
330.815	10.87
331.182	10.95
331.55	10.95
331.917	11.03
332.284	11.22
332.651	11.14
333.018	11.29
333.385	11.24
333.752	11.33
334.119	11.36
334.486	11.3
334.853	11.22
335.22	11.14
335.587	11.28
335.954	11.15
336.32	11.28
336.687	11.44
337.054	11.28
337.42	11.41
337.787	11.57
338.153	11.61
338.52	11.75
338.886	11.75
339.253	11.78
339.619	11.72
339.986	11.53
340.352	11.56
340.718	11.72
341.084	11.82
341.451	11.84
341.817	11.87
342.183	11.96
342.549	12.04
342.915	12.14
343.281	12.09
343.647	12.21
344.013	12.27
344.379	12.21
344.745	12.31
345.11	12.28
345.476	12.39
345.842	12.31
346.208	12.35
346.573	12.46
346.939	12.52
347.304	12.49
347.67	12.53
348.035	12.5
348.401	12.32
348.766	12.22
349.132	12.23
349.497	12.19
349.862	12.22
350.228	12.3
350.593	12.33
350.958	12.39
351.323	12.43
351.688	12.44
352.053	12.52
352.418	12.42
352.783	12.45
353.148	12.38
353.513	12.4
353.878	12.39
354.243	12.46
354.608	12.45
354.972	12.45
355.337	12.54
355.702	12.63
356.066	12.68
356.431	12.77
356.795	12.74
357.16	12.72
357.524	12.69
357.889	12.61
358.253	12.68
358.618	12.66
358.982	12.6
359.346	12.55
359.71	12.43
360.075	12.54
360.439	12.48
360.803	12.38
361.167	12.39
361.531	12.36
361.895	12.25
362.259	12.19
362.623	12.22
362.987	12.22
363.351	12.14
363.714	12.1
364.078	12.09
364.442	12.03
364.806	11.99
365.169	11.99
365.533	11.95
365.896	11.77
366.26	11.73
366.623	11.63
366.987	11.57
367.35	11.61
367.714	11.45
368.077	11.42
368.44	11.41
368.803	11.32
369.167	11.27
369.53	11.22
369.893	11.24
370.256	11.14
370.619	11
370.982	10.94
371.345	10.82
371.708	10.73
372.071	10.67
372.434	10.64
372.797	10.5
373.159	10.4
373.522	10.42
373.885	10.34
374.247	10.38
374.61	10.32
374.973	10.21
375.335	10.14
375.698	10.08
376.06	9.99
376.423	9.92
376.785	9.87
377.147	9.79
377.51	9.73
377.872	9.7
378.234	9.67
378.596	9.64
378.958	9.62
379.321	9.56
379.683	9.55
380.045	9.51
380.407	9.45
380.769	9.39
381.13	9.3
381.492	9.2
381.854	9.08
382.216	9.04
382.578	9.03
382.939	8.97
383.301	8.88
383.663	8.85
384.024	8.87
384.386	8.85
384.747	8.83
385.109	8.74
385.47	8.66
385.832	8.6
386.193	8.55
386.554	8.52
386.916	8.43
387.277	8.38
387.638	8.28
387.999	8.26
388.36	8.24
388.721	8.19
389.082	8.2
389.443	8.12
389.804	8.03
390.165	7.94
390.526	7.88
390.887	7.81
391.248	7.77
391.609	7.65
391.969	7.56
392.33	7.48
392.691	7.42
393.051	7.4
393.412	7.36
393.772	7.28
394.133	7.22
394.493	7.16
394.854	7.06
395.214	7
395.574	6.96
395.935	6.89
396.295	6.85
396.655	6.78
397.015	6.73
397.376	6.69
397.736	6.67
398.096	6.62
398.456	6.6
398.816	6.53
399.176	6.5
399.535	6.45
399.895	6.41
400.255	6.37
400.615	6.32
400.975	6.27
401.334	6.23
401.694	6.18
402.054	6.17
402.413	6.14
402.773	6.11
403.132	6.06
403.492	6.02
403.851	5.99
404.211	5.96
404.57	5.95
404.929	5.91
405.288	5.86
405.648	5.83
406.007	5.81
406.366	5.8
406.725	5.78
407.084	5.75
407.443	5.74
407.802	5.74
408.161	5.69
408.52	5.66
408.879	5.62
409.238	5.58
409.596	5.56
409.955	5.58
410.314	5.55
410.673	5.52
411.031	5.51
411.39	5.47
411.748	5.45
412.107	5.44
412.465	5.42
412.824	5.39
413.182	5.35
413.54	5.32
413.899	5.28
414.257	5.24
414.615	5.2
414.974	5.18
415.332	5.14
415.69	5.09
416.048	5.06
416.406	5.06
416.764	5.03
417.122	5
417.48	4.96
417.838	4.95
418.195	4.92
418.553	4.91
418.911	4.91
419.269	4.88
419.626	4.87
419.984	4.86
420.342	4.85
420.699	4.83
421.057	4.81
421.414	4.79
421.772	4.77
422.129	4.76
422.486	4.73
422.844	4.72
423.201	4.69
423.558	4.68
423.915	4.67
424.273	4.67
424.63	4.65
424.987	4.62
425.344	4.61
425.701	4.6
426.058	4.57
426.415	4.55
426.772	4.53
427.128	4.5
427.485	4.47
427.842	4.45
428.199	4.45
428.555	4.43
428.912	4.42
429.269	4.43
429.625	4.42
429.982	4.42
430.338	4.41
430.695	4.43
431.051	4.44
431.407	4.42
431.764	4.4
432.12	4.41
432.476	4.42
432.832	4.41
433.189	4.41
433.545	4.43
433.901	4.42
434.257	4.42
434.613	4.42
434.969	4.42
435.325	4.41
435.681	4.41
436.036	4.43
436.392	4.41
436.748	4.4
437.104	4.39
437.459	4.38
437.815	4.37
438.171	4.34
438.526	4.33
438.882	4.34
439.237	4.36
439.593	4.34
439.948	4.33
440.304	4.33
440.659	4.32
441.014	4.32
441.369	4.29
441.725	4.28
442.08	4.27
442.435	4.26
442.79	4.25
443.145	4.24
443.5	4.21
443.855	4.21
444.21	4.21
444.565	4.2
444.92	4.21
445.275	4.18
445.629	4.18
445.984	4.16
446.339	4.15
446.693	4.1
447.048	4.1
447.403	4.09
447.757	4.08
448.112	4.06
448.466	4.03
448.82	4.04
449.175	4.04
449.529	4.03
449.883	4.01
450.238	4
450.592	4.01
450.946	4
451.3	4
451.654	3.99
452.008	3.98
452.362	3.96
452.716	3.97
453.07	3.98
453.424	3.99
453.778	3.98
454.132	3.98
454.486	3.99
454.839	4
455.193	4
455.547	4.01
455.9	4.04
456.254	4.05
456.607	4.05
456.961	4.05
457.314	4.05
457.668	4.05
458.021	4.03
458.375	4.06
458.728	4.07
459.081	4.07
459.434	4.06
459.787	4.08
460.141	4.09
460.494	4.1
460.847	4.09
461.2	4.11
461.553	4.13
461.906	4.14
462.259	4.15
462.611	4.15
462.964	4.15
463.317	4.14
463.67	4.15
464.022	4.17
464.375	4.18
464.728	4.2
465.08	4.22
465.433	4.25
465.785	4.24
466.138	4.24
466.49	4.27
466.843	4.28
467.195	4.29
467.547	4.33
467.899	4.34
468.252	4.35
468.604	4.35
468.956	4.36
469.308	4.35
469.66	4.35
470.012	4.39
470.364	4.43
470.716	4.45
471.068	4.45
471.42	4.45
471.772	4.49
472.123	4.51
472.475	4.52
472.827	4.51
473.178	4.52
473.53	4.53
473.882	4.52
474.233	4.52
474.585	4.5
474.936	4.49
475.288	4.47
475.639	4.49
475.99	4.49
476.342	4.5
476.693	4.5
477.044	4.49
477.395	4.48
477.746	4.45
478.097	4.43
478.448	4.4
478.8	4.39
479.15	4.34
479.501	4.31
479.852	4.31
480.203	4.31
480.554	4.31
480.905	4.32
481.255	4.31
481.606	4.32
481.957	4.32
482.307	4.32
482.658	4.32
483.009	4.32
483.359	4.31
483.709	4.3
484.06	4.3
484.41	4.31
484.761	4.31
485.111	4.31
485.461	4.33
485.811	4.34
486.162	4.35
486.512	4.37
486.862	4.38
487.212	4.38
487.562	4.39
487.912	4.4
488.262	4.4
488.612	4.4
488.961	4.41
489.311	4.42
489.661	4.42
490.011	4.43
490.36	4.44
490.71	4.47
491.06	4.48
491.409	4.49
491.759	4.5
492.108	4.5
492.458	4.51
492.807	4.52
493.157	4.55
493.506	4.55
493.855	4.56
494.204	4.57
494.554	4.59
494.903	4.6
495.252	4.62
495.601	4.64
495.95	4.68
496.299	4.72
496.648	4.76
496.997	4.8
497.346	4.85
497.695	4.88
498.043	4.92
498.392	4.96
498.741	5.02
499.09	5.04
499.438	5.12
499.787	5.18
500.135	5.24
500.484	5.3
500.832	5.36
501.181	5.44
501.529	5.49
501.878	5.56
502.226	5.64
502.574	5.7
502.923	5.79
503.271	5.84
503.619	5.91
503.967	5.99
504.315	6.08
504.663	6.15
505.011	6.23
505.359	6.31
505.707	6.41
506.055	6.48
506.403	6.59
506.751	6.67
507.098	6.75
507.446	6.82
507.794	6.9
508.141	7
508.489	7.07
508.837	7.18
509.184	7.28
509.531	7.35
509.879	7.46
510.226	7.58
510.574	7.67
510.921	7.76
511.268	7.86
511.616	7.94
511.963	8.03
512.31	8.13
512.657	8.22
513.004	8.31
513.351	8.42
513.698	8.55
514.045	8.67
514.392	8.79
514.739	8.92
515.086	9.05
515.432	9.16
515.779	9.27
516.126	9.38
516.473	9.52
516.819	9.65
517.166	9.75
517.512	9.84
517.859	9.94
518.205	10.03
518.552	10.12
518.898	10.22
519.245	10.31
519.591	10.43
519.937	10.54
520.283	10.66
520.629	10.78
520.976	10.9
521.322	11.04
521.668	11.17
522.014	11.32
522.36	11.48
522.706	11.63
523.052	11.82
523.398	12.01
523.743	12.22
524.089	12.4
524.435	12.57
524.781	12.76
525.126	12.94
525.472	13.12
525.817	13.28
526.163	13.43
526.509	13.58
526.854	13.68
527.199	13.82
527.545	13.94
527.89	14.05
528.235	14.17
528.581	14.31
528.926	14.44
529.271	14.57
529.616	14.7
529.961	14.85
530.306	14.99
530.651	15.14
530.996	15.28
531.341	15.46
531.686	15.63
532.031	15.8
532.376	15.97
532.721	16.16
533.065	16.33
533.41	16.54
533.755	16.73
534.099	16.97
534.444	17.2
534.788	17.42
535.133	17.65
535.477	17.88
535.822	18.1
536.166	18.33
536.51	18.6
536.855	18.87
537.199	19.19
537.543	19.49
537.887	19.79
538.231	20.08
538.576	20.4
538.92	20.74
539.264	21.04
539.608	21.34
539.951	21.58
540.295	21.86
540.639	22.11
540.983	22.38
541.327	22.6
541.671	22.83
542.014	23.03
542.358	23.28
542.701	23.5
543.045	23.74
543.389	24.01
543.732	24.26
544.075	24.53
544.419	24.76
544.762	25.03
545.105	25.3
545.449	25.59
545.792	25.86
546.135	26.16
546.478	26.47
546.821	26.79
547.165	27.16
547.508	27.49
547.851	27.84
548.194	28.17
548.536	28.57
548.879	28.95
549.222	29.38
549.565	29.77
549.908	30.12
550.25	30.51
550.593	30.91
550.936	31.29
551.278	31.65
551.621	32.01
551.963	32.41
552.306	32.76
552.648	33.14
552.991	33.48
553.333	33.79
553.675	34.17
554.017	34.51
554.36	34.86
554.702	35.2
555.044	35.58
555.386	35.9
555.728	36.21
556.07	36.57
556.412	36.88
556.754	37.18
557.096	37.52
557.438	37.82
557.78	38.12
558.121	38.4
558.463	38.72
558.805	39.05
559.147	39.34
559.488	39.66
559.83	40.02
560.171	40.35
560.513	40.67
560.854	40.93
561.196	41.24
561.537	41.57
561.878	41.84
562.22	42.09
562.561	42.35
562.902	42.61
563.243	42.84
563.584	43.11
563.925	43.37
564.266	43.65
564.607	43.92
564.948	44.16
565.289	44.42
565.63	44.71
565.971	44.97
566.312	45.16
566.653	45.35
566.993	45.58
567.334	45.77
567.675	46.02
568.015	46.25
568.356	46.47
568.696	46.63
569.037	46.88
569.377	47.11
569.718	47.31
570.058	47.53
570.398	47.76
570.739	47.94
571.079	48.14
571.419	48.38
571.759	48.6
572.099	48.79
572.439	48.99
572.779	49.09
573.119	49.28
573.459	49.5
573.799	49.69
574.139	49.86
574.479	50.05
574.819	50.17
575.158	50.36
575.498	50.53
575.838	50.73
576.177	50.89
576.517	50.98
576.856	51.19
577.196	51.36
577.535	51.53
577.875	51.78
578.214	51.97
578.553	52.11
578.893	52.23
579.232	52.31
579.571	52.46
579.91	52.57
580.25	52.63
580.589	52.75
580.928	52.89
581.267	52.95
581.606	53.05
581.945	53.22
582.283	53.27
582.622	53.41
582.961	53.48
583.3	53.57
583.639	53.76
583.977	53.87
584.316	53.92
584.654	54
584.993	54.07
585.332	54.19
585.67	54.29
586.008	54.38
586.347	54.5
586.685	54.68
587.024	54.83
587.362	54.97
587.7	55.04
588.038	55.2
588.376	55.39
588.715	55.48
589.053	55.52
589.391	55.64
589.729	55.7
590.067	55.8
590.404	55.96
590.742	56.04
591.08	56.01
591.418	56.14
591.756	56.21
592.093	56.26
592.431	56.39
592.769	56.5
593.106	56.55
593.444	56.57
593.781	56.67
594.119	56.72
594.456	56.8
594.793	56.91
595.131	56.95
595.468	57.02
595.805	57.14
596.143	57.24
596.48	57.26
596.817	57.35
597.154	57.48
597.491	57.46
597.828	57.55
598.165	57.67
598.502	57.73
598.839	57.74
599.176	57.83
599.512	57.85
599.849	57.84
600.186	57.83
600.523	58
600.859	57.94
601.196	58.09
601.532	58.14
601.869	58.21
602.205	58.27
602.542	58.31
602.878	58.3
603.215	58.26
603.551	58.34
603.887	58.34
604.223	58.3
604.56	58.35
604.896	58.3
605.232	58.33
605.568	58.3
605.904	58.39
606.24	58.5
606.576	58.53
606.912	58.53
607.248	58.71
607.583	58.7
607.919	58.77
608.255	58.77
608.591	58.84
608.926	58.83
609.262	58.88
609.597	58.91
609.933	58.97
610.268	58.99
610.604	59.06
610.939	59.17
611.275	59.22
611.61	59.25
611.945	59.39
612.281	59.5
612.616	59.58
612.951	59.65
613.286	59.61
613.621	59.6
613.956	59.68
614.291	59.66
614.626	59.78
614.961	59.87
615.296	59.95
615.631	59.96
615.966	60.05
616.3	60.08
616.635	60
616.97	59.96
617.304	60.08
617.639	60.02
617.973	59.97
618.308	59.96
618.642	60.05
618.977	59.99
619.311	59.98
619.646	60.09
619.98	60.05
620.314	60.2
620.648	60.12
620.983	60.16
621.317	60.16
621.651	60.06
621.985	60.01
622.319	60.01
622.653	60
622.987	60.05
623.321	60
623.655	60.03
623.988	60.08
624.322	60.08
624.656	60.14
624.99	60.26
625.323	60.27
625.657	60.3
625.99	60.38
626.324	60.34
626.657	60.3
626.991	60.37
627.324	60.27
627.658	60.36
627.991	60.45
628.324	60.54
628.657	60.62
628.991	60.66
629.324	60.65
629.657	60.74
629.99	60.66
630.323	60.67
630.656	60.72
630.989	60.62
631.322	60.61
631.655	60.74
631.987	60.7
632.32	60.7
632.653	60.76
632.986	60.74
633.318	60.8
633.651	60.9
633.984	60.91
634.316	60.96
634.649	61.05
634.981	61.07
635.313	61
635.646	61.01
635.978	60.99
636.31	60.96
636.643	61
636.975	61.02
637.307	61.12
637.639	61.2
637.971	61.44
638.303	61.63
638.635	61.56
638.967	61.56
639.299	61.61
639.631	61.58
639.963	61.6
640.295	61.67
640.626	61.62
640.958	61.63
641.29	61.56
641.621	61.61
641.953	61.57
642.285	61.66
642.616	61.68
642.948	61.8
643.279	61.89
643.61	61.74
643.942	61.88
644.273	61.93
644.604	61.85
644.936	61.74
645.267	61.56
645.598	61.45
645.929	61.41
646.26	61.49
646.591	61.53
646.922	61.59
647.253	61.55
647.584	61.53
647.915	61.58
648.245	61.66
648.576	61.67
648.907	61.75
649.238	61.65
649.568	61.67
649.899	61.66
650.229	61.69
650.56	61.76
650.89	61.81
651.221	61.82
651.551	61.8
651.882	61.77
652.212	61.76
652.542	61.97
652.872	62.07
653.203	61.97
653.533	62.06
653.863	62.1
654.193	62.09
654.523	62.2
654.853	62.12
655.183	62.11
655.513	62.1
655.843	62.05
656.172	62.11
656.502	62.16
656.832	62.25
657.162	62.31
657.491	62.38
657.821	62.38
658.15	62.35
658.48	62.3
658.809	62.36
659.139	62.38
659.468	62.37
659.798	62.35
660.127	62.48
660.456	62.31
660.785	62.18
661.115	62.22
661.444	62.14
661.773	62.16
662.102	62.21
662.431	62.13
662.76	62.01
663.089	62.11
663.418	61.99
663.747	61.91
664.076	61.8
664.404	61.74
664.733	61.62
665.062	61.66
665.39	61.83
665.719	61.77
666.048	61.85
666.376	61.75
