Data from BA28416_Reflection_00001.txt Node
Date: Mon Nov 18 16:05:13 EST 2019
User: vgr7
Spectrometer: USB2G7710
Scans to average: 3
Trigger mode: 4
Integration Time (sec): 2.000000E-2
Electric dark correction enabled: true
Boxcar width: 10
XAxis mode: Wavelengths
Number of Pixels in Spectrum: 2048
>>>>>Begin Spectral Data<<<<<
177.721	281.31
178.105	366.01
178.488	628.84
178.871	3979.31
179.254	-1486.78
179.636	-330.85
180.019	-4031.15
180.402	33.33
180.785	11.56
181.168	69.92
181.55	108.08
181.933	87.12
182.316	101.71
182.698	103.28
183.081	126.51
183.463	127.79
183.846	107.04
184.228	140.42
184.611	117.3
184.993	126.79
185.376	98.21
185.758	110.78
186.14	103.39
186.522	119.93
186.904	96.45
187.287	112.85
187.669	82.42
188.051	79.39
188.433	42.36
188.815	51.88
189.197	42.33
189.579	42.96
189.961	65.7
190.342	33.13
190.724	25.68
191.106	57.78
191.488	94.7
191.869	92.8
192.251	15.98
192.633	-2.9
193.014	3.55
193.396	62.52
193.777	50.91
194.159	121.3
194.54	125.25
194.922	-95.06
195.303	-182.13
195.684	-165.93
196.065	-27.51
196.447	-66.46
196.828	-47.9
197.209	2.82
197.59	33.37
197.971	54.57
198.352	31.5
198.733	13.41
199.114	41.21
199.495	37.85
199.876	6.9
200.257	12.18
200.638	8.16
201.018	11.3
201.399	36.88
201.78	38.51
202.16	33.06
202.541	41.94
202.922	-24.88
203.302	-56.67
203.683	-241.69
204.063	-294.98
204.444	-160.87
204.824	-206.91
205.204	-410.64
205.585	-349.73
205.965	-222.69
206.345	-181.65
206.725	-2627.27
207.106	239.21
207.486	148.96
207.866	123.83
208.246	103.52
208.626	112.91
209.006	197.02
209.386	243.78
209.766	247.82
210.145	142.14
210.525	139.4
210.905	59.35
211.285	18.26
211.664	17.11
212.044	13.96
212.424	-19.13
212.803	9.77
213.183	0.84
213.562	-29.14
213.942	-40.79
214.321	-78.09
214.701	-81.92
215.08	-2.95
215.459	-44.21
215.838	-88.88
216.218	-608.07
216.597	-209.06
216.976	-457.28
217.355	-3500
217.734	-160.87
218.113	532.99
218.492	289.72
218.871	20.62
219.25	3.33
219.629	100
220.008	62.67
220.387	6.93
220.766	20.37
221.144	-111.91
221.523	-172.5
221.902	-351.29
222.28	4967.92
222.659	-382.63
223.037	-97.86
223.416	-122.04
223.794	-96.96
224.173	-70.72
224.551	-30.65
224.929	-36.65
225.308	-14.22
225.686	-8.72
226.064	-4.63
226.442	-5.32
226.821	-0.68
227.199	-5.87
227.577	-10.96
227.955	-8.24
228.333	-5.12
228.711	-0.88
229.089	6.75
229.467	8
229.845	6.69
230.222	6
230.6	3.43
230.978	1.44
231.356	2.77
231.733	3.21
232.111	2.49
232.488	1.7
232.866	1.8
233.243	1.48
233.621	2.3
233.998	2.26
234.376	1.34
234.753	3.33
235.13	5.53
235.508	5.52
235.885	3.75
236.262	2.69
236.639	1.45
237.016	1.65
237.393	2.39
237.77	2.66
238.147	2.95
238.524	2.37
238.901	2.93
239.278	3.42
239.655	3.75
240.032	3.37
240.409	3.9
240.785	3.51
241.162	3.33
241.539	3.59
241.915	4.13
242.292	3.99
242.668	3.64
243.045	3.54
243.421	3.56
243.798	3.67
244.174	3.8
244.551	3.96
244.927	3.72
245.303	3.68
245.679	4.05
246.056	4.18
246.432	4.38
246.808	4.58
247.184	4.44
247.56	4.43
247.936	4.49
248.312	4.36
248.688	4.32
249.064	4.38
249.44	4.38
249.815	4.02
250.191	4.33
250.567	4.52
250.943	4.75
251.318	4.85
251.694	4.98
252.069	4.78
252.445	4.61
252.82	4.55
253.196	4.5
253.571	4.43
253.947	4.39
254.322	4.16
254.697	3.81
255.073	3.57
255.448	3.37
255.823	3.64
256.198	3.61
256.573	3.84
256.948	4.04
257.323	4.18
257.698	4.31
258.073	4.12
258.448	3.87
258.823	3.67
259.198	3.7
259.573	3.52
259.948	3.55
260.322	3.64
260.697	3.59
261.072	3.67
261.446	3.69
261.821	3.34
262.195	3.6
262.57	3.77
262.944	3.97
263.319	3.95
263.693	3.83
264.067	3.96
264.442	3.94
264.816	3.83
265.19	3.64
265.564	3.7
265.938	3.55
266.313	3.64
266.687	3.66
267.061	3.59
267.435	3.61
267.809	3.62
268.183	3.54
268.556	3.78
268.93	3.84
269.304	3.64
269.678	4.12
270.051	3.79
270.425	3.65
270.799	3.5
271.172	3.55
271.546	3.5
271.919	3.28
272.293	3.23
272.666	3.11
273.04	3.12
273.413	2.95
273.787	3.03
274.16	2.91
274.533	2.98
274.906	2.88
275.279	2.96
275.653	2.9
276.026	3
276.399	2.89
276.772	2.88
277.145	3.08
277.518	2.88
277.891	3.17
278.263	3.09
278.636	3.32
279.009	3.28
279.382	3.37
279.755	3.53
280.127	3.67
280.5	3.77
280.872	3.89
281.245	3.9
281.617	4.04
281.99	4.03
282.362	4.03
282.735	3.96
283.107	4.1
283.479	4.26
283.852	4.16
284.224	4.13
284.596	4.07
284.968	4.02
285.34	4.01
285.713	3.93
286.085	4.01
286.457	3.95
286.829	4.06
287.201	4.11
287.572	4.06
287.944	4.03
288.316	3.94
288.688	3.83
289.06	3.93
289.431	3.86
289.803	3.93
290.175	3.95
290.546	4.07
290.918	3.94
291.289	3.96
291.661	3.97
292.032	3.93
292.403	3.96
292.775	3.98
293.146	3.89
293.517	3.84
293.889	3.84
294.26	3.73
294.631	3.68
295.002	3.6
295.373	3.61
295.744	3.61
296.115	3.69
296.486	3.62
296.857	3.49
297.228	3.57
297.599	3.47
297.97	3.39
298.34	3.36
298.711	3.42
299.082	3.39
299.452	3.42
299.823	3.63
300.194	3.7
300.564	3.64
300.935	3.68
301.305	3.66
301.676	3.7
302.046	3.69
302.416	3.6
302.787	3.61
303.157	3.62
303.527	3.53
303.897	3.47
304.267	3.5
304.637	3.55
305.008	3.5
305.378	3.59
305.748	3.69
306.117	3.68
306.487	3.58
306.857	3.6
307.227	3.63
307.597	3.29
307.967	3.18
308.336	3.33
308.706	3.28
309.076	3.38
309.445	3.31
309.815	3.35
310.184	3.42
310.554	3.35
310.923	3.34
311.293	3.33
311.662	3.36
312.031	3.29
312.401	3.29
312.77	3.37
313.139	3.4
313.508	3.3
313.877	3.29
314.246	3.37
314.616	3.34
314.985	3.36
315.353	3.48
315.722	3.6
316.091	3.36
316.46	3.31
316.829	3.17
317.198	3.25
317.567	3.23
317.935	3.25
318.304	3.27
318.672	3.28
319.041	3.46
319.41	3.46
319.778	3.66
320.147	3.77
320.515	3.69
320.883	3.55
321.252	3.64
321.62	3.72
321.988	3.77
322.357	3.76
322.725	3.7
323.093	3.75
323.461	3.7
323.829	3.87
324.197	4.1
324.565	4.2
324.933	3.98
325.301	3.95
325.669	3.91
326.037	3.93
326.405	3.9
326.772	3.89
327.14	4.01
327.508	3.95
327.875	3.88
328.243	3.89
328.61	3.93
328.978	3.96
329.346	4
329.713	3.83
330.08	3.78
330.448	3.89
330.815	3.78
331.182	3.73
331.55	3.58
331.917	3.57
332.284	3.65
332.651	3.77
333.018	3.85
333.385	3.83
333.752	3.87
334.119	3.95
334.486	3.82
334.853	3.77
335.22	3.77
335.587	3.87
335.954	3.77
336.32	3.82
336.687	3.8
337.054	3.72
337.42	3.84
337.787	3.92
338.153	3.77
338.52	3.9
338.886	3.86
339.253	3.9
339.619	3.82
339.986	3.7
340.352	3.8
340.718	3.71
341.084	3.64
341.451	3.65
341.817	3.64
342.183	3.73
342.549	3.71
342.915	3.7
343.281	3.69
343.647	3.74
344.013	3.74
344.379	3.75
344.745	3.84
345.11	3.8
345.476	3.73
345.842	3.72
346.208	3.75
346.573	3.95
346.939	4.05
347.304	4.19
347.67	4.18
348.035	4.16
348.401	4.16
348.766	4.2
349.132	4.22
349.497	4.16
349.862	4.21
350.228	4.14
350.593	4.15
350.958	4.03
351.323	4.05
351.688	4.04
352.053	4.02
352.418	4.08
352.783	4.12
353.148	4.08
353.513	4.11
353.878	3.99
354.243	3.9
354.608	3.91
354.972	3.8
355.337	3.81
355.702	3.82
356.066	3.9
356.431	3.93
356.795	3.97
357.16	3.92
357.524	3.83
357.889	3.84
358.253	3.82
358.618	3.94
358.982	3.93
359.346	3.92
359.71	3.94
360.075	3.86
360.439	3.82
360.803	3.85
361.167	3.81
361.531	3.82
361.895	3.8
362.259	3.73
362.623	3.72
362.987	3.71
363.351	3.72
363.714	3.76
364.078	3.7
364.442	3.66
364.806	3.64
365.169	3.66
365.533	3.71
365.896	3.67
366.26	3.66
366.623	3.66
366.987	3.65
367.35	3.63
367.714	3.6
368.077	3.61
368.44	3.58
368.803	3.62
369.167	3.6
369.53	3.63
369.893	3.66
370.256	3.71
370.619	3.74
370.982	3.64
371.345	3.54
371.708	3.64
372.071	3.61
372.434	3.73
372.797	3.76
373.159	3.7
373.522	3.76
373.885	3.77
374.247	3.82
374.61	3.9
374.973	3.91
375.335	3.93
375.698	3.91
376.06	3.91
376.423	3.93
376.785	3.96
377.147	3.95
377.51	3.95
377.872	3.95
378.234	3.96
378.596	4.03
378.958	4.06
379.321	4.01
379.683	3.99
380.045	3.94
380.407	3.93
380.769	3.94
381.13	3.9
381.492	3.88
381.854	3.8
382.216	3.72
382.578	3.68
382.939	3.64
383.301	3.66
383.663	3.68
384.024	3.63
384.386	3.66
384.747	3.7
385.109	3.69
385.47	3.67
385.832	3.64
386.193	3.64
386.554	3.65
386.916	3.63
387.277	3.66
387.638	3.73
387.999	3.76
388.36	3.79
388.721	3.82
389.082	3.8
389.443	3.79
389.804	3.8
390.165	3.82
390.526	3.88
390.887	3.89
391.248	3.9
391.609	3.92
391.969	3.9
392.33	3.86
392.691	3.9
393.051	3.87
393.412	3.89
393.772	3.88
394.133	3.91
394.493	3.92
394.854	3.93
395.214	3.89
395.574	3.91
395.935	3.93
396.295	3.93
396.655	3.91
397.015	3.94
397.376	3.98
397.736	3.95
398.096	3.94
398.456	3.95
398.816	3.97
399.176	3.99
399.535	3.99
399.895	3.98
400.255	3.92
400.615	3.95
400.975	3.93
401.334	3.94
401.694	3.92
402.054	3.91
402.413	3.92
402.773	3.9
403.132	3.85
403.492	3.84
403.851	3.87
404.211	3.89
404.57	3.88
404.929	3.88
405.288	3.89
405.648	3.86
406.007	3.84
406.366	3.82
406.725	3.84
407.084	3.87
407.443	3.89
407.802	3.9
408.161	3.9
408.52	3.88
408.879	3.86
409.238	3.87
409.596	3.88
409.955	3.88
410.314	3.89
410.673	3.91
411.031	3.9
411.39	3.87
411.748	3.87
412.107	3.9
412.465	3.89
412.824	3.9
413.182	3.92
413.54	3.94
413.899	3.93
414.257	3.92
414.615	3.89
414.974	3.88
415.332	3.91
415.69	3.88
416.048	3.9
416.406	3.89
416.764	3.88
417.122	3.89
417.48	3.86
417.838	3.88
418.195	3.88
418.553	3.87
418.911	3.88
419.269	3.89
419.626	3.88
419.984	3.88
420.342	3.88
420.699	3.88
421.057	3.88
421.414	3.88
421.772	3.89
422.129	3.91
422.486	3.91
422.844	3.91
423.201	3.93
423.558	3.93
423.915	3.96
424.273	3.97
424.63	3.96
424.987	3.96
425.344	3.96
425.701	3.94
426.058	3.97
426.415	3.96
426.772	3.97
427.128	3.95
427.485	3.98
427.842	3.97
428.199	3.96
428.555	3.96
428.912	3.97
429.269	3.96
429.625	3.94
429.982	3.93
430.338	3.91
430.695	3.92
431.051	3.92
431.407	3.93
431.764	3.91
432.12	3.91
432.476	3.9
432.832	3.9
433.189	3.93
433.545	3.89
433.901	3.89
434.257	3.88
434.613	3.9
434.969	3.89
435.325	3.9
435.681	3.92
436.036	3.91
436.392	3.92
436.748	3.91
437.104	3.91
437.459	3.93
437.815	3.95
438.171	3.95
438.526	3.94
438.882	3.94
439.237	3.95
439.593	3.96
439.948	3.97
440.304	3.98
440.659	3.98
441.014	4
441.369	4
441.725	3.99
442.08	3.99
442.435	3.98
442.79	3.98
443.145	3.99
443.5	3.99
443.855	3.99
444.21	3.99
444.565	4
444.92	4
445.275	4
445.629	3.98
445.984	3.99
446.339	4.01
446.693	4
447.048	3.99
447.403	3.98
447.757	3.98
448.112	3.97
448.466	3.99
448.82	3.99
449.175	4.01
449.529	4.01
449.883	4.02
450.238	4.02
450.592	4.01
450.946	4.02
451.3	4.01
451.654	4
452.008	3.99
452.362	3.97
452.716	3.96
453.07	3.97
453.424	3.96
453.778	3.92
454.132	3.94
454.486	3.95
454.839	3.95
455.193	3.95
455.547	3.95
455.9	3.95
456.254	3.97
456.607	3.97
456.961	3.98
457.314	3.97
457.668	3.98
458.021	3.98
458.375	3.97
458.728	3.98
459.081	3.99
459.434	4
459.787	4.02
460.141	4.03
460.494	4.04
460.847	4.03
461.2	4.04
461.553	4.06
461.906	4.06
462.259	4.07
462.611	4.07
462.964	4.09
463.317	4.08
463.67	4.07
464.022	4.08
464.375	4.06
464.728	4.06
465.08	4.06
465.433	4.06
465.785	4.05
466.138	4.06
466.49	4.05
466.843	4.05
467.195	4.05
467.547	4.07
467.899	4.06
468.252	4.08
468.604	4.09
468.956	4.07
469.308	4.09
469.66	4.07
470.012	4.08
470.364	4.06
470.716	4.04
471.068	4.02
471.42	4
471.772	4.04
472.123	4.05
472.475	4.05
472.827	4.06
473.178	4.08
473.53	4.06
473.882	4.06
474.233	4.06
474.585	4.08
474.936	4.05
475.288	4.06
475.639	4.05
475.99	4.03
476.342	4.04
476.693	4.03
477.044	4.04
477.395	4.04
477.746	4.05
478.097	4.07
478.448	4.09
478.8	4.11
479.15	4.1
479.501	4.09
479.852	4.12
480.203	4.13
480.554	4.16
480.905	4.17
481.255	4.19
481.606	4.2
481.957	4.21
482.307	4.21
482.658	4.21
483.009	4.22
483.359	4.22
483.709	4.22
484.06	4.22
484.41	4.23
484.761	4.24
485.111	4.23
485.461	4.23
485.811	4.22
486.162	4.22
486.512	4.23
486.862	4.23
487.212	4.22
487.562	4.23
487.912	4.22
488.262	4.22
488.612	4.22
488.961	4.22
489.311	4.21
489.661	4.21
490.011	4.2
490.36	4.2
490.71	4.2
491.06	4.19
491.409	4.19
491.759	4.18
492.108	4.17
492.458	4.17
492.807	4.17
493.157	4.18
493.506	4.18
493.855	4.18
494.204	4.19
494.554	4.19
494.903	4.18
495.252	4.17
495.601	4.16
495.95	4.16
496.299	4.16
496.648	4.16
496.997	4.15
497.346	4.16
497.695	4.18
498.043	4.19
498.392	4.19
498.741	4.19
499.09	4.19
499.438	4.21
499.787	4.25
500.135	4.25
500.484	4.26
500.832	4.26
501.181	4.26
501.529	4.26
501.878	4.28
502.226	4.28
502.574	4.3
502.923	4.32
503.271	4.31
503.619	4.32
503.967	4.31
504.315	4.32
504.663	4.34
505.011	4.33
505.359	4.35
505.707	4.37
506.055	4.35
506.403	4.37
506.751	4.37
507.098	4.36
507.446	4.38
507.794	4.38
508.141	4.38
508.489	4.41
508.837	4.42
509.184	4.41
509.531	4.42
509.879	4.44
510.226	4.44
510.574	4.45
510.921	4.45
511.268	4.45
511.616	4.48
511.963	4.48
512.31	4.49
512.657	4.47
513.004	4.48
513.351	4.53
513.698	4.53
514.045	4.51
514.392	4.51
514.739	4.5
515.086	4.51
515.432	4.52
515.779	4.5
516.126	4.5
516.473	4.51
516.819	4.52
517.166	4.51
517.512	4.51
517.859	4.52
518.205	4.53
518.552	4.55
518.898	4.56
519.245	4.56
519.591	4.56
519.937	4.57
520.283	4.57
520.629	4.55
520.976	4.57
521.322	4.6
521.668	4.6
522.014	4.61
522.36	4.62
522.706	4.61
523.052	4.61
523.398	4.63
523.743	4.63
524.089	4.62
524.435	4.62
524.781	4.63
525.126	4.64
525.472	4.63
525.817	4.62
526.163	4.62
526.509	4.62
526.854	4.62
527.199	4.64
527.545	4.64
527.89	4.65
528.235	4.63
528.581	4.62
528.926	4.62
529.271	4.62
529.616	4.62
529.961	4.62
530.306	4.62
530.651	4.63
530.996	4.64
531.341	4.63
531.686	4.63
532.031	4.63
532.376	4.63
532.721	4.63
533.065	4.63
533.41	4.62
533.755	4.62
534.099	4.63
534.444	4.63
534.788	4.64
535.133	4.64
535.477	4.66
535.822	4.66
536.166	4.66
536.51	4.67
536.855	4.67
537.199	4.68
537.543	4.69
537.887	4.68
538.231	4.68
538.576	4.7
538.92	4.71
539.264	4.69
539.608	4.69
539.951	4.69
540.295	4.69
540.639	4.73
540.983	4.73
541.327	4.72
541.671	4.7
542.014	4.71
542.358	4.71
542.701	4.71
543.045	4.73
543.389	4.74
543.732	4.74
544.075	4.74
544.419	4.73
544.762	4.73
545.105	4.73
545.449	4.73
545.792	4.73
546.135	4.74
546.478	4.74
546.821	4.74
547.165	4.75
547.508	4.76
547.851	4.75
548.194	4.76
548.536	4.75
548.879	4.78
549.222	4.76
549.565	4.76
549.908	4.77
550.25	4.78
550.593	4.76
550.936	4.76
551.278	4.76
551.621	4.78
551.963	4.8
552.306	4.82
552.648	4.81
552.991	4.86
553.333	4.84
553.675	4.86
554.017	4.87
554.36	4.88
554.702	4.88
555.044	4.87
555.386	4.85
555.728	4.86
556.07	4.87
556.412	4.87
556.754	4.87
557.096	4.85
557.438	4.85
557.78	4.9
558.121	4.93
558.463	4.94
558.805	4.92
559.147	4.91
559.488	4.88
559.83	4.89
560.171	4.86
560.513	4.89
560.854	4.86
561.196	4.88
561.537	4.88
561.878	4.87
562.22	4.88
562.561	4.88
562.902	4.87
563.243	4.85
563.584	4.86
563.925	4.88
564.266	4.88
564.607	4.87
564.948	4.83
565.289	4.81
565.63	4.83
565.971	4.82
566.312	4.82
566.653	4.81
566.993	4.79
567.334	4.8
567.675	4.79
568.015	4.83
568.356	4.83
568.696	4.82
569.037	4.85
569.377	4.82
569.718	4.84
570.058	4.84
570.398	4.86
570.739	4.86
571.079	4.84
571.419	4.87
571.759	4.89
572.099	4.89
572.439	4.9
572.779	4.9
573.119	4.94
573.459	4.98
573.799	4.99
574.139	5.01
574.479	5
574.819	5
575.158	4.99
575.498	4.99
575.838	5
576.177	5.01
576.517	5.05
576.856	5.06
577.196	5.06
577.535	5.07
577.875	5.05
578.214	5.07
578.553	5.08
578.893	5.08
579.232	5.08
579.571	5.07
579.91	5.07
580.25	5.04
580.589	5.01
580.928	5.02
581.267	5.03
581.606	5.05
581.945	5.06
582.283	5.04
582.622	5.07
582.961	5.07
583.3	5.09
583.639	5.08
583.977	5.12
584.316	5.1
584.654	5.09
584.993	5.1
585.332	5.1
585.67	5.08
586.008	5.08
586.347	5.11
586.685	5.11
587.024	5.1
587.362	5.11
587.7	5.11
588.038	5.13
588.376	5.14
588.715	5.13
589.053	5.14
589.391	5.18
589.729	5.22
590.067	5.21
590.404	5.15
590.742	5.14
591.08	5.1
591.418	5.15
591.756	5.17
592.093	5.19
592.431	5.21
592.769	5.2
593.106	5.2
593.444	5.19
593.781	5.18
594.119	5.23
594.456	5.25
594.793	5.25
595.131	5.24
595.468	5.23
595.805	5.24
596.143	5.25
596.48	5.23
596.817	5.2
597.154	5.18
597.491	5.18
597.828	5.18
598.165	5.17
598.502	5.14
598.839	5.12
599.176	5.12
599.512	5.11
599.849	5.12
600.186	5.13
600.523	5.17
600.859	5.19
601.196	5.16
601.532	5.13
601.869	5.12
602.205	5.15
602.542	5.16
602.878	5.14
603.215	5.12
603.551	5.15
603.887	5.15
604.223	5.16
604.56	5.2
604.896	5.22
605.232	5.25
605.568	5.24
605.904	5.27
606.24	5.3
606.576	5.31
606.912	5.3
607.248	5.3
607.583	5.27
607.919	5.27
608.255	5.26
608.591	5.31
608.926	5.33
609.262	5.31
609.597	5.33
609.933	5.35
610.268	5.37
610.604	5.36
610.939	5.36
611.275	5.38
611.61	5.38
611.945	5.4
612.281	5.4
612.616	5.4
612.951	5.37
613.286	5.36
613.621	5.34
613.956	5.37
614.291	5.37
614.626	5.34
614.961	5.35
615.296	5.32
615.631	5.3
615.966	5.3
616.3	5.31
616.635	5.3
616.97	5.3
617.304	5.25
617.639	5.27
617.973	5.26
618.308	5.28
618.642	5.29
618.977	5.27
619.311	5.29
619.646	5.35
619.98	5.35
620.314	5.39
620.648	5.4
620.983	5.42
621.317	5.46
621.651	5.54
621.985	5.57
622.319	5.6
622.653	5.61
622.987	5.62
623.321	5.64
623.655	5.63
623.988	5.67
624.322	5.69
624.656	5.7
624.99	5.71
625.323	5.71
625.657	5.7
625.99	5.7
626.324	5.7
626.657	5.66
626.991	5.71
627.324	5.68
627.658	5.69
627.991	5.64
628.324	5.61
628.657	5.59
628.991	5.59
629.324	5.59
629.657	5.6
629.99	5.57
630.323	5.56
630.656	5.54
630.989	5.55
631.322	5.56
631.655	5.54
631.987	5.53
632.32	5.52
632.653	5.53
632.986	5.58
633.318	5.55
633.651	5.56
633.984	5.55
634.316	5.5
634.649	5.5
634.981	5.51
635.313	5.52
635.646	5.5
635.978	5.47
636.31	5.42
636.643	5.39
636.975	5.43
637.307	5.45
637.639	5.44
637.971	5.41
638.303	5.39
638.635	5.36
638.967	5.36
639.299	5.36
639.631	5.35
639.963	5.25
640.295	5.25
640.626	5.27
640.958	5.25
641.29	5.24
641.621	5.21
641.953	5.25
642.285	5.27
642.616	5.32
642.948	5.4
643.279	5.5
643.61	5.5
643.942	5.49
644.273	5.47
644.604	5.45
644.936	5.41
645.267	5.41
645.598	5.45
645.929	5.47
646.26	5.46
646.591	5.44
646.922	5.54
647.253	5.52
647.584	5.56
647.915	5.57
648.245	5.61
648.576	5.64
648.907	5.61
649.238	5.71
649.568	5.7
649.899	5.64
650.229	5.67
650.56	5.65
650.89	5.72
651.221	5.75
651.551	5.82
651.882	5.87
652.212	5.89
652.542	5.91
652.872	5.88
653.203	5.94
653.533	5.97
653.863	5.96
654.193	6.03
654.523	6.01
654.853	6
655.183	6.07
655.513	6.07
655.843	6.06
656.172	6
656.502	6.02
656.832	6.01
657.162	6.03
657.491	6.08
657.821	5.94
658.15	5.93
658.48	5.92
658.809	5.89
659.139	5.88
659.468	5.83
659.798	5.9
660.127	5.89
660.456	5.95
660.785	6
661.115	6
661.444	6.04
661.773	6.09
662.102	6.04
662.431	6.09
662.76	6.16
663.089	6.14
663.418	6.12
663.747	6.1
664.076	6.05
664.404	6.07
664.733	6.24
665.062	6.24
665.39	6.28
665.719	6.28
666.048	6.31
666.376	6.39
666.705	6.31
667.033	6.32
667.362	6.23
667.69	6.13
668.018	6.15
668.347	6.09
668.675	6.02
669.003	6.03
669.331	6.01
669.659	6.03
669.987	6.01
670.315	6.03
670.643	6.07
670.971	6.13
671.299	6.13
671.627	6.05
671.955	6.04
672.283	6.04
672.61	6.07
672.938	6.11
673.266	6.06
673.593	6.16
673.921	6.2
674.249	6.18
674.576	6.16
674.904	6.17
675.231	6.19
675.558	6.24
675.886	6.26
676.213	6.24
676.54	6.21
676.867	6.26
677.195	6.22
677.522	6.23
677.849	6.22
678.176	6.19
678.503	6.18
678.83	6.19
679.157	6.14
