Data from BA28469_Reflection_00011.txt Node
Date: Mon Nov 18 15:18:09 EST 2019
User: vgr7
Spectrometer: USB2G7710
Scans to average: 3
Trigger mode: 4
Integration Time (sec): 2.000000E-2
Electric dark correction enabled: true
Boxcar width: 10
XAxis mode: Wavelengths
Number of Pixels in Spectrum: 2048
>>>>>Begin Spectral Data<<<<<
177.721	188.94
178.105	-17566.67
178.488	-104.65
178.871	-95.16
179.254	-50.72
179.636	20433.33
180.019	-167.89
180.402	294.74
180.785	192.67
181.168	17.1
181.55	76.53
181.933	96.34
182.316	116.84
182.698	107.7
183.081	242.48
183.463	108.61
183.846	134.56
184.228	297.64
184.611	57.58
184.993	2877.78
185.376	-157.38
185.758	-196.04
186.14	-58.22
186.522	-321.38
186.904	-127.37
187.287	315.34
187.669	-171.16
188.051	-385.46
188.433	-117.64
188.815	-44.43
189.197	-54.88
189.579	-61.69
189.961	-41.11
190.342	-32.62
190.724	-13.66
191.106	-24.1
191.488	-32.63
191.869	-15.73
192.251	-25.16
192.633	-23.15
193.014	-34.04
193.396	-60.82
193.777	-44.94
194.159	-69.82
194.54	-58.33
194.922	-54.1
195.303	-47.15
195.684	-39.17
196.065	-30.45
196.447	-44.26
196.828	-44.52
197.209	-48.34
197.59	-58.54
197.971	-72.03
198.352	-46.74
198.733	-100.2
199.114	-75.31
199.495	-80.32
199.876	-68.89
200.257	-67.19
200.638	-49.6
201.018	-38.18
201.399	-11.74
201.78	-34.29
202.16	-35.9
202.541	-88.82
202.922	-96.87
203.302	-92.28
203.683	-76.55
204.063	-74.66
204.444	-60.82
204.824	-83.42
205.204	-57.1
205.585	-28.8
205.965	-3.39
206.345	-21.11
206.725	-29.98
207.106	-35.71
207.486	-29.96
207.866	-38.1
208.246	-27.17
208.626	-12.75
209.006	-8.52
209.386	-44.36
209.766	-9.82
210.145	2.81
210.525	15.02
210.905	-0.46
211.285	4.1
211.664	7.56
212.044	7.86
212.424	22.49
212.803	25.22
213.183	18.96
213.562	13.41
213.942	5.16
214.321	5.23
214.701	5.02
215.08	3.7
215.459	5.62
215.838	0.73
216.218	-0.96
216.597	-0.59
216.976	4.39
217.355	15
217.734	10.32
218.113	19.99
218.492	19.69
218.871	26.73
219.25	22.87
219.629	23.02
220.008	22.76
220.387	8.75
220.766	4.45
221.144	1.73
221.523	8.11
221.902	16.6
222.28	2.93
222.659	22.61
223.037	35.1
223.416	18.7
223.794	13.81
224.173	11.73
224.551	15.53
224.929	11.99
225.308	8.25
225.686	11.52
226.064	2.48
226.442	1.74
226.821	3.53
227.199	3.14
227.577	0.91
227.955	-0.9
228.333	-1.91
228.711	-1.36
229.089	2.18
229.467	-0.05
229.845	1.68
230.222	4.08
230.6	3.18
230.978	1.52
231.356	3.55
231.733	5.69
232.111	7.11
232.488	5.89
232.866	3.78
233.243	3.61
233.621	1.6
233.998	2.91
234.376	2.27
234.753	2.06
235.13	2.73
235.508	3.87
235.885	4.22
236.262	5.51
236.639	5.17
237.016	4.03
237.393	5.5
237.77	4.98
238.147	5.53
238.524	5.17
238.901	5.04
239.278	5.37
239.655	5.6
240.032	5.62
240.409	5.86
240.785	6.64
241.162	6.46
241.539	6.42
241.915	6.25
242.292	5.75
242.668	5.51
243.045	5.69
243.421	5.6
243.798	5.33
244.174	4.98
244.551	4.97
244.927	5.05
245.303	4.77
245.679	4.86
246.056	4.48
246.432	4.47
246.808	4.48
247.184	4.33
247.56	4.02
247.936	3.83
248.312	3.82
248.688	3.75
249.064	3.76
249.44	3.85
249.815	3.85
250.191	4.1
250.567	4.11
250.943	3.84
251.318	3.84
251.694	3.89
252.069	3.67
252.445	3.72
252.82	3.52
253.196	3.54
253.571	3.4
253.947	3.45
254.322	3.37
254.697	3.53
255.073	3.43
255.448	3.46
255.823	3.52
256.198	3.32
256.573	3.21
256.948	3.28
257.323	3.29
257.698	3.21
258.073	3.38
258.448	3.3
258.823	3.25
259.198	3.17
259.573	3.17
259.948	3.34
260.322	3.4
260.697	3.54
261.072	3.51
261.446	3.5
261.821	3.63
262.195	3.72
262.57	3.59
262.944	3.56
263.319	3.59
263.693	3.68
264.067	3.77
264.442	3.89
264.816	3.76
265.19	3.83
265.564	3.88
265.938	3.62
266.313	3.64
266.687	3.71
267.061	3.74
267.435	3.81
267.809	3.68
268.183	3.46
268.556	3.39
268.93	3.51
269.304	3.57
269.678	3.5
270.051	3.48
270.425	3.41
270.799	3.38
271.172	3.3
271.546	3.18
271.919	3.16
272.293	3.05
272.666	3.19
273.04	3.11
273.413	3.08
273.787	3.19
274.16	3.23
274.533	3.24
274.906	3.2
275.279	3.23
275.653	3.24
276.026	3.39
276.399	3.45
276.772	3.41
277.145	3.31
277.518	3.24
277.891	3.36
278.263	3.52
278.636	3.71
279.009	3.66
279.382	3.76
279.755	3.75
280.127	3.82
280.5	3.9
280.872	3.92
281.245	3.91
281.617	4
281.99	4.13
282.362	4.19
282.735	4.17
283.107	4.17
283.479	4.37
283.852	4.27
284.224	4.25
284.596	4.3
284.968	4.35
285.34	4.51
285.713	4.39
286.085	4.45
286.457	4.44
286.829	4.48
287.201	4.34
287.572	4.28
287.944	4.22
288.316	4.07
288.688	4.05
289.06	4.07
289.431	3.93
289.803	3.93
290.175	3.88
290.546	4.02
290.918	4.11
291.289	4.08
291.661	4.31
292.032	4.43
292.403	4.45
292.775	4.45
293.146	4.31
293.517	4.29
293.889	4.27
294.26	4.22
294.631	4.38
295.002	4.45
295.373	4.49
295.744	4.53
296.115	4.54
296.486	4.51
296.857	4.59
297.228	4.7
297.599	4.62
297.97	4.73
298.34	4.77
298.711	4.66
299.082	4.62
299.452	4.57
299.823	4.59
300.194	4.68
300.564	4.71
300.935	4.78
301.305	4.87
301.676	4.88
302.046	4.99
302.416	5.14
302.787	5.21
303.157	5.17
303.527	5.1
303.897	5.27
304.267	5.58
304.637	5.5
305.008	5.44
305.378	5.54
305.748	5.57
306.117	5.46
306.487	5.7
306.857	5.88
307.227	5.83
307.597	5.76
307.967	5.68
308.336	5.73
308.706	5.84
309.076	5.84
309.445	5.88
309.815	5.8
310.184	5.69
310.554	5.67
310.923	5.92
311.293	6.16
311.662	6.07
312.031	6.02
312.401	6.11
312.77	6.24
313.139	6.33
313.508	6.28
313.877	6.34
314.246	6.31
314.616	6.17
314.985	6.23
315.353	6.25
315.722	6.32
316.091	6.29
316.46	6.24
316.829	6.36
317.198	6.48
317.567	6.61
317.935	6.76
318.304	6.88
318.672	6.8
319.041	6.75
319.41	6.86
319.778	6.73
320.147	6.77
320.515	6.86
320.883	6.81
321.252	7.09
321.62	7.28
321.988	7.31
322.357	7.35
322.725	7.28
323.093	7.43
323.461	7.49
323.829	7.62
324.197	7.69
324.565	7.74
324.933	7.68
325.301	7.71
325.669	7.57
326.037	7.63
326.405	7.75
326.772	7.82
327.14	7.92
327.508	8.02
327.875	8.12
328.243	8.09
328.61	8.12
328.978	7.96
329.346	8.07
329.713	8.01
330.08	8.2
330.448	8.34
330.815	8.25
331.182	8.41
331.55	8.43
331.917	8.52
332.284	8.59
332.651	8.62
333.018	8.66
333.385	8.75
333.752	8.88
334.119	8.9
334.486	8.9
334.853	8.89
335.22	8.97
335.587	8.92
335.954	8.94
336.32	8.99
336.687	8.99
337.054	8.92
337.42	8.94
337.787	8.95
338.153	8.94
338.52	9.07
338.886	8.89
339.253	8.93
339.619	8.94
339.986	8.9
340.352	9.03
340.718	9
341.084	9.02
341.451	9.06
341.817	9.07
342.183	9.11
342.549	9.22
342.915	9.3
343.281	9.4
343.647	9.38
344.013	9.47
344.379	9.49
344.745	9.46
345.11	9.41
345.476	9.48
345.842	9.58
346.208	9.61
346.573	9.75
346.939	9.74
347.304	9.71
347.67	9.67
348.035	9.64
348.401	9.7
348.766	9.81
349.132	9.8
349.497	9.85
349.862	9.85
350.228	9.82
350.593	9.74
350.958	9.8
351.323	9.83
351.688	9.76
352.053	9.89
352.418	9.95
352.783	10.13
353.148	10.08
353.513	10.03
353.878	9.95
354.243	9.91
354.608	9.98
354.972	10.04
355.337	10.15
355.702	10.12
356.066	10.1
356.431	10
356.795	10.04
357.16	9.95
357.524	9.91
357.889	9.96
358.253	9.95
358.618	9.92
358.982	9.88
359.346	9.83
359.71	9.78
360.075	9.76
360.439	9.7
360.803	9.64
361.167	9.59
361.531	9.54
361.895	9.5
362.259	9.46
362.623	9.44
362.987	9.41
363.351	9.42
363.714	9.41
364.078	9.37
364.442	9.3
364.806	9.33
365.169	9.28
365.533	9.26
365.896	9.22
366.26	9.17
366.623	9.2
366.987	9.23
367.35	9.19
367.714	9.13
368.077	9.15
368.44	9.18
368.803	9.15
369.167	9.18
369.53	9.06
369.893	9.04
370.256	9
370.619	8.96
370.982	8.92
371.345	8.84
371.708	8.82
372.071	8.77
372.434	8.68
372.797	8.73
373.159	8.61
373.522	8.57
373.885	8.59
374.247	8.56
374.61	8.45
374.973	8.45
375.335	8.38
375.698	8.3
376.06	8.21
376.423	8.18
376.785	8.08
377.147	8.14
377.51	8.08
377.872	7.98
378.234	7.91
378.596	7.83
378.958	7.82
379.321	7.76
379.683	7.74
380.045	7.64
380.407	7.53
380.769	7.51
381.13	7.47
381.492	7.33
381.854	7.23
382.216	7.22
382.578	7.11
382.939	7.08
383.301	7.02
383.663	6.97
384.024	6.94
384.386	6.96
384.747	6.92
385.109	6.87
385.47	6.82
385.832	6.82
386.193	6.85
386.554	6.79
386.916	6.8
387.277	6.74
387.638	6.78
387.999	6.76
388.36	6.71
388.721	6.65
389.082	6.61
389.443	6.59
389.804	6.54
390.165	6.58
390.526	6.54
390.887	6.48
391.248	6.48
391.609	6.45
391.969	6.39
392.33	6.29
392.691	6.27
393.051	6.23
393.412	6.18
393.772	6.11
394.133	6.09
394.493	6
394.854	5.97
395.214	5.9
395.574	5.88
395.935	5.83
396.295	5.83
396.655	5.83
397.015	5.78
397.376	5.72
397.736	5.66
398.096	5.64
398.456	5.67
398.816	5.58
399.176	5.53
399.535	5.49
399.895	5.51
400.255	5.46
400.615	5.44
400.975	5.4
401.334	5.34
401.694	5.3
402.054	5.27
402.413	5.25
402.773	5.21
403.132	5.15
403.492	5.07
403.851	5.03
404.211	5.01
404.57	4.93
404.929	4.95
405.288	4.87
405.648	4.84
406.007	4.78
406.366	4.79
406.725	4.83
407.084	4.82
407.443	4.8
407.802	4.78
408.161	4.77
408.52	4.71
408.879	4.72
409.238	4.72
409.596	4.73
409.955	4.69
410.314	4.69
410.673	4.7
411.031	4.69
411.39	4.69
411.748	4.67
412.107	4.73
412.465	4.7
412.824	4.7
413.182	4.66
413.54	4.63
413.899	4.59
414.257	4.54
414.615	4.5
414.974	4.49
415.332	4.46
415.69	4.44
416.048	4.46
416.406	4.43
416.764	4.4
417.122	4.39
417.48	4.36
417.838	4.33
418.195	4.3
418.553	4.28
418.911	4.26
419.269	4.25
419.626	4.22
419.984	4.21
420.342	4.22
420.699	4.2
421.057	4.21
421.414	4.2
421.772	4.19
422.129	4.19
422.486	4.17
422.844	4.16
423.201	4.15
423.558	4.13
423.915	4.12
424.273	4.11
424.63	4.09
424.987	4.09
425.344	4.1
425.701	4.1
426.058	4.1
426.415	4.09
426.772	4.07
427.128	4.05
427.485	4.05
427.842	4.03
428.199	4.04
428.555	4.01
428.912	4.01
429.269	4.01
429.625	3.99
429.982	3.95
430.338	3.96
430.695	3.96
431.051	3.95
431.407	3.95
431.764	3.94
432.12	3.96
432.476	3.93
432.832	3.89
433.189	3.89
433.545	3.88
433.901	3.89
434.257	3.88
434.613	3.88
434.969	3.89
435.325	3.89
435.681	3.87
436.036	3.87
436.392	3.86
436.748	3.85
437.104	3.84
437.459	3.85
437.815	3.85
438.171	3.85
438.526	3.86
438.882	3.85
439.237	3.85
439.593	3.84
439.948	3.86
440.304	3.88
440.659	3.88
441.014	3.88
441.369	3.87
441.725	3.87
442.08	3.86
442.435	3.84
442.79	3.85
443.145	3.84
443.5	3.84
443.855	3.83
444.21	3.81
444.565	3.82
444.92	3.84
445.275	3.82
445.629	3.81
445.984	3.79
446.339	3.78
446.693	3.77
447.048	3.75
447.403	3.75
447.757	3.73
448.112	3.72
448.466	3.7
448.82	3.69
449.175	3.69
449.529	3.68
449.883	3.68
450.238	3.66
450.592	3.65
450.946	3.64
451.3	3.64
451.654	3.63
452.008	3.62
452.362	3.6
452.716	3.61
453.07	3.6
453.424	3.61
453.778	3.6
454.132	3.58
454.486	3.57
454.839	3.56
455.193	3.56
455.547	3.56
455.9	3.57
456.254	3.57
456.607	3.57
456.961	3.56
457.314	3.53
457.668	3.52
458.021	3.52
458.375	3.52
458.728	3.51
459.081	3.54
459.434	3.53
459.787	3.54
460.141	3.54
460.494	3.54
460.847	3.53
461.2	3.55
461.553	3.56
461.906	3.56
462.259	3.57
462.611	3.59
462.964	3.61
463.317	3.63
463.67	3.63
464.022	3.64
464.375	3.66
464.728	3.67
465.08	3.7
465.433	3.71
465.785	3.72
466.138	3.74
466.49	3.73
466.843	3.73
467.195	3.74
467.547	3.77
467.899	3.76
468.252	3.78
468.604	3.78
468.956	3.8
469.308	3.81
469.66	3.8
470.012	3.79
470.364	3.79
470.716	3.8
471.068	3.82
471.42	3.84
471.772	3.87
472.123	3.9
472.475	3.88
472.827	3.9
473.178	3.93
473.53	3.92
473.882	3.93
474.233	3.95
474.585	3.93
474.936	3.92
475.288	3.93
475.639	3.93
475.99	3.95
476.342	3.94
476.693	3.96
477.044	3.97
477.395	3.98
477.746	3.98
478.097	3.96
478.448	3.93
478.8	3.92
479.15	3.88
479.501	3.89
479.852	3.91
480.203	3.91
480.554	3.9
480.905	3.9
481.255	3.89
481.606	3.89
481.957	3.9
482.307	3.9
482.658	3.91
483.009	3.9
483.359	3.9
483.709	3.9
484.06	3.89
484.41	3.89
484.761	3.88
485.111	3.87
485.461	3.88
485.811	3.89
486.162	3.88
486.512	3.89
486.862	3.88
487.212	3.86
487.562	3.87
487.912	3.86
488.262	3.85
488.612	3.85
488.961	3.84
489.311	3.83
489.661	3.82
490.011	3.81
490.36	3.8
490.71	3.8
491.06	3.8
491.409	3.79
491.759	3.8
492.108	3.8
492.458	3.82
492.807	3.83
493.157	3.82
493.506	3.85
493.855	3.86
494.204	3.88
494.554	3.88
494.903	3.88
495.252	3.9
495.601	3.93
495.95	3.96
496.299	3.97
496.648	4.01
496.997	4.04
497.346	4.09
497.695	4.12
498.043	4.15
498.392	4.19
498.741	4.22
499.09	4.23
499.438	4.27
499.787	4.3
500.135	4.33
500.484	4.36
500.832	4.4
501.181	4.43
501.529	4.47
501.878	4.54
502.226	4.58
502.574	4.66
502.923	4.68
503.271	4.72
503.619	4.78
503.967	4.82
504.315	4.87
504.663	4.91
505.011	4.98
505.359	5.01
505.707	5.07
506.055	5.15
506.403	5.23
506.751	5.27
507.098	5.33
507.446	5.41
507.794	5.48
508.141	5.56
508.489	5.63
508.837	5.71
509.184	5.78
509.531	5.84
509.879	5.9
510.226	6
510.574	6.07
510.921	6.11
511.268	6.17
511.616	6.22
511.963	6.29
512.31	6.37
512.657	6.46
513.004	6.53
513.351	6.62
513.698	6.71
514.045	6.8
514.392	6.91
514.739	6.98
515.086	7.08
515.432	7.14
515.779	7.21
516.126	7.28
516.473	7.36
516.819	7.46
517.166	7.54
517.512	7.61
517.859	7.7
518.205	7.8
518.552	7.9
518.898	7.99
519.245	8.07
519.591	8.11
519.937	8.17
520.283	8.3
520.629	8.37
520.976	8.47
521.322	8.57
521.668	8.64
522.014	8.76
522.36	8.86
522.706	8.95
523.052	9.1
523.398	9.24
523.743	9.36
524.089	9.48
524.435	9.61
524.781	9.77
525.126	9.89
525.472	9.98
525.817	10.08
526.163	10.19
526.509	10.31
526.854	10.42
527.199	10.53
527.545	10.61
527.89	10.71
528.235	10.79
528.581	10.91
528.926	11.02
529.271	11.12
529.616	11.24
529.961	11.36
530.306	11.48
530.651	11.59
530.996	11.74
531.341	11.88
531.686	12.02
532.031	12.16
532.376	12.31
532.721	12.49
533.065	12.65
533.41	12.82
533.755	12.99
534.099	13.19
534.444	13.38
534.788	13.55
535.133	13.74
535.477	13.94
535.822	14.13
536.166	14.33
536.51	14.57
536.855	14.81
537.199	15.08
537.543	15.33
537.887	15.62
538.231	15.89
538.576	16.19
538.92	16.46
539.264	16.72
539.608	17.01
539.951	17.24
540.295	17.49
540.639	17.74
540.983	17.95
541.327	18.19
541.671	18.41
542.014	18.67
542.358	18.9
542.701	19.12
543.045	19.36
543.389	19.6
543.732	19.86
544.075	20.12
544.419	20.38
544.762	20.65
545.105	20.93
545.449	21.22
545.792	21.51
546.135	21.85
546.478	22.2
546.821	22.54
547.165	22.93
547.508	23.31
547.851	23.68
548.194	24.06
548.536	24.46
548.879	24.9
549.222	25.29
549.565	25.7
549.908	26.1
550.25	26.52
550.593	26.93
550.936	27.33
551.278	27.74
551.621	28.16
551.963	28.64
552.306	29.07
552.648	29.48
552.991	29.9
553.333	30.25
553.675	30.64
554.017	31.07
554.36	31.44
554.702	31.81
555.044	32.19
555.386	32.6
555.728	32.97
556.07	33.29
556.412	33.65
556.754	34.05
557.096	34.53
557.438	34.93
557.78	35.35
558.121	35.78
558.463	36.14
558.805	36.55
559.147	36.94
559.488	37.32
559.83	37.7
560.171	38.02
560.513	38.41
560.854	38.79
561.196	39.14
561.537	39.45
561.878	39.9
562.22	40.22
562.561	40.55
562.902	40.89
563.243	41.21
563.584	41.58
563.925	41.88
564.266	42.13
564.607	42.38
564.948	42.69
565.289	42.95
565.63	43.23
565.971	43.49
566.312	43.7
566.653	44.01
566.993	44.27
567.334	44.6
567.675	44.86
568.015	45.1
568.356	45.38
568.696	45.69
569.037	45.86
569.377	46.17
569.718	46.44
570.058	46.71
570.398	46.96
570.739	47.17
571.079	47.4
571.419	47.68
571.759	47.99
572.099	48.21
572.439	48.45
572.779	48.68
573.119	48.88
573.459	49.13
573.799	49.29
574.139	49.52
574.479	49.7
574.819	49.95
575.158	50.12
575.498	50.27
575.838	50.45
576.177	50.7
576.517	50.88
576.856	51.14
577.196	51.35
577.535	51.59
577.875	51.85
578.214	52.07
578.553	52.34
578.893	52.48
579.232	52.7
579.571	52.87
579.91	53.1
580.25	53.31
580.589	53.45
580.928	53.69
581.267	53.86
581.606	53.99
581.945	54.14
582.283	54.39
582.622	54.6
582.961	54.75
583.3	54.88
583.639	55.12
583.977	55.23
584.316	55.38
584.654	55.54
584.993	55.59
585.332	55.71
585.67	55.8
586.008	55.95
586.347	56.06
586.685	56.21
587.024	56.32
587.362	56.45
587.7	56.55
588.038	56.66
588.376	56.73
588.715	56.9
589.053	56.97
589.391	57.09
589.729	57.15
590.067	57.28
590.404	57.39
590.742	57.41
591.08	57.47
591.418	57.57
591.756	57.6
592.093	57.81
592.431	57.87
592.769	57.89
593.106	57.99
593.444	58.07
593.781	58.18
594.119	58.25
594.456	58.33
594.793	58.47
595.131	58.55
595.468	58.62
595.805	58.71
596.143	58.78
596.48	58.86
596.817	58.97
597.154	59.04
597.491	59.09
597.828	59.12
598.165	59.18
598.502	59.21
598.839	59.32
599.176	59.28
599.512	59.42
599.849	59.54
600.186	59.6
600.523	59.78
600.859	59.87
601.196	59.98
601.532	60.03
601.869	60.15
602.205	60.23
602.542	60.37
602.878	60.39
603.215	60.45
603.551	60.5
603.887	60.53
604.223	60.57
604.56	60.66
604.896	60.77
605.232	60.86
605.568	60.92
605.904	60.98
606.24	61.14
606.576	61.2
606.912	61.25
607.248	61.32
607.583	61.3
607.919	61.39
608.255	61.43
608.591	61.56
608.926	61.56
609.262	61.62
609.597	61.62
609.933	61.69
610.268	61.75
610.604	61.73
610.939	61.79
611.275	61.9
611.61	61.87
611.945	61.9
612.281	61.92
612.616	62.04
612.951	62.1
613.286	62.11
613.621	62.13
613.956	62.17
614.291	62.22
614.626	62.23
614.961	62.2
615.296	62.32
615.631	62.4
615.966	62.44
616.3	62.43
616.635	62.5
616.97	62.57
617.304	62.73
617.639	62.82
617.973	62.87
618.308	62.93
618.642	62.98
618.977	62.98
619.311	63.03
619.646	63.04
619.98	63.09
620.314	63.09
620.648	63.17
620.983	63.26
621.317	63.31
621.651	63.44
621.985	63.48
622.319	63.41
622.653	63.35
622.987	63.43
623.321	63.52
623.655	63.52
623.988	63.65
624.322	63.61
624.656	63.65
624.99	63.6
625.323	63.54
625.657	63.62
625.99	63.75
626.324	63.71
626.657	63.74
626.991	63.74
627.324	63.77
627.658	63.86
627.991	63.87
628.324	64
628.657	64
628.991	64.05
629.324	64.11
629.657	64.16
629.99	64.12
630.323	64.08
630.656	64.1
630.989	64
631.322	64.04
631.655	64.09
631.987	64.22
632.32	64.41
632.653	64.49
632.986	64.49
633.318	64.55
633.651	64.58
633.984	64.7
634.316	64.77
634.649	64.74
634.981	64.65
635.313	64.62
635.646	64.63
635.978	64.69
636.31	64.78
636.643	64.72
636.975	64.85
637.307	64.96
637.639	65.14
637.971	65.18
638.303	65.12
638.635	65.08
638.967	65.01
639.299	64.94
639.631	64.9
639.963	64.86
640.295	64.82
640.626	64.82
640.958	64.66
641.29	64.54
641.621	64.5
641.953	64.62
642.285	64.63
642.616	64.72
642.948	64.65
643.279	64.57
643.61	64.69
643.942	64.67
644.273	64.66
644.604	64.61
644.936	64.66
645.267	64.72
645.598	64.76
645.929	64.86
646.26	64.84
646.591	64.76
646.922	64.77
647.253	64.83
647.584	64.74
647.915	64.81
648.245	64.92
648.576	65.01
648.907	65.01
649.238	64.94
649.568	64.87
649.899	64.91
650.229	64.94
650.56	65
650.89	65
651.221	64.93
651.551	64.86
651.882	64.87
652.212	64.92
652.542	64.88
652.872	64.89
653.203	64.96
653.533	65.07
653.863	65.21
654.193	65.26
654.523	65.37
654.853	65.4
655.183	65.4
655.513	65.45
655.843	65.52
656.172	65.59
656.502	65.61
656.832	65.59
657.162	65.66
657.491	65.64
657.821	65.71
658.15	65.74
658.48	65.82
658.809	65.84
659.139	65.87
659.468	65.9
659.798	65.86
660.127	65.81
660.456	65.85
660.785	65.8
661.115	65.87
661.444	65.88
661.773	65.91
662.102	65.95
662.431	65.97
662.76	65.98
663.089	65.97
663.418	65.96
663.747	65.97
664.076	66.02
664.404	66.01
664.733	65.79
665.062	65.79
665.39	65.64
665.719	65.65
666.048	65.57
666.376	65.54
666.705	65.63
667.033	65.74
667.362	65.7
667.69	65.83
668.018	65.73
668.347	65.87
668.675	65.89
669.003	65.98
