Data from BA28300_Reflection_00014.txt Node
Date: Mon Nov 18 15:58:30 EST 2019
User: vgr7
Spectrometer: USB2G7710
Scans to average: 3
Trigger mode: 4
Integration Time (sec): 2.000000E-2
Electric dark correction enabled: true
Boxcar width: 10
XAxis mode: Wavelengths
Number of Pixels in Spectrum: 2048
>>>>>Begin Spectral Data<<<<<
177.721	-111.49
178.105	-1135.29
178.488	222.37
178.871	42.89
179.254	48.1
179.636	42.01
180.019	-146.98
180.402	36.11
180.785	-20.21
181.168	42.06
181.55	77.44
181.933	81.57
182.316	90.54
182.698	83.74
183.081	71.1
183.463	23.33
183.846	-9.14
184.228	-27.71
184.611	-121.48
184.993	1409.86
185.376	5570.59
185.758	-265.31
186.14	27.34
186.522	93.76
186.904	-78.64
187.287	-166.41
187.669	122.76
188.051	128.04
188.433	-1440.54
188.815	159.13
189.197	256.19
189.579	190.65
189.961	244.69
190.342	377.53
190.724	213.81
191.106	171.54
191.488	22.66
191.869	29.98
192.251	-8.64
192.633	-130.77
193.014	91.25
193.396	0.14
193.777	-188.26
194.159	-20
194.54	3452.94
194.922	216.02
195.303	201.12
195.684	311.27
196.065	126.93
196.447	95.96
196.828	-179.74
197.209	-92.25
197.59	-295.89
197.971	-262.64
198.352	-55.3
198.733	-35.04
199.114	-14.04
199.495	-14.46
199.876	-13.03
200.257	-16.79
200.638	-16.08
201.018	-21.46
201.399	-5.37
201.78	2.81
202.16	-3.79
202.541	-60.17
202.922	-106.31
203.302	-304.71
203.683	-467.93
204.063	-221.06
204.444	-139.11
204.824	-70.83
205.204	-133.12
205.585	-45.85
205.965	-59.11
206.345	-142.39
206.725	-443.53
207.106	-1639.5
207.486	-600.29
207.866	-2538.55
208.246	-343.25
208.626	-289.88
209.006	-145.76
209.386	-256.68
209.766	-310.29
210.145	-209.21
210.525	-130.77
210.905	-63.68
211.285	-71.94
211.664	-28.91
212.044	-63.83
212.424	-79.81
212.803	-96.78
213.183	-75.26
213.562	-89.69
213.942	-55.1
214.321	-50.29
214.701	-39.31
215.08	-37.28
215.459	-28.27
215.838	-27.82
216.218	-44.67
216.597	-13.46
216.976	-30.66
217.355	-27.47
217.734	-27.41
218.113	-32.39
218.492	-17.14
218.871	-25.5
219.25	-26.07
219.629	-34.64
220.008	-35.54
220.387	-29.36
220.766	-27.22
221.144	-28.3
221.523	-33.18
221.902	-38.26
222.28	-43.36
222.659	-36.38
223.037	-32.47
223.416	-39.56
223.794	-44.92
224.173	-32.9
224.551	-33.02
224.929	-23.41
225.308	-15.28
225.686	-12.96
226.064	-9.67
226.442	-13.96
226.821	-5.51
227.199	-2.16
227.577	-2.22
227.955	-3.4
228.333	-1.2
228.711	0.03
229.089	2.74
229.467	4.37
229.845	4.55
230.222	4.71
230.6	1.56
230.978	2.11
231.356	7.19
231.733	8.99
232.111	8.05
232.488	6.78
232.866	5.21
233.243	5.28
233.621	2.97
233.998	4.79
234.376	5.72
234.753	6
235.13	6.91
235.508	6.64
235.885	7.35
236.262	5.28
236.639	4.72
237.016	3.18
237.393	4.59
237.77	5.12
238.147	5.65
238.524	5.7
238.901	5.85
239.278	5.14
239.655	5.38
240.032	5.15
240.409	5.26
240.785	5.03
241.162	5.46
241.539	5.23
241.915	5.34
242.292	4.78
242.668	4.35
243.045	4.27
243.421	4.46
243.798	4.48
244.174	4.7
244.551	4.99
244.927	4.91
245.303	4.87
245.679	4.88
246.056	4.69
246.432	4.77
246.808	4.65
247.184	4.38
247.56	4.42
247.936	4.64
248.312	4.62
248.688	4.79
249.064	4.5
249.44	4.71
249.815	4.65
250.191	4.87
250.567	4.77
250.943	4.67
251.318	4.7
251.694	4.65
252.069	4.68
252.445	4.69
252.82	4.92
253.196	4.67
253.571	4.44
253.947	4.89
254.322	4.98
254.697	4.73
255.073	4.64
255.448	4.25
255.823	3.95
256.198	4.09
256.573	3.97
256.948	4.23
257.323	4.36
257.698	4.15
258.073	4.04
258.448	4.06
258.823	4.14
259.198	4.11
259.573	4.19
259.948	4.21
260.322	4.24
260.697	4.21
261.072	4.3
261.446	4.48
261.821	4.25
262.195	4.18
262.57	4.24
262.944	4.39
263.319	4.45
263.693	4.38
264.067	4.36
264.442	4.55
264.816	4.47
265.19	4.46
265.564	4.53
265.938	4.62
266.313	4.64
266.687	4.68
267.061	4.73
267.435	4.63
267.809	4.54
268.183	4.53
268.556	4.48
268.93	4.47
269.304	4.38
269.678	4.44
270.051	4.56
270.425	4.66
270.799	4.61
271.172	4.68
271.546	4.68
271.919	4.45
272.293	4.37
272.666	4.41
273.04	4.54
273.413	4.56
273.787	4.61
274.16	4.58
274.533	4.45
274.906	4.28
275.279	4.29
275.653	4.38
276.026	4.26
276.399	4.23
276.772	4.18
277.145	4.09
277.518	4.06
277.891	3.91
278.263	3.74
278.636	3.86
279.009	3.89
279.382	4.09
279.755	4.24
280.127	4.21
280.5	4.1
280.872	3.81
281.245	3.8
281.617	3.82
281.99	3.86
282.362	3.83
282.735	3.87
283.107	3.99
283.479	3.97
283.852	4.08
284.224	4.14
284.596	4.18
284.968	4.25
285.34	4.41
285.713	4.45
286.085	4.56
286.457	4.57
286.829	4.44
287.201	4.29
287.572	4.22
287.944	4.27
288.316	4.3
288.688	4.51
289.06	4.49
289.431	4.52
289.803	4.69
290.175	4.93
290.546	5.2
290.918	5.25
291.289	5.21
291.661	5.19
292.032	5.31
292.403	5.35
292.775	5.4
293.146	5.36
293.517	5.33
293.889	5.37
294.26	5.37
294.631	5.63
295.002	5.68
295.373	5.78
295.744	5.81
296.115	5.94
296.486	5.78
296.857	5.79
297.228	5.76
297.599	5.67
297.97	5.45
298.34	5.36
298.711	5.36
299.082	5.52
299.452	5.53
299.823	5.51
300.194	5.53
300.564	5.49
300.935	5.46
301.305	5.61
301.676	5.83
302.046	5.85
302.416	5.82
302.787	5.97
303.157	6.04
303.527	5.93
303.897	5.83
304.267	5.99
304.637	6.13
305.008	6.26
305.378	6.32
305.748	6.61
306.117	6.63
306.487	6.78
306.857	6.67
307.227	6.74
307.597	6.74
307.967	6.72
308.336	6.78
308.706	6.84
309.076	6.7
309.445	6.59
309.815	6.59
310.184	6.45
310.554	6.49
310.923	6.49
311.293	6.66
311.662	6.61
312.031	6.7
312.401	6.76
312.77	6.73
313.139	6.85
313.508	6.85
313.877	6.81
314.246	6.76
314.616	6.72
314.985	6.58
315.353	6.61
315.722	6.66
316.091	6.77
316.46	6.63
316.829	6.78
317.198	6.78
317.567	6.86
317.935	6.96
318.304	7.02
318.672	7.11
319.041	7.27
319.41	7.43
319.778	7.43
320.147	7.38
320.515	7.58
320.883	7.37
321.252	7.4
321.62	7.53
321.988	7.56
322.357	7.71
322.725	7.87
323.093	8
323.461	8.18
323.829	8.13
324.197	8.42
324.565	8.53
324.933	8.5
325.301	8.49
325.669	8.65
326.037	8.59
326.405	8.65
326.772	8.62
327.14	8.64
327.508	8.63
327.875	8.64
328.243	8.58
328.61	8.71
328.978	8.76
329.346	8.92
329.713	8.87
330.08	8.94
330.448	9.02
330.815	8.91
331.182	8.77
331.55	8.77
331.917	8.66
332.284	8.73
332.651	8.71
333.018	8.85
333.385	8.83
333.752	8.94
334.119	8.9
334.486	8.77
334.853	8.81
335.22	8.89
335.587	8.95
335.954	8.97
336.32	8.91
336.687	8.87
337.054	8.69
337.42	8.82
337.787	8.88
338.153	8.92
338.52	9.02
338.886	9.11
339.253	9.24
339.619	9.34
339.986	9.29
340.352	9.43
340.718	9.4
341.084	9.33
341.451	9.37
341.817	9.43
342.183	9.47
342.549	9.47
342.915	9.48
343.281	9.63
343.647	9.58
344.013	9.66
344.379	9.62
344.745	9.66
345.11	9.65
345.476	9.57
345.842	9.59
346.208	9.55
346.573	9.55
346.939	9.54
347.304	9.57
347.67	9.52
348.035	9.49
348.401	9.48
348.766	9.55
349.132	9.5
349.497	9.49
349.862	9.6
350.228	9.73
350.593	9.7
350.958	9.63
351.323	9.71
351.688	9.77
352.053	9.87
352.418	9.95
352.783	9.96
353.148	10.05
353.513	9.99
353.878	10.1
354.243	10.2
354.608	10.25
354.972	10.22
355.337	10.33
355.702	10.43
356.066	10.46
356.431	10.4
356.795	10.45
357.16	10.52
357.524	10.45
357.889	10.32
358.253	10.36
358.618	10.36
358.982	10.33
359.346	10.29
359.71	10.24
360.075	10.18
360.439	10.14
360.803	10.09
361.167	10.12
361.531	10.1
361.895	10.03
362.259	9.95
362.623	9.87
362.987	9.83
363.351	9.75
363.714	9.71
364.078	9.74
364.442	9.69
364.806	9.55
365.169	9.55
365.533	9.58
365.896	9.53
366.26	9.49
366.623	9.46
366.987	9.42
367.35	9.43
367.714	9.42
368.077	9.42
368.44	9.43
368.803	9.42
369.167	9.31
369.53	9.29
369.893	9.3
370.256	9.32
370.619	9.33
370.982	9.25
371.345	9.26
371.708	9.22
372.071	9.12
372.434	9.12
372.797	9.11
373.159	9.1
373.522	9.07
373.885	9.05
374.247	9
374.61	8.96
374.973	8.96
375.335	8.94
375.698	8.9
376.06	8.79
376.423	8.79
376.785	8.86
377.147	8.88
377.51	8.83
377.872	8.91
378.234	8.84
378.596	8.87
378.958	8.82
379.321	8.77
379.683	8.8
380.045	8.81
380.407	8.74
380.769	8.65
381.13	8.63
381.492	8.6
381.854	8.55
382.216	8.56
382.578	8.51
382.939	8.47
383.301	8.48
383.663	8.51
384.024	8.45
384.386	8.36
384.747	8.28
385.109	8.25
385.47	8.15
385.832	8.1
386.193	8.11
386.554	8.04
386.916	8.03
387.277	8
387.638	7.99
387.999	7.93
388.36	7.93
388.721	7.88
389.082	7.83
389.443	7.85
389.804	7.8
390.165	7.76
390.526	7.75
390.887	7.69
391.248	7.63
391.609	7.62
391.969	7.64
392.33	7.65
392.691	7.64
393.051	7.57
393.412	7.59
393.772	7.51
394.133	7.5
394.493	7.49
394.854	7.42
395.214	7.36
395.574	7.45
395.935	7.41
396.295	7.4
396.655	7.36
397.015	7.3
397.376	7.31
397.736	7.27
398.096	7.26
398.456	7.24
398.816	7.24
399.176	7.16
399.535	7.09
399.895	6.99
400.255	6.97
400.615	6.98
400.975	6.93
401.334	6.92
401.694	6.88
402.054	6.85
402.413	6.84
402.773	6.81
403.132	6.72
403.492	6.71
403.851	6.69
404.211	6.67
404.57	6.69
404.929	6.62
405.288	6.61
405.648	6.57
406.007	6.52
406.366	6.5
406.725	6.52
407.084	6.52
407.443	6.52
407.802	6.51
408.161	6.48
408.52	6.45
408.879	6.42
409.238	6.44
409.596	6.47
409.955	6.47
410.314	6.46
410.673	6.46
411.031	6.43
411.39	6.42
411.748	6.43
412.107	6.39
412.465	6.4
412.824	6.41
413.182	6.37
413.54	6.39
413.899	6.35
414.257	6.34
414.615	6.34
414.974	6.32
415.332	6.3
415.69	6.31
416.048	6.3
416.406	6.29
416.764	6.27
417.122	6.23
417.48	6.2
417.838	6.17
418.195	6.14
418.553	6.13
418.911	6.1
419.269	6.09
419.626	6.08
419.984	6.07
420.342	6.06
420.699	6.06
421.057	6.03
421.414	6.04
421.772	6.01
422.129	5.99
422.486	5.98
422.844	5.97
423.201	5.95
423.558	5.94
423.915	5.93
424.273	5.91
424.63	5.89
424.987	5.88
425.344	5.89
425.701	5.87
426.058	5.86
426.415	5.86
426.772	5.82
427.128	5.8
427.485	5.77
427.842	5.75
428.199	5.74
428.555	5.73
428.912	5.74
429.269	5.74
429.625	5.7
429.982	5.68
430.338	5.67
430.695	5.63
431.051	5.63
431.407	5.62
431.764	5.62
432.12	5.63
432.476	5.63
432.832	5.61
433.189	5.64
433.545	5.62
433.901	5.6
434.257	5.59
434.613	5.61
434.969	5.63
435.325	5.63
435.681	5.63
436.036	5.61
436.392	5.59
436.748	5.58
437.104	5.58
437.459	5.59
437.815	5.59
438.171	5.6
438.526	5.6
438.882	5.58
439.237	5.56
439.593	5.57
439.948	5.55
440.304	5.55
440.659	5.54
441.014	5.56
441.369	5.56
441.725	5.57
442.08	5.55
442.435	5.55
442.79	5.55
443.145	5.55
443.5	5.54
443.855	5.52
444.21	5.51
444.565	5.52
444.92	5.52
445.275	5.48
445.629	5.49
445.984	5.48
446.339	5.47
446.693	5.47
447.048	5.46
447.403	5.44
447.757	5.45
448.112	5.43
448.466	5.41
448.82	5.4
449.175	5.4
449.529	5.41
449.883	5.39
450.238	5.36
450.592	5.33
450.946	5.32
451.3	5.31
451.654	5.3
452.008	5.28
452.362	5.26
452.716	5.28
453.07	5.27
453.424	5.25
453.778	5.26
454.132	5.24
454.486	5.24
454.839	5.23
455.193	5.19
455.547	5.17
455.9	5.18
456.254	5.16
456.607	5.14
456.961	5.13
457.314	5.14
457.668	5.14
458.021	5.13
458.375	5.15
458.728	5.16
459.081	5.17
459.434	5.18
459.787	5.18
460.141	5.18
460.494	5.19
460.847	5.19
461.2	5.2
461.553	5.22
461.906	5.23
462.259	5.26
462.611	5.29
462.964	5.33
463.317	5.33
463.67	5.36
464.022	5.38
464.375	5.38
464.728	5.41
465.08	5.43
465.433	5.46
465.785	5.45
466.138	5.48
466.49	5.5
466.843	5.52
467.195	5.55
467.547	5.57
467.899	5.58
468.252	5.61
468.604	5.61
468.956	5.62
469.308	5.63
469.66	5.64
470.012	5.64
470.364	5.66
470.716	5.67
471.068	5.68
471.42	5.67
471.772	5.69
472.123	5.71
472.475	5.73
472.827	5.74
473.178	5.77
473.53	5.76
473.882	5.76
474.233	5.78
474.585	5.77
474.936	5.76
475.288	5.75
475.639	5.74
475.99	5.75
476.342	5.73
476.693	5.71
477.044	5.71
477.395	5.71
477.746	5.69
478.097	5.68
478.448	5.66
478.8	5.67
479.15	5.62
479.501	5.59
479.852	5.56
480.203	5.56
480.554	5.55
480.905	5.57
481.255	5.56
481.606	5.55
481.957	5.56
482.307	5.56
482.658	5.58
483.009	5.59
483.359	5.59
483.709	5.61
484.06	5.61
484.41	5.61
484.761	5.61
485.111	5.62
485.461	5.64
485.811	5.64
486.162	5.64
486.512	5.67
486.862	5.68
487.212	5.68
487.562	5.69
487.912	5.71
488.262	5.71
488.612	5.72
488.961	5.73
489.311	5.72
489.661	5.74
490.011	5.74
490.36	5.75
490.71	5.76
491.06	5.75
491.409	5.76
491.759	5.78
492.108	5.79
492.458	5.8
492.807	5.81
493.157	5.83
493.506	5.86
493.855	5.88
494.204	5.88
494.554	5.92
494.903	5.93
495.252	5.95
495.601	5.96
495.95	5.99
496.299	6.04
496.648	6.09
496.997	6.12
497.346	6.17
497.695	6.21
498.043	6.23
498.392	6.29
498.741	6.34
499.09	6.39
499.438	6.45
499.787	6.5
500.135	6.56
500.484	6.6
500.832	6.65
501.181	6.7
501.529	6.76
501.878	6.83
502.226	6.89
502.574	6.96
502.923	7.04
503.271	7.08
503.619	7.15
503.967	7.21
504.315	7.28
504.663	7.32
505.011	7.38
505.359	7.46
505.707	7.51
506.055	7.57
506.403	7.63
506.751	7.7
507.098	7.76
507.446	7.84
507.794	7.9
508.141	7.98
508.489	8.07
508.837	8.14
509.184	8.18
509.531	8.25
509.879	8.32
510.226	8.4
510.574	8.46
510.921	8.52
511.268	8.57
511.616	8.63
511.963	8.71
512.31	8.78
512.657	8.84
513.004	8.93
513.351	9
513.698	9.06
514.045	9.11
514.392	9.18
514.739	9.23
515.086	9.31
515.432	9.36
515.779	9.43
516.126	9.52
516.473	9.61
516.819	9.69
517.166	9.76
517.512	9.82
517.859	9.92
518.205	9.97
518.552	10.05
518.898	10.14
519.245	10.2
519.591	10.26
519.937	10.33
520.283	10.39
520.629	10.5
520.976	10.59
521.322	10.71
521.668	10.8
522.014	10.92
522.36	11.05
522.706	11.16
523.052	11.3
523.398	11.43
523.743	11.55
524.089	11.69
524.435	11.81
524.781	11.95
525.126	12.06
525.472	12.19
525.817	12.29
526.163	12.38
526.509	12.48
526.854	12.59
527.199	12.7
527.545	12.8
527.89	12.88
528.235	12.99
528.581	13.08
528.926	13.19
529.271	13.29
529.616	13.39
529.961	13.5
530.306	13.6
530.651	13.72
530.996	13.86
531.341	13.99
531.686	14.13
532.031	14.27
532.376	14.43
532.721	14.58
533.065	14.75
533.41	14.91
533.755	15.08
534.099	15.24
534.444	15.42
534.788	15.61
535.133	15.78
535.477	15.96
535.822	16.17
536.166	16.37
536.51	16.58
536.855	16.82
537.199	17.08
537.543	17.33
537.887	17.56
538.231	17.79
538.576	18.06
538.92	18.32
539.264	18.57
539.608	18.81
539.951	19.07
540.295	19.28
540.639	19.53
540.983	19.76
541.327	20
541.671	20.22
542.014	20.41
542.358	20.64
542.701	20.84
543.045	21.06
543.389	21.29
543.732	21.51
544.075	21.76
544.419	21.98
544.762	22.24
545.105	22.5
545.449	22.81
545.792	23.11
546.135	23.39
546.478	23.72
546.821	24.04
547.165	24.37
547.508	24.7
547.851	25.02
548.194	25.33
548.536	25.65
548.879	26.01
549.222	26.37
549.565	26.72
549.908	27.09
550.25	27.43
550.593	27.78
550.936	28.16
551.278	28.46
551.621	28.83
551.963	29.16
552.306	29.52
552.648	29.84
552.991	30.17
553.333	30.48
553.675	30.78
554.017	31.05
554.36	31.25
554.702	31.58
555.044	31.9
555.386	32.21
555.728	32.52
556.07	32.78
556.412	33.01
556.754	33.3
557.096	33.56
557.438	33.87
557.78	34.17
558.121	34.51
558.463	34.89
558.805	35.18
559.147	35.49
559.488	35.78
559.83	36.08
560.171	36.36
560.513	36.71
560.854	36.96
561.196	37.2
561.537	37.55
561.878	37.79
562.22	38.05
562.561	38.28
562.902	38.54
563.243	38.84
563.584	39.17
563.925	39.45
564.266	39.7
564.607	39.94
564.948	40.19
565.289	40.41
565.63	40.55
565.971	40.77
566.312	40.99
566.653	41.22
566.993	41.44
567.334	41.62
567.675	41.84
568.015	42.1
568.356	42.38
568.696	42.61
569.037	42.87
569.377	43.09
569.718	43.32
570.058	43.52
570.398	43.71
570.739	43.88
571.079	44.08
571.419	44.37
571.759	44.56
572.099	44.68
572.439	44.84
572.779	45.04
573.119	45.22
573.459	45.39
573.799	45.56
574.139	45.73
574.479	45.94
574.819	46.04
575.158	46.18
575.498	46.33
575.838	46.48
576.177	46.62
576.517	46.76
576.856	46.94
577.196	47.09
577.535	47.22
577.875	47.4
578.214	47.52
578.553	47.63
578.893	47.68
579.232	47.92
579.571	48.07
579.91	48.22
580.25	48.36
580.589	48.49
580.928	48.62
581.267	48.67
581.606	48.78
581.945	49.01
582.283	49.12
582.622	49.2
582.961	49.32
583.3	49.43
583.639	49.57
583.977	49.71
584.316	49.89
584.654	50
584.993	50.1
585.332	50.23
585.67	50.3
586.008	50.49
586.347	50.54
586.685	50.66
587.024	50.75
587.362	50.87
587.7	51
588.038	51.15
588.376	51.25
588.715	51.35
589.053	51.38
589.391	51.48
589.729	51.58
590.067	51.57
590.404	51.7
590.742	51.81
591.08	51.86
591.418	51.95
591.756	52.09
592.093	52.19
592.431	52.26
592.769	52.36
593.106	52.44
593.444	52.56
593.781	52.62
594.119	52.74
594.456	52.84
594.793	52.9
595.131	52.86
595.468	52.97
595.805	53.03
596.143	53.12
596.48	53.19
596.817	53.22
597.154	53.39
597.491	53.44
597.828	53.46
598.165	53.57
598.502	53.51
598.839	53.55
599.176	53.59
599.512	53.67
599.849	53.73
600.186	53.81
600.523	53.88
600.859	53.96
601.196	53.93
601.532	54
601.869	54.06
602.205	54.2
602.542	54.31
602.878	54.38
603.215	54.41
603.551	54.46
603.887	54.63
604.223	54.58
604.56	54.69
604.896	54.73
605.232	54.78
605.568	54.89
605.904	54.89
606.24	55.01
606.576	55.06
606.912	55.15
607.248	55.22
607.583	55.28
607.919	55.34
608.255	55.46
608.591	55.55
608.926	55.6
609.262	55.63
609.597	55.65
609.933	55.67
610.268	55.75
610.604	55.79
610.939	55.73
611.275	55.88
611.61	55.85
611.945	55.87
612.281	55.85
612.616	55.93
612.951	56.06
613.286	56.09
613.621	56.17
613.956	56.18
614.291	56.1
614.626	56.19
614.961	56.21
615.296	56.23
615.631	56.24
615.966	56.26
616.3	56.27
616.635	56.3
616.97	56.33
617.304	56.38
617.639	56.46
617.973	56.59
618.308	56.55
618.642	56.6
618.977	56.68
619.311	56.68
619.646	56.74
619.98	56.76
620.314	56.76
620.648	56.78
620.983	56.84
621.317	56.93
621.651	56.87
621.985	57.01
622.319	57.1
622.653	57.11
622.987	57.11
623.321	57.19
623.655	57.2
623.988	57.3
624.322	57.31
624.656	57.34
624.99	57.3
625.323	57.29
625.657	57.23
625.99	57.28
626.324	57.3
626.657	57.31
626.991	57.32
627.324	57.33
627.658	57.34
627.991	57.4
628.324	57.46
628.657	57.46
628.991	57.43
629.324	57.51
629.657	57.42
629.99	57.44
630.323	57.41
630.656	57.41
630.989	57.45
631.322	57.46
631.655	57.48
631.987	57.52
632.32	57.57
632.653	57.64
632.986	57.7
633.318	57.78
633.651	57.81
633.984	57.94
634.316	58.03
634.649	58.04
634.981	57.95
635.313	57.93
635.646	58.06
635.978	58.06
636.31	57.93
636.643	58.07
636.975	58.16
637.307	58.21
637.639	58.25
637.971	58.22
638.303	58.16
638.635	58.24
638.967	58.34
639.299	58.32
639.631	58.38
639.963	58.31
640.295	58.32
640.626	58.34
640.958	58.29
641.29	58.16
641.621	58.23
641.953	58.31
642.285	58.31
642.616	58.2
642.948	58.22
643.279	58.35
643.61	58.38
643.942	58.35
644.273	58.4
644.604	58.48
644.936	58.57
645.267	58.7
645.598	58.61
645.929	58.58
646.26	58.64
646.591	58.65
646.922	58.65
647.253	58.63
647.584	58.67
647.915	58.67
648.245	58.73
648.576	58.65
648.907	58.71
649.238	58.77
649.568	58.88
649.899	58.87
650.229	58.9
650.56	58.88
650.89	58.94
651.221	58.96
651.551	58.84
651.882	58.77
652.212	58.74
652.542	58.76
652.872	58.75
653.203	58.84
653.533	58.91
653.863	59.02
654.193	58.98
654.523	58.98
654.853	58.93
655.183	59.11
655.513	59.29
655.843	59.22
656.172	59.37
656.502	59.32
656.832	59.49
657.162	59.51
657.491	59.57
657.821	59.6
658.15	59.6
658.48	59.77
658.809	59.89
659.139	59.91
659.468	59.81
659.798	59.87
660.127	59.91
660.456	59.87
660.785	59.88
661.115	59.99
661.444	59.93
661.773	60.08
662.102	59.92
662.431	59.77
662.76	59.9
663.089	59.73
663.418	59.69
663.747	59.52
664.076	59.53
664.404	59.59
664.733	59.54
665.062	59.67
665.39	59.68
665.719	59.61
