Data from BA28299_Reflection_00007.txt Node
Date: Mon Nov 18 15:42:21 EST 2019
User: vgr7
Spectrometer: USB2G7710
Scans to average: 3
Trigger mode: 4
Integration Time (sec): 2.000000E-2
Electric dark correction enabled: true
Boxcar width: 10
XAxis mode: Wavelengths
Number of Pixels in Spectrum: 2048
>>>>>Begin Spectral Data<<<<<
177.721	72.65
178.105	-221.84
178.488	1136.53
178.871	-710.61
179.254	159.36
179.636	48.84
180.019	71.84
180.402	84.62
180.785	-1212.93
181.168	1641.67
181.55	-985.47
181.933	265.03
182.316	164.53
182.698	162.9
183.081	232.72
183.463	368.95
183.846	217.33
184.228	1057.67
184.611	15366.67
184.993	-393.76
185.376	-294.91
185.758	-451.2
186.14	-395.28
186.522	-477.5
186.904	-226.1
187.287	-382.42
187.669	-84.33
188.051	-95.55
188.433	-85.42
188.815	-53.33
189.197	-31.68
189.579	-18.93
189.961	-31.87
190.342	-29.51
190.724	-6.46
191.106	-2.83
191.488	-6.36
191.869	-2.34
192.251	-21.51
192.633	-13.43
193.014	-12.2
193.396	-13.54
193.777	1.94
194.159	8.61
194.54	3.63
194.922	3.27
195.303	0.51
195.684	1.42
196.065	17.85
196.447	20.08
196.828	5.46
197.209	3.72
197.59	2.56
197.971	0.57
198.352	0.25
198.733	-7.86
199.114	-2.78
199.495	-6.42
199.876	-12.21
200.257	-1.81
200.638	0.46
201.018	-8.54
201.399	-15.16
201.78	-28.98
202.16	-35.87
202.541	-40.43
202.922	-39.2
203.302	-43.8
203.683	-61.82
204.063	-75.03
204.444	-68.41
204.824	-67.66
205.204	-63.32
205.585	-69.87
205.965	-56.36
206.345	-50.12
206.725	-49.01
207.106	-69.49
207.486	-80.57
207.866	-90.05
208.246	-86.24
208.626	-65.34
209.006	-33.61
209.386	-29.89
209.766	-6.58
210.145	-1.56
210.525	8.51
210.905	-4.06
211.285	3.7
211.664	18.41
212.044	31.58
212.424	30.05
212.803	29.68
213.183	35.84
213.562	38.76
213.942	35.56
214.321	25.85
214.701	29.09
215.08	30.99
215.459	29.46
215.838	47.4
216.218	46.86
216.597	48.87
216.976	37.94
217.355	43.41
217.734	32.49
218.113	33.06
218.492	30.18
218.871	18.49
219.25	16.04
219.629	10.14
220.008	-23.21
220.387	-27.68
220.766	-15.13
221.144	-33.84
221.523	-47.61
221.902	-43.92
222.28	-37.12
222.659	-31.89
223.037	-33.42
223.416	-34.87
223.794	-33.7
224.173	-36.82
224.551	-30.61
224.929	-32.49
225.308	-28.3
225.686	-25.93
226.064	-23.41
226.442	-19.3
226.821	-13.88
227.199	-12.98
227.577	-11.04
227.955	-6.01
228.333	-7.1
228.711	-8.12
229.089	-4.61
229.467	-6.03
229.845	-5.28
230.222	-3.62
230.6	-1.69
230.978	0.44
231.356	2.73
231.733	4.05
232.111	6.17
232.488	4.22
232.866	6.01
233.243	6.91
233.621	6.34
233.998	8.11
234.376	7.03
234.753	6.43
235.13	6.45
235.508	6.01
235.885	5.18
236.262	3.93
236.639	4.88
237.016	3.72
237.393	4.68
237.77	4.89
238.147	5.8
238.524	4.99
238.901	5.16
239.278	5.33
239.655	5.19
240.032	5
240.409	4.88
240.785	4.88
241.162	4.72
241.539	5.14
241.915	4.96
242.292	4.73
242.668	4.88
243.045	4.95
243.421	4.94
243.798	4.86
244.174	5.22
244.551	4.95
244.927	5.27
245.303	5.16
245.679	5.3
246.056	5.17
246.432	5.27
246.808	5.07
247.184	4.79
247.56	4.44
247.936	4.38
248.312	4.4
248.688	4.41
249.064	4.25
249.44	4.1
249.815	4.22
250.191	4.43
250.567	4.54
250.943	4.38
251.318	4.52
251.694	4.63
252.069	4.7
252.445	4.76
252.82	4.52
253.196	4.61
253.571	4.47
253.947	4.23
254.322	4.28
254.697	3.99
255.073	4.08
255.448	4.54
255.823	4.52
256.198	4.58
256.573	4.28
256.948	4.58
257.323	4.89
257.698	4.71
258.073	4.67
258.448	4.46
258.823	4.44
259.198	4.23
259.573	4.11
259.948	4.2
260.322	4.15
260.697	4.05
261.072	4.16
261.446	4.36
261.821	4.51
262.195	4.45
262.57	4.56
262.944	4.47
263.319	4.44
263.693	4.37
264.067	4.49
264.442	4.66
264.816	4.45
265.19	4.12
265.564	4.08
265.938	3.94
266.313	4.01
266.687	4.11
267.061	4.28
267.435	4.35
267.809	4.19
268.183	4.16
268.556	4.25
268.93	4.23
269.304	4.05
269.678	3.94
270.051	3.83
270.425	3.78
270.799	3.91
271.172	3.84
271.546	3.89
271.919	3.74
272.293	3.88
272.666	3.99
273.04	4.27
273.413	4.21
273.787	4.16
274.16	4.24
274.533	4.32
274.906	4.1
275.279	4.05
275.653	4.03
276.026	4.07
276.399	4.22
276.772	4.25
277.145	4.19
277.518	4.29
277.891	4.37
278.263	4.32
278.636	4.3
279.009	4.33
279.382	4.29
279.755	4.29
280.127	4.08
280.5	3.99
280.872	4.07
281.245	4.19
281.617	4.31
281.99	4.3
282.362	4.26
282.735	4.25
283.107	4.25
283.479	4.18
283.852	4.12
284.224	3.9
284.596	3.87
284.968	3.95
285.34	3.93
285.713	3.93
286.085	4.08
286.457	4.1
286.829	4.11
287.201	4.25
287.572	4.18
287.944	4.34
288.316	4.39
288.688	4.27
289.06	4.24
289.431	4.14
289.803	4.11
290.175	4.05
290.546	4.25
290.918	4.28
291.289	4.28
291.661	4.37
292.032	4.57
292.403	4.5
292.775	4.46
293.146	4.5
293.517	4.44
293.889	4.51
294.26	4.61
294.631	4.56
295.002	4.44
295.373	4.67
295.744	4.56
296.115	4.51
296.486	4.46
296.857	4.45
297.228	4.57
297.599	4.54
297.97	4.68
298.34	4.57
298.711	4.68
299.082	4.87
299.452	4.99
299.823	5.1
300.194	5.12
300.564	5.13
300.935	5.14
301.305	5.23
301.676	5.19
302.046	5.23
302.416	5.43
302.787	5.41
303.157	5.27
303.527	5.26
303.897	5.49
304.267	5.65
304.637	5.79
305.008	5.7
305.378	5.9
305.748	5.76
306.117	5.85
306.487	5.85
306.857	5.8
307.227	5.72
307.597	5.66
307.967	5.69
308.336	5.68
308.706	5.64
309.076	5.74
309.445	5.62
309.815	5.44
310.184	5.37
310.554	5.48
310.923	5.61
311.293	5.71
311.662	5.61
312.031	5.54
312.401	5.46
312.77	5.66
313.139	5.67
313.508	5.71
313.877	5.74
314.246	5.72
314.616	5.65
314.985	5.64
315.353	5.47
315.722	5.57
316.091	5.43
316.46	5.44
316.829	5.41
317.198	5.59
317.567	5.55
317.935	5.51
318.304	5.48
318.672	5.37
319.041	5.45
319.41	5.46
319.778	5.51
320.147	5.56
320.515	5.62
320.883	5.39
321.252	5.56
321.62	5.51
321.988	5.57
322.357	5.77
322.725	5.8
323.093	6.06
323.461	6.03
323.829	6.36
324.197	6.5
324.565	6.44
324.933	6.41
325.301	6.71
325.669	6.81
326.037	6.85
326.405	7.04
326.772	7.12
327.14	7.34
327.508	7.25
327.875	7.22
328.243	7.13
328.61	7.36
328.978	7.3
329.346	7.46
329.713	7.5
330.08	7.47
330.448	7.45
330.815	7.37
331.182	7.52
331.55	7.5
331.917	7.56
332.284	7.69
332.651	7.77
333.018	7.74
333.385	7.69
333.752	7.78
334.119	7.77
334.486	7.73
334.853	7.61
335.22	7.7
335.587	7.88
335.954	8.02
336.32	8.01
336.687	8.03
337.054	8.03
337.42	8.03
337.787	8.02
338.153	8.12
338.52	8.23
338.886	8.16
339.253	8.16
339.619	8.04
339.986	8.06
340.352	8.16
340.718	8.15
341.084	8.15
341.451	8.16
341.817	8.18
342.183	8.09
342.549	8.13
342.915	8.23
343.281	8.23
343.647	8.12
344.013	8.14
344.379	8.19
344.745	8.19
345.11	8.28
345.476	8.36
345.842	8.38
346.208	8.25
346.573	8.3
346.939	8.37
347.304	8.41
347.67	8.43
348.035	8.36
348.401	8.44
348.766	8.43
349.132	8.38
349.497	8.2
349.862	8.35
350.228	8.36
350.593	8.38
350.958	8.42
351.323	8.49
351.688	8.52
352.053	8.55
352.418	8.62
352.783	8.58
353.148	8.56
353.513	8.54
353.878	8.66
354.243	8.64
354.608	8.66
354.972	8.61
355.337	8.59
355.702	8.63
356.066	8.62
356.431	8.64
356.795	8.7
357.16	8.87
357.524	8.72
357.889	8.68
358.253	8.61
358.618	8.62
358.982	8.46
359.346	8.48
359.71	8.45
360.075	8.45
360.439	8.43
360.803	8.42
361.167	8.35
361.531	8.37
361.895	8.36
362.259	8.35
362.623	8.43
362.987	8.44
363.351	8.42
363.714	8.44
364.078	8.47
364.442	8.48
364.806	8.38
365.169	8.41
365.533	8.44
365.896	8.42
366.26	8.33
366.623	8.41
366.987	8.37
367.35	8.35
367.714	8.28
368.077	8.22
368.44	8.15
368.803	8.12
369.167	7.99
369.53	7.93
369.893	7.9
370.256	7.85
370.619	7.82
370.982	7.75
371.345	7.65
371.708	7.62
372.071	7.55
372.434	7.52
372.797	7.56
373.159	7.46
373.522	7.47
373.885	7.47
374.247	7.47
374.61	7.45
374.973	7.38
375.335	7.34
375.698	7.33
376.06	7.34
376.423	7.36
376.785	7.4
377.147	7.39
377.51	7.36
377.872	7.29
378.234	7.22
378.596	7.24
378.958	7.17
379.321	7.13
379.683	7.12
380.045	7.14
380.407	7.01
380.769	7
381.13	6.94
381.492	6.87
381.854	6.78
382.216	6.71
382.578	6.73
382.939	6.74
383.301	6.71
383.663	6.68
384.024	6.59
384.386	6.57
384.747	6.58
385.109	6.53
385.47	6.48
385.832	6.5
386.193	6.43
386.554	6.42
386.916	6.37
387.277	6.31
387.638	6.27
387.999	6.25
388.36	6.18
388.721	6.14
389.082	6.14
389.443	6.12
389.804	6.11
390.165	6.03
390.526	5.98
390.887	5.94
391.248	5.93
391.609	5.92
391.969	5.89
392.33	5.81
392.691	5.77
393.051	5.77
393.412	5.75
393.772	5.69
394.133	5.66
394.493	5.65
394.854	5.6
395.214	5.54
395.574	5.52
395.935	5.48
396.295	5.51
396.655	5.43
397.015	5.4
397.376	5.38
397.736	5.38
398.096	5.37
398.456	5.34
398.816	5.29
399.176	5.27
399.535	5.18
399.895	5.17
400.255	5.13
400.615	5.11
400.975	5.05
401.334	5.06
401.694	5.04
402.054	4.99
402.413	4.99
402.773	4.95
403.132	4.92
403.492	4.92
403.851	4.87
404.211	4.89
404.57	4.89
404.929	4.82
405.288	4.81
405.648	4.75
406.007	4.74
406.366	4.7
406.725	4.68
407.084	4.69
407.443	4.68
407.802	4.7
408.161	4.66
408.52	4.64
408.879	4.64
409.238	4.61
409.596	4.6
409.955	4.58
410.314	4.59
410.673	4.58
411.031	4.58
411.39	4.54
411.748	4.52
412.107	4.5
412.465	4.5
412.824	4.46
413.182	4.43
413.54	4.39
413.899	4.41
414.257	4.4
414.615	4.37
414.974	4.33
415.332	4.27
415.69	4.24
416.048	4.22
416.406	4.2
416.764	4.18
417.122	4.18
417.48	4.13
417.838	4.12
418.195	4.11
418.553	4.09
418.911	4.06
419.269	4.04
419.626	4.02
419.984	4
420.342	4
420.699	4
421.057	4
421.414	3.95
421.772	3.94
422.129	3.92
422.486	3.92
422.844	3.92
423.201	3.9
423.558	3.89
423.915	3.88
424.273	3.87
424.63	3.87
424.987	3.86
425.344	3.85
425.701	3.83
426.058	3.83
426.415	3.84
426.772	3.85
427.128	3.84
427.485	3.84
427.842	3.81
428.199	3.8
428.555	3.77
428.912	3.79
429.269	3.78
429.625	3.79
429.982	3.78
430.338	3.78
430.695	3.8
431.051	3.79
431.407	3.78
431.764	3.76
432.12	3.73
432.476	3.73
432.832	3.73
433.189	3.72
433.545	3.72
433.901	3.73
434.257	3.7
434.613	3.71
434.969	3.72
435.325	3.74
435.681	3.75
436.036	3.77
436.392	3.77
436.748	3.75
437.104	3.75
437.459	3.74
437.815	3.72
438.171	3.71
438.526	3.72
438.882	3.72
439.237	3.71
439.593	3.72
439.948	3.73
440.304	3.73
440.659	3.73
441.014	3.73
441.369	3.72
441.725	3.71
442.08	3.69
442.435	3.67
442.79	3.65
443.145	3.64
443.5	3.63
443.855	3.62
444.21	3.62
444.565	3.63
444.92	3.61
445.275	3.6
445.629	3.58
445.984	3.57
446.339	3.56
446.693	3.55
447.048	3.53
447.403	3.51
447.757	3.5
448.112	3.48
448.466	3.46
448.82	3.45
449.175	3.45
449.529	3.45
449.883	3.44
450.238	3.43
450.592	3.42
450.946	3.41
451.3	3.4
451.654	3.4
452.008	3.37
452.362	3.35
452.716	3.35
453.07	3.36
453.424	3.36
453.778	3.37
454.132	3.39
454.486	3.4
454.839	3.41
455.193	3.41
455.547	3.43
455.9	3.46
456.254	3.47
456.607	3.47
456.961	3.46
457.314	3.45
457.668	3.46
458.021	3.45
458.375	3.47
458.728	3.47
459.081	3.47
459.434	3.47
459.787	3.5
460.141	3.52
460.494	3.52
460.847	3.53
461.2	3.52
461.553	3.52
461.906	3.53
462.259	3.54
462.611	3.56
462.964	3.55
463.317	3.54
463.67	3.54
464.022	3.53
464.375	3.54
464.728	3.55
465.08	3.57
465.433	3.59
465.785	3.6
466.138	3.61
466.49	3.62
466.843	3.63
467.195	3.63
467.547	3.63
467.899	3.65
468.252	3.65
468.604	3.66
468.956	3.66
469.308	3.66
469.66	3.64
470.012	3.65
470.364	3.66
470.716	3.67
471.068	3.68
471.42	3.71
471.772	3.74
472.123	3.75
472.475	3.76
472.827	3.77
473.178	3.77
473.53	3.77
473.882	3.77
474.233	3.79
474.585	3.76
474.936	3.77
475.288	3.78
475.639	3.79
475.99	3.78
476.342	3.77
476.693	3.8
477.044	3.81
477.395	3.8
477.746	3.79
478.097	3.79
478.448	3.76
478.8	3.73
479.15	3.7
479.501	3.71
479.852	3.69
480.203	3.69
480.554	3.71
480.905	3.69
481.255	3.69
481.606	3.69
481.957	3.69
482.307	3.69
482.658	3.68
483.009	3.67
483.359	3.68
483.709	3.68
484.06	3.67
484.41	3.68
484.761	3.68
485.111	3.68
485.461	3.68
485.811	3.7
486.162	3.7
486.512	3.72
486.862	3.72
487.212	3.73
487.562	3.72
487.912	3.71
488.262	3.72
488.612	3.72
488.961	3.73
489.311	3.74
489.661	3.74
490.011	3.75
490.36	3.76
490.71	3.76
491.06	3.77
491.409	3.78
491.759	3.79
492.108	3.8
492.458	3.81
492.807	3.81
493.157	3.83
493.506	3.85
493.855	3.87
494.204	3.88
494.554	3.92
494.903	3.94
495.252	3.97
495.601	4
495.95	4.04
496.299	4.07
496.648	4.09
496.997	4.12
497.346	4.17
497.695	4.21
498.043	4.25
498.392	4.28
498.741	4.32
499.09	4.34
499.438	4.39
499.787	4.43
500.135	4.5
500.484	4.54
500.832	4.58
501.181	4.61
501.529	4.66
501.878	4.69
502.226	4.75
502.574	4.78
502.923	4.84
503.271	4.89
503.619	4.93
503.967	4.98
504.315	5.04
504.663	5.08
505.011	5.14
505.359	5.2
505.707	5.3
506.055	5.34
506.403	5.43
506.751	5.47
507.098	5.52
507.446	5.58
507.794	5.65
508.141	5.71
508.489	5.79
508.837	5.86
509.184	5.92
509.531	5.99
509.879	6.08
510.226	6.16
510.574	6.23
510.921	6.3
511.268	6.38
511.616	6.45
511.963	6.52
512.31	6.61
512.657	6.67
513.004	6.74
513.351	6.86
513.698	6.93
514.045	7.01
514.392	7.13
514.739	7.22
515.086	7.32
515.432	7.41
515.779	7.49
516.126	7.59
516.473	7.69
516.819	7.8
517.166	7.89
517.512	7.98
517.859	8.07
518.205	8.16
518.552	8.27
518.898	8.35
519.245	8.45
519.591	8.52
519.937	8.61
520.283	8.73
520.629	8.82
520.976	8.93
521.322	9.08
521.668	9.2
522.014	9.33
522.36	9.47
522.706	9.61
523.052	9.78
523.398	9.94
523.743	10.11
524.089	10.28
524.435	10.46
524.781	10.61
525.126	10.78
525.472	10.96
525.817	11.1
526.163	11.23
526.509	11.38
526.854	11.51
527.199	11.63
527.545	11.75
527.89	11.88
528.235	12.01
528.581	12.14
528.926	12.26
529.271	12.4
529.616	12.53
529.961	12.68
530.306	12.83
530.651	12.98
530.996	13.13
531.341	13.3
531.686	13.47
532.031	13.65
532.376	13.82
532.721	14.01
533.065	14.2
533.41	14.41
533.755	14.62
534.099	14.86
534.444	15.08
534.788	15.32
535.133	15.55
535.477	15.78
535.822	16.01
536.166	16.29
536.51	16.58
536.855	16.9
537.199	17.21
537.543	17.51
537.887	17.85
538.231	18.16
538.576	18.5
538.92	18.84
539.264	19.18
539.608	19.49
539.951	19.77
540.295	20.07
540.639	20.36
540.983	20.61
541.327	20.86
541.671	21.13
542.014	21.36
542.358	21.62
542.701	21.88
543.045	22.15
543.389	22.4
543.732	22.68
544.075	22.93
544.419	23.25
544.762	23.54
545.105	23.84
545.449	24.19
545.792	24.52
546.135	24.86
546.478	25.21
546.821	25.61
547.165	26.01
547.508	26.36
547.851	26.72
548.194	27.13
548.536	27.53
548.879	27.94
549.222	28.38
549.565	28.77
549.908	29.18
550.25	29.61
550.593	30.04
550.936	30.45
551.278	30.87
551.621	31.24
551.963	31.62
552.306	32.03
552.648	32.39
552.991	32.72
553.333	33.14
553.675	33.52
554.017	33.87
554.36	34.18
554.702	34.54
555.044	34.87
555.386	35.23
555.728	35.61
556.07	35.99
556.412	36.35
556.754	36.72
557.096	37.11
557.438	37.44
557.78	37.79
558.121	38.13
558.463	38.54
558.805	38.89
559.147	39.29
559.488	39.62
559.83	40.02
560.171	40.42
560.513	40.77
560.854	41.08
561.196	41.37
561.537	41.73
561.878	42.04
562.22	42.42
562.561	42.76
562.902	43.03
563.243	43.32
563.584	43.63
563.925	43.89
564.266	44.1
564.607	44.35
564.948	44.63
565.289	44.88
565.63	45.13
565.971	45.4
566.312	45.64
566.653	45.85
566.993	46.09
567.334	46.33
567.675	46.46
568.015	46.72
568.356	47
568.696	47.25
569.037	47.5
569.377	47.73
569.718	47.95
570.058	48.16
570.398	48.39
570.739	48.58
571.079	48.78
571.419	49.06
571.759	49.31
572.099	49.5
572.439	49.7
572.779	49.87
573.119	49.98
573.459	50.19
573.799	50.35
574.139	50.5
574.479	50.67
574.819	50.84
575.158	50.97
575.498	51.15
575.838	51.35
576.177	51.51
576.517	51.7
576.856	51.84
577.196	52.02
577.535	52.15
577.875	52.31
578.214	52.52
578.553	52.63
578.893	52.79
579.232	52.98
579.571	53.14
579.91	53.33
580.25	53.59
580.589	53.79
580.928	54.04
581.267	54.23
581.606	54.39
581.945	54.54
582.283	54.74
582.622	54.9
582.961	55.01
583.3	55.14
583.639	55.32
583.977	55.44
584.316	55.56
584.654	55.64
584.993	55.78
585.332	55.88
585.67	56.04
586.008	56.05
586.347	56.22
586.685	56.28
587.024	56.37
587.362	56.45
587.7	56.46
588.038	56.54
588.376	56.61
588.715	56.7
589.053	56.82
589.391	56.9
589.729	57.02
590.067	57.13
590.404	57.26
590.742	57.24
591.08	57.36
591.418	57.51
591.756	57.64
592.093	57.62
592.431	57.69
592.769	57.75
593.106	57.88
593.444	57.82
593.781	57.95
594.119	57.98
594.456	58.06
594.793	58.13
595.131	58.14
595.468	58.27
595.805	58.28
596.143	58.37
596.48	58.55
596.817	58.55
597.154	58.62
597.491	58.6
597.828	58.68
598.165	58.71
598.502	58.69
598.839	58.79
599.176	58.93
599.512	59.08
599.849	59.13
600.186	59.28
600.523	59.42
600.859	59.46
601.196	59.56
601.532	59.69
601.869	59.71
602.205	59.88
602.542	59.92
602.878	60
603.215	60.03
603.551	59.93
603.887	59.99
604.223	60.03
604.56	60.1
604.896	60.1
605.232	60.2
605.568	60.28
605.904	60.25
606.24	60.34
606.576	60.36
606.912	60.38
607.248	60.42
607.583	60.45
607.919	60.55
608.255	60.63
608.591	60.59
608.926	60.72
609.262	60.73
609.597	60.75
609.933	60.81
610.268	60.85
610.604	60.97
610.939	61.02
611.275	61.06
611.61	61.21
611.945	61.28
612.281	61.28
612.616	61.35
612.951	61.52
613.286	61.52
613.621	61.53
613.956	61.71
614.291	61.75
614.626	61.82
614.961	61.8
615.296	61.8
615.631	61.88
615.966	61.89
616.3	61.78
616.635	61.85
616.97	61.88
617.304	61.99
617.639	62
617.973	62.02
618.308	62.07
618.642	62.07
618.977	62.09
619.311	62.25
619.646	62.31
619.98	62.34
620.314	62.37
620.648	62.47
620.983	62.46
621.317	62.55
621.651	62.62
621.985	62.72
622.319	62.82
622.653	62.83
622.987	62.89
623.321	63.08
623.655	63.11
623.988	63.18
624.322	63.23
624.656	63.23
624.99	63.24
625.323	63.23
625.657	63.15
625.99	63.14
626.324	63.04
626.657	63.11
626.991	63.03
627.324	63.05
627.658	63.09
627.991	63.09
628.324	63.09
628.657	63.1
628.991	63.16
629.324	63.16
629.657	63.25
629.99	63.29
630.323	63.25
630.656	63.33
630.989	63.47
631.322	63.47
631.655	63.49
631.987	63.54
632.32	63.55
632.653	63.57
632.986	63.67
633.318	63.73
633.651	63.67
633.984	63.78
634.316	63.77
634.649	63.73
634.981	63.84
635.313	63.84
635.646	63.86
635.978	63.81
636.31	63.82
636.643	63.74
636.975	63.77
637.307	63.88
637.639	63.79
637.971	63.65
638.303	63.65
638.635	63.69
638.967	63.59
639.299	63.6
639.631	63.7
639.963	63.78
640.295	63.76
640.626	63.72
640.958	63.74
641.29	63.82
641.621	63.93
641.953	63.78
642.285	63.71
642.616	63.72
642.948	63.71
643.279	63.76
643.61	63.81
643.942	63.81
644.273	63.72
644.604	63.76
644.936	63.76
645.267	63.76
645.598	63.83
645.929	63.95
646.26	64.07
646.591	64.17
646.922	64.15
647.253	64.2
647.584	64.39
647.915	64.55
648.245	64.52
648.576	64.5
648.907	64.63
649.238	64.84
649.568	64.8
649.899	65.03
650.229	64.95
650.56	65.05
650.89	65.04
651.221	65.11
651.551	65.14
651.882	65.16
652.212	65.09
652.542	65.1
652.872	65.15
653.203	65.13
653.533	65.09
653.863	65.12
654.193	65.18
654.523	65.16
654.853	65.04
655.183	65.07
655.513	65.02
655.843	65.04
656.172	64.88
656.502	64.94
656.832	64.77
657.162	64.92
657.491	64.89
657.821	64.92
658.15	64.84
658.48	64.88
658.809	64.89
659.139	64.98
659.468	64.99
659.798	64.99
660.127	65.02
660.456	65.07
660.785	65.04
661.115	64.97
661.444	64.95
661.773	64.99
662.102	64.98
662.431	65.05
662.76	65.02
663.089	65.09
663.418	65.06
663.747	65.13
664.076	65
664.404	65.08
664.733	65.12
665.062	65.13
665.39	65.2
665.719	65.4
666.048	65.45
666.376	65.4
666.705	65.34
667.033	65.29
667.362	65.28
667.69	65.25
668.018	65.36
