Data from BA28472_Reflection_00007.txt Node
Date: Mon Nov 18 15:24:28 EST 2019
User: vgr7
Spectrometer: USB2G7710
Scans to average: 3
Trigger mode: 4
Integration Time (sec): 2.000000E-2
Electric dark correction enabled: true
Boxcar width: 10
XAxis mode: Wavelengths
Number of Pixels in Spectrum: 2048
>>>>>Begin Spectral Data<<<<<
177.721	-57.8
178.105	-15.02
178.488	-64.81
178.871	-44.61
179.254	10.2
179.636	-68.22
180.019	1736.36
180.402	92.31
180.785	217.96
181.168	651.02
181.55	-834.13
181.933	320.54
182.316	218.77
182.698	143.08
183.081	130.21
183.463	118.06
183.846	95.31
184.228	90.97
184.611	92.07
184.993	88.84
185.376	111.99
185.758	126.96
186.14	140.16
186.522	152.61
186.904	148.76
187.287	158.46
187.669	202.52
188.051	294.73
188.433	265.45
188.815	313.85
189.197	268.43
189.579	205.57
189.961	232.93
190.342	248.66
190.724	686.28
191.106	442.31
191.488	680.65
191.869	-524.78
192.251	-278.13
192.633	-151.64
193.014	-360.59
193.396	-448.83
193.777	-319.58
194.159	-486.47
194.54	-351.47
194.922	-171.02
195.303	-166.86
195.684	-124.4
196.065	-110.02
196.447	-94.54
196.828	-73.38
197.209	-74.79
197.59	-104.85
197.971	-61.68
198.352	-36.12
198.733	-32.92
199.114	-51.96
199.495	-85.65
199.876	-86.31
200.257	-135.5
200.638	-108.49
201.018	-101.71
201.399	-155.32
201.78	-88.29
202.16	-86.74
202.541	-132.87
202.922	-205.73
203.302	-155.55
203.683	-168.34
204.063	-160.31
204.444	-174.34
204.824	-254
205.204	-199.24
205.585	-216.46
205.965	-276.62
206.345	-301.88
206.725	-582.87
207.106	-489.43
207.486	-421.74
207.866	-400.37
208.246	-315.6
208.626	-452.86
209.006	-377.73
209.386	-304.15
209.766	-483.47
210.145	-1018.97
210.525	-651.84
210.905	-595.42
211.285	-772.73
211.664	-285.6
212.044	763.83
212.424	-1261.34
212.803	-230.91
213.183	-298.87
213.562	-875.37
213.942	2483.56
214.321	-553.16
214.701	-598.51
215.08	-590.41
215.459	-449.37
215.838	-347.76
216.218	-236.86
216.597	-143.64
216.976	-185.39
217.355	-200.82
217.734	-213.02
218.113	-243.95
218.492	-242.29
218.871	-253.33
219.25	-213.14
219.629	-302.05
220.008	-266.94
220.387	-282.62
220.766	-270.92
221.144	-284.37
221.523	-226.79
221.902	-217.79
222.28	-247.27
222.659	-185.2
223.037	-160.42
223.416	-170.89
223.794	-154.29
224.173	-157.11
224.551	-134.57
224.929	-99.31
225.308	-72.72
225.686	-49.29
226.064	-31.82
226.442	-27.39
226.821	-17.05
227.199	-18.44
227.577	-14.57
227.955	-14.44
228.333	-15.76
228.711	-14.3
229.089	-10
229.467	-12.56
229.845	-15.47
230.222	-15.43
230.6	-16.09
230.978	-16.16
231.356	-13.41
231.733	-12.35
232.111	-10.29
232.488	-8.36
232.866	-6.77
233.243	-8.52
233.621	-9.73
233.998	-9.37
234.376	-9.79
234.753	-8.76
235.13	-7.65
235.508	-6.15
235.885	-5.11
236.262	-3.07
236.639	-3.09
237.016	-1.86
237.393	0.49
237.77	2.43
238.147	3.63
238.524	3.16
238.901	3.68
239.278	3.9
239.655	4.2
240.032	3.73
240.409	3.32
240.785	3.2
241.162	3.48
241.539	3.82
241.915	3.38
242.292	3.35
242.668	2.69
243.045	3.07
243.421	3.34
243.798	3.4
244.174	3.34
244.551	3.52
244.927	3.15
245.303	3.14
245.679	2.87
246.056	2.94
246.432	3.29
246.808	3.49
247.184	3.14
247.56	3.03
247.936	2.92
248.312	2.93
248.688	2.89
249.064	2.73
249.44	2.74
249.815	2.92
250.191	2.8
250.567	2.94
250.943	2.65
251.318	2.48
251.694	2.53
252.069	2.53
252.445	2.36
252.82	2.36
253.196	2.24
253.571	2.38
253.947	1.96
254.322	2.08
254.697	1.75
255.073	2.12
255.448	2.11
255.823	2.42
256.198	2.57
256.573	2.62
256.948	2.79
257.323	2.94
257.698	2.89
258.073	3.16
258.448	3.21
258.823	3.46
259.198	3.38
259.573	3.26
259.948	3.21
260.322	3.35
260.697	3.33
261.072	3.24
261.446	3.23
261.821	3.23
262.195	3.1
262.57	3.02
262.944	3.04
263.319	2.98
263.693	2.86
264.067	2.86
264.442	3.01
264.816	3
265.19	2.86
265.564	3
265.938	3.08
266.313	2.88
266.687	2.68
267.061	2.82
267.435	2.98
267.809	3
268.183	2.95
268.556	2.84
268.93	2.94
269.304	3.06
269.678	3.06
270.051	2.95
270.425	3.05
270.799	3.01
271.172	3.11
271.546	3.16
271.919	3.16
272.293	3.19
272.666	3.15
273.04	3.24
273.413	3.2
273.787	2.98
274.16	2.97
274.533	2.93
274.906	2.85
275.279	2.83
275.653	2.85
276.026	2.89
276.399	2.97
276.772	3.02
277.145	2.88
277.518	3.04
277.891	3.14
278.263	3.07
278.636	3.06
279.009	2.95
279.382	2.86
279.755	2.89
280.127	2.88
280.5	3.04
280.872	3
281.245	2.84
281.617	3.03
281.99	3.19
282.362	3.29
282.735	3.26
283.107	3.18
283.479	3.27
283.852	3.28
284.224	3.42
284.596	3.37
284.968	3.46
285.34	3.46
285.713	3.41
286.085	3.55
286.457	3.7
286.829	3.84
287.201	3.91
287.572	3.87
287.944	3.74
288.316	3.64
288.688	3.65
289.06	3.78
289.431	3.71
289.803	3.76
290.175	3.78
290.546	3.81
290.918	3.87
291.289	3.81
291.661	3.75
292.032	3.77
292.403	3.79
292.775	3.91
293.146	3.93
293.517	4.06
293.889	4.14
294.26	3.94
294.631	3.95
295.002	3.91
295.373	3.93
295.744	3.97
296.115	4.04
296.486	4
296.857	4.02
297.228	4.13
297.599	4.03
297.97	4
298.34	4.02
298.711	3.98
299.082	4.02
299.452	4.11
299.823	4.1
300.194	4.17
300.564	4.15
300.935	4.13
301.305	4.12
301.676	4.19
302.046	4.4
302.416	4.4
302.787	4.51
303.157	4.73
303.527	4.86
303.897	4.97
304.267	5.2
304.637	5.3
305.008	5.36
305.378	5.44
305.748	5.62
306.117	5.74
306.487	5.92
306.857	6.02
307.227	6.15
307.597	6.21
307.967	6.26
308.336	6.21
308.706	6.35
309.076	6.37
309.445	6.33
309.815	6.3
310.184	6.31
310.554	6.35
310.923	6.31
311.293	6.37
311.662	6.37
312.031	6.36
312.401	6.31
312.77	6.36
313.139	6.49
313.508	6.42
313.877	6.44
314.246	6.5
314.616	6.45
314.985	6.45
315.353	6.51
315.722	6.61
316.091	6.66
316.46	6.52
316.829	6.58
317.198	6.61
317.567	6.59
317.935	6.67
318.304	6.69
318.672	6.7
319.041	6.76
319.41	6.82
319.778	6.84
320.147	6.84
320.515	6.88
320.883	6.98
321.252	7.22
321.62	7.36
321.988	7.38
322.357	7.39
322.725	7.39
323.093	7.52
323.461	7.53
323.829	7.65
324.197	7.76
324.565	7.82
324.933	7.75
325.301	7.87
325.669	7.93
326.037	8.05
326.405	8.1
326.772	8.13
327.14	8.21
327.508	8.3
327.875	8.37
328.243	8.52
328.61	8.53
328.978	8.52
329.346	8.58
329.713	8.62
330.08	8.76
330.448	8.72
330.815	8.63
331.182	8.62
331.55	8.7
331.917	8.94
332.284	9.01
332.651	9.12
333.018	9.3
333.385	9.23
333.752	9.26
334.119	9.28
334.486	9.3
334.853	9.25
335.22	9.25
335.587	9.28
335.954	9.17
336.32	9.02
336.687	9.07
337.054	9.02
337.42	9.06
337.787	8.98
338.153	9.12
338.52	9.32
338.886	9.33
339.253	9.21
339.619	9.04
339.986	9.1
340.352	9.12
340.718	9.03
341.084	9.13
341.451	9.11
341.817	9.09
342.183	8.98
342.549	9.07
342.915	9.1
343.281	9.15
343.647	9.13
344.013	9.3
344.379	9.24
344.745	9.27
345.11	9.21
345.476	9.33
345.842	9.39
346.208	9.26
346.573	9.2
346.939	9.23
347.304	9.3
347.67	9.15
348.035	9.23
348.401	9.2
348.766	9.2
349.132	9.23
349.497	9.26
349.862	9.4
350.228	9.38
350.593	9.4
350.958	9.37
351.323	9.41
351.688	9.4
352.053	9.47
352.418	9.48
352.783	9.46
353.148	9.45
353.513	9.37
353.878	9.39
354.243	9.55
354.608	9.67
354.972	9.66
355.337	9.71
355.702	9.64
356.066	9.64
356.431	9.58
356.795	9.6
357.16	9.5
357.524	9.44
357.889	9.46
358.253	9.43
358.618	9.44
358.982	9.43
359.346	9.38
359.71	9.28
360.075	9.25
360.439	9.3
360.803	9.25
361.167	9.17
361.531	9.15
361.895	9.07
362.259	8.97
362.623	8.97
362.987	8.97
363.351	8.98
363.714	8.99
364.078	9.01
364.442	8.89
364.806	8.95
365.169	8.94
365.533	8.85
365.896	8.78
366.26	8.74
366.623	8.7
366.987	8.69
367.35	8.72
367.714	8.67
368.077	8.59
368.44	8.51
368.803	8.52
369.167	8.44
369.53	8.38
369.893	8.42
370.256	8.34
370.619	8.25
370.982	8.17
371.345	8.05
371.708	7.97
372.071	8.02
372.434	7.92
372.797	7.84
373.159	7.81
373.522	7.8
373.885	7.74
374.247	7.71
374.61	7.62
374.973	7.52
375.335	7.45
375.698	7.38
376.06	7.29
376.423	7.26
376.785	7.2
377.147	7.24
377.51	7.13
377.872	7.11
378.234	7.09
378.596	7.07
378.958	7.02
379.321	6.94
379.683	6.87
380.045	6.86
380.407	6.84
380.769	6.75
381.13	6.71
381.492	6.67
381.854	6.58
382.216	6.5
382.578	6.51
382.939	6.44
383.301	6.37
383.663	6.39
384.024	6.35
384.386	6.32
384.747	6.22
385.109	6.18
385.47	6.1
385.832	6.07
386.193	6.03
386.554	6.03
386.916	5.99
387.277	5.94
387.638	5.89
387.999	5.86
388.36	5.85
388.721	5.8
389.082	5.78
389.443	5.7
389.804	5.65
390.165	5.56
390.526	5.57
390.887	5.52
391.248	5.51
391.609	5.5
391.969	5.48
392.33	5.45
392.691	5.41
393.051	5.38
393.412	5.34
393.772	5.25
394.133	5.21
394.493	5.2
394.854	5.16
395.214	5.12
395.574	5.09
395.935	5.07
396.295	5.03
396.655	4.97
397.015	4.99
397.376	4.96
397.736	4.98
398.096	4.92
398.456	4.94
398.816	4.9
399.176	4.83
399.535	4.76
399.895	4.68
400.255	4.68
400.615	4.68
400.975	4.65
401.334	4.65
401.694	4.58
402.054	4.54
402.413	4.51
402.773	4.49
403.132	4.44
403.492	4.39
403.851	4.35
404.211	4.3
404.57	4.24
404.929	4.26
405.288	4.22
405.648	4.21
406.007	4.19
406.366	4.14
406.725	4.16
407.084	4.16
407.443	4.15
407.802	4.12
408.161	4.06
408.52	4.05
408.879	4.01
409.238	4.05
409.596	4.06
409.955	4.04
410.314	4.05
410.673	4.03
411.031	4.02
411.39	4.02
411.748	4.06
412.107	4.08
412.465	4.04
412.824	4.04
413.182	3.99
413.54	3.94
413.899	3.94
414.257	3.9
414.615	3.88
414.974	3.89
415.332	3.89
415.69	3.88
416.048	3.85
416.406	3.85
416.764	3.8
417.122	3.78
417.48	3.76
417.838	3.76
418.195	3.73
418.553	3.71
418.911	3.69
419.269	3.67
419.626	3.64
419.984	3.62
420.342	3.59
420.699	3.58
421.057	3.58
421.414	3.57
421.772	3.55
422.129	3.54
422.486	3.52
422.844	3.49
423.201	3.47
423.558	3.45
423.915	3.44
424.273	3.45
424.63	3.42
424.987	3.42
425.344	3.39
425.701	3.38
426.058	3.38
426.415	3.35
426.772	3.34
427.128	3.32
427.485	3.32
427.842	3.31
428.199	3.31
428.555	3.3
428.912	3.3
429.269	3.29
429.625	3.26
429.982	3.24
430.338	3.25
430.695	3.27
431.051	3.25
431.407	3.22
431.764	3.21
432.12	3.21
432.476	3.19
432.832	3.18
433.189	3.19
433.545	3.19
433.901	3.2
434.257	3.18
434.613	3.22
434.969	3.21
435.325	3.21
435.681	3.23
436.036	3.23
436.392	3.23
436.748	3.24
437.104	3.23
437.459	3.27
437.815	3.25
438.171	3.27
438.526	3.29
438.882	3.29
439.237	3.28
439.593	3.3
439.948	3.32
440.304	3.32
440.659	3.32
441.014	3.3
441.369	3.3
441.725	3.3
442.08	3.28
442.435	3.29
442.79	3.29
443.145	3.27
443.5	3.26
443.855	3.25
444.21	3.24
444.565	3.24
444.92	3.23
445.275	3.22
445.629	3.2
445.984	3.19
446.339	3.19
446.693	3.17
447.048	3.16
447.403	3.14
447.757	3.12
448.112	3.1
448.466	3.09
448.82	3.08
449.175	3.09
449.529	3.08
449.883	3.07
450.238	3.06
450.592	3.06
450.946	3.05
451.3	3.03
451.654	3.02
452.008	3.02
452.362	2.99
452.716	2.98
453.07	2.98
453.424	2.98
453.778	2.97
454.132	2.97
454.486	2.96
454.839	2.97
455.193	2.97
455.547	2.96
455.9	2.98
456.254	2.99
456.607	2.99
456.961	2.98
457.314	2.98
457.668	2.98
458.021	2.97
458.375	2.98
458.728	2.97
459.081	2.97
459.434	2.97
459.787	2.98
460.141	2.98
460.494	2.99
460.847	2.99
461.2	2.98
461.553	2.98
461.906	2.99
462.259	3
462.611	3.01
462.964	3.01
463.317	3.01
463.67	3.02
464.022	3.03
464.375	3.04
464.728	3.03
465.08	3.06
465.433	3.08
465.785	3.08
466.138	3.11
466.49	3.13
466.843	3.11
467.195	3.13
467.547	3.15
467.899	3.16
468.252	3.15
468.604	3.19
468.956	3.2
469.308	3.22
469.66	3.21
470.012	3.22
470.364	3.25
470.716	3.26
471.068	3.26
471.42	3.25
471.772	3.28
472.123	3.3
472.475	3.3
472.827	3.31
473.178	3.34
473.53	3.35
473.882	3.34
474.233	3.36
474.585	3.36
474.936	3.39
475.288	3.4
475.639	3.42
475.99	3.42
476.342	3.43
476.693	3.43
477.044	3.45
477.395	3.44
477.746	3.43
478.097	3.42
478.448	3.4
478.8	3.39
479.15	3.37
479.501	3.36
479.852	3.37
480.203	3.35
480.554	3.35
480.905	3.35
481.255	3.37
481.606	3.37
481.957	3.37
482.307	3.35
482.658	3.35
483.009	3.33
483.359	3.33
483.709	3.33
484.06	3.31
484.41	3.3
484.761	3.3
485.111	3.29
485.461	3.3
485.811	3.31
486.162	3.31
486.512	3.31
486.862	3.3
487.212	3.29
487.562	3.3
487.912	3.3
488.262	3.29
488.612	3.27
488.961	3.26
489.311	3.25
489.661	3.24
490.011	3.24
490.36	3.26
490.71	3.25
491.06	3.25
491.409	3.26
491.759	3.26
492.108	3.26
492.458	3.28
492.807	3.26
493.157	3.27
493.506	3.29
493.855	3.3
494.204	3.32
494.554	3.33
494.903	3.34
495.252	3.35
495.601	3.38
495.95	3.4
496.299	3.42
496.648	3.46
496.997	3.49
497.346	3.52
497.695	3.55
498.043	3.55
498.392	3.56
498.741	3.6
499.09	3.64
499.438	3.69
499.787	3.72
500.135	3.78
500.484	3.83
500.832	3.86
501.181	3.89
501.529	3.92
501.878	3.97
502.226	4.03
502.574	4.09
502.923	4.13
503.271	4.2
503.619	4.29
503.967	4.35
504.315	4.43
504.663	4.5
505.011	4.59
505.359	4.7
505.707	4.8
506.055	4.89
506.403	4.99
506.751	5.05
507.098	5.14
507.446	5.22
507.794	5.3
508.141	5.41
508.489	5.51
508.837	5.6
509.184	5.7
509.531	5.8
509.879	5.91
510.226	6.01
510.574	6.1
510.921	6.2
511.268	6.29
511.616	6.38
511.963	6.47
512.31	6.57
512.657	6.67
513.004	6.79
513.351	6.89
513.698	7.02
514.045	7.16
514.392	7.31
514.739	7.46
515.086	7.62
515.432	7.74
515.779	7.9
516.126	8.07
516.473	8.21
516.819	8.33
517.166	8.46
517.512	8.58
517.859	8.72
518.205	8.85
518.552	9
518.898	9.12
519.245	9.24
519.591	9.36
519.937	9.48
520.283	9.6
520.629	9.75
520.976	9.87
521.322	10.02
521.668	10.18
522.014	10.32
522.36	10.47
522.706	10.65
523.052	10.83
523.398	11.04
523.743	11.27
524.089	11.48
524.435	11.69
524.781	11.91
525.126	12.11
525.472	12.28
525.817	12.44
526.163	12.6
526.509	12.76
526.854	12.9
527.199	13.03
527.545	13.17
527.89	13.29
528.235	13.43
528.581	13.57
528.926	13.7
529.271	13.83
529.616	13.97
529.961	14.13
530.306	14.28
530.651	14.41
530.996	14.56
531.341	14.73
531.686	14.9
532.031	15.06
532.376	15.22
532.721	15.4
533.065	15.59
533.41	15.79
533.755	15.98
534.099	16.19
534.444	16.4
534.788	16.61
535.133	16.85
535.477	17.06
535.822	17.29
536.166	17.55
536.51	17.85
536.855	18.13
537.199	18.42
537.543	18.71
537.887	19.05
538.231	19.36
538.576	19.66
538.92	19.96
539.264	20.27
539.608	20.58
539.951	20.85
540.295	21.12
540.639	21.37
540.983	21.64
541.327	21.89
541.671	22.12
542.014	22.36
542.358	22.6
542.701	22.87
543.045	23.12
543.389	23.35
543.732	23.6
544.075	23.86
544.419	24.11
544.762	24.4
545.105	24.66
545.449	24.93
545.792	25.23
546.135	25.54
546.478	25.85
546.821	26.15
547.165	26.48
547.508	26.82
547.851	27.18
548.194	27.54
548.536	27.88
548.879	28.25
549.222	28.6
549.565	28.95
549.908	29.29
550.25	29.64
550.593	29.99
550.936	30.35
551.278	30.67
551.621	31.03
551.963	31.36
552.306	31.67
552.648	32.05
552.991	32.43
553.333	32.77
553.675	33.08
554.017	33.44
554.36	33.74
554.702	34.1
555.044	34.36
555.386	34.63
555.728	34.99
556.07	35.36
556.412	35.66
556.754	35.99
557.096	36.28
557.438	36.54
557.78	36.87
558.121	37.19
558.463	37.51
558.805	37.78
559.147	38.08
559.488	38.34
559.83	38.59
560.171	38.86
560.513	39.18
560.854	39.49
561.196	39.73
561.537	40.02
561.878	40.24
562.22	40.51
562.561	40.76
562.902	41.01
563.243	41.14
563.584	41.43
563.925	41.64
564.266	41.87
564.607	42.12
564.948	42.36
565.289	42.57
565.63	42.78
565.971	42.97
566.312	43.23
566.653	43.43
566.993	43.62
567.334	43.8
567.675	43.99
568.015	44.18
568.356	44.41
568.696	44.58
569.037	44.72
569.377	44.93
569.718	45.17
570.058	45.33
570.398	45.55
570.739	45.74
571.079	45.92
571.419	46.12
571.759	46.27
572.099	46.44
572.439	46.56
572.779	46.7
573.119	46.86
573.459	46.99
573.799	47.16
574.139	47.32
574.479	47.48
574.819	47.58
575.158	47.71
575.498	47.87
575.838	48.08
576.177	48.26
576.517	48.42
576.856	48.56
577.196	48.64
577.535	48.8
577.875	48.94
578.214	49.03
578.553	49.24
578.893	49.4
579.232	49.52
579.571	49.69
579.91	49.86
580.25	50.03
580.589	50.2
580.928	50.33
581.267	50.42
581.606	50.54
581.945	50.7
582.283	50.79
582.622	50.89
582.961	50.95
583.3	51.1
583.639	51.21
583.977	51.34
584.316	51.54
584.654	51.61
584.993	51.62
585.332	51.85
585.67	51.86
586.008	51.99
586.347	52.06
586.685	52.18
587.024	52.28
587.362	52.36
587.7	52.36
588.038	52.48
588.376	52.63
588.715	52.71
589.053	52.77
589.391	52.93
589.729	52.99
590.067	53
590.404	53.07
590.742	53.13
591.08	53.19
591.418	53.24
591.756	53.36
592.093	53.54
592.431	53.61
592.769	53.63
593.106	53.7
593.444	53.78
593.781	53.81
594.119	53.88
594.456	53.93
594.793	54.04
595.131	54.12
595.468	54.18
595.805	54.25
596.143	54.33
596.48	54.35
596.817	54.38
597.154	54.47
597.491	54.53
597.828	54.6
598.165	54.66
598.502	54.74
598.839	54.86
599.176	54.89
599.512	54.91
599.849	55.03
600.186	55.12
600.523	55.24
600.859	55.29
601.196	55.39
601.532	55.53
601.869	55.55
602.205	55.59
602.542	55.64
602.878	55.64
603.215	55.69
603.551	55.78
603.887	55.9
604.223	55.97
604.56	56.05
604.896	56.11
605.232	56.16
605.568	56.23
605.904	56.23
606.24	56.38
606.576	56.52
606.912	56.54
607.248	56.57
607.583	56.63
607.919	56.67
608.255	56.7
608.591	56.79
608.926	56.86
609.262	56.95
609.597	56.98
609.933	57.13
610.268	57.19
610.604	57.22
610.939	57.19
611.275	57.19
611.61	57.22
611.945	57.2
612.281	57.24
612.616	57.29
612.951	57.4
613.286	57.34
613.621	57.33
613.956	57.42
614.291	57.48
614.626	57.5
614.961	57.54
615.296	57.63
615.631	57.61
615.966	57.63
616.3	57.61
616.635	57.7
616.97	57.68
617.304	57.69
617.639	57.76
617.973	57.86
618.308	57.93
618.642	57.91
618.977	57.96
619.311	57.89
619.646	57.88
619.98	57.83
620.314	57.92
620.648	57.87
620.983	57.87
621.317	57.84
621.651	57.89
621.985	58.02
622.319	57.95
622.653	57.96
622.987	57.98
623.321	57.94
623.655	57.9
623.988	57.88
624.322	57.94
624.656	57.89
624.99	58.02
625.323	58.08
625.657	58.16
625.99	58.15
626.324	58.25
626.657	58.32
626.991	58.38
627.324	58.36
627.658	58.45
627.991	58.53
628.324	58.6
628.657	58.49
628.991	58.43
629.324	58.47
629.657	58.55
629.99	58.57
630.323	58.65
630.656	58.8
630.989	58.94
631.322	58.98
631.655	59.01
631.987	58.99
632.32	59.01
632.653	59.06
632.986	59.09
633.318	59.13
633.651	59.03
633.984	59.03
634.316	59.06
634.649	59.11
634.981	59.07
635.313	59.1
635.646	59.24
635.978	59.34
636.31	59.33
636.643	59.3
636.975	59.37
637.307	59.37
637.639	59.26
637.971	59.25
638.303	59.2
638.635	59.3
638.967	59.3
639.299	59.31
639.631	59.26
639.963	59.37
640.295	59.39
640.626	59.52
640.958	59.49
641.29	59.41
641.621	59.26
641.953	59.26
642.285	59.28
642.616	59.33
642.948	59.3
643.279	59.42
643.61	59.42
643.942	59.38
644.273	59.43
644.604	59.58
644.936	59.59
645.267	59.56
645.598	59.55
645.929	59.43
646.26	59.41
646.591	59.41
646.922	59.32
647.253	59.25
647.584	59.29
647.915	59.39
648.245	59.47
648.576	59.6
648.907	59.57
649.238	59.54
649.568	59.47
649.899	59.56
650.229	59.62
650.56	59.64
650.89	59.63
651.221	59.7
651.551	59.68
651.882	59.66
652.212	59.7
652.542	59.76
652.872	59.94
653.203	60
653.533	60.11
653.863	60.21
654.193	60.23
654.523	60.26
654.853	60.37
655.183	60.36
655.513	60.31
655.843	60.44
656.172	60.49
656.502	60.54
656.832	60.56
657.162	60.46
657.491	60.52
657.821	60.63
658.15	60.67
658.48	60.65
658.809	60.66
659.139	60.72
659.468	60.77
659.798	60.67
660.127	60.63
660.456	60.62
660.785	60.62
661.115	60.74
661.444	60.64
661.773	60.59
662.102	60.71
662.431	60.68
662.76	60.71
663.089	60.76
663.418	60.77
663.747	60.72
664.076	60.75
664.404	60.65
664.733	60.61
665.062	60.48
