Data from BA28420_Reflection_00008.txt Node
Date: Mon Nov 18 16:08:29 EST 2019
User: vgr7
Spectrometer: USB2G7710
Scans to average: 3
Trigger mode: 4
Integration Time (sec): 2.000000E-2
Electric dark correction enabled: true
Boxcar width: 10
XAxis mode: Wavelengths
Number of Pixels in Spectrum: 2048
>>>>>Begin Spectral Data<<<<<
177.721	-245.58
178.105	560.32
178.488	-1204.09
178.871	-163.65
179.254	-305.52
179.636	-46.46
180.019	-5.51
180.402	341.67
180.785	-341.08
181.168	-36.75
181.55	-26.44
181.933	99.38
182.316	106.38
182.698	138.16
183.081	236.32
183.463	164.19
183.846	129.07
184.228	124.75
184.611	170.88
184.993	220.29
185.376	282.63
185.758	-19122.22
186.14	543.37
186.522	692.04
186.904	-577.66
187.287	1150.31
187.669	-617.17
188.051	45.9
188.433	8.75
188.815	-10.35
189.197	42.89
189.579	108.55
189.961	123.32
190.342	66.76
190.724	106.24
191.106	93.08
191.488	106.92
191.869	168.56
192.251	119.16
192.633	130.3
193.014	111.78
193.396	119.54
193.777	96.98
194.159	81.54
194.54	96.93
194.922	74.76
195.303	68.08
195.684	68.77
196.065	148.41
196.447	99.16
196.828	94.21
197.209	55
197.59	12.64
197.971	24.29
198.352	-43.39
198.733	-59.56
199.114	-16.58
199.495	-53.07
199.876	-22.36
200.257	-42.53
200.638	19.91
201.018	28.21
201.399	35.07
201.78	23.32
202.16	8.81
202.541	-17.67
202.922	-66.06
203.302	-83.74
203.683	-76.67
204.063	-78.26
204.444	-52.47
204.824	-38.83
205.204	-45.35
205.585	-63.36
205.965	-53.46
206.345	-93.41
206.725	-109.32
207.106	-123.94
207.486	-307.15
207.866	-259.19
208.246	-287.27
208.626	-396.76
209.006	-205.35
209.386	-245.27
209.766	-250.05
210.145	-407.43
210.525	-75.22
210.905	-43.9
211.285	-1.75
211.664	-42.48
212.044	-68.36
212.424	-61.16
212.803	-149.54
213.183	-105.67
213.562	-85.19
213.942	-73.28
214.321	-8.27
214.701	-29.34
215.08	-0.25
215.459	12.81
215.838	33.7
216.218	19.69
216.597	16.76
216.976	22.86
217.355	12.28
217.734	22.74
218.113	20.75
218.492	-1.19
218.871	-13.84
219.25	-33.94
219.629	-31.9
220.008	-20.54
220.387	-29.26
220.766	-28.02
221.144	-40.57
221.523	-38.6
221.902	-44.02
222.28	-78.43
222.659	-52.04
223.037	-67.28
223.416	-69.61
223.794	-76.09
224.173	-64.12
224.551	-66.91
224.929	-81.02
225.308	-61.58
225.686	-56.7
226.064	-54.42
226.442	-36.33
226.821	-27.79
227.199	-22.86
227.577	-23.07
227.955	-22.86
228.333	-22.27
228.711	-19.75
229.089	-11.74
229.467	-11.9
229.845	-14.18
230.222	-10.78
230.6	-12.28
230.978	-9.07
231.356	-4.73
231.733	-4.57
232.111	-1.48
232.488	2.23
232.866	2.28
233.243	1.23
233.621	-0.78
233.998	0.44
234.376	-0.73
234.753	0.78
235.13	0.42
235.508	2.89
235.885	2.93
236.262	0.56
236.639	0.03
237.016	-0.57
237.393	1.04
237.77	2.95
238.147	3.25
238.524	3.25
238.901	2.64
239.278	1.9
239.655	2.64
240.032	3.01
240.409	2.37
240.785	2.07
241.162	2.23
241.539	3.07
241.915	2.73
242.292	2.11
242.668	1.84
243.045	2.29
243.421	1.75
243.798	1.63
244.174	1.77
244.551	2.09
244.927	1.76
245.303	1.72
245.679	1.97
246.056	2.11
246.432	1.98
246.808	2.01
247.184	1.82
247.56	1.51
247.936	1.44
248.312	1.52
248.688	1.69
249.064	1.65
249.44	1.5
249.815	1.56
250.191	1.85
250.567	1.92
250.943	1.7
251.318	2.06
251.694	2.29
252.069	2.59
252.445	2.63
252.82	3.04
253.196	2.87
253.571	2.39
253.947	2.18
254.322	2.25
254.697	2.34
255.073	2.45
255.448	2.83
255.823	2.65
256.198	2.66
256.573	2.68
256.948	2.82
257.323	2.83
257.698	2.48
258.073	2.36
258.448	2.16
258.823	2.17
259.198	1.77
259.573	1.57
259.948	1.33
260.322	1.2
260.697	1.04
261.072	1.16
261.446	1.27
261.821	1.21
262.195	1.28
262.57	1.16
262.944	1.05
263.319	0.82
263.693	0.68
264.067	0.64
264.442	0.85
264.816	0.68
265.19	0.49
265.564	0.73
265.938	0.7
266.313	0.84
266.687	0.8
267.061	1.15
267.435	1.24
267.809	1.43
268.183	1.66
268.556	1.61
268.93	1.63
269.304	1.6
269.678	1.68
270.051	1.65
270.425	1.77
270.799	1.85
271.172	1.89
271.546	1.94
271.919	1.97
272.293	1.68
272.666	1.69
273.04	1.79
273.413	1.71
273.787	1.7
274.16	1.66
274.533	1.67
274.906	1.51
275.279	1.53
275.653	1.53
276.026	1.34
276.399	1.48
276.772	1.47
277.145	1.37
277.518	1.39
277.891	1.37
278.263	1.29
278.636	1.32
279.009	1.53
279.382	1.76
279.755	1.57
280.127	1.7
280.5	1.75
280.872	1.89
281.245	1.94
281.617	1.95
281.99	2.12
282.362	2.22
282.735	2.14
283.107	2.03
283.479	2
283.852	1.99
284.224	1.87
284.596	1.74
284.968	1.79
285.34	1.85
285.713	1.86
286.085	1.9
286.457	1.98
286.829	1.83
287.201	1.66
287.572	1.7
287.944	1.65
288.316	1.58
288.688	1.44
289.06	1.31
289.431	1.26
289.803	1.13
290.175	1.12
290.546	1.35
290.918	1.45
291.289	1.54
291.661	1.63
292.032	1.63
292.403	1.78
292.775	1.94
293.146	1.89
293.517	1.91
293.889	2.02
294.26	2.02
294.631	2.05
295.002	2.05
295.373	2.06
295.744	2.02
296.115	2.06
296.486	2.01
296.857	2.1
297.228	2.17
297.599	2.06
297.97	1.93
298.34	1.89
298.711	1.91
299.082	1.87
299.452	1.81
299.823	1.92
300.194	1.84
300.564	1.65
300.935	1.64
301.305	1.64
301.676	1.58
302.046	1.53
302.416	1.65
302.787	1.55
303.157	1.47
303.527	1.49
303.897	1.55
304.267	1.74
304.637	1.75
305.008	1.83
305.378	2.21
305.748	2.38
306.117	2.37
306.487	2.37
306.857	2.36
307.227	2.41
307.597	2.26
307.967	2.33
308.336	2.49
308.706	2.47
309.076	2.53
309.445	2.58
309.815	2.58
310.184	2.49
310.554	2.77
310.923	2.84
311.293	2.91
311.662	2.91
312.031	2.89
312.401	2.91
312.77	3.01
313.139	2.82
313.508	2.84
313.877	2.76
314.246	2.8
314.616	2.83
314.985	2.9
315.353	3.04
315.722	3.05
316.091	3.08
316.46	3.13
316.829	3.09
317.198	3.02
317.567	3.07
317.935	3.22
318.304	3.1
318.672	3.11
319.041	3.16
319.41	3.19
319.778	3.2
320.147	3.06
320.515	2.98
320.883	3.02
321.252	3.03
321.62	3.18
321.988	3.16
322.357	3.17
322.725	3.11
323.093	3.11
323.461	3.23
323.829	3.21
324.197	3.18
324.565	3.32
324.933	3.46
325.301	3.57
325.669	3.62
326.037	3.54
326.405	3.65
326.772	3.69
327.14	3.76
327.508	3.81
327.875	3.83
328.243	3.84
328.61	3.95
328.978	3.85
329.346	3.92
329.713	3.86
330.08	3.94
330.448	3.98
330.815	3.93
331.182	3.87
331.55	3.87
331.917	3.99
332.284	4.01
332.651	3.93
333.018	3.88
333.385	3.7
333.752	3.78
334.119	3.81
334.486	3.79
334.853	3.74
335.22	3.61
335.587	3.88
335.954	3.86
336.32	3.85
336.687	3.91
337.054	3.82
337.42	3.97
337.787	3.98
338.153	4.07
338.52	4.26
338.886	4.31
339.253	4.32
339.619	4.33
339.986	4.29
340.352	4.3
340.718	4.29
341.084	4.36
341.451	4.51
341.817	4.53
342.183	4.49
342.549	4.49
342.915	4.57
343.281	4.55
343.647	4.59
344.013	4.54
344.379	4.54
344.745	4.51
345.11	4.48
345.476	4.52
345.842	4.42
346.208	4.43
346.573	4.4
346.939	4.44
347.304	4.39
347.67	4.36
348.035	4.45
348.401	4.48
348.766	4.58
349.132	4.47
349.497	4.39
349.862	4.41
350.228	4.48
350.593	4.46
350.958	4.44
351.323	4.47
351.688	4.49
352.053	4.54
352.418	4.63
352.783	4.68
353.148	4.68
353.513	4.73
353.878	4.65
354.243	4.76
354.608	4.74
354.972	4.84
355.337	4.9
355.702	4.88
356.066	4.87
356.431	4.85
356.795	4.91
357.16	4.94
357.524	4.91
357.889	4.87
358.253	4.91
358.618	4.92
358.982	4.91
359.346	4.89
359.71	4.89
360.075	4.91
360.439	4.88
360.803	4.82
361.167	4.91
361.531	4.96
361.895	4.88
362.259	4.9
362.623	4.82
362.987	4.81
363.351	4.81
363.714	4.91
364.078	4.9
364.442	4.86
364.806	4.89
365.169	4.95
365.533	5.03
365.896	5
366.26	4.99
366.623	5.03
366.987	5.05
367.35	5.05
367.714	5.03
368.077	4.97
368.44	5.02
368.803	4.93
369.167	4.81
369.53	4.85
369.893	4.93
370.256	5.02
370.619	5
370.982	4.97
371.345	4.89
371.708	4.87
372.071	4.85
372.434	4.82
372.797	4.77
373.159	4.62
373.522	4.6
373.885	4.57
374.247	4.58
374.61	4.6
374.973	4.59
375.335	4.62
375.698	4.62
376.06	4.59
376.423	4.61
376.785	4.61
377.147	4.58
377.51	4.48
377.872	4.47
378.234	4.45
378.596	4.43
378.958	4.4
379.321	4.38
379.683	4.35
380.045	4.35
380.407	4.36
380.769	4.4
381.13	4.38
381.492	4.42
381.854	4.32
382.216	4.3
382.578	4.25
382.939	4.17
383.301	4.1
383.663	4.05
384.024	3.99
384.386	4.06
384.747	4.06
385.109	4.07
385.47	4
385.832	3.98
386.193	4
386.554	3.94
386.916	3.88
387.277	3.91
387.638	3.9
387.999	3.88
388.36	3.84
388.721	3.83
389.082	3.72
389.443	3.72
389.804	3.71
390.165	3.67
390.526	3.67
390.887	3.69
391.248	3.73
391.609	3.74
391.969	3.69
392.33	3.64
392.691	3.62
393.051	3.57
393.412	3.56
393.772	3.49
394.133	3.47
394.493	3.49
394.854	3.44
395.214	3.41
395.574	3.38
395.935	3.38
396.295	3.37
396.655	3.39
397.015	3.37
397.376	3.32
397.736	3.33
398.096	3.33
398.456	3.32
398.816	3.3
399.176	3.27
399.535	3.2
399.895	3.17
400.255	3.15
400.615	3.17
400.975	3.17
401.334	3.15
401.694	3.17
402.054	3.16
402.413	3.17
402.773	3.12
403.132	3.11
403.492	3.1
403.851	3.05
404.211	3.02
404.57	3.02
404.929	3.02
405.288	2.99
405.648	2.98
406.007	2.95
406.366	2.94
406.725	2.97
407.084	3
407.443	3.02
407.802	3.02
408.161	3.01
408.52	2.98
408.879	2.98
409.238	2.94
409.596	2.93
409.955	2.91
410.314	2.94
410.673	2.93
411.031	2.91
411.39	2.89
411.748	2.91
412.107	2.9
412.465	2.87
412.824	2.88
413.182	2.85
413.54	2.85
413.899	2.83
414.257	2.8
414.615	2.76
414.974	2.74
415.332	2.73
415.69	2.71
416.048	2.72
416.406	2.71
416.764	2.7
417.122	2.69
417.48	2.66
417.838	2.65
418.195	2.65
418.553	2.64
418.911	2.66
419.269	2.66
419.626	2.64
419.984	2.64
420.342	2.62
420.699	2.63
421.057	2.62
421.414	2.59
421.772	2.59
422.129	2.59
422.486	2.58
422.844	2.57
423.201	2.58
423.558	2.57
423.915	2.56
424.273	2.56
424.63	2.54
424.987	2.55
425.344	2.53
425.701	2.53
426.058	2.53
426.415	2.51
426.772	2.51
427.128	2.51
427.485	2.51
427.842	2.49
428.199	2.49
428.555	2.49
428.912	2.52
429.269	2.51
429.625	2.51
429.982	2.49
430.338	2.49
430.695	2.49
431.051	2.49
431.407	2.48
431.764	2.49
432.12	2.48
432.476	2.49
432.832	2.49
433.189	2.48
433.545	2.47
433.901	2.47
434.257	2.47
434.613	2.47
434.969	2.48
435.325	2.48
435.681	2.48
436.036	2.47
436.392	2.46
436.748	2.47
437.104	2.47
437.459	2.49
437.815	2.49
438.171	2.48
438.526	2.48
438.882	2.49
439.237	2.5
439.593	2.5
439.948	2.48
440.304	2.47
440.659	2.47
441.014	2.47
441.369	2.44
441.725	2.43
442.08	2.43
442.435	2.42
442.79	2.42
443.145	2.41
443.5	2.4
443.855	2.4
444.21	2.37
444.565	2.37
444.92	2.36
445.275	2.34
445.629	2.33
445.984	2.32
446.339	2.3
446.693	2.28
447.048	2.26
447.403	2.28
447.757	2.27
448.112	2.26
448.466	2.25
448.82	2.26
449.175	2.26
449.529	2.25
449.883	2.24
450.238	2.25
450.592	2.25
450.946	2.24
451.3	2.23
451.654	2.24
452.008	2.24
452.362	2.24
452.716	2.23
453.07	2.24
453.424	2.23
453.778	2.26
454.132	2.24
454.486	2.25
454.839	2.25
455.193	2.24
455.547	2.26
455.9	2.26
456.254	2.25
456.607	2.26
456.961	2.25
457.314	2.26
457.668	2.27
458.021	2.26
458.375	2.27
458.728	2.27
459.081	2.28
459.434	2.26
459.787	2.27
460.141	2.27
460.494	2.28
460.847	2.28
461.2	2.27
461.553	2.3
461.906	2.3
462.259	2.33
462.611	2.35
462.964	2.37
463.317	2.38
463.67	2.41
464.022	2.42
464.375	2.43
464.728	2.43
465.08	2.45
465.433	2.47
465.785	2.48
466.138	2.51
466.49	2.53
466.843	2.52
467.195	2.53
467.547	2.56
467.899	2.57
468.252	2.57
468.604	2.58
468.956	2.57
469.308	2.59
469.66	2.57
470.012	2.56
470.364	2.58
470.716	2.58
471.068	2.57
471.42	2.58
471.772	2.6
472.123	2.62
472.475	2.61
472.827	2.61
473.178	2.61
473.53	2.59
473.882	2.57
474.233	2.6
474.585	2.59
474.936	2.58
475.288	2.58
475.639	2.61
475.99	2.62
476.342	2.61
476.693	2.6
477.044	2.61
477.395	2.6
477.746	2.58
478.097	2.56
478.448	2.56
478.8	2.56
479.15	2.52
479.501	2.5
479.852	2.49
480.203	2.49
480.554	2.47
480.905	2.48
481.255	2.47
481.606	2.46
481.957	2.46
482.307	2.46
482.658	2.44
483.009	2.44
483.359	2.44
483.709	2.45
484.06	2.44
484.41	2.44
484.761	2.45
485.111	2.45
485.461	2.46
485.811	2.46
486.162	2.46
486.512	2.46
486.862	2.47
487.212	2.48
487.562	2.48
487.912	2.49
488.262	2.49
488.612	2.5
488.961	2.51
489.311	2.52
489.661	2.53
490.011	2.55
490.36	2.55
490.71	2.56
491.06	2.56
491.409	2.58
491.759	2.58
492.108	2.59
492.458	2.62
492.807	2.62
493.157	2.65
493.506	2.67
493.855	2.69
494.204	2.69
494.554	2.7
494.903	2.72
495.252	2.75
495.601	2.78
495.95	2.81
496.299	2.83
496.648	2.86
496.997	2.87
497.346	2.9
497.695	2.94
498.043	2.96
498.392	3
498.741	3.04
499.09	3.07
499.438	3.12
499.787	3.14
500.135	3.18
500.484	3.22
500.832	3.24
501.181	3.29
501.529	3.34
501.878	3.4
502.226	3.44
502.574	3.46
502.923	3.51
503.271	3.56
503.619	3.62
503.967	3.67
504.315	3.73
504.663	3.77
505.011	3.82
505.359	3.87
505.707	3.93
506.055	3.96
506.403	4.01
506.751	4.04
507.098	4.12
507.446	4.19
507.794	4.23
508.141	4.3
508.489	4.35
508.837	4.42
509.184	4.5
509.531	4.58
509.879	4.65
510.226	4.71
510.574	4.75
510.921	4.81
511.268	4.87
511.616	4.96
511.963	5.01
512.31	5.08
512.657	5.18
513.004	5.26
513.351	5.37
513.698	5.46
514.045	5.54
514.392	5.6
514.739	5.68
515.086	5.79
515.432	5.86
515.779	5.96
516.126	6.07
516.473	6.13
516.819	6.22
517.166	6.3
517.512	6.37
517.859	6.47
518.205	6.55
518.552	6.64
518.898	6.71
519.245	6.81
519.591	6.89
519.937	6.96
520.283	7.06
520.629	7.14
520.976	7.24
521.322	7.37
521.668	7.5
522.014	7.62
522.36	7.73
522.706	7.89
523.052	8.03
523.398	8.17
523.743	8.36
524.089	8.5
524.435	8.67
524.781	8.84
525.126	8.99
525.472	9.12
525.817	9.25
526.163	9.37
526.509	9.48
526.854	9.59
527.199	9.71
527.545	9.82
527.89	9.94
528.235	10.05
528.581	10.16
528.926	10.28
529.271	10.41
529.616	10.55
529.961	10.66
530.306	10.79
530.651	10.92
530.996	11.04
531.341	11.2
531.686	11.34
532.031	11.48
532.376	11.65
532.721	11.84
533.065	12.01
533.41	12.2
533.755	12.39
534.099	12.61
534.444	12.8
534.788	12.98
535.133	13.17
535.477	13.36
535.822	13.56
536.166	13.78
536.51	14.02
536.855	14.27
537.199	14.53
537.543	14.81
537.887	15.08
538.231	15.35
538.576	15.63
538.92	15.91
539.264	16.2
539.608	16.43
539.951	16.66
540.295	16.88
540.639	17.11
540.983	17.32
541.327	17.53
541.671	17.72
542.014	17.93
542.358	18.15
542.701	18.37
543.045	18.58
543.389	18.79
543.732	19
544.075	19.21
544.419	19.44
544.762	19.66
545.105	19.91
545.449	20.15
545.792	20.4
546.135	20.68
546.478	20.95
546.821	21.26
547.165	21.56
547.508	21.91
547.851	22.23
548.194	22.55
548.536	22.88
548.879	23.22
549.222	23.54
549.565	23.83
549.908	24.16
550.25	24.49
550.593	24.81
550.936	25.11
551.278	25.41
551.621	25.73
551.963	26.08
552.306	26.38
552.648	26.72
552.991	27.03
553.333	27.3
553.675	27.59
554.017	27.83
554.36	28.06
554.702	28.26
555.044	28.48
555.386	28.71
555.728	28.94
556.07	29.19
556.412	29.47
556.754	29.76
557.096	29.94
557.438	30.27
557.78	30.56
558.121	30.9
558.463	31.2
558.805	31.45
559.147	31.6
559.488	31.82
559.83	32.04
560.171	32.22
560.513	32.48
560.854	32.7
561.196	32.94
561.537	33.2
561.878	33.41
562.22	33.65
562.561	33.83
562.902	34.04
563.243	34.27
563.584	34.51
563.925	34.68
564.266	34.92
564.607	35.08
564.948	35.26
565.289	35.38
565.63	35.56
565.971	35.72
566.312	35.95
566.653	36.16
566.993	36.35
567.334	36.56
567.675	36.71
568.015	36.89
568.356	37.07
568.696	37.25
569.037	37.44
569.377	37.56
569.718	37.79
570.058	37.96
570.398	38.15
570.739	38.22
571.079	38.38
571.419	38.54
571.759	38.69
572.099	38.81
572.439	38.93
572.779	39.09
573.119	39.29
573.459	39.43
573.799	39.53
574.139	39.64
574.479	39.74
574.819	39.9
575.158	39.99
575.498	40.1
575.838	40.19
576.177	40.28
576.517	40.48
576.856	40.59
577.196	40.72
577.535	40.77
577.875	40.97
578.214	41.11
578.553	41.25
578.893	41.35
579.232	41.51
579.571	41.66
579.91	41.76
580.25	41.83
580.589	41.95
580.928	42.05
581.267	42.14
581.606	42.26
581.945	42.34
582.283	42.51
582.622	42.71
582.961	42.93
583.3	43.06
583.639	43.14
583.977	43.21
584.316	43.31
584.654	43.43
584.993	43.56
585.332	43.62
585.67	43.63
586.008	43.79
586.347	43.88
586.685	43.93
587.024	43.98
587.362	43.99
587.7	44.05
588.038	44.16
588.376	44.32
588.715	44.39
589.053	44.46
589.391	44.47
589.729	44.39
590.067	44.38
590.404	44.43
590.742	44.53
591.08	44.64
591.418	44.72
591.756	44.85
592.093	44.87
592.431	44.97
592.769	45.05
593.106	45.06
593.444	45.12
593.781	45.25
594.119	45.36
594.456	45.45
594.793	45.48
595.131	45.53
595.468	45.53
595.805	45.62
596.143	45.69
596.48	45.75
596.817	45.86
597.154	45.92
597.491	45.98
597.828	46.03
598.165	46.06
598.502	46.1
598.839	46.08
599.176	46.16
599.512	46.22
599.849	46.35
600.186	46.35
600.523	46.39
600.859	46.42
601.196	46.38
601.532	46.44
601.869	46.49
602.205	46.54
602.542	46.59
602.878	46.58
603.215	46.57
603.551	46.64
603.887	46.69
604.223	46.73
604.56	46.81
604.896	46.79
605.232	46.84
605.568	46.89
605.904	46.91
606.24	46.91
606.576	46.96
606.912	46.94
607.248	47.03
607.583	47.05
607.919	47.09
608.255	47.19
608.591	47.22
608.926	47.28
609.262	47.34
609.597	47.38
609.933	47.52
610.268	47.59
610.604	47.63
610.939	47.67
611.275	47.68
611.61	47.63
611.945	47.72
612.281	47.76
612.616	47.82
612.951	47.96
613.286	48.04
613.621	48.03
613.956	48.08
614.291	48.12
614.626	48.1
614.961	48.12
615.296	48.17
615.631	48.22
615.966	48.28
616.3	48.29
616.635	48.41
616.97	48.38
617.304	48.46
617.639	48.49
617.973	48.5
618.308	48.57
618.642	48.7
618.977	48.77
619.311	48.82
619.646	48.77
619.98	48.79
620.314	48.77
620.648	48.86
620.983	48.95
621.317	49.03
621.651	49.24
621.985	49.32
622.319	49.45
622.653	49.49
622.987	49.46
623.321	49.54
623.655	49.58
623.988	49.64
624.322	49.64
624.656	49.76
624.99	49.8
625.323	49.83
625.657	49.79
625.99	49.77
626.324	49.72
626.657	49.84
626.991	49.88
627.324	49.96
627.658	50
627.991	50.04
628.324	50
628.657	49.89
628.991	49.85
629.324	49.77
629.657	49.85
629.99	49.95
630.323	49.97
630.656	49.87
630.989	49.88
631.322	49.86
631.655	49.8
631.987	49.81
632.32	49.81
632.653	49.81
632.986	49.81
633.318	49.86
633.651	49.83
633.984	49.86
634.316	49.83
634.649	49.82
634.981	49.83
635.313	49.87
635.646	49.93
635.978	49.95
636.31	50.09
636.643	49.98
636.975	50.01
637.307	49.96
637.639	50.03
637.971	50.07
638.303	50.18
638.635	50.21
638.967	50.18
639.299	50.24
639.631	50.32
639.963	50.28
640.295	50.37
640.626	50.36
640.958	50.37
641.29	50.39
641.621	50.44
641.953	50.38
642.285	50.39
642.616	50.38
642.948	50.39
643.279	50.32
643.61	50.54
643.942	50.56
644.273	50.55
644.604	50.54
644.936	50.5
645.267	50.53
645.598	50.51
645.929	50.63
646.26	50.65
646.591	50.64
646.922	50.72
647.253	50.7
647.584	50.69
647.915	50.6
648.245	50.64
648.576	50.61
648.907	50.64
649.238	50.7
649.568	50.71
649.899	50.81
650.229	50.77
650.56	50.74
650.89	50.71
651.221	50.72
651.551	50.76
651.882	50.86
652.212	50.85
652.542	50.9
652.872	50.88
653.203	50.87
653.533	50.89
653.863	50.84
654.193	50.83
654.523	50.98
654.853	51.11
655.183	51.21
655.513	51.19
655.843	51.27
656.172	51.26
656.502	51.28
656.832	51.22
657.162	51.18
657.491	51.16
657.821	51.17
658.15	51.14
658.48	51.11
658.809	51.11
659.139	51.09
659.468	50.97
659.798	50.95
660.127	50.99
660.456	51.08
660.785	51.24
661.115	51.3
661.444	51.22
661.773	51.23
662.102	51.15
662.431	51.17
662.76	51.11
663.089	51.05
663.418	51.04
663.747	51.12
664.076	51.19
664.404	51.2
664.733	51.26
665.062	51.39
665.39	51.55
665.719	51.39
666.048	51.48
666.376	51.65
666.705	51.72
