Data from BA28474_Reflection_00009.txt Node
Date: Mon Nov 18 15:30:49 EST 2019
User: vgr7
Spectrometer: USB2G7710
Scans to average: 3
Trigger mode: 4
Integration Time (sec): 2.000000E-2
Electric dark correction enabled: true
Boxcar width: 10
XAxis mode: Wavelengths
Number of Pixels in Spectrum: 2048
>>>>>Begin Spectral Data<<<<<
177.721	87.89
178.105	5.03
178.488	-9.52
178.871	-30.81
179.254	-168.66
179.636	42.75
180.019	100
180.402	117.78
180.785	-43.43
181.168	44.03
181.55	-20.6
181.933	164.86
182.316	55.2
182.698	23.21
183.081	-3.37
183.463	-7.88
183.846	77.7
184.228	1433.33
184.611	-3.23
184.993	-5.26
185.376	39.64
185.758	34.52
186.14	-1.61
186.522	-13.88
186.904	-7.75
187.287	-37.35
187.669	12.15
188.051	34.49
188.433	55.63
188.815	26.73
189.197	41.71
189.579	104.21
189.961	42.23
190.342	45.23
190.724	54.51
191.106	41.24
191.488	48.33
191.869	56.97
192.251	66.77
192.633	67.79
193.014	52.89
193.396	65.1
193.777	75.58
194.159	64.5
194.54	78.47
194.922	54.51
195.303	72.36
195.684	41.73
196.065	40.12
196.447	34.01
196.828	47.61
197.209	35.6
197.59	34.7
197.971	31.09
198.352	28.41
198.733	12.77
199.114	30.52
199.495	44.22
199.876	47.88
200.257	32.15
200.638	43.23
201.018	30.32
201.399	19.93
201.78	28.74
202.16	23.75
202.541	21.33
202.922	31.86
203.302	-26.88
203.683	-5.48
204.063	-16.96
204.444	-20.22
204.824	-0.52
205.204	22.15
205.585	1.53
205.965	48.39
206.345	3.88
206.725	0.99
207.106	-34.11
207.486	-75.44
207.866	-314.41
208.246	-62.16
208.626	-93.83
209.006	20.72
209.386	8.26
209.766	1.64
210.145	-6.91
210.525	-12.62
210.905	6.66
211.285	23.95
211.664	19.87
212.044	12.98
212.424	22.52
212.803	11.14
213.183	-4.85
213.562	-2.25
213.942	8.89
214.321	29.59
214.701	29.88
215.08	35.94
215.459	52.64
215.838	49.64
216.218	39.5
216.597	44.84
216.976	53.09
217.355	49.12
217.734	51.67
218.113	78.25
218.492	93.39
218.871	88.34
219.25	85.93
219.629	88.66
220.008	85.26
220.387	74.78
220.766	83.45
221.144	98.27
221.523	77.64
221.902	58.23
222.28	51.26
222.659	40.65
223.037	49.1
223.416	37.4
223.794	33.88
224.173	51.52
224.551	43.35
224.929	32.2
225.308	34.13
225.686	29.89
226.064	22.28
226.442	18.81
226.821	18.55
227.199	18.73
227.577	15.53
227.955	14.85
228.333	10.84
228.711	11.79
229.089	12.02
229.467	12.18
229.845	11
230.222	10.49
230.6	11.09
230.978	5.92
231.356	5.23
231.733	1.94
232.111	2.41
232.488	0.16
232.866	0.11
233.243	-0.82
233.621	-3.81
233.998	-0.5
234.376	-0.69
234.753	-0.13
235.13	1.26
235.508	3.07
235.885	2.4
236.262	4.64
236.639	3.97
237.016	4.91
237.393	6.93
237.77	6.89
238.147	6.43
238.524	6.62
238.901	8.06
239.278	8.64
239.655	10.47
240.032	9.61
240.409	9.48
240.785	9.18
241.162	8.58
241.539	8.64
241.915	7.85
242.292	7.76
242.668	7.54
243.045	7.2
243.421	6.65
243.798	6.6
244.174	6.22
244.551	5.87
244.927	5.95
245.303	5.85
245.679	5.83
246.056	5.86
246.432	5.67
246.808	5.71
247.184	5.53
247.56	5.17
247.936	5.12
248.312	5.12
248.688	5.12
249.064	5.18
249.44	5.19
249.815	5.15
250.191	5.08
250.567	5.11
250.943	4.96
251.318	5.19
251.694	5.34
252.069	5.26
252.445	5.5
252.82	5.35
253.196	5.28
253.571	5.45
253.947	5.81
254.322	6.2
254.697	5.92
255.073	5.6
255.448	5.44
255.823	5.37
256.198	5.19
256.573	4.99
256.948	4.94
257.323	5
257.698	5.01
258.073	5.07
258.448	4.93
258.823	5.03
259.198	4.73
259.573	4.66
259.948	4.68
260.322	4.6
260.697	4.62
261.072	4.43
261.446	4.38
261.821	4.23
262.195	3.93
262.57	3.83
262.944	3.9
263.319	3.85
263.693	3.83
264.067	3.98
264.442	4.16
264.816	4.25
265.19	4.1
265.564	3.98
265.938	3.81
266.313	3.81
266.687	3.69
267.061	3.96
267.435	4.05
267.809	4.16
268.183	4.15
268.556	4
268.93	4.04
269.304	4.09
269.678	3.97
270.051	4.1
270.425	4.15
270.799	4.17
271.172	4.21
271.546	4.36
271.919	4.34
272.293	4.14
272.666	4.14
273.04	4.21
273.413	4.26
273.787	4.24
274.16	4.14
274.533	4.1
274.906	4.06
275.279	3.96
275.653	3.84
276.026	3.91
276.399	3.86
276.772	4.01
277.145	3.85
277.518	3.79
277.891	3.74
278.263	3.65
278.636	3.76
279.009	3.74
279.382	3.74
279.755	3.67
280.127	3.85
280.5	3.91
280.872	3.99
281.245	3.91
281.617	4.16
281.99	4.36
282.362	4.25
282.735	4.11
283.107	4.05
283.479	4.14
283.852	4.12
284.224	4.24
284.596	4.18
284.968	4.23
285.34	4.36
285.713	4.59
286.085	4.75
286.457	4.77
286.829	4.81
287.201	4.67
287.572	4.6
287.944	4.57
288.316	4.44
288.688	4.42
289.06	4.53
289.431	4.46
289.803	4.43
290.175	4.61
290.546	4.76
290.918	4.91
291.289	4.97
291.661	4.99
292.032	5.01
292.403	5.23
292.775	5.3
293.146	5.35
293.517	5.11
293.889	5.17
294.26	5.17
294.631	5.29
295.002	5.3
295.373	5.4
295.744	5.33
296.115	5.4
296.486	5.4
296.857	5.34
297.228	5.33
297.599	5.29
297.97	5.26
298.34	5.26
298.711	5.31
299.082	5.33
299.452	5.32
299.823	5.47
300.194	5.45
300.564	5.54
300.935	5.54
301.305	5.77
301.676	5.68
302.046	5.74
302.416	5.9
302.787	6.07
303.157	6.13
303.527	6.28
303.897	6.35
304.267	6.61
304.637	6.71
305.008	6.89
305.378	7.09
305.748	7.21
306.117	7.21
306.487	7.08
306.857	7.09
307.227	7.1
307.597	6.94
307.967	6.93
308.336	6.87
308.706	6.87
309.076	6.79
309.445	6.87
309.815	6.88
310.184	6.73
310.554	6.67
310.923	6.66
311.293	6.8
311.662	6.85
312.031	6.68
312.401	6.67
312.77	6.77
313.139	6.84
313.508	6.92
313.877	6.98
314.246	7.12
314.616	7.13
314.985	7.19
315.353	7.42
315.722	7.48
316.091	7.54
316.46	7.64
316.829	7.8
317.198	7.89
317.567	8.03
317.935	8.05
318.304	8.26
318.672	8.47
319.041	8.67
319.41	8.8
319.778	8.93
320.147	9.19
320.515	9.18
320.883	9.27
321.252	9.21
321.62	9.29
321.988	9.38
322.357	9.48
322.725	9.61
323.093	9.63
323.461	9.74
323.829	9.87
324.197	9.96
324.565	10.03
324.933	10.11
325.301	10.1
325.669	10.21
326.037	10.13
326.405	10.26
326.772	10.22
327.14	10.3
327.508	10.4
327.875	10.29
328.243	10.26
328.61	10.13
328.978	10.28
329.346	10.46
329.713	10.38
330.08	10.43
330.448	10.46
330.815	10.36
331.182	10.37
331.55	10.38
331.917	10.35
332.284	10.41
332.651	10.41
333.018	10.45
333.385	10.68
333.752	10.85
334.119	10.77
334.486	10.63
334.853	10.6
335.22	10.57
335.587	10.77
335.954	10.83
336.32	10.77
336.687	10.9
337.054	10.89
337.42	11.06
337.787	11.17
338.153	11.22
338.52	11.33
338.886	11.29
339.253	11.29
339.619	11.38
339.986	11.47
340.352	11.5
340.718	11.48
341.084	11.38
341.451	11.31
341.817	11.35
342.183	11.48
342.549	11.58
342.915	11.64
343.281	11.6
343.647	11.55
344.013	11.67
344.379	11.61
344.745	11.67
345.11	11.61
345.476	11.63
345.842	11.68
346.208	11.74
346.573	11.79
346.939	11.85
347.304	11.79
347.67	11.63
348.035	11.63
348.401	11.66
348.766	11.66
349.132	11.76
349.497	11.7
349.862	11.77
350.228	11.67
350.593	11.65
350.958	11.58
351.323	11.62
351.688	11.66
352.053	11.66
352.418	11.68
352.783	11.7
353.148	11.66
353.513	11.58
353.878	11.55
354.243	11.61
354.608	11.55
354.972	11.61
355.337	11.66
355.702	11.76
356.066	11.86
356.431	11.89
356.795	11.95
357.16	11.99
357.524	11.83
357.889	11.83
358.253	11.78
358.618	11.82
358.982	11.8
359.346	11.73
359.71	11.67
360.075	11.61
360.439	11.56
360.803	11.51
361.167	11.51
361.531	11.46
361.895	11.37
362.259	11.28
362.623	11.32
362.987	11.34
363.351	11.24
363.714	11.09
364.078	11
364.442	10.9
364.806	10.82
365.169	10.93
365.533	10.9
365.896	10.93
366.26	10.87
366.623	10.85
366.987	10.84
367.35	10.85
367.714	10.78
368.077	10.74
368.44	10.8
368.803	10.77
369.167	10.71
369.53	10.64
369.893	10.72
370.256	10.62
370.619	10.54
370.982	10.5
371.345	10.5
371.708	10.43
372.071	10.35
372.434	10.32
372.797	10.13
373.159	10.09
373.522	10.03
373.885	10.05
374.247	9.94
374.61	9.92
374.973	9.85
375.335	9.78
375.698	9.74
376.06	9.61
376.423	9.51
376.785	9.47
377.147	9.45
377.51	9.31
377.872	9.25
378.234	9.19
378.596	9.09
378.958	9
379.321	8.94
379.683	8.9
380.045	8.8
380.407	8.75
380.769	8.65
381.13	8.55
381.492	8.48
381.854	8.42
382.216	8.29
382.578	8.2
382.939	8.11
383.301	8.04
383.663	7.93
384.024	7.86
384.386	7.82
384.747	7.75
385.109	7.75
385.47	7.64
385.832	7.63
386.193	7.59
386.554	7.55
386.916	7.49
387.277	7.43
387.638	7.44
387.999	7.41
388.36	7.36
388.721	7.33
389.082	7.23
389.443	7.16
389.804	7.14
390.165	7.11
390.526	7.13
390.887	7.12
391.248	7.13
391.609	7.13
391.969	7.11
392.33	7.08
392.691	7.05
393.051	7.03
393.412	6.97
393.772	6.9
394.133	6.83
394.493	6.79
394.854	6.76
395.214	6.69
395.574	6.61
395.935	6.54
396.295	6.52
396.655	6.5
397.015	6.46
397.376	6.4
397.736	6.33
398.096	6.26
398.456	6.23
398.816	6.14
399.176	6.04
399.535	5.98
399.895	5.91
400.255	5.83
400.615	5.78
400.975	5.71
401.334	5.68
401.694	5.66
402.054	5.64
402.413	5.58
402.773	5.52
403.132	5.5
403.492	5.5
403.851	5.46
404.211	5.45
404.57	5.43
404.929	5.41
405.288	5.4
405.648	5.34
406.007	5.29
406.366	5.27
406.725	5.28
407.084	5.3
407.443	5.27
407.802	5.27
408.161	5.27
408.52	5.25
408.879	5.24
409.238	5.25
409.596	5.26
409.955	5.24
410.314	5.24
410.673	5.21
411.031	5.17
411.39	5.17
411.748	5.13
412.107	5.12
412.465	5.09
412.824	5.08
413.182	5.07
413.54	5.05
413.899	5.04
414.257	5
414.615	4.9
414.974	4.88
415.332	4.84
415.69	4.78
416.048	4.75
416.406	4.72
416.764	4.66
417.122	4.63
417.48	4.62
417.838	4.59
418.195	4.59
418.553	4.57
418.911	4.53
419.269	4.49
419.626	4.46
419.984	4.43
420.342	4.4
420.699	4.38
421.057	4.35
421.414	4.34
421.772	4.33
422.129	4.32
422.486	4.29
422.844	4.27
423.201	4.25
423.558	4.24
423.915	4.23
424.273	4.22
424.63	4.18
424.987	4.15
425.344	4.14
425.701	4.11
426.058	4.1
426.415	4.09
426.772	4.08
427.128	4.06
427.485	4.06
427.842	4.04
428.199	4.05
428.555	4.02
428.912	4.01
429.269	3.99
429.625	3.97
429.982	3.99
430.338	3.98
430.695	3.98
431.051	3.98
431.407	3.97
431.764	3.97
432.12	3.98
432.476	3.98
432.832	3.96
433.189	3.96
433.545	3.95
433.901	3.94
434.257	3.94
434.613	3.93
434.969	3.93
435.325	3.94
435.681	3.93
436.036	3.94
436.392	3.93
436.748	3.91
437.104	3.91
437.459	3.91
437.815	3.92
438.171	3.92
438.526	3.92
438.882	3.92
439.237	3.92
439.593	3.92
439.948	3.94
440.304	3.95
440.659	3.94
441.014	3.95
441.369	3.95
441.725	3.94
442.08	3.95
442.435	3.95
442.79	3.94
443.145	3.93
443.5	3.92
443.855	3.92
444.21	3.93
444.565	3.93
444.92	3.92
445.275	3.89
445.629	3.88
445.984	3.87
446.339	3.87
446.693	3.85
447.048	3.84
447.403	3.8
447.757	3.78
448.112	3.76
448.466	3.74
448.82	3.73
449.175	3.72
449.529	3.7
449.883	3.69
450.238	3.66
450.592	3.64
450.946	3.63
451.3	3.61
451.654	3.6
452.008	3.59
452.362	3.58
452.716	3.59
453.07	3.58
453.424	3.56
453.778	3.55
454.132	3.56
454.486	3.54
454.839	3.54
455.193	3.55
455.547	3.57
455.9	3.57
456.254	3.57
456.607	3.58
456.961	3.58
457.314	3.59
457.668	3.59
458.021	3.61
458.375	3.61
458.728	3.63
459.081	3.63
459.434	3.62
459.787	3.64
460.141	3.63
460.494	3.64
460.847	3.66
461.2	3.66
461.553	3.68
461.906	3.7
462.259	3.71
462.611	3.73
462.964	3.76
463.317	3.77
463.67	3.78
464.022	3.79
464.375	3.81
464.728	3.82
465.08	3.85
465.433	3.86
465.785	3.89
466.138	3.91
466.49	3.92
466.843	3.94
467.195	3.94
467.547	3.97
467.899	3.98
468.252	3.97
468.604	4.01
468.956	4.03
469.308	4.03
469.66	4.04
470.012	4.05
470.364	4.04
470.716	4.06
471.068	4.06
471.42	4.08
471.772	4.1
472.123	4.13
472.475	4.14
472.827	4.17
473.178	4.18
473.53	4.17
473.882	4.16
474.233	4.18
474.585	4.17
474.936	4.16
475.288	4.17
475.639	4.21
475.99	4.18
476.342	4.17
476.693	4.18
477.044	4.18
477.395	4.19
477.746	4.16
478.097	4.13
478.448	4.12
478.8	4.1
479.15	4.08
479.501	4.06
479.852	4.03
480.203	4.01
480.554	3.99
480.905	4
481.255	4
481.606	4.01
481.957	4.01
482.307	4
482.658	3.99
483.009	3.98
483.359	3.98
483.709	3.98
484.06	3.97
484.41	3.96
484.761	3.96
485.111	3.97
485.461	3.97
485.811	3.97
486.162	3.96
486.512	3.98
486.862	3.96
487.212	3.97
487.562	3.98
487.912	3.98
488.262	3.99
488.612	3.99
488.961	3.99
489.311	4
489.661	4
490.011	4.01
490.36	4.01
490.71	4.01
491.06	4.02
491.409	4.04
491.759	4.05
492.108	4.06
492.458	4.07
492.807	4.08
493.157	4.11
493.506	4.14
493.855	4.15
494.204	4.18
494.554	4.22
494.903	4.24
495.252	4.27
495.601	4.3
495.95	4.34
496.299	4.37
496.648	4.39
496.997	4.45
497.346	4.51
497.695	4.56
498.043	4.63
498.392	4.65
498.741	4.71
499.09	4.74
499.438	4.8
499.787	4.86
500.135	4.93
500.484	4.99
500.832	5.04
501.181	5.1
501.529	5.17
501.878	5.24
502.226	5.33
502.574	5.4
502.923	5.45
503.271	5.53
503.619	5.6
503.967	5.7
504.315	5.75
504.663	5.83
505.011	5.93
505.359	6
505.707	6.13
506.055	6.23
506.403	6.35
506.751	6.45
507.098	6.53
507.446	6.64
507.794	6.75
508.141	6.86
508.489	6.96
508.837	7.08
509.184	7.17
509.531	7.25
509.879	7.35
510.226	7.46
510.574	7.56
510.921	7.68
511.268	7.76
511.616	7.9
511.963	8.01
512.31	8.11
512.657	8.23
513.004	8.34
513.351	8.48
513.698	8.62
514.045	8.75
514.392	8.91
514.739	9.02
515.086	9.15
515.432	9.27
515.779	9.4
516.126	9.53
516.473	9.7
516.819	9.85
517.166	10.01
517.512	10.16
517.859	10.28
518.205	10.4
518.552	10.57
518.898	10.68
519.245	10.81
519.591	10.94
519.937	11.08
520.283	11.23
520.629	11.36
520.976	11.52
521.322	11.71
521.668	11.88
522.014	12.06
522.36	12.25
522.706	12.48
523.052	12.69
523.398	12.93
523.743	13.12
524.089	13.33
524.435	13.52
524.781	13.74
525.126	13.94
525.472	14.14
525.817	14.31
526.163	14.48
526.509	14.65
526.854	14.81
527.199	14.96
527.545	15.11
527.89	15.26
528.235	15.41
528.581	15.56
528.926	15.72
529.271	15.89
529.616	16.06
529.961	16.21
530.306	16.39
530.651	16.55
530.996	16.75
531.341	16.96
531.686	17.18
532.031	17.39
532.376	17.62
532.721	17.84
533.065	18.07
533.41	18.31
533.755	18.55
534.099	18.82
534.444	19.07
534.788	19.32
535.133	19.58
535.477	19.85
535.822	20.11
536.166	20.39
536.51	20.69
536.855	21.03
537.199	21.38
537.543	21.75
537.887	22.12
538.231	22.48
538.576	22.84
538.92	23.19
539.264	23.53
539.608	23.86
539.951	24.18
540.295	24.48
540.639	24.78
540.983	25.06
541.327	25.33
541.671	25.59
542.014	25.87
542.358	26.11
542.701	26.38
543.045	26.65
543.389	26.92
543.732	27.2
544.075	27.47
544.419	27.75
544.762	28.03
545.105	28.33
545.449	28.63
545.792	28.93
546.135	29.26
546.478	29.62
546.821	29.99
547.165	30.35
547.508	30.72
547.851	31.06
548.194	31.44
548.536	31.8
548.879	32.19
549.222	32.56
549.565	32.93
549.908	33.29
550.25	33.67
550.593	34.12
550.936	34.46
551.278	34.79
551.621	35.17
551.963	35.55
552.306	35.88
552.648	36.22
552.991	36.55
553.333	36.86
553.675	37.16
554.017	37.44
554.36	37.76
554.702	38.01
555.044	38.32
555.386	38.6
555.728	38.89
556.07	39.2
556.412	39.44
556.754	39.78
557.096	40.09
557.438	40.37
557.78	40.62
558.121	40.95
558.463	41.26
558.805	41.55
559.147	41.78
559.488	42.06
559.83	42.28
560.171	42.55
560.513	42.8
560.854	42.99
561.196	43.25
561.537	43.45
561.878	43.69
562.22	43.94
562.561	44.14
562.902	44.35
563.243	44.55
563.584	44.73
563.925	44.95
564.266	45.08
564.607	45.24
564.948	45.41
565.289	45.54
565.63	45.74
565.971	45.88
566.312	46.08
566.653	46.24
566.993	46.47
567.334	46.61
567.675	46.81
568.015	47.06
568.356	47.19
568.696	47.32
569.037	47.53
569.377	47.66
569.718	47.85
570.058	47.97
570.398	48.09
570.739	48.31
571.079	48.42
571.419	48.61
571.759	48.82
572.099	48.95
572.439	49.11
572.779	49.22
573.119	49.33
573.459	49.46
573.799	49.64
574.139	49.77
574.479	49.92
574.819	50.05
575.158	50.08
575.498	50.25
575.838	50.43
576.177	50.56
576.517	50.71
576.856	50.83
577.196	51.04
577.535	51.19
577.875	51.29
578.214	51.45
578.553	51.55
578.893	51.62
579.232	51.74
579.571	51.89
579.91	52.03
580.25	52.21
580.589	52.31
580.928	52.43
581.267	52.55
581.606	52.69
581.945	52.81
582.283	52.95
582.622	53.09
582.961	53.17
583.3	53.27
583.639	53.36
583.977	53.45
584.316	53.5
584.654	53.69
584.993	53.76
585.332	53.83
585.67	53.9
586.008	54.01
586.347	54.13
586.685	54.23
587.024	54.3
587.362	54.33
587.7	54.32
588.038	54.34
588.376	54.37
588.715	54.38
589.053	54.49
589.391	54.56
589.729	54.61
590.067	54.69
590.404	54.81
590.742	54.85
591.08	54.91
591.418	55.04
591.756	55.06
592.093	55.15
592.431	55.23
592.769	55.38
593.106	55.44
593.444	55.51
593.781	55.6
594.119	55.63
594.456	55.79
594.793	55.91
595.131	55.96
595.468	55.98
595.805	56.05
596.143	56.14
596.48	56.17
596.817	56.19
597.154	56.3
597.491	56.26
597.828	56.32
598.165	56.35
598.502	56.34
598.839	56.42
599.176	56.5
599.512	56.51
599.849	56.49
600.186	56.54
600.523	56.54
600.859	56.54
601.196	56.66
601.532	56.61
601.869	56.69
602.205	56.71
602.542	56.73
602.878	56.78
603.215	56.77
603.551	56.88
603.887	56.93
604.223	56.87
604.56	56.94
604.896	56.98
605.232	57.05
605.568	57.11
605.904	57.16
606.24	57.16
606.576	57.25
606.912	57.27
607.248	57.32
607.583	57.35
607.919	57.47
608.255	57.41
608.591	57.52
608.926	57.6
609.262	57.7
609.597	57.76
609.933	57.76
610.268	57.83
610.604	57.81
610.939	57.8
611.275	57.92
611.61	57.9
611.945	57.94
612.281	58.06
612.616	58.08
612.951	58.09
613.286	58.21
613.621	58.32
613.956	58.43
614.291	58.49
614.626	58.61
614.961	58.46
615.296	58.59
615.631	58.57
615.966	58.53
616.3	58.62
616.635	58.71
616.97	58.78
617.304	58.73
617.639	58.86
617.973	58.93
618.308	58.92
618.642	59.03
618.977	59.08
619.311	59.04
619.646	59.18
619.98	59.28
620.314	59.26
620.648	59.16
620.983	59.24
621.317	59.27
621.651	59.29
621.985	59.42
622.319	59.38
622.653	59.33
622.987	59.31
623.321	59.25
623.655	59.19
623.988	59.21
624.322	59.34
624.656	59.41
624.99	59.41
625.323	59.33
625.657	59.34
625.99	59.35
626.324	59.37
626.657	59.33
626.991	59.35
627.324	59.48
627.658	59.48
627.991	59.48
628.324	59.46
628.657	59.37
628.991	59.31
629.324	59.33
629.657	59.41
629.99	59.42
630.323	59.48
630.656	59.58
630.989	59.64
631.322	59.6
631.655	59.43
631.987	59.53
632.32	59.57
632.653	59.56
632.986	59.51
633.318	59.44
633.651	59.37
633.984	59.27
634.316	59.1
634.649	59.15
634.981	59.14
635.313	59.06
635.646	59.12
635.978	59.19
636.31	59.2
636.643	59.23
636.975	59.27
637.307	59.27
637.639	59.26
637.971	59.24
638.303	59.21
638.635	59.27
638.967	59.18
639.299	59.28
639.631	59.19
639.963	59.29
640.295	59.35
640.626	59.47
640.958	59.53
641.29	59.57
641.621	59.61
641.953	59.67
642.285	59.83
642.616	59.89
642.948	59.9
643.279	59.95
643.61	59.99
643.942	59.96
644.273	59.91
644.604	59.87
644.936	59.99
645.267	60.06
645.598	60.16
645.929	60.19
646.26	60.1
646.591	60.28
646.922	60.26
647.253	60.26
647.584	60.14
647.915	60.15
648.245	60.2
648.576	60.25
648.907	60.28
649.238	60.18
649.568	60.13
649.899	60.23
650.229	60.24
650.56	60.32
650.89	60.43
651.221	60.53
651.551	60.56
651.882	60.49
652.212	60.45
652.542	60.27
652.872	60.29
653.203	60.41
653.533	60.37
653.863	60.35
654.193	60.36
654.523	60.47
654.853	60.46
655.183	60.39
655.513	60.38
655.843	60.38
656.172	60.48
656.502	60.65
656.832	60.54
657.162	60.62
657.491	60.52
657.821	60.56
658.15	60.56
658.48	60.6
658.809	60.68
659.139	60.76
659.468	60.84
659.798	60.84
660.127	60.92
660.456	61.03
660.785	61.14
661.115	61.14
661.444	61.15
661.773	61.19
662.102	61.26
662.431	61.22
662.76	61.15
663.089	61.22
663.418	61.1
663.747	61.16
664.076	61.03
664.404	60.97
664.733	60.97
665.062	60.98
665.39	61.06
665.719	60.87
