Data from BA28467_Reflection_00008.txt Node
Date: Mon Nov 18 15:33:15 EST 2019
User: vgr7
Spectrometer: USB2G7710
Scans to average: 3
Trigger mode: 4
Integration Time (sec): 2.000000E-2
Electric dark correction enabled: true
Boxcar width: 10
XAxis mode: Wavelengths
Number of Pixels in Spectrum: 2048
>>>>>Begin Spectral Data<<<<<
177.721	-116.36
178.105	-189.34
178.488	-153.19
178.871	-313.14
179.254	431.66
179.636	-101.58
180.019	707.59
180.402	80
180.785	610.64
181.168	1032.43
181.55	333.77
181.933	127.48
182.316	140.22
182.698	104.69
183.081	115.06
183.463	122.94
183.846	394.28
184.228	369.9
184.611	585.11
184.993	702.32
185.376	-772.25
185.758	-753.56
186.14	-603.24
186.522	-191.2
186.904	-228.77
187.287	-1319.85
187.669	-241.85
188.051	502.33
188.433	-193.42
188.815	-73.41
189.197	-189.44
189.579	-104.88
189.961	-91.81
190.342	-59.8
190.724	-12.99
191.106	-26.88
191.488	-8.29
191.869	13.1
192.251	-34.23
192.633	-42.93
193.014	6.92
193.396	-20.1
193.777	1.07
194.159	37.44
194.54	-8.23
194.922	-24.54
195.303	-6.79
195.684	-24.52
196.065	9.76
196.447	-0.59
196.828	-177.58
197.209	-52.69
197.59	-94.9
197.971	569.57
198.352	-538.3
198.733	74.18
199.114	-22
199.495	54.11
199.876	48.44
200.257	-19.52
200.638	16.16
201.018	-10.12
201.399	-24.45
201.78	-32.3
202.16	-55.3
202.541	-94.99
202.922	-183.51
203.302	-182.72
203.683	-165.22
204.063	-472.79
204.444	-529.55
204.824	-202.47
205.204	-331.07
205.585	-230.08
205.965	-153.3
206.345	-278.8
206.725	-307.72
207.106	-589.74
207.486	-681.55
207.866	-545.02
208.246	-1814.4
208.626	2391.46
209.006	1300
209.386	305.2
209.766	441.73
210.145	4581.01
210.525	-2089.78
210.905	-416.35
211.285	-130.94
211.664	-229.74
212.044	-92.92
212.424	-31.08
212.803	-71.06
213.183	-82.39
213.562	-46.91
213.942	-16.67
214.321	-3.68
214.701	-19.27
215.08	-17.69
215.459	-19.29
215.838	-17.68
216.218	-13.59
216.597	-11.3
216.976	-15.35
217.355	-5.93
217.734	4.28
218.113	26.95
218.492	19.81
218.871	8.64
219.25	-25.64
219.629	-9.82
220.008	-22.17
220.387	-19.29
220.766	-4.2
221.144	-14.16
221.523	-13.72
221.902	-28.37
222.28	-61.45
222.659	-20.47
223.037	-12.97
223.416	-26.3
223.794	-20.96
224.173	-22.64
224.551	-25.03
224.929	-27.61
225.308	-25.61
225.686	-23.88
226.064	-30.87
226.442	-30.76
226.821	-24.34
227.199	-20.29
227.577	-20.6
227.955	-22.41
228.333	-27.2
228.711	-23.84
229.089	-16.89
229.467	-19.7
229.845	-18.53
230.222	-14.8
230.6	-14.08
230.978	-12.53
231.356	-8.68
231.733	-7.04
232.111	-5.57
232.488	-2.84
232.866	-1.69
233.243	-1.15
233.621	-2.43
233.998	-0.02
234.376	-0.56
234.753	-2.26
235.13	-2.32
235.508	-0.05
235.885	1.35
236.262	1.09
236.639	1.02
237.016	0.82
237.393	3.39
237.77	3.73
238.147	4.64
238.524	4.98
238.901	4.92
239.278	4.6
239.655	4.69
240.032	5
240.409	4.15
240.785	4.39
241.162	3.96
241.539	3.96
241.915	4.11
242.292	3.6
242.668	3.93
243.045	4.08
243.421	4.03
243.798	3.72
244.174	4.01
244.551	4.11
244.927	4.22
245.303	4.15
245.679	4.11
246.056	3.93
246.432	3.62
246.808	3.53
247.184	3.25
247.56	3.15
247.936	2.97
248.312	2.95
248.688	3.25
249.064	3.34
249.44	3.46
249.815	3.32
250.191	3.72
250.567	3.77
250.943	3.82
251.318	3.63
251.694	3.65
252.069	3.49
252.445	3.3
252.82	3.21
253.196	2.91
253.571	2.89
253.947	2.93
254.322	3.1
254.697	2.98
255.073	3.42
255.448	3.27
255.823	3.27
256.198	3.61
256.573	3.06
256.948	3.11
257.323	3.25
257.698	3.5
258.073	3.46
258.448	3.4
258.823	3.46
259.198	3.51
259.573	3.54
259.948	3.62
260.322	3.73
260.697	3.61
261.072	3.66
261.446	3.6
261.821	3.47
262.195	3.49
262.57	3.54
262.944	3.54
263.319	3.49
263.693	3.53
264.067	3.44
264.442	3.65
264.816	3.56
265.19	3.51
265.564	3.19
265.938	3.12
266.313	3.25
266.687	3.1
267.061	3.07
267.435	3.14
267.809	3.04
268.183	2.89
268.556	2.74
268.93	2.74
269.304	2.95
269.678	3.12
270.051	3
270.425	3.08
270.799	2.99
271.172	2.9
271.546	2.89
271.919	2.88
272.293	2.79
272.666	3
273.04	2.98
273.413	3.11
273.787	3.06
274.16	3.01
274.533	3.13
274.906	3.24
275.279	3.21
275.653	3.21
276.026	3.21
276.399	3.35
276.772	3.37
277.145	3.09
277.518	3.02
277.891	3.1
278.263	3.07
278.636	3.06
279.009	3.24
279.382	3.25
279.755	3.28
280.127	3.39
280.5	3.3
280.872	3.25
281.245	3.18
281.617	3.45
281.99	3.49
282.362	3.41
282.735	3.17
283.107	3.12
283.479	3.25
283.852	3.28
284.224	3.33
284.596	3.35
284.968	3.53
285.34	3.53
285.713	3.75
286.085	3.78
286.457	3.88
286.829	3.86
287.201	3.92
287.572	3.89
287.944	3.84
288.316	3.82
288.688	3.84
289.06	3.81
289.431	3.6
289.803	3.56
290.175	3.56
290.546	3.81
290.918	3.83
291.289	3.87
291.661	3.94
292.032	3.99
292.403	3.95
292.775	3.88
293.146	3.81
293.517	3.68
293.889	3.67
294.26	3.62
294.631	3.6
295.002	3.57
295.373	3.56
295.744	3.65
296.115	3.62
296.486	3.55
296.857	3.54
297.228	3.67
297.599	3.69
297.97	3.64
298.34	3.55
298.711	3.59
299.082	3.41
299.452	3.35
299.823	3.42
300.194	3.44
300.564	3.47
300.935	3.55
301.305	3.52
301.676	3.63
302.046	3.61
302.416	3.79
302.787	3.8
303.157	3.93
303.527	3.87
303.897	3.84
304.267	3.98
304.637	4.04
305.008	3.93
305.378	4.07
305.748	4.24
306.117	4.16
306.487	4.23
306.857	4.31
307.227	4.36
307.597	4.29
307.967	4.22
308.336	4.22
308.706	4.22
309.076	4.25
309.445	4.11
309.815	4.14
310.184	4.06
310.554	4.12
310.923	4
311.293	3.99
311.662	4.1
312.031	4.1
312.401	4.22
312.77	4.36
313.139	4.19
313.508	4.2
313.877	4.25
314.246	4.14
314.616	4.29
314.985	4.3
315.353	4.21
315.722	4.47
316.091	4.51
316.46	4.48
316.829	4.55
317.198	4.61
317.567	4.56
317.935	4.68
318.304	4.74
318.672	4.78
319.041	4.88
319.41	4.84
319.778	4.88
320.147	4.76
320.515	4.69
320.883	4.68
321.252	4.72
321.62	4.74
321.988	4.94
322.357	4.88
322.725	5.01
323.093	5.16
323.461	5.14
323.829	5.13
324.197	5.24
324.565	5.28
324.933	5.33
325.301	5.37
325.669	5.35
326.037	5.38
326.405	5.5
326.772	5.54
327.14	5.59
327.508	5.52
327.875	5.53
328.243	5.7
328.61	5.79
328.978	5.91
329.346	5.97
329.713	5.9
330.08	5.95
330.448	5.8
330.815	5.84
331.182	5.8
331.55	5.79
331.917	5.89
332.284	5.82
332.651	5.92
333.018	5.93
333.385	6.05
333.752	6.02
334.119	6.09
334.486	6.02
334.853	6.06
335.22	6.08
335.587	6.19
335.954	6.02
336.32	6
336.687	5.99
337.054	6.07
337.42	6.15
337.787	6.25
338.153	6.41
338.52	6.49
338.886	6.52
339.253	6.59
339.619	6.56
339.986	6.61
340.352	6.65
340.718	6.66
341.084	6.59
341.451	6.62
341.817	6.54
342.183	6.66
342.549	6.66
342.915	6.76
343.281	6.77
343.647	6.84
344.013	7
344.379	6.86
344.745	6.87
345.11	6.89
345.476	6.9
345.842	6.83
346.208	6.81
346.573	6.82
346.939	6.89
347.304	6.78
347.67	6.7
348.035	6.62
348.401	6.77
348.766	6.84
349.132	6.77
349.497	6.74
349.862	6.69
350.228	6.69
350.593	6.61
350.958	6.61
351.323	6.66
351.688	6.53
352.053	6.61
352.418	6.67
352.783	6.68
353.148	6.59
353.513	6.66
353.878	6.61
354.243	6.63
354.608	6.58
354.972	6.68
355.337	6.8
355.702	6.88
356.066	6.78
356.431	6.72
356.795	6.78
357.16	6.74
357.524	6.73
357.889	6.73
358.253	6.82
358.618	6.78
358.982	6.76
359.346	6.8
359.71	6.75
360.075	6.68
360.439	6.7
360.803	6.63
361.167	6.63
361.531	6.61
361.895	6.58
362.259	6.53
362.623	6.48
362.987	6.42
363.351	6.35
363.714	6.32
364.078	6.3
364.442	6.28
364.806	6.3
365.169	6.34
365.533	6.33
365.896	6.32
366.26	6.36
366.623	6.29
366.987	6.23
367.35	6.29
367.714	6.31
368.077	6.24
368.44	6.31
368.803	6.25
369.167	6.18
369.53	6.15
369.893	6.27
370.256	6.32
370.619	6.26
370.982	6.19
371.345	6.16
371.708	6.12
372.071	6.04
372.434	6.02
372.797	5.96
373.159	5.88
373.522	5.8
373.885	5.69
374.247	5.67
374.61	5.71
374.973	5.62
375.335	5.58
375.698	5.53
376.06	5.5
376.423	5.51
376.785	5.51
377.147	5.52
377.51	5.4
377.872	5.34
378.234	5.36
378.596	5.39
378.958	5.39
379.321	5.35
379.683	5.4
380.045	5.33
380.407	5.32
380.769	5.34
381.13	5.37
381.492	5.33
381.854	5.32
382.216	5.27
382.578	5.25
382.939	5.19
383.301	5.17
383.663	5.08
384.024	5
384.386	5.06
384.747	5.06
385.109	5.1
385.47	5.04
385.832	5.05
386.193	5.03
386.554	4.97
386.916	4.93
387.277	4.9
387.638	4.89
387.999	4.78
388.36	4.75
388.721	4.7
389.082	4.73
389.443	4.72
389.804	4.67
390.165	4.65
390.526	4.63
390.887	4.62
391.248	4.64
391.609	4.64
391.969	4.56
392.33	4.46
392.691	4.43
393.051	4.4
393.412	4.35
393.772	4.28
394.133	4.33
394.493	4.34
394.854	4.28
395.214	4.3
395.574	4.34
395.935	4.31
396.295	4.29
396.655	4.24
397.015	4.17
397.376	4.17
397.736	4.16
398.096	4.14
398.456	4.14
398.816	4.12
399.176	4.11
399.535	4.1
399.895	4.11
400.255	4.08
400.615	4.1
400.975	4.12
401.334	4.15
401.694	4.09
402.054	4.04
402.413	4.01
402.773	3.97
403.132	3.95
403.492	3.9
403.851	3.86
404.211	3.85
404.57	3.87
404.929	3.87
405.288	3.86
405.648	3.85
406.007	3.84
406.366	3.83
406.725	3.83
407.084	3.82
407.443	3.81
407.802	3.78
408.161	3.72
408.52	3.66
408.879	3.64
409.238	3.65
409.596	3.65
409.955	3.67
410.314	3.67
410.673	3.67
411.031	3.67
411.39	3.67
411.748	3.69
412.107	3.68
412.465	3.67
412.824	3.65
413.182	3.63
413.54	3.6
413.899	3.58
414.257	3.57
414.615	3.56
414.974	3.54
415.332	3.53
415.69	3.54
416.048	3.51
416.406	3.49
416.764	3.48
417.122	3.5
417.48	3.47
417.838	3.47
418.195	3.45
418.553	3.45
418.911	3.45
419.269	3.42
419.626	3.41
419.984	3.39
420.342	3.39
420.699	3.37
421.057	3.36
421.414	3.35
421.772	3.33
422.129	3.32
422.486	3.34
422.844	3.33
423.201	3.33
423.558	3.33
423.915	3.34
424.273	3.32
424.63	3.3
424.987	3.31
425.344	3.31
425.701	3.29
426.058	3.29
426.415	3.28
426.772	3.27
427.128	3.27
427.485	3.28
427.842	3.26
428.199	3.27
428.555	3.27
428.912	3.29
429.269	3.3
429.625	3.28
429.982	3.24
430.338	3.26
430.695	3.26
431.051	3.24
431.407	3.24
431.764	3.24
432.12	3.24
432.476	3.22
432.832	3.19
433.189	3.2
433.545	3.17
433.901	3.19
434.257	3.17
434.613	3.18
434.969	3.2
435.325	3.2
435.681	3.2
436.036	3.19
436.392	3.17
436.748	3.16
437.104	3.18
437.459	3.2
437.815	3.21
438.171	3.2
438.526	3.23
438.882	3.22
439.237	3.21
439.593	3.21
439.948	3.23
440.304	3.24
440.659	3.24
441.014	3.27
441.369	3.25
441.725	3.27
442.08	3.25
442.435	3.23
442.79	3.24
443.145	3.24
443.5	3.24
443.855	3.24
444.21	3.23
444.565	3.22
444.92	3.22
445.275	3.19
445.629	3.19
445.984	3.17
446.339	3.16
446.693	3.17
447.048	3.17
447.403	3.14
447.757	3.14
448.112	3.13
448.466	3.12
448.82	3.14
449.175	3.12
449.529	3.12
449.883	3.12
450.238	3.09
450.592	3.11
450.946	3.1
451.3	3.1
451.654	3.1
452.008	3.1
452.362	3.07
452.716	3.08
453.07	3.09
453.424	3.11
453.778	3.12
454.132	3.1
454.486	3.09
454.839	3.1
455.193	3.07
455.547	3.07
455.9	3.07
456.254	3.06
456.607	3.06
456.961	3.07
457.314	3.06
457.668	3.08
458.021	3.06
458.375	3.05
458.728	3.04
459.081	3.06
459.434	3.07
459.787	3.08
460.141	3.09
460.494	3.09
460.847	3.08
461.2	3.07
461.553	3.1
461.906	3.12
462.259	3.13
462.611	3.16
462.964	3.15
463.317	3.15
463.67	3.14
464.022	3.12
464.375	3.13
464.728	3.14
465.08	3.14
465.433	3.14
465.785	3.16
466.138	3.16
466.49	3.15
466.843	3.16
467.195	3.16
467.547	3.19
467.899	3.19
468.252	3.19
468.604	3.22
468.956	3.19
469.308	3.18
469.66	3.19
470.012	3.2
470.364	3.18
470.716	3.19
471.068	3.2
471.42	3.22
471.772	3.25
472.123	3.25
472.475	3.23
472.827	3.25
473.178	3.24
473.53	3.23
473.882	3.23
474.233	3.22
474.585	3.21
474.936	3.19
475.288	3.19
475.639	3.2
475.99	3.19
476.342	3.21
476.693	3.2
477.044	3.22
477.395	3.22
477.746	3.24
478.097	3.23
478.448	3.23
478.8	3.24
479.15	3.2
479.501	3.2
479.852	3.2
480.203	3.2
480.554	3.22
480.905	3.24
481.255	3.25
481.606	3.23
481.957	3.25
482.307	3.23
482.658	3.23
483.009	3.23
483.359	3.23
483.709	3.23
484.06	3.24
484.41	3.24
484.761	3.24
485.111	3.24
485.461	3.25
485.811	3.25
486.162	3.25
486.512	3.26
486.862	3.27
487.212	3.27
487.562	3.28
487.912	3.28
488.262	3.28
488.612	3.28
488.961	3.3
489.311	3.31
489.661	3.32
490.011	3.34
490.36	3.33
490.71	3.34
491.06	3.35
491.409	3.34
491.759	3.34
492.108	3.34
492.458	3.36
492.807	3.36
493.157	3.38
493.506	3.4
493.855	3.4
494.204	3.41
494.554	3.42
494.903	3.43
495.252	3.43
495.601	3.44
495.95	3.46
496.299	3.48
496.648	3.49
496.997	3.51
497.346	3.53
497.695	3.56
498.043	3.58
498.392	3.59
498.741	3.62
499.09	3.65
499.438	3.68
499.787	3.7
500.135	3.72
500.484	3.73
500.832	3.76
501.181	3.8
501.529	3.8
501.878	3.85
502.226	3.88
502.574	3.93
502.923	3.97
503.271	3.98
503.619	4
503.967	4.03
504.315	4.06
504.663	4.08
505.011	4.11
505.359	4.16
505.707	4.2
506.055	4.24
506.403	4.25
506.751	4.32
507.098	4.37
507.446	4.41
507.794	4.44
508.141	4.47
508.489	4.49
508.837	4.55
509.184	4.59
509.531	4.64
509.879	4.67
510.226	4.71
510.574	4.75
510.921	4.79
511.268	4.83
511.616	4.87
511.963	4.92
512.31	4.97
512.657	5.03
513.004	5.07
513.351	5.14
513.698	5.22
514.045	5.26
514.392	5.31
514.739	5.36
515.086	5.44
515.432	5.51
515.779	5.56
516.126	5.62
516.473	5.69
516.819	5.74
517.166	5.78
517.512	5.84
517.859	5.91
518.205	5.95
518.552	6.03
518.898	6.09
519.245	6.17
519.591	6.22
519.937	6.25
520.283	6.3
520.629	6.37
520.976	6.42
521.322	6.48
521.668	6.56
522.014	6.65
522.36	6.71
522.706	6.81
523.052	6.94
523.398	7.07
523.743	7.2
524.089	7.34
524.435	7.46
524.781	7.56
525.126	7.66
525.472	7.78
525.817	7.87
526.163	7.96
526.509	8.05
526.854	8.14
527.199	8.23
527.545	8.33
527.89	8.4
528.235	8.49
528.581	8.58
528.926	8.65
529.271	8.75
529.616	8.84
529.961	8.93
530.306	9.01
530.651	9.1
530.996	9.2
531.341	9.3
531.686	9.42
532.031	9.55
532.376	9.68
532.721	9.8
533.065	9.94
533.41	10.08
533.755	10.22
534.099	10.38
534.444	10.56
534.788	10.72
535.133	10.88
535.477	11.04
535.822	11.24
536.166	11.43
536.51	11.64
536.855	11.86
537.199	12.08
537.543	12.31
537.887	12.56
538.231	12.79
538.576	13.03
538.92	13.26
539.264	13.48
539.608	13.7
539.951	13.91
540.295	14.1
540.639	14.3
540.983	14.49
541.327	14.67
541.671	14.85
542.014	15.02
542.358	15.22
542.701	15.44
543.045	15.62
543.389	15.82
543.732	16.03
544.075	16.25
544.419	16.47
544.762	16.7
545.105	16.93
545.449	17.19
545.792	17.46
546.135	17.75
546.478	18.07
546.821	18.37
547.165	18.71
547.508	19.05
547.851	19.36
548.194	19.7
548.536	20.06
548.879	20.42
549.222	20.79
549.565	21.15
549.908	21.48
550.25	21.84
550.593	22.21
550.936	22.54
551.278	22.91
551.621	23.25
551.963	23.64
552.306	23.98
552.648	24.32
552.991	24.64
553.333	24.97
553.675	25.28
554.017	25.65
554.36	25.95
554.702	26.26
555.044	26.63
555.386	26.97
555.728	27.26
556.07	27.58
556.412	27.91
556.754	28.21
557.096	28.55
557.438	28.92
557.78	29.27
558.121	29.66
558.463	30
558.805	30.33
559.147	30.62
559.488	30.96
559.83	31.29
560.171	31.65
560.513	32.02
560.854	32.34
561.196	32.66
561.537	33
561.878	33.34
562.22	33.62
562.561	33.95
562.902	34.27
563.243	34.53
563.584	34.85
563.925	35.17
564.266	35.45
564.607	35.72
564.948	36.02
565.289	36.29
565.63	36.59
565.971	36.84
566.312	37.13
566.653	37.4
566.993	37.71
567.334	37.96
567.675	38.19
568.015	38.45
568.356	38.69
568.696	38.96
569.037	39.2
569.377	39.45
569.718	39.7
570.058	39.98
570.398	40.25
570.739	40.49
571.079	40.73
571.419	40.94
571.759	41.15
572.099	41.37
572.439	41.59
572.779	41.77
573.119	42.04
573.459	42.27
573.799	42.47
574.139	42.65
574.479	42.85
574.819	43.04
575.158	43.2
575.498	43.36
575.838	43.53
576.177	43.72
576.517	43.88
576.856	44.07
577.196	44.21
577.535	44.44
577.875	44.59
578.214	44.76
578.553	44.95
578.893	45.11
579.232	45.25
579.571	45.39
579.91	45.58
580.25	45.65
580.589	45.8
580.928	45.92
581.267	45.98
581.606	46.22
581.945	46.33
582.283	46.52
582.622	46.76
582.961	46.92
583.3	47.08
583.639	47.28
583.977	47.41
584.316	47.59
584.654	47.65
584.993	47.77
585.332	47.9
585.67	48.1
586.008	48.25
586.347	48.44
586.685	48.61
587.024	48.69
587.362	48.87
587.7	49.01
588.038	49.11
588.376	49.32
588.715	49.35
589.053	49.57
589.391	49.61
589.729	49.64
590.067	49.68
590.404	49.75
590.742	49.84
591.08	49.9
591.418	50
591.756	50.13
592.093	50.3
592.431	50.42
592.769	50.52
593.106	50.59
593.444	50.66
593.781	50.74
594.119	50.91
594.456	51.03
594.793	51.1
595.131	51.24
595.468	51.27
595.805	51.39
596.143	51.43
596.48	51.56
596.817	51.7
597.154	51.86
597.491	51.94
597.828	52.05
598.165	52.16
598.502	52.27
598.839	52.37
599.176	52.44
599.512	52.56
599.849	52.67
600.186	52.75
600.523	52.89
600.859	52.99
601.196	53.01
601.532	53.02
601.869	53.08
602.205	53.09
602.542	53.17
602.878	53.18
603.215	53.23
603.551	53.26
603.887	53.28
604.223	53.32
604.56	53.41
604.896	53.47
605.232	53.48
605.568	53.5
605.904	53.58
606.24	53.69
606.576	53.64
606.912	53.64
607.248	53.75
607.583	53.78
607.919	53.82
608.255	53.89
608.591	54.01
608.926	54.07
609.262	54.21
609.597	54.33
609.933	54.45
610.268	54.53
610.604	54.62
610.939	54.67
611.275	54.69
611.61	54.73
611.945	54.76
612.281	54.86
612.616	54.9
612.951	54.88
613.286	54.9
613.621	54.99
613.956	55.11
614.291	55.19
614.626	55.15
614.961	55.22
615.296	55.29
615.631	55.41
615.966	55.47
616.3	55.51
616.635	55.47
616.97	55.45
617.304	55.51
617.639	55.59
617.973	55.67
618.308	55.79
618.642	55.89
618.977	55.95
619.311	55.96
619.646	56.08
619.98	56.08
620.314	56.17
620.648	56.36
620.983	56.36
621.317	56.44
621.651	56.48
621.985	56.52
622.319	56.6
622.653	56.6
622.987	56.7
623.321	56.65
623.655	56.75
623.988	56.85
624.322	56.85
624.656	56.92
624.99	56.84
625.323	56.92
625.657	56.89
625.99	56.87
626.324	56.98
626.657	57
626.991	57.01
627.324	56.98
627.658	56.95
627.991	56.97
628.324	56.99
628.657	57.03
628.991	57.04
629.324	57.03
629.657	57.04
629.99	56.98
630.323	57.09
630.656	57.08
630.989	57.04
631.322	57.05
631.655	56.97
631.987	57.09
632.32	56.98
632.653	57.04
632.986	57.06
633.318	57.07
633.651	57.09
633.984	57.19
634.316	57.21
634.649	57.16
634.981	57.25
635.313	57.21
635.646	57.25
635.978	57.28
636.31	57.27
636.643	57.31
636.975	57.44
637.307	57.43
637.639	57.43
637.971	57.47
638.303	57.48
638.635	57.54
638.967	57.57
639.299	57.62
639.631	57.61
639.963	57.7
640.295	57.78
640.626	57.83
640.958	57.94
641.29	58.01
641.621	57.99
641.953	58
642.285	57.97
642.616	57.98
642.948	58.01
643.279	58.07
643.61	58.07
643.942	58
644.273	58.1
644.604	58.21
644.936	58.4
645.267	58.37
645.598	58.34
645.929	58.35
646.26	58.41
646.591	58.41
646.922	58.35
647.253	58.35
647.584	58.24
647.915	58.17
648.245	58.15
648.576	58.22
648.907	58.23
649.238	58.36
649.568	58.47
649.899	58.51
650.229	58.57
650.56	58.58
650.89	58.67
651.221	58.65
651.551	58.72
651.882	58.64
652.212	58.73
652.542	58.85
652.872	58.92
653.203	58.88
653.533	58.89
653.863	58.97
654.193	58.99
654.523	59.15
654.853	59.16
655.183	59.28
655.513	59.41
655.843	59.41
656.172	59.46
656.502	59.59
656.832	59.66
657.162	59.7
657.491	59.69
657.821	59.64
658.15	59.66
658.48	59.57
658.809	59.64
659.139	59.65
659.468	59.63
659.798	59.67
660.127	59.65
660.456	59.78
660.785	59.81
661.115	59.8
661.444	59.71
661.773	59.67
662.102	59.64
662.431	59.59
662.76	59.68
663.089	59.61
663.418	59.45
663.747	59.38
664.076	59.4
664.404	59.43
664.733	59.47
665.062	59.47
665.39	59.59
665.719	59.51
666.048	59.34
666.376	59.43
666.705	59.42
667.033	59.42
667.362	59.42
