Data from BA28304_Reflection_00014.txt Node
Date: Mon Nov 18 15:36:32 EST 2019
User: vgr7
Spectrometer: USB2G7710
Scans to average: 3
Trigger mode: 4
Integration Time (sec): 2.000000E-2
Electric dark correction enabled: true
Boxcar width: 10
XAxis mode: Wavelengths
Number of Pixels in Spectrum: 2048
>>>>>Begin Spectral Data<<<<<
177.721	104.48
178.105	1.72
178.488	14.39
178.871	-88.12
179.254	-96.48
179.636	81.84
180.019	97.83
180.402	132.26
180.785	378.2
181.168	-400
181.55	2864.71
181.933	94.41
182.316	91.63
182.698	79.27
183.081	50.79
183.463	541.86
183.846	55.63
184.228	28.07
184.611	-427.27
184.993	-494.94
185.376	314.95
185.758	-11.85
186.14	-140.76
186.522	-138.57
186.904	-525.62
187.287	-405.98
187.669	-21.5
188.051	-84.92
188.433	-11.79
188.815	33.04
189.197	-32.27
189.579	-45.31
189.961	-56.17
190.342	-23.94
190.724	-10.63
191.106	-16.4
191.488	-15.03
191.869	11.26
192.251	-1.01
192.633	0.39
193.014	-4.46
193.396	-16.4
193.777	-10.84
194.159	-11.99
194.54	-15.03
194.922	-9.62
195.303	-14.55
195.684	-7.04
196.065	-1.98
196.447	-20.74
196.828	-33.73
197.209	-14.71
197.59	-8.44
197.971	9.31
198.352	1.35
198.733	0.63
199.114	8.29
199.495	13.03
199.876	7.13
200.257	28.4
200.638	21.85
201.018	18.86
201.399	6.42
201.78	35.45
202.16	35.36
202.541	36.06
202.922	1.26
203.302	-43.97
203.683	-59.94
204.063	67100
204.444	7.92
204.824	74.25
205.204	28.04
205.585	31.01
205.965	48.41
206.345	80.97
206.725	41.18
207.106	74.46
207.486	-30.04
207.866	-356.65
208.246	5.79
208.626	-9.46
209.006	51.78
209.386	98.56
209.766	98.59
210.145	119.48
210.525	114.52
210.905	112.49
211.285	77.5
211.664	83.33
212.044	93.48
212.424	89.56
212.803	66.98
213.183	96.49
213.562	99.51
213.942	112.96
214.321	107.07
214.701	160.7
215.08	140
215.459	127.48
215.838	101.95
216.218	62.07
216.597	87.09
216.976	57.77
217.355	68.58
217.734	74.44
218.113	94.62
218.492	113.86
218.871	102.15
219.25	113.74
219.629	145.37
220.008	83.48
220.387	79.53
220.766	93.08
221.144	64.51
221.523	46.3
221.902	41.02
222.28	39.6
222.659	38.74
223.037	40.8
223.416	35.03
223.794	37.17
224.173	45.2
224.551	47.94
224.929	49.98
225.308	36.03
225.686	31.03
226.064	30.25
226.442	22.43
226.821	22.23
227.199	24.78
227.577	23.1
227.955	22.17
228.333	18.67
228.711	14.11
229.089	17.71
229.467	18.45
229.845	13.3
230.222	16.45
230.6	15.08
230.978	12.06
231.356	14.78
231.733	13.76
232.111	14.22
232.488	11.73
232.866	12.29
233.243	13.69
233.621	14.55
233.998	12.62
234.376	11.12
234.753	11.2
235.13	8.19
235.508	7.53
235.885	8.21
236.262	7.58
236.639	7.7
237.016	5.86
237.393	5.3
237.77	5.84
238.147	5.42
238.524	5.16
238.901	5.94
239.278	6.04
239.655	6.87
240.032	6.79
240.409	6.72
240.785	6.49
241.162	6.14
241.539	6.1
241.915	6.15
242.292	6.05
242.668	6.06
243.045	6.37
243.421	6.15
243.798	5.92
244.174	6.06
244.551	6.04
244.927	6.33
245.303	6.46
245.679	6.45
246.056	6.29
246.432	6.17
246.808	5.98
247.184	5.37
247.56	5.14
247.936	4.92
248.312	5.03
248.688	5.08
249.064	5.15
249.44	4.91
249.815	4.74
250.191	4.81
250.567	4.56
250.943	4.39
251.318	4.6
251.694	4.86
252.069	4.87
252.445	4.92
252.82	4.67
253.196	4.47
253.571	4.5
253.947	4.49
254.322	4.77
254.697	4.79
255.073	4.83
255.448	4.71
255.823	4.83
256.198	4.58
256.573	4.32
256.948	4.34
257.323	4.5
257.698	4.42
258.073	4.65
258.448	4.56
258.823	4.61
259.198	4.49
259.573	4.24
259.948	4.19
260.322	4.32
260.697	4.39
261.072	4.39
261.446	4.34
261.821	4.37
262.195	4.35
262.57	4.37
262.944	4.36
263.319	4.5
263.693	4.41
264.067	4.47
264.442	4.66
264.816	4.65
265.19	4.59
265.564	4.64
265.938	4.31
266.313	4.45
266.687	4.66
267.061	4.56
267.435	4.62
267.809	4.94
268.183	4.7
268.556	4.65
268.93	4.89
269.304	4.95
269.678	4.83
270.051	4.83
270.425	4.79
270.799	4.98
271.172	4.91
271.546	4.96
271.919	5.03
272.293	4.9
272.666	4.94
273.04	4.93
273.413	4.9
273.787	4.96
274.16	4.99
274.533	4.78
274.906	4.8
275.279	4.87
275.653	4.62
276.026	4.64
276.399	4.51
276.772	4.18
277.145	4.07
277.518	4.07
277.891	3.95
278.263	3.83
278.636	3.67
279.009	3.69
279.382	3.77
279.755	3.65
280.127	3.89
280.5	3.89
280.872	3.76
281.245	3.79
281.617	3.91
281.99	3.92
282.362	4
282.735	3.94
283.107	3.87
283.479	3.84
283.852	4.04
284.224	4.14
284.596	4.13
284.968	4.23
285.34	4.32
285.713	4.34
286.085	4.46
286.457	4.48
286.829	4.51
287.201	4.5
287.572	4.62
287.944	4.39
288.316	4.23
288.688	4.37
289.06	4.34
289.431	4.26
289.803	4.32
290.175	4.31
290.546	4.46
290.918	4.54
291.289	4.63
291.661	4.5
292.032	4.56
292.403	4.65
292.775	4.57
293.146	4.53
293.517	4.53
293.889	4.47
294.26	4.5
294.631	4.4
295.002	4.37
295.373	4.3
295.744	4.34
296.115	4.4
296.486	4.25
296.857	4.22
297.228	4.31
297.599	4.21
297.97	4.23
298.34	4.28
298.711	4.24
299.082	4.21
299.452	4.28
299.823	4.38
300.194	4.38
300.564	4.39
300.935	4.47
301.305	4.44
301.676	4.51
302.046	4.55
302.416	4.83
302.787	4.91
303.157	4.99
303.527	5.05
303.897	5.16
304.267	5.34
304.637	5.42
305.008	5.46
305.378	5.75
305.748	5.76
306.117	5.73
306.487	5.76
306.857	5.82
307.227	5.76
307.597	5.65
307.967	5.75
308.336	5.87
308.706	5.78
309.076	5.85
309.445	5.96
309.815	6.01
310.184	5.87
310.554	5.88
310.923	5.87
311.293	5.86
311.662	5.85
312.031	5.8
312.401	5.95
312.77	5.97
313.139	5.86
313.508	5.82
313.877	5.69
314.246	5.69
314.616	5.66
314.985	5.67
315.353	5.66
315.722	5.66
316.091	5.6
316.46	5.57
316.829	5.64
317.198	5.58
317.567	5.53
317.935	5.52
318.304	5.38
318.672	5.37
319.041	5.55
319.41	5.6
319.778	5.8
320.147	5.76
320.515	5.91
320.883	5.87
321.252	6.06
321.62	6.23
321.988	6.3
322.357	6.36
322.725	6.42
323.093	6.55
323.461	6.64
323.829	6.74
324.197	6.94
324.565	6.88
324.933	6.93
325.301	6.94
325.669	6.93
326.037	7.13
326.405	7.08
326.772	7.14
327.14	7.14
327.508	7.15
327.875	7.11
328.243	7.17
328.61	7.17
328.978	7.07
329.346	7.11
329.713	7.17
330.08	7.19
330.448	7.11
330.815	7.09
331.182	7.13
331.55	7.13
331.917	7.16
332.284	7.31
332.651	7.31
333.018	7.51
333.385	7.55
333.752	7.51
334.119	7.7
334.486	7.58
334.853	7.63
335.22	7.65
335.587	7.81
335.954	7.65
336.32	7.66
336.687	7.76
337.054	7.79
337.42	7.9
337.787	7.92
338.153	8.01
338.52	7.98
338.886	7.8
339.253	7.82
339.619	7.73
339.986	7.71
340.352	7.77
340.718	7.72
341.084	7.69
341.451	7.72
341.817	7.72
342.183	7.8
342.549	7.84
342.915	7.88
343.281	7.73
343.647	7.74
344.013	7.85
344.379	7.84
344.745	7.84
345.11	7.72
345.476	7.7
345.842	7.75
346.208	7.94
346.573	8.04
346.939	8.1
347.304	8.12
347.67	8.1
348.035	8.04
348.401	7.98
348.766	7.98
349.132	7.98
349.497	7.85
349.862	7.97
350.228	7.94
350.593	7.89
350.958	7.99
351.323	8.01
351.688	7.99
352.053	8
352.418	8.02
352.783	8.02
353.148	8.07
353.513	8.09
353.878	7.98
354.243	7.95
354.608	7.9
354.972	7.86
355.337	7.86
355.702	7.93
356.066	7.95
356.431	8.01
356.795	8.05
357.16	8.12
357.524	7.96
357.889	7.94
358.253	8
358.618	8.01
358.982	7.99
359.346	7.9
359.71	7.85
360.075	7.82
360.439	7.82
360.803	7.75
361.167	7.76
361.531	7.71
361.895	7.71
362.259	7.66
362.623	7.66
362.987	7.62
363.351	7.56
363.714	7.58
364.078	7.48
364.442	7.41
364.806	7.31
365.169	7.26
365.533	7.26
365.896	7.17
366.26	7.16
366.623	7.11
366.987	7.15
367.35	7.16
367.714	7.11
368.077	7.12
368.44	7.06
368.803	6.98
369.167	6.97
369.53	6.86
369.893	6.88
370.256	6.82
370.619	6.83
370.982	6.72
371.345	6.64
371.708	6.62
372.071	6.55
372.434	6.56
372.797	6.57
373.159	6.52
373.522	6.45
373.885	6.36
374.247	6.34
374.61	6.28
374.973	6.19
375.335	6.16
375.698	6.08
376.06	6.09
376.423	6.02
376.785	5.98
377.147	6.02
377.51	5.94
377.872	5.97
378.234	5.91
378.596	5.95
378.958	5.84
379.321	5.8
379.683	5.79
380.045	5.75
380.407	5.74
380.769	5.74
381.13	5.69
381.492	5.65
381.854	5.63
382.216	5.61
382.578	5.56
382.939	5.49
383.301	5.45
383.663	5.37
384.024	5.33
384.386	5.31
384.747	5.26
385.109	5.24
385.47	5.16
385.832	5.08
386.193	5.03
386.554	5.06
386.916	5.06
387.277	5.06
387.638	5.04
387.999	5
388.36	4.92
388.721	4.88
389.082	4.85
389.443	4.78
389.804	4.72
390.165	4.7
390.526	4.71
390.887	4.69
391.248	4.7
391.609	4.7
391.969	4.68
392.33	4.67
392.691	4.64
393.051	4.61
393.412	4.63
393.772	4.61
394.133	4.62
394.493	4.56
394.854	4.52
395.214	4.48
395.574	4.44
395.935	4.42
396.295	4.42
396.655	4.38
397.015	4.35
397.376	4.3
397.736	4.27
398.096	4.23
398.456	4.2
398.816	4.17
399.176	4.13
399.535	4.07
399.895	4.06
400.255	4.04
400.615	4.03
400.975	3.98
401.334	3.92
401.694	3.82
402.054	3.83
402.413	3.8
402.773	3.77
403.132	3.72
403.492	3.72
403.851	3.72
404.211	3.71
404.57	3.67
404.929	3.69
405.288	3.69
405.648	3.64
406.007	3.62
406.366	3.6
406.725	3.59
407.084	3.61
407.443	3.56
407.802	3.53
408.161	3.52
408.52	3.52
408.879	3.55
409.238	3.58
409.596	3.56
409.955	3.55
410.314	3.54
410.673	3.56
411.031	3.54
411.39	3.51
411.748	3.53
412.107	3.53
412.465	3.51
412.824	3.53
413.182	3.52
413.54	3.5
413.899	3.5
414.257	3.5
414.615	3.49
414.974	3.49
415.332	3.46
415.69	3.44
416.048	3.41
416.406	3.37
416.764	3.33
417.122	3.31
417.48	3.27
417.838	3.28
418.195	3.25
418.553	3.23
418.911	3.23
419.269	3.21
419.626	3.2
419.984	3.21
420.342	3.19
420.699	3.19
421.057	3.19
421.414	3.15
421.772	3.14
422.129	3.12
422.486	3.12
422.844	3.12
423.201	3.1
423.558	3.1
423.915	3.09
424.273	3.11
424.63	3.1
424.987	3.13
425.344	3.12
425.701	3.14
426.058	3.12
426.415	3.11
426.772	3.12
427.128	3.1
427.485	3.08
427.842	3.08
428.199	3.09
428.555	3.1
428.912	3.13
429.269	3.14
429.625	3.15
429.982	3.14
430.338	3.14
430.695	3.16
431.051	3.14
431.407	3.16
431.764	3.15
432.12	3.14
432.476	3.12
432.832	3.11
433.189	3.12
433.545	3.13
433.901	3.14
434.257	3.12
434.613	3.14
434.969	3.16
435.325	3.14
435.681	3.15
436.036	3.14
436.392	3.12
436.748	3.1
437.104	3.09
437.459	3.08
437.815	3.07
438.171	3.07
438.526	3.07
438.882	3.08
439.237	3.07
439.593	3.06
439.948	3.06
440.304	3.06
440.659	3.04
441.014	3.03
441.369	2.99
441.725	2.99
442.08	2.98
442.435	2.95
442.79	2.93
443.145	2.92
443.5	2.91
443.855	2.89
444.21	2.9
444.565	2.91
444.92	2.92
445.275	2.9
445.629	2.89
445.984	2.9
446.339	2.88
446.693	2.88
447.048	2.87
447.403	2.85
447.757	2.84
448.112	2.84
448.466	2.84
448.82	2.86
449.175	2.87
449.529	2.87
449.883	2.87
450.238	2.88
450.592	2.9
450.946	2.89
451.3	2.91
451.654	2.91
452.008	2.92
452.362	2.91
452.716	2.92
453.07	2.92
453.424	2.9
453.778	2.9
454.132	2.9
454.486	2.91
454.839	2.91
455.193	2.91
455.547	2.92
455.9	2.92
456.254	2.92
456.607	2.93
456.961	2.92
457.314	2.93
457.668	2.95
458.021	2.93
458.375	2.93
458.728	2.93
459.081	2.91
459.434	2.89
459.787	2.89
460.141	2.9
460.494	2.9
460.847	2.93
461.2	2.92
461.553	2.93
461.906	2.93
462.259	2.93
462.611	2.96
462.964	2.96
463.317	2.95
463.67	2.95
464.022	2.95
464.375	2.94
464.728	2.95
465.08	2.94
465.433	2.94
465.785	2.95
466.138	2.96
466.49	2.97
466.843	2.98
467.195	2.99
467.547	2.98
467.899	2.97
468.252	2.96
468.604	3
468.956	3
469.308	3.02
469.66	3.01
470.012	3
470.364	3
470.716	3.02
471.068	3.02
471.42	3.02
471.772	3.04
472.123	3.03
472.475	3.05
472.827	3.05
473.178	3.06
473.53	3.04
473.882	3.05
474.233	3.04
474.585	3.02
474.936	3.02
475.288	3.04
475.639	3.05
475.99	3.03
476.342	3.01
476.693	3
477.044	3
477.395	3
477.746	3
478.097	3.01
478.448	3.01
478.8	3.02
479.15	2.99
479.501	2.99
479.852	2.97
480.203	2.97
480.554	2.96
480.905	2.97
481.255	2.97
481.606	2.97
481.957	2.98
482.307	2.98
482.658	2.97
483.009	2.97
483.359	2.97
483.709	2.98
484.06	2.99
484.41	2.99
484.761	2.99
485.111	2.99
485.461	2.99
485.811	2.98
486.162	2.97
486.512	2.98
486.862	2.99
487.212	2.99
487.562	2.99
487.912	3
488.262	3.01
488.612	3.01
488.961	3.01
489.311	3.02
489.661	3.02
490.011	3.03
490.36	3.03
490.71	3.04
491.06	3.04
491.409	3.03
491.759	3.03
492.108	3.04
492.458	3.05
492.807	3.05
493.157	3.09
493.506	3.1
493.855	3.12
494.204	3.12
494.554	3.13
494.903	3.15
495.252	3.17
495.601	3.19
495.95	3.21
496.299	3.24
496.648	3.25
496.997	3.28
497.346	3.31
497.695	3.34
498.043	3.36
498.392	3.39
498.741	3.43
499.09	3.46
499.438	3.5
499.787	3.53
500.135	3.57
500.484	3.58
500.832	3.61
501.181	3.65
501.529	3.68
501.878	3.71
502.226	3.77
502.574	3.81
502.923	3.83
503.271	3.86
503.619	3.88
503.967	3.91
504.315	3.92
504.663	3.94
505.011	3.98
505.359	4.01
505.707	4.07
506.055	4.11
506.403	4.14
506.751	4.18
507.098	4.2
507.446	4.26
507.794	4.31
508.141	4.37
508.489	4.39
508.837	4.43
509.184	4.47
509.531	4.5
509.879	4.54
510.226	4.58
510.574	4.63
510.921	4.68
511.268	4.73
511.616	4.79
511.963	4.86
512.31	4.91
512.657	4.96
513.004	5
513.351	5.05
513.698	5.11
514.045	5.18
514.392	5.26
514.739	5.31
515.086	5.38
515.432	5.43
515.779	5.51
516.126	5.6
516.473	5.67
516.819	5.72
517.166	5.79
517.512	5.85
517.859	5.9
518.205	5.96
518.552	6.04
518.898	6.07
519.245	6.12
519.591	6.18
519.937	6.22
520.283	6.28
520.629	6.35
520.976	6.41
521.322	6.49
521.668	6.54
522.014	6.62
522.36	6.7
522.706	6.79
523.052	6.9
523.398	7.01
523.743	7.1
524.089	7.22
524.435	7.29
524.781	7.41
525.126	7.54
525.472	7.64
525.817	7.72
526.163	7.8
526.509	7.87
526.854	7.96
527.199	8.04
527.545	8.11
527.89	8.18
528.235	8.28
528.581	8.36
528.926	8.46
529.271	8.55
529.616	8.62
529.961	8.71
530.306	8.79
530.651	8.86
530.996	8.97
531.341	9.07
531.686	9.2
532.031	9.31
532.376	9.44
532.721	9.57
533.065	9.7
533.41	9.85
533.755	10.01
534.099	10.15
534.444	10.31
534.788	10.48
535.133	10.64
535.477	10.79
535.822	10.96
536.166	11.15
536.51	11.36
536.855	11.59
537.199	11.85
537.543	12.1
537.887	12.38
538.231	12.62
538.576	12.9
538.92	13.15
539.264	13.39
539.608	13.62
539.951	13.84
540.295	14.06
540.639	14.28
540.983	14.48
541.327	14.71
541.671	14.91
542.014	15.12
542.358	15.34
542.701	15.54
543.045	15.78
543.389	15.98
543.732	16.21
544.075	16.48
544.419	16.71
544.762	16.98
545.105	17.22
545.449	17.49
545.792	17.76
546.135	18.08
546.478	18.4
546.821	18.71
547.165	19.05
547.508	19.42
547.851	19.77
548.194	20.12
548.536	20.5
548.879	20.89
549.222	21.26
549.565	21.64
549.908	22.07
550.25	22.44
550.593	22.87
550.936	23.26
551.278	23.6
551.621	24
551.963	24.4
552.306	24.82
552.648	25.23
552.991	25.67
553.333	26.03
553.675	26.41
554.017	26.77
554.36	27.16
554.702	27.49
555.044	27.84
555.386	28.22
555.728	28.58
556.07	28.96
556.412	29.3
556.754	29.73
557.096	30.11
557.438	30.5
557.78	30.84
558.121	31.26
558.463	31.7
558.805	32.09
559.147	32.39
559.488	32.7
559.83	33.06
560.171	33.37
560.513	33.74
560.854	34.1
561.196	34.47
561.537	34.85
561.878	35.2
562.22	35.57
562.561	35.96
562.902	36.32
563.243	36.61
563.584	36.98
563.925	37.24
564.266	37.53
564.607	37.84
564.948	38.16
565.289	38.45
565.63	38.73
565.971	39.01
566.312	39.34
566.653	39.66
566.993	39.97
567.334	40.26
567.675	40.53
568.015	40.8
568.356	41.06
568.696	41.36
569.037	41.66
569.377	41.97
569.718	42.24
570.058	42.49
570.398	42.82
570.739	43.14
571.079	43.44
571.419	43.7
571.759	43.97
572.099	44.23
572.439	44.5
572.779	44.71
573.119	44.91
573.459	45.15
573.799	45.36
574.139	45.5
574.479	45.69
574.819	45.91
575.158	46.16
575.498	46.37
575.838	46.54
576.177	46.74
576.517	46.9
576.856	47.13
577.196	47.28
577.535	47.48
577.875	47.66
578.214	47.82
578.553	48.06
578.893	48.23
579.232	48.44
579.571	48.67
579.91	48.9
580.25	49.1
580.589	49.3
580.928	49.48
581.267	49.81
581.606	50.02
581.945	50.21
582.283	50.36
582.622	50.55
582.961	50.68
583.3	50.91
583.639	51.05
583.977	51.19
584.316	51.45
584.654	51.64
584.993	51.77
585.332	51.97
585.67	52.06
586.008	52.24
586.347	52.37
586.685	52.46
587.024	52.55
587.362	52.76
587.7	52.87
588.038	53.06
588.376	53.12
588.715	53.25
589.053	53.33
589.391	53.52
589.729	53.69
590.067	53.8
590.404	53.9
590.742	54.07
591.08	54.18
591.418	54.36
591.756	54.45
592.093	54.53
592.431	54.67
592.769	54.82
593.106	54.9
593.444	55.07
593.781	55.17
594.119	55.36
594.456	55.38
594.793	55.48
595.131	55.58
595.468	55.72
595.805	55.81
596.143	56
596.48	56.04
596.817	56.06
597.154	56.21
597.491	56.25
597.828	56.36
598.165	56.39
598.502	56.39
598.839	56.45
599.176	56.54
599.512	56.64
599.849	56.82
600.186	56.96
600.523	57.04
600.859	57.16
601.196	57.21
601.532	57.32
601.869	57.37
602.205	57.43
602.542	57.45
602.878	57.49
603.215	57.55
603.551	57.63
603.887	57.7
604.223	57.79
604.56	57.86
604.896	57.84
605.232	58.01
605.568	58.14
605.904	58.23
606.24	58.29
606.576	58.32
606.912	58.3
607.248	58.35
607.583	58.38
607.919	58.47
608.255	58.46
608.591	58.53
608.926	58.57
609.262	58.65
609.597	58.77
609.933	58.81
610.268	58.83
610.604	58.85
610.939	58.94
611.275	58.95
611.61	59.11
611.945	59.25
612.281	59.27
612.616	59.29
612.951	59.36
613.286	59.47
613.621	59.55
613.956	59.66
614.291	59.69
614.626	59.76
614.961	59.7
615.296	59.82
615.631	59.9
615.966	60.09
616.3	60.15
616.635	60.12
616.97	60.27
617.304	60.25
617.639	60.36
617.973	60.44
618.308	60.55
618.642	60.54
618.977	60.49
619.311	60.56
619.646	60.66
619.98	60.78
620.314	60.75
620.648	60.81
620.983	60.88
621.317	60.94
621.651	60.96
621.985	61.05
622.319	61.14
622.653	61.2
622.987	61.21
623.321	61.37
623.655	61.45
623.988	61.51
624.322	61.58
624.656	61.58
624.99	61.64
625.323	61.63
625.657	61.69
625.99	61.77
626.324	61.68
626.657	61.68
626.991	61.72
627.324	61.76
627.658	61.82
627.991	61.92
628.324	61.99
628.657	62.03
628.991	62.1
629.324	62.17
629.657	62.23
629.99	62.32
630.323	62.29
630.656	62.37
630.989	62.53
631.322	62.58
631.655	62.68
631.987	62.61
632.32	62.68
632.653	62.78
632.986	62.91
633.318	63.01
633.651	63.08
633.984	63.06
634.316	63.19
634.649	63.18
634.981	63.13
635.313	63.15
635.646	63.32
635.978	63.43
636.31	63.41
636.643	63.4
636.975	63.42
637.307	63.35
637.639	63.28
637.971	63.19
638.303	63.31
638.635	63.31
638.967	63.48
639.299	63.51
639.631	63.42
639.963	63.43
640.295	63.55
640.626	63.45
640.958	63.42
641.29	63.36
641.621	63.35
641.953	63.35
642.285	63.43
642.616	63.39
642.948	63.36
643.279	63.53
643.61	63.58
643.942	63.57
644.273	63.6
644.604	63.67
644.936	63.58
645.267	63.45
645.598	63.45
645.929	63.45
646.26	63.36
646.591	63.4
646.922	63.37
647.253	63.35
647.584	63.51
647.915	63.59
648.245	63.66
648.576	63.74
648.907	63.84
649.238	63.88
649.568	63.8
649.899	63.78
650.229	63.71
650.56	63.74
650.89	63.91
651.221	64.03
651.551	64.1
651.882	64.22
652.212	64.25
652.542	64.21
652.872	64.21
653.203	64.37
653.533	64.37
653.863	64.39
654.193	64.51
654.523	64.45
654.853	64.55
655.183	64.62
655.513	64.64
655.843	64.61
656.172	64.6
656.502	64.68
656.832	64.72
657.162	64.84
657.491	64.87
657.821	64.73
658.15	64.74
658.48	64.79
658.809	64.85
659.139	64.98
659.468	65.1
659.798	65.13
660.127	65.1
660.456	65.13
660.785	65.14
661.115	65.05
661.444	65.13
661.773	65.06
662.102	65.04
662.431	65.08
662.76	65.09
663.089	65.12
663.418	65.03
663.747	64.99
664.076	64.97
664.404	64.98
664.733	64.96
665.062	64.96
665.39	64.94
665.719	64.9
666.048	64.83
666.376	64.81
666.705	64.89
667.033	64.97
667.362	65.09
667.69	65.06
668.018	65.21
668.347	65.25
668.675	65.2
669.003	65.33
669.331	65.36
669.659	65.38
669.987	65.36
