Data from BA28468_Reflection_00014.txt Node
Date: Mon Nov 18 15:15:14 EST 2019
User: vgr7
Spectrometer: USB2G7710
Scans to average: 3
Trigger mode: 4
Integration Time (sec): 2.000000E-2
Electric dark correction enabled: true
Boxcar width: 10
XAxis mode: Wavelengths
Number of Pixels in Spectrum: 2048
>>>>>Begin Spectral Data<<<<<
177.721	136.76
178.105	3242.86
178.488	-77.09
178.871	-136.4
179.254	42.49
179.636	192.11
180.019	67.91
180.402	47.27
180.785	-96.05
181.168	35.08
181.55	-2.25
181.933	-29.41
182.316	-146.75
182.698	-122.45
183.081	-100
183.463	-105.65
183.846	-6746.15
184.228	-489.4
184.611	-89.38
184.993	-51.81
185.376	-14.8
185.758	-14.78
186.14	-21.12
186.522	-36.95
186.904	-48.03
187.287	-70.92
187.669	-34.69
188.051	-38.85
188.433	-27.94
188.815	-20.02
189.197	-34.31
189.579	-24.05
189.961	-50.54
190.342	-49.86
190.724	-25.91
191.106	-20.5
191.488	-10.12
191.869	-8.11
192.251	-9.61
192.633	-12.41
193.014	-16.35
193.396	-22.35
193.777	-13.12
194.159	-13.61
194.54	1.28
194.922	10.68
195.303	6.73
195.684	5.03
196.065	5.37
196.447	3.04
196.828	-0.78
197.209	9.26
197.59	7.72
197.971	-1.16
198.352	6.22
198.733	4.62
199.114	0.48
199.495	6.19
199.876	0.91
200.257	4.36
200.638	9.76
201.018	4.32
201.399	-2.74
201.78	3.84
202.16	-3.12
202.541	-15.19
202.922	-21.83
203.302	-28.91
203.683	-38.83
204.063	-39.99
204.444	-35.94
204.824	-30.31
205.204	-32.08
205.585	-44.58
205.965	-28.34
206.345	-25.48
206.725	-40.47
207.106	-51.59
207.486	-77.22
207.866	-52.21
208.246	-51.97
208.626	-62.04
209.006	-46.35
209.386	-49.26
209.766	-68.58
210.145	-76.62
210.525	-67.82
210.905	-53.9
211.285	-50.89
211.664	-26.7
212.044	-41.1
212.424	-31.41
212.803	-33.43
213.183	-38.64
213.562	-19.23
213.942	-21.9
214.321	-28.03
214.701	-23.74
215.08	-26.47
215.459	-15.8
215.838	-24.66
216.218	-29.61
216.597	-20.28
216.976	-20.68
217.355	-15.63
217.734	-20.19
218.113	-4.51
218.492	-10.49
218.871	-16.69
219.25	-7.67
219.629	-18.46
220.008	-8.99
220.387	-10.96
220.766	-18.08
221.144	-23.3
221.523	-38.73
221.902	-39.75
222.28	-42.58
222.659	-43.57
223.037	-37.02
223.416	-35.19
223.794	-29.08
224.173	-30.2
224.551	-25.8
224.929	-24.58
225.308	-13.95
225.686	-5.96
226.064	-11.37
226.442	-8.76
226.821	-5.23
227.199	-6.6
227.577	-8.7
227.955	-13.44
228.333	-11.36
228.711	-5.63
229.089	-2.99
229.467	-2.13
229.845	-2.11
230.222	-1.02
230.6	0.63
230.978	1.64
231.356	2.32
231.733	1.88
232.111	3.84
232.488	2.62
232.866	2.88
233.243	1.76
233.621	1.17
233.998	1.13
234.376	0.07
234.753	0.03
235.13	0.48
235.508	0.16
235.885	1.99
236.262	1.35
236.639	0.41
237.016	-1.01
237.393	1.06
237.77	0.47
238.147	1.22
238.524	1.07
238.901	1.86
239.278	2.04
239.655	2.68
240.032	2.92
240.409	2.89
240.785	3.29
241.162	2.67
241.539	2.94
241.915	3.49
242.292	3.52
242.668	3.79
243.045	4.07
243.421	4.39
243.798	4.16
244.174	4.19
244.551	4.22
244.927	4.41
245.303	4.1
245.679	4.31
246.056	4.2
246.432	4.14
246.808	4.1
247.184	3.83
247.56	3.51
247.936	3.33
248.312	3.55
248.688	3.43
249.064	3.62
249.44	3.45
249.815	3.4
250.191	3.57
250.567	3.34
250.943	3.22
251.318	3.21
251.694	3.14
252.069	3.11
252.445	3.15
252.82	3.1
253.196	3.07
253.571	3.01
253.947	3.16
254.322	3.48
254.697	3.23
255.073	3.32
255.448	3.38
255.823	3.45
256.198	3.29
256.573	3.56
256.948	3.89
257.323	4.19
257.698	4.18
258.073	3.96
258.448	3.97
258.823	4.05
259.198	3.87
259.573	3.86
259.948	3.9
260.322	3.87
260.697	3.8
261.072	3.74
261.446	3.78
261.821	3.64
262.195	3.62
262.57	3.64
262.944	3.73
263.319	3.68
263.693	3.77
264.067	3.8
264.442	3.8
264.816	3.7
265.19	3.47
265.564	3.27
265.938	3.19
266.313	3.05
266.687	3
267.061	3.18
267.435	3.31
267.809	3.38
268.183	3.41
268.556	3.57
268.93	3.68
269.304	3.78
269.678	3.88
270.051	3.89
270.425	3.94
270.799	4.01
271.172	4.08
271.546	3.97
271.919	3.95
272.293	3.87
272.666	3.8
273.04	4.05
273.413	4.19
273.787	4.38
274.16	4.47
274.533	4.36
274.906	4.32
275.279	4.21
275.653	4.1
276.026	4.01
276.399	3.76
276.772	3.91
277.145	3.73
277.518	3.8
277.891	3.79
278.263	3.76
278.636	3.73
279.009	3.7
279.382	3.81
279.755	3.74
280.127	3.69
280.5	3.8
280.872	3.7
281.245	3.63
281.617	3.65
281.99	3.69
282.362	3.77
282.735	3.69
283.107	3.7
283.479	3.7
283.852	3.89
284.224	4.12
284.596	4.05
284.968	4.08
285.34	3.97
285.713	3.88
286.085	3.99
286.457	3.95
286.829	4.03
287.201	4.09
287.572	4.07
287.944	4.11
288.316	3.92
288.688	3.79
289.06	3.89
289.431	3.89
289.803	3.97
290.175	3.93
290.546	4.05
290.918	4.07
291.289	4.04
291.661	3.95
292.032	3.92
292.403	3.85
292.775	4.04
293.146	4.06
293.517	4.08
293.889	4.19
294.26	4.17
294.631	4.18
295.002	4.02
295.373	4.13
295.744	4.12
296.115	4.25
296.486	4.32
296.857	4.35
297.228	4.28
297.599	4.17
297.97	4.24
298.34	4.32
298.711	4.41
299.082	4.47
299.452	4.56
299.823	4.72
300.194	4.8
300.564	4.67
300.935	4.75
301.305	4.79
301.676	4.7
302.046	4.72
302.416	4.73
302.787	4.76
303.157	4.75
303.527	4.8
303.897	4.9
304.267	5.07
304.637	5.08
305.008	5.3
305.378	5.58
305.748	5.72
306.117	5.66
306.487	5.74
306.857	5.82
307.227	5.88
307.597	5.75
307.967	5.83
308.336	5.96
308.706	5.95
309.076	5.97
309.445	5.95
309.815	6.16
310.184	6.21
310.554	6.31
310.923	6.41
311.293	6.59
311.662	6.61
312.031	6.48
312.401	6.49
312.77	6.58
313.139	6.57
313.508	6.57
313.877	6.73
314.246	6.8
314.616	6.81
314.985	6.84
315.353	6.91
315.722	7.04
316.091	7.03
316.46	7.21
316.829	7.31
317.198	7.49
317.567	7.46
317.935	7.44
318.304	7.54
318.672	7.55
319.041	7.57
319.41	7.51
319.778	7.59
320.147	7.65
320.515	7.65
320.883	7.69
321.252	7.82
321.62	7.75
321.988	7.8
322.357	7.82
322.725	7.83
323.093	7.89
323.461	7.83
323.829	7.95
324.197	7.95
324.565	8.05
324.933	8.03
325.301	8.08
325.669	8.06
326.037	7.96
326.405	7.98
326.772	8
327.14	8.17
327.508	8.24
327.875	8.31
328.243	8.35
328.61	8.34
328.978	8.34
329.346	8.49
329.713	8.37
330.08	8.48
330.448	8.51
330.815	8.41
331.182	8.52
331.55	8.56
331.917	8.65
332.284	8.68
332.651	8.69
333.018	8.76
333.385	8.89
333.752	9.07
334.119	9.1
334.486	9.14
334.853	9.08
335.22	9.09
335.587	9.17
335.954	9.11
336.32	9.14
336.687	9.26
337.054	9.16
337.42	9.39
337.787	9.44
338.153	9.4
338.52	9.62
338.886	9.51
339.253	9.55
339.619	9.54
339.986	9.57
340.352	9.67
340.718	9.76
341.084	9.75
341.451	9.85
341.817	9.91
342.183	9.8
342.549	9.87
342.915	10.05
343.281	9.96
343.647	10.08
344.013	10.14
344.379	10
344.745	10.13
345.11	10.1
345.476	10.15
345.842	10.13
346.208	10.16
346.573	10.26
346.939	10.37
347.304	10.42
347.67	10.47
348.035	10.41
348.401	10.37
348.766	10.35
349.132	10.27
349.497	10.18
349.862	10.29
350.228	10.22
350.593	10.2
350.958	10.29
351.323	10.33
351.688	10.27
352.053	10.4
352.418	10.38
352.783	10.34
353.148	10.28
353.513	10.31
353.878	10.32
354.243	10.38
354.608	10.28
354.972	10.23
355.337	10.26
355.702	10.36
356.066	10.38
356.431	10.42
356.795	10.48
357.16	10.52
357.524	10.51
357.889	10.54
358.253	10.48
358.618	10.48
358.982	10.37
359.346	10.33
359.71	10.25
360.075	10.21
360.439	10.23
360.803	10.26
361.167	10.26
361.531	10.19
361.895	10.14
362.259	10.14
362.623	10.1
362.987	9.98
363.351	9.9
363.714	9.85
364.078	9.83
364.442	9.73
364.806	9.76
365.169	9.72
365.533	9.65
365.896	9.7
366.26	9.65
366.623	9.63
366.987	9.64
367.35	9.61
367.714	9.66
368.077	9.54
368.44	9.49
368.803	9.46
369.167	9.45
369.53	9.34
369.893	9.32
370.256	9.28
370.619	9.29
370.982	9.2
371.345	9.16
371.708	9.14
372.071	9.13
372.434	9.03
372.797	8.95
373.159	8.95
373.522	8.84
373.885	8.77
374.247	8.73
374.61	8.68
374.973	8.54
375.335	8.42
375.698	8.4
376.06	8.31
376.423	8.22
376.785	8.18
377.147	8.16
377.51	8.1
377.872	8.13
378.234	8.09
378.596	8.07
378.958	7.93
379.321	7.86
379.683	7.81
380.045	7.73
380.407	7.72
380.769	7.64
381.13	7.54
381.492	7.51
381.854	7.44
382.216	7.42
382.578	7.46
382.939	7.42
383.301	7.39
383.663	7.32
384.024	7.27
384.386	7.27
384.747	7.25
385.109	7.18
385.47	7.11
385.832	7.01
386.193	6.97
386.554	6.97
386.916	6.9
387.277	6.86
387.638	6.9
387.999	6.84
388.36	6.81
388.721	6.76
389.082	6.71
389.443	6.65
389.804	6.55
390.165	6.47
390.526	6.4
390.887	6.31
391.248	6.34
391.609	6.36
391.969	6.32
392.33	6.23
392.691	6.19
393.051	6.13
393.412	6.13
393.772	6.06
394.133	6.04
394.493	5.98
394.854	5.93
395.214	5.82
395.574	5.78
395.935	5.72
396.295	5.71
396.655	5.65
397.015	5.63
397.376	5.64
397.736	5.65
398.096	5.66
398.456	5.65
398.816	5.58
399.176	5.49
399.535	5.4
399.895	5.38
400.255	5.36
400.615	5.31
400.975	5.27
401.334	5.24
401.694	5.21
402.054	5.22
402.413	5.18
402.773	5.18
403.132	5.13
403.492	5.11
403.851	5.07
404.211	5.06
404.57	5.03
404.929	5.01
405.288	4.94
405.648	4.86
406.007	4.84
406.366	4.8
406.725	4.82
407.084	4.83
407.443	4.82
407.802	4.82
408.161	4.81
408.52	4.77
408.879	4.77
409.238	4.73
409.596	4.69
409.955	4.7
410.314	4.66
410.673	4.64
411.031	4.64
411.39	4.6
411.748	4.61
412.107	4.59
412.465	4.56
412.824	4.53
413.182	4.54
413.54	4.52
413.899	4.5
414.257	4.46
414.615	4.41
414.974	4.38
415.332	4.34
415.69	4.32
416.048	4.32
416.406	4.3
416.764	4.29
417.122	4.27
417.48	4.22
417.838	4.22
418.195	4.2
418.553	4.17
418.911	4.17
419.269	4.15
419.626	4.13
419.984	4.1
420.342	4.11
420.699	4.09
421.057	4.08
421.414	4.05
421.772	4.04
422.129	4.04
422.486	4.03
422.844	4.02
423.201	3.99
423.558	3.98
423.915	3.97
424.273	3.96
424.63	3.94
424.987	3.95
425.344	3.94
425.701	3.93
426.058	3.94
426.415	3.92
426.772	3.89
427.128	3.88
427.485	3.86
427.842	3.83
428.199	3.83
428.555	3.81
428.912	3.82
429.269	3.82
429.625	3.81
429.982	3.79
430.338	3.77
430.695	3.79
431.051	3.77
431.407	3.75
431.764	3.74
432.12	3.74
432.476	3.74
432.832	3.71
433.189	3.71
433.545	3.7
433.901	3.7
434.257	3.67
434.613	3.68
434.969	3.7
435.325	3.69
435.681	3.7
436.036	3.69
436.392	3.7
436.748	3.7
437.104	3.68
437.459	3.68
437.815	3.68
438.171	3.66
438.526	3.68
438.882	3.68
439.237	3.69
439.593	3.69
439.948	3.68
440.304	3.67
440.659	3.67
441.014	3.67
441.369	3.66
441.725	3.66
442.08	3.66
442.435	3.65
442.79	3.64
443.145	3.63
443.5	3.62
443.855	3.6
444.21	3.58
444.565	3.57
444.92	3.58
445.275	3.57
445.629	3.57
445.984	3.55
446.339	3.54
446.693	3.52
447.048	3.51
447.403	3.5
447.757	3.5
448.112	3.48
448.466	3.45
448.82	3.45
449.175	3.46
449.529	3.45
449.883	3.44
450.238	3.43
450.592	3.44
450.946	3.42
451.3	3.39
451.654	3.41
452.008	3.4
452.362	3.38
452.716	3.37
453.07	3.36
453.424	3.35
453.778	3.34
454.132	3.32
454.486	3.32
454.839	3.34
455.193	3.32
455.547	3.34
455.9	3.34
456.254	3.35
456.607	3.35
456.961	3.35
457.314	3.35
457.668	3.36
458.021	3.35
458.375	3.37
458.728	3.39
459.081	3.39
459.434	3.39
459.787	3.42
460.141	3.43
460.494	3.44
460.847	3.44
461.2	3.45
461.553	3.48
461.906	3.49
462.259	3.49
462.611	3.51
462.964	3.52
463.317	3.55
463.67	3.56
464.022	3.56
464.375	3.57
464.728	3.58
465.08	3.59
465.433	3.6
465.785	3.61
466.138	3.6
466.49	3.61
466.843	3.62
467.195	3.62
467.547	3.63
467.899	3.62
468.252	3.63
468.604	3.65
468.956	3.63
469.308	3.66
469.66	3.65
470.012	3.68
470.364	3.68
470.716	3.69
471.068	3.7
471.42	3.7
471.772	3.71
472.123	3.73
472.475	3.74
472.827	3.75
473.178	3.76
473.53	3.77
473.882	3.77
474.233	3.77
474.585	3.77
474.936	3.75
475.288	3.75
475.639	3.78
475.99	3.77
476.342	3.77
476.693	3.74
477.044	3.75
477.395	3.74
477.746	3.72
478.097	3.7
478.448	3.68
478.8	3.65
479.15	3.64
479.501	3.63
479.852	3.62
480.203	3.6
480.554	3.59
480.905	3.6
481.255	3.6
481.606	3.61
481.957	3.62
482.307	3.63
482.658	3.63
483.009	3.62
483.359	3.63
483.709	3.63
484.06	3.65
484.41	3.65
484.761	3.65
485.111	3.66
485.461	3.66
485.811	3.67
486.162	3.68
486.512	3.69
486.862	3.69
487.212	3.7
487.562	3.72
487.912	3.73
488.262	3.74
488.612	3.75
488.961	3.75
489.311	3.77
489.661	3.78
490.011	3.8
490.36	3.81
490.71	3.83
491.06	3.83
491.409	3.84
491.759	3.85
492.108	3.86
492.458	3.88
492.807	3.9
493.157	3.93
493.506	3.95
493.855	3.96
494.204	3.97
494.554	4
494.903	4.01
495.252	4.03
495.601	4.04
495.95	4.05
496.299	4.08
496.648	4.1
496.997	4.11
497.346	4.15
497.695	4.18
498.043	4.21
498.392	4.22
498.741	4.25
499.09	4.29
499.438	4.33
499.787	4.35
500.135	4.4
500.484	4.42
500.832	4.46
501.181	4.52
501.529	4.57
501.878	4.62
502.226	4.68
502.574	4.72
502.923	4.78
503.271	4.85
503.619	4.92
503.967	4.97
504.315	5.03
504.663	5.1
505.011	5.15
505.359	5.2
505.707	5.27
506.055	5.33
506.403	5.42
506.751	5.48
507.098	5.57
507.446	5.64
507.794	5.71
508.141	5.77
508.489	5.84
508.837	5.92
509.184	5.98
509.531	6.03
509.879	6.11
510.226	6.17
510.574	6.24
510.921	6.3
511.268	6.37
511.616	6.43
511.963	6.49
512.31	6.56
512.657	6.64
513.004	6.72
513.351	6.82
513.698	6.88
514.045	6.96
514.392	7.04
514.739	7.1
515.086	7.22
515.432	7.3
515.779	7.37
516.126	7.46
516.473	7.55
516.819	7.68
517.166	7.77
517.512	7.84
517.859	7.92
518.205	8
518.552	8.09
518.898	8.18
519.245	8.28
519.591	8.36
519.937	8.45
520.283	8.54
520.629	8.62
520.976	8.72
521.322	8.83
521.668	8.96
522.014	9.09
522.36	9.21
522.706	9.35
523.052	9.5
523.398	9.64
523.743	9.77
524.089	9.89
524.435	10.02
524.781	10.16
525.126	10.33
525.472	10.44
525.817	10.56
526.163	10.68
526.509	10.78
526.854	10.89
527.199	10.98
527.545	11.08
527.89	11.19
528.235	11.3
528.581	11.41
528.926	11.51
529.271	11.62
529.616	11.72
529.961	11.84
530.306	11.95
530.651	12.07
530.996	12.22
531.341	12.35
531.686	12.51
532.031	12.65
532.376	12.79
532.721	12.96
533.065	13.13
533.41	13.31
533.755	13.49
534.099	13.69
534.444	13.88
534.788	14.08
535.133	14.28
535.477	14.48
535.822	14.68
536.166	14.91
536.51	15.15
536.855	15.42
537.199	15.67
537.543	15.95
537.887	16.24
538.231	16.53
538.576	16.83
538.92	17.11
539.264	17.39
539.608	17.65
539.951	17.91
540.295	18.15
540.639	18.35
540.983	18.57
541.327	18.79
541.671	19.03
542.014	19.24
542.358	19.46
542.701	19.69
543.045	19.91
543.389	20.14
543.732	20.38
544.075	20.6
544.419	20.86
544.762	21.12
545.105	21.37
545.449	21.65
545.792	21.92
546.135	22.22
546.478	22.55
546.821	22.88
547.165	23.18
547.508	23.5
547.851	23.85
548.194	24.19
548.536	24.55
548.879	24.92
549.222	25.26
549.565	25.63
549.908	25.98
550.25	26.34
550.593	26.74
550.936	27.09
551.278	27.5
551.621	27.86
551.963	28.24
552.306	28.62
552.648	28.97
552.991	29.34
553.333	29.66
553.675	29.97
554.017	30.31
554.36	30.68
554.702	31.02
555.044	31.42
555.386	31.76
555.728	32.11
556.07	32.48
556.412	32.8
556.754	33.12
557.096	33.47
557.438	33.81
557.78	34.08
558.121	34.45
558.463	34.78
558.805	35.09
559.147	35.42
559.488	35.74
559.83	36.03
560.171	36.34
560.513	36.64
560.854	36.97
561.196	37.27
561.537	37.57
561.878	37.84
562.22	38.11
562.561	38.38
562.902	38.67
563.243	38.9
563.584	39.23
563.925	39.5
564.266	39.78
564.607	40.09
564.948	40.38
565.289	40.61
565.63	40.91
565.971	41.2
566.312	41.41
566.653	41.7
566.993	41.96
567.334	42.17
567.675	42.43
568.015	42.67
568.356	42.9
568.696	43.16
569.037	43.45
569.377	43.65
569.718	43.82
570.058	44.01
570.398	44.26
570.739	44.49
571.079	44.67
571.419	44.9
571.759	45.06
572.099	45.26
572.439	45.46
572.779	45.58
573.119	45.74
573.459	45.95
573.799	46.08
574.139	46.25
574.479	46.49
574.819	46.66
575.158	46.83
575.498	46.98
575.838	47.14
576.177	47.3
576.517	47.47
576.856	47.72
577.196	47.89
577.535	48.07
577.875	48.23
578.214	48.45
578.553	48.59
578.893	48.8
579.232	48.92
579.571	49.04
579.91	49.18
580.25	49.26
580.589	49.41
580.928	49.57
581.267	49.69
581.606	49.78
581.945	49.91
582.283	49.98
582.622	50.15
582.961	50.3
583.3	50.39
583.639	50.53
583.977	50.65
584.316	50.76
584.654	50.87
584.993	50.94
585.332	51.09
585.67	51.21
586.008	51.28
586.347	51.44
586.685	51.59
587.024	51.69
587.362	51.9
587.7	51.99
588.038	52.09
588.376	52.22
588.715	52.32
589.053	52.5
589.391	52.62
589.729	52.69
590.067	52.77
590.404	52.89
590.742	53
591.08	53.03
591.418	53.17
591.756	53.3
592.093	53.4
592.431	53.53
592.769	53.65
593.106	53.71
593.444	53.76
593.781	53.8
594.119	53.86
594.456	53.89
594.793	53.98
595.131	54.1
595.468	54.22
595.805	54.29
596.143	54.25
596.48	54.32
596.817	54.39
597.154	54.41
597.491	54.41
597.828	54.51
598.165	54.57
598.502	54.59
598.839	54.58
599.176	54.69
599.512	54.7
599.849	54.72
600.186	54.71
600.523	54.81
600.859	54.91
601.196	54.99
601.532	55.04
601.869	55.09
602.205	55.07
602.542	55.09
602.878	55.08
603.215	55.15
603.551	55.2
603.887	55.23
604.223	55.29
604.56	55.34
604.896	55.39
605.232	55.43
605.568	55.41
605.904	55.47
606.24	55.54
606.576	55.58
606.912	55.65
607.248	55.79
607.583	55.79
607.919	55.81
608.255	55.83
608.591	55.86
608.926	55.82
609.262	55.89
609.597	55.9
609.933	56
610.268	56
610.604	56.03
610.939	56.08
611.275	56.15
611.61	56.14
611.945	56.15
612.281	56.2
612.616	56.32
612.951	56.38
613.286	56.31
613.621	56.31
613.956	56.26
614.291	56.31
614.626	56.46
614.961	56.52
615.296	56.67
615.631	56.74
615.966	56.91
616.3	56.95
616.635	56.97
616.97	56.91
617.304	56.95
617.639	57.02
617.973	57.05
618.308	57.01
618.642	57.2
618.977	57.24
619.311	57.29
619.646	57.35
619.98	57.34
620.314	57.48
620.648	57.54
620.983	57.61
621.317	57.71
621.651	57.57
621.985	57.55
622.319	57.57
622.653	57.56
622.987	57.59
623.321	57.58
623.655	57.62
623.988	57.69
624.322	57.79
624.656	57.74
624.99	57.8
625.323	57.83
625.657	57.8
625.99	57.81
626.324	57.82
626.657	57.78
626.991	57.82
627.324	57.7
627.658	57.68
627.991	57.76
628.324	57.74
628.657	57.9
628.991	57.94
629.324	57.98
629.657	58.05
629.99	57.96
630.323	58.01
630.656	57.99
630.989	57.95
631.322	57.94
631.655	58.03
631.987	57.98
632.32	58.07
632.653	58.1
632.986	58.14
633.318	58.15
633.651	58.24
633.984	58.14
634.316	58.26
634.649	58.32
634.981	58.27
635.313	58.23
635.646	58.12
635.978	58.17
636.31	58.17
636.643	58.18
636.975	58.33
637.307	58.31
637.639	58.3
637.971	58.44
638.303	58.49
638.635	58.45
638.967	58.48
639.299	58.41
639.631	58.4
639.963	58.27
640.295	58.34
640.626	58.37
640.958	58.57
641.29	58.51
641.621	58.56
641.953	58.6
642.285	58.69
642.616	58.69
642.948	58.63
643.279	58.58
643.61	58.64
643.942	58.64
644.273	58.68
644.604	58.79
644.936	58.72
645.267	58.73
645.598	58.76
645.929	58.8
646.26	58.75
646.591	58.8
646.922	59
647.253	58.96
647.584	58.93
647.915	58.79
648.245	58.76
648.576	58.86
648.907	58.83
649.238	58.77
649.568	58.84
649.899	58.91
650.229	58.94
650.56	58.97
650.89	58.99
651.221	59.02
651.551	59.01
651.882	59.05
652.212	59.02
652.542	59.06
652.872	59.1
653.203	59.22
653.533	59.19
653.863	59.16
654.193	59.13
654.523	59.12
654.853	59.26
655.183	59.33
655.513	59.2
655.843	59.19
656.172	59.25
656.502	59.28
656.832	59.31
657.162	59.34
657.491	59.28
657.821	59.32
658.15	59.3
658.48	59.2
658.809	59.22
659.139	59.18
659.468	59.23
659.798	59.16
660.127	59.16
660.456	59.13
660.785	59.01
661.115	59.05
661.444	59.09
661.773	59.07
662.102	59.04
662.431	58.95
662.76	59
663.089	58.99
663.418	58.83
663.747	58.8
664.076	58.68
664.404	58.71
664.733	58.55
665.062	58.59
665.39	58.7
665.719	58.72
666.048	58.81
666.376	58.7
666.705	58.69
667.033	58.65
