Data from BA28416_Reflection_00014.txt Node
Date: Mon Nov 18 16:05:42 EST 2019
User: vgr7
Spectrometer: USB2G7710
Scans to average: 3
Trigger mode: 4
Integration Time (sec): 2.000000E-2
Electric dark correction enabled: true
Boxcar width: 10
XAxis mode: Wavelengths
Number of Pixels in Spectrum: 2048
>>>>>Begin Spectral Data<<<<<
177.721	23.89
178.105	109.85
178.488	97.82
178.871	1358.62
179.254	-660.33
179.636	-56.91
180.019	165.57
180.402	53.33
180.785	16.15
181.168	-29.01
181.55	-58.82
181.933	32.02
182.316	28.88
182.698	26.76
183.081	44.04
183.463	62.95
183.846	65.37
184.228	82.49
184.611	48.62
184.993	64.87
185.376	54.07
185.758	44.93
186.14	59.88
186.522	67.99
186.904	66.83
187.287	73.08
187.669	55.71
188.051	55.67
188.433	46.7
188.815	50.19
189.197	80.78
189.579	85.37
189.961	138.11
190.342	154.39
190.724	304.79
191.106	261.86
191.488	308.3
191.869	354.5
192.251	170.02
192.633	136.66
193.014	141.53
193.396	183.7
193.777	191.88
194.159	414.79
194.54	431
194.922	-440.96
195.303	-1110.03
195.684	-952.63
196.065	-348.64
196.447	-394.33
196.828	-209.13
197.209	-120.27
197.59	-115.35
197.971	-135.96
198.352	-50.49
198.733	-41.91
199.114	-15.52
199.495	-17.39
199.876	-23.32
200.257	-37.03
200.638	-34.5
201.018	-41.05
201.399	-51.34
201.78	-31.57
202.16	-30.16
202.541	-59.87
202.922	-140.3
203.302	-159.7
203.683	-505.92
204.063	-865.52
204.444	-460.72
204.824	-917.9
205.204	-1670.21
205.585	-693.42
205.965	-609.24
206.345	-560.03
206.725	-7027.27
207.106	1120.88
207.486	433.64
207.866	477.36
208.246	249.15
208.626	246.32
209.006	346.81
209.386	339.63
209.766	451.62
210.145	312.47
210.525	251.02
210.905	172.95
211.285	153.41
211.664	299.79
212.044	205.66
212.424	164.86
212.803	106.19
213.183	85.31
213.562	84.28
213.942	103.99
214.321	135.34
214.701	108.16
215.08	88.2
215.459	140.79
215.838	165.06
216.218	1081.37
216.597	178.15
216.976	403.41
217.355	4271.43
217.734	688.63
218.113	-1961.86
218.492	-358.5
218.871	-193.27
219.25	-179.27
219.629	-279.56
220.008	-267.03
220.387	-137.85
220.766	-80.49
221.144	-198.69
221.523	-239.78
221.902	-412.95
222.28	7383.02
222.659	-726.33
223.037	-267.68
223.416	-239.5
223.794	-211.25
224.173	-171.49
224.551	-102.57
224.929	-100.18
225.308	-60.36
225.686	-30.4
226.064	-25.16
226.442	-25.69
226.821	-16.31
227.199	-15.91
227.577	-13.72
227.955	-12.8
228.333	-16.68
228.711	-13.56
229.089	-8.75
229.467	-5.08
229.845	-5.53
230.222	-3.9
230.6	-3.85
230.978	-2.95
231.356	-0.99
231.733	-0.45
232.111	-1.93
232.488	-2
232.866	-2.96
233.243	-4.33
233.621	-6.25
233.998	-5.56
234.376	-6.76
234.753	-6.53
235.13	-4.42
235.508	-3.68
235.885	-3.87
236.262	-3.09
236.639	-3.01
237.016	-1.07
237.393	0.33
237.77	1.39
238.147	2.46
238.524	3.74
238.901	3.63
239.278	2.74
239.655	3.5
240.032	3.35
240.409	3.37
240.785	3.73
241.162	3.48
241.539	3.73
241.915	3.77
242.292	4.07
242.668	4.01
243.045	3.8
243.421	3.47
243.798	3.7
244.174	3.85
244.551	3.78
244.927	3.47
245.303	3.7
245.679	3.77
246.056	3.68
246.432	3.42
246.808	3.29
247.184	3.32
247.56	3.13
247.936	3.13
248.312	3.08
248.688	3.1
249.064	3.2
249.44	3.04
249.815	3.05
250.191	3.06
250.567	2.97
250.943	2.74
251.318	2.8
251.694	2.71
252.069	2.89
252.445	2.77
252.82	2.78
253.196	2.3
253.571	2.25
253.947	2.05
254.322	2.2
254.697	2
255.073	1.86
255.448	1.99
255.823	2.17
256.198	2.22
256.573	2.34
256.948	2.54
257.323	2.7
257.698	2.74
258.073	2.9
258.448	2.94
258.823	3.15
259.198	3.23
259.573	3.33
259.948	2.96
260.322	3.13
260.697	3.12
261.072	3.13
261.446	3.16
261.821	3.14
262.195	3.19
262.57	3.19
262.944	3.28
263.319	3.26
263.693	3.26
264.067	3.41
264.442	3.37
264.816	3.44
265.19	3.59
265.564	3.35
265.938	3.39
266.313	3.27
266.687	3.17
267.061	3.17
267.435	3.13
267.809	3.45
268.183	3.48
268.556	3.54
268.93	3.69
269.304	3.65
269.678	3.73
270.051	3.73
270.425	3.89
270.799	3.84
271.172	3.78
271.546	3.7
271.919	3.51
272.293	3.5
272.666	3.32
273.04	3.23
273.413	3.42
273.787	3.48
274.16	3.57
274.533	3.59
274.906	3.57
275.279	3.59
275.653	3.53
276.026	3.42
276.399	3.38
276.772	3.46
277.145	3.39
277.518	3.27
277.891	3.03
278.263	2.88
278.636	2.92
279.009	2.99
279.382	3.11
279.755	3.14
280.127	3.32
280.5	3.53
280.872	3.59
281.245	3.46
281.617	3.39
281.99	3.49
282.362	3.57
282.735	3.43
283.107	3.33
283.479	3.34
283.852	3.3
284.224	3.24
284.596	3.07
284.968	3.13
285.34	3.4
285.713	3.46
286.085	3.64
286.457	3.79
286.829	3.85
287.201	3.76
287.572	3.82
287.944	3.63
288.316	3.67
288.688	3.55
289.06	3.66
289.431	3.47
289.803	3.47
290.175	3.5
290.546	3.69
290.918	3.68
291.289	3.68
291.661	3.67
292.032	3.77
292.403	3.85
292.775	3.88
293.146	3.66
293.517	3.66
293.889	3.59
294.26	3.49
294.631	3.48
295.002	3.58
295.373	3.56
295.744	3.72
296.115	3.71
296.486	3.7
296.857	3.67
297.228	3.87
297.599	3.77
297.97	3.76
298.34	3.77
298.711	3.89
299.082	3.94
299.452	4.09
299.823	4.18
300.194	4.11
300.564	4.08
300.935	4.26
301.305	4.34
301.676	4.41
302.046	4.45
302.416	4.55
302.787	4.45
303.157	4.52
303.527	4.46
303.897	4.33
304.267	4.47
304.637	4.49
305.008	4.53
305.378	4.6
305.748	4.62
306.117	4.51
306.487	4.57
306.857	4.56
307.227	4.51
307.597	4.52
307.967	4.62
308.336	4.63
308.706	4.61
309.076	4.61
309.445	4.52
309.815	4.55
310.184	4.54
310.554	4.59
310.923	4.57
311.293	4.67
311.662	4.7
312.031	4.63
312.401	4.68
312.77	4.67
313.139	4.75
313.508	4.72
313.877	4.73
314.246	4.69
314.616	4.67
314.985	4.71
315.353	4.51
315.722	4.55
316.091	4.48
316.46	4.35
316.829	4.34
317.198	4.52
317.567	4.27
317.935	4.2
318.304	4.29
318.672	4.42
319.041	4.51
319.41	4.5
319.778	4.49
320.147	4.55
320.515	4.62
320.883	4.57
321.252	4.6
321.62	4.65
321.988	4.63
322.357	4.58
322.725	4.41
323.093	4.72
323.461	4.75
323.829	4.92
324.197	5.13
324.565	5.22
324.933	5.18
325.301	5.39
325.669	5.49
326.037	5.48
326.405	5.25
326.772	5.18
327.14	5.26
327.508	5.36
327.875	5.19
328.243	5.11
328.61	5.18
328.978	5.26
329.346	5.37
329.713	5.46
330.08	5.68
330.448	5.71
330.815	5.54
331.182	5.56
331.55	5.55
331.917	5.36
332.284	5.45
332.651	5.3
333.018	5.4
333.385	5.35
333.752	5.29
334.119	5.55
334.486	5.5
334.853	5.5
335.22	5.48
335.587	5.66
335.954	5.7
336.32	5.78
336.687	5.83
337.054	5.77
337.42	5.69
337.787	5.68
338.153	5.69
338.52	5.72
338.886	5.74
339.253	5.69
339.619	5.79
339.986	5.74
340.352	5.89
340.718	5.76
341.084	5.8
341.451	5.89
341.817	5.81
342.183	5.86
342.549	5.83
342.915	5.96
343.281	5.92
343.647	5.88
344.013	5.84
344.379	5.74
344.745	5.75
345.11	5.79
345.476	5.74
345.842	5.79
346.208	5.81
346.573	5.93
346.939	6.05
347.304	6.01
347.67	5.89
348.035	5.83
348.401	5.92
348.766	5.87
349.132	5.87
349.497	5.94
349.862	6.04
350.228	6.13
350.593	6.02
350.958	6.11
351.323	6.17
351.688	6.17
352.053	6.21
352.418	6.25
352.783	6.22
353.148	6.11
353.513	6.09
353.878	6.06
354.243	6.02
354.608	6.01
354.972	5.98
355.337	6.15
355.702	6.19
356.066	6.25
356.431	6.31
356.795	6.29
357.16	6.2
357.524	6.14
357.889	6.09
358.253	6.14
358.618	6.13
358.982	6.11
359.346	6.06
359.71	6.05
360.075	6.06
360.439	6.08
360.803	6.11
361.167	6.08
361.531	6.1
361.895	6.02
362.259	5.95
362.623	5.95
362.987	5.9
363.351	5.91
363.714	5.85
364.078	5.8
364.442	5.74
364.806	5.73
365.169	5.67
365.533	5.66
365.896	5.62
366.26	5.64
366.623	5.59
366.987	5.57
367.35	5.52
367.714	5.5
368.077	5.41
368.44	5.42
368.803	5.43
369.167	5.35
369.53	5.33
369.893	5.37
370.256	5.46
370.619	5.4
370.982	5.24
371.345	5.15
371.708	5.11
372.071	5.14
372.434	5.1
372.797	5.04
373.159	5
373.522	4.95
373.885	4.88
374.247	4.85
374.61	4.86
374.973	4.81
375.335	4.74
375.698	4.78
376.06	4.72
376.423	4.73
376.785	4.74
377.147	4.78
377.51	4.7
377.872	4.67
378.234	4.64
378.596	4.67
378.958	4.68
379.321	4.68
379.683	4.65
380.045	4.68
380.407	4.78
380.769	4.79
381.13	4.75
381.492	4.67
381.854	4.69
382.216	4.64
382.578	4.65
382.939	4.65
383.301	4.62
383.663	4.59
384.024	4.53
384.386	4.55
384.747	4.49
385.109	4.46
385.47	4.42
385.832	4.41
386.193	4.4
386.554	4.35
386.916	4.31
387.277	4.32
387.638	4.29
387.999	4.23
388.36	4.2
388.721	4.17
389.082	4.17
389.443	4.12
389.804	4.08
390.165	4.05
390.526	4.03
390.887	4.04
391.248	4.07
391.609	4.07
391.969	4.07
392.33	4.06
392.691	4.05
393.051	4.01
393.412	4.02
393.772	4
394.133	4
394.493	4.01
394.854	3.98
395.214	3.99
395.574	3.98
395.935	3.97
396.295	4
396.655	3.96
397.015	3.98
397.376	3.98
397.736	4
398.096	3.98
398.456	3.99
398.816	3.94
399.176	3.91
399.535	3.86
399.895	3.85
400.255	3.83
400.615	3.83
400.975	3.81
401.334	3.8
401.694	3.78
402.054	3.77
402.413	3.74
402.773	3.67
403.132	3.62
403.492	3.62
403.851	3.6
404.211	3.63
404.57	3.58
404.929	3.58
405.288	3.55
405.648	3.5
406.007	3.45
406.366	3.45
406.725	3.46
407.084	3.45
407.443	3.43
407.802	3.43
408.161	3.4
408.52	3.35
408.879	3.36
409.238	3.39
409.596	3.35
409.955	3.35
410.314	3.36
410.673	3.34
411.031	3.31
411.39	3.31
411.748	3.27
412.107	3.3
412.465	3.3
412.824	3.29
413.182	3.31
413.54	3.33
413.899	3.32
414.257	3.29
414.615	3.28
414.974	3.29
415.332	3.29
415.69	3.29
416.048	3.31
416.406	3.31
416.764	3.26
417.122	3.28
417.48	3.27
417.838	3.25
418.195	3.24
418.553	3.23
418.911	3.21
419.269	3.21
419.626	3.2
419.984	3.19
420.342	3.17
420.699	3.17
421.057	3.15
421.414	3.13
421.772	3.13
422.129	3.12
422.486	3.1
422.844	3.09
423.201	3.07
423.558	3.06
423.915	3.04
424.273	3.04
424.63	3.02
424.987	3.03
425.344	3.04
425.701	3.04
426.058	3.03
426.415	3.03
426.772	3.02
427.128	2.99
427.485	3
427.842	3.02
428.199	3.02
428.555	3.02
428.912	3.04
429.269	3.03
429.625	3.04
429.982	3.02
430.338	3.02
430.695	3.02
431.051	3
431.407	2.99
431.764	2.98
432.12	2.97
432.476	2.94
432.832	2.93
433.189	2.95
433.545	2.95
433.901	2.95
434.257	2.95
434.613	2.96
434.969	2.96
435.325	2.95
435.681	2.96
436.036	2.94
436.392	2.93
436.748	2.93
437.104	2.92
437.459	2.93
437.815	2.92
438.171	2.94
438.526	2.95
438.882	2.96
439.237	2.97
439.593	2.98
439.948	2.97
440.304	2.97
440.659	2.95
441.014	2.94
441.369	2.94
441.725	2.95
442.08	2.94
442.435	2.93
442.79	2.93
443.145	2.92
443.5	2.92
443.855	2.92
444.21	2.9
444.565	2.9
444.92	2.91
445.275	2.9
445.629	2.9
445.984	2.89
446.339	2.89
446.693	2.86
447.048	2.85
447.403	2.85
447.757	2.84
448.112	2.84
448.466	2.85
448.82	2.84
449.175	2.85
449.529	2.84
449.883	2.82
450.238	2.81
450.592	2.81
450.946	2.79
451.3	2.8
451.654	2.81
452.008	2.82
452.362	2.78
452.716	2.79
453.07	2.77
453.424	2.79
453.778	2.79
454.132	2.81
454.486	2.82
454.839	2.82
455.193	2.82
455.547	2.82
455.9	2.82
456.254	2.83
456.607	2.81
456.961	2.82
457.314	2.83
457.668	2.83
458.021	2.83
458.375	2.83
458.728	2.81
459.081	2.83
459.434	2.83
459.787	2.86
460.141	2.85
460.494	2.84
460.847	2.83
461.2	2.82
461.553	2.82
461.906	2.83
462.259	2.83
462.611	2.86
462.964	2.87
463.317	2.87
463.67	2.88
464.022	2.89
464.375	2.89
464.728	2.91
465.08	2.93
465.433	2.92
465.785	2.93
466.138	2.94
466.49	2.94
466.843	2.96
467.195	2.95
467.547	2.97
467.899	2.99
468.252	2.99
468.604	3.02
468.956	3.02
469.308	3.02
469.66	3.01
470.012	3.01
470.364	3.01
470.716	3.03
471.068	3.03
471.42	3.02
471.772	3.03
472.123	3.04
472.475	3.05
472.827	3.05
473.178	3.08
473.53	3.07
473.882	3.08
474.233	3.07
474.585	3.08
474.936	3.08
475.288	3.09
475.639	3.09
475.99	3.09
476.342	3.11
476.693	3.1
477.044	3.11
477.395	3.11
477.746	3.12
478.097	3.11
478.448	3.1
478.8	3.1
479.15	3.08
479.501	3.07
479.852	3.06
480.203	3.06
480.554	3.04
480.905	3.05
481.255	3.05
481.606	3.04
481.957	3.05
482.307	3.04
482.658	3.04
483.009	3.03
483.359	3.02
483.709	3.02
484.06	3.01
484.41	3.01
484.761	3.01
485.111	3.01
485.461	3.01
485.811	3.01
486.162	3.02
486.512	3.03
486.862	3.03
487.212	3.03
487.562	3.03
487.912	3.04
488.262	3.04
488.612	3.04
488.961	3.04
489.311	3.04
489.661	3.04
490.011	3.05
490.36	3.05
490.71	3.07
491.06	3.07
491.409	3.08
491.759	3.08
492.108	3.09
492.458	3.09
492.807	3.1
493.157	3.12
493.506	3.12
493.855	3.11
494.204	3.12
494.554	3.12
494.903	3.13
495.252	3.13
495.601	3.14
495.95	3.16
496.299	3.16
496.648	3.18
496.997	3.2
497.346	3.23
497.695	3.26
498.043	3.28
498.392	3.31
498.741	3.34
499.09	3.36
499.438	3.4
499.787	3.44
500.135	3.46
500.484	3.49
500.832	3.5
501.181	3.55
501.529	3.59
501.878	3.63
502.226	3.69
502.574	3.73
502.923	3.75
503.271	3.77
503.619	3.84
503.967	3.87
504.315	3.92
504.663	3.93
505.011	3.94
505.359	3.98
505.707	4
506.055	4.05
506.403	4.12
506.751	4.16
507.098	4.2
507.446	4.28
507.794	4.3
508.141	4.37
508.489	4.43
508.837	4.48
509.184	4.53
509.531	4.58
509.879	4.65
510.226	4.73
510.574	4.8
510.921	4.85
511.268	4.94
511.616	5
511.963	5.1
512.31	5.17
512.657	5.23
513.004	5.32
513.351	5.4
513.698	5.47
514.045	5.55
514.392	5.63
514.739	5.69
515.086	5.81
515.432	5.91
515.779	6.01
516.126	6.11
516.473	6.21
516.819	6.31
517.166	6.39
517.512	6.48
517.859	6.57
518.205	6.66
518.552	6.74
518.898	6.84
519.245	6.91
519.591	7
519.937	7.1
520.283	7.2
520.629	7.3
520.976	7.41
521.322	7.54
521.668	7.67
522.014	7.81
522.36	7.92
522.706	8.07
523.052	8.23
523.398	8.38
523.743	8.56
524.089	8.71
524.435	8.87
524.781	9.06
525.126	9.23
525.472	9.38
525.817	9.53
526.163	9.65
526.509	9.78
526.854	9.89
527.199	10.01
527.545	10.12
527.89	10.24
528.235	10.34
528.581	10.47
528.926	10.59
529.271	10.73
529.616	10.86
529.961	11
530.306	11.13
530.651	11.26
530.996	11.4
531.341	11.57
531.686	11.76
532.031	11.93
532.376	12.09
532.721	12.28
533.065	12.46
533.41	12.65
533.755	12.86
534.099	13.1
534.444	13.32
534.788	13.54
535.133	13.76
535.477	14.01
535.822	14.25
536.166	14.49
536.51	14.76
536.855	15.05
537.199	15.34
537.543	15.66
537.887	16
538.231	16.32
538.576	16.62
538.92	16.91
539.264	17.19
539.608	17.48
539.951	17.74
540.295	18
540.639	18.26
540.983	18.54
541.327	18.76
541.671	19
542.014	19.25
542.358	19.5
542.701	19.74
543.045	19.98
543.389	20.23
543.732	20.49
544.075	20.77
544.419	21.06
544.762	21.32
545.105	21.6
545.449	21.89
545.792	22.2
546.135	22.54
546.478	22.87
546.821	23.23
547.165	23.59
547.508	23.98
547.851	24.33
548.194	24.66
548.536	25.05
548.879	25.45
549.222	25.83
549.565	26.18
549.908	26.54
550.25	26.92
550.593	27.31
550.936	27.65
551.278	27.98
551.621	28.33
551.963	28.69
552.306	29.06
552.648	29.43
552.991	29.78
553.333	30.12
553.675	30.45
554.017	30.77
554.36	31.14
554.702	31.44
555.044	31.78
555.386	32.09
555.728	32.41
556.07	32.77
556.412	33.08
556.754	33.46
557.096	33.82
557.438	34.16
557.78	34.54
558.121	34.91
558.463	35.28
558.805	35.63
559.147	35.95
559.488	36.28
559.83	36.55
560.171	36.88
560.513	37.15
560.854	37.47
561.196	37.76
561.537	38.07
561.878	38.37
562.22	38.68
562.561	39.02
562.902	39.26
563.243	39.51
563.584	39.82
563.925	40.11
564.266	40.36
564.607	40.61
564.948	40.85
565.289	41.07
565.63	41.26
565.971	41.47
566.312	41.69
566.653	41.94
566.993	42.21
567.334	42.44
567.675	42.67
568.015	42.88
568.356	43.09
568.696	43.27
569.037	43.52
569.377	43.71
569.718	43.91
570.058	44.13
570.398	44.3
570.739	44.5
571.079	44.67
571.419	44.87
571.759	45.09
572.099	45.27
572.439	45.49
572.779	45.7
573.119	45.87
573.459	46.1
573.799	46.31
574.139	46.44
574.479	46.6
574.819	46.78
575.158	46.98
575.498	47.17
575.838	47.36
576.177	47.51
576.517	47.69
576.856	47.88
577.196	48.09
577.535	48.32
577.875	48.47
578.214	48.59
578.553	48.75
578.893	48.89
579.232	49.06
579.571	49.21
579.91	49.43
580.25	49.65
580.589	49.76
580.928	49.81
581.267	50.08
581.606	50.29
581.945	50.41
582.283	50.53
582.622	50.74
582.961	50.87
583.3	50.99
583.639	51.12
583.977	51.19
584.316	51.32
584.654	51.46
584.993	51.59
585.332	51.71
585.67	51.94
586.008	52.03
586.347	52.13
586.685	52.22
587.024	52.32
587.362	52.42
587.7	52.52
588.038	52.72
588.376	52.76
588.715	52.84
589.053	53.04
589.391	53.22
589.729	53.31
590.067	53.47
590.404	53.6
590.742	53.76
591.08	53.86
591.418	54.04
591.756	54.11
592.093	54.25
592.431	54.38
592.769	54.4
593.106	54.44
593.444	54.54
593.781	54.62
594.119	54.69
594.456	54.75
594.793	54.9
595.131	54.88
595.468	54.9
595.805	54.97
596.143	54.99
596.48	55.04
596.817	55.06
597.154	55.15
597.491	55.2
597.828	55.26
598.165	55.36
598.502	55.4
598.839	55.49
599.176	55.59
599.512	55.67
599.849	55.83
600.186	56
600.523	56.09
600.859	56.18
601.196	56.3
601.532	56.36
601.869	56.4
602.205	56.54
602.542	56.76
602.878	56.79
603.215	56.87
603.551	56.9
603.887	57.08
604.223	57.08
604.56	57.11
604.896	57.09
605.232	57.19
605.568	57.16
605.904	57.23
606.24	57.19
606.576	57.31
606.912	57.37
607.248	57.43
607.583	57.49
607.919	57.57
608.255	57.54
608.591	57.64
608.926	57.76
609.262	57.84
609.597	57.8
609.933	57.89
610.268	57.91
610.604	57.99
610.939	58
611.275	58.04
611.61	58.22
611.945	58.35
612.281	58.34
612.616	58.41
612.951	58.49
613.286	58.67
613.621	58.65
613.956	58.63
614.291	58.64
614.626	58.77
614.961	58.86
615.296	58.91
615.631	59.01
615.966	59.01
616.3	59.11
616.635	59.07
616.97	59.2
617.304	59.26
617.639	59.34
617.973	59.29
618.308	59.33
618.642	59.26
618.977	59.27
619.311	59.35
619.646	59.5
619.98	59.52
620.314	59.53
620.648	59.62
620.983	59.72
621.317	59.79
621.651	59.78
621.985	59.86
622.319	60.02
622.653	59.99
622.987	60.05
623.321	60.12
623.655	60.33
623.988	60.31
624.322	60.38
624.656	60.44
624.99	60.48
625.323	60.53
625.657	60.57
625.99	60.56
626.324	60.61
626.657	60.61
626.991	60.6
627.324	60.67
627.658	60.66
627.991	60.6
628.324	60.66
628.657	60.72
628.991	60.69
629.324	60.61
629.657	60.65
629.99	60.64
630.323	60.59
630.656	60.49
630.989	60.51
631.322	60.6
631.655	60.46
631.987	60.6
632.32	60.58
632.653	60.58
632.986	60.64
633.318	60.62
633.651	60.58
633.984	60.6
634.316	60.52
634.649	60.6
634.981	60.66
635.313	60.63
635.646	60.6
635.978	60.66
636.31	60.73
636.643	60.77
636.975	60.82
637.307	60.8
637.639	60.96
637.971	61.02
638.303	61
638.635	61.06
638.967	61.03
639.299	61.15
639.631	61.2
639.963	61.22
640.295	61.34
640.626	61.45
640.958	61.51
641.29	61.58
641.621	61.6
641.953	61.69
642.285	61.74
642.616	61.87
642.948	61.84
643.279	61.77
643.61	61.78
643.942	61.9
644.273	62.03
644.604	62.18
644.936	62.06
645.267	62.08
645.598	62.25
645.929	62.2
646.26	62.19
646.591	62.23
646.922	62.27
647.253	62.2
647.584	62.18
647.915	62.18
648.245	62.17
648.576	62.21
648.907	62.19
649.238	62.22
649.568	62.16
649.899	62.16
650.229	62.34
650.56	62.46
650.89	62.42
651.221	62.46
651.551	62.35
651.882	62.45
652.212	62.44
652.542	62.25
652.872	62.24
653.203	62.17
653.533	62.15
653.863	62.13
654.193	62.21
654.523	62.25
654.853	62.28
655.183	62.36
655.513	62.28
655.843	62.38
656.172	62.35
656.502	62.52
656.832	62.44
657.162	62.43
657.491	62.46
657.821	62.47
658.15	62.42
658.48	62.31
658.809	62.23
659.139	62.23
659.468	62.23
659.798	62.35
660.127	62.43
660.456	62.52
660.785	62.49
661.115	62.41
661.444	62.6
661.773	62.62
662.102	62.66
662.431	62.62
662.76	62.63
663.089	62.72
663.418	62.53
663.747	62.64
664.076	62.73
664.404	62.62
664.733	62.65
665.062	62.64
665.39	62.86
665.719	63.01
666.048	62.99
666.376	63.16
666.705	63.11
667.033	63.12
