Data from BA28474_Reflection_00006.txt Node
Date: Mon Nov 18 15:30:38 EST 2019
User: vgr7
Spectrometer: USB2G7710
Scans to average: 3
Trigger mode: 4
Integration Time (sec): 2.000000E-2
Electric dark correction enabled: true
Boxcar width: 10
XAxis mode: Wavelengths
Number of Pixels in Spectrum: 2048
>>>>>Begin Spectral Data<<<<<
177.721	80.15
178.105	62.76
178.488	29.16
178.871	8.91
179.254	-133.83
179.636	108.91
180.019	-283.65
180.402	126.67
180.785	42.9
181.168	-92.79
181.55	-59.13
181.933	238.74
182.316	89.87
182.698	74.99
183.081	130.71
183.463	206.5
183.846	277.2
184.228	14655.56
184.611	-130.11
184.993	12.28
185.376	9.92
185.758	-19.6
186.14	-8.63
186.522	-25.35
186.904	-33.6
187.287	-26.74
187.669	38.99
188.051	50.55
188.433	52.98
188.815	40.75
189.197	82.39
189.579	96.49
189.961	42.69
190.342	45.55
190.724	56.55
191.106	73.07
191.488	65.91
191.869	100.31
192.251	96.19
192.633	135.63
193.014	93.33
193.396	97.09
193.777	97.74
194.159	88.56
194.54	78.83
194.922	75.79
195.303	64.79
195.684	33.45
196.065	42.12
196.447	45.31
196.828	49.71
197.209	59.83
197.59	47.1
197.971	70.29
198.352	57.88
198.733	57.44
199.114	49.99
199.495	55.97
199.876	48.13
200.257	60.16
200.638	54.02
201.018	67.63
201.399	98.55
201.78	93.79
202.16	94.46
202.541	121.85
202.922	160.79
203.302	107.23
203.683	165.58
204.063	120.14
204.444	96.96
204.824	65.92
205.204	60.18
205.585	90.38
205.965	66.31
206.345	56.25
206.725	41.25
207.106	19.34
207.486	65.75
207.866	175.08
208.246	31.79
208.626	30.98
209.006	39.34
209.386	30.89
209.766	71.46
210.145	56.11
210.525	50.3
210.905	54.35
211.285	60.71
211.664	49.99
212.044	41.29
212.424	42.44
212.803	49.26
213.183	43.08
213.562	39.84
213.942	53.95
214.321	64.29
214.701	69.99
215.08	68.92
215.459	55.95
215.838	52.44
216.218	51.8
216.597	59.16
216.976	64.3
217.355	63.49
217.734	37.69
218.113	45.13
218.492	55.68
218.871	49.79
219.25	58.08
219.629	69.5
220.008	82.25
220.387	67.17
220.766	68.65
221.144	70.9
221.523	60.73
221.902	43.47
222.28	60.26
222.659	65.72
223.037	51.79
223.416	41.97
223.794	31.86
224.173	39.3
224.551	34.41
224.929	27.38
225.308	19.15
225.686	21.86
226.064	19.58
226.442	14.08
226.821	14.31
227.199	12.26
227.577	9.8
227.955	9.23
228.333	11.56
228.711	15.69
229.089	17.89
229.467	18.54
229.845	19.01
230.222	18.29
230.6	15.65
230.978	18.12
231.356	19.78
231.733	19.66
232.111	19.88
232.488	20.29
232.866	19.88
233.243	22.91
233.621	22.64
233.998	25.22
234.376	25.39
234.753	24.88
235.13	25.79
235.508	25.27
235.885	23.63
236.262	22.88
236.639	20.84
237.016	19.6
237.393	17.45
237.77	16.81
238.147	14.67
238.524	13.26
238.901	12.56
239.278	13.19
239.655	12.92
240.032	11.8
240.409	10.9
240.785	11.13
241.162	9.88
241.539	9.81
241.915	8.12
242.292	7.29
242.668	7.15
243.045	6.63
243.421	6.62
243.798	6.43
244.174	5.91
244.551	5.93
244.927	5.7
245.303	5.82
245.679	5.71
246.056	5.5
246.432	5.48
246.808	5.5
247.184	4.97
247.56	4.71
247.936	4.67
248.312	4.49
248.688	4.41
249.064	4.41
249.44	4.25
249.815	4.47
250.191	4.91
250.567	5.07
250.943	4.92
251.318	4.8
251.694	4.8
252.069	5.24
252.445	5.2
252.82	5.28
253.196	4.93
253.571	4.7
253.947	4.75
254.322	4.83
254.697	4.57
255.073	4.63
255.448	4.34
255.823	4.48
256.198	4.64
256.573	4.48
256.948	4.45
257.323	4.56
257.698	4.51
258.073	4.39
258.448	4.27
258.823	4.39
259.198	4.32
259.573	4.23
259.948	4.12
260.322	4.13
260.697	4.05
261.072	4.04
261.446	4.1
261.821	4.2
262.195	4.3
262.57	4.36
262.944	4.23
263.319	4.3
263.693	4.22
264.067	4.17
264.442	4.21
264.816	4.24
265.19	4.21
265.564	4.28
265.938	4.25
266.313	4.33
266.687	4.28
267.061	4.42
267.435	4.56
267.809	4.49
268.183	4.4
268.556	4.4
268.93	4.55
269.304	4.44
269.678	4.33
270.051	4.12
270.425	4.07
270.799	4.24
271.172	4.29
271.546	4.39
271.919	4.32
272.293	4.26
272.666	4.27
273.04	4.27
273.413	4.29
273.787	4.31
274.16	4.03
274.533	4
274.906	3.89
275.279	3.89
275.653	3.96
276.026	4.02
276.399	3.97
276.772	4.07
277.145	4.08
277.518	4.07
277.891	4.16
278.263	4.16
278.636	4.35
279.009	4.42
279.382	4.46
279.755	4.48
280.127	4.54
280.5	4.6
280.872	4.59
281.245	4.55
281.617	4.67
281.99	4.91
282.362	4.94
282.735	4.98
283.107	5
283.479	4.95
283.852	4.91
284.224	4.95
284.596	4.92
284.968	4.96
285.34	5.05
285.713	4.92
286.085	4.94
286.457	4.84
286.829	4.68
287.201	4.57
287.572	4.59
287.944	4.58
288.316	4.68
288.688	4.62
289.06	4.53
289.431	4.4
289.803	4.29
290.175	4.37
290.546	4.44
290.918	4.45
291.289	4.57
291.661	4.62
292.032	4.67
292.403	4.64
292.775	4.72
293.146	4.61
293.517	4.74
293.889	4.73
294.26	4.79
294.631	4.94
295.002	4.8
295.373	4.77
295.744	4.76
296.115	4.55
296.486	4.54
296.857	4.64
297.228	4.68
297.599	4.65
297.97	4.45
298.34	4.38
298.711	4.38
299.082	4.28
299.452	4.24
299.823	4.24
300.194	4.13
300.564	4.08
300.935	4.13
301.305	3.92
301.676	3.98
302.046	3.98
302.416	3.99
302.787	4.08
303.157	4.04
303.527	4.02
303.897	3.92
304.267	4.07
304.637	4.07
305.008	4.1
305.378	4.18
305.748	4.43
306.117	4.36
306.487	4.29
306.857	4.3
307.227	4.31
307.597	4.22
307.967	4.43
308.336	4.43
308.706	4.47
309.076	4.73
309.445	4.65
309.815	4.48
310.184	4.48
310.554	4.49
310.923	4.55
311.293	4.56
311.662	4.65
312.031	4.47
312.401	4.5
312.77	4.43
313.139	4.49
313.508	4.37
313.877	4.38
314.246	4.43
314.616	4.4
314.985	4.39
315.353	4.38
315.722	4.19
316.091	4.18
316.46	4.18
316.829	4.07
317.198	4.12
317.567	4.19
317.935	4.09
318.304	4.23
318.672	4.1
319.041	4.22
319.41	4.24
319.778	4.23
320.147	4.08
320.515	4.12
320.883	3.85
321.252	3.86
321.62	3.91
321.988	3.85
322.357	3.8
322.725	3.77
323.093	3.87
323.461	3.93
323.829	3.9
324.197	3.8
324.565	3.85
324.933	3.74
325.301	3.8
325.669	3.75
326.037	3.61
326.405	3.78
326.772	3.79
327.14	3.81
327.508	4.01
327.875	3.99
328.243	3.96
328.61	4.13
328.978	4.13
329.346	4.18
329.713	4.1
330.08	4.21
330.448	4.18
330.815	3.98
331.182	4
331.55	4.16
331.917	4.13
332.284	4.14
332.651	4.23
333.018	4.22
333.385	4.16
333.752	4.21
334.119	4.23
334.486	4.07
334.853	4.07
335.22	3.93
335.587	4.02
335.954	3.99
336.32	3.93
336.687	3.96
337.054	3.91
337.42	4.07
337.787	4.07
338.153	4.07
338.52	4.25
338.886	4.15
339.253	3.95
339.619	4.07
339.986	4.07
340.352	4.1
340.718	4.01
341.084	4.16
341.451	4.22
341.817	4.21
342.183	4.18
342.549	4.13
342.915	4.22
343.281	4.16
343.647	4.19
344.013	4.26
344.379	4.27
344.745	4.3
345.11	4.19
345.476	4.16
345.842	4.16
346.208	4.11
346.573	4.14
346.939	4.32
347.304	4.2
347.67	4.08
348.035	4.04
348.401	4.04
348.766	4.01
349.132	3.8
349.497	3.77
349.862	3.85
350.228	3.79
350.593	3.72
350.958	3.75
351.323	3.68
351.688	3.61
352.053	3.62
352.418	3.68
352.783	3.72
353.148	3.62
353.513	3.58
353.878	3.6
354.243	3.62
354.608	3.55
354.972	3.63
355.337	3.75
355.702	3.79
356.066	3.83
356.431	3.79
356.795	3.88
357.16	3.84
357.524	3.8
357.889	3.82
358.253	3.86
358.618	3.88
358.982	3.87
359.346	3.92
359.71	3.89
360.075	3.85
360.439	3.84
360.803	3.88
361.167	3.92
361.531	3.91
361.895	3.86
362.259	3.79
362.623	3.81
362.987	3.71
363.351	3.71
363.714	3.73
364.078	3.75
364.442	3.75
364.806	3.79
365.169	3.84
365.533	3.87
365.896	3.78
366.26	3.8
366.623	3.78
366.987	3.7
367.35	3.75
367.714	3.75
368.077	3.7
368.44	3.76
368.803	3.7
369.167	3.7
369.53	3.71
369.893	3.83
370.256	3.8
370.619	3.87
370.982	3.8
371.345	3.75
371.708	3.8
372.071	3.83
372.434	3.86
372.797	3.85
373.159	3.85
373.522	3.87
373.885	3.8
374.247	3.85
374.61	3.9
374.973	3.83
375.335	3.84
375.698	3.89
376.06	3.86
376.423	3.92
376.785	3.92
377.147	3.97
377.51	3.95
377.872	3.91
378.234	3.89
378.596	3.94
378.958	3.94
379.321	3.91
379.683	3.94
380.045	3.88
380.407	3.86
380.769	3.87
381.13	3.87
381.492	3.89
381.854	3.89
382.216	3.87
382.578	3.92
382.939	3.86
383.301	3.83
383.663	3.8
384.024	3.79
384.386	3.81
384.747	3.79
385.109	3.81
385.47	3.83
385.832	3.86
386.193	3.87
386.554	3.86
386.916	3.84
387.277	3.81
387.638	3.83
387.999	3.83
388.36	3.83
388.721	3.84
389.082	3.84
389.443	3.84
389.804	3.86
390.165	3.84
390.526	3.87
390.887	3.89
391.248	3.9
391.609	3.91
391.969	3.9
392.33	3.91
392.691	3.88
393.051	3.89
393.412	3.9
393.772	3.88
394.133	3.89
394.493	3.89
394.854	3.9
395.214	3.88
395.574	3.91
395.935	3.9
396.295	3.93
396.655	3.88
397.015	3.89
397.376	3.86
397.736	3.87
398.096	3.87
398.456	3.88
398.816	3.9
399.176	3.88
399.535	3.89
399.895	3.88
400.255	3.87
400.615	3.86
400.975	3.83
401.334	3.83
401.694	3.84
402.054	3.85
402.413	3.84
402.773	3.81
403.132	3.78
403.492	3.79
403.851	3.77
404.211	3.83
404.57	3.83
404.929	3.86
405.288	3.85
405.648	3.81
406.007	3.81
406.366	3.83
406.725	3.83
407.084	3.83
407.443	3.83
407.802	3.85
408.161	3.82
408.52	3.81
408.879	3.8
409.238	3.81
409.596	3.8
409.955	3.78
410.314	3.81
410.673	3.8
411.031	3.76
411.39	3.75
411.748	3.75
412.107	3.74
412.465	3.71
412.824	3.71
413.182	3.74
413.54	3.74
413.899	3.72
414.257	3.72
414.615	3.7
414.974	3.7
415.332	3.69
415.69	3.7
416.048	3.71
416.406	3.71
416.764	3.68
417.122	3.71
417.48	3.73
417.838	3.74
418.195	3.74
418.553	3.75
418.911	3.74
419.269	3.74
419.626	3.74
419.984	3.73
420.342	3.74
420.699	3.72
421.057	3.73
421.414	3.71
421.772	3.7
422.129	3.71
422.486	3.73
422.844	3.73
423.201	3.74
423.558	3.74
423.915	3.73
424.273	3.74
424.63	3.72
424.987	3.71
425.344	3.71
425.701	3.72
426.058	3.75
426.415	3.75
426.772	3.75
427.128	3.74
427.485	3.76
427.842	3.76
428.199	3.77
428.555	3.75
428.912	3.76
429.269	3.78
429.625	3.78
429.982	3.76
430.338	3.77
430.695	3.75
431.051	3.75
431.407	3.78
431.764	3.77
432.12	3.77
432.476	3.77
432.832	3.75
433.189	3.73
433.545	3.7
433.901	3.72
434.257	3.71
434.613	3.73
434.969	3.71
435.325	3.72
435.681	3.73
436.036	3.72
436.392	3.73
436.748	3.73
437.104	3.72
437.459	3.72
437.815	3.71
438.171	3.71
438.526	3.72
438.882	3.71
439.237	3.72
439.593	3.73
439.948	3.74
440.304	3.75
440.659	3.76
441.014	3.77
441.369	3.76
441.725	3.76
442.08	3.75
442.435	3.77
442.79	3.76
443.145	3.76
443.5	3.77
443.855	3.76
444.21	3.76
444.565	3.75
444.92	3.75
445.275	3.74
445.629	3.74
445.984	3.74
446.339	3.73
446.693	3.71
447.048	3.7
447.403	3.68
447.757	3.68
448.112	3.67
448.466	3.67
448.82	3.66
449.175	3.68
449.529	3.68
449.883	3.66
450.238	3.66
450.592	3.66
450.946	3.64
451.3	3.62
451.654	3.62
452.008	3.62
452.362	3.61
452.716	3.62
453.07	3.63
453.424	3.63
453.778	3.63
454.132	3.64
454.486	3.65
454.839	3.66
455.193	3.66
455.547	3.67
455.9	3.68
456.254	3.69
456.607	3.67
456.961	3.67
457.314	3.69
457.668	3.7
458.021	3.7
458.375	3.71
458.728	3.74
459.081	3.74
459.434	3.74
459.787	3.77
460.141	3.77
460.494	3.75
460.847	3.74
461.2	3.75
461.553	3.74
461.906	3.76
462.259	3.76
462.611	3.77
462.964	3.78
463.317	3.79
463.67	3.79
464.022	3.8
464.375	3.79
464.728	3.8
465.08	3.8
465.433	3.78
465.785	3.78
466.138	3.79
466.49	3.79
466.843	3.77
467.195	3.76
467.547	3.77
467.899	3.79
468.252	3.78
468.604	3.77
468.956	3.79
469.308	3.77
469.66	3.77
470.012	3.77
470.364	3.76
470.716	3.74
471.068	3.75
471.42	3.74
471.772	3.77
472.123	3.77
472.475	3.77
472.827	3.8
473.178	3.79
473.53	3.77
473.882	3.77
474.233	3.79
474.585	3.78
474.936	3.77
475.288	3.73
475.639	3.74
475.99	3.76
476.342	3.76
476.693	3.77
477.044	3.77
477.395	3.78
477.746	3.77
478.097	3.78
478.448	3.75
478.8	3.76
479.15	3.74
479.501	3.73
479.852	3.75
480.203	3.76
480.554	3.78
480.905	3.78
481.255	3.77
481.606	3.77
481.957	3.78
482.307	3.79
482.658	3.81
483.009	3.82
483.359	3.81
483.709	3.83
484.06	3.82
484.41	3.82
484.761	3.83
485.111	3.84
485.461	3.84
485.811	3.85
486.162	3.85
486.512	3.85
486.862	3.85
487.212	3.85
487.562	3.86
487.912	3.86
488.262	3.86
488.612	3.87
488.961	3.87
489.311	3.87
489.661	3.86
490.011	3.85
490.36	3.85
490.71	3.86
491.06	3.84
491.409	3.85
491.759	3.84
492.108	3.84
492.458	3.83
492.807	3.84
493.157	3.83
493.506	3.84
493.855	3.84
494.204	3.83
494.554	3.83
494.903	3.8
495.252	3.79
495.601	3.8
495.95	3.81
496.299	3.82
496.648	3.81
496.997	3.83
497.346	3.84
497.695	3.85
498.043	3.85
498.392	3.83
498.741	3.84
499.09	3.83
499.438	3.83
499.787	3.82
500.135	3.83
500.484	3.84
500.832	3.83
501.181	3.85
501.529	3.88
501.878	3.9
502.226	3.91
502.574	3.91
502.923	3.93
503.271	3.9
503.619	3.89
503.967	3.9
504.315	3.89
504.663	3.9
505.011	3.9
505.359	3.91
505.707	3.96
506.055	3.96
506.403	3.98
506.751	4
507.098	3.99
507.446	4.02
507.794	4.01
508.141	4
508.489	3.98
508.837	3.99
509.184	3.99
509.531	3.99
509.879	4.02
510.226	4.01
510.574	4.02
510.921	4.04
511.268	4.04
511.616	4.03
511.963	4.05
512.31	4.06
512.657	4.05
513.004	4.05
513.351	4.04
513.698	4.04
514.045	4.03
514.392	4.04
514.739	4.04
515.086	4.06
515.432	4.08
515.779	4.07
516.126	4.06
516.473	4.06
516.819	4.06
517.166	4.04
517.512	4.04
517.859	4.05
518.205	4.05
518.552	4.06
518.898	4.08
519.245	4.07
519.591	4.06
519.937	4.06
520.283	4.06
520.629	4.07
520.976	4.07
521.322	4.08
521.668	4.1
522.014	4.1
522.36	4.1
522.706	4.1
523.052	4.12
523.398	4.13
523.743	4.13
524.089	4.14
524.435	4.15
524.781	4.17
525.126	4.18
525.472	4.18
525.817	4.18
526.163	4.19
526.509	4.19
526.854	4.2
527.199	4.2
527.545	4.2
527.89	4.21
528.235	4.2
528.581	4.2
528.926	4.18
529.271	4.18
529.616	4.17
529.961	4.18
530.306	4.19
530.651	4.19
530.996	4.2
531.341	4.2
531.686	4.22
532.031	4.21
532.376	4.21
532.721	4.21
533.065	4.22
533.41	4.22
533.755	4.22
534.099	4.24
534.444	4.23
534.788	4.23
535.133	4.23
535.477	4.25
535.822	4.24
536.166	4.24
536.51	4.26
536.855	4.27
537.199	4.27
537.543	4.25
537.887	4.26
538.231	4.25
538.576	4.26
538.92	4.25
539.264	4.24
539.608	4.24
539.951	4.23
540.295	4.22
540.639	4.22
540.983	4.22
541.327	4.2
541.671	4.2
542.014	4.21
542.358	4.21
542.701	4.2
543.045	4.21
543.389	4.24
543.732	4.25
544.075	4.26
544.419	4.27
544.762	4.28
545.105	4.27
545.449	4.29
545.792	4.27
546.135	4.28
546.478	4.28
546.821	4.27
547.165	4.3
547.508	4.31
547.851	4.32
548.194	4.3
548.536	4.31
548.879	4.32
549.222	4.31
549.565	4.31
549.908	4.34
550.25	4.36
550.593	4.36
550.936	4.33
551.278	4.31
551.621	4.31
551.963	4.3
552.306	4.3
552.648	4.29
552.991	4.32
553.333	4.31
553.675	4.32
554.017	4.35
554.36	4.34
554.702	4.36
555.044	4.35
555.386	4.39
555.728	4.39
556.07	4.41
556.412	4.43
556.754	4.43
557.096	4.41
557.438	4.4
557.78	4.4
558.121	4.42
558.463	4.45
558.805	4.44
559.147	4.43
559.488	4.42
559.83	4.39
560.171	4.39
560.513	4.39
560.854	4.38
561.196	4.36
561.537	4.4
561.878	4.38
562.22	4.39
562.561	4.37
562.902	4.38
563.243	4.35
563.584	4.34
563.925	4.38
564.266	4.35
564.607	4.33
564.948	4.35
565.289	4.36
565.63	4.36
565.971	4.36
566.312	4.37
566.653	4.37
566.993	4.39
567.334	4.35
567.675	4.35
568.015	4.35
568.356	4.38
568.696	4.35
569.037	4.36
569.377	4.38
569.718	4.39
570.058	4.38
570.398	4.4
570.739	4.41
571.079	4.38
571.419	4.39
571.759	4.4
572.099	4.37
572.439	4.36
572.779	4.35
573.119	4.38
573.459	4.41
573.799	4.42
574.139	4.43
574.479	4.48
574.819	4.49
575.158	4.47
575.498	4.47
575.838	4.48
576.177	4.47
576.517	4.45
576.856	4.46
577.196	4.47
577.535	4.47
577.875	4.5
578.214	4.5
578.553	4.49
578.893	4.47
579.232	4.48
579.571	4.46
579.91	4.47
580.25	4.46
580.589	4.42
580.928	4.41
581.267	4.4
581.606	4.4
581.945	4.41
582.283	4.42
582.622	4.4
582.961	4.39
583.3	4.38
583.639	4.44
583.977	4.47
584.316	4.42
584.654	4.41
584.993	4.35
585.332	4.35
585.67	4.38
586.008	4.4
586.347	4.41
586.685	4.43
587.024	4.45
587.362	4.41
587.7	4.42
588.038	4.41
588.376	4.41
588.715	4.37
589.053	4.41
589.391	4.42
589.729	4.43
590.067	4.45
590.404	4.46
590.742	4.43
591.08	4.41
591.418	4.48
591.756	4.49
592.093	4.52
592.431	4.54
592.769	4.55
593.106	4.55
593.444	4.53
593.781	4.56
594.119	4.59
594.456	4.62
594.793	4.64
595.131	4.59
595.468	4.61
595.805	4.59
596.143	4.58
596.48	4.55
596.817	4.58
597.154	4.57
597.491	4.57
597.828	4.57
598.165	4.55
598.502	4.53
598.839	4.54
599.176	4.53
599.512	4.53
599.849	4.51
600.186	4.51
600.523	4.55
600.859	4.55
601.196	4.53
601.532	4.52
601.869	4.51
602.205	4.56
602.542	4.53
602.878	4.54
603.215	4.5
603.551	4.53
603.887	4.49
604.223	4.48
604.56	4.52
604.896	4.49
605.232	4.52
605.568	4.52
605.904	4.51
606.24	4.53
606.576	4.51
606.912	4.51
607.248	4.53
607.583	4.51
607.919	4.5
608.255	4.5
608.591	4.51
608.926	4.5
609.262	4.54
609.597	4.58
609.933	4.61
610.268	4.65
610.604	4.66
610.939	4.73
611.275	4.74
611.61	4.73
611.945	4.75
612.281	4.72
612.616	4.71
612.951	4.77
613.286	4.82
613.621	4.83
613.956	4.84
614.291	4.84
614.626	4.89
614.961	4.86
615.296	4.85
615.631	4.91
615.966	4.91
616.3	4.91
616.635	4.9
616.97	4.87
617.304	4.84
617.639	4.81
617.973	4.78
618.308	4.76
618.642	4.76
618.977	4.76
619.311	4.81
619.646	4.86
619.98	4.79
620.314	4.74
620.648	4.78
620.983	4.8
621.317	4.83
621.651	4.76
621.985	4.81
622.319	4.81
622.653	4.76
622.987	4.81
623.321	4.81
623.655	4.8
623.988	4.84
624.322	4.85
624.656	4.9
624.99	4.9
625.323	4.89
625.657	4.91
625.99	4.95
626.324	4.94
626.657	4.94
626.991	4.99
627.324	4.98
627.658	4.99
627.991	4.97
628.324	4.94
628.657	4.98
628.991	4.98
629.324	5.01
629.657	4.98
629.99	5.02
630.323	5
630.656	5.02
630.989	4.99
631.322	5.06
631.655	5.01
631.987	4.99
632.32	5.01
632.653	4.98
632.986	4.99
633.318	4.97
633.651	4.95
633.984	4.95
634.316	4.99
634.649	5
634.981	5.03
635.313	5.01
635.646	4.96
635.978	4.95
636.31	4.93
636.643	4.98
636.975	4.92
637.307	4.94
637.639	4.96
637.971	4.96
638.303	4.87
638.635	4.85
638.967	4.88
639.299	4.92
639.631	4.93
639.963	4.89
640.295	4.9
640.626	4.97
640.958	4.98
641.29	5
641.621	4.9
641.953	4.89
642.285	4.95
642.616	5.02
642.948	5.01
643.279	4.97
643.61	4.99
643.942	4.92
644.273	4.93
644.604	4.89
644.936	4.96
645.267	4.99
645.598	5.09
645.929	5.11
646.26	5.09
646.591	5.08
646.922	5.1
647.253	5.09
647.584	5.01
647.915	4.93
648.245	4.86
648.576	4.95
648.907	5.01
649.238	5.02
649.568	5.02
649.899	5
650.229	5.06
650.56	5.05
650.89	5.15
651.221	5.12
651.551	5.13
651.882	5.1
652.212	5.13
652.542	5.1
652.872	5.09
653.203	5.15
653.533	5.2
653.863	5.15
654.193	5.2
654.523	5.22
654.853	5.32
655.183	5.36
655.513	5.37
655.843	5.26
656.172	5.19
656.502	5.18
656.832	5.21
657.162	5.22
657.491	5.16
657.821	5.15
658.15	5.2
658.48	5.2
658.809	5.19
659.139	5.2
659.468	5.18
659.798	5.17
660.127	5.18
660.456	5.15
660.785	5.15
661.115	5.16
661.444	5.19
661.773	5.15
662.102	5.2
662.431	5.15
662.76	5.18
663.089	5.21
663.418	5.26
663.747	5.3
664.076	5.28
664.404	5.38
664.733	5.46
665.062	5.41
665.39	5.48
665.719	5.48
666.048	5.53
666.376	5.54
666.705	5.47
667.033	5.42
667.362	5.5
667.69	5.55
668.018	5.5
668.347	5.45
668.675	5.4
669.003	5.33
669.331	5.42
669.659	5.42
669.987	5.39
670.315	5.4
670.643	5.45
670.971	5.47
671.299	5.46
671.627	5.35
671.955	5.37
672.283	5.41
672.61	5.44
672.938	5.35
673.266	5.41
673.593	5.52
673.921	5.54
674.249	5.55
674.576	5.46
674.904	5.57
675.231	5.56
675.558	5.6
675.886	5.64
676.213	5.61
676.54	5.62
676.867	5.78
677.195	5.68
677.522	5.61
677.849	5.61
678.176	5.67
678.503	5.64
678.83	5.61
679.157	5.51
679.484	5.46
