Data from BA28468_Reflection_00011.txt Node
Date: Mon Nov 18 15:15:05 EST 2019
User: vgr7
Spectrometer: USB2G7710
Scans to average: 3
Trigger mode: 4
Integration Time (sec): 2.000000E-2
Electric dark correction enabled: true
Boxcar width: 10
XAxis mode: Wavelengths
Number of Pixels in Spectrum: 2048
>>>>>Begin Spectral Data<<<<<
177.721	-71.79
178.105	-3042.86
178.488	40.09
178.871	91.63
179.254	124.12
179.636	-228.95
180.019	62.77
180.402	50.91
180.785	29.16
181.168	-58.84
181.55	-16.12
181.933	-1323.53
182.316	-323.38
182.698	-188.98
183.081	-111.68
183.463	-118.21
183.846	-10130.77
184.228	-939.74
184.611	-220.35
184.993	-112.54
185.376	-63.9
185.758	-31.76
186.14	-24.72
186.522	-7.88
186.904	-3.84
187.287	-12.07
187.669	10.31
188.051	15.47
188.433	12.89
188.815	20.06
189.197	28.86
189.579	29.34
189.961	54.11
190.342	59.22
190.724	44.64
191.106	37.81
191.488	40.58
191.869	34.64
192.251	32.67
192.633	36.82
193.014	30.12
193.396	33.38
193.777	30.88
194.159	31.34
194.54	34.91
194.922	41.48
195.303	41.69
195.684	39.65
196.065	40.94
196.447	49.5
196.828	48.42
197.209	44.4
197.59	49.19
197.971	45.13
198.352	46.07
198.733	50.65
199.114	60.96
199.495	56.06
199.876	60.89
200.257	60.78
200.638	61.11
201.018	75.62
201.399	73.6
201.78	69.85
202.16	59.55
202.541	46.41
202.922	36.12
203.302	34.27
203.683	30.3
204.063	22.32
204.444	25.87
204.824	14.79
205.204	33.07
205.585	22.4
205.965	20.19
206.345	10.53
206.725	6.43
207.106	-7.66
207.486	-14.12
207.866	0.07
208.246	0.63
208.626	-4.56
209.006	-4.91
209.386	-8.57
209.766	8.74
210.145	15.15
210.525	39.43
210.905	59.5
211.285	59.5
211.664	64.22
212.044	71.78
212.424	58.74
212.803	62.14
213.183	54.82
213.562	57.93
213.942	59.08
214.321	77.54
214.701	58.52
215.08	52.85
215.459	57.94
215.838	47.71
216.218	43.76
216.597	50.14
216.976	61.83
217.355	61.26
217.734	51.19
218.113	56.61
218.492	44.96
218.871	25.36
219.25	24.98
219.629	24.09
220.008	24.9
220.387	25.54
220.766	25.77
221.144	20.04
221.523	19.06
221.902	11.46
222.28	-5.92
222.659	4.34
223.037	2.48
223.416	4.06
223.794	7.9
224.173	21.68
224.551	16.4
224.929	8.83
225.308	7.52
225.686	7.8
226.064	1.02
226.442	1.11
226.821	6.14
227.199	3.01
227.577	4.62
227.955	3.69
228.333	0.89
228.711	3.66
229.089	7.96
229.467	6.59
229.845	7.06
230.222	9.28
230.6	6.44
230.978	8.59
231.356	8.34
231.733	8.12
232.111	7.24
232.488	6.6
232.866	7.8
233.243	7.83
233.621	9.01
233.998	11.05
234.376	9.07
234.753	8.96
235.13	9.6
235.508	9.71
235.885	10.57
236.262	11.14
236.639	10.67
237.016	8.69
237.393	9
237.77	10.22
238.147	9.67
238.524	9.21
238.901	8.54
239.278	8.8
239.655	8.76
240.032	7.62
240.409	7.46
240.785	6.61
241.162	6.65
241.539	6.71
241.915	6.44
242.292	6.42
242.668	6.3
243.045	5.93
243.421	5.58
243.798	5.42
244.174	5.3
244.551	5.16
244.927	5.14
245.303	5.12
245.679	4.78
246.056	4.68
246.432	4.65
246.808	4.83
247.184	4.72
247.56	4.77
247.936	4.83
248.312	4.92
248.688	5.05
249.064	4.73
249.44	4.69
249.815	4.71
250.191	5.04
250.567	5.08
250.943	5.18
251.318	5.27
251.694	5.27
252.069	5.35
252.445	5.33
252.82	5.53
253.196	5.53
253.571	5.61
253.947	5.59
254.322	5.87
254.697	5.65
255.073	5.1
255.448	4.82
255.823	4.69
256.198	4.66
256.573	4.54
256.948	4.59
257.323	4.41
257.698	4.37
258.073	4.23
258.448	4.12
258.823	3.99
259.198	3.95
259.573	3.94
259.948	3.91
260.322	4.1
260.697	4
261.072	3.89
261.446	3.98
261.821	4.01
262.195	4.07
262.57	4.1
262.944	4.37
263.319	4.33
263.693	4.4
264.067	4.48
264.442	4.46
264.816	4.65
265.19	4.53
265.564	4.6
265.938	4.62
266.313	4.62
266.687	4.77
267.061	4.7
267.435	4.67
267.809	4.74
268.183	4.56
268.556	4.56
268.93	4.51
269.304	4.38
269.678	4.57
270.051	4.54
270.425	4.49
270.799	4.31
271.172	4.44
271.546	4.45
271.919	4.28
272.293	4.39
272.666	4.3
273.04	4.45
273.413	4.37
273.787	4.44
274.16	4.41
274.533	4.37
274.906	4.34
275.279	4.33
275.653	4.22
276.026	4.15
276.399	4.2
276.772	4.39
277.145	4.4
277.518	4.32
277.891	4.36
278.263	4.24
278.636	4.24
279.009	4.1
279.382	4.07
279.755	4.05
280.127	4.18
280.5	4.3
280.872	4.17
281.245	4.14
281.617	4.01
281.99	4.07
282.362	4.05
282.735	4.01
283.107	4.04
283.479	4.16
283.852	4.17
284.224	4.09
284.596	3.97
284.968	3.98
285.34	4.01
285.713	3.88
286.085	3.95
286.457	4.02
286.829	4.1
287.201	4.15
287.572	4.23
287.944	4.1
288.316	4.02
288.688	4.03
289.06	4.07
289.431	4.2
289.803	4.3
290.175	4.23
290.546	4.43
290.918	4.39
291.289	4.42
291.661	4.59
292.032	4.58
292.403	4.59
292.775	4.67
293.146	4.52
293.517	4.53
293.889	4.66
294.26	4.66
294.631	4.6
295.002	4.47
295.373	4.45
295.744	4.51
296.115	4.44
296.486	4.41
296.857	4.36
297.228	4.39
297.599	4.28
297.97	4.37
298.34	4.3
298.711	4.29
299.082	4.23
299.452	4.15
299.823	4.17
300.194	4.22
300.564	4.12
300.935	4.23
301.305	4.24
301.676	4.17
302.046	4.12
302.416	4.19
302.787	4.24
303.157	4.28
303.527	4.12
303.897	4.3
304.267	4.56
304.637	4.55
305.008	4.49
305.378	4.45
305.748	4.55
306.117	4.54
306.487	4.55
306.857	4.59
307.227	4.54
307.597	4.61
307.967	4.68
308.336	4.69
308.706	4.57
309.076	4.59
309.445	4.54
309.815	4.57
310.184	4.53
310.554	4.52
310.923	4.51
311.293	4.59
311.662	4.5
312.031	4.35
312.401	4.45
312.77	4.45
313.139	4.63
313.508	4.66
313.877	4.68
314.246	4.77
314.616	4.72
314.985	4.81
315.353	4.77
315.722	4.71
316.091	4.73
316.46	4.86
316.829	4.92
317.198	4.95
317.567	5.04
317.935	5.09
318.304	5.21
318.672	5.32
319.041	5.49
319.41	5.63
319.778	5.72
320.147	5.73
320.515	5.77
320.883	5.65
321.252	5.69
321.62	5.74
321.988	5.75
322.357	5.79
322.725	5.83
323.093	5.86
323.461	5.83
323.829	5.94
324.197	5.99
324.565	6.06
324.933	6.18
325.301	6.23
325.669	6.13
326.037	6.05
326.405	5.93
326.772	5.94
327.14	6.02
327.508	6.05
327.875	6.02
328.243	6.07
328.61	6.11
328.978	6.06
329.346	6.14
329.713	6.1
330.08	6.16
330.448	6.13
330.815	6.07
331.182	6.07
331.55	6.07
331.917	6.11
332.284	6.04
332.651	6.01
333.018	5.97
333.385	6.11
333.752	6.22
334.119	6.38
334.486	6.29
334.853	6.22
335.22	6.16
335.587	6.35
335.954	6.27
336.32	6.25
336.687	6.29
337.054	6.2
337.42	6.3
337.787	6.27
338.153	6.33
338.52	6.47
338.886	6.48
339.253	6.44
339.619	6.42
339.986	6.44
340.352	6.45
340.718	6.39
341.084	6.34
341.451	6.4
341.817	6.31
342.183	6.36
342.549	6.26
342.915	6.4
343.281	6.29
343.647	6.32
344.013	6.37
344.379	6.33
344.745	6.42
345.11	6.46
345.476	6.45
345.842	6.37
346.208	6.31
346.573	6.44
346.939	6.53
347.304	6.46
347.67	6.44
348.035	6.4
348.401	6.52
348.766	6.54
349.132	6.6
349.497	6.6
349.862	6.55
350.228	6.62
350.593	6.52
350.958	6.49
351.323	6.56
351.688	6.55
352.053	6.6
352.418	6.58
352.783	6.54
353.148	6.52
353.513	6.58
353.878	6.62
354.243	6.58
354.608	6.54
354.972	6.66
355.337	6.68
355.702	6.74
356.066	6.76
356.431	6.77
356.795	6.68
357.16	6.66
357.524	6.66
357.889	6.62
358.253	6.66
358.618	6.72
358.982	6.67
359.346	6.59
359.71	6.52
360.075	6.48
360.439	6.47
360.803	6.49
361.167	6.49
361.531	6.42
361.895	6.33
362.259	6.24
362.623	6.2
362.987	6.24
363.351	6.29
363.714	6.21
364.078	6.19
364.442	6.16
364.806	6.16
365.169	6.15
365.533	6.18
365.896	6.15
366.26	6.06
366.623	6.01
366.987	6.06
367.35	6.09
367.714	6.07
368.077	6.04
368.44	5.97
368.803	5.86
369.167	5.84
369.53	5.88
369.893	5.95
370.256	5.89
370.619	5.84
370.982	5.7
371.345	5.69
371.708	5.68
372.071	5.65
372.434	5.64
372.797	5.59
373.159	5.48
373.522	5.46
373.885	5.49
374.247	5.48
374.61	5.45
374.973	5.38
375.335	5.33
375.698	5.33
376.06	5.33
376.423	5.32
376.785	5.36
377.147	5.39
377.51	5.37
377.872	5.4
378.234	5.33
378.596	5.34
378.958	5.25
379.321	5.22
379.683	5.2
380.045	5.14
380.407	5.14
380.769	5.17
381.13	5.1
381.492	5.06
381.854	5.05
382.216	4.99
382.578	4.98
382.939	4.95
383.301	4.89
383.663	4.85
384.024	4.85
384.386	4.84
384.747	4.79
385.109	4.76
385.47	4.68
385.832	4.67
386.193	4.7
386.554	4.7
386.916	4.72
387.277	4.72
387.638	4.73
387.999	4.68
388.36	4.67
388.721	4.71
389.082	4.69
389.443	4.65
389.804	4.63
390.165	4.61
390.526	4.61
390.887	4.61
391.248	4.63
391.609	4.62
391.969	4.61
392.33	4.56
392.691	4.52
393.051	4.51
393.412	4.49
393.772	4.41
394.133	4.37
394.493	4.32
394.854	4.32
395.214	4.27
395.574	4.23
395.935	4.23
396.295	4.2
396.655	4.13
397.015	4.1
397.376	4.09
397.736	4.07
398.096	4.04
398.456	3.96
398.816	3.92
399.176	3.85
399.535	3.8
399.895	3.79
400.255	3.83
400.615	3.86
400.975	3.87
401.334	3.87
401.694	3.89
402.054	3.9
402.413	3.87
402.773	3.84
403.132	3.83
403.492	3.8
403.851	3.77
404.211	3.81
404.57	3.81
404.929	3.79
405.288	3.77
405.648	3.75
406.007	3.79
406.366	3.78
406.725	3.83
407.084	3.82
407.443	3.8
407.802	3.77
408.161	3.73
408.52	3.68
408.879	3.66
409.238	3.63
409.596	3.6
409.955	3.55
410.314	3.58
410.673	3.59
411.031	3.6
411.39	3.6
411.748	3.59
412.107	3.6
412.465	3.61
412.824	3.6
413.182	3.59
413.54	3.56
413.899	3.57
414.257	3.57
414.615	3.54
414.974	3.53
415.332	3.51
415.69	3.48
416.048	3.46
416.406	3.45
416.764	3.47
417.122	3.46
417.48	3.48
417.838	3.46
418.195	3.45
418.553	3.43
418.911	3.41
419.269	3.41
419.626	3.39
419.984	3.38
420.342	3.38
420.699	3.39
421.057	3.4
421.414	3.38
421.772	3.35
422.129	3.35
422.486	3.35
422.844	3.35
423.201	3.34
423.558	3.35
423.915	3.36
424.273	3.35
424.63	3.34
424.987	3.33
425.344	3.33
425.701	3.33
426.058	3.33
426.415	3.33
426.772	3.31
427.128	3.32
427.485	3.32
427.842	3.33
428.199	3.32
428.555	3.31
428.912	3.32
429.269	3.34
429.625	3.33
429.982	3.32
430.338	3.33
430.695	3.35
431.051	3.33
431.407	3.32
431.764	3.31
432.12	3.31
432.476	3.3
432.832	3.28
433.189	3.27
433.545	3.26
433.901	3.26
434.257	3.26
434.613	3.27
434.969	3.26
435.325	3.25
435.681	3.25
436.036	3.25
436.392	3.22
436.748	3.18
437.104	3.19
437.459	3.19
437.815	3.18
438.171	3.19
438.526	3.2
438.882	3.21
439.237	3.22
439.593	3.22
439.948	3.21
440.304	3.22
440.659	3.23
441.014	3.24
441.369	3.22
441.725	3.21
442.08	3.19
442.435	3.19
442.79	3.19
443.145	3.19
443.5	3.19
443.855	3.2
444.21	3.22
444.565	3.21
444.92	3.23
445.275	3.22
445.629	3.22
445.984	3.22
446.339	3.2
446.693	3.18
447.048	3.18
447.403	3.19
447.757	3.18
448.112	3.17
448.466	3.16
448.82	3.16
449.175	3.16
449.529	3.16
449.883	3.15
450.238	3.14
450.592	3.14
450.946	3.14
451.3	3.13
451.654	3.14
452.008	3.14
452.362	3.12
452.716	3.12
453.07	3.12
453.424	3.11
453.778	3.1
454.132	3.11
454.486	3.11
454.839	3.11
455.193	3.09
455.547	3.1
455.9	3.11
456.254	3.13
456.607	3.12
456.961	3.13
457.314	3.14
457.668	3.13
458.021	3.13
458.375	3.12
458.728	3.13
459.081	3.12
459.434	3.12
459.787	3.13
460.141	3.13
460.494	3.13
460.847	3.13
461.2	3.14
461.553	3.16
461.906	3.15
462.259	3.18
462.611	3.19
462.964	3.22
463.317	3.21
463.67	3.22
464.022	3.24
464.375	3.23
464.728	3.24
465.08	3.24
465.433	3.25
465.785	3.27
466.138	3.27
466.49	3.27
466.843	3.28
467.195	3.27
467.547	3.28
467.899	3.27
468.252	3.28
468.604	3.29
468.956	3.26
469.308	3.28
469.66	3.24
470.012	3.26
470.364	3.25
470.716	3.25
471.068	3.25
471.42	3.25
471.772	3.27
472.123	3.28
472.475	3.31
472.827	3.3
473.178	3.29
473.53	3.27
473.882	3.26
474.233	3.27
474.585	3.26
474.936	3.26
475.288	3.29
475.639	3.3
475.99	3.32
476.342	3.31
476.693	3.31
477.044	3.3
477.395	3.3
477.746	3.31
478.097	3.28
478.448	3.26
478.8	3.24
479.15	3.21
479.501	3.23
479.852	3.22
480.203	3.23
480.554	3.24
480.905	3.26
481.255	3.26
481.606	3.26
481.957	3.26
482.307	3.27
482.658	3.25
483.009	3.24
483.359	3.24
483.709	3.24
484.06	3.24
484.41	3.25
484.761	3.25
485.111	3.26
485.461	3.26
485.811	3.27
486.162	3.28
486.512	3.29
486.862	3.29
487.212	3.29
487.562	3.29
487.912	3.29
488.262	3.29
488.612	3.29
488.961	3.29
489.311	3.3
489.661	3.29
490.011	3.29
490.36	3.3
490.71	3.3
491.06	3.31
491.409	3.32
491.759	3.32
492.108	3.32
492.458	3.31
492.807	3.32
493.157	3.33
493.506	3.34
493.855	3.32
494.204	3.32
494.554	3.32
494.903	3.31
495.252	3.32
495.601	3.32
495.95	3.35
496.299	3.36
496.648	3.36
496.997	3.37
497.346	3.4
497.695	3.4
498.043	3.42
498.392	3.44
498.741	3.45
499.09	3.44
499.438	3.47
499.787	3.51
500.135	3.53
500.484	3.55
500.832	3.58
501.181	3.62
501.529	3.64
501.878	3.69
502.226	3.71
502.574	3.74
502.923	3.78
503.271	3.79
503.619	3.84
503.967	3.84
504.315	3.89
504.663	3.9
505.011	3.93
505.359	3.95
505.707	3.98
506.055	3.99
506.403	4.04
506.751	4.06
507.098	4.08
507.446	4.1
507.794	4.1
508.141	4.13
508.489	4.16
508.837	4.19
509.184	4.19
509.531	4.23
509.879	4.27
510.226	4.3
510.574	4.33
510.921	4.34
511.268	4.38
511.616	4.4
511.963	4.43
512.31	4.46
512.657	4.5
513.004	4.52
513.351	4.57
513.698	4.6
514.045	4.62
514.392	4.64
514.739	4.69
515.086	4.75
515.432	4.77
515.779	4.79
516.126	4.84
516.473	4.89
516.819	4.91
517.166	4.93
517.512	4.97
517.859	5.01
518.205	5.04
518.552	5.07
518.898	5.1
519.245	5.13
519.591	5.15
519.937	5.18
520.283	5.23
520.629	5.27
520.976	5.3
521.322	5.36
521.668	5.38
522.014	5.43
522.36	5.47
522.706	5.52
523.052	5.59
523.398	5.67
523.743	5.75
524.089	5.82
524.435	5.9
524.781	5.95
525.126	6.02
525.472	6.09
525.817	6.14
526.163	6.18
526.509	6.25
526.854	6.3
527.199	6.36
527.545	6.42
527.89	6.46
528.235	6.52
528.581	6.59
528.926	6.64
529.271	6.69
529.616	6.74
529.961	6.8
530.306	6.86
530.651	6.91
530.996	6.97
531.341	7.04
531.686	7.11
532.031	7.2
532.376	7.27
532.721	7.35
533.065	7.43
533.41	7.53
533.755	7.63
534.099	7.72
534.444	7.82
534.788	7.91
535.133	8.01
535.477	8.1
535.822	8.2
536.166	8.35
536.51	8.51
536.855	8.66
537.199	8.83
537.543	8.99
537.887	9.17
538.231	9.33
538.576	9.49
538.92	9.66
539.264	9.82
539.608	9.98
539.951	10.13
540.295	10.28
540.639	10.44
540.983	10.59
541.327	10.75
541.671	10.92
542.014	11.07
542.358	11.22
542.701	11.39
543.045	11.56
543.389	11.71
543.732	11.87
544.075	12.06
544.419	12.23
544.762	12.43
545.105	12.6
545.449	12.84
545.792	13.08
546.135	13.3
546.478	13.55
546.821	13.83
547.165	14.1
547.508	14.36
547.851	14.62
548.194	14.89
548.536	15.16
548.879	15.42
549.222	15.72
549.565	16.1
549.908	16.42
550.25	16.72
550.593	17.05
550.936	17.35
551.278	17.67
551.621	17.99
551.963	18.31
552.306	18.66
552.648	18.97
552.991	19.25
553.333	19.55
553.675	19.84
554.017	20.09
554.36	20.42
554.702	20.78
555.044	21.12
555.386	21.45
555.728	21.76
556.07	22.13
556.412	22.47
556.754	22.73
557.096	23.05
557.438	23.4
557.78	23.76
558.121	24.12
558.463	24.52
558.805	24.87
559.147	25.21
559.488	25.58
559.83	25.92
560.171	26.28
560.513	26.68
560.854	27.09
561.196	27.49
561.537	27.87
561.878	28.2
562.22	28.56
562.561	28.92
562.902	29.3
563.243	29.63
563.584	29.93
563.925	30.29
564.266	30.62
564.607	30.96
564.948	31.26
565.289	31.55
565.63	31.85
565.971	32.15
566.312	32.43
566.653	32.72
566.993	33.05
567.334	33.33
567.675	33.64
568.015	33.93
568.356	34.21
568.696	34.5
569.037	34.81
569.377	35.05
569.718	35.29
570.058	35.59
570.398	35.88
570.739	36.21
571.079	36.49
571.419	36.82
571.759	37.12
572.099	37.42
572.439	37.69
572.779	37.9
573.119	38.23
573.459	38.54
573.799	38.77
574.139	38.97
574.479	39.25
574.819	39.47
575.158	39.7
575.498	39.94
575.838	40.22
576.177	40.46
576.517	40.74
576.856	41.07
577.196	41.27
577.535	41.54
577.875	41.83
578.214	42.05
578.553	42.24
578.893	42.45
579.232	42.66
579.571	42.94
579.91	43.18
580.25	43.31
580.589	43.5
580.928	43.72
581.267	43.98
581.606	44.19
581.945	44.42
582.283	44.61
582.622	44.82
582.961	45.01
583.3	45.17
583.639	45.37
583.977	45.58
584.316	45.75
584.654	45.86
584.993	45.98
585.332	46.23
585.67	46.39
586.008	46.61
586.347	46.77
586.685	46.95
587.024	47.11
587.362	47.32
587.7	47.56
588.038	47.78
588.376	47.96
588.715	48.14
589.053	48.3
589.391	48.52
589.729	48.67
590.067	48.76
590.404	48.89
590.742	49.04
591.08	49.14
591.418	49.39
591.756	49.6
592.093	49.77
592.431	49.86
592.769	50.04
593.106	50.1
593.444	50.17
593.781	50.31
594.119	50.44
594.456	50.57
594.793	50.64
595.131	50.68
595.468	50.81
595.805	50.96
596.143	51.07
596.48	51.17
596.817	51.32
597.154	51.46
597.491	51.61
597.828	51.72
598.165	51.8
598.502	51.92
598.839	52
599.176	52.11
599.512	52.28
599.849	52.31
600.186	52.45
600.523	52.64
600.859	52.74
601.196	52.87
601.532	52.91
601.869	53.07
602.205	53.23
602.542	53.3
602.878	53.31
603.215	53.34
603.551	53.38
603.887	53.4
604.223	53.47
604.56	53.48
604.896	53.61
605.232	53.73
605.568	53.77
605.904	53.84
606.24	53.94
606.576	54.02
606.912	54.12
607.248	54.23
607.583	54.26
607.919	54.32
608.255	54.42
608.591	54.55
608.926	54.52
609.262	54.61
609.597	54.71
609.933	54.81
610.268	54.93
610.604	55.08
610.939	55.13
611.275	55.24
611.61	55.32
611.945	55.41
612.281	55.46
612.616	55.47
612.951	55.54
613.286	55.67
613.621	55.61
613.956	55.72
614.291	55.78
614.626	56.01
614.961	56.11
615.296	56.2
615.631	56.24
615.966	56.37
616.3	56.41
616.635	56.4
616.97	56.42
617.304	56.49
617.639	56.51
617.973	56.59
618.308	56.66
618.642	56.82
618.977	56.77
619.311	56.86
619.646	56.91
619.98	56.96
620.314	57.04
620.648	57.11
620.983	57.13
621.317	57.19
621.651	57.09
621.985	57.13
622.319	57.21
622.653	57.35
622.987	57.51
623.321	57.53
623.655	57.57
623.988	57.69
624.322	57.72
624.656	57.68
624.99	57.81
625.323	57.77
625.657	57.77
625.99	57.94
626.324	57.98
626.657	58.04
626.991	58.11
627.324	58.06
627.658	58.15
627.991	58.24
628.324	58.3
628.657	58.38
628.991	58.43
629.324	58.44
629.657	58.4
629.99	58.36
630.323	58.35
630.656	58.37
630.989	58.33
631.322	58.37
631.655	58.46
631.987	58.43
632.32	58.62
632.653	58.64
632.986	58.55
633.318	58.52
633.651	58.63
633.984	58.69
634.316	58.71
634.649	58.64
634.981	58.61
635.313	58.64
635.646	58.64
635.978	58.64
636.31	58.64
636.643	58.7
636.975	58.72
637.307	58.8
637.639	58.83
637.971	58.95
638.303	59.04
638.635	59.08
638.967	59.07
639.299	59.07
639.631	59.06
639.963	59.12
640.295	59.21
640.626	59.08
640.958	59
641.29	59.03
641.621	59.18
641.953	59.28
642.285	59.31
642.616	59.34
642.948	59.39
643.279	59.39
643.61	59.33
643.942	59.28
644.273	59.32
644.604	59.46
644.936	59.5
645.267	59.4
645.598	59.45
645.929	59.49
646.26	59.42
646.591	59.62
646.922	59.69
647.253	59.66
647.584	59.77
647.915	59.84
648.245	59.86
648.576	59.88
648.907	59.93
649.238	59.89
649.568	59.92
649.899	59.93
650.229	60.03
650.56	60.14
650.89	60.2
651.221	60.18
651.551	60.15
651.882	60.05
652.212	60.05
652.542	60.11
652.872	60.1
653.203	60.13
653.533	60.19
653.863	60.29
654.193	60.24
654.523	60.33
654.853	60.4
655.183	60.49
655.513	60.6
655.843	60.57
656.172	60.67
656.502	60.79
656.832	60.88
657.162	60.83
657.491	60.89
657.821	60.94
658.15	60.92
658.48	60.91
658.809	61.11
659.139	61.16
659.468	61.14
659.798	61.16
660.127	61.23
660.456	61.14
660.785	61.09
661.115	61.2
661.444	61.24
661.773	61.24
662.102	61.2
662.431	61.14
662.76	61.1
663.089	61.15
663.418	61.05
663.747	61.1
664.076	61.11
664.404	61.11
664.733	61.19
665.062	61.29
665.39	61.36
665.719	61.24
666.048	61.4
666.376	61.37
666.705	61.38
667.033	61.34
667.362	61.28
667.69	61.29
668.018	61.22
668.347	61.25
668.675	61.26
669.003	61.37
669.331	61.46
669.659	61.49
669.987	61.55
670.315	61.76
