Data from BA28471_Reflection_00002.txt Node
Date: Mon Nov 18 15:20:55 EST 2019
User: vgr7
Spectrometer: USB2G7710
Scans to average: 3
Trigger mode: 4
Integration Time (sec): 2.000000E-2
Electric dark correction enabled: true
Boxcar width: 10
XAxis mode: Wavelengths
Number of Pixels in Spectrum: 2048
>>>>>Begin Spectral Data<<<<<
177.721	760.91
178.105	-108.09
178.488	-5.19
178.871	-3.34
179.254	-2.65
179.636	-134.53
180.019	-131.36
180.402	97.44
180.785	-116.87
181.168	37.64
181.55	11.21
181.933	61.66
182.316	69.68
182.698	104.65
183.081	123.92
183.463	156.66
183.846	323.66
184.228	367.16
184.611	516.33
184.993	3824.14
185.376	-646.54
185.758	-287.1
186.14	-1688.08
186.522	-14426.32
186.904	929.97
187.287	623.19
187.669	-723.22
188.051	-452.54
188.433	-280.31
188.815	-248.08
189.197	-244.75
189.579	-198.02
189.961	-170.48
190.342	-153.87
190.724	-142.15
191.106	-123.41
191.488	-157.11
191.869	-133.94
192.251	-139.49
192.633	-209.19
193.014	-418.05
193.396	-546.5
193.777	-573.6
194.159	-841.54
194.54	-264.99
194.922	-164.38
195.303	-272.36
195.684	-255.12
196.065	-77.84
196.447	-73.48
196.828	-99.68
197.209	-16.19
197.59	-44.31
197.971	-32.16
198.352	-61.15
198.733	-93.03
199.114	61.62
199.495	35.74
199.876	-8.29
200.257	-14.23
200.638	-20.61
201.018	-21.63
201.399	-21.72
201.78	-14.41
202.16	-18.28
202.541	-21.89
202.922	-33.1
203.302	-41.93
203.683	-41.53
204.063	-72.43
204.444	-60.4
204.824	-59.21
205.204	-36.33
205.585	-29.66
205.965	-27.81
206.345	-20.76
206.725	-38.41
207.106	-49.32
207.486	-57.49
207.866	-38.47
208.246	-49.12
208.626	-51.84
209.006	-48.06
209.386	-68.6
209.766	-72.8
210.145	-59.08
210.525	-50.66
210.905	-0.87
211.285	-3.36
211.664	7.77
212.044	14
212.424	20.39
212.803	21.32
213.183	6.63
213.562	-0.44
213.942	11.52
214.321	5.73
214.701	20.34
215.08	14.45
215.459	3.54
215.838	-0.79
216.218	8.79
216.597	15.85
216.976	13.12
217.355	17.16
217.734	11.37
218.113	9.65
218.492	16.99
218.871	-12.57
219.25	-11.51
219.629	-38.51
220.008	-44.13
220.387	-42.42
220.766	-44.88
221.144	-52.9
221.523	-67.98
221.902	-94.49
222.28	-110.76
222.659	-63.37
223.037	-56.59
223.416	-48.87
223.794	-61.3
224.173	-54.99
224.551	-45.75
224.929	-45.47
225.308	-31.48
225.686	-22.32
226.064	-15.24
226.442	-20.92
226.821	-11.95
227.199	-9.67
227.577	-12.39
227.955	-9.62
228.333	-10.98
228.711	-8.22
229.089	-5.49
229.467	-4.04
229.845	-1.87
230.222	-0.33
230.6	-3.7
230.978	-1.55
231.356	0.12
231.733	0.4
232.111	2.24
232.488	4.17
232.866	4.88
233.243	5.18
233.621	4.23
233.998	5.65
234.376	4.33
234.753	4.64
235.13	5.37
235.508	6.52
235.885	6.9
236.262	6.42
236.639	6.11
237.016	5.46
237.393	7.45
237.77	7.55
238.147	8.26
238.524	9.26
238.901	8.21
239.278	8.21
239.655	8.41
240.032	8.28
240.409	7.72
240.785	7.86
241.162	7.76
241.539	8.09
241.915	7.2
242.292	7.55
242.668	7.16
243.045	7.13
243.421	7.27
243.798	6.89
244.174	6.91
244.551	6.95
244.927	6.99
245.303	6.64
245.679	6.65
246.056	6.46
246.432	6.22
246.808	6.19
247.184	5.8
247.56	5.49
247.936	5.37
248.312	5.24
248.688	5.21
249.064	4.99
249.44	4.9
249.815	5.06
250.191	5
250.567	5.05
250.943	5.07
251.318	5.39
251.694	5.45
252.069	5.36
252.445	5.39
252.82	5.11
253.196	5.03
253.571	4.87
253.947	5.01
254.322	5.25
254.697	5.23
255.073	5.65
255.448	5.75
255.823	5.61
256.198	5.78
256.573	5.7
256.948	5.8
257.323	5.68
257.698	5.68
258.073	5.55
258.448	5.7
258.823	5.54
259.198	5.29
259.573	5.27
259.948	5.44
260.322	5.4
260.697	5.43
261.072	5.24
261.446	5.28
261.821	5.18
262.195	5.13
262.57	5.07
262.944	4.98
263.319	5.03
263.693	5.07
264.067	5.11
264.442	5.14
264.816	5.09
265.19	5.01
265.564	5.02
265.938	5.11
266.313	4.86
266.687	4.88
267.061	5.02
267.435	5.07
267.809	4.93
268.183	5.09
268.556	5.09
268.93	5.34
269.304	5.3
269.678	5.31
270.051	5.32
270.425	5.43
270.799	5.39
271.172	5.43
271.546	5.36
271.919	5.22
272.293	5.17
272.666	5.35
273.04	5.41
273.413	5.27
273.787	5.27
274.16	5.31
274.533	5.31
274.906	5.24
275.279	5.04
275.653	5.01
276.026	4.7
276.399	4.77
276.772	4.78
277.145	4.75
277.518	5.05
277.891	4.99
278.263	4.96
278.636	5.01
279.009	4.88
279.382	4.96
279.755	4.82
280.127	5
280.5	4.97
280.872	5.07
281.245	5.18
281.617	5.24
281.99	5.32
282.362	5.27
282.735	5.28
283.107	5.47
283.479	5.61
283.852	5.77
284.224	5.71
284.596	5.74
284.968	5.63
285.34	5.41
285.713	5.38
286.085	5.37
286.457	5.52
286.829	5.67
287.201	5.59
287.572	5.65
287.944	5.44
288.316	5.43
288.688	5.43
289.06	5.52
289.431	5.39
289.803	5.36
290.175	5.56
290.546	5.52
290.918	5.55
291.289	5.49
291.661	5.37
292.032	5.7
292.403	5.54
292.775	5.65
293.146	5.59
293.517	5.68
293.889	5.79
294.26	5.66
294.631	5.52
295.002	5.58
295.373	5.62
295.744	5.59
296.115	5.53
296.486	5.43
296.857	5.4
297.228	5.51
297.599	5.59
297.97	5.39
298.34	5.44
298.711	5.54
299.082	5.52
299.452	5.6
299.823	5.48
300.194	5.45
300.564	5.43
300.935	5.54
301.305	5.37
301.676	5.37
302.046	5.35
302.416	5.43
302.787	5.49
303.157	5.53
303.527	5.71
303.897	5.68
304.267	5.78
304.637	5.84
305.008	5.89
305.378	5.91
305.748	6.1
306.117	6.05
306.487	5.97
306.857	6.04
307.227	6
307.597	5.85
307.967	6.01
308.336	6.15
308.706	6.12
309.076	6.27
309.445	6.13
309.815	6.17
310.184	6.23
310.554	6.16
310.923	6.17
311.293	6.18
311.662	6.32
312.031	6.29
312.401	6.22
312.77	6.21
313.139	6.2
313.508	6.11
313.877	6.1
314.246	6.06
314.616	5.97
314.985	6.01
315.353	6.06
315.722	6.04
316.091	5.86
316.46	5.78
316.829	5.82
317.198	5.96
317.567	5.86
317.935	5.81
318.304	5.94
318.672	5.86
319.041	5.86
319.41	5.64
319.778	5.71
320.147	5.72
320.515	5.64
320.883	5.52
321.252	5.69
321.62	5.6
321.988	5.46
322.357	5.44
322.725	5.42
323.093	5.5
323.461	5.42
323.829	5.36
324.197	5.42
324.565	5.41
324.933	5.35
325.301	5.54
325.669	5.49
326.037	5.41
326.405	5.54
326.772	5.63
327.14	5.82
327.508	5.77
327.875	5.64
328.243	5.6
328.61	5.72
328.978	5.69
329.346	5.87
329.713	5.89
330.08	6.1
330.448	6
330.815	5.84
331.182	5.9
331.55	6.2
331.917	6.27
332.284	6.28
332.651	6.25
333.018	6.23
333.385	6.27
333.752	6.31
334.119	6.25
334.486	6.04
334.853	5.96
335.22	5.79
335.587	5.9
335.954	5.88
336.32	5.78
336.687	5.85
337.054	5.73
337.42	5.87
337.787	5.74
338.153	5.79
338.52	5.8
338.886	5.8
339.253	5.64
339.619	5.65
339.986	5.63
340.352	5.65
340.718	5.58
341.084	5.51
341.451	5.49
341.817	5.52
342.183	5.57
342.549	5.53
342.915	5.7
343.281	5.69
343.647	5.74
344.013	5.68
344.379	5.53
344.745	5.58
345.11	5.6
345.476	5.63
345.842	5.71
346.208	5.75
346.573	5.75
346.939	5.82
347.304	5.77
347.67	5.7
348.035	5.64
348.401	5.61
348.766	5.67
349.132	5.68
349.497	5.55
349.862	5.61
350.228	5.63
350.593	5.6
350.958	5.59
351.323	5.55
351.688	5.63
352.053	5.73
352.418	5.76
352.783	5.67
353.148	5.59
353.513	5.62
353.878	5.73
354.243	5.75
354.608	5.75
354.972	5.81
355.337	5.83
355.702	5.96
356.066	5.97
356.431	5.95
356.795	5.95
357.16	5.99
357.524	5.93
357.889	5.95
358.253	5.98
358.618	6.04
358.982	6.05
359.346	5.99
359.71	5.86
360.075	5.81
360.439	5.86
360.803	5.93
361.167	5.88
361.531	5.79
361.895	5.78
362.259	5.7
362.623	5.66
362.987	5.72
363.351	5.67
363.714	5.67
364.078	5.72
364.442	5.66
364.806	5.6
365.169	5.57
365.533	5.52
365.896	5.5
366.26	5.43
366.623	5.38
366.987	5.44
367.35	5.53
367.714	5.52
368.077	5.52
368.44	5.43
368.803	5.41
369.167	5.4
369.53	5.36
369.893	5.43
370.256	5.48
370.619	5.48
370.982	5.47
371.345	5.51
371.708	5.41
372.071	5.42
372.434	5.48
372.797	5.58
373.159	5.6
373.522	5.59
373.885	5.63
374.247	5.71
374.61	5.76
374.973	5.79
375.335	5.83
375.698	5.81
376.06	5.9
376.423	5.96
376.785	6.06
377.147	6.14
377.51	6.11
377.872	6.1
378.234	6.07
378.596	6.07
378.958	6.03
379.321	6.09
379.683	6.19
380.045	6.19
380.407	6.14
380.769	6.15
381.13	6.16
381.492	6.15
381.854	6.13
382.216	6.1
382.578	6.12
382.939	6.13
383.301	6.15
383.663	6.1
384.024	6.13
384.386	6.07
384.747	6.05
385.109	6.09
385.47	6.07
385.832	6.07
386.193	6.11
386.554	6.07
386.916	6.07
387.277	6.04
387.638	6.04
387.999	6.02
388.36	6.04
388.721	6.04
389.082	6.06
389.443	6.05
389.804	5.99
390.165	5.95
390.526	5.95
390.887	5.96
391.248	5.99
391.609	5.98
391.969	5.99
392.33	5.97
392.691	5.96
393.051	5.96
393.412	5.99
393.772	5.96
394.133	6.05
394.493	6.02
394.854	6.05
395.214	6.04
395.574	6.08
395.935	6.05
396.295	6.07
396.655	6.05
397.015	6.08
397.376	6.08
397.736	6.07
398.096	6.09
398.456	6.09
398.816	6.08
399.176	6.03
399.535	6.04
399.895	6.04
400.255	6.01
400.615	6
400.975	5.96
401.334	5.94
401.694	5.86
402.054	5.91
402.413	5.89
402.773	5.89
403.132	5.87
403.492	5.89
403.851	5.9
404.211	5.88
404.57	5.87
404.929	5.91
405.288	5.94
405.648	5.93
406.007	5.9
406.366	5.91
406.725	5.95
407.084	5.94
407.443	5.94
407.802	5.96
408.161	5.96
408.52	5.97
408.879	5.97
409.238	6.02
409.596	6
409.955	5.98
410.314	6.01
410.673	5.97
411.031	5.98
411.39	5.97
411.748	5.98
412.107	5.99
412.465	5.96
412.824	5.94
413.182	5.93
413.54	5.95
413.899	5.96
414.257	5.96
414.615	5.93
414.974	5.95
415.332	5.97
415.69	5.95
416.048	5.94
416.406	5.96
416.764	5.95
417.122	5.98
417.48	5.98
417.838	5.98
418.195	6
418.553	5.99
418.911	6.01
419.269	6.02
419.626	6.02
419.984	6.06
420.342	6.07
420.699	6.07
421.057	6.07
421.414	6.05
421.772	6.04
422.129	6.06
422.486	6.08
422.844	6.08
423.201	6.09
423.558	6.09
423.915	6.09
424.273	6.1
424.63	6.08
424.987	6.09
425.344	6.09
425.701	6.1
426.058	6.1
426.415	6.1
426.772	6.09
427.128	6.07
427.485	6.06
427.842	6.06
428.199	6.07
428.555	6.08
428.912	6.1
429.269	6.12
429.625	6.11
429.982	6.07
430.338	6.07
430.695	6.08
431.051	6.08
431.407	6.09
431.764	6.1
432.12	6.11
432.476	6.13
432.832	6.13
433.189	6.13
433.545	6.12
433.901	6.11
434.257	6.14
434.613	6.14
434.969	6.14
435.325	6.14
435.681	6.15
436.036	6.13
436.392	6.13
436.748	6.15
437.104	6.15
437.459	6.17
437.815	6.16
438.171	6.19
438.526	6.22
438.882	6.21
439.237	6.2
439.593	6.2
439.948	6.19
440.304	6.2
440.659	6.2
441.014	6.22
441.369	6.22
441.725	6.21
442.08	6.21
442.435	6.2
442.79	6.2
443.145	6.2
443.5	6.2
443.855	6.18
444.21	6.16
444.565	6.19
444.92	6.19
445.275	6.19
445.629	6.15
445.984	6.14
446.339	6.13
446.693	6.13
447.048	6.12
447.403	6.11
447.757	6.1
448.112	6.1
448.466	6.09
448.82	6.08
449.175	6.1
449.529	6.11
449.883	6.09
450.238	6.09
450.592	6.09
450.946	6.08
451.3	6.1
451.654	6.09
452.008	6.06
452.362	6.03
452.716	6.05
453.07	6.09
453.424	6.08
453.778	6.09
454.132	6.09
454.486	6.08
454.839	6.06
455.193	6.07
455.547	6.07
455.9	6.07
456.254	6.09
456.607	6.08
456.961	6.07
457.314	6.1
457.668	6.11
458.021	6.11
458.375	6.13
458.728	6.16
459.081	6.16
459.434	6.17
459.787	6.2
460.141	6.19
460.494	6.18
460.847	6.19
461.2	6.19
461.553	6.2
461.906	6.21
462.259	6.22
462.611	6.24
462.964	6.25
463.317	6.28
463.67	6.27
464.022	6.26
464.375	6.27
464.728	6.27
465.08	6.29
465.433	6.3
465.785	6.3
466.138	6.25
466.49	6.27
466.843	6.27
467.195	6.25
467.547	6.26
467.899	6.24
468.252	6.23
468.604	6.24
468.956	6.26
469.308	6.29
469.66	6.3
470.012	6.29
470.364	6.28
470.716	6.27
471.068	6.26
471.42	6.27
471.772	6.28
472.123	6.29
472.475	6.27
472.827	6.27
473.178	6.26
473.53	6.27
473.882	6.27
474.233	6.28
474.585	6.27
474.936	6.27
475.288	6.28
475.639	6.28
475.99	6.29
476.342	6.28
476.693	6.28
477.044	6.27
477.395	6.25
477.746	6.25
478.097	6.24
478.448	6.27
478.8	6.27
479.15	6.27
479.501	6.27
479.852	6.28
480.203	6.3
480.554	6.34
480.905	6.36
481.255	6.38
481.606	6.38
481.957	6.4
482.307	6.4
482.658	6.4
483.009	6.41
483.359	6.41
483.709	6.42
484.06	6.43
484.41	6.44
484.761	6.45
485.111	6.45
485.461	6.46
485.811	6.46
486.162	6.46
486.512	6.47
486.862	6.47
487.212	6.46
487.562	6.46
487.912	6.47
488.262	6.46
488.612	6.46
488.961	6.46
489.311	6.46
489.661	6.47
490.011	6.47
490.36	6.49
490.71	6.5
491.06	6.48
491.409	6.46
491.759	6.47
492.108	6.47
492.458	6.48
492.807	6.48
493.157	6.48
493.506	6.49
493.855	6.49
494.204	6.48
494.554	6.51
494.903	6.5
495.252	6.48
495.601	6.49
495.95	6.49
496.299	6.5
496.648	6.49
496.997	6.5
497.346	6.5
497.695	6.51
498.043	6.5
498.392	6.5
498.741	6.53
499.09	6.5
499.438	6.52
499.787	6.53
500.135	6.56
500.484	6.58
500.832	6.57
501.181	6.57
501.529	6.58
501.878	6.57
502.226	6.57
502.574	6.59
502.923	6.58
503.271	6.57
503.619	6.58
503.967	6.59
504.315	6.6
504.663	6.6
505.011	6.6
505.359	6.61
505.707	6.63
506.055	6.62
506.403	6.64
506.751	6.62
507.098	6.61
507.446	6.61
507.794	6.61
508.141	6.62
508.489	6.63
508.837	6.65
509.184	6.68
509.531	6.7
509.879	6.72
510.226	6.73
510.574	6.73
510.921	6.74
511.268	6.73
511.616	6.73
511.963	6.75
512.31	6.74
512.657	6.75
513.004	6.74
513.351	6.75
513.698	6.77
514.045	6.79
514.392	6.78
514.739	6.78
515.086	6.79
515.432	6.79
515.779	6.78
516.126	6.79
516.473	6.79
516.819	6.78
517.166	6.77
517.512	6.78
517.859	6.79
518.205	6.79
518.552	6.81
518.898	6.81
519.245	6.8
519.591	6.79
519.937	6.79
520.283	6.8
520.629	6.8
520.976	6.8
521.322	6.8
521.668	6.82
522.014	6.84
522.36	6.84
522.706	6.85
523.052	6.88
523.398	6.89
523.743	6.9
524.089	6.93
524.435	6.93
524.781	6.95
525.126	6.96
525.472	6.96
525.817	6.98
526.163	6.98
526.509	7
526.854	7.01
527.199	7.01
527.545	7.02
527.89	7.03
528.235	7.02
528.581	7.03
528.926	7.02
529.271	7.03
529.616	7.02
529.961	7.02
530.306	7.01
530.651	7
530.996	7.01
531.341	7
531.686	7
532.031	7
532.376	7
532.721	7.01
533.065	7.01
533.41	7.01
533.755	7
534.099	7.01
534.444	7.01
534.788	7.01
535.133	7
535.477	7.03
535.822	7.04
536.166	7.06
536.51	7.03
536.855	7.05
537.199	7.06
537.543	7.09
537.887	7.09
538.231	7.1
538.576	7.12
538.92	7.12
539.264	7.13
539.608	7.13
539.951	7.12
540.295	7.12
540.639	7.13
540.983	7.13
541.327	7.13
541.671	7.11
542.014	7.11
542.358	7.12
542.701	7.1
543.045	7.1
543.389	7.1
543.732	7.13
544.075	7.14
544.419	7.13
544.762	7.11
545.105	7.13
545.449	7.11
545.792	7.12
546.135	7.12
546.478	7.12
546.821	7.1
547.165	7.1
547.508	7.11
547.851	7.1
548.194	7.09
548.536	7.1
548.879	7.15
549.222	7.15
549.565	7.16
549.908	7.17
550.25	7.19
550.593	7.19
550.936	7.17
551.278	7.18
551.621	7.19
551.963	7.21
552.306	7.21
552.648	7.24
552.991	7.26
553.333	7.26
553.675	7.27
554.017	7.3
554.36	7.34
554.702	7.37
555.044	7.38
555.386	7.4
555.728	7.41
556.07	7.41
556.412	7.42
556.754	7.41
557.096	7.4
557.438	7.4
557.78	7.38
558.121	7.43
558.463	7.4
558.805	7.42
559.147	7.42
559.488	7.44
559.83	7.4
560.171	7.38
560.513	7.41
560.854	7.43
561.196	7.43
561.537	7.41
561.878	7.37
562.22	7.39
562.561	7.37
562.902	7.37
563.243	7.37
563.584	7.35
563.925	7.35
564.266	7.34
564.607	7.32
564.948	7.36
565.289	7.35
565.63	7.39
565.971	7.35
566.312	7.36
566.653	7.38
566.993	7.4
567.334	7.41
567.675	7.4
568.015	7.4
568.356	7.4
568.696	7.42
569.037	7.44
569.377	7.46
569.718	7.48
570.058	7.51
570.398	7.48
570.739	7.51
571.079	7.52
571.419	7.57
571.759	7.6
572.099	7.58
572.439	7.59
572.779	7.58
573.119	7.64
573.459	7.67
573.799	7.63
574.139	7.63
574.479	7.64
574.819	7.65
575.158	7.65
575.498	7.62
575.838	7.61
576.177	7.6
576.517	7.59
576.856	7.64
577.196	7.62
577.535	7.64
577.875	7.66
578.214	7.68
578.553	7.69
578.893	7.68
579.232	7.68
579.571	7.68
579.91	7.71
580.25	7.69
580.589	7.63
580.928	7.64
581.267	7.66
581.606	7.66
581.945	7.66
582.283	7.7
582.622	7.74
582.961	7.74
583.3	7.78
583.639	7.78
583.977	7.77
584.316	7.77
584.654	7.8
584.993	7.79
585.332	7.76
585.67	7.7
586.008	7.67
586.347	7.7
586.685	7.7
587.024	7.7
587.362	7.68
587.7	7.73
588.038	7.78
588.376	7.78
588.715	7.79
589.053	7.8
589.391	7.78
589.729	7.81
590.067	7.81
590.404	7.79
590.742	7.79
591.08	7.73
591.418	7.76
591.756	7.77
592.093	7.79
592.431	7.82
592.769	7.88
593.106	7.92
593.444	7.89
593.781	7.89
594.119	7.9
594.456	7.9
594.793	7.86
595.131	7.86
595.468	7.87
595.805	7.87
596.143	7.87
596.48	7.88
596.817	7.84
597.154	7.87
597.491	7.88
597.828	7.91
598.165	7.92
598.502	7.88
598.839	7.87
599.176	7.84
599.512	7.81
599.849	7.81
600.186	7.82
600.523	7.89
600.859	7.89
601.196	7.87
601.532	7.86
601.869	7.9
602.205	7.86
602.542	7.86
602.878	7.86
603.215	7.86
603.551	7.87
603.887	7.91
604.223	7.9
604.56	7.93
604.896	7.93
605.232	7.96
605.568	8.01
605.904	8
606.24	8.06
606.576	8.09
606.912	8.07
607.248	8.07
607.583	8.04
607.919	8.06
608.255	8.06
608.591	8.09
608.926	8.09
609.262	8.14
609.597	8.16
609.933	8.19
610.268	8.18
610.604	8.15
610.939	8.14
611.275	8.16
611.61	8.17
611.945	8.16
612.281	8.19
612.616	8.23
612.951	8.25
613.286	8.21
613.621	8.22
613.956	8.29
614.291	8.29
614.626	8.27
614.961	8.27
615.296	8.28
615.631	8.34
615.966	8.32
616.3	8.33
616.635	8.32
616.97	8.3
617.304	8.37
617.639	8.4
617.973	8.39
618.308	8.39
618.642	8.39
618.977	8.39
619.311	8.39
619.646	8.37
619.98	8.39
620.314	8.4
620.648	8.39
620.983	8.33
621.317	8.31
621.651	8.36
621.985	8.45
622.319	8.48
622.653	8.45
622.987	8.52
623.321	8.51
623.655	8.52
623.988	8.53
624.322	8.48
624.656	8.54
624.99	8.6
625.323	8.61
625.657	8.63
625.99	8.66
626.324	8.63
626.657	8.59
626.991	8.63
627.324	8.61
627.658	8.68
627.991	8.76
628.324	8.77
628.657	8.75
628.991	8.68
629.324	8.68
629.657	8.71
629.99	8.76
630.323	8.77
630.656	8.79
630.989	8.83
631.322	8.86
631.655	8.84
631.987	8.77
632.32	8.74
632.653	8.73
632.986	8.72
633.318	8.75
633.651	8.81
633.984	8.76
634.316	8.76
634.649	8.71
634.981	8.69
635.313	8.72
635.646	8.75
635.978	8.77
636.31	8.78
636.643	8.76
636.975	8.66
637.307	8.63
637.639	8.66
637.971	8.63
638.303	8.64
638.635	8.61
638.967	8.63
639.299	8.72
639.631	8.7
639.963	8.68
640.295	8.67
640.626	8.69
640.958	8.7
641.29	8.73
641.621	8.69
641.953	8.72
642.285	8.67
642.616	8.69
642.948	8.69
643.279	8.64
643.61	8.63
643.942	8.69
644.273	8.7
644.604	8.64
644.936	8.62
645.267	8.61
645.598	8.67
645.929	8.61
646.26	8.6
646.591	8.65
646.922	8.64
647.253	8.66
647.584	8.62
647.915	8.61
648.245	8.6
648.576	8.68
648.907	8.62
649.238	8.72
649.568	8.69
649.899	8.72
650.229	8.84
650.56	8.83
650.89	8.8
651.221	8.86
651.551	8.89
651.882	8.9
652.212	8.88
652.542	8.87
652.872	8.96
653.203	8.91
653.533	8.97
653.863	8.97
654.193	8.99
654.523	8.99
654.853	9
655.183	9.01
655.513	8.97
655.843	9.03
656.172	9.05
656.502	9.06
656.832	9.06
657.162	9.09
657.491	9.09
657.821	9.13
658.15	9.09
658.48	9.07
658.809	9.12
659.139	9.17
659.468	9.1
659.798	9.08
660.127	9.17
660.456	9.17
660.785	9.22
661.115	9.27
661.444	9.34
661.773	9.44
662.102	9.45
662.431	9.5
662.76	9.47
663.089	9.38
663.418	9.38
663.747	9.35
664.076	9.28
664.404	9.26
664.733	9.34
665.062	9.35
665.39	9.37
665.719	9.26
666.048	9.26
666.376	9.35
666.705	9.38
667.033	9.32
667.362	9.28
667.69	9.16
668.018	9.12
668.347	9.09
668.675	9.06
669.003	9.08
669.331	9.12
669.659	9.11
669.987	9.11
670.315	9.16
670.643	9.18
670.971	9.19
671.299	9.28
671.627	9.21
671.955	9.19
672.283	9.21
672.61	9.22
672.938	9.27
673.266	9.34
673.593	9.36
673.921	9.29
674.249	9.36
674.576	9.45
674.904	9.42
675.231	9.38
675.558	9.39
675.886	9.46
676.213	9.44
676.54	9.47
676.867	9.5
677.195	9.47
677.522	9.45
677.849	9.42
678.176	9.4
