Data from BA28474_Reflection_00012.txt Node
Date: Mon Nov 18 15:30:56 EST 2019
User: vgr7
Spectrometer: USB2G7710
Scans to average: 3
Trigger mode: 4
Integration Time (sec): 2.000000E-2
Electric dark correction enabled: true
Boxcar width: 10
XAxis mode: Wavelengths
Number of Pixels in Spectrum: 2048
>>>>>Begin Spectral Data<<<<<
177.721	-17.39
178.105	-41.53
178.488	-19.51
178.871	37.02
179.254	35.32
179.636	98.73
180.019	-572.96
180.402	28.89
180.785	-66
181.168	9.2
181.55	17.92
181.933	145.05
182.316	42.93
182.698	51.72
183.081	109.74
183.463	142.88
183.846	160.72
184.228	9544.44
184.611	-263.44
184.993	-257.62
185.376	-76.04
185.758	-85.99
186.14	-76.37
186.522	-59.35
186.904	-44.98
187.287	-68.06
187.669	-26.4
188.051	-58.64
188.433	-33.65
188.815	-22.57
189.197	-17.18
189.579	6.67
189.961	-7.75
190.342	-15.52
190.724	1.72
191.106	11.51
191.488	2.76
191.869	26.72
192.251	20.73
192.633	49.73
193.014	68.98
193.396	88.95
193.777	64.27
194.159	30.97
194.54	11.37
194.922	12.22
195.303	14.77
195.684	3.74
196.065	27.86
196.447	20.87
196.828	7.56
197.209	15.06
197.59	10.15
197.971	0.87
198.352	10.64
198.733	1.4
199.114	5.15
199.495	12.77
199.876	10.4
200.257	13.39
200.638	10.01
201.018	12.28
201.399	24.86
201.78	22
202.16	37.11
202.541	44.78
202.922	31.2
203.302	-0.72
203.683	18.19
204.063	-44.9
204.444	-39.04
204.824	-25.36
205.204	-40.04
205.585	-53.37
205.965	-29.75
206.345	-26.31
206.725	-31.35
207.106	-87.56
207.486	-61.24
207.866	-335.44
208.246	-194.72
208.626	-253.89
209.006	-95.2
209.386	-153.82
209.766	-137.4
210.145	-98.61
210.525	-71.36
210.905	-41.04
211.285	-21.93
211.664	-24.38
212.044	-16.73
212.424	-26.29
212.803	-28.43
213.183	-24.17
213.562	-52.08
213.942	-40.65
214.321	-41.07
214.701	-40.5
215.08	-29.77
215.459	-36.24
215.838	-15.13
216.218	-18.77
216.597	-7.98
216.976	-19.1
217.355	-4.83
217.734	-18.22
218.113	-17.72
218.492	-15.88
218.871	-32.49
219.25	-41.01
219.629	-37.92
220.008	-28.04
220.387	-26.35
220.766	-22.15
221.144	-38.58
221.523	-10.35
221.902	-13.9
222.28	-16.91
222.659	0.39
223.037	6.68
223.416	-3.42
223.794	-19.19
224.173	-14.56
224.551	-10.44
224.929	-4.31
225.308	-2.34
225.686	2.24
226.064	3.18
226.442	4.32
226.821	2.97
227.199	1.91
227.577	0.8
227.955	-1.53
228.333	2.1
228.711	2.11
229.089	4.39
229.467	2.09
229.845	1.07
230.222	1.13
230.6	-2.52
230.978	-3.12
231.356	-0.43
231.733	1.45
232.111	1.53
232.488	1.59
232.866	2.36
233.243	3.51
233.621	3.38
233.998	3.95
234.376	2.35
234.753	4.3
235.13	5.86
235.508	7.17
235.885	7.31
236.262	6.77
236.639	5.12
237.016	6.17
237.393	8.63
237.77	7.78
238.147	8.76
238.524	8.74
238.901	9.19
239.278	9.59
239.655	9.83
240.032	10.03
240.409	9.27
240.785	8.92
241.162	8.68
241.539	8.19
241.915	7.69
242.292	7.37
242.668	7.22
243.045	7.11
243.421	6.76
243.798	6.59
244.174	6.38
244.551	6.25
244.927	6.01
245.303	5.74
245.679	5.95
246.056	5.61
246.432	5.55
246.808	5.47
247.184	5.03
247.56	4.82
247.936	4.6
248.312	4.69
248.688	4.62
249.064	4.58
249.44	4.81
249.815	4.82
250.191	4.99
250.567	5.22
250.943	5.18
251.318	5.43
251.694	5.55
252.069	5.62
252.445	5.87
252.82	5.63
253.196	5.63
253.571	5.47
253.947	5.57
254.322	5.58
254.697	5.19
255.073	4.98
255.448	4.98
255.823	4.9
256.198	5.04
256.573	4.9
256.948	4.77
257.323	4.81
257.698	4.76
258.073	4.68
258.448	4.36
258.823	4.25
259.198	4.03
259.573	4
259.948	3.94
260.322	3.92
260.697	4.02
261.072	3.75
261.446	3.75
261.821	3.71
262.195	3.69
262.57	3.74
262.944	3.9
263.319	3.77
263.693	3.79
264.067	3.82
264.442	4.01
264.816	4.1
265.19	3.8
265.564	3.83
265.938	3.95
266.313	4.09
266.687	4.09
267.061	4.07
267.435	4.01
267.809	3.96
268.183	3.88
268.556	3.79
268.93	4.07
269.304	4.02
269.678	4.16
270.051	4.22
270.425	4.16
270.799	4.08
271.172	4.15
271.546	4.16
271.919	4.02
272.293	3.9
272.666	3.8
273.04	4
273.413	4.15
273.787	4.03
274.16	3.96
274.533	4.02
274.906	3.9
275.279	3.97
275.653	4.14
276.026	4.19
276.399	4.27
276.772	4.23
277.145	4.18
277.518	4.18
277.891	4.14
278.263	4.04
278.636	4.15
279.009	4.02
279.382	4.12
279.755	4.13
280.127	4.29
280.5	4.32
280.872	4.33
281.245	4.09
281.617	4.24
281.99	4.3
282.362	4.38
282.735	4.41
283.107	4.39
283.479	4.16
283.852	4.19
284.224	4.22
284.596	4.31
284.968	4.39
285.34	4.34
285.713	4.4
286.085	4.55
286.457	4.65
286.829	4.81
287.201	4.75
287.572	4.73
287.944	4.53
288.316	4.52
288.688	4.45
289.06	4.52
289.431	4.47
289.803	4.44
290.175	4.45
290.546	4.72
290.918	4.72
291.289	4.83
291.661	4.81
292.032	4.9
292.403	4.83
292.775	4.9
293.146	4.91
293.517	4.93
293.889	5
294.26	4.95
294.631	4.86
295.002	5.01
295.373	5.03
295.744	5.19
296.115	5.27
296.486	5.26
296.857	5.41
297.228	5.39
297.599	5.51
297.97	5.44
298.34	5.31
298.711	5.41
299.082	5.47
299.452	5.6
299.823	5.67
300.194	5.74
300.564	5.79
300.935	5.87
301.305	5.85
301.676	5.85
302.046	5.88
302.416	6.16
302.787	6.11
303.157	6.12
303.527	6.07
303.897	6.12
304.267	6.28
304.637	6.2
305.008	6.25
305.378	6.29
305.748	6.33
306.117	6.26
306.487	6.3
306.857	6.29
307.227	6.24
307.597	6.15
307.967	6.18
308.336	6.26
308.706	6.22
309.076	6.37
309.445	6.36
309.815	6.31
310.184	6.17
310.554	6.15
310.923	6.27
311.293	6.4
311.662	6.31
312.031	6.35
312.401	6.33
312.77	6.45
313.139	6.51
313.508	6.64
313.877	6.72
314.246	6.67
314.616	6.75
314.985	6.83
315.353	6.84
315.722	6.93
316.091	6.98
316.46	6.99
316.829	7.01
317.198	7.15
317.567	7.13
317.935	7.15
318.304	7.29
318.672	7.34
319.041	7.48
319.41	7.59
319.778	7.54
320.147	7.62
320.515	7.62
320.883	7.51
321.252	7.57
321.62	7.69
321.988	7.74
322.357	7.8
322.725	7.68
323.093	7.93
323.461	7.97
323.829	7.94
324.197	8.06
324.565	8.11
324.933	8.14
325.301	8.33
325.669	8.37
326.037	8.29
326.405	8.32
326.772	8.33
327.14	8.42
327.508	8.5
327.875	8.57
328.243	8.56
328.61	8.68
328.978	8.68
329.346	8.79
329.713	8.87
330.08	9.1
330.448	9.28
330.815	9.1
331.182	9.05
331.55	9.12
331.917	9.08
332.284	9.03
332.651	8.95
333.018	8.96
333.385	9
333.752	9.27
334.119	9.29
334.486	9.19
334.853	9.22
335.22	9.18
335.587	9.24
335.954	9.26
336.32	9.24
336.687	9.3
337.054	9.29
337.42	9.25
337.787	9.1
338.153	9.12
338.52	9.18
338.886	9.13
339.253	9.07
339.619	9.18
339.986	9.32
340.352	9.54
340.718	9.66
341.084	9.66
341.451	9.6
341.817	9.62
342.183	9.65
342.549	9.63
342.915	9.66
343.281	9.68
343.647	9.7
344.013	9.78
344.379	9.7
344.745	9.7
345.11	9.69
345.476	9.67
345.842	9.65
346.208	9.72
346.573	9.8
346.939	9.89
347.304	9.91
347.67	9.78
348.035	9.66
348.401	9.59
348.766	9.59
349.132	9.61
349.497	9.62
349.862	9.63
350.228	9.71
350.593	9.75
350.958	9.65
351.323	9.75
351.688	9.59
352.053	9.68
352.418	9.7
352.783	9.82
353.148	9.8
353.513	9.78
353.878	9.77
354.243	9.82
354.608	9.76
354.972	9.7
355.337	9.76
355.702	9.83
356.066	9.89
356.431	9.93
356.795	9.86
357.16	9.8
357.524	9.8
357.889	9.74
358.253	9.67
358.618	9.78
358.982	9.63
359.346	9.67
359.71	9.59
360.075	9.55
360.439	9.51
360.803	9.52
361.167	9.43
361.531	9.36
361.895	9.29
362.259	9.3
362.623	9.35
362.987	9.3
363.351	9.24
363.714	9.16
364.078	9.1
364.442	9.09
364.806	9.09
365.169	9.05
365.533	9.02
365.896	9.01
366.26	8.9
366.623	8.9
366.987	8.95
367.35	8.92
367.714	8.91
368.077	8.83
368.44	8.8
368.803	8.82
369.167	8.73
369.53	8.67
369.893	8.63
370.256	8.56
370.619	8.48
370.982	8.41
371.345	8.33
371.708	8.28
372.071	8.17
372.434	8.08
372.797	8.03
373.159	7.96
373.522	7.89
373.885	7.9
374.247	7.89
374.61	7.8
374.973	7.74
375.335	7.64
375.698	7.63
376.06	7.5
376.423	7.52
376.785	7.59
377.147	7.55
377.51	7.51
377.872	7.48
378.234	7.43
378.596	7.4
378.958	7.34
379.321	7.33
379.683	7.36
380.045	7.38
380.407	7.34
380.769	7.26
381.13	7.24
381.492	7.16
381.854	7.15
382.216	7.11
382.578	7.09
382.939	7.05
383.301	6.98
383.663	6.97
384.024	6.91
384.386	6.84
384.747	6.88
385.109	6.8
385.47	6.7
385.832	6.71
386.193	6.72
386.554	6.7
386.916	6.67
387.277	6.64
387.638	6.63
387.999	6.63
388.36	6.61
388.721	6.58
389.082	6.55
389.443	6.45
389.804	6.39
390.165	6.33
390.526	6.31
390.887	6.3
391.248	6.32
391.609	6.28
391.969	6.26
392.33	6.18
392.691	6.23
393.051	6.24
393.412	6.23
393.772	6.12
394.133	6.15
394.493	6.1
394.854	6.02
395.214	5.96
395.574	5.91
395.935	5.87
396.295	5.88
396.655	5.86
397.015	5.85
397.376	5.86
397.736	5.84
398.096	5.83
398.456	5.79
398.816	5.72
399.176	5.69
399.535	5.63
399.895	5.6
400.255	5.55
400.615	5.5
400.975	5.44
401.334	5.42
401.694	5.35
402.054	5.3
402.413	5.3
402.773	5.27
403.132	5.22
403.492	5.24
403.851	5.2
404.211	5.2
404.57	5.19
404.929	5.17
405.288	5.16
405.648	5.13
406.007	5.11
406.366	5.1
406.725	5.12
407.084	5.1
407.443	5.1
407.802	5.09
408.161	5.06
408.52	5.02
408.879	5.03
409.238	5.03
409.596	5.05
409.955	5.02
410.314	5.02
410.673	5
411.031	5
411.39	4.97
411.748	4.94
412.107	4.97
412.465	4.93
412.824	4.89
413.182	4.87
413.54	4.87
413.899	4.87
414.257	4.83
414.615	4.79
414.974	4.74
415.332	4.71
415.69	4.68
416.048	4.66
416.406	4.63
416.764	4.6
417.122	4.57
417.48	4.54
417.838	4.53
418.195	4.5
418.553	4.45
418.911	4.44
419.269	4.42
419.626	4.4
419.984	4.4
420.342	4.39
420.699	4.36
421.057	4.35
421.414	4.33
421.772	4.31
422.129	4.31
422.486	4.32
422.844	4.3
423.201	4.29
423.558	4.3
423.915	4.28
424.273	4.28
424.63	4.26
424.987	4.26
425.344	4.25
425.701	4.25
426.058	4.26
426.415	4.26
426.772	4.24
427.128	4.19
427.485	4.19
427.842	4.18
428.199	4.19
428.555	4.18
428.912	4.18
429.269	4.17
429.625	4.15
429.982	4.13
430.338	4.13
430.695	4.1
431.051	4.07
431.407	4.07
431.764	4.06
432.12	4.06
432.476	4.05
432.832	4.05
433.189	4.05
433.545	4.05
433.901	4.05
434.257	4.05
434.613	4.07
434.969	4.06
435.325	4.05
435.681	4.03
436.036	4.03
436.392	4
436.748	3.98
437.104	3.99
437.459	3.99
437.815	3.99
438.171	4.02
438.526	4.03
438.882	4.04
439.237	4.02
439.593	4.01
439.948	4.01
440.304	4
440.659	4
441.014	3.99
441.369	3.97
441.725	3.96
442.08	3.95
442.435	3.95
442.79	3.95
443.145	3.95
443.5	3.94
443.855	3.94
444.21	3.96
444.565	3.95
444.92	3.93
445.275	3.92
445.629	3.9
445.984	3.89
446.339	3.88
446.693	3.88
447.048	3.87
447.403	3.86
447.757	3.85
448.112	3.85
448.466	3.84
448.82	3.85
449.175	3.85
449.529	3.83
449.883	3.81
450.238	3.78
450.592	3.77
450.946	3.76
451.3	3.74
451.654	3.72
452.008	3.74
452.362	3.74
452.716	3.74
453.07	3.74
453.424	3.75
453.778	3.74
454.132	3.74
454.486	3.7
454.839	3.69
455.193	3.69
455.547	3.67
455.9	3.67
456.254	3.67
456.607	3.67
456.961	3.68
457.314	3.69
457.668	3.7
458.021	3.7
458.375	3.72
458.728	3.75
459.081	3.76
459.434	3.75
459.787	3.75
460.141	3.75
460.494	3.75
460.847	3.78
461.2	3.78
461.553	3.79
461.906	3.83
462.259	3.84
462.611	3.85
462.964	3.87
463.317	3.86
463.67	3.87
464.022	3.88
464.375	3.87
464.728	3.9
465.08	3.92
465.433	3.94
465.785	3.93
466.138	3.94
466.49	3.93
466.843	3.94
467.195	3.96
467.547	3.97
467.899	3.97
468.252	3.97
468.604	3.98
468.956	3.99
469.308	3.98
469.66	3.98
470.012	4.01
470.364	4.01
470.716	4.03
471.068	4.02
471.42	4.05
471.772	4.08
472.123	4.07
472.475	4.08
472.827	4.09
473.178	4.11
473.53	4.11
473.882	4.1
474.233	4.11
474.585	4.08
474.936	4.08
475.288	4.1
475.639	4.11
475.99	4.11
476.342	4.11
476.693	4.13
477.044	4.15
477.395	4.12
477.746	4.12
478.097	4.13
478.448	4.12
478.8	4.1
479.15	4.09
479.501	4.07
479.852	4.08
480.203	4.08
480.554	4.06
480.905	4.07
481.255	4.07
481.606	4.07
481.957	4.08
482.307	4.08
482.658	4.07
483.009	4.07
483.359	4.06
483.709	4.06
484.06	4.06
484.41	4.07
484.761	4.07
485.111	4.07
485.461	4.06
485.811	4.06
486.162	4.06
486.512	4.07
486.862	4.07
487.212	4.06
487.562	4.06
487.912	4.05
488.262	4.04
488.612	4.05
488.961	4.05
489.311	4.05
489.661	4.05
490.011	4.05
490.36	4.05
490.71	4.06
491.06	4.06
491.409	4.06
491.759	4.06
492.108	4.07
492.458	4.08
492.807	4.09
493.157	4.11
493.506	4.13
493.855	4.14
494.204	4.17
494.554	4.19
494.903	4.2
495.252	4.23
495.601	4.27
495.95	4.3
496.299	4.33
496.648	4.35
496.997	4.38
497.346	4.43
497.695	4.49
498.043	4.51
498.392	4.55
498.741	4.59
499.09	4.63
499.438	4.67
499.787	4.72
500.135	4.78
500.484	4.81
500.832	4.89
501.181	4.95
501.529	5.01
501.878	5.06
502.226	5.14
502.574	5.22
502.923	5.28
503.271	5.35
503.619	5.41
503.967	5.46
504.315	5.54
504.663	5.58
505.011	5.64
505.359	5.73
505.707	5.82
506.055	5.88
506.403	5.97
506.751	6.03
507.098	6.09
507.446	6.19
507.794	6.29
508.141	6.38
508.489	6.45
508.837	6.55
509.184	6.63
509.531	6.71
509.879	6.79
510.226	6.87
510.574	6.94
510.921	7.04
511.268	7.14
511.616	7.22
511.963	7.3
512.31	7.37
512.657	7.47
513.004	7.56
513.351	7.68
513.698	7.79
514.045	7.9
514.392	8
514.739	8.08
515.086	8.16
515.432	8.25
515.779	8.34
516.126	8.41
516.473	8.54
516.819	8.63
517.166	8.71
517.512	8.79
517.859	8.89
518.205	8.94
518.552	9.05
518.898	9.13
519.245	9.23
519.591	9.34
519.937	9.41
520.283	9.53
520.629	9.6
520.976	9.7
521.322	9.82
521.668	9.93
522.014	10.04
522.36	10.19
522.706	10.32
523.052	10.47
523.398	10.63
523.743	10.78
524.089	10.95
524.435	11.13
524.781	11.31
525.126	11.45
525.472	11.6
525.817	11.73
526.163	11.86
526.509	11.98
526.854	12.1
527.199	12.22
527.545	12.33
527.89	12.45
528.235	12.58
528.581	12.7
528.926	12.83
529.271	12.97
529.616	13.1
529.961	13.22
530.306	13.35
530.651	13.48
530.996	13.64
531.341	13.81
531.686	13.97
532.031	14.13
532.376	14.32
532.721	14.51
533.065	14.69
533.41	14.89
533.755	15.1
534.099	15.29
534.444	15.49
534.788	15.69
535.133	15.91
535.477	16.12
535.822	16.35
536.166	16.61
536.51	16.87
536.855	17.12
537.199	17.43
537.543	17.75
537.887	18.08
538.231	18.4
538.576	18.69
538.92	18.98
539.264	19.26
539.608	19.55
539.951	19.83
540.295	20.09
540.639	20.33
540.983	20.58
541.327	20.8
541.671	21.05
542.014	21.29
542.358	21.49
542.701	21.75
543.045	21.97
543.389	22.21
543.732	22.47
544.075	22.74
544.419	22.98
544.762	23.23
545.105	23.49
545.449	23.78
545.792	24.09
546.135	24.42
546.478	24.75
546.821	25.09
547.165	25.42
547.508	25.76
547.851	26.13
548.194	26.47
548.536	26.84
548.879	27.23
549.222	27.6
549.565	27.99
549.908	28.32
550.25	28.71
550.593	29.09
550.936	29.41
551.278	29.72
551.621	30.12
551.963	30.44
552.306	30.74
552.648	31.07
552.991	31.34
553.333	31.61
553.675	31.93
554.017	32.23
554.36	32.53
554.702	32.82
555.044	33.08
555.386	33.43
555.728	33.76
556.07	34.05
556.412	34.3
556.754	34.6
557.096	34.89
557.438	35.17
557.78	35.46
558.121	35.79
558.463	36.12
558.805	36.36
559.147	36.69
559.488	37
559.83	37.23
560.171	37.53
560.513	37.85
560.854	38.09
561.196	38.36
561.537	38.62
561.878	38.89
562.22	39.17
562.561	39.4
562.902	39.62
563.243	39.84
563.584	40.1
563.925	40.31
564.266	40.53
564.607	40.75
564.948	40.9
565.289	41.15
565.63	41.32
565.971	41.51
566.312	41.73
566.653	41.9
566.993	42.11
567.334	42.27
567.675	42.45
568.015	42.7
568.356	42.89
568.696	43
569.037	43.22
569.377	43.42
569.718	43.6
570.058	43.75
570.398	43.88
570.739	44.04
571.079	44.19
571.419	44.3
571.759	44.49
572.099	44.69
572.439	44.79
572.779	44.97
573.119	45.14
573.459	45.27
573.799	45.44
574.139	45.56
574.479	45.76
574.819	45.95
575.158	46
575.498	46.11
575.838	46.3
576.177	46.41
576.517	46.53
576.856	46.61
577.196	46.81
577.535	46.97
577.875	47.11
578.214	47.26
578.553	47.47
578.893	47.51
579.232	47.62
579.571	47.79
579.91	47.92
580.25	48.13
580.589	48.21
580.928	48.34
581.267	48.55
581.606	48.6
581.945	48.65
582.283	48.75
582.622	48.88
582.961	49.05
583.3	49.17
583.639	49.28
583.977	49.38
584.316	49.44
584.654	49.63
584.993	49.69
585.332	49.84
585.67	49.9
586.008	50.11
586.347	50.15
586.685	50.24
587.024	50.31
587.362	50.31
587.7	50.38
588.038	50.5
588.376	50.52
588.715	50.65
589.053	50.71
589.391	50.78
589.729	50.88
590.067	50.92
590.404	51.01
590.742	51.06
591.08	51.19
591.418	51.28
591.756	51.32
592.093	51.49
592.431	51.54
592.769	51.67
593.106	51.75
593.444	51.86
593.781	51.92
594.119	51.98
594.456	52.14
594.793	52.2
595.131	52.16
595.468	52.19
595.805	52.21
596.143	52.28
596.48	52.43
596.817	52.46
597.154	52.59
597.491	52.56
597.828	52.7
598.165	52.8
598.502	52.83
598.839	52.92
599.176	52.99
599.512	53.03
599.849	53.13
600.186	53.17
600.523	53.24
600.859	53.3
601.196	53.37
601.532	53.36
601.869	53.43
602.205	53.55
602.542	53.64
602.878	53.74
603.215	53.75
603.551	53.8
603.887	53.87
604.223	53.83
604.56	53.96
604.896	53.95
605.232	53.97
605.568	54.04
605.904	54.06
606.24	54.11
606.576	54.18
606.912	54.14
607.248	54.18
607.583	54.16
607.919	54.26
608.255	54.28
608.591	54.36
608.926	54.42
609.262	54.52
609.597	54.63
609.933	54.65
610.268	54.76
610.604	54.8
610.939	54.81
611.275	54.88
611.61	54.91
611.945	54.98
612.281	55.04
612.616	55.01
612.951	55.06
613.286	55.1
613.621	55.17
613.956	55.27
614.291	55.32
614.626	55.52
614.961	55.53
615.296	55.71
615.631	55.72
615.966	55.85
616.3	55.82
616.635	55.78
616.97	55.88
617.304	55.92
617.639	55.98
617.973	56.02
618.308	55.99
618.642	55.94
618.977	55.96
619.311	55.98
619.646	56.1
619.98	56.15
620.314	56.18
620.648	56.17
620.983	56.28
621.317	56.27
621.651	56.23
621.985	56.22
622.319	56.21
622.653	56.33
622.987	56.25
623.321	56.39
623.655	56.32
623.988	56.34
624.322	56.45
624.656	56.49
624.99	56.55
625.323	56.6
625.657	56.74
625.99	56.81
626.324	56.85
626.657	56.86
626.991	56.85
627.324	56.89
627.658	56.99
627.991	56.93
628.324	56.95
628.657	56.97
628.991	56.95
629.324	56.97
629.657	56.87
629.99	56.89
630.323	56.78
630.656	56.93
630.989	57
631.322	56.92
631.655	56.85
631.987	56.91
632.32	56.9
632.653	56.87
632.986	56.73
633.318	56.67
633.651	56.65
633.984	56.67
634.316	56.63
634.649	56.57
634.981	56.62
635.313	56.69
635.646	56.78
635.978	56.88
636.31	56.86
636.643	56.96
636.975	57.06
637.307	57.16
637.639	57.21
637.971	57.12
638.303	57.15
638.635	57.25
638.967	57.22
639.299	57.31
639.631	57.28
639.963	57.4
640.295	57.36
640.626	57.51
640.958	57.51
641.29	57.62
641.621	57.56
641.953	57.51
642.285	57.56
642.616	57.44
642.948	57.54
643.279	57.56
643.61	57.52
643.942	57.46
644.273	57.46
644.604	57.42
644.936	57.47
645.267	57.53
645.598	57.51
645.929	57.46
646.26	57.49
646.591	57.62
646.922	57.68
647.253	57.78
647.584	57.66
647.915	57.73
648.245	57.79
648.576	57.97
648.907	58.04
649.238	58.03
649.568	58.09
649.899	58.07
650.229	58.06
650.56	58.17
650.89	58.33
651.221	58.34
651.551	58.33
651.882	58.29
652.212	58.22
652.542	58.36
652.872	58.49
653.203	58.47
653.533	58.42
653.863	58.43
654.193	58.43
654.523	58.52
654.853	58.47
655.183	58.42
655.513	58.38
655.843	58.54
656.172	58.55
656.502	58.59
656.832	58.51
657.162	58.61
657.491	58.6
657.821	58.57
658.15	58.68
658.48	58.76
658.809	58.87
659.139	58.99
659.468	58.9
659.798	58.86
660.127	58.93
660.456	59
660.785	59.12
661.115	59.24
661.444	59.17
661.773	59.24
662.102	59.21
662.431	59.24
662.76	59.11
663.089	59.12
663.418	59.22
663.747	59.2
664.076	59.18
664.404	59.05
664.733	59.05
665.062	59.05
665.39	59.03
665.719	59.01
666.048	58.93
666.376	58.96
666.705	58.99
667.033	58.97
667.362	59.06
667.69	58.83
668.018	58.84
668.347	59.07
668.675	59.02
669.003	59.22
