Data from BA28415_Reflection_00009.txt Node
Date: Mon Nov 18 16:02:26 EST 2019
User: vgr7
Spectrometer: USB2G7710
Scans to average: 3
Trigger mode: 4
Integration Time (sec): 2.000000E-2
Electric dark correction enabled: true
Boxcar width: 10
XAxis mode: Wavelengths
Number of Pixels in Spectrum: 2048
>>>>>Begin Spectral Data<<<<<
177.721	144.62
178.105	274.89
178.488	198.03
178.871	142.32
179.254	22.7
179.636	-46.74
180.019	-193.28
180.402	96.43
180.785	255.51
181.168	82.19
181.55	85.93
181.933	85.85
182.316	125.93
182.698	123.91
183.081	120.65
183.463	127.61
183.846	156.15
184.228	159.37
184.611	120.82
184.993	160.37
185.376	160.43
185.758	164.91
186.14	224.09
186.522	177.74
186.904	178.51
187.287	134.73
187.669	199.92
188.051	379.95
188.433	836.46
188.815	1308.63
189.197	-189.74
189.579	-142.94
189.961	-252.94
190.342	-236.38
190.724	-170.23
191.106	-140.18
191.488	-195.81
191.869	-196.19
192.251	-360.51
192.633	-227.13
193.014	-209.65
193.396	-167.95
193.777	-196.21
194.159	-246.25
194.54	-125.3
194.922	-112.23
195.303	-109.34
195.684	-163.53
196.065	-138.85
196.447	-428.22
196.828	-312.44
197.209	-224.32
197.59	-1563.37
197.971	-171.3
198.352	-50.81
198.733	-59.29
199.114	-58.17
199.495	144.23
199.876	-348.13
200.257	-633.81
200.638	427.27
201.018	-281.63
201.399	-1077.91
201.78	1261.29
202.16	-249.03
202.541	-39.15
202.922	68.78
203.302	79.35
203.683	72.11
204.063	134.12
204.444	274.97
204.824	236.49
205.204	253.3
205.585	1337.67
205.965	312.81
206.345	320.79
206.725	356.74
207.106	405.58
207.486	392.57
207.866	461.08
208.246	1042.26
208.626	337.17
209.006	1458.49
209.386	996.84
209.766	903.46
210.145	-5815.49
210.525	-8070.21
210.905	-458.14
211.285	-228.96
211.664	-209.28
212.044	-192.76
212.424	-124.48
212.803	-109.07
213.183	-124.39
213.562	-152.86
213.942	-102.82
214.321	-97.74
214.701	-101.75
215.08	-137.65
215.459	-98.24
215.838	-114.57
216.218	-95.26
216.597	-77.87
216.976	-78.98
217.355	-66.72
217.734	-69.09
218.113	-49.67
218.492	-51.73
218.871	-63.62
219.25	-96.27
219.629	-115.59
220.008	-66.06
220.387	-112.62
220.766	-219.05
221.144	-329.5
221.523	-522.07
221.902	1391.14
222.28	-201.22
222.659	-63.34
223.037	-24.09
223.416	-30.63
223.794	-12.88
224.173	-1.48
224.551	21.37
224.929	12.4
225.308	0.64
225.686	-5.23
226.064	-7.35
226.442	-6.35
226.821	-0.07
227.199	0.35
227.577	2.84
227.955	1.61
228.333	2.58
228.711	6.65
229.089	7.36
229.467	6.04
229.845	0.26
230.222	2.11
230.6	1.4
230.978	0.33
231.356	1.8
231.733	2.47
232.111	1.14
232.488	-0.93
232.866	1.11
233.243	3.2
233.621	4.8
233.998	6.32
234.376	5.54
234.753	4.28
235.13	6.55
235.508	6.27
235.885	4.67
236.262	3.47
236.639	1.65
237.016	1.27
237.393	2.77
237.77	4.86
238.147	5
238.524	5.58
238.901	6.61
239.278	6.54
239.655	6.18
240.032	6.74
240.409	6.18
240.785	5.69
241.162	5.7
241.539	5.32
241.915	5.39
242.292	4.93
242.668	4.9
243.045	4.71
243.421	4.14
243.798	4.49
244.174	4.67
244.551	4.93
244.927	4.96
245.303	5.23
245.679	5.14
246.056	5.16
246.432	5.2
246.808	4.87
247.184	4.66
247.56	4.83
247.936	4.72
248.312	4.9
248.688	4.93
249.064	4.84
249.44	4.87
249.815	4.76
250.191	5.18
250.567	5.34
250.943	5.08
251.318	5.39
251.694	5.37
252.069	5.3
252.445	5.49
252.82	5.54
253.196	5.2
253.571	5.36
253.947	5.42
254.322	5.55
254.697	5.62
255.073	5.55
255.448	5.15
255.823	5.08
256.198	5.26
256.573	5.49
256.948	5.69
257.323	5.83
257.698	5.87
258.073	5.69
258.448	5.65
258.823	5.71
259.198	5.75
259.573	5.86
259.948	5.94
260.322	5.88
260.697	5.9
261.072	5.69
261.446	5.75
261.821	5.76
262.195	5.79
262.57	5.69
262.944	5.8
263.319	5.8
263.693	5.82
264.067	5.78
264.442	5.67
264.816	5.45
265.19	5.31
265.564	5.36
265.938	5.5
266.313	5.4
266.687	5.4
267.061	5.49
267.435	5.43
267.809	5.37
268.183	5.29
268.556	5.15
268.93	5.37
269.304	5.29
269.678	5.43
270.051	5.31
270.425	5.42
270.799	5.34
271.172	5.25
271.546	5.27
271.919	5.17
272.293	5.22
272.666	5.32
273.04	5.3
273.413	5.27
273.787	5.13
274.16	5.07
274.533	5.07
274.906	4.9
275.279	4.75
275.653	4.81
276.026	4.72
276.399	4.88
276.772	4.92
277.145	4.69
277.518	4.62
277.891	4.69
278.263	4.67
278.636	4.75
279.009	4.83
279.382	4.75
279.755	4.71
280.127	4.7
280.5	4.81
280.872	4.83
281.245	4.82
281.617	4.97
281.99	5.23
282.362	5.27
282.735	5.28
283.107	5.3
283.479	5.4
283.852	5.49
284.224	5.41
284.596	5.25
284.968	5.45
285.34	5.42
285.713	5.31
286.085	5.44
286.457	5.49
286.829	5.68
287.201	5.85
287.572	5.9
287.944	5.81
288.316	5.75
288.688	5.8
289.06	5.76
289.431	5.84
289.803	5.74
290.175	5.76
290.546	5.86
290.918	5.89
291.289	5.82
291.661	5.87
292.032	5.94
292.403	6.19
292.775	6.23
293.146	6.24
293.517	6.34
293.889	6.34
294.26	6.32
294.631	6.16
295.002	6.03
295.373	6.13
295.744	6.32
296.115	6.44
296.486	6.51
296.857	6.75
297.228	6.84
297.599	6.96
297.97	7.04
298.34	6.94
298.711	7.09
299.082	7.08
299.452	7.22
299.823	7.34
300.194	7.28
300.564	7.27
300.935	7.39
301.305	7.43
301.676	7.48
302.046	7.62
302.416	7.91
302.787	8.09
303.157	8.16
303.527	8.26
303.897	8.25
304.267	8.47
304.637	8.47
305.008	8.53
305.378	8.63
305.748	8.8
306.117	9
306.487	9.03
306.857	9.16
307.227	9.33
307.597	9.5
307.967	9.68
308.336	9.88
308.706	9.99
309.076	10.09
309.445	10.29
309.815	10.33
310.184	10.29
310.554	10.5
310.923	10.54
311.293	10.47
311.662	10.58
312.031	10.5
312.401	10.5
312.77	10.46
313.139	10.65
313.508	10.8
313.877	10.84
314.246	10.93
314.616	10.98
314.985	10.99
315.353	11
315.722	11.18
316.091	11.1
316.46	11.06
316.829	11.14
317.198	11.07
317.567	11.04
317.935	11.13
318.304	11.09
318.672	11.1
319.041	11.34
319.41	11.5
319.778	11.58
320.147	11.72
320.515	11.95
320.883	11.85
321.252	11.9
321.62	12.07
321.988	12.25
322.357	12.46
322.725	12.36
323.093	12.33
323.461	12.42
323.829	12.47
324.197	12.68
324.565	12.79
324.933	12.87
325.301	13.02
325.669	13.03
326.037	13.08
326.405	13.32
326.772	13.2
327.14	13.29
327.508	13.38
327.875	13.3
328.243	13.28
328.61	13.33
328.978	13.33
329.346	13.42
329.713	13.35
330.08	13.34
330.448	13.43
330.815	13.53
331.182	13.51
331.55	13.56
331.917	13.58
332.284	13.71
332.651	13.8
333.018	13.79
333.385	13.9
333.752	14.03
334.119	13.97
334.486	14.14
334.853	14.09
335.22	14.13
335.587	14.31
335.954	14.23
336.32	14.4
336.687	14.38
337.054	14.34
337.42	14.43
337.787	14.51
338.153	14.53
338.52	14.63
338.886	14.59
339.253	14.59
339.619	14.59
339.986	14.61
340.352	14.68
340.718	14.85
341.084	14.72
341.451	14.8
341.817	15.01
342.183	15.01
342.549	14.92
342.915	15.06
343.281	15.11
343.647	15.23
344.013	15.26
344.379	15.26
344.745	15.29
345.11	15.3
345.476	15.37
345.842	15.49
346.208	15.5
346.573	15.58
346.939	15.76
347.304	15.7
347.67	15.68
348.035	15.61
348.401	15.59
348.766	15.8
349.132	15.74
349.497	15.63
349.862	15.82
350.228	15.9
350.593	15.82
350.958	15.83
351.323	15.86
351.688	15.81
352.053	15.88
352.418	15.98
352.783	16
353.148	15.96
353.513	16.01
353.878	16.02
354.243	16.07
354.608	16.04
354.972	16.13
355.337	16.17
355.702	16.22
356.066	16.22
356.431	16.26
356.795	16.26
357.16	16.22
357.524	16.08
357.889	16.04
358.253	16.07
358.618	16.09
358.982	16.05
359.346	16.08
359.71	15.97
360.075	15.91
360.439	15.9
360.803	15.85
361.167	15.74
361.531	15.71
361.895	15.67
362.259	15.6
362.623	15.63
362.987	15.65
363.351	15.69
363.714	15.68
364.078	15.64
364.442	15.65
364.806	15.62
365.169	15.59
365.533	15.56
365.896	15.51
366.26	15.39
366.623	15.39
366.987	15.25
367.35	15.36
367.714	15.39
368.077	15.38
368.44	15.38
368.803	15.39
369.167	15.35
369.53	15.28
369.893	15.29
370.256	15.18
370.619	15.08
370.982	14.9
371.345	14.82
371.708	14.78
372.071	14.65
372.434	14.59
372.797	14.52
373.159	14.59
373.522	14.55
373.885	14.55
374.247	14.46
374.61	14.45
374.973	14.33
375.335	14.19
375.698	14.18
376.06	14.08
376.423	14.05
376.785	14.03
377.147	14.03
377.51	13.98
377.872	13.96
378.234	13.89
378.596	13.9
378.958	13.85
379.321	13.77
379.683	13.78
380.045	13.77
380.407	13.75
380.769	13.64
381.13	13.58
381.492	13.42
381.854	13.35
382.216	13.28
382.578	13.26
382.939	13.23
383.301	13.1
383.663	13.07
384.024	13
384.386	12.97
384.747	12.88
385.109	12.84
385.47	12.73
385.832	12.69
386.193	12.65
386.554	12.62
386.916	12.59
387.277	12.51
387.638	12.45
387.999	12.37
388.36	12.36
388.721	12.33
389.082	12.39
389.443	12.34
389.804	12.3
390.165	12.25
390.526	12.23
390.887	12.17
391.248	12.18
391.609	12.14
391.969	12.04
392.33	12
392.691	11.94
393.051	11.88
393.412	11.84
393.772	11.75
394.133	11.67
394.493	11.59
394.854	11.53
395.214	11.46
395.574	11.41
395.935	11.31
396.295	11.26
396.655	11.14
397.015	11.06
397.376	11.03
397.736	10.92
398.096	10.82
398.456	10.76
398.816	10.63
399.176	10.51
399.535	10.46
399.895	10.37
400.255	10.32
400.615	10.31
400.975	10.22
401.334	10.14
401.694	10.06
402.054	9.99
402.413	9.94
402.773	9.86
403.132	9.79
403.492	9.77
403.851	9.73
404.211	9.71
404.57	9.68
404.929	9.63
405.288	9.6
405.648	9.59
406.007	9.55
406.366	9.52
406.725	9.53
407.084	9.47
407.443	9.45
407.802	9.38
408.161	9.35
408.52	9.31
408.879	9.28
409.238	9.29
409.596	9.29
409.955	9.25
410.314	9.26
410.673	9.25
411.031	9.21
411.39	9.16
411.748	9.14
412.107	9.16
412.465	9.11
412.824	9.08
413.182	9.01
413.54	9
413.899	8.99
414.257	8.93
414.615	8.91
414.974	8.9
415.332	8.87
415.69	8.81
416.048	8.78
416.406	8.75
416.764	8.68
417.122	8.61
417.48	8.58
417.838	8.53
418.195	8.52
418.553	8.47
418.911	8.41
419.269	8.36
419.626	8.31
419.984	8.26
420.342	8.21
420.699	8.19
421.057	8.14
421.414	8.08
421.772	8.05
422.129	8.01
422.486	7.94
422.844	7.89
423.201	7.84
423.558	7.8
423.915	7.77
424.273	7.74
424.63	7.71
424.987	7.67
425.344	7.62
425.701	7.56
426.058	7.53
426.415	7.49
426.772	7.45
427.128	7.4
427.485	7.37
427.842	7.33
428.199	7.3
428.555	7.27
428.912	7.26
429.269	7.24
429.625	7.22
429.982	7.22
430.338	7.23
430.695	7.25
431.051	7.23
431.407	7.22
431.764	7.23
432.12	7.22
432.476	7.23
432.832	7.22
433.189	7.22
433.545	7.23
433.901	7.23
434.257	7.24
434.613	7.26
434.969	7.28
435.325	7.32
435.681	7.33
436.036	7.35
436.392	7.36
436.748	7.36
437.104	7.4
437.459	7.39
437.815	7.36
438.171	7.36
438.526	7.38
438.882	7.38
439.237	7.38
439.593	7.39
439.948	7.37
440.304	7.37
440.659	7.37
441.014	7.36
441.369	7.37
441.725	7.35
442.08	7.34
442.435	7.31
442.79	7.28
443.145	7.26
443.5	7.24
443.855	7.22
444.21	7.19
444.565	7.16
444.92	7.15
445.275	7.14
445.629	7.11
445.984	7.08
446.339	7.06
446.693	7.02
447.048	6.99
447.403	6.99
447.757	6.97
448.112	6.95
448.466	6.93
448.82	6.9
449.175	6.9
449.529	6.88
449.883	6.85
450.238	6.84
450.592	6.82
450.946	6.8
451.3	6.77
451.654	6.74
452.008	6.72
452.362	6.7
452.716	6.7
453.07	6.7
453.424	6.71
453.778	6.7
454.132	6.68
454.486	6.69
454.839	6.67
455.193	6.67
455.547	6.67
455.9	6.68
456.254	6.68
456.607	6.68
456.961	6.68
457.314	6.69
457.668	6.68
458.021	6.66
458.375	6.65
458.728	6.67
459.081	6.68
459.434	6.66
459.787	6.68
460.141	6.69
460.494	6.67
460.847	6.68
461.2	6.68
461.553	6.73
461.906	6.77
462.259	6.8
462.611	6.83
462.964	6.86
463.317	6.88
463.67	6.92
464.022	6.92
464.375	6.96
464.728	6.97
465.08	7.02
465.433	7.07
465.785	7.11
466.138	7.13
466.49	7.18
466.843	7.24
467.195	7.27
467.547	7.31
467.899	7.35
468.252	7.36
468.604	7.37
468.956	7.4
469.308	7.41
469.66	7.41
470.012	7.44
470.364	7.44
470.716	7.46
471.068	7.48
471.42	7.53
471.772	7.55
472.123	7.61
472.475	7.63
472.827	7.64
473.178	7.67
473.53	7.67
473.882	7.68
474.233	7.69
474.585	7.69
474.936	7.69
475.288	7.68
475.639	7.73
475.99	7.75
476.342	7.73
476.693	7.74
477.044	7.73
477.395	7.7
477.746	7.7
478.097	7.71
478.448	7.68
478.8	7.64
479.15	7.63
479.501	7.62
479.852	7.61
480.203	7.61
480.554	7.61
480.905	7.63
481.255	7.62
481.606	7.61
481.957	7.61
482.307	7.6
482.658	7.6
483.009	7.57
483.359	7.57
483.709	7.57
484.06	7.56
484.41	7.57
484.761	7.58
485.111	7.57
485.461	7.57
485.811	7.57
486.162	7.58
486.512	7.57
486.862	7.56
487.212	7.55
487.562	7.56
487.912	7.55
488.262	7.54
488.612	7.54
488.961	7.54
489.311	7.54
489.661	7.56
490.011	7.57
490.36	7.57
490.71	7.59
491.06	7.59
491.409	7.6
491.759	7.6
492.108	7.61
492.458	7.63
492.807	7.64
493.157	7.68
493.506	7.72
493.855	7.76
494.204	7.79
494.554	7.83
494.903	7.87
495.252	7.91
495.601	7.98
495.95	8.06
496.299	8.13
496.648	8.22
496.997	8.28
497.346	8.38
497.695	8.47
498.043	8.57
498.392	8.66
498.741	8.75
499.09	8.85
499.438	8.96
499.787	9.06
500.135	9.17
500.484	9.27
500.832	9.38
501.181	9.46
501.529	9.6
501.878	9.75
502.226	9.88
502.574	10
502.923	10.13
503.271	10.26
503.619	10.38
503.967	10.5
504.315	10.65
504.663	10.77
505.011	10.89
505.359	11.01
505.707	11.15
506.055	11.3
506.403	11.42
506.751	11.54
507.098	11.69
507.446	11.87
507.794	12.02
508.141	12.14
508.489	12.33
508.837	12.46
509.184	12.61
509.531	12.74
509.879	12.91
510.226	13.06
510.574	13.2
510.921	13.34
511.268	13.47
511.616	13.6
511.963	13.77
512.31	13.94
512.657	14.11
513.004	14.32
513.351	14.51
513.698	14.72
514.045	14.9
514.392	15.07
514.739	15.2
515.086	15.36
515.432	15.54
515.779	15.7
516.126	15.85
516.473	16.02
516.819	16.23
517.166	16.34
517.512	16.46
517.859	16.61
518.205	16.76
518.552	16.92
518.898	17.08
519.245	17.2
519.591	17.36
519.937	17.49
520.283	17.63
520.629	17.78
520.976	17.95
521.322	18.15
521.668	18.35
522.014	18.54
522.36	18.75
522.706	18.99
523.052	19.26
523.398	19.53
523.743	19.78
524.089	20.02
524.435	20.29
524.781	20.56
525.126	20.79
525.472	20.99
525.817	21.17
526.163	21.38
526.509	21.53
526.854	21.67
527.199	21.81
527.545	21.93
527.89	22.08
528.235	22.22
528.581	22.35
528.926	22.5
529.271	22.67
529.616	22.81
529.961	22.96
530.306	23.11
530.651	23.26
530.996	23.45
531.341	23.61
531.686	23.79
532.031	23.99
532.376	24.17
532.721	24.38
533.065	24.59
533.41	24.79
533.755	25.05
534.099	25.29
534.444	25.56
534.788	25.82
535.133	26.05
535.477	26.29
535.822	26.58
536.166	26.86
536.51	27.17
536.855	27.52
537.199	27.87
537.543	28.19
537.887	28.53
538.231	28.85
538.576	29.2
538.92	29.56
539.264	29.86
539.608	30.18
539.951	30.45
540.295	30.72
540.639	30.97
540.983	31.2
541.327	31.45
541.671	31.69
542.014	31.92
542.358	32.17
542.701	32.43
543.045	32.64
543.389	32.88
543.732	33.1
544.075	33.32
544.419	33.53
544.762	33.75
545.105	34.03
545.449	34.29
545.792	34.54
546.135	34.78
546.478	35.07
546.821	35.36
547.165	35.69
547.508	36.09
547.851	36.39
548.194	36.71
548.536	37.02
548.879	37.32
549.222	37.66
549.565	37.95
549.908	38.28
550.25	38.6
550.593	38.94
550.936	39.27
551.278	39.58
551.621	39.9
551.963	40.28
552.306	40.53
552.648	40.82
552.991	41.17
553.333	41.46
553.675	41.75
554.017	42
554.36	42.22
554.702	42.37
555.044	42.67
555.386	42.9
555.728	43.22
556.07	43.56
556.412	43.85
556.754	44.13
557.096	44.41
557.438	44.69
557.78	44.98
558.121	45.27
558.463	45.54
558.805	45.84
559.147	46.1
559.488	46.38
559.83	46.59
560.171	46.79
560.513	47.07
560.854	47.37
561.196	47.61
561.537	47.86
561.878	48.12
562.22	48.35
562.561	48.6
562.902	48.78
563.243	48.95
563.584	49.16
563.925	49.42
564.266	49.57
564.607	49.78
564.948	49.97
565.289	50.18
565.63	50.45
565.971	50.54
566.312	50.7
566.653	50.9
566.993	51.08
567.334	51.28
567.675	51.41
568.015	51.56
568.356	51.68
568.696	51.85
569.037	51.97
569.377	52.1
569.718	52.17
570.058	52.34
570.398	52.46
570.739	52.63
571.079	52.73
571.419	52.9
571.759	53.04
572.099	53.18
572.439	53.24
572.779	53.31
573.119	53.49
573.459	53.58
573.799	53.69
574.139	53.86
574.479	53.99
574.819	54.09
575.158	54.19
575.498	54.37
575.838	54.52
576.177	54.61
576.517	54.74
576.856	55
577.196	55.13
577.535	55.25
577.875	55.34
578.214	55.38
578.553	55.5
578.893	55.59
579.232	55.67
579.571	55.83
579.91	55.93
580.25	56.04
580.589	56.21
580.928	56.28
581.267	56.34
581.606	56.38
581.945	56.49
582.283	56.54
582.622	56.71
582.961	56.8
583.3	56.98
583.639	57.08
583.977	57.15
584.316	57.24
584.654	57.41
584.993	57.49
585.332	57.63
585.67	57.71
586.008	57.75
586.347	57.89
586.685	57.92
587.024	57.97
587.362	58.09
587.7	58.11
588.038	58.21
588.376	58.34
588.715	58.45
589.053	58.61
589.391	58.74
589.729	58.71
590.067	58.74
590.404	58.79
590.742	58.77
591.08	58.74
591.418	58.84
591.756	58.83
592.093	58.84
592.431	58.87
592.769	58.88
593.106	58.93
593.444	58.91
593.781	58.97
594.119	59.06
594.456	59.01
594.793	59.07
595.131	59.13
595.468	59.13
595.805	59.16
596.143	59.11
596.48	59.09
596.817	59.11
597.154	59.18
597.491	59.25
597.828	59.35
598.165	59.4
598.502	59.41
598.839	59.44
599.176	59.52
599.512	59.62
599.849	59.72
600.186	59.77
600.523	59.87
600.859	59.98
601.196	60.02
601.532	60.07
601.869	60.01
602.205	60.05
602.542	60.07
602.878	60.11
603.215	60.19
603.551	60.27
603.887	60.36
604.223	60.41
604.56	60.41
604.896	60.45
605.232	60.45
605.568	60.49
605.904	60.54
606.24	60.51
606.576	60.53
606.912	60.56
607.248	60.61
607.583	60.67
607.919	60.7
608.255	60.66
608.591	60.81
608.926	60.97
609.262	61.03
609.597	61.14
609.933	61.22
610.268	61.21
610.604	61.19
610.939	61.2
611.275	61.23
611.61	61.25
611.945	61.29
612.281	61.44
612.616	61.44
612.951	61.47
613.286	61.6
613.621	61.64
613.956	61.69
614.291	61.7
614.626	61.68
614.961	61.59
615.296	61.61
615.631	61.46
615.966	61.43
616.3	61.39
616.635	61.41
616.97	61.34
617.304	61.4
617.639	61.45
617.973	61.49
618.308	61.48
618.642	61.53
618.977	61.56
619.311	61.42
619.646	61.44
619.98	61.5
620.314	61.57
620.648	61.5
620.983	61.47
621.317	61.62
621.651	61.57
621.985	61.68
622.319	61.75
622.653	61.82
622.987	61.86
623.321	61.94
623.655	61.95
623.988	62.02
624.322	62
624.656	62.01
624.99	61.91
625.323	61.96
625.657	62.02
625.99	62
626.324	62.1
626.657	62.14
626.991	62.07
627.324	62.1
627.658	62.13
627.991	62.22
628.324	62.14
628.657	62.14
628.991	62.17
629.324	62.22
629.657	62.26
629.99	62.33
630.323	62.3
630.656	62.33
630.989	62.32
631.322	62.41
631.655	62.44
631.987	62.48
632.32	62.53
632.653	62.52
632.986	62.58
633.318	62.6
633.651	62.67
633.984	62.8
634.316	62.72
634.649	62.76
634.981	62.7
635.313	62.79
635.646	62.9
635.978	62.96
636.31	62.94
636.643	62.95
636.975	62.9
637.307	62.86
637.639	62.81
637.971	62.82
638.303	62.83
638.635	62.83
638.967	62.89
639.299	62.81
639.631	62.8
639.963	62.78
640.295	62.8
640.626	62.74
640.958	62.63
641.29	62.75
641.621	62.63
641.953	62.68
642.285	62.61
642.616	62.65
642.948	62.61
643.279	62.66
643.61	62.69
643.942	62.72
644.273	62.83
644.604	62.87
644.936	62.82
645.267	62.74
645.598	62.83
645.929	62.95
646.26	62.96
646.591	63
646.922	62.92
647.253	62.89
647.584	63.1
647.915	63.25
648.245	63.05
648.576	63.14
648.907	63.16
649.238	63.22
649.568	63.16
649.899	63.23
650.229	63.13
650.56	63.08
650.89	63.13
651.221	63.15
651.551	63.23
651.882	63.28
652.212	63.31
652.542	63.16
652.872	63.09
653.203	63.16
653.533	63.16
653.863	63.22
654.193	63.26
654.523	63.14
654.853	63.07
655.183	63.24
655.513	63.31
655.843	63.24
656.172	63.18
656.502	63.15
656.832	63.05
657.162	63.11
657.491	63.1
657.821	63.06
658.15	63.06
658.48	63.06
658.809	63.03
659.139	63.15
659.468	63.24
