Data from BA28468_Reflection_00005.txt Node
Date: Mon Nov 18 15:14:49 EST 2019
User: vgr7
Spectrometer: USB2G7710
Scans to average: 3
Trigger mode: 4
Integration Time (sec): 2.000000E-2
Electric dark correction enabled: true
Boxcar width: 10
XAxis mode: Wavelengths
Number of Pixels in Spectrum: 2048
>>>>>Begin Spectral Data<<<<<
177.721	97.75
178.105	-1185.71
178.488	50.63
178.871	56.07
179.254	61.04
179.636	60.53
180.019	80.74
180.402	29.09
180.785	154.37
181.168	133.15
181.55	84.4
181.933	-500
182.316	-188.31
182.698	-30.98
183.081	-18.25
183.463	114.13
183.846	8638.46
184.228	874.83
184.611	147.79
184.993	61.8
185.376	82.08
185.758	55.78
186.14	31.11
186.522	27.89
186.904	43
187.287	23.41
187.669	24.29
188.051	-7.11
188.433	5.29
188.815	10.48
189.197	3.79
189.579	16.46
189.961	20.2
190.342	18.19
190.724	13.87
191.106	7.55
191.488	-1.61
191.869	-11.97
192.251	-13.52
192.633	-7.94
193.014	-1.44
193.396	-16.24
193.777	-6.88
194.159	-2.72
194.54	5.61
194.922	3.23
195.303	2.92
195.684	-1.44
196.065	17.6
196.447	17.73
196.828	16.68
197.209	12.29
197.59	6.24
197.971	5.65
198.352	10.77
198.733	9.66
199.114	13.77
199.495	22
199.876	38.32
200.257	33.5
200.638	35.9
201.018	31.9
201.399	33.92
201.78	35.24
202.16	24.08
202.541	14.01
202.922	9.84
203.302	9.34
203.683	9.06
204.063	2.23
204.444	8.58
204.824	-4.77
205.204	0.5
205.585	-1.73
205.965	3.89
206.345	-0.86
206.725	-3.49
207.106	-12.44
207.486	-24.97
207.866	-34.13
208.246	-16.59
208.626	-15.19
209.006	2.51
209.386	-0.8
209.766	-2.03
210.145	-2.28
210.525	15.97
210.905	17.38
211.285	20.04
211.664	29.43
212.044	44.79
212.424	42.64
212.803	54.44
213.183	66.28
213.562	63.68
213.942	71.38
214.321	67.94
214.701	44.4
215.08	51.49
215.459	46.84
215.838	52.78
216.218	47.57
216.597	39.3
216.976	31.3
217.355	25.95
217.734	23.46
218.113	28.64
218.492	23.89
218.871	22.53
219.25	23.06
219.629	22.17
220.008	21.69
220.387	14.08
220.766	1.35
221.144	-11.51
221.523	-18.25
221.902	-26.59
222.28	-29.7
222.659	-33.64
223.037	-28.64
223.416	-23.25
223.794	-28.15
224.173	-36.48
224.551	-22.88
224.929	-19.49
225.308	-14.83
225.686	-14.91
226.064	-12.52
226.442	-16.55
226.821	-10.3
227.199	-11.52
227.577	-8.59
227.955	-10.73
228.333	-6.74
228.711	-2.23
229.089	3.61
229.467	2.6
229.845	2.59
230.222	4.13
230.6	3.85
230.978	3.31
231.356	3.52
231.733	3.2
232.111	4.93
232.488	3.52
232.866	3.77
233.243	4.71
233.621	4.22
233.998	6.55
234.376	7.24
234.753	5.82
235.13	6.87
235.508	7.33
235.885	7.6
236.262	6.5
236.639	5.85
237.016	4.13
237.393	6.2
237.77	5.94
238.147	6.12
238.524	7.1
238.901	7.14
239.278	7.59
239.655	8.23
240.032	8.26
240.409	7.77
240.785	7.43
241.162	6.93
241.539	7.49
241.915	6.25
242.292	5.95
242.668	5.86
243.045	5.89
243.421	5.37
243.798	5.1
244.174	5.11
244.551	5.26
244.927	5.58
245.303	5.5
245.679	5.69
246.056	5.73
246.432	5.71
246.808	5.75
247.184	5.55
247.56	5.38
247.936	5.31
248.312	5.23
248.688	5.38
249.064	5.32
249.44	5.1
249.815	5.18
250.191	5.33
250.567	5.23
250.943	5.07
251.318	5.27
251.694	5.41
252.069	5.45
252.445	5.39
252.82	4.96
253.196	4.79
253.571	4.72
253.947	4.62
254.322	4.46
254.697	4.36
255.073	4.43
255.448	4.39
255.823	4.33
256.198	4.69
256.573	4.51
256.948	4.69
257.323	4.89
257.698	4.92
258.073	4.9
258.448	4.93
258.823	4.79
259.198	4.59
259.573	4.54
259.948	4.46
260.322	4.55
260.697	4.65
261.072	4.74
261.446	4.81
261.821	4.72
262.195	4.89
262.57	4.79
262.944	4.72
263.319	4.75
263.693	4.67
264.067	4.61
264.442	4.7
264.816	4.66
265.19	4.55
265.564	4.69
265.938	4.58
266.313	4.74
266.687	4.95
267.061	5.15
267.435	5.19
267.809	5.15
268.183	5.09
268.556	5.16
268.93	5.31
269.304	5.37
269.678	5.45
270.051	5.23
270.425	5.34
270.799	5.41
271.172	5.39
271.546	5.61
271.919	5.57
272.293	5.61
272.666	5.67
273.04	5.72
273.413	5.52
273.787	5.66
274.16	5.75
274.533	5.69
274.906	5.69
275.279	5.66
275.653	5.67
276.026	5.52
276.399	5.4
276.772	5.3
277.145	5.06
277.518	5.08
277.891	5.31
278.263	5.15
278.636	5.25
279.009	5.23
279.382	5.07
279.755	4.99
280.127	4.96
280.5	4.97
280.872	5.04
281.245	4.99
281.617	4.93
281.99	4.72
282.362	4.73
282.735	4.57
283.107	4.62
283.479	4.69
283.852	4.75
284.224	4.78
284.596	4.64
284.968	4.7
285.34	4.75
285.713	4.53
286.085	4.67
286.457	4.62
286.829	4.72
287.201	4.78
287.572	4.8
287.944	4.72
288.316	4.74
288.688	4.69
289.06	4.85
289.431	4.9
289.803	5.05
290.175	4.99
290.546	5.1
290.918	5.1
291.289	5.08
291.661	5.24
292.032	5.46
292.403	5.57
292.775	5.68
293.146	5.57
293.517	5.71
293.889	5.71
294.26	5.79
294.631	5.78
295.002	5.68
295.373	5.8
295.744	5.88
296.115	5.87
296.486	5.74
296.857	5.68
297.228	5.73
297.599	5.63
297.97	5.77
298.34	5.79
298.711	5.78
299.082	5.85
299.452	5.71
299.823	5.68
300.194	5.7
300.564	5.53
300.935	5.62
301.305	5.62
301.676	5.62
302.046	5.67
302.416	5.67
302.787	5.72
303.157	5.66
303.527	5.68
303.897	5.72
304.267	5.92
304.637	5.92
305.008	5.84
305.378	6.04
305.748	6.01
306.117	6
306.487	6.14
306.857	6.17
307.227	6.24
307.597	6.1
307.967	6.1
308.336	6.25
308.706	6.27
309.076	6.13
309.445	6.05
309.815	5.88
310.184	5.8
310.554	5.82
310.923	5.84
311.293	5.86
311.662	5.73
312.031	5.64
312.401	5.63
312.77	5.62
313.139	5.51
313.508	5.59
313.877	5.59
314.246	5.48
314.616	5.37
314.985	5.33
315.353	5.31
315.722	5.26
316.091	5.19
316.46	5.08
316.829	5.19
317.198	5.19
317.567	5.21
317.935	5.23
318.304	5.2
318.672	5.16
319.041	5.15
319.41	5.11
319.778	5.1
320.147	5.13
320.515	5.15
320.883	5.08
321.252	4.97
321.62	4.98
321.988	5.01
322.357	5.04
322.725	5
323.093	4.98
323.461	4.89
323.829	4.95
324.197	4.96
324.565	4.95
324.933	4.93
325.301	5
325.669	5
326.037	5.1
326.405	5.08
326.772	5.08
327.14	5.2
327.508	5.35
327.875	5.35
328.243	5.35
328.61	5.43
328.978	5.48
329.346	5.44
329.713	5.36
330.08	5.32
330.448	5.25
330.815	5.28
331.182	5.36
331.55	5.33
331.917	5.35
332.284	5.46
332.651	5.66
333.018	5.76
333.385	5.75
333.752	5.67
334.119	5.64
334.486	5.69
334.853	5.62
335.22	5.48
335.587	5.52
335.954	5.56
336.32	5.49
336.687	5.5
337.054	5.57
337.42	5.69
337.787	5.64
338.153	5.72
338.52	5.77
338.886	5.74
339.253	5.68
339.619	5.75
339.986	5.69
340.352	5.62
340.718	5.47
341.084	5.55
341.451	5.61
341.817	5.68
342.183	5.62
342.549	5.62
342.915	5.68
343.281	5.72
343.647	5.74
344.013	5.77
344.379	5.8
344.745	5.79
345.11	5.75
345.476	5.79
345.842	5.79
346.208	5.8
346.573	5.82
346.939	5.96
347.304	5.92
347.67	5.96
348.035	5.95
348.401	6.06
348.766	6.03
349.132	6.03
349.497	6.03
349.862	6.04
350.228	6.13
350.593	6.03
350.958	5.97
351.323	5.87
351.688	5.97
352.053	5.96
352.418	5.99
352.783	5.95
353.148	5.99
353.513	6.06
353.878	6.05
354.243	6.03
354.608	5.89
354.972	5.92
355.337	5.87
355.702	5.94
356.066	5.94
356.431	5.87
356.795	5.84
357.16	5.79
357.524	5.72
357.889	5.68
358.253	5.76
358.618	5.78
358.982	5.79
359.346	5.69
359.71	5.67
360.075	5.62
360.439	5.69
360.803	5.7
361.167	5.67
361.531	5.67
361.895	5.63
362.259	5.67
362.623	5.69
362.987	5.69
363.351	5.64
363.714	5.7
364.078	5.76
364.442	5.73
364.806	5.75
365.169	5.78
365.533	5.8
365.896	5.75
366.26	5.76
366.623	5.73
366.987	5.76
367.35	5.78
367.714	5.75
368.077	5.71
368.44	5.65
368.803	5.61
369.167	5.6
369.53	5.65
369.893	5.73
370.256	5.69
370.619	5.69
370.982	5.66
371.345	5.52
371.708	5.52
372.071	5.59
372.434	5.57
372.797	5.62
373.159	5.6
373.522	5.7
373.885	5.76
374.247	5.83
374.61	5.86
374.973	5.82
375.335	5.86
375.698	5.87
376.06	5.86
376.423	5.89
376.785	5.95
377.147	5.98
377.51	5.97
377.872	6.02
378.234	6.03
378.596	6.02
378.958	6.01
379.321	6.06
379.683	6.02
380.045	6.05
380.407	6.06
380.769	6.09
381.13	6.04
381.492	6.01
381.854	5.99
382.216	5.93
382.578	5.94
382.939	5.94
383.301	5.87
383.663	5.91
384.024	5.9
384.386	5.84
384.747	5.83
385.109	5.76
385.47	5.71
385.832	5.7
386.193	5.76
386.554	5.77
386.916	5.7
387.277	5.73
387.638	5.73
387.999	5.73
388.36	5.67
388.721	5.65
389.082	5.57
389.443	5.54
389.804	5.54
390.165	5.56
390.526	5.53
390.887	5.56
391.248	5.59
391.609	5.61
391.969	5.62
392.33	5.62
392.691	5.62
393.051	5.65
393.412	5.63
393.772	5.6
394.133	5.62
394.493	5.6
394.854	5.59
395.214	5.56
395.574	5.56
395.935	5.57
396.295	5.6
396.655	5.63
397.015	5.66
397.376	5.69
397.736	5.7
398.096	5.76
398.456	5.78
398.816	5.75
399.176	5.71
399.535	5.7
399.895	5.67
400.255	5.7
400.615	5.69
400.975	5.7
401.334	5.67
401.694	5.65
402.054	5.68
402.413	5.69
402.773	5.68
403.132	5.67
403.492	5.7
403.851	5.69
404.211	5.71
404.57	5.71
404.929	5.71
405.288	5.71
405.648	5.67
406.007	5.67
406.366	5.7
406.725	5.75
407.084	5.78
407.443	5.83
407.802	5.81
408.161	5.81
408.52	5.8
408.879	5.82
409.238	5.87
409.596	5.85
409.955	5.85
410.314	5.87
410.673	5.87
411.031	5.86
411.39	5.85
411.748	5.84
412.107	5.84
412.465	5.84
412.824	5.81
413.182	5.82
413.54	5.81
413.899	5.79
414.257	5.77
414.615	5.73
414.974	5.72
415.332	5.72
415.69	5.73
416.048	5.74
416.406	5.72
416.764	5.71
417.122	5.73
417.48	5.71
417.838	5.72
418.195	5.73
418.553	5.73
418.911	5.74
419.269	5.75
419.626	5.75
419.984	5.74
420.342	5.77
420.699	5.76
421.057	5.78
421.414	5.77
421.772	5.76
422.129	5.78
422.486	5.78
422.844	5.79
423.201	5.79
423.558	5.79
423.915	5.8
424.273	5.81
424.63	5.79
424.987	5.8
425.344	5.8
425.701	5.81
426.058	5.79
426.415	5.79
426.772	5.77
427.128	5.77
427.485	5.78
427.842	5.76
428.199	5.75
428.555	5.74
428.912	5.76
429.269	5.77
429.625	5.77
429.982	5.75
430.338	5.74
430.695	5.74
431.051	5.73
431.407	5.73
431.764	5.73
432.12	5.74
432.476	5.77
432.832	5.75
433.189	5.73
433.545	5.73
433.901	5.75
434.257	5.75
434.613	5.76
434.969	5.76
435.325	5.76
435.681	5.78
436.036	5.76
436.392	5.74
436.748	5.73
437.104	5.72
437.459	5.71
437.815	5.69
438.171	5.68
438.526	5.69
438.882	5.69
439.237	5.68
439.593	5.67
439.948	5.65
440.304	5.66
440.659	5.66
441.014	5.67
441.369	5.64
441.725	5.64
442.08	5.65
442.435	5.64
442.79	5.63
443.145	5.65
443.5	5.63
443.855	5.65
444.21	5.66
444.565	5.67
444.92	5.68
445.275	5.69
445.629	5.69
445.984	5.69
446.339	5.67
446.693	5.67
447.048	5.68
447.403	5.67
447.757	5.68
448.112	5.67
448.466	5.68
448.82	5.68
449.175	5.69
449.529	5.66
449.883	5.68
450.238	5.69
450.592	5.68
450.946	5.7
451.3	5.68
451.654	5.67
452.008	5.66
452.362	5.65
452.716	5.66
453.07	5.66
453.424	5.66
453.778	5.68
454.132	5.66
454.486	5.67
454.839	5.66
455.193	5.65
455.547	5.66
455.9	5.65
456.254	5.66
456.607	5.66
456.961	5.67
457.314	5.65
457.668	5.64
458.021	5.65
458.375	5.66
458.728	5.68
459.081	5.69
459.434	5.69
459.787	5.71
460.141	5.71
460.494	5.71
460.847	5.71
461.2	5.7
461.553	5.72
461.906	5.72
462.259	5.73
462.611	5.74
462.964	5.76
463.317	5.75
463.67	5.75
464.022	5.73
464.375	5.74
464.728	5.76
465.08	5.76
465.433	5.74
465.785	5.75
466.138	5.74
466.49	5.74
466.843	5.75
467.195	5.75
467.547	5.75
467.899	5.74
468.252	5.73
468.604	5.74
468.956	5.75
469.308	5.76
469.66	5.73
470.012	5.72
470.364	5.7
470.716	5.71
471.068	5.72
471.42	5.74
471.772	5.75
472.123	5.75
472.475	5.78
472.827	5.77
473.178	5.75
473.53	5.73
473.882	5.71
474.233	5.71
474.585	5.71
474.936	5.73
475.288	5.74
475.639	5.76
475.99	5.77
476.342	5.75
476.693	5.74
477.044	5.76
477.395	5.76
477.746	5.75
478.097	5.77
478.448	5.76
478.8	5.77
479.15	5.76
479.501	5.76
479.852	5.76
480.203	5.78
480.554	5.8
480.905	5.83
481.255	5.83
481.606	5.85
481.957	5.87
482.307	5.86
482.658	5.86
483.009	5.85
483.359	5.86
483.709	5.86
484.06	5.86
484.41	5.86
484.761	5.86
485.111	5.86
485.461	5.86
485.811	5.86
486.162	5.86
486.512	5.87
486.862	5.87
487.212	5.86
487.562	5.87
487.912	5.87
488.262	5.85
488.612	5.85
488.961	5.84
489.311	5.83
489.661	5.82
490.011	5.83
490.36	5.83
490.71	5.81
491.06	5.82
491.409	5.83
491.759	5.83
492.108	5.83
492.458	5.83
492.807	5.83
493.157	5.84
493.506	5.83
493.855	5.83
494.204	5.82
494.554	5.84
494.903	5.82
495.252	5.81
495.601	5.82
495.95	5.84
496.299	5.83
496.648	5.84
496.997	5.85
497.346	5.84
497.695	5.83
498.043	5.85
498.392	5.85
498.741	5.85
499.09	5.83
499.438	5.85
499.787	5.85
500.135	5.87
500.484	5.88
500.832	5.88
501.181	5.87
501.529	5.86
501.878	5.87
502.226	5.88
502.574	5.89
502.923	5.87
503.271	5.84
503.619	5.86
503.967	5.87
504.315	5.86
504.663	5.89
505.011	5.9
505.359	5.89
505.707	5.88
506.055	5.88
506.403	5.89
506.751	5.89
507.098	5.89
507.446	5.91
507.794	5.88
508.141	5.89
508.489	5.91
508.837	5.92
509.184	5.9
509.531	5.91
509.879	5.94
510.226	5.98
510.574	6.01
510.921	6
511.268	6.01
511.616	6.02
511.963	6.03
512.31	6.02
512.657	6.05
513.004	6.07
513.351	6.09
513.698	6.09
514.045	6.07
514.392	6.09
514.739	6.08
515.086	6.11
515.432	6.13
515.779	6.12
516.126	6.12
516.473	6.13
516.819	6.12
517.166	6.12
517.512	6.11
517.859	6.11
518.205	6.09
518.552	6.09
518.898	6.08
519.245	6.07
519.591	6.07
519.937	6.06
520.283	6.07
520.629	6.05
520.976	6.04
521.322	6.07
521.668	6.07
522.014	6.06
522.36	6.06
522.706	6.04
523.052	6.07
523.398	6.06
523.743	6.07
524.089	6.09
524.435	6.09
524.781	6.1
525.126	6.12
525.472	6.14
525.817	6.15
526.163	6.15
526.509	6.17
526.854	6.18
527.199	6.2
527.545	6.19
527.89	6.21
528.235	6.23
528.581	6.23
528.926	6.24
529.271	6.25
529.616	6.26
529.961	6.27
530.306	6.28
530.651	6.28
530.996	6.29
531.341	6.29
531.686	6.3
532.031	6.31
532.376	6.3
532.721	6.31
533.065	6.3
533.41	6.3
533.755	6.31
534.099	6.3
534.444	6.31
534.788	6.31
535.133	6.3
535.477	6.29
535.822	6.28
536.166	6.26
536.51	6.25
536.855	6.25
537.199	6.24
537.543	6.26
537.887	6.26
538.231	6.26
538.576	6.26
538.92	6.26
539.264	6.25
539.608	6.27
539.951	6.25
540.295	6.24
540.639	6.26
540.983	6.26
541.327	6.28
541.671	6.26
542.014	6.28
542.358	6.28
542.701	6.3
543.045	6.32
543.389	6.34
543.732	6.35
544.075	6.36
544.419	6.36
544.762	6.35
545.105	6.37
545.449	6.38
545.792	6.39
546.135	6.39
546.478	6.4
546.821	6.37
547.165	6.39
547.508	6.4
547.851	6.41
548.194	6.38
548.536	6.37
548.879	6.37
549.222	6.33
549.565	6.34
549.908	6.36
550.25	6.34
550.593	6.35
550.936	6.34
551.278	6.34
551.621	6.34
551.963	6.36
552.306	6.36
552.648	6.32
552.991	6.33
553.333	6.35
553.675	6.35
554.017	6.36
554.36	6.37
554.702	6.42
555.044	6.38
555.386	6.44
555.728	6.44
556.07	6.48
556.412	6.51
556.754	6.51
557.096	6.49
557.438	6.49
557.78	6.49
558.121	6.51
558.463	6.55
558.805	6.56
559.147	6.53
559.488	6.52
559.83	6.52
560.171	6.52
560.513	6.49
560.854	6.5
561.196	6.5
561.537	6.45
561.878	6.4
562.22	6.41
562.561	6.36
562.902	6.37
563.243	6.34
563.584	6.33
563.925	6.37
564.266	6.36
564.607	6.38
564.948	6.37
565.289	6.36
565.63	6.34
565.971	6.32
566.312	6.35
566.653	6.36
566.993	6.41
567.334	6.38
567.675	6.42
568.015	6.42
568.356	6.41
568.696	6.45
569.037	6.51
569.377	6.52
569.718	6.56
570.058	6.55
570.398	6.56
570.739	6.57
571.079	6.56
571.419	6.57
571.759	6.58
572.099	6.59
572.439	6.58
572.779	6.57
573.119	6.6
573.459	6.59
573.799	6.61
574.139	6.56
574.479	6.59
574.819	6.59
575.158	6.59
575.498	6.61
575.838	6.62
576.177	6.6
576.517	6.58
576.856	6.57
577.196	6.57
577.535	6.58
577.875	6.59
578.214	6.56
578.553	6.57
578.893	6.58
579.232	6.57
579.571	6.57
579.91	6.56
580.25	6.56
580.589	6.55
580.928	6.55
581.267	6.58
581.606	6.58
581.945	6.57
582.283	6.54
582.622	6.53
582.961	6.49
583.3	6.48
583.639	6.55
583.977	6.56
584.316	6.54
584.654	6.55
584.993	6.54
585.332	6.53
585.67	6.51
586.008	6.47
586.347	6.48
586.685	6.5
587.024	6.51
587.362	6.49
587.7	6.51
588.038	6.55
588.376	6.54
588.715	6.51
589.053	6.52
589.391	6.57
589.729	6.59
590.067	6.61
590.404	6.62
590.742	6.58
591.08	6.56
591.418	6.65
591.756	6.64
592.093	6.66
592.431	6.71
592.769	6.73
593.106	6.73
593.444	6.7
593.781	6.72
594.119	6.72
594.456	6.72
594.793	6.71
595.131	6.67
595.468	6.66
595.805	6.7
596.143	6.71
596.48	6.73
596.817	6.74
597.154	6.72
597.491	6.72
597.828	6.75
598.165	6.76
598.502	6.73
598.839	6.75
599.176	6.75
599.512	6.72
599.849	6.7
600.186	6.73
600.523	6.75
600.859	6.78
601.196	6.84
601.532	6.84
601.869	6.82
602.205	6.83
602.542	6.89
602.878	6.86
603.215	6.85
603.551	6.85
603.887	6.82
604.223	6.83
604.56	6.85
604.896	6.81
605.232	6.83
605.568	6.81
605.904	6.8
606.24	6.81
606.576	6.84
606.912	6.84
607.248	6.83
607.583	6.82
607.919	6.79
608.255	6.75
608.591	6.77
608.926	6.76
609.262	6.79
609.597	6.77
609.933	6.77
610.268	6.77
610.604	6.74
610.939	6.77
611.275	6.79
611.61	6.77
611.945	6.82
612.281	6.78
612.616	6.77
612.951	6.78
613.286	6.77
613.621	6.76
613.956	6.78
614.291	6.79
614.626	6.8
614.961	6.81
615.296	6.81
615.631	6.87
615.966	6.9
616.3	6.9
616.635	6.87
616.97	6.88
617.304	6.91
617.639	6.91
617.973	6.85
618.308	6.81
618.642	6.88
618.977	6.86
619.311	6.9
619.646	6.95
619.98	6.98
620.314	7.01
620.648	6.97
620.983	6.98
621.317	7.04
621.651	7.01
621.985	7.03
622.319	7.04
622.653	7
622.987	7.01
623.321	7.02
623.655	7.03
623.988	7.07
624.322	7.02
624.656	7.02
624.99	7.1
625.323	7.14
625.657	7.09
625.99	7.1
626.324	7.06
626.657	7.05
626.991	7
627.324	6.99
627.658	7.02
627.991	7.02
628.324	7.02
628.657	7.02
628.991	7.03
629.324	7.03
629.657	6.97
629.99	6.95
630.323	6.9
630.656	6.93
630.989	6.89
631.322	6.92
631.655	6.96
631.987	6.95
632.32	6.93
632.653	6.92
632.986	6.96
633.318	6.95
633.651	7
633.984	6.98
634.316	6.97
634.649	7.03
634.981	6.99
635.313	6.99
635.646	7
635.978	7.03
636.31	6.96
636.643	6.95
636.975	6.96
637.307	6.99
637.639	6.98
637.971	7.02
638.303	6.97
638.635	6.92
638.967	6.91
639.299	6.93
639.631	6.98
639.963	6.9
640.295	6.94
640.626	6.87
640.958	6.98
641.29	7
641.621	6.92
641.953	6.92
642.285	6.87
642.616	6.92
642.948	6.89
643.279	6.99
643.61	7.02
643.942	7.09
644.273	7.12
644.604	7.12
644.936	7.08
645.267	7.18
645.598	7.14
645.929	7.18
646.26	7.17
646.591	7.11
646.922	7.11
647.253	7.1
647.584	7.14
647.915	7.1
648.245	7.04
648.576	7.02
648.907	7.08
649.238	7.08
649.568	7.05
649.899	7.06
650.229	7.06
650.56	7.1
650.89	7.08
651.221	7.07
651.551	7.05
651.882	7.08
652.212	7.13
652.542	7.2
652.872	7.11
653.203	7.1
653.533	7.19
653.863	7.2
654.193	7.21
654.523	7.23
654.853	7.23
655.183	7.28
655.513	7.32
655.843	7.32
656.172	7.38
656.502	7.4
656.832	7.36
657.162	7.38
657.491	7.36
657.821	7.31
658.15	7.3
658.48	7.31
658.809	7.39
659.139	7.31
659.468	7.25
659.798	7.28
660.127	7.31
660.456	7.26
660.785	7.27
661.115	7.29
661.444	7.25
661.773	7.32
662.102	7.29
662.431	7.31
662.76	7.32
663.089	7.28
663.418	7.21
663.747	7.2
664.076	7.16
664.404	7.15
664.733	7.19
665.062	7.26
665.39	7.3
665.719	7.26
666.048	7.32
666.376	7.41
666.705	7.46
667.033	7.42
667.362	7.5
667.69	7.53
668.018	7.53
668.347	7.53
668.675	7.53
669.003	7.54
669.331	7.54
669.659	7.55
669.987	7.53
670.315	7.55
670.643	7.71
670.971	7.67
671.299	7.76
671.627	7.75
671.955	7.73
672.283	7.75
672.61	7.69
672.938	7.71
673.266	7.71
673.593	7.74
673.921	7.78
674.249	7.76
674.576	7.75
674.904	7.77
675.231	7.76
675.558	7.71
675.886	7.82
676.213	7.8
676.54	7.73
676.867	7.78
677.195	7.82
677.522	7.7
677.849	7.82
678.176	7.81
678.503	7.84
678.83	7.76
679.157	7.67
679.484	7.62
679.81	7.54
