Data from BA28468_Reflection_00013.txt Node
Date: Mon Nov 18 15:15:12 EST 2019
User: vgr7
Spectrometer: USB2G7710
Scans to average: 3
Trigger mode: 4
Integration Time (sec): 2.000000E-2
Electric dark correction enabled: true
Boxcar width: 10
XAxis mode: Wavelengths
Number of Pixels in Spectrum: 2048
>>>>>Begin Spectral Data<<<<<
177.721	161.52
178.105	4528.57
178.488	-79.07
178.871	-180.33
179.254	-7.61
179.636	744.74
180.019	-43.77
180.402	50.91
180.785	-130.64
181.168	-118.23
181.55	-132.24
181.933	-1547.06
182.316	-512.99
182.698	-315.8
183.081	-262.04
183.463	-298.74
183.846	-16669.23
184.228	-1145.03
184.611	-307.08
184.993	-160.53
185.376	-76.51
185.758	-77.76
186.14	-60.29
186.522	-82.22
186.904	-73.22
187.287	-103.38
187.669	-35.6
188.051	-65.4
188.433	-44.32
188.815	-20.67
189.197	-13.33
189.579	-12.31
189.961	-30.37
190.342	-16.09
190.724	-7.34
191.106	-2.23
191.488	0.91
191.869	-2.33
192.251	-12.28
192.633	-5.7
193.014	-23.11
193.396	-43.54
193.777	-30.36
194.159	-43.63
194.54	-36.17
194.922	-31.63
195.303	-34.28
195.684	-39.14
196.065	-17.26
196.447	-24.38
196.828	-38.39
197.209	-33.92
197.59	-30.05
197.971	-17.9
198.352	-12.14
198.733	-20.45
199.114	-6
199.495	-17.07
199.876	-19.03
200.257	-17.5
200.638	-17.45
201.018	-6.27
201.399	-0.22
201.78	4.37
202.16	-4.67
202.541	-18.92
202.922	-11.57
203.302	-25.32
203.683	-35.93
204.063	-54.13
204.444	-53.45
204.824	-40.49
205.204	-39.82
205.585	-47.7
205.965	-47.11
206.345	-56.9
206.725	-66.85
207.106	-102.43
207.486	-80.92
207.866	-52.94
208.246	-49.87
208.626	-48.27
209.006	-49.62
209.386	-54.06
209.766	-51.7
210.145	-32.79
210.525	-22.58
210.905	-15.71
211.285	6.4
211.664	10.65
212.044	14.11
212.424	9.04
212.803	-1.24
213.183	8.31
213.562	22.02
213.942	20.71
214.321	21.05
214.701	20.21
215.08	24.09
215.459	33.06
215.838	27.99
216.218	34.24
216.597	33.73
216.976	34.38
217.355	31.49
217.734	28.03
218.113	25.33
218.492	17.37
218.871	4.9
219.25	0.97
219.629	-7.34
220.008	-2.68
220.387	3.82
220.766	3.98
221.144	-2.32
221.523	-8.85
221.902	-17.87
222.28	-18.65
222.659	-24.73
223.037	-21.2
223.416	-28.98
223.794	-33.65
224.173	-37.08
224.551	-36.24
224.929	-31.61
225.308	-22.13
225.686	-15.31
226.064	-13.31
226.442	-8.56
226.821	-2.82
227.199	0.43
227.577	-1.82
227.955	-0.92
228.333	-4.28
228.711	-3.56
229.089	-1.61
229.467	-4.7
229.845	-2.22
230.222	-2.01
230.6	-1.58
230.978	0.34
231.356	1.27
231.733	5.03
232.111	4.79
232.488	5.9
232.866	7.61
233.243	7.48
233.621	7.09
233.998	7.8
234.376	7.41
234.753	6.14
235.13	5.34
235.508	8.31
235.885	8.55
236.262	8.56
236.639	9.17
237.016	8.67
237.393	10.26
237.77	10.2
238.147	10.82
238.524	10.53
238.901	11.04
239.278	10.96
239.655	10.55
240.032	10.48
240.409	9.35
240.785	8.06
241.162	7.43
241.539	7.12
241.915	7.05
242.292	6.83
242.668	6.8
243.045	6.61
243.421	6.18
243.798	6.1
244.174	6.15
244.551	5.99
244.927	6.1
245.303	6
245.679	6.01
246.056	5.69
246.432	5.6
246.808	5.12
247.184	4.84
247.56	4.33
247.936	4.12
248.312	4.27
248.688	4.44
249.064	4.39
249.44	4.29
249.815	4.1
250.191	4.31
250.567	4.4
250.943	4.46
251.318	4.55
251.694	4.27
252.069	4.28
252.445	4.34
252.82	3.98
253.196	3.97
253.571	3.84
253.947	4.08
254.322	4.31
254.697	4.34
255.073	4.36
255.448	4.62
255.823	4.69
256.198	4.7
256.573	4.62
256.948	4.89
257.323	5.03
257.698	5.15
258.073	4.91
258.448	4.89
258.823	4.77
259.198	4.71
259.573	4.77
259.948	4.8
260.322	4.86
260.697	4.85
261.072	4.69
261.446	4.63
261.821	4.56
262.195	4.66
262.57	4.79
262.944	4.85
263.319	4.85
263.693	4.86
264.067	4.85
264.442	4.97
264.816	4.8
265.19	4.48
265.564	4.43
265.938	4.27
266.313	4.29
266.687	4.35
267.061	4.39
267.435	4.43
267.809	4.34
268.183	4.28
268.556	4.24
268.93	4.32
269.304	4.39
269.678	4.42
270.051	4.24
270.425	4.13
270.799	4.06
271.172	4.09
271.546	4.08
271.919	4.07
272.293	3.98
272.666	4.06
273.04	4.16
273.413	4.17
273.787	4.43
274.16	4.38
274.533	4.38
274.906	4.35
275.279	4.43
275.653	4.44
276.026	4.37
276.399	4.35
276.772	4.36
277.145	4.24
277.518	4.4
277.891	4.37
278.263	4.35
278.636	4.32
279.009	4.33
279.382	4.47
279.755	4.36
280.127	4.5
280.5	4.56
280.872	4.8
281.245	4.77
281.617	4.67
281.99	4.8
282.362	4.82
282.735	4.58
283.107	4.6
283.479	4.65
283.852	4.66
284.224	4.81
284.596	4.82
284.968	4.91
285.34	4.84
285.713	4.88
286.085	4.98
286.457	5.1
286.829	5.11
287.201	4.97
287.572	4.89
287.944	4.9
288.316	4.89
288.688	4.91
289.06	4.91
289.431	5.02
289.803	4.87
290.175	4.91
290.546	5.15
290.918	5.03
291.289	4.96
291.661	5.19
292.032	5.29
292.403	5.27
292.775	5.27
293.146	5.23
293.517	5.19
293.889	5.17
294.26	5.16
294.631	5.16
295.002	5.24
295.373	5.37
295.744	5.46
296.115	5.46
296.486	5.37
296.857	5.39
297.228	5.36
297.599	5.52
297.97	5.52
298.34	5.57
298.711	5.66
299.082	5.71
299.452	5.57
299.823	5.45
300.194	5.47
300.564	5.53
300.935	5.53
301.305	5.65
301.676	5.69
302.046	5.78
302.416	5.89
302.787	5.97
303.157	6.13
303.527	6.14
303.897	6.24
304.267	6.29
304.637	6.49
305.008	6.7
305.378	6.69
305.748	6.87
306.117	6.9
306.487	7
306.857	7.21
307.227	7.32
307.597	7.43
307.967	7.55
308.336	7.58
308.706	7.74
309.076	7.73
309.445	7.75
309.815	7.7
310.184	7.76
310.554	7.81
310.923	7.83
311.293	7.83
311.662	7.84
312.031	8.01
312.401	8.04
312.77	7.94
313.139	8.04
313.508	8.08
313.877	8.09
314.246	8.26
314.616	8.2
314.985	8.24
315.353	8.18
315.722	8.31
316.091	8.47
316.46	8.54
316.829	8.6
317.198	8.79
317.567	8.9
317.935	8.94
318.304	9.16
318.672	9.17
319.041	9.24
319.41	9.22
319.778	9.19
320.147	9.17
320.515	9.22
320.883	9.12
321.252	9.14
321.62	9.2
321.988	9.16
322.357	9.18
322.725	9.28
323.093	9.44
323.461	9.5
323.829	9.51
324.197	9.54
324.565	9.63
324.933	9.49
325.301	9.61
325.669	9.59
326.037	9.46
326.405	9.56
326.772	9.69
327.14	9.83
327.508	9.96
327.875	10
328.243	10.24
328.61	10.25
328.978	10.15
329.346	10.25
329.713	10.21
330.08	10.33
330.448	10.32
330.815	10.16
331.182	10.13
331.55	10.18
331.917	10.19
332.284	10.33
332.651	10.42
333.018	10.43
333.385	10.52
333.752	10.59
334.119	10.75
334.486	10.66
334.853	10.53
335.22	10.56
335.587	10.64
335.954	10.61
336.32	10.78
336.687	11.02
337.054	11.08
337.42	11.19
337.787	11.23
338.153	11.3
338.52	11.5
338.886	11.51
339.253	11.46
339.619	11.52
339.986	11.48
340.352	11.6
340.718	11.71
341.084	11.73
341.451	11.84
341.817	11.83
342.183	11.89
342.549	12.03
342.915	11.96
343.281	11.98
343.647	12.01
344.013	11.93
344.379	11.83
344.745	11.81
345.11	11.75
345.476	11.76
345.842	11.75
346.208	11.71
346.573	11.74
346.939	11.82
347.304	11.79
347.67	11.81
348.035	11.85
348.401	11.8
348.766	11.83
349.132	11.82
349.497	11.79
349.862	11.78
350.228	11.82
350.593	11.88
350.958	11.95
351.323	11.99
351.688	12.08
352.053	12.22
352.418	12.22
352.783	12.33
353.148	12.26
353.513	12.29
353.878	12.38
354.243	12.36
354.608	12.41
354.972	12.43
355.337	12.42
355.702	12.38
356.066	12.38
356.431	12.34
356.795	12.39
357.16	12.36
357.524	12.39
357.889	12.28
358.253	12.24
358.618	12.13
358.982	12.03
359.346	11.88
359.71	11.83
360.075	11.76
360.439	11.74
360.803	11.75
361.167	11.68
361.531	11.65
361.895	11.63
362.259	11.55
362.623	11.48
362.987	11.5
363.351	11.48
363.714	11.42
364.078	11.43
364.442	11.29
364.806	11.24
365.169	11.22
365.533	11.23
365.896	11.19
366.26	11.16
366.623	11.14
366.987	11.19
367.35	11.13
367.714	11.17
368.077	11.06
368.44	11.07
368.803	11
369.167	10.85
369.53	10.81
369.893	10.77
370.256	10.81
370.619	10.73
370.982	10.71
371.345	10.7
371.708	10.66
372.071	10.64
372.434	10.59
372.797	10.48
373.159	10.42
373.522	10.33
373.885	10.34
374.247	10.3
374.61	10.23
374.973	10.13
375.335	10.08
375.698	10.02
376.06	9.86
376.423	9.77
376.785	9.79
377.147	9.73
377.51	9.62
377.872	9.51
378.234	9.44
378.596	9.35
378.958	9.26
379.321	9.19
379.683	9.14
380.045	9.11
380.407	9.03
380.769	8.98
381.13	8.92
381.492	8.84
381.854	8.78
382.216	8.74
382.578	8.72
382.939	8.61
383.301	8.53
383.663	8.56
384.024	8.54
384.386	8.55
384.747	8.53
385.109	8.54
385.47	8.48
385.832	8.42
386.193	8.41
386.554	8.35
386.916	8.32
387.277	8.31
387.638	8.26
387.999	8.24
388.36	8.2
388.721	8.18
389.082	8.13
389.443	8.07
389.804	7.99
390.165	7.9
390.526	7.86
390.887	7.84
391.248	7.76
391.609	7.73
391.969	7.67
392.33	7.59
392.691	7.54
393.051	7.48
393.412	7.42
393.772	7.37
394.133	7.32
394.493	7.22
394.854	7.12
395.214	7.06
395.574	7.02
395.935	6.97
396.295	6.95
396.655	6.86
397.015	6.8
397.376	6.77
397.736	6.77
398.096	6.74
398.456	6.69
398.816	6.66
399.176	6.59
399.535	6.51
399.895	6.46
400.255	6.43
400.615	6.41
400.975	6.39
401.334	6.32
401.694	6.3
402.054	6.28
402.413	6.26
402.773	6.21
403.132	6.15
403.492	6.13
403.851	6.07
404.211	6.03
404.57	6.03
404.929	5.99
405.288	5.98
405.648	5.93
406.007	5.9
406.366	5.86
406.725	5.86
407.084	5.83
407.443	5.83
407.802	5.79
408.161	5.77
408.52	5.74
408.879	5.71
409.238	5.67
409.596	5.64
409.955	5.62
410.314	5.62
410.673	5.59
411.031	5.57
411.39	5.56
411.748	5.56
412.107	5.53
412.465	5.52
412.824	5.48
413.182	5.45
413.54	5.4
413.899	5.42
414.257	5.39
414.615	5.33
414.974	5.31
415.332	5.28
415.69	5.26
416.048	5.23
416.406	5.21
416.764	5.19
417.122	5.15
417.48	5.12
417.838	5.1
418.195	5.09
418.553	5.06
418.911	5.04
419.269	5.02
419.626	4.99
419.984	4.96
420.342	4.94
420.699	4.9
421.057	4.92
421.414	4.89
421.772	4.85
422.129	4.85
422.486	4.83
422.844	4.83
423.201	4.81
423.558	4.8
423.915	4.79
424.273	4.78
424.63	4.75
424.987	4.74
425.344	4.72
425.701	4.71
426.058	4.7
426.415	4.69
426.772	4.67
427.128	4.67
427.485	4.63
427.842	4.62
428.199	4.63
428.555	4.59
428.912	4.6
429.269	4.62
429.625	4.61
429.982	4.6
430.338	4.6
430.695	4.6
431.051	4.56
431.407	4.56
431.764	4.56
432.12	4.57
432.476	4.57
432.832	4.55
433.189	4.54
433.545	4.54
433.901	4.53
434.257	4.52
434.613	4.53
434.969	4.55
435.325	4.57
435.681	4.56
436.036	4.55
436.392	4.53
436.748	4.51
437.104	4.5
437.459	4.47
437.815	4.46
438.171	4.44
438.526	4.45
438.882	4.45
439.237	4.45
439.593	4.45
439.948	4.46
440.304	4.48
440.659	4.46
441.014	4.47
441.369	4.45
441.725	4.44
442.08	4.42
442.435	4.41
442.79	4.37
443.145	4.36
443.5	4.35
443.855	4.34
444.21	4.32
444.565	4.33
444.92	4.34
445.275	4.31
445.629	4.31
445.984	4.29
446.339	4.27
446.693	4.25
447.048	4.24
447.403	4.2
447.757	4.18
448.112	4.16
448.466	4.14
448.82	4.13
449.175	4.13
449.529	4.1
449.883	4.09
450.238	4.09
450.592	4.09
450.946	4.07
451.3	4.07
451.654	4.06
452.008	4.02
452.362	4
452.716	4.01
453.07	4
453.424	4
453.778	4
454.132	3.99
454.486	3.97
454.839	3.97
455.193	3.95
455.547	3.97
455.9	3.97
456.254	3.98
456.607	3.97
456.961	3.99
457.314	3.99
457.668	4.01
458.021	4.01
458.375	4
458.728	4.03
459.081	4.04
459.434	4.04
459.787	4.06
460.141	4.06
460.494	4.05
460.847	4.07
461.2	4.08
461.553	4.1
461.906	4.13
462.259	4.16
462.611	4.18
462.964	4.21
463.317	4.22
463.67	4.24
464.022	4.26
464.375	4.28
464.728	4.28
465.08	4.3
465.433	4.31
465.785	4.32
466.138	4.3
466.49	4.31
466.843	4.32
467.195	4.32
467.547	4.36
467.899	4.37
468.252	4.37
468.604	4.39
468.956	4.38
469.308	4.38
469.66	4.39
470.012	4.4
470.364	4.39
470.716	4.39
471.068	4.35
471.42	4.36
471.772	4.38
472.123	4.41
472.475	4.39
472.827	4.4
473.178	4.41
473.53	4.41
473.882	4.42
474.233	4.42
474.585	4.41
474.936	4.4
475.288	4.39
475.639	4.41
475.99	4.4
476.342	4.4
476.693	4.4
477.044	4.39
477.395	4.38
477.746	4.37
478.097	4.37
478.448	4.38
478.8	4.37
479.15	4.35
479.501	4.33
479.852	4.34
480.203	4.35
480.554	4.37
480.905	4.37
481.255	4.37
481.606	4.4
481.957	4.42
482.307	4.42
482.658	4.42
483.009	4.41
483.359	4.41
483.709	4.41
484.06	4.41
484.41	4.42
484.761	4.42
485.111	4.43
485.461	4.44
485.811	4.44
486.162	4.44
486.512	4.46
486.862	4.47
487.212	4.47
487.562	4.48
487.912	4.48
488.262	4.49
488.612	4.5
488.961	4.5
489.311	4.5
489.661	4.52
490.011	4.53
490.36	4.55
490.71	4.56
491.06	4.59
491.409	4.59
491.759	4.62
492.108	4.64
492.458	4.66
492.807	4.67
493.157	4.7
493.506	4.73
493.855	4.74
494.204	4.76
494.554	4.78
494.903	4.8
495.252	4.83
495.601	4.86
495.95	4.88
496.299	4.91
496.648	4.94
496.997	4.98
497.346	5.01
497.695	5.05
498.043	5.09
498.392	5.11
498.741	5.17
499.09	5.19
499.438	5.24
499.787	5.29
500.135	5.34
500.484	5.39
500.832	5.45
501.181	5.51
501.529	5.57
501.878	5.66
502.226	5.74
502.574	5.78
502.923	5.84
503.271	5.93
503.619	5.99
503.967	6.06
504.315	6.12
504.663	6.18
505.011	6.24
505.359	6.31
505.707	6.37
506.055	6.45
506.403	6.52
506.751	6.58
507.098	6.65
507.446	6.74
507.794	6.8
508.141	6.88
508.489	6.96
508.837	7.04
509.184	7.11
509.531	7.18
509.879	7.28
510.226	7.35
510.574	7.41
510.921	7.5
511.268	7.57
511.616	7.62
511.963	7.72
512.31	7.8
512.657	7.89
513.004	7.98
513.351	8.07
513.698	8.17
514.045	8.27
514.392	8.4
514.739	8.5
515.086	8.62
515.432	8.7
515.779	8.81
516.126	8.91
516.473	9.02
516.819	9.11
517.166	9.21
517.512	9.32
517.859	9.43
518.205	9.51
518.552	9.6
518.898	9.7
519.245	9.81
519.591	9.9
519.937	10
520.283	10.11
520.629	10.22
520.976	10.33
521.322	10.46
521.668	10.55
522.014	10.66
522.36	10.79
522.706	10.92
523.052	11.08
523.398	11.23
523.743	11.4
524.089	11.58
524.435	11.73
524.781	11.88
525.126	12.04
525.472	12.19
525.817	12.33
526.163	12.45
526.509	12.57
526.854	12.7
527.199	12.83
527.545	12.94
527.89	13.06
528.235	13.18
528.581	13.31
528.926	13.44
529.271	13.56
529.616	13.68
529.961	13.82
530.306	13.95
530.651	14.1
530.996	14.25
531.341	14.39
531.686	14.56
532.031	14.73
532.376	14.91
532.721	15.09
533.065	15.28
533.41	15.48
533.755	15.68
534.099	15.88
534.444	16.08
534.788	16.3
535.133	16.49
535.477	16.7
535.822	16.91
536.166	17.15
536.51	17.41
536.855	17.7
537.199	18.01
537.543	18.28
537.887	18.56
538.231	18.87
538.576	19.2
538.92	19.5
539.264	19.79
539.608	20.06
539.951	20.29
540.295	20.52
540.639	20.81
540.983	21.05
541.327	21.28
541.671	21.52
542.014	21.72
542.358	21.95
542.701	22.18
543.045	22.41
543.389	22.66
543.732	22.92
544.075	23.16
544.419	23.41
544.762	23.68
545.105	23.97
545.449	24.23
545.792	24.53
546.135	24.86
546.478	25.17
546.821	25.54
547.165	25.93
547.508	26.31
547.851	26.64
548.194	27.01
548.536	27.39
548.879	27.79
549.222	28.19
549.565	28.6
549.908	28.99
550.25	29.35
550.593	29.77
550.936	30.14
551.278	30.48
551.621	30.85
551.963	31.26
552.306	31.66
552.648	32.06
552.991	32.42
553.333	32.72
553.675	33.07
554.017	33.39
554.36	33.76
554.702	34.11
555.044	34.44
555.386	34.77
555.728	35.07
556.07	35.43
556.412	35.8
556.754	36.18
557.096	36.5
557.438	36.86
557.78	37.19
558.121	37.51
558.463	37.93
558.805	38.31
559.147	38.64
559.488	39
559.83	39.31
560.171	39.58
560.513	39.92
560.854	40.22
561.196	40.54
561.537	40.87
561.878	41.15
562.22	41.44
562.561	41.73
562.902	42.05
563.243	42.34
563.584	42.57
563.925	42.8
564.266	43.13
564.607	43.42
564.948	43.69
565.289	43.98
565.63	44.27
565.971	44.51
566.312	44.73
566.653	45
566.993	45.29
567.334	45.55
567.675	45.83
568.015	46.06
568.356	46.27
568.696	46.49
569.037	46.75
569.377	47.05
569.718	47.26
570.058	47.51
570.398	47.73
570.739	47.96
571.079	48.17
571.419	48.37
571.759	48.56
572.099	48.73
572.439	48.93
572.779	49.1
573.119	49.3
573.459	49.56
573.799	49.69
574.139	49.8
574.479	49.99
574.819	50.14
575.158	50.33
575.498	50.53
575.838	50.71
576.177	50.86
576.517	50.93
576.856	51.15
577.196	51.29
577.535	51.44
577.875	51.61
578.214	51.86
578.553	52
578.893	52.18
579.232	52.33
579.571	52.5
579.91	52.58
580.25	52.68
580.589	52.78
580.928	52.86
581.267	53.03
581.606	53.1
581.945	53.28
582.283	53.4
582.622	53.53
582.961	53.66
583.3	53.85
583.639	54.07
583.977	54.17
584.316	54.27
584.654	54.42
584.993	54.57
585.332	54.69
585.67	54.8
586.008	54.96
586.347	55.1
586.685	55.25
587.024	55.38
587.362	55.48
587.7	55.53
588.038	55.69
588.376	55.84
588.715	56
589.053	56.07
589.391	56.17
589.729	56.28
590.067	56.33
590.404	56.38
590.742	56.41
591.08	56.48
591.418	56.64
591.756	56.73
592.093	56.75
592.431	56.84
592.769	56.96
593.106	56.97
593.444	57.1
593.781	57.11
594.119	57.21
594.456	57.28
594.793	57.36
595.131	57.47
595.468	57.51
595.805	57.62
596.143	57.66
596.48	57.7
596.817	57.78
597.154	57.88
597.491	57.95
597.828	58.04
598.165	58.11
598.502	58.1
598.839	58.14
599.176	58.26
599.512	58.24
599.849	58.27
600.186	58.32
600.523	58.3
600.859	58.28
601.196	58.42
601.532	58.5
601.869	58.64
602.205	58.66
602.542	58.72
602.878	58.7
603.215	58.74
603.551	58.76
603.887	58.73
604.223	58.8
604.56	58.79
604.896	58.85
605.232	58.87
605.568	59.01
605.904	59.08
606.24	59.17
606.576	59.34
606.912	59.34
607.248	59.45
607.583	59.44
607.919	59.61
608.255	59.59
608.591	59.66
608.926	59.65
609.262	59.69
609.597	59.73
609.933	59.77
610.268	59.82
610.604	59.89
610.939	59.96
611.275	59.91
611.61	59.97
611.945	59.95
612.281	60.04
612.616	60.03
612.951	60.02
613.286	60
613.621	59.89
613.956	59.99
614.291	60.1
614.626	60.31
614.961	60.31
615.296	60.38
615.631	60.34
615.966	60.37
616.3	60.44
616.635	60.41
616.97	60.42
617.304	60.34
617.639	60.37
617.973	60.46
618.308	60.53
618.642	60.65
618.977	60.65
619.311	60.72
619.646	60.72
619.98	60.73
620.314	60.8
620.648	60.81
620.983	60.86
621.317	60.81
621.651	60.68
621.985	60.73
622.319	60.76
622.653	60.85
622.987	60.95
623.321	60.91
623.655	60.98
623.988	61
624.322	61.11
624.656	61.12
624.99	61.15
625.323	61.15
625.657	61.14
625.99	61.27
626.324	61.19
626.657	61.17
626.991	61.21
627.324	61.21
627.658	61.22
627.991	61.31
628.324	61.33
628.657	61.46
628.991	61.45
629.324	61.48
629.657	61.52
629.99	61.43
630.323	61.41
630.656	61.4
630.989	61.44
631.322	61.5
631.655	61.54
631.987	61.6
632.32	61.68
632.653	61.69
632.986	61.6
633.318	61.6
633.651	61.72
633.984	61.69
634.316	61.69
634.649	61.73
634.981	61.63
635.313	61.65
635.646	61.57
635.978	61.7
636.31	61.69
636.643	61.64
636.975	61.71
637.307	61.73
637.639	61.73
637.971	61.85
638.303	61.91
638.635	61.84
638.967	61.82
639.299	61.68
639.631	61.63
639.963	61.67
640.295	61.81
640.626	61.69
640.958	61.78
641.29	61.84
641.621	61.86
641.953	61.86
642.285	61.85
642.616	61.93
642.948	61.89
643.279	61.82
643.61	61.8
643.942	61.78
644.273	61.83
644.604	61.87
644.936	61.82
645.267	61.74
645.598	61.83
645.929	61.81
646.26	61.93
646.591	61.99
646.922	61.99
647.253	61.99
647.584	62.01
647.915	61.87
648.245	61.81
648.576	61.85
648.907	61.92
649.238	61.87
649.568	61.78
649.899	61.68
650.229	61.82
650.56	61.86
650.89	61.96
651.221	62.02
651.551	62
651.882	61.99
652.212	61.93
652.542	61.99
652.872	61.98
653.203	61.98
653.533	62.01
653.863	62.07
654.193	62.08
654.523	62.19
654.853	62.24
655.183	62.39
655.513	62.42
655.843	62.35
656.172	62.4
656.502	62.53
656.832	62.77
657.162	62.7
657.491	62.82
657.821	62.88
658.15	62.84
658.48	62.9
658.809	62.98
659.139	62.94
659.468	62.93
659.798	62.9
660.127	63
660.456	62.92
660.785	62.85
661.115	62.9
661.444	62.83
661.773	62.93
662.102	62.79
662.431	62.77
662.76	62.82
663.089	62.97
663.418	62.89
663.747	62.66
664.076	62.56
664.404	62.45
664.733	62.34
665.062	62.4
665.39	62.34
