Data from BA28470_Reflection_00001.txt Node
Date: Mon Nov 18 15:09:49 EST 2019
User: vgr7
Spectrometer: USB2G7710
Scans to average: 3
Trigger mode: 4
Integration Time (sec): 2.000000E-2
Electric dark correction enabled: true
Boxcar width: 10
XAxis mode: Wavelengths
Number of Pixels in Spectrum: 2048
>>>>>Begin Spectral Data<<<<<
177.721	224.67
178.105	233.86
178.488	-1437.12
178.871	511.76
179.254	173.8
179.636	427.43
180.019	-185.08
180.402	66.67
180.785	3072.97
181.168	-15.89
181.55	-69.38
181.933	105.1
182.316	125.81
182.698	156.86
183.081	84
183.463	109.32
183.846	65.68
184.228	32.29
184.611	22.98
184.993	8.12
185.376	-22.72
185.758	-66.89
186.14	1.31
186.522	-67.91
186.904	-71.36
187.287	-48.71
187.669	-38.48
188.051	5.19
188.433	46.41
188.815	87.86
189.197	34.8
189.579	-9.55
189.961	85.94
190.342	-277.36
190.724	293.05
191.106	-266.2
191.488	-123.78
191.869	143.76
192.251	-9.28
192.633	-29.62
193.014	-23.8
193.396	-181.83
193.777	-128.93
194.159	-202.89
194.54	-136.52
194.922	-118.92
195.303	-95.76
195.684	-21.16
196.065	-1.82
196.447	21.98
196.828	18.76
197.209	35.6
197.59	19.47
197.971	17.11
198.352	19.39
198.733	-11.68
199.114	-4.4
199.495	-0.8
199.876	11.03
200.257	13.12
200.638	3.76
201.018	-14.69
201.399	-19.56
201.78	-16.83
202.16	-7.46
202.541	-34.28
202.922	-61.57
203.302	-104.95
203.683	-207.69
204.063	-529.39
204.444	-345.1
204.824	-306.15
205.204	-469.96
205.585	-494.13
205.965	-1426.15
206.345	-1503.22
206.725	1969.09
207.106	-4115.83
207.486	888.22
207.866	3470.56
208.246	5763.72
208.626	1560.15
209.006	-3111.43
209.386	-1740
209.766	-792.4
210.145	-688.28
210.525	-542.27
210.905	-548.34
211.285	-392.9
211.664	-193.81
212.044	-151.93
212.424	-124.87
212.803	-154.95
213.183	-112.62
213.562	-84.87
213.942	-64.37
214.321	-44.05
214.701	-45.55
215.08	-43.27
215.459	-20.44
215.838	-30.1
216.218	-31.3
216.597	-33.13
216.976	-43.51
217.355	-25.92
217.734	-27.72
218.113	-27.03
218.492	-31
218.871	-28.75
219.25	-22.32
219.629	-17.37
220.008	-7.99
220.387	-3.26
220.766	3.05
221.144	-4.95
221.523	-11.85
221.902	-28.01
222.28	-21.23
222.659	-9.74
223.037	-13.17
223.416	-13.03
223.794	-2.81
224.173	4.09
224.551	6.68
224.929	9.08
225.308	4.92
225.686	14.16
226.064	9.5
226.442	9.72
226.821	10.01
227.199	5.21
227.577	-0.1
227.955	-4.92
228.333	-5.12
228.711	-4.03
229.089	0.23
229.467	-2.46
229.845	-3.76
230.222	-7.08
230.6	-9.98
230.978	-7.76
231.356	-6
231.733	-5.76
232.111	-4.96
232.488	-2.65
232.866	-2.59
233.243	-3.76
233.621	-5.94
233.998	-4.1
234.376	-4.97
234.753	-5.72
235.13	-5.45
235.508	-3.98
235.885	-3.84
236.262	-4.72
236.639	-4.8
237.016	-4.94
237.393	-1.83
237.77	0.05
238.147	1.47
238.524	3.04
238.901	3.66
239.278	3.81
239.655	4.58
240.032	3.99
240.409	3.04
240.785	3.14
241.162	4.04
241.539	4.14
241.915	4.09
242.292	3.94
242.668	4.33
243.045	4.8
243.421	4.76
243.798	4.98
244.174	5.14
244.551	5.24
244.927	5.28
245.303	4.97
245.679	4.87
246.056	4.72
246.432	4.78
246.808	4.74
247.184	4.51
247.56	4.09
247.936	4.37
248.312	4.54
248.688	4.63
249.064	4.55
249.44	4.67
249.815	4.82
250.191	5.14
250.567	4.98
250.943	4.48
251.318	4.57
251.694	4.35
252.069	4.11
252.445	4.09
252.82	3.82
253.196	3.74
253.571	3.79
253.947	3.81
254.322	3.74
254.697	3.16
255.073	3.04
255.448	3.27
255.823	3.23
256.198	3.46
256.573	3.53
256.948	3.59
257.323	3.63
257.698	3.61
258.073	3.38
258.448	3.61
258.823	3.85
259.198	3.75
259.573	3.84
259.948	3.89
260.322	3.7
260.697	3.51
261.072	3.6
261.446	3.59
261.821	3.52
262.195	3.52
262.57	3.73
262.944	3.94
263.319	3.94
263.693	3.79
264.067	3.83
264.442	3.9
264.816	3.82
265.19	3.74
265.564	3.68
265.938	3.69
266.313	3.43
266.687	3.43
267.061	3.71
267.435	3.85
267.809	3.86
268.183	4.08
268.556	4.22
268.93	4.31
269.304	4.19
269.678	4.27
270.051	4.23
270.425	4.12
270.799	4.07
271.172	4.03
271.546	4.15
271.919	3.99
272.293	3.89
272.666	3.94
273.04	3.97
273.413	3.87
273.787	3.91
274.16	3.91
274.533	4.06
274.906	3.85
275.279	3.75
275.653	3.75
276.026	3.75
276.399	3.7
276.772	3.64
277.145	3.72
277.518	3.79
277.891	3.84
278.263	3.85
278.636	3.91
279.009	4.08
279.382	4.14
279.755	4.16
280.127	4.31
280.5	4.41
280.872	4.43
281.245	4.54
281.617	4.61
281.99	4.7
282.362	4.55
282.735	4.54
283.107	4.5
283.479	4.56
283.852	4.4
284.224	4.48
284.596	4.46
284.968	4.59
285.34	4.55
285.713	4.59
286.085	4.57
286.457	4.52
286.829	4.46
287.201	4.45
287.572	4.38
287.944	4.29
288.316	4.13
288.688	4.12
289.06	3.98
289.431	3.92
289.803	4.02
290.175	4.16
290.546	4.27
290.918	4.34
291.289	4.39
291.661	4.61
292.032	4.72
292.403	4.83
292.775	4.81
293.146	4.85
293.517	4.89
293.889	4.98
294.26	5.07
294.631	5.15
295.002	5.19
295.373	5.36
295.744	5.44
296.115	5.57
296.486	5.46
296.857	5.63
297.228	5.68
297.599	5.49
297.97	5.47
298.34	5.41
298.711	5.34
299.082	5.3
299.452	5.19
299.823	5.19
300.194	5.09
300.564	5.13
300.935	5.16
301.305	5.01
301.676	5.14
302.046	5.1
302.416	5.12
302.787	4.91
303.157	4.83
303.527	4.72
303.897	4.6
304.267	4.79
304.637	4.79
305.008	4.75
305.378	4.83
305.748	4.78
306.117	4.7
306.487	4.77
306.857	4.78
307.227	4.92
307.597	4.88
307.967	5.01
308.336	4.94
308.706	4.99
309.076	5.13
309.445	5.19
309.815	5.16
310.184	5.15
310.554	5.32
310.923	5.28
311.293	5.36
311.662	5.41
312.031	5.38
312.401	5.34
312.77	5.36
313.139	5.41
313.508	5.46
313.877	5.6
314.246	5.66
314.616	5.62
314.985	5.49
315.353	5.48
315.722	5.42
316.091	5.46
316.46	5.38
316.829	5.46
317.198	5.3
317.567	5.26
317.935	5.18
318.304	5.19
318.672	5.23
319.041	5.23
319.41	5.24
319.778	5.17
320.147	5.16
320.515	5.09
320.883	5.05
321.252	5.04
321.62	5.07
321.988	5.02
322.357	5.01
322.725	5.09
323.093	5.09
323.461	4.96
323.829	5.02
324.197	5.09
324.565	4.86
324.933	4.93
325.301	5.06
325.669	5.1
326.037	4.95
326.405	4.95
326.772	4.98
327.14	5.01
327.508	5.03
327.875	5.07
328.243	5.15
328.61	5.12
328.978	5.08
329.346	5.01
329.713	4.82
330.08	4.86
330.448	4.75
330.815	4.59
331.182	4.74
331.55	4.6
331.917	4.69
332.284	4.81
332.651	4.82
333.018	4.74
333.385	4.7
333.752	4.84
334.119	4.85
334.486	4.75
334.853	4.71
335.22	4.76
335.587	4.7
335.954	4.8
336.32	4.86
336.687	4.75
337.054	4.77
337.42	4.9
337.787	4.97
338.153	5.09
338.52	5.24
338.886	5.13
339.253	5.1
339.619	5.02
339.986	4.94
340.352	4.88
340.718	4.87
341.084	4.84
341.451	4.91
341.817	4.98
342.183	4.9
342.549	4.91
342.915	4.92
343.281	4.92
343.647	4.77
344.013	4.81
344.379	4.89
344.745	4.87
345.11	4.99
345.476	5.03
345.842	5.01
346.208	4.94
346.573	5.01
346.939	5.2
347.304	5.19
347.67	5.15
348.035	5.21
348.401	5.27
348.766	5.32
349.132	5.3
349.497	5.22
349.862	5.35
350.228	5.39
350.593	5.31
350.958	5.3
351.323	5.35
351.688	5.43
352.053	5.47
352.418	5.46
352.783	5.48
353.148	5.35
353.513	5.36
353.878	5.37
354.243	5.42
354.608	5.31
354.972	5.24
355.337	5.34
355.702	5.32
356.066	5.32
356.431	5.26
356.795	5.28
357.16	5.28
357.524	5.2
357.889	5.2
358.253	5.27
358.618	5.28
358.982	5.24
359.346	5.18
359.71	5.12
360.075	5.14
360.439	5.06
360.803	5.1
361.167	5.03
361.531	5.07
361.895	5.01
362.259	5.02
362.623	5.1
362.987	5.09
363.351	5.04
363.714	5.02
364.078	5.08
364.442	5.09
364.806	5.07
365.169	5.07
365.533	5.08
365.896	5.06
366.26	5.06
366.623	5.03
366.987	5.01
367.35	5.02
367.714	5.07
368.077	5.11
368.44	5.16
368.803	5.28
369.167	5.3
369.53	5.31
369.893	5.33
370.256	5.33
370.619	5.32
370.982	5.35
371.345	5.35
371.708	5.31
372.071	5.23
372.434	5.27
372.797	5.3
373.159	5.34
373.522	5.38
373.885	5.47
374.247	5.57
374.61	5.66
374.973	5.66
375.335	5.6
375.698	5.58
376.06	5.55
376.423	5.52
376.785	5.58
377.147	5.6
377.51	5.57
377.872	5.59
378.234	5.6
378.596	5.65
378.958	5.66
379.321	5.66
379.683	5.7
380.045	5.7
380.407	5.7
380.769	5.67
381.13	5.61
381.492	5.58
381.854	5.57
382.216	5.54
382.578	5.6
382.939	5.62
383.301	5.62
383.663	5.61
384.024	5.59
384.386	5.53
384.747	5.58
385.109	5.6
385.47	5.55
385.832	5.54
386.193	5.49
386.554	5.47
386.916	5.43
387.277	5.47
387.638	5.5
387.999	5.51
388.36	5.53
388.721	5.55
389.082	5.55
389.443	5.54
389.804	5.51
390.165	5.45
390.526	5.45
390.887	5.44
391.248	5.49
391.609	5.46
391.969	5.48
392.33	5.44
392.691	5.42
393.051	5.44
393.412	5.47
393.772	5.48
394.133	5.51
394.493	5.55
394.854	5.5
395.214	5.44
395.574	5.45
395.935	5.43
396.295	5.48
396.655	5.43
397.015	5.43
397.376	5.45
397.736	5.5
398.096	5.53
398.456	5.56
398.816	5.55
399.176	5.59
399.535	5.58
399.895	5.58
400.255	5.57
400.615	5.57
400.975	5.53
401.334	5.51
401.694	5.5
402.054	5.54
402.413	5.55
402.773	5.6
403.132	5.58
403.492	5.56
403.851	5.55
404.211	5.59
404.57	5.58
404.929	5.6
405.288	5.59
405.648	5.59
406.007	5.62
406.366	5.59
406.725	5.6
407.084	5.6
407.443	5.64
407.802	5.68
408.161	5.67
408.52	5.72
408.879	5.74
409.238	5.74
409.596	5.71
409.955	5.73
410.314	5.73
410.673	5.74
411.031	5.77
411.39	5.76
411.748	5.75
412.107	5.77
412.465	5.74
412.824	5.75
413.182	5.71
413.54	5.7
413.899	5.73
414.257	5.75
414.615	5.76
414.974	5.75
415.332	5.73
415.69	5.75
416.048	5.71
416.406	5.71
416.764	5.73
417.122	5.75
417.48	5.75
417.838	5.75
418.195	5.76
418.553	5.75
418.911	5.75
419.269	5.76
419.626	5.75
419.984	5.75
420.342	5.76
420.699	5.79
421.057	5.79
421.414	5.78
421.772	5.77
422.129	5.77
422.486	5.77
422.844	5.78
423.201	5.77
423.558	5.8
423.915	5.79
424.273	5.8
424.63	5.79
424.987	5.78
425.344	5.8
425.701	5.8
426.058	5.82
426.415	5.82
426.772	5.83
427.128	5.81
427.485	5.82
427.842	5.8
428.199	5.78
428.555	5.79
428.912	5.79
429.269	5.81
429.625	5.81
429.982	5.82
430.338	5.82
430.695	5.82
431.051	5.81
431.407	5.82
431.764	5.81
432.12	5.79
432.476	5.79
432.832	5.77
433.189	5.76
433.545	5.75
433.901	5.76
434.257	5.75
434.613	5.76
434.969	5.76
435.325	5.76
435.681	5.76
436.036	5.75
436.392	5.76
436.748	5.74
437.104	5.74
437.459	5.72
437.815	5.72
438.171	5.73
438.526	5.74
438.882	5.74
439.237	5.74
439.593	5.76
439.948	5.77
440.304	5.78
440.659	5.78
441.014	5.79
441.369	5.77
441.725	5.79
442.08	5.81
442.435	5.82
442.79	5.85
443.145	5.85
443.5	5.85
443.855	5.83
444.21	5.84
444.565	5.85
444.92	5.86
445.275	5.86
445.629	5.85
445.984	5.83
446.339	5.83
446.693	5.82
447.048	5.82
447.403	5.81
447.757	5.8
448.112	5.8
448.466	5.78
448.82	5.8
449.175	5.77
449.529	5.76
449.883	5.76
450.238	5.73
450.592	5.72
450.946	5.71
451.3	5.73
451.654	5.72
452.008	5.73
452.362	5.73
452.716	5.73
453.07	5.74
453.424	5.76
453.778	5.75
454.132	5.77
454.486	5.78
454.839	5.79
455.193	5.81
455.547	5.83
455.9	5.87
456.254	5.87
456.607	5.89
456.961	5.91
457.314	5.91
457.668	5.92
458.021	5.92
458.375	5.93
458.728	5.92
459.081	5.94
459.434	5.91
459.787	5.92
460.141	5.93
460.494	5.95
460.847	5.95
461.2	5.96
461.553	5.96
461.906	5.96
462.259	5.97
462.611	5.97
462.964	5.97
463.317	5.95
463.67	5.96
464.022	5.93
464.375	5.91
464.728	5.92
465.08	5.91
465.433	5.9
465.785	5.92
466.138	5.95
466.49	5.93
466.843	5.95
467.195	5.92
467.547	5.9
467.899	5.9
468.252	5.9
468.604	5.92
468.956	5.91
469.308	5.9
469.66	5.9
470.012	5.9
470.364	5.92
470.716	5.91
471.068	5.89
471.42	5.9
471.772	5.91
472.123	5.9
472.475	5.92
472.827	5.94
473.178	5.93
473.53	5.92
473.882	5.92
474.233	5.93
474.585	5.96
474.936	5.97
475.288	5.95
475.639	5.97
475.99	5.95
476.342	5.95
476.693	5.97
477.044	5.97
477.395	5.96
477.746	5.95
478.097	5.97
478.448	5.98
478.8	6
479.15	6.01
479.501	6.02
479.852	6.04
480.203	6.05
480.554	6.06
480.905	6.06
481.255	6.08
481.606	6.1
481.957	6.09
482.307	6.1
482.658	6.12
483.009	6.11
483.359	6.12
483.709	6.14
484.06	6.12
484.41	6.14
484.761	6.14
485.111	6.14
485.461	6.14
485.811	6.15
486.162	6.15
486.512	6.15
486.862	6.14
487.212	6.13
487.562	6.12
487.912	6.12
488.262	6.12
488.612	6.11
488.961	6.1
489.311	6.11
489.661	6.1
490.011	6.1
490.36	6.1
490.71	6.09
491.06	6.07
491.409	6.07
491.759	6.06
492.108	6.07
492.458	6.07
492.807	6.07
493.157	6.07
493.506	6.07
493.855	6.07
494.204	6.06
494.554	6.07
494.903	6.07
495.252	6.07
495.601	6.09
495.95	6.1
496.299	6.09
496.648	6.08
496.997	6.07
497.346	6.06
497.695	6.09
498.043	6.09
498.392	6.1
498.741	6.12
499.09	6.1
499.438	6.1
499.787	6.11
500.135	6.13
500.484	6.11
500.832	6.14
501.181	6.14
501.529	6.15
501.878	6.16
502.226	6.19
502.574	6.18
502.923	6.16
503.271	6.14
503.619	6.17
503.967	6.19
504.315	6.21
504.663	6.22
505.011	6.21
505.359	6.19
505.707	6.2
506.055	6.18
506.403	6.2
506.751	6.23
507.098	6.24
507.446	6.23
507.794	6.24
508.141	6.24
508.489	6.26
508.837	6.28
509.184	6.29
509.531	6.29
509.879	6.32
510.226	6.35
510.574	6.38
510.921	6.37
511.268	6.36
511.616	6.38
511.963	6.38
512.31	6.41
512.657	6.41
513.004	6.43
513.351	6.46
513.698	6.46
514.045	6.43
514.392	6.41
514.739	6.4
515.086	6.43
515.432	6.43
515.779	6.41
516.126	6.41
516.473	6.41
516.819	6.41
517.166	6.4
517.512	6.38
517.859	6.37
518.205	6.36
518.552	6.37
518.898	6.37
519.245	6.36
519.591	6.34
519.937	6.33
520.283	6.33
520.629	6.33
520.976	6.34
521.322	6.38
521.668	6.39
522.014	6.43
522.36	6.41
522.706	6.4
523.052	6.44
523.398	6.43
523.743	6.45
524.089	6.44
524.435	6.45
524.781	6.45
525.126	6.46
525.472	6.49
525.817	6.47
526.163	6.47
526.509	6.48
526.854	6.5
527.199	6.51
527.545	6.51
527.89	6.52
528.235	6.53
528.581	6.53
528.926	6.53
529.271	6.52
529.616	6.53
529.961	6.54
530.306	6.53
530.651	6.53
530.996	6.53
531.341	6.53
531.686	6.55
532.031	6.56
532.376	6.56
532.721	6.57
533.065	6.58
533.41	6.59
533.755	6.6
534.099	6.61
534.444	6.61
534.788	6.62
535.133	6.61
535.477	6.61
535.822	6.6
536.166	6.6
536.51	6.6
536.855	6.61
537.199	6.6
537.543	6.6
537.887	6.61
538.231	6.6
538.576	6.6
538.92	6.58
539.264	6.56
539.608	6.56
539.951	6.55
540.295	6.55
540.639	6.57
540.983	6.56
541.327	6.55
541.671	6.56
542.014	6.55
542.358	6.55
542.701	6.53
543.045	6.52
543.389	6.54
543.732	6.55
544.075	6.56
544.419	6.56
544.762	6.58
545.105	6.57
545.449	6.57
545.792	6.6
546.135	6.6
546.478	6.6
546.821	6.61
547.165	6.62
547.508	6.63
547.851	6.6
548.194	6.6
548.536	6.61
548.879	6.6
549.222	6.61
549.565	6.58
549.908	6.59
550.25	6.58
550.593	6.56
550.936	6.56
551.278	6.54
551.621	6.55
551.963	6.55
552.306	6.54
552.648	6.57
552.991	6.57
553.333	6.59
553.675	6.6
554.017	6.63
554.36	6.64
554.702	6.65
555.044	6.66
555.386	6.64
555.728	6.64
556.07	6.67
556.412	6.67
556.754	6.7
557.096	6.72
557.438	6.74
557.78	6.77
558.121	6.75
558.463	6.75
558.805	6.74
559.147	6.71
559.488	6.71
559.83	6.69
560.171	6.66
560.513	6.65
560.854	6.66
561.196	6.66
561.537	6.67
561.878	6.67
562.22	6.68
562.561	6.7
562.902	6.71
563.243	6.73
563.584	6.73
563.925	6.73
564.266	6.75
564.607	6.75
564.948	6.74
565.289	6.75
565.63	6.76
565.971	6.75
566.312	6.78
566.653	6.79
566.993	6.78
567.334	6.82
567.675	6.83
568.015	6.83
568.356	6.82
568.696	6.84
569.037	6.87
569.377	6.87
569.718	6.9
570.058	6.89
570.398	6.85
570.739	6.87
571.079	6.88
571.419	6.88
571.759	6.88
572.099	6.88
572.439	6.9
572.779	6.92
573.119	6.92
573.459	6.92
573.799	6.95
574.139	6.95
574.479	6.94
574.819	6.93
575.158	6.92
575.498	6.95
575.838	6.9
576.177	6.85
576.517	6.85
576.856	6.83
577.196	6.84
577.535	6.88
577.875	6.88
578.214	6.91
578.553	6.91
578.893	6.9
579.232	6.94
579.571	6.92
579.91	6.92
580.25	6.93
580.589	6.94
580.928	6.97
581.267	7
581.606	7.02
581.945	7.05
582.283	7.06
582.622	7.03
582.961	7.09
583.3	7.11
583.639	7.14
583.977	7.13
584.316	7.12
584.654	7.09
584.993	7.06
585.332	7.01
585.67	7.03
586.008	7.05
586.347	6.97
586.685	6.99
587.024	6.98
587.362	6.98
587.7	6.98
588.038	6.99
588.376	6.98
588.715	6.99
589.053	7.02
589.391	7.03
589.729	7.02
590.067	6.97
590.404	7
590.742	6.96
591.08	7
591.418	7.02
591.756	7.06
592.093	7.1
592.431	7.12
592.769	7.13
593.106	7.12
593.444	7.18
593.781	7.13
594.119	7.17
594.456	7.19
594.793	7.19
595.131	7.13
595.468	7.16
595.805	7.14
596.143	7.11
596.48	7.08
596.817	7.13
597.154	7.14
597.491	7.12
597.828	7.2
598.165	7.18
598.502	7.16
598.839	7.16
599.176	7.16
599.512	7.15
599.849	7.18
600.186	7.18
600.523	7.18
600.859	7.22
601.196	7.22
601.532	7.21
601.869	7.18
602.205	7.22
602.542	7.22
602.878	7.22
603.215	7.22
603.551	7.26
603.887	7.25
604.223	7.28
604.56	7.29
604.896	7.25
605.232	7.26
605.568	7.3
605.904	7.28
606.24	7.32
606.576	7.37
606.912	7.37
607.248	7.37
607.583	7.39
607.919	7.41
608.255	7.4
608.591	7.37
608.926	7.43
609.262	7.43
609.597	7.46
609.933	7.48
610.268	7.5
610.604	7.49
610.939	7.47
611.275	7.46
611.61	7.49
611.945	7.49
612.281	7.52
612.616	7.5
612.951	7.52
613.286	7.51
613.621	7.47
613.956	7.46
614.291	7.45
614.626	7.44
614.961	7.42
615.296	7.44
615.631	7.48
615.966	7.5
616.3	7.51
616.635	7.45
616.97	7.46
617.304	7.44
617.639	7.42
617.973	7.44
618.308	7.39
618.642	7.38
618.977	7.42
619.311	7.39
619.646	7.46
619.98	7.5
620.314	7.52
620.648	7.5
620.983	7.5
621.317	7.52
621.651	7.56
621.985	7.6
622.319	7.64
622.653	7.64
622.987	7.63
623.321	7.61
623.655	7.62
623.988	7.66
624.322	7.67
624.656	7.67
624.99	7.69
625.323	7.7
625.657	7.75
625.99	7.77
626.324	7.76
626.657	7.7
626.991	7.66
627.324	7.65
627.658	7.69
627.991	7.7
628.324	7.74
628.657	7.67
628.991	7.64
629.324	7.64
629.657	7.62
629.99	7.64
630.323	7.62
630.656	7.68
630.989	7.66
631.322	7.68
631.655	7.69
631.987	7.69
632.32	7.74
632.653	7.66
632.986	7.6
633.318	7.62
633.651	7.67
633.984	7.72
634.316	7.72
634.649	7.71
634.981	7.73
635.313	7.71
635.646	7.76
635.978	7.76
636.31	7.73
636.643	7.76
636.975	7.75
637.307	7.75
637.639	7.71
637.971	7.74
638.303	7.75
638.635	7.73
638.967	7.75
639.299	7.76
639.631	7.77
639.963	7.76
640.295	7.79
640.626	7.75
640.958	7.78
641.29	7.74
641.621	7.73
641.953	7.74
642.285	7.81
642.616	7.79
642.948	7.88
643.279	7.93
643.61	7.96
643.942	7.94
644.273	7.97
644.604	7.91
644.936	7.91
645.267	7.92
645.598	8
645.929	8.01
646.26	8.05
646.591	8.08
646.922	8.13
647.253	8.14
647.584	8.12
647.915	8.09
648.245	8.08
648.576	8.12
648.907	8.08
649.238	8.01
649.568	8.04
649.899	8
650.229	7.99
650.56	8.04
650.89	8.07
651.221	8.05
651.551	8.03
651.882	8.03
652.212	8.02
652.542	7.96
652.872	7.97
653.203	7.94
653.533	7.93
653.863	7.97
654.193	7.89
654.523	7.88
654.853	7.92
655.183	7.99
655.513	7.94
655.843	7.96
656.172	7.97
656.502	8.01
656.832	7.99
657.162	8.01
657.491	7.93
657.821	7.93
658.15	7.94
658.48	8.06
658.809	8.03
659.139	8.03
659.468	7.99
659.798	7.99
660.127	7.98
660.456	8
660.785	8.01
661.115	8.08
661.444	8.11
661.773	8.04
662.102	8.01
662.431	8.04
662.76	8.06
663.089	8.11
663.418	8.09
663.747	8.14
664.076	8.15
664.404	8.2
664.733	8.21
665.062	8.27
665.39	8.23
665.719	8.19
666.048	8.22
666.376	8.27
666.705	8.21
667.033	8.24
667.362	8.27
667.69	8.26
668.018	8.25
668.347	8.23
668.675	8.3
669.003	8.3
669.331	8.33
669.659	8.28
669.987	8.24
670.315	8.27
670.643	8.21
670.971	8.22
671.299	8.24
671.627	8.25
671.955	8.29
672.283	8.39
672.61	8.45
672.938	8.48
673.266	8.52
673.593	8.66
673.921	8.55
674.249	8.62
674.576	8.54
674.904	8.58
675.231	8.53
675.558	8.52
675.886	8.55
676.213	8.5
676.54	8.58
676.867	8.64
677.195	8.56
677.522	8.63
