Data from BA28300_Reflection_00013.txt Node
Date: Mon Nov 18 15:58:28 EST 2019
User: vgr7
Spectrometer: USB2G7710
Scans to average: 3
Trigger mode: 4
Integration Time (sec): 2.000000E-2
Electric dark correction enabled: true
Boxcar width: 10
XAxis mode: Wavelengths
Number of Pixels in Spectrum: 2048
>>>>>Begin Spectral Data<<<<<
177.721	-704.18
178.105	-2311.76
178.488	394.19
178.871	154.57
179.254	293.77
179.636	-3.09
180.019	-145.88
180.402	97.22
180.785	-69.19
181.168	-18.03
181.55	-200.75
181.933	93.17
182.316	139.12
182.698	89.16
183.081	104.53
183.463	96.7
183.846	179.22
184.228	155.27
184.611	263.76
184.993	-2716.9
185.376	-6723.53
185.758	417.34
186.14	501.38
186.522	341.16
186.904	301.23
187.287	362.55
187.669	-12.29
188.051	-423.36
188.433	-170.27
188.815	34.3
189.197	64.09
189.579	36.69
189.961	151.45
190.342	276.21
190.724	60.55
191.106	134.98
191.488	56.58
191.869	301.08
192.251	361.84
192.633	233.78
193.014	-348.98
193.396	7.38
193.777	-206.05
194.159	454.29
194.54	-4605.88
194.922	343.09
195.303	-933.71
195.684	-942.25
196.065	-151.35
196.447	-136.88
196.828	-465.92
197.209	-144.41
197.59	-380.94
197.971	-352.75
198.352	-113.64
198.733	-129.48
199.114	-124.98
199.495	-88.11
199.876	-79.12
200.257	-61.53
200.638	-28.61
201.018	-75.88
201.399	-36.46
201.78	-43.41
202.16	-15.88
202.541	-45.17
202.922	-159.3
203.302	-341.11
203.683	-465.7
204.063	-268.24
204.444	-197.45
204.824	-219.68
205.204	-361.15
205.585	-148.32
205.965	-115.97
206.345	-204.3
206.725	-511.76
207.106	-1984.03
207.486	-856.77
207.866	-3683.13
208.246	-675.16
208.626	-337.76
209.006	-105.17
209.386	-172.81
209.766	-203.64
210.145	-128.17
210.525	-60.31
210.905	-3.01
211.285	-25.85
211.664	10.62
212.044	18.99
212.424	39.61
212.803	28.91
213.183	27.57
213.562	26.7
213.942	26.41
214.321	5.16
214.701	2.74
215.08	-8.16
215.459	-6.07
215.838	-0.09
216.218	0.25
216.597	-5.48
216.976	7.7
217.355	0.41
217.734	6.09
218.113	16.35
218.492	2.49
218.871	6.24
219.25	5.2
219.629	-15.82
220.008	-9.95
220.387	-4.54
220.766	-7.09
221.144	3.82
221.523	-10.9
221.902	-10.92
222.28	-1.97
222.659	0.84
223.037	-0.81
223.416	-1.99
223.794	-6.71
224.173	-0.04
224.551	0.27
224.929	-8.98
225.308	-1.62
225.686	-0.95
226.064	-2.39
226.442	-2.82
226.821	-2.11
227.199	3.75
227.577	5.22
227.955	4.76
228.333	1.1
228.711	1.11
229.089	4.39
229.467	3.79
229.845	5.24
230.222	7.13
230.6	5.88
230.978	7.65
231.356	9.05
231.733	10.97
232.111	12.4
232.488	14.48
232.866	16.15
233.243	16.14
233.621	14.35
233.998	15.06
234.376	15.04
234.753	12.66
235.13	13.69
235.508	15.49
235.885	15.31
236.262	14.56
236.639	14.37
237.016	11.1
237.393	13.4
237.77	12.25
238.147	11.19
238.524	10.81
238.901	10.67
239.278	9.67
239.655	9.63
240.032	9.02
240.409	7.73
240.785	7.53
241.162	7.79
241.539	8.06
241.915	7.6
242.292	7.23
242.668	7.34
243.045	6.78
243.421	6.92
243.798	6.73
244.174	6.96
244.551	7.06
244.927	6.98
245.303	6.86
245.679	6.96
246.056	6.85
246.432	6.86
246.808	6.8
247.184	6.77
247.56	6.49
247.936	6.47
248.312	6.54
248.688	6.65
249.064	6.58
249.44	6.61
249.815	6.78
250.191	6.73
250.567	7.11
250.943	7.03
251.318	6.76
251.694	6.66
252.069	6.55
252.445	6.5
252.82	6.73
253.196	6.36
253.571	6.16
253.947	6.4
254.322	6.74
254.697	6.27
255.073	6.07
255.448	6.26
255.823	6.11
256.198	6.26
256.573	5.85
256.948	5.82
257.323	5.92
257.698	5.76
258.073	5.96
258.448	5.67
258.823	5.69
259.198	5.58
259.573	5.51
259.948	5.51
260.322	5.44
260.697	5.33
261.072	5.39
261.446	5.49
261.821	5.32
262.195	5.17
262.57	5.3
262.944	5.35
263.319	5.29
263.693	5.27
264.067	5.23
264.442	5.3
264.816	5.19
265.19	4.95
265.564	4.84
265.938	4.71
266.313	4.63
266.687	4.51
267.061	4.6
267.435	4.67
267.809	4.84
268.183	4.81
268.556	4.84
268.93	4.95
269.304	4.82
269.678	5.06
270.051	5.23
270.425	5.34
270.799	5.46
271.172	5.43
271.546	5.36
271.919	5.3
272.293	5.3
272.666	5.44
273.04	5.61
273.413	5.6
273.787	5.64
274.16	5.65
274.533	5.7
274.906	5.64
275.279	5.67
275.653	5.5
276.026	5.55
276.399	5.62
276.772	5.61
277.145	5.68
277.518	5.5
277.891	5.33
278.263	5.28
278.636	5.32
279.009	5.33
279.382	5.63
279.755	5.7
280.127	5.84
280.5	5.96
280.872	5.88
281.245	5.82
281.617	5.86
281.99	5.84
282.362	6.01
282.735	5.88
283.107	5.82
283.479	5.92
283.852	5.89
284.224	5.85
284.596	5.79
284.968	5.78
285.34	5.82
285.713	5.91
286.085	5.8
286.457	5.69
286.829	5.79
287.201	5.74
287.572	5.7
287.944	5.6
288.316	5.41
288.688	5.42
289.06	5.5
289.431	5.53
289.803	5.68
290.175	5.51
290.546	5.76
290.918	5.85
291.289	5.9
291.661	6.01
292.032	6.1
292.403	6.08
292.775	6.11
293.146	6.12
293.517	6
293.889	6.24
294.26	6.32
294.631	6.27
295.002	6.27
295.373	6.24
295.744	6.45
296.115	6.52
296.486	6.54
296.857	6.66
297.228	6.75
297.599	6.69
297.97	6.85
298.34	6.86
298.711	6.99
299.082	7.07
299.452	7.13
299.823	7.23
300.194	7.48
300.564	7.6
300.935	7.74
301.305	7.84
301.676	7.92
302.046	8.04
302.416	8.33
302.787	8.35
303.157	8.5
303.527	8.37
303.897	8.53
304.267	8.79
304.637	8.93
305.008	8.97
305.378	9.07
305.748	9.12
306.117	9.08
306.487	9.23
306.857	9.2
307.227	9.33
307.597	9.38
307.967	9.45
308.336	9.52
308.706	9.57
309.076	9.8
309.445	9.76
309.815	9.85
310.184	9.81
310.554	9.98
310.923	10.09
311.293	10.45
311.662	10.65
312.031	10.63
312.401	10.64
312.77	10.73
313.139	10.88
313.508	11.01
313.877	11.3
314.246	11.35
314.616	11.39
314.985	11.36
315.353	11.35
315.722	11.29
316.091	11.42
316.46	11.6
316.829	11.7
317.198	11.83
317.567	11.88
317.935	12.03
318.304	12.12
318.672	12.16
319.041	12.05
319.41	11.91
319.778	11.94
320.147	12.15
320.515	12.01
320.883	12.01
321.252	12.09
321.62	12.02
321.988	12.06
322.357	12.21
322.725	12.36
323.093	12.52
323.461	12.74
323.829	12.69
324.197	12.67
324.565	12.71
324.933	12.73
325.301	12.87
325.669	12.86
326.037	12.83
326.405	12.86
326.772	12.85
327.14	13.04
327.508	13.21
327.875	13.1
328.243	13.28
328.61	13.35
328.978	13.36
329.346	13.4
329.713	13.45
330.08	13.62
330.448	13.49
330.815	13.61
331.182	13.54
331.55	13.68
331.917	13.79
332.284	13.85
332.651	13.88
333.018	13.96
333.385	13.93
333.752	14.11
334.119	14.34
334.486	14.42
334.853	14.32
335.22	14.38
335.587	14.49
335.954	14.55
336.32	14.42
336.687	14.51
337.054	14.68
337.42	14.7
337.787	14.67
338.153	14.9
338.52	14.89
338.886	14.88
339.253	14.88
339.619	14.98
339.986	14.91
340.352	14.99
340.718	14.83
341.084	14.87
341.451	14.89
341.817	14.77
342.183	14.74
342.549	14.84
342.915	14.8
343.281	14.78
343.647	14.71
344.013	14.86
344.379	14.94
344.745	14.94
345.11	14.9
345.476	14.97
345.842	14.92
346.208	14.96
346.573	15.06
346.939	15.16
347.304	15.1
347.67	15.21
348.035	15.27
348.401	15.43
348.766	15.59
349.132	15.67
349.497	15.76
349.862	15.91
350.228	15.91
350.593	15.92
350.958	15.95
351.323	16.08
351.688	16.1
352.053	16.06
352.418	16
352.783	16.04
353.148	16.02
353.513	16.06
353.878	16.09
354.243	16.15
354.608	16.05
354.972	16.12
355.337	16.12
355.702	16.18
356.066	16.17
356.431	16.13
356.795	16.1
357.16	16.13
357.524	16.1
357.889	16.08
358.253	16.11
358.618	16.14
358.982	16.15
359.346	16.09
359.71	16.11
360.075	16.21
360.439	16.24
360.803	16.26
361.167	16.29
361.531	16.23
361.895	16.19
362.259	16.19
362.623	16.17
362.987	16.12
363.351	16.12
363.714	16.13
364.078	16.1
364.442	16.02
364.806	15.95
365.169	15.89
365.533	15.92
365.896	15.94
366.26	15.99
366.623	16
366.987	16.03
367.35	16.01
367.714	16.03
368.077	16.03
368.44	15.96
368.803	15.85
369.167	15.97
369.53	15.95
369.893	16.01
370.256	15.94
370.619	15.95
370.982	15.89
371.345	15.9
371.708	15.91
372.071	15.93
372.434	15.86
372.797	15.91
373.159	15.84
373.522	15.82
373.885	15.76
374.247	15.71
374.61	15.7
374.973	15.63
375.335	15.47
375.698	15.4
376.06	15.43
376.423	15.46
376.785	15.36
377.147	15.38
377.51	15.4
377.872	15.42
378.234	15.41
378.596	15.38
378.958	15.33
379.321	15.32
379.683	15.37
380.045	15.39
380.407	15.34
380.769	15.37
381.13	15.24
381.492	15.26
381.854	15.27
382.216	15.3
382.578	15.29
382.939	15.29
383.301	15.28
383.663	15.19
384.024	15.14
384.386	15.17
384.747	15.08
385.109	14.98
385.47	14.93
385.832	14.85
386.193	14.83
386.554	14.71
386.916	14.64
387.277	14.57
387.638	14.55
387.999	14.47
388.36	14.42
388.721	14.45
389.082	14.33
389.443	14.24
389.804	14.17
390.165	14.11
390.526	14.1
390.887	14.03
391.248	14.03
391.609	14.01
391.969	13.91
392.33	13.87
392.691	13.85
393.051	13.76
393.412	13.75
393.772	13.69
394.133	13.68
394.493	13.62
394.854	13.54
395.214	13.51
395.574	13.47
395.935	13.4
396.295	13.35
396.655	13.32
397.015	13.3
397.376	13.23
397.736	13.23
398.096	13.17
398.456	13.14
398.816	13.06
399.176	12.99
399.535	12.96
399.895	12.91
400.255	12.86
400.615	12.87
400.975	12.77
401.334	12.73
401.694	12.7
402.054	12.67
402.413	12.65
402.773	12.58
403.132	12.55
403.492	12.5
403.851	12.45
404.211	12.43
404.57	12.4
404.929	12.4
405.288	12.36
405.648	12.29
406.007	12.26
406.366	12.27
406.725	12.26
407.084	12.28
407.443	12.25
407.802	12.26
408.161	12.23
408.52	12.24
408.879	12.22
409.238	12.24
409.596	12.18
409.955	12.18
410.314	12.21
410.673	12.19
411.031	12.14
411.39	12.1
411.748	12.08
412.107	12.04
412.465	11.99
412.824	11.94
413.182	11.91
413.54	11.88
413.899	11.84
414.257	11.79
414.615	11.68
414.974	11.66
415.332	11.59
415.69	11.54
416.048	11.5
416.406	11.47
416.764	11.4
417.122	11.38
417.48	11.33
417.838	11.26
418.195	11.21
418.553	11.2
418.911	11.16
419.269	11.13
419.626	11.08
419.984	11.04
420.342	11.03
420.699	11.03
421.057	10.98
421.414	10.93
421.772	10.9
422.129	10.89
422.486	10.85
422.844	10.83
423.201	10.81
423.558	10.79
423.915	10.76
424.273	10.75
424.63	10.7
424.987	10.66
425.344	10.62
425.701	10.59
426.058	10.59
426.415	10.57
426.772	10.54
427.128	10.52
427.485	10.5
427.842	10.42
428.199	10.39
428.555	10.38
428.912	10.39
429.269	10.38
429.625	10.34
429.982	10.34
430.338	10.31
430.695	10.27
431.051	10.24
431.407	10.2
431.764	10.2
432.12	10.21
432.476	10.22
432.832	10.22
433.189	10.22
433.545	10.2
433.901	10.21
434.257	10.23
434.613	10.24
434.969	10.23
435.325	10.24
435.681	10.25
436.036	10.25
436.392	10.22
436.748	10.18
437.104	10.19
437.459	10.17
437.815	10.17
438.171	10.18
438.526	10.17
438.882	10.19
439.237	10.17
439.593	10.17
439.948	10.14
440.304	10.14
440.659	10.14
441.014	10.13
441.369	10.1
441.725	10.06
442.08	10.06
442.435	10.04
442.79	10.03
443.145	10.02
443.5	10
443.855	9.98
444.21	9.96
444.565	9.94
444.92	9.92
445.275	9.89
445.629	9.88
445.984	9.86
446.339	9.82
446.693	9.79
447.048	9.76
447.403	9.74
447.757	9.72
448.112	9.68
448.466	9.65
448.82	9.63
449.175	9.63
449.529	9.58
449.883	9.56
450.238	9.52
450.592	9.49
450.946	9.45
451.3	9.44
451.654	9.42
452.008	9.4
452.362	9.39
452.716	9.37
453.07	9.35
453.424	9.35
453.778	9.35
454.132	9.35
454.486	9.33
454.839	9.33
455.193	9.31
455.547	9.29
455.9	9.3
456.254	9.31
456.607	9.31
456.961	9.31
457.314	9.32
457.668	9.36
458.021	9.35
458.375	9.38
458.728	9.4
459.081	9.44
459.434	9.45
459.787	9.45
460.141	9.45
460.494	9.46
460.847	9.48
461.2	9.5
461.553	9.51
461.906	9.55
462.259	9.6
462.611	9.64
462.964	9.7
463.317	9.73
463.67	9.76
464.022	9.77
464.375	9.81
464.728	9.85
465.08	9.87
465.433	9.91
465.785	9.96
466.138	9.99
466.49	10.02
466.843	10.06
467.195	10.12
467.547	10.16
467.899	10.2
468.252	10.23
468.604	10.24
468.956	10.28
469.308	10.27
469.66	10.29
470.012	10.33
470.364	10.34
470.716	10.37
471.068	10.4
471.42	10.44
471.772	10.46
472.123	10.49
472.475	10.51
472.827	10.53
473.178	10.54
473.53	10.55
473.882	10.55
474.233	10.56
474.585	10.54
474.936	10.54
475.288	10.53
475.639	10.53
475.99	10.56
476.342	10.59
476.693	10.61
477.044	10.59
477.395	10.55
477.746	10.54
478.097	10.52
478.448	10.5
478.8	10.47
479.15	10.44
479.501	10.43
479.852	10.42
480.203	10.4
480.554	10.39
480.905	10.37
481.255	10.36
481.606	10.35
481.957	10.35
482.307	10.35
482.658	10.35
483.009	10.34
483.359	10.33
483.709	10.32
484.06	10.32
484.41	10.31
484.761	10.32
485.111	10.3
485.461	10.31
485.811	10.31
486.162	10.31
486.512	10.32
486.862	10.31
487.212	10.31
487.562	10.32
487.912	10.31
488.262	10.32
488.612	10.33
488.961	10.32
489.311	10.34
489.661	10.35
490.011	10.35
490.36	10.36
490.71	10.39
491.06	10.41
491.409	10.44
491.759	10.47
492.108	10.51
492.458	10.56
492.807	10.58
493.157	10.63
493.506	10.68
493.855	10.72
494.204	10.76
494.554	10.82
494.903	10.87
495.252	10.95
495.601	11.03
495.95	11.12
496.299	11.22
496.648	11.29
496.997	11.37
497.346	11.48
497.695	11.59
498.043	11.67
498.392	11.74
498.741	11.79
499.09	11.88
499.438	11.92
499.787	12.03
500.135	12.14
500.484	12.22
500.832	12.33
501.181	12.46
501.529	12.58
501.878	12.67
502.226	12.79
502.574	12.89
502.923	13.02
503.271	13.12
503.619	13.27
503.967	13.39
504.315	13.5
504.663	13.62
505.011	13.73
505.359	13.84
505.707	13.96
506.055	14.09
506.403	14.21
506.751	14.35
507.098	14.48
507.446	14.58
507.794	14.72
508.141	14.83
508.489	14.94
508.837	15.06
509.184	15.19
509.531	15.32
509.879	15.45
510.226	15.55
510.574	15.66
510.921	15.76
511.268	15.87
511.616	16
511.963	16.12
512.31	16.24
512.657	16.38
513.004	16.51
513.351	16.63
513.698	16.76
514.045	16.9
514.392	17.01
514.739	17.18
515.086	17.33
515.432	17.45
515.779	17.59
516.126	17.71
516.473	17.81
516.819	17.94
517.166	18.06
517.512	18.18
517.859	18.32
518.205	18.44
518.552	18.56
518.898	18.66
519.245	18.77
519.591	18.88
519.937	18.96
520.283	19.09
520.629	19.24
520.976	19.4
521.322	19.54
521.668	19.66
522.014	19.78
522.36	19.93
522.706	20.1
523.052	20.26
523.398	20.42
523.743	20.61
524.089	20.77
524.435	20.92
524.781	21.1
525.126	21.25
525.472	21.39
525.817	21.55
526.163	21.7
526.509	21.85
526.854	21.97
527.199	22.1
527.545	22.2
527.89	22.3
528.235	22.42
528.581	22.55
528.926	22.69
529.271	22.81
529.616	22.95
529.961	23.07
530.306	23.21
530.651	23.37
530.996	23.52
531.341	23.69
531.686	23.87
532.031	24.04
532.376	24.23
532.721	24.42
533.065	24.6
533.41	24.77
533.755	24.96
534.099	25.16
534.444	25.38
534.788	25.6
535.133	25.81
535.477	26.01
535.822	26.24
536.166	26.48
536.51	26.74
536.855	26.98
537.199	27.28
537.543	27.58
537.887	27.86
538.231	28.16
538.576	28.42
538.92	28.7
539.264	28.96
539.608	29.18
539.951	29.4
540.295	29.63
540.639	29.86
540.983	30.03
541.327	30.28
541.671	30.47
542.014	30.69
542.358	30.89
542.701	31.12
543.045	31.3
543.389	31.53
543.732	31.73
544.075	31.96
544.419	32.2
544.762	32.42
545.105	32.66
545.449	32.89
545.792	33.15
546.135	33.41
546.478	33.69
546.821	33.97
547.165	34.28
547.508	34.56
547.851	34.88
548.194	35.22
548.536	35.51
548.879	35.86
549.222	36.17
549.565	36.47
549.908	36.78
550.25	37.1
550.593	37.36
550.936	37.66
551.278	37.89
551.621	38.17
551.963	38.53
552.306	38.77
552.648	39.09
552.991	39.38
553.333	39.65
553.675	39.87
554.017	40.13
554.36	40.39
554.702	40.67
555.044	40.93
555.386	41.18
555.728	41.37
556.07	41.64
556.412	41.88
556.754	42.09
557.096	42.29
557.438	42.5
557.78	42.79
558.121	43.06
558.463	43.4
558.805	43.59
559.147	43.77
559.488	43.99
559.83	44.23
560.171	44.42
560.513	44.63
560.854	44.92
561.196	45.16
561.537	45.39
561.878	45.58
562.22	45.77
562.561	46.05
562.902	46.3
563.243	46.48
563.584	46.64
563.925	46.92
564.266	47.05
564.607	47.26
564.948	47.47
565.289	47.67
565.63	47.8
565.971	47.97
566.312	48.12
566.653	48.36
566.993	48.55
567.334	48.76
567.675	48.96
568.015	49.13
568.356	49.21
568.696	49.35
569.037	49.54
569.377	49.72
569.718	49.86
570.058	50
570.398	50.13
570.739	50.25
571.079	50.35
571.419	50.59
571.759	50.76
572.099	50.85
572.439	50.91
572.779	51.01
573.119	51.13
573.459	51.28
573.799	51.37
574.139	51.43
574.479	51.56
574.819	51.67
575.158	51.76
575.498	51.93
575.838	52.05
576.177	52.09
576.517	52.18
576.856	52.24
577.196	52.33
577.535	52.42
577.875	52.55
578.214	52.61
578.553	52.7
578.893	52.69
579.232	52.81
579.571	52.96
579.91	53.03
580.25	53.17
580.589	53.18
580.928	53.3
581.267	53.45
581.606	53.52
581.945	53.6
582.283	53.66
582.622	53.77
582.961	53.87
583.3	54.01
583.639	54.1
583.977	54.25
584.316	54.35
584.654	54.41
584.993	54.48
585.332	54.7
585.67	54.65
586.008	54.79
586.347	54.88
586.685	54.9
587.024	55.01
587.362	55.04
587.7	55.19
588.038	55.27
588.376	55.31
588.715	55.38
589.053	55.47
589.391	55.53
589.729	55.53
590.067	55.61
590.404	55.72
590.742	55.79
591.08	55.7
591.418	55.77
591.756	55.85
592.093	55.91
592.431	55.91
592.769	56.05
593.106	56.11
593.444	56.16
593.781	56.32
594.119	56.43
594.456	56.5
594.793	56.51
595.131	56.51
595.468	56.48
595.805	56.53
596.143	56.54
596.48	56.63
596.817	56.71
597.154	56.75
597.491	56.71
597.828	56.77
598.165	56.93
598.502	56.91
598.839	56.94
599.176	56.96
599.512	57.02
599.849	57.08
600.186	57.08
600.523	57.07
600.859	57.03
601.196	57.02
601.532	56.95
601.869	56.98
602.205	57.04
602.542	57.09
602.878	57.14
603.215	57.27
603.551	57.27
603.887	57.27
604.223	57.22
604.56	57.35
604.896	57.33
605.232	57.35
605.568	57.49
605.904	57.57
606.24	57.66
606.576	57.7
606.912	57.74
607.248	57.85
607.583	57.9
607.919	58.01
608.255	58.14
608.591	58.31
608.926	58.41
609.262	58.46
609.597	58.52
609.933	58.56
610.268	58.47
610.604	58.56
610.939	58.6
611.275	58.76
611.61	58.74
611.945	58.81
612.281	58.86
612.616	58.84
612.951	58.84
613.286	58.82
613.621	58.86
613.956	58.83
614.291	58.79
614.626	58.88
614.961	58.83
615.296	58.82
615.631	58.75
615.966	58.73
616.3	58.76
616.635	58.84
616.97	58.78
617.304	58.96
617.639	58.94
617.973	59.07
618.308	59.04
618.642	59.02
618.977	59.04
619.311	58.98
619.646	58.92
619.98	58.97
620.314	59.12
620.648	59.09
620.983	59.13
621.317	59.12
621.651	59.03
621.985	59.16
622.319	59.14
622.653	59.2
622.987	59.25
623.321	59.33
623.655	59.31
623.988	59.37
624.322	59.3
624.656	59.36
624.99	59.25
625.323	59.21
625.657	59.25
625.99	59.22
626.324	59.28
626.657	59.36
626.991	59.45
627.324	59.41
627.658	59.44
627.991	59.5
628.324	59.54
628.657	59.63
628.991	59.6
629.324	59.55
629.657	59.57
629.99	59.57
630.323	59.46
630.656	59.45
630.989	59.47
631.322	59.51
631.655	59.47
631.987	59.49
632.32	59.54
632.653	59.65
632.986	59.71
633.318	59.78
633.651	59.78
633.984	59.69
634.316	59.6
634.649	59.62
634.981	59.63
635.313	59.58
635.646	59.6
635.978	59.58
636.31	59.55
636.643	59.59
636.975	59.66
637.307	59.74
637.639	59.84
637.971	59.84
638.303	59.84
638.635	59.85
638.967	60.04
639.299	60.02
639.631	59.9
639.963	59.96
640.295	59.89
640.626	59.85
640.958	59.87
641.29	59.91
641.621	59.88
641.953	59.9
642.285	60
642.616	59.95
642.948	59.9
643.279	60.07
643.61	60.09
643.942	60.04
644.273	59.94
644.604	59.81
644.936	59.93
645.267	59.9
645.598	59.93
645.929	59.83
646.26	59.93
646.591	59.96
646.922	59.84
647.253	59.86
647.584	59.92
647.915	59.97
648.245	60.04
648.576	60.11
648.907	60.16
649.238	60.22
649.568	60.32
649.899	60.3
650.229	60.39
650.56	60.37
650.89	60.39
651.221	60.53
651.551	60.6
651.882	60.52
652.212	60.58
652.542	60.65
652.872	60.6
653.203	60.6
653.533	60.71
653.863	60.87
654.193	60.83
654.523	60.91
654.853	60.94
655.183	61.01
655.513	61.02
