Data from BA28469_Reflection_00012.txt Node
Date: Mon Nov 18 15:18:11 EST 2019
User: vgr7
Spectrometer: USB2G7710
Scans to average: 3
Trigger mode: 4
Integration Time (sec): 2.000000E-2
Electric dark correction enabled: true
Boxcar width: 10
XAxis mode: Wavelengths
Number of Pixels in Spectrum: 2048
>>>>>Begin Spectral Data<<<<<
177.721	-220.86
178.105	17766.67
178.488	144
178.871	163.04
179.254	141.8
179.636	-23233.33
180.019	607.16
180.402	131.58
180.785	119.36
181.168	72.95
181.55	616.43
181.933	167.4
182.316	174.07
182.698	158.02
183.081	424.18
183.463	427.18
183.846	423.3
184.228	1061.65
184.611	429.7
184.993	44322.22
185.376	-1756.54
185.758	-925.64
186.14	-649.62
186.522	-2855.97
186.904	-1030.24
187.287	1362.54
187.669	-659.93
188.051	-790.38
188.433	-187.78
188.815	-86.91
189.197	-70.48
189.579	-42.17
189.961	-35.65
190.342	-24.62
190.724	-25.39
191.106	-22.67
191.488	-11.92
191.869	11.73
192.251	20.28
192.633	1.74
193.014	4.52
193.396	9.07
193.777	6.05
194.159	-0.96
194.54	16.85
194.922	17.24
195.303	8.06
195.684	2.03
196.065	-3.27
196.447	-9.23
196.828	-28.07
197.209	-23.16
197.59	-22.05
197.971	-25.53
198.352	-24.81
198.733	-20.22
199.114	-12.58
199.495	-11.9
199.876	-17.85
200.257	-31.64
200.638	-15.47
201.018	-23.39
201.399	-23.39
201.78	-17.38
202.16	-46.97
202.541	-118.13
202.922	-127.43
203.302	-155.38
203.683	-172.79
204.063	-171.17
204.444	-144.85
204.824	-186.41
205.204	-144.64
205.585	-124.22
205.965	-109.18
206.345	-87.34
206.725	-94.22
207.106	-134.52
207.486	-136.36
207.866	-189.7
208.246	-167
208.626	-199.36
209.006	-163.75
209.386	-168.59
209.766	-149.9
210.145	-77.67
210.525	-61.19
210.905	-52.99
211.285	-33.33
211.664	-25.5
212.044	-30.55
212.424	-19.25
212.803	-9.39
213.183	-10.25
213.562	-5.5
213.942	-6.72
214.321	-2.14
214.701	-3.05
215.08	-13.01
215.459	-9.11
215.838	-2.21
216.218	-3
216.597	4.25
216.976	0.1
217.355	-0.07
217.734	-1.21
218.113	-4.19
218.492	-5.92
218.871	-14.8
219.25	-10.84
219.629	-12.7
220.008	-7.57
220.387	-7.18
220.766	-14.58
221.144	-38.02
221.523	-54.23
221.902	-63.54
222.28	-64.62
222.659	-49.85
223.037	-31.28
223.416	-31.84
223.794	-34.99
224.173	-45.01
224.551	-47.05
224.929	-41.86
225.308	-31.97
225.686	-23.66
226.064	-16.62
226.442	-11.36
226.821	-3.7
227.199	-4.99
227.577	-5.84
227.955	-5.12
228.333	-8.4
228.711	-3.9
229.089	3.15
229.467	3.81
229.845	5.52
230.222	2.75
230.6	2.53
230.978	3.27
231.356	4.09
231.733	5.3
232.111	6.37
232.488	5.52
232.866	5.9
233.243	5.84
233.621	6.42
233.998	5.19
234.376	4.68
234.753	3.99
235.13	3.72
235.508	5.1
235.885	4.2
236.262	4.28
236.639	3.46
237.016	1.92
237.393	4.01
237.77	4.65
238.147	5.7
238.524	4.98
238.901	4.95
239.278	5.07
239.655	5.2
240.032	5.37
240.409	5
240.785	5.52
241.162	5.06
241.539	4.83
241.915	5.01
242.292	4.39
242.668	4.44
243.045	4.34
243.421	4.16
243.798	4.23
244.174	4.22
244.551	4.24
244.927	4.11
245.303	3.72
245.679	3.92
246.056	3.71
246.432	3.76
246.808	3.76
247.184	3.57
247.56	3.43
247.936	3.34
248.312	3.46
248.688	3.2
249.064	3.47
249.44	3.48
249.815	3.59
250.191	3.82
250.567	3.76
250.943	3.82
251.318	3.88
251.694	4.01
252.069	3.99
252.445	4.14
252.82	4.24
253.196	4.21
253.571	4.07
253.947	4.27
254.322	4.51
254.697	4.56
255.073	4.36
255.448	4.3
255.823	4.34
256.198	4.45
256.573	4.47
256.948	4.52
257.323	4.58
257.698	4.45
258.073	4.43
258.448	4.26
258.823	4.2
259.198	4.18
259.573	4.18
259.948	4.29
260.322	4.14
260.697	4.14
261.072	4.15
261.446	4.13
261.821	4.04
262.195	4
262.57	3.99
262.944	4.01
263.319	4.18
263.693	4.09
264.067	3.96
264.442	3.89
264.816	3.83
265.19	3.74
265.564	3.74
265.938	3.63
266.313	3.75
266.687	3.82
267.061	4.05
267.435	4.15
267.809	3.97
268.183	4.14
268.556	4.13
268.93	4.33
269.304	4.07
269.678	4.02
270.051	3.96
270.425	3.94
270.799	4.02
271.172	3.93
271.546	3.94
271.919	3.89
272.293	3.96
272.666	3.85
273.04	3.93
273.413	3.79
273.787	3.89
274.16	3.84
274.533	3.76
274.906	3.55
275.279	3.44
275.653	3.43
276.026	3.37
276.399	3.25
276.772	3.22
277.145	3.28
277.518	3.25
277.891	3.34
278.263	3.36
278.636	3.33
279.009	3.27
279.382	3.49
279.755	3.54
280.127	3.67
280.5	3.76
280.872	3.79
281.245	3.91
281.617	4
281.99	4.1
282.362	4.12
282.735	3.99
283.107	3.89
283.479	3.99
283.852	4.01
284.224	4.09
284.596	3.93
284.968	3.92
285.34	4.1
285.713	4
286.085	4.11
286.457	4.24
286.829	4.28
287.201	4.15
287.572	4.19
287.944	4.08
288.316	4.05
288.688	3.96
289.06	4.02
289.431	4.02
289.803	4.08
290.175	4.14
290.546	4.31
290.918	4.44
291.289	4.45
291.661	4.4
292.032	4.57
292.403	4.81
292.775	4.92
293.146	4.9
293.517	4.98
293.889	4.86
294.26	4.76
294.631	4.77
295.002	4.83
295.373	4.89
295.744	4.96
296.115	4.87
296.486	4.81
296.857	4.79
297.228	4.87
297.599	4.79
297.97	4.75
298.34	4.76
298.711	4.9
299.082	4.92
299.452	4.99
299.823	5.01
300.194	5
300.564	4.96
300.935	5.08
301.305	5.1
301.676	5.16
302.046	5.19
302.416	5.37
302.787	5.44
303.157	5.39
303.527	5.44
303.897	5.59
304.267	5.78
304.637	5.76
305.008	5.64
305.378	5.83
305.748	6.02
306.117	5.96
306.487	5.95
306.857	6.04
307.227	6.02
307.597	6.01
307.967	6
308.336	6.08
308.706	6.01
309.076	6.07
309.445	6.09
309.815	6.18
310.184	6.05
310.554	6.08
310.923	6.19
311.293	6.16
311.662	6.17
312.031	6.21
312.401	6.36
312.77	6.55
313.139	6.6
313.508	6.6
313.877	6.64
314.246	6.6
314.616	6.61
314.985	6.68
315.353	6.52
315.722	6.65
316.091	6.74
316.46	6.73
316.829	6.85
317.198	6.92
317.567	6.96
317.935	7.03
318.304	7.12
318.672	7.01
319.041	7.19
319.41	7.37
319.778	7.45
320.147	7.5
320.515	7.54
320.883	7.43
321.252	7.48
321.62	7.68
321.988	7.67
322.357	7.69
322.725	7.58
323.093	7.87
323.461	7.74
323.829	7.7
324.197	7.68
324.565	7.63
324.933	7.57
325.301	7.57
325.669	7.55
326.037	7.54
326.405	7.69
326.772	7.72
327.14	7.77
327.508	7.81
327.875	7.63
328.243	7.52
328.61	7.48
328.978	7.5
329.346	7.45
329.713	7.62
330.08	7.68
330.448	7.74
330.815	7.79
331.182	7.9
331.55	7.86
331.917	7.97
332.284	8.08
332.651	8.24
333.018	8.38
333.385	8.64
333.752	8.64
334.119	8.78
334.486	8.78
334.853	8.75
335.22	8.68
335.587	8.74
335.954	8.83
336.32	8.98
336.687	8.99
337.054	9.19
337.42	9.1
337.787	9.13
338.153	9.28
338.52	9.34
338.886	9.28
339.253	9.37
339.619	9.54
339.986	9.61
340.352	9.7
340.718	9.67
341.084	9.59
341.451	9.73
341.817	9.83
342.183	9.86
342.549	9.88
342.915	10.07
343.281	10.22
343.647	10.22
344.013	10.27
344.379	10.28
344.745	10.25
345.11	10.29
345.476	10.31
345.842	10.33
346.208	10.28
346.573	10.47
346.939	10.53
347.304	10.46
347.67	10.39
348.035	10.34
348.401	10.33
348.766	10.29
349.132	10.29
349.497	10.18
349.862	10.15
350.228	10.29
350.593	10.16
350.958	10.1
351.323	10.11
351.688	10.14
352.053	10.32
352.418	10.29
352.783	10.26
353.148	10.29
353.513	10.25
353.878	10.27
354.243	10.24
354.608	10.25
354.972	10.22
355.337	10.23
355.702	10.23
356.066	10.29
356.431	10.28
356.795	10.34
357.16	10.3
357.524	10.25
357.889	10.21
358.253	10.22
358.618	10.24
358.982	10.22
359.346	10.22
359.71	10.05
360.075	10.03
360.439	10.08
360.803	9.99
361.167	9.9
361.531	9.87
361.895	9.8
362.259	9.75
362.623	9.75
362.987	9.7
363.351	9.69
363.714	9.61
364.078	9.59
364.442	9.45
364.806	9.42
365.169	9.44
365.533	9.38
365.896	9.35
366.26	9.33
366.623	9.26
366.987	9.19
367.35	9.18
367.714	9.09
368.077	9.04
368.44	9.07
368.803	9.16
369.167	9.07
369.53	8.99
369.893	9.01
370.256	8.99
370.619	8.96
370.982	8.85
371.345	8.83
371.708	8.82
372.071	8.72
372.434	8.69
372.797	8.6
373.159	8.51
373.522	8.48
373.885	8.4
374.247	8.39
374.61	8.34
374.973	8.23
375.335	8.29
375.698	8.19
376.06	8.13
376.423	8.05
376.785	8.04
377.147	8.07
377.51	7.97
377.872	7.9
378.234	7.87
378.596	7.85
378.958	7.79
379.321	7.72
379.683	7.77
380.045	7.68
380.407	7.65
380.769	7.6
381.13	7.5
381.492	7.45
381.854	7.43
382.216	7.39
382.578	7.39
382.939	7.3
383.301	7.26
383.663	7.21
384.024	7.15
384.386	7.14
384.747	7.1
385.109	7.05
385.47	6.94
385.832	6.88
386.193	6.91
386.554	6.89
386.916	6.86
387.277	6.82
387.638	6.84
387.999	6.75
388.36	6.7
388.721	6.67
389.082	6.61
389.443	6.52
389.804	6.46
390.165	6.37
390.526	6.31
390.887	6.24
391.248	6.25
391.609	6.24
391.969	6.17
392.33	6.16
392.691	6.14
393.051	6.17
393.412	6.16
393.772	6.07
394.133	6.04
394.493	6
394.854	5.95
395.214	5.91
395.574	5.94
395.935	5.91
396.295	5.86
396.655	5.86
397.015	5.84
397.376	5.8
397.736	5.78
398.096	5.76
398.456	5.78
398.816	5.71
399.176	5.64
399.535	5.62
399.895	5.52
400.255	5.43
400.615	5.37
400.975	5.32
401.334	5.29
401.694	5.25
402.054	5.21
402.413	5.18
402.773	5.11
403.132	5.05
403.492	5.06
403.851	5.03
404.211	5
404.57	4.96
404.929	4.92
405.288	4.89
405.648	4.86
406.007	4.82
406.366	4.77
406.725	4.75
407.084	4.71
407.443	4.72
407.802	4.74
408.161	4.71
408.52	4.66
408.879	4.63
409.238	4.6
409.596	4.58
409.955	4.54
410.314	4.55
410.673	4.54
411.031	4.5
411.39	4.51
411.748	4.49
412.107	4.51
412.465	4.5
412.824	4.48
413.182	4.47
413.54	4.42
413.899	4.38
414.257	4.36
414.615	4.36
414.974	4.35
415.332	4.32
415.69	4.34
416.048	4.34
416.406	4.32
416.764	4.29
417.122	4.29
417.48	4.29
417.838	4.28
418.195	4.25
418.553	4.22
418.911	4.21
419.269	4.19
419.626	4.17
419.984	4.15
420.342	4.15
420.699	4.13
421.057	4.14
421.414	4.13
421.772	4.11
422.129	4.11
422.486	4.11
422.844	4.1
423.201	4.06
423.558	4.05
423.915	4.03
424.273	4.02
424.63	4
424.987	3.97
425.344	3.96
425.701	3.94
426.058	3.93
426.415	3.92
426.772	3.9
427.128	3.88
427.485	3.87
427.842	3.86
428.199	3.85
428.555	3.83
428.912	3.82
429.269	3.83
429.625	3.79
429.982	3.77
430.338	3.75
430.695	3.75
431.051	3.74
431.407	3.76
431.764	3.73
432.12	3.72
432.476	3.71
432.832	3.69
433.189	3.7
433.545	3.7
433.901	3.68
434.257	3.69
434.613	3.69
434.969	3.7
435.325	3.69
435.681	3.67
436.036	3.67
436.392	3.67
436.748	3.65
437.104	3.65
437.459	3.63
437.815	3.64
438.171	3.67
438.526	3.68
438.882	3.68
439.237	3.7
439.593	3.71
439.948	3.71
440.304	3.7
440.659	3.68
441.014	3.7
441.369	3.69
441.725	3.68
442.08	3.68
442.435	3.67
442.79	3.66
443.145	3.67
443.5	3.67
443.855	3.68
444.21	3.66
444.565	3.67
444.92	3.67
445.275	3.65
445.629	3.61
445.984	3.6
446.339	3.58
446.693	3.57
447.048	3.55
447.403	3.54
447.757	3.56
448.112	3.56
448.466	3.55
448.82	3.55
449.175	3.54
449.529	3.52
449.883	3.5
450.238	3.5
450.592	3.51
450.946	3.48
451.3	3.45
451.654	3.45
452.008	3.44
452.362	3.42
452.716	3.43
453.07	3.43
453.424	3.43
453.778	3.42
454.132	3.39
454.486	3.38
454.839	3.39
455.193	3.35
455.547	3.35
455.9	3.35
456.254	3.36
456.607	3.37
456.961	3.36
457.314	3.37
457.668	3.36
458.021	3.35
458.375	3.34
458.728	3.35
459.081	3.35
459.434	3.35
459.787	3.36
460.141	3.35
460.494	3.35
460.847	3.34
461.2	3.34
461.553	3.37
461.906	3.38
462.259	3.4
462.611	3.42
462.964	3.42
463.317	3.42
463.67	3.43
464.022	3.42
464.375	3.44
464.728	3.45
465.08	3.46
465.433	3.46
465.785	3.49
466.138	3.51
466.49	3.52
466.843	3.53
467.195	3.54
467.547	3.57
467.899	3.57
468.252	3.59
468.604	3.61
468.956	3.61
469.308	3.62
469.66	3.61
470.012	3.64
470.364	3.64
470.716	3.68
471.068	3.69
471.42	3.7
471.772	3.71
472.123	3.71
472.475	3.72
472.827	3.73
473.178	3.73
473.53	3.72
473.882	3.72
474.233	3.75
474.585	3.75
474.936	3.75
475.288	3.76
475.639	3.77
475.99	3.78
476.342	3.79
476.693	3.79
477.044	3.81
477.395	3.79
477.746	3.79
478.097	3.74
478.448	3.74
478.8	3.74
479.15	3.73
479.501	3.73
479.852	3.73
480.203	3.73
480.554	3.74
480.905	3.74
481.255	3.75
481.606	3.74
481.957	3.74
482.307	3.74
482.658	3.73
483.009	3.72
483.359	3.72
483.709	3.71
484.06	3.71
484.41	3.7
484.761	3.7
485.111	3.7
485.461	3.7
485.811	3.7
486.162	3.69
486.512	3.69
486.862	3.69
487.212	3.69
487.562	3.69
487.912	3.68
488.262	3.67
488.612	3.67
488.961	3.67
489.311	3.67
489.661	3.68
490.011	3.69
490.36	3.69
490.71	3.69
491.06	3.7
491.409	3.7
491.759	3.7
492.108	3.7
492.458	3.71
492.807	3.72
493.157	3.73
493.506	3.76
493.855	3.76
494.204	3.78
494.554	3.8
494.903	3.8
495.252	3.81
495.601	3.85
495.95	3.87
496.299	3.87
496.648	3.88
496.997	3.89
497.346	3.91
497.695	3.96
498.043	3.98
498.392	4
498.741	4.04
499.09	4.06
499.438	4.09
499.787	4.12
500.135	4.16
500.484	4.19
500.832	4.22
501.181	4.28
501.529	4.33
501.878	4.37
502.226	4.44
502.574	4.51
502.923	4.56
503.271	4.6
503.619	4.68
503.967	4.74
504.315	4.77
504.663	4.85
505.011	4.91
505.359	4.97
505.707	5.04
506.055	5.11
506.403	5.19
506.751	5.25
507.098	5.32
507.446	5.4
507.794	5.47
508.141	5.55
508.489	5.61
508.837	5.66
509.184	5.72
509.531	5.8
509.879	5.9
510.226	5.99
510.574	6.08
510.921	6.12
511.268	6.2
511.616	6.29
511.963	6.36
512.31	6.44
512.657	6.53
513.004	6.62
513.351	6.72
513.698	6.8
514.045	6.89
514.392	6.99
514.739	7.06
515.086	7.15
515.432	7.22
515.779	7.31
516.126	7.41
516.473	7.52
516.819	7.59
517.166	7.65
517.512	7.71
517.859	7.78
518.205	7.87
518.552	7.94
518.898	8
519.245	8.06
519.591	8.11
519.937	8.19
520.283	8.28
520.629	8.35
520.976	8.44
521.322	8.56
521.668	8.66
522.014	8.78
522.36	8.9
522.706	9.02
523.052	9.15
523.398	9.3
523.743	9.45
524.089	9.62
524.435	9.75
524.781	9.9
525.126	10.05
525.472	10.17
525.817	10.3
526.163	10.44
526.509	10.54
526.854	10.66
527.199	10.76
527.545	10.85
527.89	10.96
528.235	11.06
528.581	11.18
528.926	11.28
529.271	11.39
529.616	11.5
529.961	11.63
530.306	11.75
530.651	11.87
530.996	11.99
531.341	12.11
531.686	12.25
532.031	12.41
532.376	12.55
532.721	12.7
533.065	12.85
533.41	13.03
533.755	13.21
534.099	13.41
534.444	13.6
534.788	13.8
535.133	13.99
535.477	14.19
535.822	14.38
536.166	14.61
536.51	14.88
536.855	15.14
537.199	15.38
537.543	15.65
537.887	15.91
538.231	16.19
538.576	16.49
538.92	16.77
539.264	17.03
539.608	17.3
539.951	17.57
540.295	17.81
540.639	18.04
540.983	18.28
541.327	18.5
541.671	18.73
542.014	18.95
542.358	19.18
542.701	19.41
543.045	19.64
543.389	19.87
543.732	20.1
544.075	20.34
544.419	20.61
544.762	20.89
545.105	21.21
545.449	21.51
545.792	21.79
546.135	22.13
546.478	22.45
546.821	22.81
547.165	23.17
547.508	23.56
547.851	23.94
548.194	24.32
548.536	24.7
548.879	25.12
549.222	25.55
549.565	25.97
549.908	26.35
550.25	26.76
550.593	27.19
550.936	27.57
551.278	28
551.621	28.4
551.963	28.82
552.306	29.25
552.648	29.65
552.991	30.06
553.333	30.39
553.675	30.78
554.017	31.19
554.36	31.51
554.702	31.84
555.044	32.24
555.386	32.6
555.728	32.97
556.07	33.37
556.412	33.74
556.754	34.08
557.096	34.54
557.438	34.92
557.78	35.29
558.121	35.73
558.463	36.14
558.805	36.53
559.147	36.92
559.488	37.27
559.83	37.65
560.171	38.02
560.513	38.46
560.854	38.84
561.196	39.18
561.537	39.54
561.878	39.97
562.22	40.26
562.561	40.6
562.902	41
563.243	41.29
563.584	41.63
563.925	41.94
564.266	42.2
564.607	42.48
564.948	42.83
565.289	43.16
565.63	43.42
565.971	43.7
566.312	43.92
566.653	44.25
566.993	44.55
567.334	44.83
567.675	45.08
568.015	45.33
568.356	45.62
568.696	45.89
569.037	46.09
569.377	46.38
569.718	46.63
570.058	46.85
570.398	47.1
570.739	47.3
571.079	47.54
571.419	47.81
571.759	48.11
572.099	48.29
572.439	48.46
572.779	48.63
573.119	48.86
573.459	49.07
573.799	49.21
574.139	49.36
574.479	49.54
574.819	49.76
575.158	49.97
575.498	50.12
575.838	50.28
576.177	50.53
576.517	50.7
576.856	50.9
577.196	51.09
577.535	51.33
577.875	51.48
578.214	51.72
578.553	51.93
578.893	52.09
579.232	52.26
579.571	52.39
579.91	52.63
580.25	52.77
580.589	52.97
580.928	53.15
581.267	53.39
581.606	53.56
581.945	53.66
582.283	53.79
582.622	53.99
582.961	54.24
583.3	54.34
583.639	54.59
583.977	54.8
584.316	54.94
584.654	55.02
584.993	55.15
585.332	55.31
585.67	55.34
586.008	55.49
586.347	55.67
586.685	55.82
587.024	55.98
587.362	56.16
587.7	56.24
588.038	56.27
588.376	56.32
588.715	56.48
589.053	56.64
589.391	56.79
589.729	56.89
590.067	56.92
590.404	57.04
590.742	57.04
591.08	57.08
591.418	57.16
591.756	57.3
592.093	57.47
592.431	57.5
592.769	57.67
593.106	57.8
593.444	57.88
593.781	57.99
594.119	58.06
594.456	58.07
594.793	58.23
595.131	58.29
595.468	58.37
595.805	58.42
596.143	58.4
596.48	58.44
596.817	58.54
597.154	58.63
597.491	58.73
597.828	58.84
598.165	58.89
598.502	59.01
598.839	59.09
599.176	59.13
599.512	59.24
599.849	59.23
600.186	59.27
600.523	59.37
600.859	59.47
601.196	59.49
601.532	59.53
601.869	59.63
602.205	59.75
602.542	59.82
602.878	59.91
603.215	60.11
603.551	60.17
603.887	60.15
604.223	60.25
604.56	60.33
604.896	60.36
605.232	60.46
605.568	60.49
605.904	60.49
606.24	60.58
606.576	60.61
606.912	60.66
607.248	60.75
607.583	60.8
607.919	60.91
608.255	60.94
608.591	61.04
608.926	61.08
609.262	61.17
609.597	61.22
609.933	61.2
610.268	61.14
610.604	61.19
610.939	61.22
611.275	61.21
611.61	61.18
611.945	61.26
612.281	61.29
612.616	61.4
612.951	61.43
613.286	61.46
613.621	61.56
613.956	61.74
614.291	61.72
614.626	61.67
614.961	61.64
615.296	61.8
615.631	61.9
615.966	61.9
616.3	61.86
616.635	61.93
616.97	62.01
617.304	62.11
617.639	62.17
617.973	62.23
618.308	62.26
618.642	62.27
618.977	62.27
619.311	62.24
619.646	62.31
619.98	62.34
620.314	62.39
620.648	62.41
620.983	62.41
621.317	62.37
621.651	62.47
621.985	62.43
622.319	62.43
622.653	62.47
622.987	62.53
623.321	62.65
623.655	62.7
623.988	62.84
624.322	62.89
624.656	62.81
624.99	62.89
625.323	62.9
625.657	63.01
625.99	63
626.324	63.01
626.657	63.02
626.991	63.06
627.324	63.05
627.658	63.04
627.991	63.14
628.324	63.28
628.657	63.32
628.991	63.4
629.324	63.39
629.657	63.4
629.99	63.35
630.323	63.33
630.656	63.34
630.989	63.31
631.322	63.31
631.655	63.43
631.987	63.48
632.32	63.57
632.653	63.6
632.986	63.73
633.318	63.77
633.651	63.72
633.984	63.76
634.316	63.72
634.649	63.83
634.981	63.74
635.313	63.75
635.646	63.77
635.978	63.79
636.31	63.89
636.643	63.85
636.975	63.94
637.307	64.01
637.639	64.03
637.971	64.04
638.303	64.08
638.635	64.03
638.967	64
639.299	64.03
639.631	64.02
639.963	63.96
640.295	63.88
640.626	63.89
640.958	63.93
641.29	64.06
641.621	64.06
641.953	64.1
642.285	64.06
642.616	64.1
642.948	64.14
643.279	64.13
643.61	64.29
643.942	64.33
644.273	64.31
644.604	64.34
644.936	64.39
645.267	64.32
645.598	64.44
645.929	64.41
646.26	64.34
646.591	64.38
646.922	64.39
647.253	64.52
647.584	64.48
647.915	64.44
648.245	64.4
648.576	64.4
648.907	64.35
649.238	64.5
649.568	64.47
649.899	64.44
650.229	64.42
650.56	64.33
650.89	64.24
651.221	64.3
651.551	64.33
651.882	64.29
652.212	64.27
652.542	64.26
652.872	64.4
653.203	64.57
653.533	64.6
653.863	64.62
654.193	64.74
654.523	64.81
654.853	64.92
655.183	64.92
655.513	64.92
655.843	65.07
656.172	65.11
656.502	65.09
656.832	65.13
657.162	65.16
657.491	65.26
657.821	65.38
658.15	65.37
658.48	65.32
658.809	65.35
659.139	65.41
659.468	65.38
659.798	65.33
660.127	65.33
660.456	65.29
660.785	65.3
661.115	65.29
661.444	65.37
661.773	65.3
662.102	65.4
662.431	65.43
662.76	65.37
663.089	65.3
663.418	65.42
663.747	65.43
664.076	65.54
664.404	65.46
664.733	65.35
665.062	65.28
665.39	65.36
665.719	65.35
666.048	65.48
666.376	65.49
666.705	65.55
667.033	65.58
