Data from BA28467_Reflection_00014.txt Node
Date: Mon Nov 18 15:33:31 EST 2019
User: vgr7
Spectrometer: USB2G7710
Scans to average: 3
Trigger mode: 4
Integration Time (sec): 2.000000E-2
Electric dark correction enabled: true
Boxcar width: 10
XAxis mode: Wavelengths
Number of Pixels in Spectrum: 2048
>>>>>Begin Spectral Data<<<<<
177.721	262.91
178.105	211.68
178.488	156.08
178.871	193.22
179.254	-176.38
179.636	161.26
180.019	-975.95
180.402	20
180.785	-3836.17
181.168	-2156.76
181.55	-1601.3
181.933	391.6
182.316	259.78
182.698	169.59
183.081	174.48
183.463	327.53
183.846	505.99
184.228	843.94
184.611	912.77
184.993	675.29
185.376	-847.14
185.758	-573.64
186.14	-525.94
186.522	-214.46
186.904	-294.77
187.287	-2457.25
187.669	-593.52
188.051	1094.17
188.433	-717.88
188.815	-350.04
189.197	-516.69
189.579	-384.88
189.961	-414.49
190.342	-291.25
190.724	-175.01
191.106	-182.64
191.488	-175.46
191.869	-148.79
192.251	-190.84
192.633	-242.51
193.014	-318.23
193.396	-464.64
193.777	-568.28
194.159	-604.27
194.54	-629.43
194.922	-410.75
195.303	-613.01
195.684	-424.98
196.065	-198.67
196.447	-387.01
196.828	-1561.92
197.209	-379.74
197.59	-844.32
197.971	2856.52
198.352	-4985.11
198.733	382.64
199.114	375.42
199.495	534.03
199.876	272.93
200.257	-971.71
200.638	-182.1
201.018	-151.18
201.399	-79.1
201.78	-87.62
202.16	-108.56
202.541	-155.19
202.922	-298.26
203.302	-235.83
203.683	-279.48
204.063	-985.92
204.444	-732.98
204.824	-284.05
205.204	-562.14
205.585	-266.46
205.965	-149.6
206.345	-287.37
206.725	-255.98
207.106	-403.09
207.486	-492.94
207.866	-369.2
208.246	-1296.89
208.626	1873.87
209.006	705.63
209.386	277.7
209.766	388.06
210.145	3656.96
210.525	-2126.28
210.905	-414.63
211.285	-139.25
211.664	-205.2
212.044	-92.37
212.424	-74.4
212.803	-99.57
213.183	-122.17
213.562	-107.15
213.942	-85.45
214.321	-60.96
214.701	-101.62
215.08	-107.71
215.459	-73.35
215.838	-60.66
216.218	-60.78
216.597	-43.28
216.976	-51.44
217.355	-43.51
217.734	-40.12
218.113	-66.05
218.492	-72.07
218.871	-116.6
219.25	-115.33
219.629	-93.34
220.008	-107.07
220.387	-94.28
220.766	-89.14
221.144	-75.48
221.523	-114.46
221.902	-136.44
222.28	-161.58
222.659	-107.79
223.037	-111.05
223.416	-122
223.794	-162.72
224.173	-129.09
224.551	-111.89
224.929	-99.11
225.308	-67.33
225.686	-54.3
226.064	-45.22
226.442	-44.89
226.821	-29.06
227.199	-34.12
227.577	-27.48
227.955	-28.4
228.333	-32.13
228.711	-27.51
229.089	-22.86
229.467	-23.51
229.845	-21.32
230.222	-22.28
230.6	-20.42
230.978	-18.29
231.356	-12.55
231.733	-8.7
232.111	-9.88
232.488	-9.41
232.866	-8.13
233.243	-7.46
233.621	-8.41
233.998	-7.12
234.376	-6.28
234.753	-7.17
235.13	-4.76
235.508	-5.4
235.885	-4.67
236.262	-2.88
236.639	-4.44
237.016	-3.82
237.393	-1.33
237.77	-0.06
238.147	1.16
238.524	1.82
238.901	1.76
239.278	0.89
239.655	1.08
240.032	1.68
240.409	1.73
240.785	1.19
241.162	1.12
241.539	1.65
241.915	1.79
242.292	1.65
242.668	1.95
243.045	1.88
243.421	1.88
243.798	2.18
244.174	2.2
244.551	2.36
244.927	2.33
245.303	2.29
245.679	2.14
246.056	2.15
246.432	1.93
246.808	1.91
247.184	2.06
247.56	1.97
247.936	1.85
248.312	1.88
248.688	2.23
249.064	2.09
249.44	2.01
249.815	1.96
250.191	2.18
250.567	2.19
250.943	2.21
251.318	2.23
251.694	2.24
252.069	1.91
252.445	2.14
252.82	2.03
253.196	1.97
253.571	1.78
253.947	1.65
254.322	1.69
254.697	1.58
255.073	1.59
255.448	1.73
255.823	1.78
256.198	1.85
256.573	1.63
256.948	1.99
257.323	2.07
257.698	2.08
258.073	2.04
258.448	1.89
258.823	1.95
259.198	1.93
259.573	1.88
259.948	2.05
260.322	2.04
260.697	2.11
261.072	2.05
261.446	2.11
261.821	2.11
262.195	2.24
262.57	2.32
262.944	2.16
263.319	2.14
263.693	2.11
264.067	2.16
264.442	2.26
264.816	2.01
265.19	1.87
265.564	2.06
265.938	1.86
266.313	1.87
266.687	1.91
267.061	1.86
267.435	1.79
267.809	1.77
268.183	1.6
268.556	1.43
268.93	1.64
269.304	1.66
269.678	1.91
270.051	1.79
270.425	1.83
270.799	1.82
271.172	1.7
271.546	1.71
271.919	1.59
272.293	1.48
272.666	1.72
273.04	1.8
273.413	1.63
273.787	1.8
274.16	1.84
274.533	1.79
274.906	1.83
275.279	1.87
275.653	1.81
276.026	1.76
276.399	1.83
276.772	1.79
277.145	1.84
277.518	1.65
277.891	1.72
278.263	1.59
278.636	1.69
279.009	1.78
279.382	1.82
279.755	1.6
280.127	1.59
280.5	1.3
280.872	1.38
281.245	1.42
281.617	1.49
281.99	1.41
282.362	1.44
282.735	1.44
283.107	1.43
283.479	1.6
283.852	1.69
284.224	1.78
284.596	1.77
284.968	1.8
285.34	1.8
285.713	1.87
286.085	2.02
286.457	2.03
286.829	2.12
287.201	2.02
287.572	2.13
287.944	2.12
288.316	2.31
288.688	2.35
289.06	2.38
289.431	2.36
289.803	2.39
290.175	2.35
290.546	2.42
290.918	2.47
291.289	2.28
291.661	2.31
292.032	2.32
292.403	2.32
292.775	2.38
293.146	2.4
293.517	2.34
293.889	2.37
294.26	2.53
294.631	2.5
295.002	2.72
295.373	2.84
295.744	2.94
296.115	2.88
296.486	2.71
296.857	2.55
297.228	2.57
297.599	2.61
297.97	2.63
298.34	2.79
298.711	2.86
299.082	2.97
299.452	3.02
299.823	3.12
300.194	3.25
300.564	3.2
300.935	3.22
301.305	3.21
301.676	3.28
302.046	3.2
302.416	3.29
302.787	3.15
303.157	3.16
303.527	3.16
303.897	3.26
304.267	3.58
304.637	3.84
305.008	3.93
305.378	4.13
305.748	4.32
306.117	4.16
306.487	4.28
306.857	4.38
307.227	4.37
307.597	4.25
307.967	4.21
308.336	4.14
308.706	4.31
309.076	4.46
309.445	4.4
309.815	4.36
310.184	4.33
310.554	4.47
310.923	4.53
311.293	4.58
311.662	4.59
312.031	4.45
312.401	4.42
312.77	4.55
313.139	4.5
313.508	4.5
313.877	4.53
314.246	4.46
314.616	4.55
314.985	4.62
315.353	4.64
315.722	4.63
316.091	4.74
316.46	4.6
316.829	4.5
317.198	4.58
317.567	4.55
317.935	4.63
318.304	4.66
318.672	4.57
319.041	4.6
319.41	4.69
319.778	4.8
320.147	4.91
320.515	4.74
320.883	4.78
321.252	4.85
321.62	4.95
321.988	4.9
322.357	4.79
322.725	4.94
323.093	4.99
323.461	5.13
323.829	5.24
324.197	5.44
324.565	5.57
324.933	5.6
325.301	5.83
325.669	5.84
326.037	5.91
326.405	5.98
326.772	6.13
327.14	6.14
327.508	6.07
327.875	6.1
328.243	6.26
328.61	6.23
328.978	6.19
329.346	6.32
329.713	6.41
330.08	6.55
330.448	6.47
330.815	6.58
331.182	6.64
331.55	6.63
331.917	6.64
332.284	6.74
332.651	6.64
333.018	6.64
333.385	6.77
333.752	6.8
334.119	6.98
334.486	6.91
334.853	6.96
335.22	6.97
335.587	7.11
335.954	7.1
336.32	7.18
336.687	7.21
337.054	7.1
337.42	7.17
337.787	7.26
338.153	7.39
338.52	7.43
338.886	7.45
339.253	7.48
339.619	7.52
339.986	7.46
340.352	7.58
340.718	7.6
341.084	7.66
341.451	7.71
341.817	7.72
342.183	7.8
342.549	7.84
342.915	8.03
343.281	8.01
343.647	8.04
344.013	8.03
344.379	8
344.745	8.15
345.11	8.14
345.476	8.1
345.842	8.07
346.208	8.14
346.573	8.16
346.939	8.34
347.304	8.37
347.67	8.39
348.035	8.41
348.401	8.4
348.766	8.42
349.132	8.36
349.497	8.29
349.862	8.34
350.228	8.33
350.593	8.25
350.958	8.16
351.323	8.17
351.688	8.14
352.053	8.29
352.418	8.31
352.783	8.4
353.148	8.36
353.513	8.39
353.878	8.25
354.243	8.21
354.608	8.1
354.972	8.06
355.337	8.2
355.702	8.22
356.066	8.27
356.431	8.15
356.795	8.15
357.16	8.12
357.524	8.05
357.889	7.99
358.253	8.02
358.618	8.08
358.982	7.99
359.346	8
359.71	7.89
360.075	7.85
360.439	7.78
360.803	7.8
361.167	7.76
361.531	7.8
361.895	7.8
362.259	7.77
362.623	7.78
362.987	7.73
363.351	7.72
363.714	7.71
364.078	7.67
364.442	7.69
364.806	7.71
365.169	7.67
365.533	7.7
365.896	7.69
366.26	7.67
366.623	7.69
366.987	7.73
367.35	7.71
367.714	7.65
368.077	7.67
368.44	7.69
368.803	7.66
369.167	7.65
369.53	7.55
369.893	7.57
370.256	7.54
370.619	7.41
370.982	7.36
371.345	7.27
371.708	7.29
372.071	7.23
372.434	7.2
372.797	7.16
373.159	7.07
373.522	7.01
373.885	6.89
374.247	6.87
374.61	6.79
374.973	6.8
375.335	6.74
375.698	6.61
376.06	6.49
376.423	6.41
376.785	6.37
377.147	6.44
377.51	6.37
377.872	6.35
378.234	6.34
378.596	6.28
378.958	6.21
379.321	6.15
379.683	6.13
380.045	6.07
380.407	6.02
380.769	6
381.13	5.95
381.492	5.95
381.854	5.91
382.216	5.84
382.578	5.78
382.939	5.75
383.301	5.78
383.663	5.78
384.024	5.73
384.386	5.71
384.747	5.62
385.109	5.55
385.47	5.41
385.832	5.4
386.193	5.37
386.554	5.37
386.916	5.35
387.277	5.29
387.638	5.24
387.999	5.16
388.36	5.14
388.721	5.14
389.082	5.11
389.443	5.12
389.804	5.1
390.165	5.06
390.526	5.04
390.887	5.01
391.248	5.01
391.609	5.01
391.969	4.96
392.33	4.94
392.691	4.91
393.051	4.92
393.412	4.86
393.772	4.81
394.133	4.82
394.493	4.78
394.854	4.79
395.214	4.76
395.574	4.76
395.935	4.68
396.295	4.63
396.655	4.59
397.015	4.51
397.376	4.48
397.736	4.45
398.096	4.41
398.456	4.36
398.816	4.33
399.176	4.27
399.535	4.21
399.895	4.12
400.255	4.11
400.615	4.08
400.975	4.05
401.334	4.04
401.694	3.96
402.054	3.91
402.413	3.9
402.773	3.87
403.132	3.87
403.492	3.89
403.851	3.9
404.211	3.89
404.57	3.9
404.929	3.89
405.288	3.86
405.648	3.85
406.007	3.82
406.366	3.78
406.725	3.8
407.084	3.8
407.443	3.83
407.802	3.83
408.161	3.82
408.52	3.79
408.879	3.77
409.238	3.75
409.596	3.77
409.955	3.7
410.314	3.72
410.673	3.69
411.031	3.68
411.39	3.63
411.748	3.61
412.107	3.59
412.465	3.56
412.824	3.53
413.182	3.51
413.54	3.5
413.899	3.5
414.257	3.49
414.615	3.45
414.974	3.44
415.332	3.41
415.69	3.39
416.048	3.39
416.406	3.38
416.764	3.35
417.122	3.32
417.48	3.31
417.838	3.29
418.195	3.27
418.553	3.27
418.911	3.26
419.269	3.26
419.626	3.24
419.984	3.24
420.342	3.22
420.699	3.21
421.057	3.22
421.414	3.19
421.772	3.17
422.129	3.17
422.486	3.15
422.844	3.13
423.201	3.13
423.558	3.11
423.915	3.11
424.273	3.12
424.63	3.13
424.987	3.12
425.344	3.11
425.701	3.12
426.058	3.1
426.415	3.08
426.772	3.06
427.128	3.06
427.485	3.05
427.842	3.05
428.199	3.05
428.555	3.03
428.912	3.04
429.269	3.05
429.625	3.04
429.982	3.06
430.338	3.05
430.695	3.05
431.051	3.05
431.407	3.06
431.764	3.04
432.12	3.02
432.476	3.04
432.832	3.03
433.189	3.03
433.545	3.02
433.901	3.03
434.257	3.03
434.613	3.04
434.969	3.03
435.325	3.04
435.681	3.04
436.036	3.04
436.392	3.03
436.748	3.02
437.104	3
437.459	3
437.815	2.99
438.171	2.99
438.526	3
438.882	2.99
439.237	3
439.593	3.02
439.948	3
440.304	2.98
440.659	2.97
441.014	2.97
441.369	2.95
441.725	2.94
442.08	2.92
442.435	2.92
442.79	2.91
443.145	2.9
443.5	2.88
443.855	2.88
444.21	2.87
444.565	2.88
444.92	2.88
445.275	2.86
445.629	2.86
445.984	2.86
446.339	2.84
446.693	2.82
447.048	2.8
447.403	2.78
447.757	2.78
448.112	2.77
448.466	2.78
448.82	2.79
449.175	2.79
449.529	2.79
449.883	2.78
450.238	2.77
450.592	2.77
450.946	2.75
451.3	2.75
451.654	2.74
452.008	2.74
452.362	2.73
452.716	2.74
453.07	2.74
453.424	2.72
453.778	2.73
454.132	2.71
454.486	2.71
454.839	2.72
455.193	2.73
455.547	2.75
455.9	2.73
456.254	2.71
456.607	2.71
456.961	2.71
457.314	2.72
457.668	2.73
458.021	2.72
458.375	2.74
458.728	2.75
459.081	2.74
459.434	2.72
459.787	2.72
460.141	2.72
460.494	2.72
460.847	2.74
461.2	2.74
461.553	2.76
461.906	2.76
462.259	2.77
462.611	2.8
462.964	2.8
463.317	2.81
463.67	2.84
464.022	2.86
464.375	2.86
464.728	2.86
465.08	2.88
465.433	2.88
465.785	2.91
466.138	2.91
466.49	2.91
466.843	2.91
467.195	2.92
467.547	2.96
467.899	2.95
468.252	2.94
468.604	2.96
468.956	2.96
469.308	2.98
469.66	2.96
470.012	2.95
470.364	2.95
470.716	2.96
471.068	2.95
471.42	2.94
471.772	2.98
472.123	2.99
472.475	2.99
472.827	3.02
473.178	3.01
473.53	3
473.882	3.02
474.233	3.04
474.585	3.02
474.936	2.98
475.288	2.99
475.639	3.01
475.99	3
476.342	3
476.693	2.99
477.044	3.01
477.395	3
477.746	2.99
478.097	2.98
478.448	2.98
478.8	2.97
479.15	2.95
479.501	2.94
479.852	2.94
480.203	2.93
480.554	2.96
480.905	2.97
481.255	2.98
481.606	2.99
481.957	2.99
482.307	3
482.658	2.99
483.009	2.98
483.359	2.98
483.709	2.99
484.06	2.99
484.41	2.99
484.761	2.99
485.111	3.01
485.461	3.02
485.811	3.03
486.162	3.03
486.512	3.04
486.862	3.05
487.212	3.05
487.562	3.06
487.912	3.05
488.262	3.05
488.612	3.05
488.961	3.05
489.311	3.07
489.661	3.07
490.011	3.09
490.36	3.09
490.71	3.12
491.06	3.12
491.409	3.14
491.759	3.14
492.108	3.16
492.458	3.17
492.807	3.18
493.157	3.18
493.506	3.2
493.855	3.23
494.204	3.23
494.554	3.26
494.903	3.27
495.252	3.28
495.601	3.32
495.95	3.34
496.299	3.36
496.648	3.38
496.997	3.42
497.346	3.45
497.695	3.5
498.043	3.52
498.392	3.56
498.741	3.59
499.09	3.63
499.438	3.64
499.787	3.67
500.135	3.71
500.484	3.75
500.832	3.8
501.181	3.83
501.529	3.86
501.878	3.9
502.226	3.96
502.574	4.04
502.923	4.07
503.271	4.11
503.619	4.18
503.967	4.2
504.315	4.23
504.663	4.26
505.011	4.32
505.359	4.38
505.707	4.46
506.055	4.51
506.403	4.58
506.751	4.68
507.098	4.73
507.446	4.78
507.794	4.84
508.141	4.89
508.489	4.94
508.837	5.02
509.184	5.06
509.531	5.11
509.879	5.16
510.226	5.23
510.574	5.31
510.921	5.36
511.268	5.45
511.616	5.54
511.963	5.64
512.31	5.69
512.657	5.74
513.004	5.82
513.351	5.89
513.698	5.96
514.045	6.02
514.392	6.11
514.739	6.19
515.086	6.32
515.432	6.4
515.779	6.49
516.126	6.59
516.473	6.7
516.819	6.79
517.166	6.87
517.512	6.94
517.859	7.01
518.205	7.1
518.552	7.18
518.898	7.24
519.245	7.31
519.591	7.39
519.937	7.49
520.283	7.56
520.629	7.66
520.976	7.75
521.322	7.86
521.668	7.96
522.014	8.09
522.36	8.18
522.706	8.3
523.052	8.44
523.398	8.57
523.743	8.73
524.089	8.87
524.435	9.03
524.781	9.19
525.126	9.33
525.472	9.46
525.817	9.58
526.163	9.69
526.509	9.8
526.854	9.92
527.199	10.01
527.545	10.11
527.89	10.2
528.235	10.3
528.581	10.4
528.926	10.5
529.271	10.59
529.616	10.69
529.961	10.8
530.306	10.92
530.651	11.02
530.996	11.14
531.341	11.28
531.686	11.4
532.031	11.52
532.376	11.65
532.721	11.79
533.065	11.92
533.41	12.08
533.755	12.22
534.099	12.38
534.444	12.55
534.788	12.71
535.133	12.86
535.477	13.04
535.822	13.24
536.166	13.41
536.51	13.66
536.855	13.89
537.199	14.14
537.543	14.36
537.887	14.63
538.231	14.84
538.576	15.08
538.92	15.32
539.264	15.53
539.608	15.75
539.951	15.95
540.295	16.17
540.639	16.37
540.983	16.59
541.327	16.78
541.671	16.97
542.014	17.17
542.358	17.37
542.701	17.57
543.045	17.75
543.389	17.97
543.732	18.14
544.075	18.35
544.419	18.52
544.762	18.71
545.105	18.92
545.449	19.17
545.792	19.38
546.135	19.65
546.478	19.92
546.821	20.23
547.165	20.51
547.508	20.76
547.851	21.06
548.194	21.3
548.536	21.59
548.879	21.87
549.222	22.15
549.565	22.43
549.908	22.75
550.25	23.03
550.593	23.29
550.936	23.56
551.278	23.81
551.621	24.14
551.963	24.5
552.306	24.77
552.648	24.99
552.991	25.3
553.333	25.55
553.675	25.79
554.017	26.04
554.36	26.29
554.702	26.55
555.044	26.81
555.386	27.09
555.728	27.33
556.07	27.61
556.412	27.89
556.754	28.11
557.096	28.36
557.438	28.66
557.78	28.93
558.121	29.24
558.463	29.52
558.805	29.72
559.147	29.91
559.488	30.15
559.83	30.43
560.171	30.67
560.513	30.96
560.854	31.25
561.196	31.46
561.537	31.7
561.878	31.92
562.22	32.13
562.561	32.36
562.902	32.57
563.243	32.73
563.584	32.9
563.925	33.13
564.266	33.29
564.607	33.43
564.948	33.62
565.289	33.76
565.63	33.98
565.971	34.18
566.312	34.36
566.653	34.56
566.993	34.76
567.334	34.93
567.675	35.05
568.015	35.19
568.356	35.36
568.696	35.54
569.037	35.74
569.377	35.89
569.718	36.06
570.058	36.26
570.398	36.46
570.739	36.66
571.079	36.79
571.419	36.93
571.759	37.12
572.099	37.29
572.439	37.45
572.779	37.49
573.119	37.62
573.459	37.78
573.799	37.95
574.139	38.04
574.479	38.15
574.819	38.32
575.158	38.41
575.498	38.5
575.838	38.64
576.177	38.74
576.517	38.82
576.856	38.92
577.196	39.01
577.535	39.11
577.875	39.18
578.214	39.31
578.553	39.42
578.893	39.48
579.232	39.55
579.571	39.63
579.91	39.84
580.25	39.92
580.589	39.97
580.928	40.02
581.267	40.13
581.606	40.29
581.945	40.35
582.283	40.46
582.622	40.61
582.961	40.69
583.3	40.77
583.639	40.88
583.977	40.94
584.316	41.01
584.654	41.11
584.993	41.19
585.332	41.34
585.67	41.46
586.008	41.6
586.347	41.69
586.685	41.79
587.024	41.78
587.362	41.89
587.7	41.94
588.038	41.96
588.376	42.05
588.715	42.06
589.053	42.14
589.391	42.17
589.729	42.18
590.067	42.24
590.404	42.31
590.742	42.41
591.08	42.46
591.418	42.5
591.756	42.56
592.093	42.63
592.431	42.66
592.769	42.68
593.106	42.66
593.444	42.73
593.781	42.8
594.119	42.86
594.456	42.89
594.793	42.96
595.131	43.02
595.468	43.05
595.805	43.15
596.143	43.16
596.48	43.22
596.817	43.26
597.154	43.28
597.491	43.34
597.828	43.36
598.165	43.41
598.502	43.52
598.839	43.55
599.176	43.56
599.512	43.55
599.849	43.67
600.186	43.7
600.523	43.74
600.859	43.75
601.196	43.77
601.532	43.78
601.869	43.82
602.205	43.84
602.542	43.92
602.878	43.88
603.215	43.88
603.551	43.92
603.887	43.98
604.223	44.07
604.56	44.08
604.896	44.13
605.232	44.18
605.568	44.16
605.904	44.2
606.24	44.3
606.576	44.34
606.912	44.38
607.248	44.45
607.583	44.52
607.919	44.6
608.255	44.69
608.591	44.8
608.926	44.9
609.262	45.01
609.597	45.01
609.933	45.12
610.268	45.17
610.604	45.18
610.939	45.23
611.275	45.19
611.61	45.29
611.945	45.29
612.281	45.33
612.616	45.34
612.951	45.38
613.286	45.38
613.621	45.45
613.956	45.49
614.291	45.58
614.626	45.54
614.961	45.49
615.296	45.47
615.631	45.57
615.966	45.55
616.3	45.49
616.635	45.52
616.97	45.51
617.304	45.54
617.639	45.67
617.973	45.66
618.308	45.75
618.642	45.74
618.977	45.77
619.311	45.77
619.646	45.88
619.98	45.83
620.314	45.85
620.648	45.91
620.983	45.94
621.317	45.83
621.651	45.87
621.985	45.99
622.319	46.03
622.653	46
622.987	46.05
623.321	45.99
623.655	46.02
623.988	46.1
624.322	46.24
624.656	46.3
624.99	46.24
625.323	46.19
625.657	46.18
625.99	46.15
626.324	46.18
626.657	46.2
626.991	46.2
627.324	46.18
627.658	46.22
627.991	46.18
628.324	46.3
628.657	46.32
628.991	46.32
629.324	46.36
629.657	46.29
629.99	46.24
630.323	46.31
630.656	46.33
630.989	46.26
631.322	46.18
631.655	46.12
631.987	46.28
632.32	46.29
632.653	46.27
632.986	46.34
633.318	46.35
633.651	46.36
633.984	46.4
634.316	46.36
634.649	46.23
634.981	46.21
635.313	46.21
635.646	46.23
635.978	46.23
636.31	46.22
636.643	46.28
636.975	46.32
637.307	46.37
637.639	46.37
637.971	46.35
638.303	46.44
638.635	46.44
638.967	46.37
639.299	46.46
639.631	46.48
639.963	46.54
640.295	46.57
640.626	46.53
640.958	46.66
641.29	46.83
641.621	46.88
641.953	46.91
642.285	46.86
642.616	46.86
642.948	46.8
643.279	46.83
643.61	46.87
643.942	46.89
644.273	46.97
644.604	47
644.936	46.93
645.267	46.95
645.598	47.01
645.929	47.06
646.26	47.04
646.591	47.07
646.922	46.97
647.253	46.98
647.584	47.04
647.915	47
648.245	46.96
648.576	47.06
648.907	47.11
649.238	47.04
649.568	47.04
649.899	47.08
650.229	47.08
650.56	47
650.89	47.06
651.221	47.04
651.551	47.03
651.882	47.13
652.212	47.06
652.542	47.07
652.872	47.12
653.203	47.15
653.533	47.13
653.863	47.16
654.193	47.08
654.523	47.07
654.853	47.01
655.183	47.03
655.513	47.01
655.843	47.03
656.172	47.15
656.502	47.18
656.832	47.22
657.162	47.18
657.491	47.2
657.821	47.12
658.15	47.14
658.48	47.19
658.809	47.28
659.139	47.36
659.468	47.28
659.798	47.22
660.127	47.21
660.456	47.32
660.785	47.35
661.115	47.41
661.444	47.42
661.773	47.48
662.102	47.55
662.431	47.55
662.76	47.53
663.089	47.53
663.418	47.64
663.747	47.62
664.076	47.71
664.404	47.71
664.733	47.76
665.062	47.69
