Data from BA28417_Reflection_00001.txt Node
Date: Mon Nov 18 16:10:56 EST 2019
User: vgr7
Spectrometer: USB2G7710
Scans to average: 3
Trigger mode: 4
Integration Time (sec): 2.000000E-2
Electric dark correction enabled: true
Boxcar width: 10
XAxis mode: Wavelengths
Number of Pixels in Spectrum: 2048
>>>>>Begin Spectral Data<<<<<
177.721	15.74
178.105	40.51
178.488	54.56
178.871	52.55
179.254	67.96
179.636	64.57
180.019	100
180.402	66.67
180.785	303.16
181.168	-3605.88
181.55	-232.65
181.933	210.04
182.316	146.29
182.698	93.44
183.081	124.91
183.463	288.13
183.846	198.78
184.228	279.1
184.611	332.26
184.993	665.82
185.376	1240.68
185.758	1247.41
186.14	2274.5
186.522	562.2
186.904	1085.59
187.287	951.77
187.669	-5824.05
188.051	-1033.47
188.433	-412.91
188.815	-187.06
189.197	-176.47
189.579	-176.46
189.961	-181.02
190.342	-201.91
190.724	-192.3
191.106	-240.72
191.488	-254.24
191.869	-164.48
192.251	-163.18
192.633	-156.89
193.014	-333.31
193.396	-687.02
193.777	-505
194.159	-460.31
194.54	-259.38
194.922	-239.28
195.303	-180.72
195.684	-161.77
196.065	-129.76
196.447	-136.26
196.828	-201.17
197.209	-246.32
197.59	-315.91
197.971	-269.45
198.352	-170.91
198.733	-152.79
199.114	-151.75
199.495	-138.11
199.876	-160.78
200.257	-158.74
200.638	-140
201.018	-126.78
201.399	-98.41
201.78	-78.49
202.16	-88.54
202.541	-126.67
202.922	-152.19
203.302	-201.25
203.683	-249.14
204.063	-304.58
204.444	-313.49
204.824	-294.1
205.204	-206.19
205.585	-224.39
205.965	-208.08
206.345	-237.24
206.725	-289.93
207.106	-280.53
207.486	-429.53
207.866	-415.38
208.246	-314.91
208.626	-316.71
209.006	-228.86
209.386	-331.88
209.766	-386.21
210.145	-286.13
210.525	-207.59
210.905	-181.46
211.285	-158.11
211.664	-135.13
212.044	-140
212.424	-152.22
212.803	-177.02
213.183	-185.04
213.562	-133.32
213.942	-137.01
214.321	-140.7
214.701	-146.68
215.08	-168.62
215.459	-111.35
215.838	-117.32
216.218	-142.55
216.597	-143.21
216.976	-172.59
217.355	-154.63
217.734	-149.2
218.113	-174
218.492	-259.17
218.871	-423.57
219.25	-599.03
219.629	-614.5
220.008	-1026.01
220.387	-1481.23
220.766	-4353.61
221.144	2546.93
221.523	1507.62
221.902	1489.02
222.28	1316.7
222.659	1072.71
223.037	40688.24
223.416	15419.15
223.794	-898.71
224.173	-566.15
224.551	-310.35
224.929	-199.41
225.308	-160.81
225.686	-127.18
226.064	-99.97
226.442	-84.69
226.821	-59.23
227.199	-55.14
227.577	-55.46
227.955	-53.8
228.333	-46.93
228.711	-38.62
229.089	-33.03
229.467	-33.62
229.845	-30.65
230.222	-27.22
230.6	-25.03
230.978	-23.2
231.356	-20.66
231.733	-21.09
232.111	-18.04
232.488	-20.25
232.866	-21.41
233.243	-19.48
233.621	-22.73
233.998	-20.51
234.376	-20.71
234.753	-20
235.13	-17.52
235.508	-15.33
235.885	-14.97
236.262	-15.51
236.639	-14.33
237.016	-14.01
237.393	-10.2
237.77	-7.95
238.147	-6.94
238.524	-6.2
238.901	-4.56
239.278	-3.48
239.655	-2.4
240.032	-2.36
240.409	-1.67
240.785	-0.72
241.162	-1.06
241.539	0.16
241.915	0.15
242.292	0.57
242.668	0.44
243.045	0.91
243.421	1.25
243.798	1.3
244.174	1.66
244.551	1.72
244.927	1.86
245.303	2.05
245.679	2.25
246.056	2.34
246.432	2.58
246.808	2.61
247.184	2.29
247.56	2.36
247.936	2.32
248.312	2.28
248.688	2.15
249.064	2.15
249.44	1.93
249.815	1.96
250.191	2.16
250.567	2.42
250.943	2.27
251.318	2.15
251.694	2.34
252.069	2.26
252.445	2.3
252.82	2.45
253.196	2.24
253.571	2.03
253.947	2.12
254.322	2.02
254.697	1.69
255.073	1.7
255.448	1.56
255.823	1.69
256.198	1.62
256.573	1.87
256.948	2.31
257.323	2.43
257.698	2.39
258.073	2.28
258.448	2.09
258.823	2.2
259.198	2.22
259.573	2.25
259.948	2.18
260.322	2.07
260.697	1.81
261.072	1.53
261.446	1.62
261.821	1.54
262.195	1.66
262.57	1.69
262.944	1.78
263.319	1.74
263.693	1.67
264.067	1.83
264.442	1.75
264.816	1.49
265.19	1.41
265.564	1.42
265.938	1.34
266.313	1.34
266.687	1.3
267.061	1.3
267.435	1.46
267.809	1.66
268.183	1.68
268.556	2.08
268.93	2.39
269.304	2.44
269.678	2.63
270.051	2.4
270.425	2.42
270.799	2.44
271.172	2.49
271.546	2.6
271.919	2.46
272.293	2.49
272.666	2.7
273.04	2.84
273.413	2.65
273.787	2.57
274.16	2.59
274.533	2.52
274.906	2.52
275.279	2.31
275.653	2.16
276.026	2.29
276.399	2.22
276.772	2.16
277.145	1.95
277.518	1.76
277.891	1.82
278.263	1.89
278.636	1.92
279.009	1.96
279.382	2.04
279.755	2.12
280.127	2.24
280.5	2.16
280.872	2.01
281.245	2.14
281.617	2.42
281.99	2.51
282.362	2.68
282.735	2.54
283.107	2.57
283.479	2.84
283.852	2.83
284.224	2.7
284.596	2.76
284.968	2.94
285.34	3.01
285.713	3.01
286.085	2.98
286.457	3.04
286.829	2.99
287.201	2.87
287.572	2.82
287.944	2.72
288.316	2.63
288.688	2.68
289.06	2.58
289.431	2.56
289.803	2.52
290.175	2.29
290.546	2.44
290.918	2.53
291.289	2.43
291.661	2.37
292.032	2.51
292.403	2.47
292.775	2.54
293.146	2.51
293.517	2.5
293.889	2.52
294.26	2.53
294.631	2.63
295.002	2.76
295.373	2.9
295.744	2.85
296.115	3.04
296.486	2.93
296.857	3.08
297.228	2.99
297.599	2.98
297.97	3.15
298.34	3.17
298.711	3.09
299.082	2.89
299.452	2.87
299.823	2.86
300.194	2.9
300.564	2.74
300.935	2.72
301.305	2.58
301.676	2.64
302.046	2.59
302.416	2.56
302.787	2.38
303.157	2.17
303.527	2.13
303.897	1.94
304.267	2.09
304.637	2.04
305.008	2.04
305.378	2.09
305.748	2.12
306.117	1.95
306.487	2
306.857	2.14
307.227	2.12
307.597	2.08
307.967	2.12
308.336	2.12
308.706	2.21
309.076	2.37
309.445	2.25
309.815	2.26
310.184	2.23
310.554	2.28
310.923	2.25
311.293	2.38
311.662	2.42
312.031	2.36
312.401	2.35
312.77	2.42
313.139	2.49
313.508	2.56
313.877	2.68
314.246	2.66
314.616	2.68
314.985	2.74
315.353	2.65
315.722	2.64
316.091	2.61
316.46	2.52
316.829	2.57
317.198	2.68
317.567	2.63
317.935	2.62
318.304	2.66
318.672	2.71
319.041	2.64
319.41	2.45
319.778	2.45
320.147	2.56
320.515	2.47
320.883	2.31
321.252	2.11
321.62	2.14
321.988	1.97
322.357	2.01
322.725	2.03
323.093	2.18
323.461	2.19
323.829	2.33
324.197	2.41
324.565	2.35
324.933	2.35
325.301	2.31
325.669	2.34
326.037	2.31
326.405	2.26
326.772	2.33
327.14	2.64
327.508	2.57
327.875	2.36
328.243	2.44
328.61	2.45
328.978	2.39
329.346	2.41
329.713	2.48
330.08	2.45
330.448	2.32
330.815	2.25
331.182	2.21
331.55	2.11
331.917	2.16
332.284	2.2
332.651	2.14
333.018	2.21
333.385	2.23
333.752	2.23
334.119	2.41
334.486	2.29
334.853	2.08
335.22	2.14
335.587	2.27
335.954	2.31
336.32	2.3
336.687	2.49
337.054	2.35
337.42	2.36
337.787	2.42
338.153	2.51
338.52	2.56
338.886	2.56
339.253	2.54
339.619	2.51
339.986	2.52
340.352	2.57
340.718	2.63
341.084	2.49
341.451	2.58
341.817	2.66
342.183	2.67
342.549	2.66
342.915	2.73
343.281	2.75
343.647	2.58
344.013	2.63
344.379	2.46
344.745	2.64
345.11	2.64
345.476	2.6
345.842	2.57
346.208	2.6
346.573	2.59
346.939	2.65
347.304	2.56
347.67	2.58
348.035	2.56
348.401	2.46
348.766	2.54
349.132	2.52
349.497	2.44
349.862	2.56
350.228	2.58
350.593	2.53
350.958	2.55
351.323	2.66
351.688	2.72
352.053	2.85
352.418	2.81
352.783	2.83
353.148	2.77
353.513	2.74
353.878	2.66
354.243	2.69
354.608	2.73
354.972	2.81
355.337	2.79
355.702	2.79
356.066	2.89
356.431	2.89
356.795	2.86
357.16	2.86
357.524	2.83
357.889	2.83
358.253	2.85
358.618	2.86
358.982	2.86
359.346	2.75
359.71	2.71
360.075	2.65
360.439	2.69
360.803	2.68
361.167	2.73
361.531	2.75
361.895	2.74
362.259	2.68
362.623	2.69
362.987	2.7
363.351	2.69
363.714	2.67
364.078	2.62
364.442	2.58
364.806	2.61
365.169	2.59
365.533	2.63
365.896	2.63
366.26	2.6
366.623	2.56
366.987	2.59
367.35	2.58
367.714	2.6
368.077	2.53
368.44	2.58
368.803	2.51
369.167	2.42
369.53	2.42
369.893	2.4
370.256	2.36
370.619	2.32
370.982	2.31
371.345	2.26
371.708	2.33
372.071	2.41
372.434	2.37
372.797	2.32
373.159	2.28
373.522	2.32
373.885	2.32
374.247	2.39
374.61	2.44
374.973	2.41
375.335	2.4
375.698	2.44
376.06	2.38
376.423	2.42
376.785	2.46
377.147	2.52
377.51	2.58
377.872	2.59
378.234	2.63
378.596	2.63
378.958	2.67
379.321	2.6
379.683	2.63
380.045	2.64
380.407	2.72
380.769	2.76
381.13	2.73
381.492	2.72
381.854	2.66
382.216	2.66
382.578	2.73
382.939	2.76
383.301	2.77
383.663	2.77
384.024	2.76
384.386	2.82
384.747	2.79
385.109	2.77
385.47	2.78
385.832	2.74
386.193	2.77
386.554	2.74
386.916	2.8
387.277	2.77
387.638	2.76
387.999	2.73
388.36	2.68
388.721	2.67
389.082	2.73
389.443	2.72
389.804	2.73
390.165	2.71
390.526	2.74
390.887	2.76
391.248	2.84
391.609	2.87
391.969	2.86
392.33	2.86
392.691	2.87
393.051	2.89
393.412	2.91
393.772	2.9
394.133	2.93
394.493	2.93
394.854	2.93
395.214	2.95
395.574	2.97
395.935	2.98
396.295	3.02
396.655	2.95
397.015	2.96
397.376	2.95
397.736	2.94
398.096	2.94
398.456	2.91
398.816	2.89
399.176	2.86
399.535	2.83
399.895	2.84
400.255	2.86
400.615	2.83
400.975	2.83
401.334	2.79
401.694	2.77
402.054	2.75
402.413	2.77
402.773	2.74
403.132	2.74
403.492	2.75
403.851	2.74
404.211	2.77
404.57	2.79
404.929	2.8
405.288	2.81
405.648	2.8
406.007	2.82
406.366	2.81
406.725	2.83
407.084	2.85
407.443	2.83
407.802	2.83
408.161	2.85
408.52	2.83
408.879	2.83
409.238	2.87
409.596	2.87
409.955	2.88
410.314	2.91
410.673	2.92
411.031	2.92
411.39	2.94
411.748	2.92
412.107	2.94
412.465	2.94
412.824	2.93
413.182	2.95
413.54	2.95
413.899	2.99
414.257	3
414.615	3
414.974	3.02
415.332	3.03
415.69	3.03
416.048	3.06
416.406	3.1
416.764	3.08
417.122	3.09
417.48	3.07
417.838	3.07
418.195	3.08
418.553	3.07
418.911	3.07
419.269	3.09
419.626	3.07
419.984	3.06
420.342	3.08
420.699	3.07
421.057	3.08
421.414	3.06
421.772	3.06
422.129	3.07
422.486	3.06
422.844	3.05
423.201	3.04
423.558	3.05
423.915	3.05
424.273	3.06
424.63	3.05
424.987	3.05
425.344	3.06
425.701	3.05
426.058	3.05
426.415	3.05
426.772	3.05
427.128	3.05
427.485	3.07
427.842	3.05
428.199	3.06
428.555	3.05
428.912	3.06
429.269	3.06
429.625	3.04
429.982	3.05
430.338	3.05
430.695	3.08
431.051	3.06
431.407	3.06
431.764	3.05
432.12	3.05
432.476	3.06
432.832	3.05
433.189	3.04
433.545	3.03
433.901	3.04
434.257	3.03
434.613	3.03
434.969	3.02
435.325	3.03
435.681	3.02
436.036	3.03
436.392	3.02
436.748	3.01
437.104	3.02
437.459	3.01
437.815	3.01
438.171	3
438.526	3.01
438.882	3
439.237	3.01
439.593	3.01
439.948	3.01
440.304	3.01
440.659	3
441.014	3.01
441.369	3
441.725	3.01
442.08	3.02
442.435	3.01
442.79	3.01
443.145	3.01
443.5	3.01
443.855	3.01
444.21	3.01
444.565	3.03
444.92	3.04
445.275	3.03
445.629	3.02
445.984	2.99
446.339	2.98
446.693	2.97
447.048	2.98
447.403	2.98
447.757	2.97
448.112	2.96
448.466	2.96
448.82	2.95
449.175	2.95
449.529	2.94
449.883	2.95
450.238	2.94
450.592	2.95
450.946	2.94
451.3	2.94
451.654	2.96
452.008	2.96
452.362	2.94
452.716	2.95
453.07	2.97
453.424	2.98
453.778	2.97
454.132	2.98
454.486	2.97
454.839	2.95
455.193	2.97
455.547	2.98
455.9	2.99
456.254	3.01
456.607	3.02
456.961	3.04
457.314	3.04
457.668	3.06
458.021	3.05
458.375	3.07
458.728	3.06
459.081	3.05
459.434	3.03
459.787	3.03
460.141	3.03
460.494	3.02
460.847	3.03
461.2	3.04
461.553	3.03
461.906	3.04
462.259	3.06
462.611	3.08
462.964	3.09
463.317	3.08
463.67	3.09
464.022	3.09
464.375	3.06
464.728	3.05
465.08	3.05
465.433	3.03
465.785	3.03
466.138	3.04
466.49	3.04
466.843	3.05
467.195	3.05
467.547	3.06
467.899	3.07
468.252	3.07
468.604	3.08
468.956	3.09
469.308	3.08
469.66	3.06
470.012	3.04
470.364	3.02
470.716	3.05
471.068	3.04
471.42	3.04
471.772	3.06
472.123	3.07
472.475	3.08
472.827	3.1
473.178	3.09
473.53	3.09
473.882	3.06
474.233	3.08
474.585	3.09
474.936	3.06
475.288	3.05
475.639	3.07
475.99	3.07
476.342	3.09
476.693	3.1
477.044	3.08
477.395	3.08
477.746	3.1
478.097	3.08
478.448	3.09
478.8	3.08
479.15	3.05
479.501	3.06
479.852	3.07
480.203	3.08
480.554	3.1
480.905	3.11
481.255	3.14
481.606	3.14
481.957	3.15
482.307	3.17
482.658	3.17
483.009	3.17
483.359	3.19
483.709	3.18
484.06	3.18
484.41	3.2
484.761	3.2
485.111	3.2
485.461	3.21
485.811	3.21
486.162	3.22
486.512	3.24
486.862	3.24
487.212	3.24
487.562	3.24
487.912	3.23
488.262	3.23
488.612	3.22
488.961	3.22
489.311	3.22
489.661	3.21
490.011	3.21
490.36	3.2
490.71	3.19
491.06	3.2
491.409	3.21
491.759	3.21
492.108	3.22
492.458	3.22
492.807	3.21
493.157	3.21
493.506	3.21
493.855	3.2
494.204	3.21
494.554	3.2
494.903	3.2
495.252	3.21
495.601	3.21
495.95	3.22
496.299	3.2
496.648	3.19
496.997	3.19
497.346	3.2
497.695	3.21
498.043	3.22
498.392	3.22
498.741	3.22
499.09	3.2
499.438	3.2
499.787	3.22
500.135	3.22
500.484	3.23
500.832	3.21
501.181	3.21
501.529	3.21
501.878	3.24
502.226	3.23
502.574	3.24
502.923	3.26
503.271	3.23
503.619	3.25
503.967	3.26
504.315	3.26
504.663	3.26
505.011	3.26
505.359	3.26
505.707	3.27
506.055	3.25
506.403	3.27
506.751	3.28
507.098	3.26
507.446	3.26
507.794	3.24
508.141	3.27
508.489	3.26
508.837	3.24
509.184	3.25
509.531	3.25
509.879	3.26
510.226	3.25
510.574	3.27
510.921	3.27
511.268	3.28
511.616	3.29
511.963	3.29
512.31	3.3
512.657	3.3
513.004	3.3
513.351	3.3
513.698	3.31
514.045	3.29
514.392	3.29
514.739	3.29
515.086	3.33
515.432	3.32
515.779	3.32
516.126	3.35
516.473	3.35
516.819	3.37
517.166	3.36
517.512	3.38
517.859	3.38
518.205	3.4
518.552	3.4
518.898	3.38
519.245	3.37
519.591	3.34
519.937	3.34
520.283	3.35
520.629	3.36
520.976	3.37
521.322	3.38
521.668	3.39
522.014	3.38
522.36	3.38
522.706	3.41
523.052	3.42
523.398	3.41
523.743	3.41
524.089	3.42
524.435	3.42
524.781	3.41
525.126	3.43
525.472	3.41
525.817	3.42
526.163	3.43
526.509	3.44
526.854	3.46
527.199	3.47
527.545	3.47
527.89	3.48
528.235	3.47
528.581	3.47
528.926	3.47
529.271	3.49
529.616	3.47
529.961	3.46
530.306	3.46
530.651	3.47
530.996	3.47
531.341	3.46
531.686	3.46
532.031	3.47
532.376	3.47
532.721	3.49
533.065	3.48
533.41	3.48
533.755	3.48
534.099	3.49
534.444	3.48
534.788	3.5
535.133	3.49
535.477	3.5
535.822	3.5
536.166	3.51
536.51	3.49
536.855	3.51
537.199	3.52
537.543	3.52
537.887	3.52
538.231	3.5
538.576	3.5
538.92	3.51
539.264	3.49
539.608	3.48
539.951	3.47
540.295	3.47
540.639	3.48
540.983	3.48
541.327	3.46
541.671	3.46
542.014	3.46
542.358	3.46
542.701	3.46
543.045	3.47
543.389	3.46
543.732	3.48
544.075	3.49
544.419	3.49
544.762	3.5
545.105	3.5
545.449	3.52
545.792	3.51
546.135	3.51
546.478	3.51
546.821	3.52
547.165	3.53
547.508	3.54
547.851	3.55
548.194	3.56
548.536	3.55
548.879	3.58
549.222	3.56
549.565	3.54
549.908	3.56
550.25	3.55
550.593	3.57
550.936	3.53
551.278	3.5
551.621	3.46
551.963	3.46
552.306	3.45
552.648	3.43
552.991	3.47
553.333	3.47
553.675	3.47
554.017	3.48
554.36	3.46
554.702	3.45
555.044	3.44
555.386	3.45
555.728	3.45
556.07	3.42
556.412	3.43
556.754	3.45
557.096	3.45
557.438	3.46
557.78	3.45
558.121	3.49
558.463	3.49
558.805	3.51
559.147	3.5
559.488	3.5
559.83	3.5
560.171	3.48
560.513	3.49
560.854	3.5
561.196	3.49
561.537	3.49
561.878	3.49
562.22	3.53
562.561	3.5
562.902	3.54
563.243	3.56
563.584	3.58
563.925	3.55
564.266	3.51
564.607	3.49
564.948	3.5
565.289	3.49
565.63	3.53
565.971	3.54
566.312	3.55
566.653	3.55
566.993	3.54
567.334	3.54
567.675	3.55
568.015	3.53
568.356	3.54
568.696	3.57
569.037	3.55
569.377	3.52
569.718	3.53
570.058	3.5
570.398	3.5
570.739	3.48
571.079	3.5
571.419	3.52
571.759	3.54
572.099	3.52
572.439	3.51
572.779	3.49
573.119	3.51
573.459	3.52
573.799	3.54
574.139	3.55
574.479	3.56
574.819	3.55
575.158	3.55
575.498	3.55
575.838	3.53
576.177	3.52
576.517	3.52
576.856	3.54
577.196	3.52
577.535	3.52
577.875	3.55
578.214	3.54
578.553	3.57
578.893	3.53
579.232	3.54
579.571	3.55
579.91	3.54
580.25	3.52
580.589	3.51
580.928	3.49
581.267	3.5
581.606	3.51
581.945	3.5
582.283	3.5
582.622	3.49
582.961	3.47
583.3	3.52
583.639	3.55
583.977	3.51
584.316	3.54
584.654	3.53
584.993	3.52
585.332	3.56
585.67	3.53
586.008	3.56
586.347	3.56
586.685	3.53
587.024	3.51
587.362	3.49
587.7	3.51
588.038	3.52
588.376	3.5
588.715	3.47
589.053	3.49
589.391	3.51
589.729	3.52
590.067	3.55
590.404	3.54
590.742	3.54
591.08	3.56
591.418	3.56
591.756	3.6
592.093	3.6
592.431	3.53
592.769	3.57
593.106	3.61
593.444	3.61
593.781	3.63
594.119	3.65
594.456	3.67
594.793	3.67
595.131	3.67
595.468	3.7
595.805	3.71
596.143	3.7
596.48	3.67
596.817	3.66
597.154	3.67
597.491	3.66
597.828	3.65
598.165	3.64
598.502	3.65
598.839	3.64
599.176	3.62
599.512	3.66
599.849	3.65
600.186	3.62
600.523	3.64
600.859	3.66
601.196	3.68
601.532	3.65
601.869	3.61
602.205	3.59
602.542	3.6
602.878	3.58
603.215	3.62
603.551	3.66
603.887	3.68
604.223	3.65
604.56	3.67
604.896	3.71
605.232	3.73
605.568	3.71
605.904	3.73
606.24	3.75
606.576	3.76
606.912	3.76
607.248	3.78
607.583	3.8
607.919	3.76
608.255	3.75
608.591	3.84
608.926	3.88
609.262	3.92
609.597	3.9
609.933	3.93
610.268	3.93
610.604	3.94
610.939	3.89
611.275	3.91
611.61	3.91
611.945	3.9
612.281	3.87
612.616	3.86
612.951	3.82
613.286	3.79
613.621	3.74
613.956	3.71
614.291	3.68
614.626	3.63
614.961	3.67
615.296	3.64
615.631	3.57
615.966	3.56
616.3	3.52
616.635	3.53
616.97	3.53
617.304	3.5
617.639	3.49
617.973	3.51
618.308	3.51
618.642	3.53
618.977	3.52
619.311	3.52
619.646	3.55
619.98	3.58
620.314	3.64
620.648	3.67
620.983	3.71
621.317	3.73
621.651	3.77
621.985	3.78
622.319	3.84
622.653	3.87
622.987	3.9
623.321	3.92
623.655	3.94
623.988	3.96
624.322	3.92
624.656	3.95
624.99	3.97
625.323	4
625.657	4
625.99	4
626.324	4.01
626.657	4.01
626.991	4
627.324	3.93
627.658	4
627.991	3.99
628.324	3.99
628.657	3.96
628.991	3.97
629.324	3.95
629.657	3.91
629.99	3.84
630.323	3.85
630.656	3.85
630.989	3.9
631.322	3.94
631.655	3.9
631.987	3.93
632.32	3.93
632.653	3.88
632.986	3.92
633.318	3.92
633.651	3.94
633.984	3.97
634.316	3.99
634.649	3.93
634.981	3.93
635.313	3.96
635.646	3.98
635.978	3.95
636.31	3.96
636.643	4.03
636.975	4
637.307	3.99
637.639	4.01
637.971	3.94
638.303	3.94
638.635	3.91
638.967	3.85
639.299	3.87
639.631	3.88
639.963	3.82
640.295	3.83
640.626	3.82
640.958	3.82
641.29	3.83
641.621	3.85
641.953	3.86
642.285	3.85
642.616	3.92
642.948	3.89
643.279	3.85
643.61	3.79
643.942	3.83
644.273	3.81
644.604	3.78
644.936	3.75
645.267	3.76
645.598	3.8
645.929	3.87
646.26	3.85
646.591	3.87
646.922	3.86
647.253	3.88
647.584	3.87
647.915	3.85
648.245	3.84
648.576	3.86
648.907	3.86
649.238	3.8
649.568	3.72
649.899	3.76
650.229	3.85
650.56	3.9
650.89	3.92
651.221	3.95
651.551	3.93
651.882	3.93
652.212	3.91
652.542	3.87
652.872	3.82
653.203	3.84
653.533	3.86
653.863	3.85
654.193	3.84
654.523	3.89
654.853	3.89
655.183	3.88
655.513	3.82
655.843	3.8
656.172	3.84
656.502	3.91
656.832	3.95
657.162	3.9
657.491	3.88
657.821	3.85
658.15	3.84
658.48	3.89
658.809	3.87
659.139	3.95
659.468	3.91
659.798	3.89
660.127	3.87
660.456	3.87
660.785	3.86
661.115	3.85
661.444	3.82
661.773	3.83
662.102	3.86
662.431	3.96
662.76	3.93
663.089	3.96
663.418	3.9
663.747	3.89
664.076	3.89
664.404	3.92
664.733	3.93
665.062	3.98
665.39	3.96
665.719	4
666.048	3.97
666.376	4.07
666.705	4.1
667.033	4.06
667.362	4.07
667.69	4.09
668.018	4.09
668.347	4.05
668.675	3.99
669.003	3.91
669.331	3.86
669.659	3.9
669.987	3.82
670.315	3.92
670.643	3.92
670.971	3.84
671.299	3.83
671.627	3.85
671.955	3.81
672.283	3.81
672.61	3.77
672.938	3.76
673.266	3.71
673.593	3.83
