Data from BA28304_Reflection_00005.txt Node
Date: Mon Nov 18 15:36:01 EST 2019
User: vgr7
Spectrometer: USB2G7710
Scans to average: 3
Trigger mode: 4
Integration Time (sec): 2.000000E-2
Electric dark correction enabled: true
Boxcar width: 10
XAxis mode: Wavelengths
Number of Pixels in Spectrum: 2048
>>>>>Begin Spectral Data<<<<<
177.721	41.7
178.105	58.23
178.488	-28.18
178.871	-172.28
179.254	-37.83
179.636	-8.03
180.019	-145.12
180.402	158.06
180.785	-133.08
181.168	-2400
181.55	1217.65
181.933	72.07
182.316	94.68
182.698	64.97
183.081	117.8
183.463	2867.44
183.846	-551.88
184.228	-565.89
184.611	3354.55
184.993	1682.28
185.376	-1068.22
185.758	-309.02
186.14	-234.67
186.522	-366.01
186.904	-1432.02
187.287	-1354.18
187.669	-443.39
188.051	-641.47
188.433	-458.96
188.815	-346.76
189.197	-354.09
189.579	-224.4
189.961	-233.97
190.342	-180.58
190.724	-118.45
191.106	-124.77
191.488	-132.75
191.869	-115.76
192.251	-98.32
192.633	-83.68
193.014	-83.2
193.396	-128.34
193.777	-109.91
194.159	-120.75
194.54	-95.1
194.922	-65.27
195.303	-55.51
195.684	-59.91
196.065	-57.39
196.447	-75.42
196.828	-81.89
197.209	-71.34
197.59	-92.51
197.971	-101.58
198.352	-83.11
198.733	-158.36
199.114	-137.86
199.495	-103.22
199.876	-145.77
200.257	-210.78
200.638	-139.38
201.018	-208.34
201.399	-149.69
201.78	-144.36
202.16	-154.01
202.541	-282.99
202.922	-1029.26
203.302	-2300.78
203.683	-908.34
204.063	647100
204.444	-1311.13
204.824	-646.65
205.204	-322.33
205.585	-435.69
205.965	-535.34
206.345	-1216.25
206.725	-855.08
207.106	-1725.15
207.486	3969.96
207.866	-4888.44
208.246	-697.75
208.626	-931.88
209.006	-620.16
209.386	-1124.46
209.766	-1078.22
210.145	-640.9
210.525	-362.19
210.905	-287.33
211.285	-201.08
211.664	-187.06
212.044	-216.64
212.424	-204.82
212.803	-203.62
213.183	-296.09
213.562	-230.05
213.942	-181.18
214.321	-129.11
214.701	-213.74
215.08	-163.1
215.459	-128.69
215.838	-112.31
216.218	-142.18
216.597	-141.09
216.976	-118.98
217.355	-103.7
217.734	-105.65
218.113	-88.25
218.492	-120.26
218.871	-113.58
219.25	-109.85
219.629	-125.56
220.008	-63.27
220.387	-62.63
220.766	-56.9
221.144	-73.56
221.523	-61.62
221.902	-51.45
222.28	-72.28
222.659	-58.82
223.037	-55.81
223.416	-53.64
223.794	-51.55
224.173	-42.86
224.551	-38.06
224.929	-29.71
225.308	-24.81
225.686	-24.23
226.064	-21.41
226.442	-19.06
226.821	-15.11
227.199	-16.78
227.577	-17.68
227.955	-19.5
228.333	-22.73
228.711	-18.09
229.089	-12.01
229.467	-14.18
229.845	-15.18
230.222	-11.67
230.6	-10.54
230.978	-11.71
231.356	-9.23
231.733	-8.44
232.111	-6.97
232.488	-8.37
232.866	-10.03
233.243	-9.96
233.621	-9.32
233.998	-8.9
234.376	-7.8
234.753	-9.37
235.13	-9.38
235.508	-7.82
235.885	-7
236.262	-5.57
236.639	-4.89
237.016	-4.74
237.393	-2.54
237.77	-1.49
238.147	-1.04
238.524	-0.44
238.901	1.23
239.278	1.18
239.655	1.71
240.032	2.08
240.409	2.37
240.785	2.42
241.162	2.77
241.539	2.81
241.915	2.75
242.292	2.41
242.668	3.04
243.045	2.88
243.421	2.66
243.798	2.82
244.174	2.78
244.551	2.94
244.927	3.2
245.303	3.38
245.679	3.57
246.056	3.73
246.432	3.63
246.808	3.63
247.184	3.06
247.56	3.04
247.936	2.73
248.312	2.81
248.688	2.93
249.064	3.07
249.44	3.18
249.815	3.33
250.191	3.73
250.567	3.74
250.943	3.93
251.318	4.06
251.694	3.96
252.069	4.05
252.445	3.67
252.82	3.5
253.196	3.26
253.571	2.93
253.947	2.93
254.322	2.99
254.697	2.88
255.073	3.44
255.448	3.37
255.823	3.69
256.198	3.65
256.573	3.71
256.948	3.79
257.323	3.79
257.698	3.72
258.073	3.49
258.448	3.59
258.823	3.71
259.198	3.57
259.573	3.67
259.948	3.67
260.322	3.84
260.697	3.76
261.072	3.56
261.446	3.71
261.821	3.51
262.195	3.61
262.57	3.57
262.944	3.49
263.319	3.51
263.693	3.45
264.067	3.53
264.442	3.41
264.816	3.27
265.19	3.09
265.564	3
265.938	2.84
266.313	2.62
266.687	2.46
267.061	2.78
267.435	2.73
267.809	2.76
268.183	2.84
268.556	2.88
268.93	3.06
269.304	3.05
269.678	3.29
270.051	3.18
270.425	3.25
270.799	3.34
271.172	3.35
271.546	3.2
271.919	3.08
272.293	3.18
272.666	3.08
273.04	3.07
273.413	3.01
273.787	3.13
274.16	3.22
274.533	3.26
274.906	3.02
275.279	3
275.653	2.96
276.026	2.82
276.399	2.83
276.772	2.84
277.145	2.92
277.518	2.78
277.891	2.83
278.263	2.71
278.636	2.85
279.009	2.88
279.382	3.27
279.755	3.33
280.127	3.43
280.5	3.69
280.872	3.86
281.245	3.77
281.617	4.02
281.99	4.13
282.362	4.21
282.735	4.22
283.107	4.17
283.479	4.3
283.852	4.35
284.224	4.31
284.596	4.26
284.968	4.26
285.34	4.35
285.713	4.34
286.085	4.4
286.457	4.46
286.829	4.47
287.201	4.28
287.572	4.26
287.944	4.01
288.316	3.93
288.688	3.96
289.06	4.03
289.431	3.93
289.803	3.83
290.175	3.74
290.546	3.85
290.918	4.02
291.289	4.01
291.661	4.06
292.032	4.2
292.403	4.32
292.775	4.24
293.146	4.19
293.517	4.22
293.889	4.32
294.26	4.2
294.631	4.21
295.002	4.19
295.373	4.16
295.744	4.3
296.115	4.32
296.486	4.12
296.857	4.07
297.228	4.09
297.599	3.95
297.97	3.91
298.34	3.93
298.711	3.99
299.082	3.89
299.452	3.86
299.823	3.76
300.194	3.74
300.564	3.68
300.935	3.65
301.305	3.6
301.676	3.56
302.046	3.54
302.416	3.59
302.787	3.67
303.157	3.65
303.527	3.6
303.897	3.53
304.267	3.66
304.637	3.69
305.008	3.67
305.378	3.76
305.748	3.85
306.117	3.7
306.487	3.48
306.857	3.53
307.227	3.5
307.597	3.5
307.967	3.51
308.336	3.52
308.706	3.53
309.076	3.5
309.445	3.39
309.815	3.31
310.184	3.18
310.554	3.15
310.923	3.12
311.293	3.08
311.662	2.99
312.031	2.99
312.401	3.04
312.77	2.97
313.139	2.99
313.508	2.85
313.877	2.91
314.246	2.99
314.616	2.95
314.985	2.88
315.353	2.82
315.722	2.72
316.091	2.73
316.46	2.69
316.829	2.77
317.198	2.78
317.567	2.71
317.935	2.82
318.304	2.66
318.672	2.63
319.041	2.77
319.41	2.97
319.778	2.93
320.147	2.86
320.515	2.91
320.883	2.91
321.252	3.05
321.62	3.07
321.988	2.97
322.357	2.95
322.725	2.92
323.093	3.04
323.461	3.02
323.829	2.91
324.197	2.9
324.565	2.84
324.933	2.91
325.301	2.99
325.669	2.94
326.037	3.11
326.405	3.14
326.772	2.99
327.14	2.93
327.508	2.92
327.875	2.82
328.243	2.84
328.61	2.87
328.978	2.88
329.346	2.92
329.713	2.85
330.08	2.9
330.448	2.86
330.815	2.71
331.182	2.71
331.55	2.79
331.917	2.82
332.284	2.77
332.651	2.75
333.018	2.64
333.385	2.67
333.752	2.68
334.119	2.76
334.486	2.86
334.853	2.79
335.22	2.73
335.587	2.88
335.954	2.91
336.32	2.82
336.687	2.83
337.054	2.77
337.42	2.79
337.787	2.85
338.153	2.93
338.52	3.02
338.886	2.94
339.253	2.93
339.619	2.88
339.986	2.96
340.352	3
340.718	3.07
341.084	2.94
341.451	2.89
341.817	2.83
342.183	2.81
342.549	2.86
342.915	2.89
343.281	2.79
343.647	2.74
344.013	2.87
344.379	2.88
344.745	2.86
345.11	2.95
345.476	2.91
345.842	2.92
346.208	2.88
346.573	3
346.939	3.09
347.304	3.19
347.67	3.09
348.035	3
348.401	3.09
348.766	3.15
349.132	3.14
349.497	3.15
349.862	3.29
350.228	3.2
350.593	3.13
350.958	3.16
351.323	3.12
351.688	3.08
352.053	3.15
352.418	3.17
352.783	3.11
353.148	3.09
353.513	3.13
353.878	3.16
354.243	3.15
354.608	3.17
354.972	3.16
355.337	3.22
355.702	3.3
356.066	3.34
356.431	3.32
356.795	3.31
357.16	3.29
357.524	3.15
357.889	3.22
358.253	3.35
358.618	3.39
358.982	3.34
359.346	3.29
359.71	3.22
360.075	3.24
360.439	3.3
360.803	3.28
361.167	3.16
361.531	3.11
361.895	3.07
362.259	3.02
362.623	3
362.987	3
363.351	3.01
363.714	2.92
364.078	2.88
364.442	2.85
364.806	2.88
365.169	2.91
365.533	2.92
365.896	2.84
366.26	2.83
366.623	2.92
366.987	2.9
367.35	2.88
367.714	2.85
368.077	2.79
368.44	2.78
368.803	2.88
369.167	2.91
369.53	2.87
369.893	2.89
370.256	2.86
370.619	2.92
370.982	2.9
371.345	2.82
371.708	2.9
372.071	2.93
372.434	2.94
372.797	2.94
373.159	2.92
373.522	2.95
373.885	2.91
374.247	2.89
374.61	2.97
374.973	3
375.335	2.99
375.698	3.02
376.06	3.09
376.423	3.11
376.785	3.17
377.147	3.24
377.51	3.21
377.872	3.31
378.234	3.26
378.596	3.27
378.958	3.36
379.321	3.34
379.683	3.37
380.045	3.4
380.407	3.37
380.769	3.36
381.13	3.37
381.492	3.43
381.854	3.43
382.216	3.38
382.578	3.35
382.939	3.29
383.301	3.26
383.663	3.21
384.024	3.16
384.386	3.16
384.747	3.17
385.109	3.2
385.47	3.09
385.832	3.06
386.193	3.01
386.554	3.01
386.916	3
387.277	3.02
387.638	3
387.999	3.01
388.36	3.04
388.721	3.07
389.082	3.07
389.443	3.06
389.804	3.06
390.165	3.04
390.526	3.13
390.887	3.13
391.248	3.15
391.609	3.15
391.969	3.15
392.33	3.15
392.691	3.13
393.051	3.16
393.412	3.2
393.772	3.22
394.133	3.22
394.493	3.24
394.854	3.19
395.214	3.16
395.574	3.17
395.935	3.13
396.295	3.12
396.655	3.1
397.015	3.1
397.376	3.1
397.736	3.14
398.096	3.09
398.456	3.1
398.816	3.08
399.176	3.07
399.535	3.04
399.895	3.01
400.255	3.02
400.615	3.05
400.975	3.03
401.334	2.99
401.694	3
402.054	2.99
402.413	3.02
402.773	3.04
403.132	3.02
403.492	3.06
403.851	3.06
404.211	3.06
404.57	3.04
404.929	3.08
405.288	3.08
405.648	3.09
406.007	3.09
406.366	3.1
406.725	3.13
407.084	3.11
407.443	3.12
407.802	3.11
408.161	3.09
408.52	3.07
408.879	3.09
409.238	3.13
409.596	3.11
409.955	3.09
410.314	3.11
410.673	3.09
411.031	3.05
411.39	3.06
411.748	3.04
412.107	3.02
412.465	2.99
412.824	2.99
413.182	3
413.54	3.01
413.899	3.02
414.257	3.04
414.615	3.04
414.974	3.08
415.332	3.08
415.69	3.08
416.048	3.08
416.406	3.09
416.764	3.05
417.122	3.08
417.48	3.08
417.838	3.08
418.195	3.1
418.553	3.1
418.911	3.1
419.269	3.12
419.626	3.15
419.984	3.17
420.342	3.18
420.699	3.16
421.057	3.18
421.414	3.17
421.772	3.17
422.129	3.18
422.486	3.17
422.844	3.18
423.201	3.17
423.558	3.17
423.915	3.18
424.273	3.19
424.63	3.17
424.987	3.17
425.344	3.17
425.701	3.17
426.058	3.18
426.415	3.19
426.772	3.17
427.128	3.15
427.485	3.14
427.842	3.13
428.199	3.14
428.555	3.12
428.912	3.14
429.269	3.15
429.625	3.14
429.982	3.14
430.338	3.15
430.695	3.15
431.051	3.14
431.407	3.15
431.764	3.14
432.12	3.14
432.476	3.14
432.832	3.13
433.189	3.14
433.545	3.13
433.901	3.12
434.257	3.13
434.613	3.15
434.969	3.16
435.325	3.19
435.681	3.19
436.036	3.19
436.392	3.19
436.748	3.16
437.104	3.15
437.459	3.15
437.815	3.13
438.171	3.14
438.526	3.15
438.882	3.15
439.237	3.17
439.593	3.19
439.948	3.19
440.304	3.2
440.659	3.18
441.014	3.18
441.369	3.18
441.725	3.17
442.08	3.16
442.435	3.17
442.79	3.14
443.145	3.14
443.5	3.15
443.855	3.12
444.21	3.14
444.565	3.15
444.92	3.15
445.275	3.15
445.629	3.16
445.984	3.16
446.339	3.14
446.693	3.13
447.048	3.12
447.403	3.11
447.757	3.09
448.112	3.08
448.466	3.08
448.82	3.09
449.175	3.1
449.529	3.1
449.883	3.07
450.238	3.07
450.592	3.07
450.946	3.05
451.3	3.06
451.654	3.05
452.008	3.05
452.362	3.05
452.716	3.06
453.07	3.04
453.424	3.04
453.778	3.04
454.132	3.04
454.486	3.03
454.839	3.03
455.193	3.03
455.547	3.05
455.9	3.05
456.254	3.06
456.607	3.04
456.961	3.04
457.314	3.05
457.668	3.06
458.021	3.05
458.375	3.06
458.728	3.06
459.081	3.06
459.434	3.05
459.787	3.04
460.141	3.04
460.494	3.05
460.847	3.05
461.2	3.06
461.553	3.06
461.906	3.07
462.259	3.09
462.611	3.11
462.964	3.12
463.317	3.12
463.67	3.13
464.022	3.13
464.375	3.13
464.728	3.14
465.08	3.14
465.433	3.14
465.785	3.16
466.138	3.17
466.49	3.16
466.843	3.17
467.195	3.19
467.547	3.19
467.899	3.18
468.252	3.18
468.604	3.18
468.956	3.18
469.308	3.16
469.66	3.14
470.012	3.14
470.364	3.14
470.716	3.13
471.068	3.13
471.42	3.13
471.772	3.15
472.123	3.14
472.475	3.11
472.827	3.11
473.178	3.12
473.53	3.12
473.882	3.13
474.233	3.13
474.585	3.11
474.936	3.1
475.288	3.1
475.639	3.11
475.99	3.1
476.342	3.11
476.693	3.12
477.044	3.15
477.395	3.15
477.746	3.16
478.097	3.17
478.448	3.18
478.8	3.19
479.15	3.17
479.501	3.17
479.852	3.2
480.203	3.21
480.554	3.21
480.905	3.22
481.255	3.22
481.606	3.22
481.957	3.23
482.307	3.25
482.658	3.25
483.009	3.25
483.359	3.26
483.709	3.27
484.06	3.27
484.41	3.27
484.761	3.27
485.111	3.26
485.461	3.26
485.811	3.26
486.162	3.27
486.512	3.28
486.862	3.28
487.212	3.27
487.562	3.27
487.912	3.26
488.262	3.26
488.612	3.26
488.961	3.27
489.311	3.27
489.661	3.26
490.011	3.25
490.36	3.24
490.71	3.23
491.06	3.23
491.409	3.21
491.759	3.21
492.108	3.2
492.458	3.22
492.807	3.22
493.157	3.22
493.506	3.21
493.855	3.2
494.204	3.2
494.554	3.19
494.903	3.18
495.252	3.18
495.601	3.2
495.95	3.2
496.299	3.19
496.648	3.18
496.997	3.18
497.346	3.2
497.695	3.2
498.043	3.19
498.392	3.2
498.741	3.22
499.09	3.22
499.438	3.23
499.787	3.22
500.135	3.21
500.484	3.22
500.832	3.22
501.181	3.22
501.529	3.22
501.878	3.24
502.226	3.24
502.574	3.24
502.923	3.24
503.271	3.23
503.619	3.24
503.967	3.24
504.315	3.23
504.663	3.24
505.011	3.25
505.359	3.24
505.707	3.25
506.055	3.26
506.403	3.3
506.751	3.29
507.098	3.3
507.446	3.31
507.794	3.32
508.141	3.3
508.489	3.3
508.837	3.34
509.184	3.34
509.531	3.36
509.879	3.38
510.226	3.38
510.574	3.41
510.921	3.43
511.268	3.42
511.616	3.44
511.963	3.44
512.31	3.44
512.657	3.48
513.004	3.47
513.351	3.48
513.698	3.45
514.045	3.46
514.392	3.45
514.739	3.44
515.086	3.43
515.432	3.44
515.779	3.44
516.126	3.43
516.473	3.45
516.819	3.44
517.166	3.44
517.512	3.44
517.859	3.43
518.205	3.41
518.552	3.43
518.898	3.43
519.245	3.43
519.591	3.44
519.937	3.44
520.283	3.43
520.629	3.43
520.976	3.44
521.322	3.46
521.668	3.47
522.014	3.48
522.36	3.49
522.706	3.51
523.052	3.52
523.398	3.53
523.743	3.52
524.089	3.55
524.435	3.54
524.781	3.55
525.126	3.55
525.472	3.55
525.817	3.56
526.163	3.55
526.509	3.55
526.854	3.56
527.199	3.55
527.545	3.57
527.89	3.57
528.235	3.58
528.581	3.57
528.926	3.58
529.271	3.58
529.616	3.58
529.961	3.56
530.306	3.56
530.651	3.56
530.996	3.56
531.341	3.56
531.686	3.57
532.031	3.57
532.376	3.58
532.721	3.58
533.065	3.58
533.41	3.59
533.755	3.59
534.099	3.6
534.444	3.61
534.788	3.62
535.133	3.62
535.477	3.62
535.822	3.62
536.166	3.61
536.51	3.64
536.855	3.64
537.199	3.65
537.543	3.65
537.887	3.65
538.231	3.64
538.576	3.65
538.92	3.66
539.264	3.66
539.608	3.66
539.951	3.66
540.295	3.67
540.639	3.68
540.983	3.68
541.327	3.68
541.671	3.67
542.014	3.65
542.358	3.64
542.701	3.64
543.045	3.64
543.389	3.64
543.732	3.63
544.075	3.64
544.419	3.66
544.762	3.68
545.105	3.68
545.449	3.68
545.792	3.67
546.135	3.67
546.478	3.66
546.821	3.68
547.165	3.67
547.508	3.67
547.851	3.67
548.194	3.67
548.536	3.67
548.879	3.72
549.222	3.74
549.565	3.75
549.908	3.77
550.25	3.78
550.593	3.78
550.936	3.76
551.278	3.74
551.621	3.75
551.963	3.73
552.306	3.75
552.648	3.76
552.991	3.76
553.333	3.76
553.675	3.8
554.017	3.78
554.36	3.76
554.702	3.8
555.044	3.76
555.386	3.76
555.728	3.76
556.07	3.74
556.412	3.73
556.754	3.73
557.096	3.71
557.438	3.73
557.78	3.74
558.121	3.75
558.463	3.76
558.805	3.78
559.147	3.78
559.488	3.75
559.83	3.75
560.171	3.73
560.513	3.75
560.854	3.72
561.196	3.73
561.537	3.78
561.878	3.74
562.22	3.73
562.561	3.73
562.902	3.73
563.243	3.72
563.584	3.75
563.925	3.75
564.266	3.72
564.607	3.72
564.948	3.75
565.289	3.76
565.63	3.75
565.971	3.71
566.312	3.74
566.653	3.75
566.993	3.75
567.334	3.77
567.675	3.75
568.015	3.75
568.356	3.75
568.696	3.74
569.037	3.74
569.377	3.76
569.718	3.8
570.058	3.78
570.398	3.77
570.739	3.76
571.079	3.74
571.419	3.79
571.759	3.81
572.099	3.78
572.439	3.79
572.779	3.8
573.119	3.82
573.459	3.8
573.799	3.81
574.139	3.79
574.479	3.78
574.819	3.8
575.158	3.82
575.498	3.81
575.838	3.78
576.177	3.78
576.517	3.78
576.856	3.74
577.196	3.76
577.535	3.76
577.875	3.74
578.214	3.77
578.553	3.75
578.893	3.74
579.232	3.73
579.571	3.71
579.91	3.71
580.25	3.71
580.589	3.72
580.928	3.73
581.267	3.75
581.606	3.76
581.945	3.74
582.283	3.72
582.622	3.76
582.961	3.79
583.3	3.76
583.639	3.79
583.977	3.82
584.316	3.81
584.654	3.83
584.993	3.84
585.332	3.83
585.67	3.81
586.008	3.78
586.347	3.78
586.685	3.79
587.024	3.83
587.362	3.82
587.7	3.78
588.038	3.77
588.376	3.76
588.715	3.74
589.053	3.73
589.391	3.74
589.729	3.77
590.067	3.75
590.404	3.82
590.742	3.81
591.08	3.78
591.418	3.81
591.756	3.8
592.093	3.81
592.431	3.79
592.769	3.8
593.106	3.78
593.444	3.78
593.781	3.79
594.119	3.81
594.456	3.8
594.793	3.81
595.131	3.78
595.468	3.79
595.805	3.8
596.143	3.82
596.48	3.79
596.817	3.78
597.154	3.77
597.491	3.71
597.828	3.72
598.165	3.73
598.502	3.68
598.839	3.69
599.176	3.7
599.512	3.7
599.849	3.73
600.186	3.77
600.523	3.81
600.859	3.83
601.196	3.8
601.532	3.78
601.869	3.8
602.205	3.81
602.542	3.83
602.878	3.81
603.215	3.82
603.551	3.85
603.887	3.83
604.223	3.83
604.56	3.87
604.896	3.87
605.232	3.89
605.568	3.91
605.904	3.9
606.24	3.94
606.576	3.93
606.912	3.93
607.248	3.9
607.583	3.9
607.919	3.88
608.255	3.86
608.591	3.87
608.926	3.83
609.262	3.88
609.597	3.85
609.933	3.91
610.268	3.95
610.604	3.93
610.939	3.95
611.275	3.96
611.61	3.97
611.945	3.94
612.281	3.97
612.616	3.97
612.951	3.99
613.286	3.99
613.621	4.01
613.956	3.99
614.291	3.99
614.626	3.99
614.961	3.96
615.296	3.97
615.631	3.99
615.966	4.02
616.3	4.02
616.635	4.04
616.97	3.99
617.304	3.92
617.639	3.94
617.973	3.95
618.308	3.96
618.642	3.96
618.977	3.99
619.311	3.92
619.646	3.96
619.98	3.94
620.314	3.91
620.648	3.93
620.983	3.92
621.317	3.96
621.651	3.96
621.985	4.01
622.319	4.02
622.653	4.07
622.987	4.12
623.321	4.1
623.655	4.11
623.988	4.19
624.322	4.19
624.656	4.23
624.99	4.23
625.323	4.24
625.657	4.21
625.99	4.19
626.324	4.21
626.657	4.19
626.991	4.2
627.324	4.2
627.658	4.23
627.991	4.23
628.324	4.23
628.657	4.22
628.991	4.22
629.324	4.24
629.657	4.27
629.99	4.23
630.323	4.22
630.656	4.26
630.989	4.24
631.322	4.26
631.655	4.2
631.987	4.22
632.32	4.24
632.653	4.28
632.986	4.34
633.318	4.26
633.651	4.28
633.984	4.25
634.316	4.23
634.649	4.18
634.981	4.16
635.313	4.14
635.646	4.15
635.978	4.13
636.31	4.08
636.643	4.04
636.975	4.02
637.307	3.98
637.639	3.9
637.971	3.82
638.303	3.77
638.635	3.74
638.967	3.72
639.299	3.69
639.631	3.61
639.963	3.56
640.295	3.59
640.626	3.58
640.958	3.59
641.29	3.61
641.621	3.62
641.953	3.6
642.285	3.63
642.616	3.64
642.948	3.65
643.279	3.66
643.61	3.62
643.942	3.6
644.273	3.72
644.604	3.76
644.936	3.8
645.267	3.83
645.598	3.84
645.929	3.88
646.26	3.9
646.591	3.95
646.922	3.91
647.253	3.93
647.584	3.94
647.915	3.94
648.245	3.9
648.576	3.96
648.907	4.02
649.238	3.98
649.568	3.95
649.899	3.93
650.229	3.92
650.56	3.98
650.89	3.97
651.221	3.9
651.551	3.87
651.882	3.89
652.212	3.93
652.542	3.89
652.872	3.84
653.203	3.8
653.533	3.85
653.863	3.91
654.193	3.98
654.523	3.94
654.853	3.99
655.183	4.04
655.513	4.01
655.843	4.03
656.172	4.05
656.502	4.13
656.832	4.16
657.162	4.23
657.491	4.18
657.821	4.18
658.15	4.17
658.48	4.2
658.809	4.15
659.139	4.1
659.468	4.19
659.798	4.21
660.127	4.28
660.456	4.25
660.785	4.27
661.115	4.27
661.444	4.32
661.773	4.27
662.102	4.28
662.431	4.36
662.76	4.34
663.089	4.3
663.418	4.28
663.747	4.31
664.076	4.26
664.404	4.33
664.733	4.43
665.062	4.56
665.39	4.56
665.719	4.61
666.048	4.73
666.376	4.69
666.705	4.6
667.033	4.53
667.362	4.58
667.69	4.55
668.018	4.54
668.347	4.59
668.675	4.57
669.003	4.59
669.331	4.53
669.659	4.58
669.987	4.59
670.315	4.61
670.643	4.57
670.971	4.6
671.299	4.61
671.627	4.58
671.955	4.48
672.283	4.49
672.61	4.46
672.938	4.4
673.266	4.42
673.593	4.56
673.921	4.57
