Data from BA28305_Reflection_00012.txt Node
Date: Mon Nov 18 15:57:12 EST 2019
User: vgr7
Spectrometer: USB2G7710
Scans to average: 3
Trigger mode: 4
Integration Time (sec): 2.000000E-2
Electric dark correction enabled: true
Boxcar width: 10
XAxis mode: Wavelengths
Number of Pixels in Spectrum: 2048
>>>>>Begin Spectral Data<<<<<
177.721	-212.8
178.105	-321.05
178.488	-685.05
178.871	218.42
179.254	69.92
179.636	287.5
180.019	-212.14
180.402	117.39
180.785	-122.74
181.168	-126.42
181.55	-60.92
181.933	57.4
182.316	44.89
182.698	55.31
183.081	45.26
183.463	48.26
183.846	28.64
184.228	43.66
184.611	30.16
184.993	30.37
185.376	39.78
185.758	40.04
186.14	37.62
186.522	100
186.904	170.35
187.287	80.15
187.669	-40.13
188.051	15.71
188.433	28.99
188.815	235.92
189.197	452.94
189.579	-146.15
189.961	-226.53
190.342	-190.5
190.724	-53.85
191.106	-50.09
191.488	-89.11
191.869	-43.67
192.251	-20.66
192.633	-14.53
193.014	-31.32
193.396	-69.66
193.777	-127.57
194.159	-127.96
194.54	-105.96
194.922	-72.84
195.303	-66.01
195.684	-60.28
196.065	59.84
196.447	39.58
196.828	34.29
197.209	46.87
197.59	77.59
197.971	70.53
198.352	54.87
198.733	67.61
199.114	86.72
199.495	83.98
199.876	70.55
200.257	48.95
200.638	78.23
201.018	155.01
201.399	104.94
201.78	82.27
202.16	87.85
202.541	71.39
202.922	117.7
203.302	61.39
203.683	-20.09
204.063	-43.19
204.444	-37.54
204.824	-161.6
205.204	-492
205.585	-535.66
205.965	-358.54
206.345	-2095.12
206.725	1039.13
207.106	381.17
207.486	222.68
207.866	270.13
208.246	206.28
208.626	327.6
209.006	941.38
209.386	474.6
209.766	656.29
210.145	-345.99
210.525	-307.52
210.905	-109.9
211.285	-58.08
211.664	-43.76
212.044	-81.82
212.424	-85.34
212.803	-54.82
213.183	-21.07
213.562	-5.38
213.942	23
214.321	17.41
214.701	31.47
215.08	22.49
215.459	17.14
215.838	7.85
216.218	4.04
216.597	6.79
216.976	7.39
217.355	12.2
217.734	-4.25
218.113	22.84
218.492	24.29
218.871	-23.04
219.25	-29.99
219.629	-49.66
220.008	-14.15
220.387	-17.22
220.766	-21.47
221.144	-72.68
221.523	-71.07
221.902	-167.06
222.28	-380.62
222.659	-165.06
223.037	-44.33
223.416	-214.05
223.794	-118.18
224.173	-95.37
224.551	-60.8
224.929	-53.99
225.308	-20.46
225.686	-14.11
226.064	-13.5
226.442	-9.7
226.821	0.7
227.199	0.5
227.577	1.23
227.955	2.41
228.333	0.21
228.711	3.3
229.089	9.4
229.467	3.77
229.845	2.81
230.222	-0.13
230.6	-1.06
230.978	-1.76
231.356	2.25
231.733	2.92
232.111	6.39
232.488	7.64
232.866	8.06
233.243	6.05
233.621	5.06
233.998	6.19
234.376	5.98
234.753	7.14
235.13	7.95
235.508	9.59
235.885	6.37
236.262	6.73
236.639	4.96
237.016	3.49
237.393	5.75
237.77	6.41
238.147	8.71
238.524	9.25
238.901	7.91
239.278	6.81
239.655	7.91
240.032	6.22
240.409	5.87
240.785	5.33
241.162	5.14
241.539	5.75
241.915	5.7
242.292	5.08
242.668	4.39
243.045	4.81
243.421	4.51
243.798	4.75
244.174	4.21
244.551	4.47
244.927	4.3
245.303	4.27
245.679	4.02
246.056	3.69
246.432	3.46
246.808	3.55
247.184	3.44
247.56	3.15
247.936	3.12
248.312	3.18
248.688	3.49
249.064	3.53
249.44	3.29
249.815	3.29
250.191	3.52
250.567	3.61
250.943	3.2
251.318	3.42
251.694	3.53
252.069	3.63
252.445	3.84
252.82	3.96
253.196	4.03
253.571	4.03
253.947	4.11
254.322	4.49
254.697	4.43
255.073	4.51
255.448	4.24
255.823	4.49
256.198	4.31
256.573	4.02
256.948	3.99
257.323	4.1
257.698	3.83
258.073	3.66
258.448	3.51
258.823	3.66
259.198	3.42
259.573	3.51
259.948	3.65
260.322	3.5
260.697	3.48
261.072	3.32
261.446	3.44
261.821	3.35
262.195	3.17
262.57	3.3
262.944	3.33
263.319	3.32
263.693	3.38
264.067	3.38
264.442	3.58
264.816	3.53
265.19	3.35
265.564	3.37
265.938	3.42
266.313	3.39
266.687	3.27
267.061	3.27
267.435	3.18
267.809	3.1
268.183	3.1
268.556	3.17
268.93	3.38
269.304	3.39
269.678	3.42
270.051	3.52
270.425	3.37
270.799	3.31
271.172	3.55
271.546	3.47
271.919	3.5
272.293	3.41
272.666	3.43
273.04	3.55
273.413	3.57
273.787	3.59
274.16	3.76
274.533	3.71
274.906	3.69
275.279	3.57
275.653	3.59
276.026	3.41
276.399	3.29
276.772	3.23
277.145	3.06
277.518	3.15
277.891	3.15
278.263	3.15
278.636	3.1
279.009	2.9
279.382	3.03
279.755	2.94
280.127	3.02
280.5	3.15
280.872	3.16
281.245	3.17
281.617	3.34
281.99	3.39
282.362	3.33
282.735	3.26
283.107	3.38
283.479	3.35
283.852	3.37
284.224	3.44
284.596	3.42
284.968	3.47
285.34	3.48
285.713	3.41
286.085	3.47
286.457	3.71
286.829	3.69
287.201	3.67
287.572	3.64
287.944	3.65
288.316	3.63
288.688	3.54
289.06	3.59
289.431	3.47
289.803	3.55
290.175	3.65
290.546	3.84
290.918	3.7
291.289	3.77
291.661	3.94
292.032	4.05
292.403	4.02
292.775	4.07
293.146	4.17
293.517	4.27
293.889	4.34
294.26	4.27
294.631	4.39
295.002	4.25
295.373	4.24
295.744	4.16
296.115	4.18
296.486	4.14
296.857	4.19
297.228	4.24
297.599	4.06
297.97	4.13
298.34	4.1
298.711	4.32
299.082	4.38
299.452	4.38
299.823	4.48
300.194	4.63
300.564	4.69
300.935	4.73
301.305	4.74
301.676	4.79
302.046	4.73
302.416	4.8
302.787	4.93
303.157	5.13
303.527	5.21
303.897	5.24
304.267	5.48
304.637	5.4
305.008	5.55
305.378	5.81
305.748	5.83
306.117	5.99
306.487	5.98
306.857	6.08
307.227	6.09
307.597	6
307.967	6.07
308.336	6.1
308.706	6.1
309.076	6.08
309.445	6.05
309.815	6.18
310.184	6.19
310.554	6.3
310.923	6.29
311.293	6.29
311.662	6.28
312.031	6.22
312.401	6.36
312.77	6.47
313.139	6.52
313.508	6.56
313.877	6.55
314.246	6.6
314.616	6.49
314.985	6.62
315.353	6.64
315.722	6.73
316.091	6.68
316.46	6.68
316.829	6.73
317.198	6.79
317.567	6.9
317.935	6.86
318.304	6.92
318.672	7.07
319.041	7.3
319.41	7.37
319.778	7.52
320.147	7.6
320.515	7.45
320.883	7.44
321.252	7.69
321.62	7.7
321.988	7.77
322.357	7.89
322.725	7.98
323.093	8.25
323.461	8.38
323.829	8.53
324.197	8.44
324.565	8.55
324.933	8.63
325.301	8.61
325.669	8.72
326.037	8.71
326.405	8.74
326.772	8.83
327.14	8.94
327.508	8.87
327.875	8.87
328.243	9.03
328.61	9.11
328.978	9.14
329.346	9.25
329.713	9.06
330.08	9.15
330.448	9.14
330.815	8.91
331.182	8.81
331.55	8.8
331.917	9.01
332.284	9.14
332.651	9.13
333.018	9.16
333.385	9.17
333.752	9.2
334.119	9.17
334.486	9.09
334.853	9.01
335.22	9.11
335.587	9.15
335.954	9.14
336.32	9.14
336.687	9.09
337.054	9.08
337.42	9.26
337.787	9.34
338.153	9.24
338.52	9.46
338.886	9.41
339.253	9.5
339.619	9.55
339.986	9.42
340.352	9.59
340.718	9.68
341.084	9.76
341.451	9.82
341.817	9.94
342.183	9.97
342.549	10.12
342.915	10.17
343.281	10.21
343.647	10.18
344.013	10.19
344.379	10.16
344.745	10.22
345.11	10.22
345.476	10.2
345.842	10.21
346.208	10.13
346.573	10.18
346.939	10.2
347.304	10.08
347.67	10.23
348.035	10.14
348.401	10.17
348.766	10.14
349.132	10.04
349.497	10.02
349.862	10.12
350.228	10.07
350.593	10.1
350.958	10.17
351.323	10.25
351.688	10.24
352.053	10.35
352.418	10.33
352.783	10.43
353.148	10.45
353.513	10.54
353.878	10.6
354.243	10.64
354.608	10.69
354.972	10.73
355.337	10.67
355.702	10.74
356.066	10.72
356.431	10.66
356.795	10.8
357.16	10.73
357.524	10.62
357.889	10.61
358.253	10.57
358.618	10.54
358.982	10.54
359.346	10.45
359.71	10.38
360.075	10.3
360.439	10.19
360.803	10.18
361.167	10.13
361.531	10.05
361.895	10.02
362.259	9.91
362.623	9.96
362.987	9.92
363.351	9.79
363.714	9.75
364.078	9.69
364.442	9.6
364.806	9.57
365.169	9.49
365.533	9.42
365.896	9.34
366.26	9.28
366.623	9.18
366.987	9.16
367.35	9.09
367.714	9.07
368.077	9.03
368.44	8.91
368.803	8.83
369.167	8.76
369.53	8.68
369.893	8.66
370.256	8.56
370.619	8.46
370.982	8.42
371.345	8.36
371.708	8.37
372.071	8.29
372.434	8.19
372.797	8.19
373.159	8.14
373.522	8.11
373.885	8.06
374.247	7.94
374.61	7.87
374.973	7.82
375.335	7.82
375.698	7.77
376.06	7.74
376.423	7.69
376.785	7.65
377.147	7.6
377.51	7.58
377.872	7.55
378.234	7.59
378.596	7.52
378.958	7.43
379.321	7.33
379.683	7.3
380.045	7.29
380.407	7.23
380.769	7.18
381.13	7.1
381.492	7.01
381.854	7
382.216	6.96
382.578	6.9
382.939	6.82
383.301	6.78
383.663	6.71
384.024	6.7
384.386	6.67
384.747	6.68
385.109	6.6
385.47	6.47
385.832	6.34
386.193	6.32
386.554	6.29
386.916	6.24
387.277	6.19
387.638	6.16
387.999	6.14
388.36	6.1
388.721	6.08
389.082	6.04
389.443	5.98
389.804	5.93
390.165	5.91
390.526	5.88
390.887	5.83
391.248	5.82
391.609	5.79
391.969	5.72
392.33	5.63
392.691	5.6
393.051	5.57
393.412	5.55
393.772	5.51
394.133	5.48
394.493	5.46
394.854	5.41
395.214	5.36
395.574	5.32
395.935	5.3
396.295	5.31
396.655	5.23
397.015	5.17
397.376	5.15
397.736	5.11
398.096	5.05
398.456	5
398.816	4.95
399.176	4.86
399.535	4.83
399.895	4.81
400.255	4.76
400.615	4.74
400.975	4.71
401.334	4.65
401.694	4.6
402.054	4.55
402.413	4.5
402.773	4.44
403.132	4.39
403.492	4.34
403.851	4.27
404.211	4.28
404.57	4.28
404.929	4.25
405.288	4.23
405.648	4.21
406.007	4.23
406.366	4.19
406.725	4.18
407.084	4.2
407.443	4.17
407.802	4.18
408.161	4.16
408.52	4.12
408.879	4.12
409.238	4.14
409.596	4.14
409.955	4.15
410.314	4.16
410.673	4.15
411.031	4.12
411.39	4.1
411.748	4.07
412.107	4.05
412.465	4.02
412.824	4
413.182	3.97
413.54	3.93
413.899	3.91
414.257	3.88
414.615	3.83
414.974	3.81
415.332	3.77
415.69	3.73
416.048	3.69
416.406	3.66
416.764	3.59
417.122	3.57
417.48	3.53
417.838	3.51
418.195	3.5
418.553	3.47
418.911	3.45
419.269	3.44
419.626	3.42
419.984	3.4
420.342	3.39
420.699	3.37
421.057	3.36
421.414	3.35
421.772	3.34
422.129	3.33
422.486	3.32
422.844	3.3
423.201	3.29
423.558	3.29
423.915	3.29
424.273	3.29
424.63	3.28
424.987	3.29
425.344	3.28
425.701	3.25
426.058	3.26
426.415	3.25
426.772	3.23
427.128	3.22
427.485	3.2
427.842	3.2
428.199	3.19
428.555	3.17
428.912	3.17
429.269	3.14
429.625	3.14
429.982	3.1
430.338	3.08
430.695	3.1
431.051	3.1
431.407	3.09
431.764	3.07
432.12	3.06
432.476	3.04
432.832	3.04
433.189	3.05
433.545	3.03
433.901	3.03
434.257	3.04
434.613	3.04
434.969	3.05
435.325	3.04
435.681	3.04
436.036	3.04
436.392	3.03
436.748	3.03
437.104	3.02
437.459	3.03
437.815	3.03
438.171	3.03
438.526	3.02
438.882	3.03
439.237	3.03
439.593	3.04
439.948	3.04
440.304	3.03
440.659	3.03
441.014	3.02
441.369	3.02
441.725	3.02
442.08	3.01
442.435	2.99
442.79	2.98
443.145	2.97
443.5	2.96
443.855	2.96
444.21	2.97
444.565	2.97
444.92	2.97
445.275	2.95
445.629	2.94
445.984	2.94
446.339	2.91
446.693	2.89
447.048	2.87
447.403	2.85
447.757	2.85
448.112	2.83
448.466	2.82
448.82	2.8
449.175	2.8
449.529	2.79
449.883	2.78
450.238	2.77
450.592	2.78
450.946	2.76
451.3	2.74
451.654	2.73
452.008	2.71
452.362	2.7
452.716	2.71
453.07	2.72
453.424	2.72
453.778	2.73
454.132	2.74
454.486	2.73
454.839	2.74
455.193	2.71
455.547	2.71
455.9	2.74
456.254	2.77
456.607	2.77
456.961	2.78
457.314	2.78
457.668	2.8
458.021	2.81
458.375	2.81
458.728	2.82
459.081	2.83
459.434	2.84
459.787	2.86
460.141	2.86
460.494	2.85
460.847	2.86
461.2	2.86
461.553	2.87
461.906	2.89
462.259	2.92
462.611	2.97
462.964	2.99
463.317	3.01
463.67	2.99
464.022	3
464.375	3
464.728	3.02
465.08	3.02
465.433	3.03
465.785	3.03
466.138	3.05
466.49	3.07
466.843	3.05
467.195	3.03
467.547	3.05
467.899	3.03
468.252	3.03
468.604	3.04
468.956	3.04
469.308	3.05
469.66	3.04
470.012	3.04
470.364	3.04
470.716	3.03
471.068	3.04
471.42	3.04
471.772	3.07
472.123	3.09
472.475	3.11
472.827	3.1
473.178	3.13
473.53	3.12
473.882	3.12
474.233	3.15
474.585	3.15
474.936	3.14
475.288	3.16
475.639	3.16
475.99	3.16
476.342	3.17
476.693	3.17
477.044	3.18
477.395	3.18
477.746	3.17
478.097	3.14
478.448	3.13
478.8	3.11
479.15	3.07
479.501	3.04
479.852	3.01
480.203	3.02
480.554	3.01
480.905	3.02
481.255	3.02
481.606	3.03
481.957	3.04
482.307	3.04
482.658	3.05
483.009	3.04
483.359	3.04
483.709	3.05
484.06	3.05
484.41	3.05
484.761	3.06
485.111	3.06
485.461	3.07
485.811	3.07
486.162	3.09
486.512	3.11
486.862	3.12
487.212	3.14
487.562	3.14
487.912	3.15
488.262	3.16
488.612	3.17
488.961	3.18
489.311	3.19
489.661	3.2
490.011	3.21
490.36	3.24
490.71	3.26
491.06	3.27
491.409	3.29
491.759	3.3
492.108	3.33
492.458	3.35
492.807	3.37
493.157	3.42
493.506	3.43
493.855	3.45
494.204	3.49
494.554	3.52
494.903	3.55
495.252	3.57
495.601	3.61
495.95	3.64
496.299	3.67
496.648	3.71
496.997	3.74
497.346	3.78
497.695	3.82
498.043	3.86
498.392	3.89
498.741	3.93
499.09	3.97
499.438	4
499.787	4.04
500.135	4.09
500.484	4.13
500.832	4.17
501.181	4.23
501.529	4.27
501.878	4.35
502.226	4.41
502.574	4.45
502.923	4.51
503.271	4.57
503.619	4.64
503.967	4.73
504.315	4.8
504.663	4.87
505.011	4.95
505.359	5.01
505.707	5.11
506.055	5.18
506.403	5.25
506.751	5.32
507.098	5.4
507.446	5.48
507.794	5.55
508.141	5.65
508.489	5.74
508.837	5.83
509.184	5.91
509.531	6.01
509.879	6.14
510.226	6.23
510.574	6.34
510.921	6.43
511.268	6.52
511.616	6.63
511.963	6.77
512.31	6.87
512.657	7.01
513.004	7.14
513.351	7.29
513.698	7.44
514.045	7.58
514.392	7.73
514.739	7.91
515.086	8.08
515.432	8.24
515.779	8.38
516.126	8.54
516.473	8.69
516.819	8.85
517.166	8.99
517.512	9.13
517.859	9.3
518.205	9.45
518.552	9.59
518.898	9.74
519.245	9.88
519.591	10.02
519.937	10.15
520.283	10.32
520.629	10.48
520.976	10.67
521.322	10.87
521.668	11.08
522.014	11.26
522.36	11.48
522.706	11.7
523.052	11.93
523.398	12.19
523.743	12.43
524.089	12.68
524.435	12.94
524.781	13.2
525.126	13.4
525.472	13.61
525.817	13.81
526.163	13.99
526.509	14.16
526.854	14.33
527.199	14.5
527.545	14.64
527.89	14.8
528.235	14.96
528.581	15.14
528.926	15.28
529.271	15.47
529.616	15.62
529.961	15.8
530.306	15.98
530.651	16.16
530.996	16.39
531.341	16.6
531.686	16.8
532.031	16.99
532.376	17.2
532.721	17.43
533.065	17.66
533.41	17.89
533.755	18.14
534.099	18.39
534.444	18.65
534.788	18.9
535.133	19.17
535.477	19.43
535.822	19.69
536.166	19.99
536.51	20.29
536.855	20.61
537.199	20.93
537.543	21.26
537.887	21.57
538.231	21.86
538.576	22.19
538.92	22.51
539.264	22.83
539.608	23.16
539.951	23.47
540.295	23.73
540.639	24.03
540.983	24.29
541.327	24.54
541.671	24.78
542.014	25.02
542.358	25.25
542.701	25.48
543.045	25.68
543.389	25.94
543.732	26.15
544.075	26.42
544.419	26.67
544.762	26.94
545.105	27.24
545.449	27.55
545.792	27.85
546.135	28.18
546.478	28.52
546.821	28.86
547.165	29.16
547.508	29.5
547.851	29.81
548.194	30.16
548.536	30.53
548.879	30.85
549.222	31.22
549.565	31.58
549.908	31.93
550.25	32.31
550.593	32.66
550.936	33.06
551.278	33.42
551.621	33.8
551.963	34.16
552.306	34.46
552.648	34.79
552.991	35.17
553.333	35.42
553.675	35.76
554.017	36.04
554.36	36.36
554.702	36.66
555.044	36.99
555.386	37.33
555.728	37.65
556.07	38.02
556.412	38.33
556.754	38.64
557.096	39.01
557.438	39.33
557.78	39.64
558.121	39.97
558.463	40.31
558.805	40.59
559.147	40.87
559.488	41.2
559.83	41.46
560.171	41.68
560.513	41.99
560.854	42.31
561.196	42.57
561.537	42.84
561.878	43.11
562.22	43.36
562.561	43.49
562.902	43.7
563.243	43.92
563.584	44.15
563.925	44.37
564.266	44.57
564.607	44.82
564.948	45.07
565.289	45.29
565.63	45.5
565.971	45.7
566.312	45.97
566.653	46.15
566.993	46.34
567.334	46.57
567.675	46.76
568.015	46.97
568.356	47.21
568.696	47.41
569.037	47.57
569.377	47.76
569.718	48.05
570.058	48.29
570.398	48.52
570.739	48.72
571.079	48.95
571.419	49.11
571.759	49.32
572.099	49.44
572.439	49.56
572.779	49.69
573.119	49.9
573.459	50.07
573.799	50.26
574.139	50.46
574.479	50.66
574.819	50.83
575.158	50.92
575.498	50.95
575.838	51.12
576.177	51.33
576.517	51.55
576.856	51.66
577.196	51.79
577.535	51.96
577.875	52.12
578.214	52.28
578.553	52.47
578.893	52.62
579.232	52.85
579.571	53.01
579.91	53.19
580.25	53.33
580.589	53.51
580.928	53.65
581.267	53.72
581.606	53.87
581.945	54.07
582.283	54.28
582.622	54.54
582.961	54.7
583.3	54.87
583.639	54.95
583.977	55.14
584.316	55.21
584.654	55.29
584.993	55.47
585.332	55.57
585.67	55.56
586.008	55.65
586.347	55.65
586.685	55.79
587.024	55.88
587.362	55.95
587.7	55.96
588.038	56
588.376	56.19
588.715	56.23
589.053	56.24
589.391	56.33
589.729	56.41
590.067	56.4
590.404	56.42
590.742	56.51
591.08	56.58
591.418	56.77
591.756	56.89
592.093	56.89
592.431	56.98
592.769	57.12
593.106	57.23
593.444	57.32
593.781	57.37
594.119	57.47
594.456	57.57
594.793	57.68
595.131	57.78
595.468	57.74
595.805	57.8
596.143	57.89
596.48	57.93
596.817	57.97
597.154	58.14
597.491	58.27
597.828	58.38
598.165	58.37
598.502	58.36
598.839	58.3
599.176	58.38
599.512	58.42
599.849	58.52
600.186	58.57
600.523	58.64
600.859	58.71
601.196	58.79
601.532	58.84
601.869	58.87
602.205	58.88
602.542	59.11
602.878	59.14
603.215	59.18
603.551	59.22
603.887	59.28
604.223	59.3
604.56	59.26
604.896	59.25
605.232	59.28
605.568	59.29
605.904	59.35
606.24	59.41
606.576	59.46
606.912	59.51
607.248	59.5
607.583	59.55
607.919	59.58
608.255	59.61
608.591	59.64
608.926	59.66
609.262	59.77
609.597	59.74
609.933	59.82
610.268	59.84
610.604	59.87
610.939	59.93
611.275	59.96
611.61	60.12
611.945	60.15
612.281	60.21
612.616	60.32
612.951	60.49
613.286	60.6
613.621	60.64
613.956	60.66
614.291	60.81
614.626	60.81
614.961	60.88
615.296	60.86
615.631	60.94
615.966	61.12
616.3	61.08
616.635	61.11
616.97	61.09
617.304	61.21
617.639	61.24
617.973	61.24
618.308	61.21
618.642	61.21
618.977	61.33
619.311	61.46
619.646	61.44
619.98	61.42
620.314	61.4
620.648	61.41
620.983	61.46
621.317	61.48
621.651	61.65
621.985	61.65
622.319	61.83
622.653	61.79
622.987	61.76
623.321	61.81
623.655	61.85
623.988	62.03
624.322	62
624.656	62
624.99	62.04
625.323	62
625.657	62.04
625.99	62.02
626.324	62.05
626.657	62.05
626.991	62.11
627.324	62.07
627.658	62.17
627.991	62.22
628.324	62.25
628.657	62.18
628.991	62.26
629.324	62.28
629.657	62.33
629.99	62.29
630.323	62.31
630.656	62.3
630.989	62.24
631.322	62.27
631.655	62.4
631.987	62.42
632.32	62.49
632.653	62.42
632.986	62.42
633.318	62.32
633.651	62.43
633.984	62.47
634.316	62.63
634.649	62.63
634.981	62.69
635.313	62.61
635.646	62.71
635.978	62.63
636.31	62.52
636.643	62.46
636.975	62.53
637.307	62.56
637.639	62.58
637.971	62.48
638.303	62.52
638.635	62.43
638.967	62.5
639.299	62.49
639.631	62.53
639.963	62.58
640.295	62.73
640.626	62.75
640.958	62.73
641.29	62.75
641.621	62.76
641.953	62.68
642.285	62.69
642.616	62.61
642.948	62.66
643.279	62.79
643.61	62.91
643.942	62.98
644.273	63
644.604	63.02
644.936	63.18
645.267	63.17
645.598	63.18
645.929	63.2
646.26	63.32
646.591	63.4
646.922	63.37
647.253	63.23
647.584	63.14
647.915	63.26
648.245	63.15
648.576	63.11
648.907	63.04
649.238	63.12
649.568	63.12
649.899	63.18
650.229	63.16
650.56	63.2
650.89	63.11
651.221	63.12
651.551	63.15
651.882	63.13
652.212	63.14
652.542	63.05
652.872	62.98
653.203	62.95
653.533	62.97
653.863	63
654.193	63.09
654.523	63.16
654.853	63.01
655.183	62.97
655.513	63.03
655.843	63.14
656.172	63.13
656.502	63.32
656.832	63.29
657.162	63.27
657.491	63.25
657.821	63.32
658.15	63.4
658.48	63.34
658.809	63.28
659.139	63.28
659.468	63.36
659.798	63.46
660.127	63.38
660.456	63.28
660.785	63.41
661.115	63.47
661.444	63.55
661.773	63.67
662.102	63.68
662.431	63.59
662.76	63.6
663.089	63.61
663.418	63.44
663.747	63.46
664.076	63.48
664.404	63.46
664.733	63.37
665.062	63.37
665.39	63.44
665.719	63.46
666.048	63.46
666.376	63.42
666.705	63.51
