Data from BA28524_Reflection_00006.txt Node
Date: Tue Nov 19 11:49:44 EST 2019
User: vgr7
Spectrometer: USB2G7710
Scans to average: 3
Trigger mode: 4
Integration Time (sec): 2.000000E-2
Electric dark correction enabled: true
Boxcar width: 10
XAxis mode: Wavelengths
Number of Pixels in Spectrum: 2048
>>>>>Begin Spectral Data<<<<<
177.721	-40.85
178.105	-288.89
178.488	732.65
178.871	-2500
179.254	-33.33
179.636	1100
180.019	33.88
180.402	88.24
180.785	68
181.168	468.42
181.55	240.85
181.933	155.94
182.316	81.04
182.698	155.12
183.081	80.69
183.463	161.07
183.846	87.26
184.228	250.68
184.611	209.89
184.993	522.22
185.376	235.59
185.758	918.18
186.14	3300
186.522	8100
186.904	-3900
187.287	-258.49
187.669	-90.48
188.051	-114.72
188.433	-208.27
188.815	-141.55
189.197	-172.73
189.579	-147.52
189.961	-98.83
190.342	-63.09
190.724	-53.85
191.106	-54.3
191.488	-40.85
191.869	-68.72
192.251	-88.68
192.633	-45.73
193.014	-49.43
193.396	-123.88
193.777	-197.52
194.159	-142.94
194.54	-105.67
194.922	-79.37
195.303	-88.57
195.684	-98.35
196.065	-42.86
196.447	30.23
196.828	123.26
197.209	-22.3
197.59	-13.82
197.971	-260.66
198.352	-134.23
198.733	-367.53
199.114	-532.65
199.495	-328.57
199.876	-493.22
200.257	-449.3
200.638	-1028.21
201.018	2394.12
201.399	-533.8
201.78	-219.02
202.16	-244.83
202.541	-231.61
202.922	-1248.84
203.302	1465.85
203.683	-4633.33
204.063	3900
204.444	-578.16
204.824	-669.23
205.204	-694.87
205.585	-178.69
205.965	-118.58
206.345	-153.97
206.725	-88.94
207.106	-67.3
207.486	-100
207.866	-93.13
208.246	-48.41
208.626	-77.12
209.006	-102.17
209.386	-131.88
209.766	-124.49
210.145	-106.9
210.525	-177.42
210.905	-66.11
211.285	-25.89
211.664	8.43
212.044	-34.23
212.424	-84.57
212.803	-141.38
213.183	-161.97
213.562	-183.08
213.942	-178.55
214.321	-238.08
214.701	-297.49
215.08	-464.42
215.459	-264.62
215.838	-294.42
216.218	-269
216.597	-154.04
216.976	-135.29
217.355	-145.03
217.734	-183.29
218.113	-215.46
218.492	-159.95
218.871	-158.23
219.25	-128.14
219.629	-157.93
220.008	-120.68
220.387	-103.6
220.766	-71.07
221.144	-72.12
221.523	-71.59
221.902	-68.85
222.28	-58.49
222.659	-39.69
223.037	-39.26
223.416	-30.29
223.794	-22.85
224.173	-25.3
224.551	-25.32
224.929	-22.14
225.308	-25.49
225.686	-20.8
226.064	-18.61
226.442	-10.54
226.821	-8.18
227.199	-9.3
227.577	-3.93
227.955	-8.2
228.333	-4.19
228.711	-0.72
229.089	-0.83
229.467	3.32
229.845	3.71
230.222	8.01
230.6	8.14
230.978	8.12
231.356	7.51
231.733	5.42
232.111	4.79
232.488	3.31
232.866	1.8
233.243	3.71
233.621	4.02
233.998	4.91
234.376	1.61
234.753	-0.11
235.13	0.54
235.508	-0.06
235.885	0.02
236.262	0.72
236.639	0.12
237.016	1.2
237.393	1.64
237.77	3.15
238.147	2.98
238.524	3.32
238.901	2.24
239.278	0.38
239.655	1.05
240.032	2.07
240.409	2.05
240.785	2.65
241.162	3.23
241.539	3.25
241.915	3.48
242.292	4.09
242.668	4.46
243.045	4.15
243.421	4.52
243.798	4.99
244.174	4.9
244.551	5.12
244.927	5.08
245.303	5.08
245.679	5.2
246.056	5.49
246.432	5.78
246.808	6.2
247.184	6.69
247.56	6.71
247.936	6.37
248.312	6.52
248.688	6.64
249.064	6.76
249.44	6.56
249.815	6.46
250.191	6.34
250.567	6.15
250.943	6.4
251.318	6.47
251.694	6.3
252.069	6.29
252.445	6.49
252.82	6.89
253.196	6.42
253.571	6.78
253.947	6.34
254.322	6.14
254.697	5.95
255.073	5.92
255.448	6.15
255.823	6.29
256.198	6.03
256.573	5.93
256.948	5.65
257.323	6.18
257.698	6.27
258.073	6.2
258.448	6.31
258.823	5.96
259.198	5.78
259.573	5.63
259.948	5.76
260.322	5.33
260.697	5.25
261.072	5.46
261.446	5.26
261.821	5.23
262.195	5.14
262.57	5.22
262.944	5.26
263.319	5.2
263.693	5.01
264.067	5.05
264.442	5.03
264.816	5.05
265.19	4.6
265.564	4.44
265.938	4.49
266.313	4.22
266.687	4.42
267.061	4.35
267.435	4.55
267.809	4.39
268.183	4.66
268.556	4.69
268.93	4.78
269.304	4.6
269.678	4.66
270.051	4.68
270.425	4.51
270.799	4.31
271.172	4.25
271.546	4.37
271.919	4.43
272.293	4.61
272.666	4.59
273.04	4.67
273.413	4.63
273.787	4.5
274.16	4.44
274.533	4.56
274.906	4.59
275.279	4.44
275.653	4.32
276.026	4.27
276.399	4.33
276.772	4.12
277.145	3.97
277.518	3.88
277.891	3.93
278.263	4.18
278.636	4.22
279.009	4.36
279.382	4.3
279.755	4.37
280.127	4.26
280.5	4.38
280.872	4.45
281.245	4.55
281.617	4.65
281.99	4.99
282.362	4.93
282.735	4.97
283.107	5.15
283.479	5.33
283.852	5.4
284.224	5.34
284.596	5.41
284.968	5.47
285.34	5.43
285.713	5.41
286.085	5.29
286.457	5.28
286.829	5.26
287.201	5.29
287.572	5.25
287.944	5.31
288.316	5.24
288.688	5.4
289.06	5.27
289.431	5.24
289.803	5.23
290.175	5.21
290.546	5.26
290.918	5.29
291.289	5.3
291.661	5.2
292.032	5.02
292.403	5.02
292.775	5.2
293.146	5.5
293.517	5.5
293.889	5.4
294.26	5.46
294.631	5.44
295.002	5.5
295.373	5.63
295.744	5.52
296.115	5.58
296.486	5.47
296.857	5.55
297.228	5.55
297.599	5.37
297.97	5.27
298.34	5.26
298.711	5.17
299.082	5.08
299.452	5.11
299.823	5.13
300.194	5.19
300.564	5.12
300.935	5
301.305	4.85
301.676	4.85
302.046	4.81
302.416	4.84
302.787	4.89
303.157	4.75
303.527	4.83
303.897	4.76
304.267	4.84
304.637	4.92
305.008	4.78
305.378	5.09
305.748	5.35
306.117	5.28
306.487	5.32
306.857	5.32
307.227	5.29
307.597	5.39
307.967	5.35
308.336	5.19
308.706	5.2
309.076	5.53
309.445	5.78
309.815	5.79
310.184	5.71
310.554	5.65
310.923	5.69
311.293	5.62
311.662	5.65
312.031	5.59
312.401	5.72
312.77	5.85
313.139	5.65
313.508	5.54
313.877	5.62
314.246	5.42
314.616	5.34
314.985	5.37
315.353	5.4
315.722	5.45
316.091	5.55
316.46	5.59
316.829	5.42
317.198	5.3
317.567	5.32
317.935	5.46
318.304	5.5
318.672	5.38
319.041	5.55
319.41	5.49
319.778	5.4
320.147	5.32
320.515	5.34
320.883	5.24
321.252	5.27
321.62	5.23
321.988	5.53
322.357	5.59
322.725	5.65
323.093	5.71
323.461	5.7
323.829	5.81
324.197	5.78
324.565	5.75
324.933	5.68
325.301	5.51
325.669	5.32
326.037	5.23
326.405	5.24
326.772	5.09
327.14	4.98
327.508	5.01
327.875	4.9
328.243	4.95
328.61	5.05
328.978	4.9
329.346	4.78
329.713	4.85
330.08	4.96
330.448	4.89
330.815	4.75
331.182	4.57
331.55	4.49
331.917	4.43
332.284	4.52
332.651	4.6
333.018	4.64
333.385	4.73
333.752	4.68
334.119	4.69
334.486	4.69
334.853	4.81
335.22	4.8
335.587	4.78
335.954	4.67
336.32	4.69
336.687	4.84
337.054	4.79
337.42	4.77
337.787	4.66
338.153	4.65
338.52	4.73
338.886	4.83
339.253	4.89
339.619	4.95
339.986	4.93
340.352	4.87
340.718	4.98
341.084	4.98
341.451	5.13
341.817	5.09
342.183	5.06
342.549	5.06
342.915	5.07
343.281	4.97
343.647	5.06
344.013	5.04
344.379	4.84
344.745	5.02
345.11	4.9
345.476	4.83
345.842	4.83
346.208	4.72
346.573	4.75
346.939	4.69
347.304	4.71
347.67	4.65
348.035	4.64
348.401	4.57
348.766	4.52
349.132	4.53
349.497	4.63
349.862	4.56
350.228	4.57
350.593	4.63
350.958	4.81
351.323	4.65
351.688	4.74
352.053	4.89
352.418	4.82
352.783	4.97
353.148	5.08
353.513	5.06
353.878	5.06
354.243	4.98
354.608	5.04
354.972	4.97
355.337	5.01
355.702	5.02
356.066	5.07
356.431	5.1
356.795	5.08
357.16	5.07
357.524	5.15
357.889	5.21
358.253	5.14
358.618	5.03
358.982	5.1
359.346	5.04
359.71	5.04
360.075	5.18
360.439	5.14
360.803	5.14
361.167	5.1
361.531	5.12
361.895	5.12
362.259	5.17
362.623	5.19
362.987	5.17
363.351	5.11
363.714	5.13
364.078	5.1
364.442	5.02
364.806	5.03
365.169	5.04
365.533	4.94
365.896	5.02
366.26	5.06
366.623	5
366.987	5.04
367.35	5.02
367.714	4.97
368.077	4.96
368.44	4.96
368.803	4.94
369.167	4.91
369.53	4.94
369.893	4.88
370.256	4.89
370.619	4.85
370.982	4.85
371.345	4.91
371.708	4.93
372.071	4.9
372.434	4.85
372.797	4.81
373.159	4.85
373.522	4.79
373.885	4.77
374.247	4.84
374.61	4.79
374.973	4.8
375.335	4.74
375.698	4.74
376.06	4.74
376.423	4.78
376.785	4.81
377.147	4.85
377.51	4.83
377.872	4.82
378.234	4.84
378.596	4.88
378.958	4.81
379.321	4.84
379.683	4.91
380.045	4.9
380.407	4.93
380.769	4.92
381.13	4.92
381.492	4.94
381.854	4.92
382.216	4.99
382.578	5.01
382.939	4.95
383.301	4.93
383.663	4.93
384.024	4.94
384.386	4.95
384.747	4.9
385.109	4.85
385.47	4.87
385.832	4.87
386.193	4.91
386.554	4.91
386.916	4.92
387.277	4.93
387.638	4.97
387.999	4.97
388.36	4.97
388.721	4.94
389.082	4.98
389.443	5
389.804	5.01
390.165	4.94
390.526	4.97
390.887	4.95
391.248	4.96
391.609	4.98
391.969	4.99
392.33	4.99
392.691	5.03
393.051	4.98
393.412	4.98
393.772	4.98
394.133	4.98
394.493	4.92
394.854	4.86
395.214	4.87
395.574	4.86
395.935	4.87
396.295	4.86
396.655	4.82
397.015	4.79
397.376	4.78
397.736	4.79
398.096	4.77
398.456	4.77
398.816	4.74
399.176	4.74
399.535	4.7
399.895	4.73
400.255	4.77
400.615	4.78
400.975	4.78
401.334	4.77
401.694	4.79
402.054	4.82
402.413	4.84
402.773	4.83
403.132	4.81
403.492	4.81
403.851	4.85
404.211	4.84
404.57	4.89
404.929	4.84
405.288	4.86
405.648	4.9
406.007	4.89
406.366	4.91
406.725	4.89
407.084	4.9
407.443	4.88
407.802	4.84
408.161	4.84
408.52	4.84
408.879	4.81
409.238	4.8
409.596	4.81
409.955	4.77
410.314	4.75
410.673	4.75
411.031	4.75
411.39	4.72
411.748	4.74
412.107	4.71
412.465	4.68
412.824	4.66
413.182	4.67
413.54	4.7
413.899	4.66
414.257	4.68
414.615	4.68
414.974	4.71
415.332	4.73
415.69	4.75
416.048	4.73
416.406	4.72
416.764	4.7
417.122	4.71
417.48	4.75
417.838	4.75
418.195	4.75
418.553	4.72
418.911	4.7
419.269	4.71
419.626	4.71
419.984	4.75
420.342	4.74
420.699	4.71
421.057	4.71
421.414	4.73
421.772	4.72
422.129	4.7
422.486	4.69
422.844	4.67
423.201	4.66
423.558	4.64
423.915	4.66
424.273	4.65
424.63	4.66
424.987	4.64
425.344	4.63
425.701	4.61
426.058	4.61
426.415	4.63
426.772	4.62
427.128	4.62
427.485	4.6
427.842	4.6
428.199	4.6
428.555	4.6
428.912	4.58
429.269	4.56
429.625	4.59
429.982	4.6
430.338	4.62
430.695	4.61
431.051	4.66
431.407	4.66
431.764	4.65
432.12	4.62
432.476	4.62
432.832	4.65
433.189	4.66
433.545	4.68
433.901	4.65
434.257	4.64
434.613	4.64
434.969	4.62
435.325	4.61
435.681	4.62
436.036	4.62
436.392	4.62
436.748	4.65
437.104	4.64
437.459	4.62
437.815	4.6
438.171	4.61
438.526	4.61
438.882	4.6
439.237	4.59
439.593	4.59
439.948	4.59
440.304	4.57
440.659	4.57
441.014	4.55
441.369	4.56
441.725	4.56
442.08	4.56
442.435	4.58
442.79	4.6
443.145	4.6
443.5	4.59
443.855	4.59
444.21	4.58
444.565	4.56
444.92	4.57
445.275	4.57
445.629	4.56
445.984	4.55
446.339	4.57
446.693	4.59
447.048	4.59
447.403	4.58
447.757	4.57
448.112	4.59
448.466	4.59
448.82	4.61
449.175	4.61
449.529	4.6
449.883	4.6
450.238	4.6
450.592	4.58
450.946	4.59
451.3	4.59
451.654	4.56
452.008	4.57
452.362	4.57
452.716	4.56
453.07	4.56
453.424	4.56
453.778	4.54
454.132	4.54
454.486	4.54
454.839	4.56
455.193	4.58
455.547	4.57
455.9	4.57
456.254	4.56
456.607	4.58
456.961	4.57
457.314	4.56
457.668	4.55
458.021	4.57
458.375	4.56
458.728	4.55
459.081	4.58
459.434	4.57
459.787	4.57
460.141	4.58
460.494	4.61
460.847	4.62
461.2	4.63
461.553	4.63
461.906	4.64
462.259	4.64
462.611	4.64
462.964	4.65
463.317	4.66
463.67	4.67
464.022	4.65
464.375	4.64
464.728	4.66
465.08	4.67
465.433	4.68
465.785	4.69
466.138	4.69
466.49	4.69
466.843	4.72
467.195	4.72
467.547	4.74
467.899	4.73
468.252	4.7
468.604	4.7
468.956	4.69
469.308	4.67
469.66	4.68
470.012	4.7
470.364	4.7
470.716	4.67
471.068	4.63
471.42	4.65
471.772	4.66
472.123	4.64
472.475	4.65
472.827	4.66
473.178	4.67
473.53	4.67
473.882	4.68
474.233	4.67
474.585	4.68
474.936	4.66
475.288	4.63
475.639	4.64
475.99	4.63
476.342	4.62
476.693	4.62
477.044	4.6
477.395	4.59
477.746	4.57
478.097	4.59
478.448	4.62
478.8	4.61
479.15	4.6
479.501	4.59
479.852	4.6
480.203	4.58
480.554	4.58
480.905	4.58
481.255	4.57
481.606	4.57
481.957	4.59
482.307	4.59
482.658	4.6
483.009	4.61
483.359	4.62
483.709	4.63
484.06	4.65
484.41	4.64
484.761	4.65
485.111	4.66
485.461	4.65
485.811	4.65
486.162	4.66
486.512	4.68
486.862	4.7
487.212	4.7
487.562	4.71
487.912	4.72
488.262	4.72
488.612	4.73
488.961	4.73
489.311	4.73
489.661	4.73
490.011	4.72
490.36	4.7
490.71	4.7
491.06	4.72
491.409	4.71
491.759	4.72
492.108	4.72
492.458	4.71
492.807	4.74
493.157	4.73
493.506	4.74
493.855	4.72
494.204	4.7
494.554	4.71
494.903	4.73
495.252	4.71
495.601	4.72
495.95	4.73
496.299	4.74
496.648	4.73
496.997	4.74
497.346	4.79
497.695	4.83
498.043	4.85
498.392	4.81
498.741	4.84
499.09	4.86
499.438	4.88
499.787	4.88
500.135	4.87
500.484	4.9
500.832	4.91
501.181	4.93
501.529	4.96
501.878	4.96
502.226	4.98
502.574	5.02
502.923	5.02
503.271	5.01
503.619	5.03
503.967	5.03
504.315	5.04
504.663	5.01
505.011	5.02
505.359	5.04
505.707	5.07
506.055	5.05
506.403	5.04
506.751	5.05
507.098	5.06
507.446	5.07
507.794	5.08
508.141	5.08
508.489	5.07
508.837	5.06
509.184	5.09
509.531	5.07
509.879	5.06
510.226	5.07
510.574	5.1
510.921	5.1
511.268	5.14
511.616	5.14
511.963	5.15
512.31	5.17
512.657	5.18
513.004	5.17
513.351	5.2
513.698	5.21
514.045	5.22
514.392	5.25
514.739	5.28
515.086	5.28
515.432	5.29
515.779	5.31
516.126	5.32
516.473	5.3
516.819	5.31
517.166	5.33
517.512	5.35
517.859	5.37
518.205	5.36
518.552	5.34
518.898	5.35
519.245	5.37
519.591	5.35
519.937	5.34
520.283	5.34
520.629	5.34
520.976	5.34
521.322	5.34
521.668	5.35
522.014	5.33
522.36	5.33
522.706	5.32
523.052	5.34
523.398	5.35
523.743	5.37
524.089	5.37
524.435	5.38
524.781	5.4
525.126	5.4
525.472	5.4
525.817	5.43
526.163	5.45
526.509	5.44
526.854	5.44
527.199	5.47
527.545	5.46
527.89	5.46
528.235	5.47
528.581	5.48
528.926	5.47
529.271	5.49
529.616	5.49
529.961	5.49
530.306	5.48
530.651	5.5
530.996	5.49
531.341	5.52
531.686	5.52
532.031	5.52
532.376	5.51
532.721	5.53
533.065	5.52
533.41	5.53
533.755	5.54
534.099	5.56
534.444	5.54
534.788	5.55
535.133	5.56
535.477	5.56
535.822	5.57
536.166	5.56
536.51	5.56
536.855	5.58
537.199	5.6
537.543	5.6
537.887	5.6
538.231	5.63
538.576	5.61
538.92	5.62
539.264	5.62
539.608	5.64
539.951	5.64
540.295	5.65
540.639	5.64
540.983	5.65
541.327	5.65
541.671	5.66
542.014	5.69
542.358	5.69
542.701	5.7
543.045	5.7
543.389	5.73
543.732	5.74
544.075	5.74
544.419	5.74
544.762	5.75
545.105	5.74
545.449	5.72
545.792	5.73
546.135	5.73
546.478	5.74
546.821	5.76
547.165	5.76
547.508	5.76
547.851	5.75
548.194	5.74
548.536	5.7
548.879	5.72
549.222	5.7
549.565	5.69
549.908	5.67
550.25	5.67
550.593	5.65
550.936	5.66
551.278	5.66
551.621	5.66
551.963	5.67
552.306	5.71
552.648	5.74
552.991	5.74
553.333	5.73
553.675	5.74
554.017	5.69
554.36	5.69
554.702	5.68
555.044	5.68
555.386	5.69
555.728	5.73
556.07	5.73
556.412	5.77
556.754	5.78
557.096	5.8
557.438	5.81
557.78	5.79
558.121	5.79
558.463	5.78
558.805	5.83
559.147	5.82
559.488	5.74
559.83	5.72
560.171	5.7
560.513	5.7
560.854	5.69
561.196	5.74
561.537	5.74
561.878	5.8
562.22	5.84
562.561	5.87
562.902	5.87
563.243	5.86
563.584	5.86
563.925	5.88
564.266	5.86
564.607	5.84
564.948	5.87
565.289	5.85
565.63	5.84
565.971	5.79
566.312	5.76
566.653	5.78
566.993	5.79
567.334	5.79
567.675	5.8
568.015	5.82
568.356	5.79
568.696	5.8
569.037	5.76
569.377	5.74
569.718	5.73
570.058	5.74
570.398	5.72
570.739	5.73
571.079	5.72
571.419	5.74
571.759	5.73
572.099	5.69
572.439	5.68
572.779	5.69
573.119	5.68
573.459	5.71
573.799	5.69
574.139	5.68
574.479	5.71
574.819	5.73
575.158	5.72
575.498	5.77
575.838	5.77
576.177	5.76
576.517	5.77
576.856	5.74
577.196	5.69
577.535	5.7
577.875	5.66
578.214	5.68
578.553	5.66
578.893	5.7
579.232	5.73
579.571	5.76
579.91	5.78
580.25	5.78
580.589	5.78
580.928	5.85
581.267	5.88
581.606	5.89
581.945	5.84
582.283	5.82
582.622	5.69
582.961	5.71
583.3	5.71
583.639	5.72
583.977	5.77
584.316	5.82
584.654	5.79
584.993	5.78
585.332	5.78
585.67	5.79
586.008	5.82
586.347	5.8
586.685	5.75
587.024	5.76
587.362	5.76
587.7	5.78
588.038	5.79
588.376	5.77
588.715	5.77
589.053	5.79
589.391	5.83
589.729	5.92
590.067	5.9
590.404	5.89
590.742	5.9
591.08	5.9
591.418	5.89
591.756	5.92
592.093	5.98
592.431	6.01
592.769	6.01
593.106	5.98
593.444	6.02
593.781	6.03
594.119	6.06
594.456	6.08
594.793	6.07
595.131	6.07
595.468	6.12
595.805	6.11
596.143	6.09
596.48	6.07
596.817	6.1
597.154	6.08
597.491	6.11
597.828	6.1
598.165	6.07
598.502	6.06
598.839	6.07
599.176	6.03
599.512	5.97
599.849	5.97
600.186	5.97
600.523	5.95
600.859	5.96
601.196	5.93
601.532	5.92
601.869	5.9
602.205	5.82
602.542	5.83
602.878	5.87
603.215	5.89
603.551	5.88
603.887	5.84
604.223	5.88
604.56	5.89
604.896	5.89
605.232	5.91
605.568	5.9
605.904	5.87
606.24	5.89
606.576	5.92
606.912	5.88
607.248	5.94
607.583	5.95
607.919	5.96
608.255	5.96
608.591	6.02
608.926	6.05
609.262	6.07
609.597	6.06
609.933	6.05
610.268	6.08
610.604	6.07
610.939	6.08
611.275	6.11
611.61	6.1
611.945	6.09
612.281	6.11
612.616	6.12
612.951	6.14
613.286	6.17
613.621	6.2
613.956	6.25
614.291	6.19
614.626	6.15
614.961	6.19
615.296	6.2
615.631	6.14
615.966	6.15
616.3	6.21
616.635	6.19
616.97	6.16
617.304	6.17
617.639	6.12
617.973	6.11
618.308	6.1
618.642	6.07
618.977	6.02
619.311	5.99
619.646	6.01
619.98	6
620.314	5.99
620.648	5.95
620.983	5.98
621.317	6.03
621.651	6
621.985	5.98
622.319	6.02
622.653	6.02
622.987	5.97
623.321	6.01
623.655	6.01
623.988	6.04
624.322	6
624.656	6.05
624.99	6.05
625.323	6.01
625.657	6.1
625.99	6.13
626.324	6.15
626.657	6.16
626.991	6.23
627.324	6.23
627.658	6.26
627.991	6.27
628.324	6.22
628.657	6.23
628.991	6.21
629.324	6.22
629.657	6.23
629.99	6.26
630.323	6.2
630.656	6.2
630.989	6.23
631.322	6.24
631.655	6.23
631.987	6.26
632.32	6.25
632.653	6.17
632.986	6.16
633.318	6.18
633.651	6.19
633.984	6.14
634.316	6.11
634.649	6.1
634.981	6.09
635.313	6.04
635.646	6.1
635.978	6.1
636.31	6.08
636.643	6.11
636.975	6.17
637.307	6.2
637.639	6.17
637.971	6.1
638.303	6.09
638.635	6.11
638.967	6.01
639.299	6.05
639.631	6.1
639.963	6.14
640.295	6.12
640.626	6.15
640.958	6.19
641.29	6.22
641.621	6.19
641.953	6.16
642.285	6.26
642.616	6.28
642.948	6.35
643.279	6.26
643.61	6.25
643.942	6.17
644.273	6.09
644.604	6.09
644.936	6.08
645.267	6.08
645.598	6.09
645.929	6.2
646.26	6.13
646.591	6.18
646.922	6.17
647.253	6.19
647.584	6.12
647.915	6.12
648.245	6.08
648.576	6.09
648.907	6.08
649.238	6.03
649.568	6.03
649.899	6.03
650.229	6.21
650.56	6.19
650.89	6.28
651.221	6.36
651.551	6.39
651.882	6.45
652.212	6.48
652.542	6.51
652.872	6.42
653.203	6.42
653.533	6.39
653.863	6.41
654.193	6.39
654.523	6.39
654.853	6.38
655.183	6.41
655.513	6.46
655.843	6.47
656.172	6.55
656.502	6.47
656.832	6.41
657.162	6.31
657.491	6.35
657.821	6.3
658.15	6.31
658.48	6.38
658.809	6.4
659.139	6.41
659.468	6.4
659.798	6.47
660.127	6.51
660.456	6.48
660.785	6.43
661.115	6.39
661.444	6.42
661.773	6.44
662.102	6.38
662.431	6.3
662.76	6.27
663.089	6.26
663.418	6.34
663.747	6.31
664.076	6.27
664.404	6.29
664.733	6.29
665.062	6.27
665.39	6.21
665.719	6.11
666.048	6.01
666.376	6.03
666.705	6.02
667.033	6.04
667.362	6.02
667.69	6.08
668.018	6.17
668.347	6.17
668.675	6.14
669.003	6.21
669.331	6.3
669.659	6.27
669.987	6.25
670.315	6.16
670.643	6.17
670.971	6.25
671.299	6.2
671.627	6.27
671.955	6.27
672.283	6.21
672.61	6.29
672.938	6.43
673.266	6.36
673.593	6.26
673.921	6.24
674.249	6.27
674.576	6.31
674.904	6.27
675.231	6.25
675.558	6.3
675.886	6.29
676.213	6.3
676.54	6.36
