Data from BA28524_Reflection_00004.txt Node
Date: Tue Nov 19 11:49:39 EST 2019
User: vgr7
Spectrometer: USB2G7710
Scans to average: 3
Trigger mode: 4
Integration Time (sec): 2.000000E-2
Electric dark correction enabled: true
Boxcar width: 10
XAxis mode: Wavelengths
Number of Pixels in Spectrum: 2048
>>>>>Begin Spectral Data<<<<<
177.721	-627.7
178.105	674.07
178.488	11.56
178.871	1766.67
179.254	211.11
179.636	1552.38
180.019	97.25
180.402	-0
180.785	-17.33
181.168	424.56
181.55	118.78
181.933	116.32
182.316	44.71
182.698	79
183.081	85.84
183.463	125.45
183.846	121.23
184.228	323.74
184.611	235.53
184.993	62.96
185.376	105.65
185.758	130.3
186.14	966.67
186.522	3877.78
186.904	-166.67
187.287	-113.84
187.669	-26.98
188.051	-86.09
188.433	-113.03
188.815	-46.54
189.197	39.39
189.579	-32.01
189.961	10.33
190.342	-0.14
190.724	-32.73
191.106	-31.55
191.488	-37.72
191.869	-37.17
192.251	-78.2
192.633	-97.65
193.014	-119.67
193.396	-155.39
193.777	-266.39
194.159	-173.07
194.54	-242.79
194.922	-188.49
195.303	-284.76
195.684	-473
196.065	-474.23
196.447	-1419.38
196.828	-1582.17
197.209	-521.1
197.59	-585.64
197.971	-1266.12
198.352	-596.7
198.733	-735.5
199.114	-1110.88
199.495	-617.95
199.876	-990.4
200.257	-946.95
200.638	-1600.85
201.018	3825.49
201.399	-890.61
201.78	-313.09
202.16	-343.68
202.541	-274.78
202.922	-1186.82
203.302	1327.64
203.683	-3388.89
204.063	2722.22
204.444	-432.57
204.824	-782.05
205.204	-1113.68
205.585	-267.94
205.965	-240.62
206.345	-282.72
206.725	-242.55
207.106	-163.62
207.486	-229.29
207.866	-141.77
208.246	-67.26
208.626	-115.25
209.006	-78.1
209.386	-114.17
209.766	-125.85
210.145	-127.33
210.525	-244.09
210.905	-150.28
211.285	-81.31
211.664	-79.12
212.044	-66.29
212.424	-66.21
212.803	-48.38
213.183	-75.59
213.562	-45.64
213.942	-37.42
214.321	-82.68
214.701	-160.81
215.08	-257.87
215.459	-128.64
215.838	-144.36
216.218	-133.7
216.597	-62.43
216.976	-88.09
217.355	-97.2
217.734	-119.07
218.113	-125.03
218.492	-81.11
218.871	-85.65
219.25	-77.68
219.629	-80.41
220.008	-83.57
220.387	-78.98
220.766	-60.41
221.144	-52.68
221.523	-48.15
221.902	-56.23
222.28	-41.3
222.659	-17.79
223.037	-10.81
223.416	-15.63
223.794	-14.11
224.173	-16.68
224.551	-14.52
224.929	-12.24
225.308	-6.26
225.686	-8.17
226.064	-11.88
226.442	-12.44
226.821	-8.36
227.199	-4.9
227.577	1.25
227.955	0.96
228.333	-2.18
228.711	3.39
229.089	2.6
229.467	1.67
229.845	0.28
230.222	5.51
230.6	4.88
230.978	4.78
231.356	3.6
231.733	2.81
232.111	2.66
232.488	1.27
232.866	1.71
233.243	4.62
233.621	4.18
233.998	4.38
234.376	4.71
234.753	5.32
235.13	6.29
235.508	3.5
235.885	5.07
236.262	5.65
236.639	4.99
237.016	4.34
237.393	3.28
237.77	4.78
238.147	4.36
238.524	4.1
238.901	3.28
239.278	3.4
239.655	3.37
240.032	3.9
240.409	4.06
240.785	4.84
241.162	3.9
241.539	4.68
241.915	5.28
242.292	6
242.668	5.74
243.045	6.23
243.421	6.49
243.798	6.09
244.174	5.71
244.551	5.51
244.927	5.66
245.303	5.59
245.679	5.38
246.056	5.03
246.432	5.27
246.808	5.45
247.184	5.6
247.56	5.71
247.936	5.56
248.312	5.72
248.688	5.58
249.064	5.79
249.44	5.62
249.815	5.74
250.191	5.58
250.567	5.74
250.943	5.2
251.318	5.21
251.694	5.07
252.069	5.26
252.445	5.48
252.82	5.43
253.196	5.86
253.571	5.87
253.947	5.91
254.322	5.64
254.697	5.04
255.073	4.73
255.448	4.49
255.823	4.22
256.198	4.17
256.573	4.4
256.948	4.28
257.323	4.34
257.698	4
258.073	4.04
258.448	4.1
258.823	4.32
259.198	4.34
259.573	4.45
259.948	4.43
260.322	4.24
260.697	4.35
261.072	4.26
261.446	4.28
261.821	4.5
262.195	4.43
262.57	4.62
262.944	4.79
263.319	4.92
263.693	4.99
264.067	5.1
264.442	4.83
264.816	4.77
265.19	4.8
265.564	4.98
265.938	5.03
266.313	5.04
266.687	4.87
267.061	4.61
267.435	4.7
267.809	4.79
268.183	4.7
268.556	4.68
268.93	4.59
269.304	4.57
269.678	4.48
270.051	4.6
270.425	4.43
270.799	4.23
271.172	4.37
271.546	4.47
271.919	4.37
272.293	4.45
272.666	4.56
273.04	4.52
273.413	4.3
273.787	3.99
274.16	3.86
274.533	3.87
274.906	4.28
275.279	4.06
275.653	4.03
276.026	4.21
276.399	3.92
276.772	4.01
277.145	4.31
277.518	4.3
277.891	4.24
278.263	4.53
278.636	4.7
279.009	4.41
279.382	4.46
279.755	4.53
280.127	4.55
280.5	4.46
280.872	4.62
281.245	4.74
281.617	5.04
281.99	5.2
282.362	5.24
282.735	4.97
283.107	5
283.479	4.89
283.852	4.82
284.224	5.09
284.596	4.87
284.968	4.71
285.34	4.8
285.713	4.81
286.085	4.66
286.457	4.54
286.829	4.61
287.201	4.63
287.572	4.65
287.944	4.62
288.316	4.75
288.688	4.73
289.06	4.66
289.431	4.72
289.803	4.83
290.175	4.67
290.546	4.75
290.918	4.66
291.289	4.65
291.661	4.84
292.032	4.77
292.403	4.91
292.775	4.87
293.146	4.73
293.517	4.7
293.889	4.68
294.26	4.76
294.631	4.91
295.002	4.81
295.373	4.58
295.744	4.78
296.115	4.73
296.486	4.56
296.857	4.65
297.228	4.51
297.599	4.37
297.97	4.49
298.34	4.51
298.711	4.61
299.082	4.72
299.452	4.59
299.823	4.63
300.194	4.78
300.564	4.68
300.935	4.8
301.305	4.73
301.676	4.71
302.046	4.64
302.416	4.59
302.787	4.74
303.157	4.93
303.527	4.78
303.897	4.76
304.267	4.88
304.637	4.9
305.008	4.92
305.378	4.93
305.748	4.95
306.117	4.9
306.487	5.01
306.857	5.02
307.227	5.05
307.597	4.96
307.967	4.87
308.336	4.94
308.706	4.82
309.076	5.03
309.445	5.3
309.815	5.33
310.184	5.25
310.554	5.15
310.923	5.12
311.293	5.11
311.662	5.18
312.031	5.14
312.401	5.12
312.77	5.03
313.139	4.97
313.508	4.98
313.877	5
314.246	4.9
314.616	4.98
314.985	4.89
315.353	5.04
315.722	5.11
316.091	5.11
316.46	5.15
316.829	5.21
317.198	5.05
317.567	5.15
317.935	5.06
318.304	5.21
318.672	5.16
319.041	5.19
319.41	4.99
319.778	4.96
320.147	4.96
320.515	5.22
320.883	5.37
321.252	5.49
321.62	5.47
321.988	5.49
322.357	5.37
322.725	5.48
323.093	5.3
323.461	5.31
323.829	5.32
324.197	5.27
324.565	5.15
324.933	5.1
325.301	5.13
325.669	5.23
326.037	5.16
326.405	5.39
326.772	5.32
327.14	5.3
327.508	5.36
327.875	5.42
328.243	5.49
328.61	5.37
328.978	5.3
329.346	5.35
329.713	5.36
330.08	5.37
330.448	5.38
330.815	5.48
331.182	5.29
331.55	5.27
331.917	5.23
332.284	5.21
332.651	5.34
333.018	5.28
333.385	5.32
333.752	5.41
334.119	5.37
334.486	5.4
334.853	5.52
335.22	5.59
335.587	5.55
335.954	5.38
336.32	5.35
336.687	5.34
337.054	5.3
337.42	5.23
337.787	5.12
338.153	5.13
338.52	5.25
338.886	5.35
339.253	5.3
339.619	5.48
339.986	5.47
340.352	5.35
340.718	5.42
341.084	5.4
341.451	5.42
341.817	5.33
342.183	5.38
342.549	5.43
342.915	5.33
343.281	5.29
343.647	5.24
344.013	5.25
344.379	5.24
344.745	5.21
345.11	5.31
345.476	5.52
345.842	5.41
346.208	5.35
346.573	5.32
346.939	5.37
347.304	5.25
347.67	5.35
348.035	5.46
348.401	5.43
348.766	5.37
349.132	5.33
349.497	5.38
349.862	5.39
350.228	5.32
350.593	5.39
350.958	5.52
351.323	5.47
351.688	5.59
352.053	5.5
352.418	5.46
352.783	5.37
353.148	5.35
353.513	5.39
353.878	5.3
354.243	5.22
354.608	5.25
354.972	5.37
355.337	5.31
355.702	5.24
356.066	5.24
356.431	5.19
356.795	5.09
357.16	5.06
357.524	4.98
357.889	4.94
358.253	4.89
358.618	4.86
358.982	4.96
359.346	4.92
359.71	4.98
360.075	5.01
360.439	5.05
360.803	5.01
361.167	4.98
361.531	4.97
361.895	5.09
362.259	5.09
362.623	5.05
362.987	5.04
363.351	5.02
363.714	4.97
364.078	5.08
364.442	5.13
364.806	5.14
365.169	5.15
365.533	5.18
365.896	5.25
366.26	5.19
366.623	5.16
366.987	5.1
367.35	5.11
367.714	5.13
368.077	5.16
368.44	5.12
368.803	5.14
369.167	5.13
369.53	5.06
369.893	5.07
370.256	5.02
370.619	5.05
370.982	5.07
371.345	5.06
371.708	5
372.071	5.02
372.434	5.02
372.797	5.09
373.159	5.1
373.522	5.03
373.885	5.09
374.247	5.09
374.61	5.11
374.973	5.12
375.335	5.14
375.698	5.1
376.06	5.07
376.423	5.11
376.785	5.1
377.147	5.15
377.51	5.17
377.872	5.18
378.234	5.15
378.596	5.19
378.958	5.24
379.321	5.25
379.683	5.27
380.045	5.21
380.407	5.24
380.769	5.23
381.13	5.25
381.492	5.22
381.854	5.21
382.216	5.27
382.578	5.26
382.939	5.25
383.301	5.27
383.663	5.33
384.024	5.28
384.386	5.33
384.747	5.29
385.109	5.24
385.47	5.27
385.832	5.23
386.193	5.2
386.554	5.17
386.916	5.2
387.277	5.18
387.638	5.2
387.999	5.11
388.36	5.11
388.721	5.14
389.082	5.14
389.443	5.15
389.804	5.06
390.165	5.04
390.526	5.04
390.887	5.01
391.248	4.99
391.609	5.04
391.969	5.03
392.33	5.05
392.691	5.05
393.051	5.06
393.412	5.1
393.772	5.08
394.133	5.08
394.493	5.05
394.854	5.05
395.214	5.03
395.574	5.07
395.935	5.07
396.295	5.02
396.655	4.97
397.015	4.98
397.376	5
397.736	5.01
398.096	5
398.456	5.01
398.816	5.01
399.176	4.96
399.535	4.92
399.895	4.92
400.255	4.92
400.615	4.92
400.975	4.91
401.334	4.94
401.694	4.95
402.054	5.01
402.413	4.96
402.773	4.98
403.132	5
403.492	5
403.851	5.01
404.211	5.03
404.57	5.02
404.929	5.01
405.288	5.02
405.648	5.03
406.007	5
406.366	5.02
406.725	5.02
407.084	5.07
407.443	5.08
407.802	5.09
408.161	5.06
408.52	5.06
408.879	5.04
409.238	5.03
409.596	4.96
409.955	4.96
410.314	4.96
410.673	4.92
411.031	4.88
411.39	4.9
411.748	4.89
412.107	4.91
412.465	4.91
412.824	4.91
413.182	4.89
413.54	4.93
413.899	4.89
414.257	4.9
414.615	4.88
414.974	4.88
415.332	4.86
415.69	4.85
416.048	4.83
416.406	4.8
416.764	4.82
417.122	4.83
417.48	4.85
417.838	4.86
418.195	4.89
418.553	4.91
418.911	4.9
419.269	4.91
419.626	4.91
419.984	4.91
420.342	4.89
420.699	4.88
421.057	4.88
421.414	4.9
421.772	4.9
422.129	4.87
422.486	4.83
422.844	4.82
423.201	4.83
423.558	4.83
423.915	4.84
424.273	4.81
424.63	4.81
424.987	4.82
425.344	4.79
425.701	4.77
426.058	4.77
426.415	4.77
426.772	4.77
427.128	4.75
427.485	4.75
427.842	4.77
428.199	4.78
428.555	4.74
428.912	4.73
429.269	4.7
429.625	4.71
429.982	4.74
430.338	4.76
430.695	4.75
431.051	4.77
431.407	4.74
431.764	4.74
432.12	4.75
432.476	4.75
432.832	4.78
433.189	4.76
433.545	4.74
433.901	4.76
434.257	4.75
434.613	4.76
434.969	4.73
435.325	4.76
435.681	4.74
436.036	4.75
436.392	4.75
436.748	4.77
437.104	4.78
437.459	4.77
437.815	4.76
438.171	4.76
438.526	4.76
438.882	4.81
439.237	4.81
439.593	4.81
439.948	4.8
440.304	4.78
440.659	4.81
441.014	4.81
441.369	4.79
441.725	4.79
442.08	4.77
442.435	4.78
442.79	4.75
443.145	4.76
443.5	4.75
443.855	4.75
444.21	4.74
444.565	4.74
444.92	4.74
445.275	4.74
445.629	4.72
445.984	4.71
446.339	4.68
446.693	4.7
447.048	4.68
447.403	4.66
447.757	4.67
448.112	4.67
448.466	4.66
448.82	4.64
449.175	4.65
449.529	4.65
449.883	4.66
450.238	4.66
450.592	4.63
450.946	4.65
451.3	4.65
451.654	4.64
452.008	4.64
452.362	4.62
452.716	4.62
453.07	4.63
453.424	4.64
453.778	4.62
454.132	4.61
454.486	4.62
454.839	4.64
455.193	4.65
455.547	4.66
455.9	4.67
456.254	4.68
456.607	4.68
456.961	4.69
457.314	4.67
457.668	4.67
458.021	4.69
458.375	4.69
458.728	4.69
459.081	4.69
459.434	4.71
459.787	4.72
460.141	4.72
460.494	4.74
460.847	4.74
461.2	4.76
461.553	4.77
461.906	4.77
462.259	4.74
462.611	4.72
462.964	4.73
463.317	4.73
463.67	4.75
464.022	4.74
464.375	4.75
464.728	4.77
465.08	4.77
465.433	4.75
465.785	4.75
466.138	4.77
466.49	4.79
466.843	4.8
467.195	4.8
467.547	4.79
467.899	4.78
468.252	4.76
468.604	4.77
468.956	4.77
469.308	4.76
469.66	4.8
470.012	4.81
470.364	4.8
470.716	4.79
471.068	4.78
471.42	4.78
471.772	4.76
472.123	4.78
472.475	4.78
472.827	4.83
473.178	4.84
473.53	4.83
473.882	4.81
474.233	4.79
474.585	4.8
474.936	4.82
475.288	4.78
475.639	4.8
475.99	4.78
476.342	4.8
476.693	4.82
477.044	4.84
477.395	4.85
477.746	4.86
478.097	4.86
478.448	4.86
478.8	4.85
479.15	4.85
479.501	4.84
479.852	4.85
480.203	4.84
480.554	4.84
480.905	4.84
481.255	4.85
481.606	4.86
481.957	4.86
482.307	4.85
482.658	4.87
483.009	4.86
483.359	4.86
483.709	4.85
484.06	4.85
484.41	4.84
484.761	4.85
485.111	4.84
485.461	4.84
485.811	4.85
486.162	4.85
486.512	4.85
486.862	4.86
487.212	4.86
487.562	4.86
487.912	4.87
488.262	4.86
488.612	4.85
488.961	4.85
489.311	4.84
489.661	4.85
490.011	4.84
490.36	4.85
490.71	4.86
491.06	4.85
491.409	4.86
491.759	4.86
492.108	4.86
492.458	4.88
492.807	4.87
493.157	4.86
493.506	4.88
493.855	4.9
494.204	4.88
494.554	4.87
494.903	4.85
495.252	4.85
495.601	4.86
495.95	4.88
496.299	4.87
496.648	4.88
496.997	4.89
497.346	4.92
497.695	4.96
498.043	5
498.392	5.02
498.741	5.03
499.09	5.04
499.438	5.05
499.787	5.04
500.135	5.05
500.484	5.09
500.832	5.09
501.181	5.1
501.529	5.13
501.878	5.15
502.226	5.2
502.574	5.22
502.923	5.22
503.271	5.22
503.619	5.23
503.967	5.27
504.315	5.27
504.663	5.26
505.011	5.22
505.359	5.18
505.707	5.19
506.055	5.2
506.403	5.18
506.751	5.18
507.098	5.19
507.446	5.22
507.794	5.22
508.141	5.23
508.489	5.23
508.837	5.22
509.184	5.24
509.531	5.22
509.879	5.22
510.226	5.24
510.574	5.25
510.921	5.25
511.268	5.23
511.616	5.26
511.963	5.26
512.31	5.3
512.657	5.31
513.004	5.29
513.351	5.29
513.698	5.32
514.045	5.33
514.392	5.34
514.739	5.33
515.086	5.34
515.432	5.34
515.779	5.35
516.126	5.37
516.473	5.36
516.819	5.39
517.166	5.4
517.512	5.4
517.859	5.42
518.205	5.43
518.552	5.47
518.898	5.47
519.245	5.49
519.591	5.48
519.937	5.5
520.283	5.52
520.629	5.52
520.976	5.53
521.322	5.56
521.668	5.55
522.014	5.58
522.36	5.58
522.706	5.61
523.052	5.61
523.398	5.62
523.743	5.65
524.089	5.65
524.435	5.64
524.781	5.66
525.126	5.65
525.472	5.65
525.817	5.65
526.163	5.65
526.509	5.66
526.854	5.67
527.199	5.69
527.545	5.71
527.89	5.71
528.235	5.7
528.581	5.7
528.926	5.71
529.271	5.72
529.616	5.72
529.961	5.72
530.306	5.71
530.651	5.72
530.996	5.73
531.341	5.74
531.686	5.76
532.031	5.76
532.376	5.78
532.721	5.78
533.065	5.78
533.41	5.78
533.755	5.77
534.099	5.79
534.444	5.78
534.788	5.76
535.133	5.77
535.477	5.79
535.822	5.79
536.166	5.79
536.51	5.77
536.855	5.77
537.199	5.77
537.543	5.78
537.887	5.79
538.231	5.78
538.576	5.76
538.92	5.78
539.264	5.79
539.608	5.81
539.951	5.81
540.295	5.81
540.639	5.83
540.983	5.85
541.327	5.85
541.671	5.84
542.014	5.86
542.358	5.86
542.701	5.87
543.045	5.88
543.389	5.9
543.732	5.91
544.075	5.92
544.419	5.94
544.762	5.95
545.105	5.96
545.449	5.97
545.792	6
546.135	5.98
546.478	5.97
546.821	5.96
547.165	5.98
547.508	5.99
547.851	5.99
548.194	5.96
548.536	5.93
548.879	5.94
549.222	5.91
549.565	5.91
549.908	5.91
550.25	5.89
550.593	5.89
550.936	5.9
551.278	5.9
551.621	5.88
551.963	5.87
552.306	5.85
552.648	5.84
552.991	5.84
553.333	5.86
553.675	5.87
554.017	5.88
554.36	5.9
554.702	5.89
555.044	5.9
555.386	5.93
555.728	5.91
556.07	5.88
556.412	5.92
556.754	5.9
557.096	5.91
557.438	5.91
557.78	5.87
558.121	5.88
558.463	5.88
558.805	5.9
559.147	5.91
559.488	5.91
559.83	5.93
560.171	5.92
560.513	5.92
560.854	5.92
561.196	5.93
561.537	5.88
561.878	5.9
562.22	5.91
562.561	5.9
562.902	5.95
563.243	5.99
563.584	6
563.925	6.01
564.266	6.01
564.607	6.02
564.948	6.05
565.289	6.04
565.63	6.01
565.971	6
566.312	5.97
566.653	5.96
566.993	5.91
567.334	5.9
567.675	5.93
568.015	5.92
568.356	5.89
568.696	5.89
569.037	5.92
569.377	5.9
569.718	5.88
570.058	5.88
570.398	5.87
570.739	5.86
571.079	5.85
571.419	5.87
571.759	5.88
572.099	5.89
572.439	5.89
572.779	5.91
573.119	5.9
573.459	5.9
573.799	5.91
574.139	5.93
574.479	5.95
574.819	5.94
575.158	5.95
575.498	5.99
575.838	5.97
576.177	5.95
576.517	5.94
576.856	5.98
577.196	5.95
577.535	5.97
577.875	5.9
578.214	5.91
578.553	5.89
578.893	5.9
579.232	5.88
579.571	5.93
579.91	5.91
580.25	5.93
580.589	5.95
580.928	5.96
581.267	5.94
581.606	5.94
581.945	5.94
582.283	5.92
582.622	5.88
582.961	5.92
583.3	5.89
583.639	5.92
583.977	5.89
584.316	5.87
584.654	5.85
584.993	5.93
585.332	5.96
585.67	5.99
586.008	5.96
586.347	5.98
586.685	5.91
587.024	5.91
587.362	5.91
587.7	5.94
588.038	5.94
588.376	6.01
588.715	5.99
589.053	5.98
589.391	5.99
589.729	6.04
590.067	6.02
590.404	6.05
590.742	6.05
591.08	6.05
591.418	6.11
591.756	6.13
592.093	6.13
592.431	6.1
592.769	6.05
593.106	6.07
593.444	6.12
593.781	6.14
594.119	6.18
594.456	6.24
594.793	6.22
595.131	6.23
595.468	6.24
595.805	6.26
596.143	6.29
596.48	6.31
596.817	6.28
597.154	6.31
597.491	6.3
597.828	6.31
598.165	6.37
598.502	6.34
598.839	6.35
599.176	6.38
599.512	6.42
599.849	6.45
600.186	6.43
600.523	6.39
600.859	6.4
601.196	6.37
601.532	6.35
601.869	6.35
602.205	6.33
602.542	6.31
602.878	6.33
603.215	6.32
603.551	6.3
603.887	6.31
604.223	6.29
604.56	6.29
604.896	6.29
605.232	6.21
605.568	6.21
605.904	6.17
606.24	6.1
606.576	6.11
606.912	6.11
607.248	6.13
607.583	6.17
607.919	6.16
608.255	6.23
608.591	6.24
608.926	6.23
609.262	6.24
609.597	6.26
609.933	6.25
610.268	6.26
610.604	6.26
610.939	6.31
611.275	6.34
611.61	6.34
611.945	6.31
612.281	6.4
612.616	6.41
612.951	6.49
613.286	6.48
613.621	6.46
613.956	6.45
614.291	6.43
614.626	6.4
614.961	6.42
615.296	6.41
615.631	6.39
615.966	6.38
616.3	6.42
616.635	6.41
616.97	6.38
617.304	6.31
617.639	6.34
617.973	6.25
618.308	6.25
618.642	6.23
618.977	6.26
619.311	6.25
619.646	6.26
619.98	6.26
620.314	6.28
620.648	6.31
620.983	6.31
621.317	6.31
621.651	6.29
621.985	6.25
622.319	6.18
622.653	6.16
622.987	6.18
623.321	6.14
623.655	6.14
623.988	6.15
624.322	6.18
624.656	6.18
624.99	6.18
625.323	6.16
625.657	6.19
625.99	6.24
626.324	6.19
626.657	6.17
626.991	6.17
627.324	6.2
627.658	6.17
627.991	6.2
628.324	6.22
628.657	6.18
628.991	6.21
629.324	6.25
629.657	6.23
629.99	6.24
630.323	6.22
630.656	6.19
630.989	6.19
631.322	6.2
631.655	6.15
631.987	6.18
632.32	6.15
632.653	6.16
632.986	6.11
633.318	6.18
633.651	6.23
633.984	6.22
634.316	6.18
634.649	6.19
634.981	6.19
635.313	6.2
635.646	6.19
635.978	6.23
636.31	6.29
636.643	6.28
636.975	6.32
637.307	6.4
637.639	6.41
637.971	6.39
638.303	6.33
638.635	6.41
638.967	6.4
639.299	6.46
639.631	6.49
639.963	6.45
640.295	6.41
640.626	6.38
640.958	6.3
641.29	6.31
641.621	6.27
641.953	6.19
642.285	6.19
642.616	6.28
642.948	6.15
643.279	6.15
643.61	6.21
643.942	6.16
644.273	6.11
644.604	6.1
644.936	6.08
645.267	6.16
645.598	6.14
645.929	6.17
646.26	6.15
646.591	6.1
646.922	6.13
647.253	6.09
647.584	6.12
647.915	6.2
648.245	6.22
648.576	6.2
648.907	6.28
649.238	6.22
649.568	6.18
649.899	6.23
650.229	6.23
650.56	6.28
650.89	6.31
651.221	6.27
651.551	6.29
651.882	6.34
652.212	6.36
652.542	6.39
652.872	6.36
653.203	6.41
653.533	6.46
653.863	6.49
654.193	6.53
654.523	6.48
654.853	6.46
655.183	6.5
655.513	6.61
655.843	6.61
656.172	6.66
656.502	6.62
656.832	6.66
657.162	6.56
657.491	6.52
657.821	6.51
658.15	6.55
658.48	6.62
658.809	6.61
659.139	6.58
659.468	6.48
659.798	6.52
660.127	6.46
660.456	6.39
660.785	6.33
661.115	6.37
661.444	6.43
661.773	6.46
662.102	6.47
662.431	6.48
662.76	6.44
663.089	6.4
663.418	6.46
663.747	6.39
664.076	6.38
664.404	6.36
664.733	6.36
665.062	6.39
665.39	6.31
665.719	6.36
666.048	6.44
666.376	6.54
666.705	6.53
667.033	6.58
667.362	6.69
667.69	6.75
668.018	6.76
668.347	6.77
668.675	6.74
669.003	6.73
669.331	6.75
669.659	6.75
669.987	6.88
670.315	6.89
670.643	7.04
670.971	7.12
671.299	7.2
671.627	7.21
671.955	7.2
672.283	7.25
672.61	7.2
672.938	7.13
673.266	7.13
673.593	7.12
673.921	7.07
674.249	7.09
674.576	7.07
674.904	7.06
675.231	7.01
675.558	7
675.886	6.91
676.213	6.78
676.54	6.85
