Data from BA28473_Reflection_00006.txt Node
Date: Mon Nov 18 15:28:16 EST 2019
User: vgr7
Spectrometer: USB2G7710
Scans to average: 3
Trigger mode: 4
Integration Time (sec): 2.000000E-2
Electric dark correction enabled: true
Boxcar width: 10
XAxis mode: Wavelengths
Number of Pixels in Spectrum: 2048
>>>>>Begin Spectral Data<<<<<
177.721	-148.89
178.105	-164.81
178.488	-203.33
178.871	-311.76
179.254	-279.42
179.636	-3.93
180.019	-1212.98
180.402	150
180.785	671.43
181.168	782.69
181.55	399.56
181.933	36.48
182.316	39
182.698	31.19
183.081	24.35
183.463	43.5
183.846	49.94
184.228	32.11
184.611	2.82
184.993	4.92
185.376	-3.92
185.758	-18.88
186.14	-42.98
186.522	-38.19
186.904	-50.53
187.287	-64.87
187.669	-117.9
188.051	-76.73
188.433	-235.11
188.815	-300.47
189.197	-310.69
189.579	-289.26
189.961	-477.02
190.342	-417.32
190.724	294.23
191.106	545.43
191.488	662.33
191.869	335.88
192.251	774.09
192.633	463.94
193.014	-225.02
193.396	-319.68
193.777	-823.48
194.159	-1134.04
194.54	574.85
194.922	276.81
195.303	465.66
195.684	751.73
196.065	402.64
196.447	951.17
196.828	-5940.82
197.209	-1615.98
197.59	1303.62
197.971	481.1
198.352	200.2
198.733	224.9
199.114	92.74
199.495	83.26
199.876	75.55
200.257	73.18
200.638	61.96
201.018	46.99
201.399	58.52
201.78	32.12
202.16	25.45
202.541	8.42
202.922	-8.67
203.302	17.35
203.683	-4.7
204.063	-28.98
204.444	-8.38
204.824	8.39
205.204	10.01
205.585	11.85
205.965	15.08
206.345	22.67
206.725	21.86
207.106	41.62
207.486	-9.52
207.866	-32
208.246	18.57
208.626	-1.92
209.006	19.44
209.386	21.14
209.766	11.2
210.145	65.7
210.525	111.19
210.905	77.88
211.285	48.3
211.664	63.56
212.044	82.02
212.424	89.52
212.803	111.98
213.183	86.8
213.562	46.89
213.942	56.22
214.321	31.06
214.701	30.08
215.08	32.14
215.459	60.52
215.838	77.44
216.218	56.76
216.597	89.81
216.976	98.44
217.355	116.41
217.734	121.12
218.113	106.44
218.492	112.09
218.871	112.85
219.25	121.67
219.629	106.22
220.008	93.55
220.387	107.43
220.766	103.69
221.144	117.12
221.523	112.93
221.902	108.9
222.28	82.01
222.659	92.96
223.037	75.21
223.416	69.88
223.794	59.07
224.173	47.67
224.551	41.44
224.929	36.79
225.308	31.88
225.686	28.94
226.064	24.17
226.442	20.69
226.821	22.28
227.199	23.49
227.577	21.92
227.955	21.74
228.333	18.84
228.711	19.05
229.089	20.98
229.467	25.01
229.845	24.47
230.222	29.64
230.6	23.01
230.978	22.57
231.356	24.61
231.733	23.19
232.111	22.57
232.488	23.38
232.866	25.93
233.243	24.22
233.621	21.9
233.998	20.37
234.376	18.65
234.753	17.43
235.13	13.19
235.508	13
235.885	13.9
236.262	12.37
236.639	13.35
237.016	13.11
237.393	12.95
237.77	13.69
238.147	13.72
238.524	12.99
238.901	12.24
239.278	11.82
239.655	11.66
240.032	11.69
240.409	10.12
240.785	9.13
241.162	9.07
241.539	8.84
241.915	8.66
242.292	8.07
242.668	8.39
243.045	8.8
243.421	8.57
243.798	8.05
244.174	8.04
244.551	7.55
244.927	6.94
245.303	6.51
245.679	6.11
246.056	5.62
246.432	5.63
246.808	5.55
247.184	5.29
247.56	5.23
247.936	5
248.312	5.01
248.688	4.95
249.064	4.89
249.44	4.97
249.815	5.1
250.191	5.17
250.567	4.96
250.943	4.56
251.318	4.33
251.694	4.34
252.069	3.99
252.445	4.06
252.82	4.09
253.196	4.04
253.571	4.19
253.947	4.18
254.322	4.65
254.697	4.62
255.073	4.51
255.448	4.3
255.823	4.54
256.198	4.64
256.573	4.51
256.948	4.45
257.323	4.34
257.698	4.28
258.073	4.33
258.448	4.3
258.823	4.27
259.198	4.26
259.573	4.28
259.948	4.25
260.322	4.22
260.697	4.24
261.072	4.24
261.446	4.07
261.821	4.06
262.195	3.95
262.57	3.84
262.944	3.87
263.319	3.96
263.693	3.84
264.067	4.01
264.442	4.24
264.816	4.3
265.19	4.22
265.564	4.21
265.938	4.22
266.313	4.22
266.687	4.53
267.061	4.77
267.435	4.62
267.809	4.73
268.183	4.67
268.556	4.61
268.93	4.74
269.304	4.78
269.678	4.97
270.051	4.98
270.425	5.03
270.799	4.92
271.172	4.86
271.546	4.79
271.919	4.63
272.293	4.44
272.666	4.47
273.04	4.61
273.413	4.52
273.787	4.54
274.16	4.61
274.533	4.52
274.906	4.39
275.279	4.55
275.653	4.43
276.026	4.45
276.399	4.51
276.772	4.57
277.145	4.55
277.518	4.4
277.891	4.47
278.263	4.26
278.636	4.31
279.009	4.33
279.382	4.44
279.755	4.4
280.127	4.7
280.5	4.68
280.872	4.64
281.245	4.69
281.617	4.69
281.99	4.71
282.362	4.79
282.735	4.57
283.107	4.4
283.479	4.51
283.852	4.48
284.224	4.4
284.596	4.27
284.968	4.34
285.34	4.34
285.713	4.32
286.085	4.48
286.457	4.51
286.829	4.49
287.201	4.44
287.572	4.4
287.944	4.29
288.316	4.33
288.688	4.3
289.06	4.33
289.431	4.25
289.803	4.14
290.175	4.14
290.546	4.35
290.918	4.45
291.289	4.49
291.661	4.56
292.032	4.67
292.403	4.74
292.775	4.78
293.146	4.75
293.517	4.54
293.889	4.49
294.26	4.48
294.631	4.51
295.002	4.52
295.373	4.63
295.744	4.53
296.115	4.48
296.486	4.39
296.857	4.38
297.228	4.4
297.599	4.4
297.97	4.45
298.34	4.41
298.711	4.51
299.082	4.48
299.452	4.44
299.823	4.44
300.194	4.42
300.564	4.29
300.935	4.32
301.305	4.35
301.676	4.51
302.046	4.56
302.416	4.61
302.787	4.58
303.157	4.54
303.527	4.57
303.897	4.5
304.267	4.66
304.637	4.63
305.008	4.72
305.378	4.76
305.748	4.63
306.117	4.69
306.487	4.57
306.857	4.43
307.227	4.33
307.597	4.28
307.967	4.33
308.336	4.4
308.706	4.43
309.076	4.55
309.445	4.43
309.815	4.38
310.184	4.34
310.554	4.41
310.923	4.37
311.293	4.32
311.662	4.32
312.031	4.23
312.401	4.29
312.77	4.21
313.139	4.25
313.508	4.25
313.877	4.22
314.246	4.25
314.616	4.26
314.985	4.15
315.353	4.16
315.722	4.13
316.091	3.98
316.46	3.88
316.829	3.69
317.198	3.64
317.567	3.56
317.935	3.47
318.304	3.56
318.672	3.58
319.041	3.75
319.41	3.77
319.778	3.68
320.147	3.62
320.515	3.48
320.883	3.31
321.252	3.43
321.62	3.41
321.988	3.39
322.357	3.39
322.725	3.51
323.093	3.52
323.461	3.43
323.829	3.57
324.197	3.6
324.565	3.8
324.933	3.83
325.301	3.95
325.669	3.94
326.037	3.74
326.405	3.77
326.772	3.72
327.14	3.76
327.508	3.85
327.875	3.73
328.243	3.9
328.61	4
328.978	3.98
329.346	4.1
329.713	3.96
330.08	3.92
330.448	3.92
330.815	3.77
331.182	3.8
331.55	3.84
331.917	3.95
332.284	3.8
332.651	3.74
333.018	3.54
333.385	3.53
333.752	3.61
334.119	3.47
334.486	3.47
334.853	3.42
335.22	3.33
335.587	3.34
335.954	3.26
336.32	3.16
336.687	3.1
337.054	2.91
337.42	3.04
337.787	3.17
338.153	3.1
338.52	3.33
338.886	3.25
339.253	3.12
339.619	3.01
339.986	3.09
340.352	3.19
340.718	3.33
341.084	3.41
341.451	3.45
341.817	3.51
342.183	3.41
342.549	3.36
342.915	3.47
343.281	3.6
343.647	3.58
344.013	3.65
344.379	3.54
344.745	3.65
345.11	3.59
345.476	3.56
345.842	3.7
346.208	3.61
346.573	3.58
346.939	3.79
347.304	3.7
347.67	3.71
348.035	3.66
348.401	3.71
348.766	3.74
349.132	3.71
349.497	3.71
349.862	3.81
350.228	3.88
350.593	3.8
350.958	3.83
351.323	3.8
351.688	3.77
352.053	3.83
352.418	3.76
352.783	3.77
353.148	3.71
353.513	3.6
353.878	3.44
354.243	3.51
354.608	3.34
354.972	3.43
355.337	3.4
355.702	3.47
356.066	3.46
356.431	3.44
356.795	3.48
357.16	3.41
357.524	3.33
357.889	3.33
358.253	3.38
358.618	3.38
358.982	3.4
359.346	3.42
359.71	3.44
360.075	3.45
360.439	3.5
360.803	3.5
361.167	3.5
361.531	3.56
361.895	3.56
362.259	3.62
362.623	3.63
362.987	3.58
363.351	3.53
363.714	3.5
364.078	3.47
364.442	3.42
364.806	3.51
365.169	3.51
365.533	3.44
365.896	3.45
366.26	3.38
366.623	3.45
366.987	3.49
367.35	3.47
367.714	3.54
368.077	3.51
368.44	3.56
368.803	3.62
369.167	3.67
369.53	3.61
369.893	3.65
370.256	3.64
370.619	3.62
370.982	3.59
371.345	3.59
371.708	3.59
372.071	3.6
372.434	3.51
372.797	3.54
373.159	3.6
373.522	3.55
373.885	3.57
374.247	3.46
374.61	3.42
374.973	3.4
375.335	3.31
375.698	3.28
376.06	3.29
376.423	3.27
376.785	3.3
377.147	3.35
377.51	3.31
377.872	3.32
378.234	3.36
378.596	3.39
378.958	3.39
379.321	3.4
379.683	3.47
380.045	3.51
380.407	3.52
380.769	3.46
381.13	3.49
381.492	3.46
381.854	3.52
382.216	3.48
382.578	3.51
382.939	3.51
383.301	3.51
383.663	3.47
384.024	3.44
384.386	3.43
384.747	3.41
385.109	3.38
385.47	3.35
385.832	3.36
386.193	3.41
386.554	3.41
386.916	3.39
387.277	3.37
387.638	3.36
387.999	3.33
388.36	3.36
388.721	3.33
389.082	3.35
389.443	3.27
389.804	3.32
390.165	3.3
390.526	3.34
390.887	3.34
391.248	3.37
391.609	3.4
391.969	3.4
392.33	3.4
392.691	3.4
393.051	3.39
393.412	3.4
393.772	3.37
394.133	3.38
394.493	3.38
394.854	3.36
395.214	3.37
395.574	3.4
395.935	3.42
396.295	3.49
396.655	3.48
397.015	3.53
397.376	3.5
397.736	3.49
398.096	3.49
398.456	3.49
398.816	3.5
399.176	3.48
399.535	3.43
399.895	3.44
400.255	3.46
400.615	3.49
400.975	3.48
401.334	3.47
401.694	3.47
402.054	3.44
402.413	3.43
402.773	3.42
403.132	3.4
403.492	3.39
403.851	3.35
404.211	3.35
404.57	3.32
404.929	3.33
405.288	3.35
405.648	3.32
406.007	3.33
406.366	3.3
406.725	3.32
407.084	3.35
407.443	3.31
407.802	3.31
408.161	3.29
408.52	3.29
408.879	3.29
409.238	3.27
409.596	3.31
409.955	3.3
410.314	3.33
410.673	3.34
411.031	3.31
411.39	3.31
411.748	3.32
412.107	3.36
412.465	3.34
412.824	3.34
413.182	3.31
413.54	3.3
413.899	3.33
414.257	3.33
414.615	3.35
414.974	3.36
415.332	3.35
415.69	3.36
416.048	3.33
416.406	3.34
416.764	3.32
417.122	3.34
417.48	3.33
417.838	3.32
418.195	3.33
418.553	3.33
418.911	3.33
419.269	3.34
419.626	3.33
419.984	3.32
420.342	3.34
420.699	3.35
421.057	3.35
421.414	3.35
421.772	3.34
422.129	3.34
422.486	3.33
422.844	3.33
423.201	3.33
423.558	3.33
423.915	3.34
424.273	3.36
424.63	3.34
424.987	3.35
425.344	3.35
425.701	3.34
426.058	3.34
426.415	3.34
426.772	3.34
427.128	3.34
427.485	3.35
427.842	3.34
428.199	3.34
428.555	3.33
428.912	3.34
429.269	3.35
429.625	3.32
429.982	3.33
430.338	3.35
430.695	3.36
431.051	3.36
431.407	3.35
431.764	3.34
432.12	3.32
432.476	3.31
432.832	3.3
433.189	3.31
433.545	3.3
433.901	3.31
434.257	3.31
434.613	3.33
434.969	3.33
435.325	3.35
435.681	3.35
436.036	3.35
436.392	3.35
436.748	3.34
437.104	3.36
437.459	3.35
437.815	3.36
438.171	3.34
438.526	3.35
438.882	3.35
439.237	3.36
439.593	3.37
439.948	3.37
440.304	3.38
440.659	3.37
441.014	3.39
441.369	3.38
441.725	3.35
442.08	3.35
442.435	3.34
442.79	3.33
443.145	3.33
443.5	3.33
443.855	3.31
444.21	3.31
444.565	3.31
444.92	3.32
445.275	3.3
445.629	3.32
445.984	3.31
446.339	3.31
446.693	3.3
447.048	3.3
447.403	3.3
447.757	3.3
448.112	3.31
448.466	3.31
448.82	3.3
449.175	3.33
449.529	3.32
449.883	3.32
450.238	3.35
450.592	3.37
450.946	3.38
451.3	3.4
451.654	3.4
452.008	3.41
452.362	3.39
452.716	3.39
453.07	3.38
453.424	3.4
453.778	3.39
454.132	3.38
454.486	3.38
454.839	3.39
455.193	3.36
455.547	3.34
455.9	3.35
456.254	3.36
456.607	3.35
456.961	3.36
457.314	3.36
457.668	3.34
458.021	3.32
458.375	3.32
458.728	3.3
459.081	3.32
459.434	3.31
459.787	3.34
460.141	3.35
460.494	3.36
460.847	3.37
461.2	3.37
461.553	3.38
461.906	3.38
462.259	3.4
462.611	3.42
462.964	3.44
463.317	3.43
463.67	3.44
464.022	3.46
464.375	3.45
464.728	3.46
465.08	3.46
465.433	3.47
465.785	3.47
466.138	3.47
466.49	3.46
466.843	3.45
467.195	3.46
467.547	3.46
467.899	3.44
468.252	3.43
468.604	3.45
468.956	3.45
469.308	3.45
469.66	3.44
470.012	3.44
470.364	3.44
470.716	3.45
471.068	3.44
471.42	3.41
471.772	3.43
472.123	3.44
472.475	3.45
472.827	3.44
473.178	3.45
473.53	3.45
473.882	3.46
474.233	3.45
474.585	3.44
474.936	3.45
475.288	3.45
475.639	3.43
475.99	3.43
476.342	3.41
476.693	3.42
477.044	3.42
477.395	3.42
477.746	3.4
478.097	3.4
478.448	3.39
478.8	3.39
479.15	3.37
479.501	3.37
479.852	3.35
480.203	3.36
480.554	3.38
480.905	3.39
481.255	3.39
481.606	3.4
481.957	3.41
482.307	3.42
482.658	3.43
483.009	3.44
483.359	3.43
483.709	3.44
484.06	3.45
484.41	3.45
484.761	3.45
485.111	3.46
485.461	3.47
485.811	3.47
486.162	3.47
486.512	3.48
486.862	3.48
487.212	3.49
487.562	3.5
487.912	3.49
488.262	3.49
488.612	3.49
488.961	3.49
489.311	3.48
489.661	3.47
490.011	3.47
490.36	3.45
490.71	3.46
491.06	3.46
491.409	3.46
491.759	3.46
492.108	3.45
492.458	3.43
492.807	3.42
493.157	3.43
493.506	3.45
493.855	3.45
494.204	3.46
494.554	3.46
494.903	3.44
495.252	3.44
495.601	3.44
495.95	3.44
496.299	3.43
496.648	3.42
496.997	3.44
497.346	3.45
497.695	3.47
498.043	3.48
498.392	3.46
498.741	3.46
499.09	3.44
499.438	3.46
499.787	3.48
500.135	3.5
500.484	3.49
500.832	3.48
501.181	3.48
501.529	3.47
501.878	3.48
502.226	3.51
502.574	3.53
502.923	3.54
503.271	3.53
503.619	3.56
503.967	3.58
504.315	3.56
504.663	3.55
505.011	3.55
505.359	3.53
505.707	3.54
506.055	3.55
506.403	3.57
506.751	3.56
507.098	3.57
507.446	3.57
507.794	3.58
508.141	3.57
508.489	3.56
508.837	3.58
509.184	3.58
509.531	3.58
509.879	3.58
510.226	3.59
510.574	3.6
510.921	3.6
511.268	3.6
511.616	3.6
511.963	3.61
512.31	3.61
512.657	3.65
513.004	3.67
513.351	3.67
513.698	3.68
514.045	3.67
514.392	3.66
514.739	3.66
515.086	3.66
515.432	3.67
515.779	3.68
516.126	3.67
516.473	3.67
516.819	3.66
517.166	3.67
517.512	3.66
517.859	3.66
518.205	3.66
518.552	3.68
518.898	3.69
519.245	3.68
519.591	3.7
519.937	3.68
520.283	3.67
520.629	3.67
520.976	3.66
521.322	3.68
521.668	3.67
522.014	3.69
522.36	3.7
522.706	3.69
523.052	3.69
523.398	3.71
523.743	3.7
524.089	3.71
524.435	3.7
524.781	3.71
525.126	3.7
525.472	3.7
525.817	3.69
526.163	3.69
526.509	3.7
526.854	3.7
527.199	3.7
527.545	3.7
527.89	3.7
528.235	3.71
528.581	3.71
528.926	3.72
529.271	3.7
529.616	3.71
529.961	3.71
530.306	3.71
530.651	3.69
530.996	3.71
531.341	3.7
531.686	3.7
532.031	3.71
532.376	3.72
532.721	3.73
533.065	3.73
533.41	3.72
533.755	3.72
534.099	3.73
534.444	3.73
534.788	3.74
535.133	3.75
535.477	3.76
535.822	3.75
536.166	3.74
536.51	3.74
536.855	3.73
537.199	3.74
537.543	3.73
537.887	3.74
538.231	3.74
538.576	3.76
538.92	3.77
539.264	3.76
539.608	3.77
539.951	3.77
540.295	3.77
540.639	3.77
540.983	3.78
541.327	3.78
541.671	3.77
542.014	3.76
542.358	3.78
542.701	3.77
543.045	3.78
543.389	3.79
543.732	3.81
544.075	3.83
544.419	3.82
544.762	3.83
545.105	3.85
545.449	3.85
545.792	3.85
546.135	3.85
546.478	3.85
546.821	3.85
547.165	3.86
547.508	3.86
547.851	3.87
548.194	3.85
548.536	3.84
548.879	3.88
549.222	3.88
549.565	3.85
549.908	3.84
550.25	3.85
550.593	3.85
550.936	3.85
551.278	3.85
551.621	3.85
551.963	3.86
552.306	3.84
552.648	3.87
552.991	3.88
553.333	3.89
553.675	3.88
554.017	3.85
554.36	3.88
554.702	3.92
555.044	3.93
555.386	3.96
555.728	3.96
556.07	3.97
556.412	3.95
556.754	3.94
557.096	3.95
557.438	3.95
557.78	3.96
558.121	3.97
558.463	3.98
558.805	3.95
559.147	3.95
559.488	3.96
559.83	3.96
560.171	3.94
560.513	3.92
560.854	3.93
561.196	3.94
561.537	3.9
561.878	3.88
562.22	3.89
562.561	3.85
562.902	3.86
563.243	3.88
563.584	3.88
563.925	3.91
564.266	3.91
564.607	3.94
564.948	3.95
565.289	3.93
565.63	3.93
565.971	3.96
566.312	3.94
566.653	3.9
566.993	3.9
567.334	3.87
567.675	3.89
568.015	3.91
568.356	3.92
568.696	3.95
569.037	3.96
569.377	3.99
569.718	4.02
570.058	3.99
570.398	3.94
570.739	3.97
571.079	3.96
571.419	3.94
571.759	3.94
572.099	3.93
572.439	3.95
572.779	3.92
573.119	3.92
573.459	3.95
573.799	3.99
574.139	3.95
574.479	3.97
574.819	3.94
575.158	3.92
575.498	3.89
575.838	3.86
576.177	3.83
576.517	3.81
576.856	3.84
577.196	3.87
577.535	3.91
577.875	3.89
578.214	3.91
578.553	3.94
578.893	3.93
579.232	3.94
579.571	3.91
579.91	3.93
580.25	3.98
580.589	3.99
580.928	3.97
581.267	4
581.606	4.02
581.945	4.02
582.283	4
582.622	4.06
582.961	4.11
583.3	4.18
583.639	4.21
583.977	4.17
584.316	4.12
584.654	4.07
584.993	4.07
585.332	4.05
585.67	4.05
586.008	4.04
586.347	4.03
586.685	4.06
587.024	4.11
587.362	4.07
587.7	4.07
588.038	4.1
588.376	4.12
588.715	4.11
589.053	4.14
589.391	4.19
589.729	4.17
590.067	4.12
590.404	4.08
590.742	4.03
591.08	4.03
591.418	4.07
591.756	4.12
592.093	4.12
592.431	4.12
592.769	4.11
593.106	4.11
593.444	4.08
593.781	4.09
594.119	4.1
594.456	4.11
594.793	4.09
595.131	4.06
595.468	4.06
595.805	4.06
596.143	4.05
596.48	4.04
596.817	4.05
597.154	4.09
597.491	4.12
597.828	4.12
598.165	4.13
598.502	4.09
598.839	4.05
599.176	4.08
599.512	4.08
599.849	4.07
600.186	4.06
600.523	4.11
600.859	4.1
601.196	4.09
601.532	4.08
601.869	4.05
602.205	4.05
602.542	4.07
602.878	4.06
603.215	4.08
603.551	4.07
603.887	4.06
604.223	4.05
604.56	4.04
604.896	4.08
605.232	4.09
605.568	4.11
605.904	4.11
606.24	4.13
606.576	4.13
606.912	4.15
607.248	4.17
607.583	4.19
607.919	4.2
608.255	4.17
608.591	4.19
608.926	4.22
609.262	4.23
609.597	4.26
609.933	4.27
610.268	4.26
610.604	4.24
610.939	4.25
611.275	4.23
611.61	4.22
611.945	4.18
612.281	4.19
612.616	4.2
612.951	4.24
613.286	4.25
613.621	4.28
613.956	4.31
614.291	4.26
614.626	4.2
614.961	4.18
615.296	4.16
615.631	4.14
615.966	4.16
616.3	4.14
616.635	4.06
616.97	4.07
617.304	4.08
617.639	4.1
617.973	4.11
618.308	4.1
618.642	4.12
618.977	4.11
619.311	4.13
619.646	4.16
619.98	4.14
620.314	4.14
620.648	4.12
620.983	4.12
621.317	4.15
621.651	4.19
621.985	4.19
622.319	4.26
622.653	4.27
622.987	4.26
623.321	4.25
623.655	4.3
623.988	4.34
624.322	4.31
624.656	4.36
624.99	4.36
625.323	4.38
625.657	4.35
625.99	4.41
626.324	4.34
626.657	4.31
626.991	4.37
627.324	4.32
627.658	4.36
627.991	4.36
628.324	4.36
628.657	4.33
628.991	4.32
629.324	4.29
629.657	4.28
629.99	4.29
630.323	4.3
630.656	4.33
630.989	4.32
631.322	4.36
631.655	4.33
631.987	4.3
632.32	4.31
632.653	4.33
632.986	4.3
633.318	4.3
633.651	4.35
633.984	4.3
634.316	4.34
634.649	4.31
634.981	4.32
635.313	4.38
635.646	4.4
635.978	4.43
636.31	4.48
636.643	4.49
636.975	4.52
637.307	4.61
637.639	4.58
637.971	4.57
638.303	4.57
638.635	4.58
638.967	4.65
639.299	4.67
639.631	4.65
639.963	4.62
640.295	4.69
640.626	4.69
640.958	4.72
641.29	4.72
641.621	4.73
641.953	4.66
642.285	4.65
642.616	4.65
642.948	4.66
643.279	4.63
643.61	4.68
643.942	4.65
644.273	4.6
644.604	4.55
644.936	4.56
645.267	4.52
645.598	4.49
645.929	4.49
646.26	4.49
646.591	4.55
646.922	4.56
647.253	4.58
647.584	4.51
647.915	4.44
648.245	4.47
648.576	4.49
648.907	4.53
649.238	4.45
649.568	4.46
649.899	4.44
650.229	4.54
650.56	4.51
650.89	4.5
651.221	4.51
651.551	4.56
651.882	4.48
652.212	4.51
652.542	4.58
652.872	4.56
653.203	4.58
653.533	4.54
653.863	4.56
654.193	4.59
654.523	4.57
654.853	4.59
655.183	4.54
655.513	4.53
655.843	4.53
656.172	4.61
656.502	4.63
656.832	4.65
657.162	4.58
657.491	4.53
657.821	4.55
658.15	4.54
658.48	4.55
658.809	4.61
659.139	4.63
659.468	4.58
659.798	4.57
660.127	4.56
660.456	4.56
660.785	4.61
661.115	4.56
661.444	4.62
661.773	4.7
662.102	4.74
662.431	4.79
662.76	4.84
663.089	4.84
663.418	4.8
663.747	4.79
664.076	4.79
664.404	4.82
664.733	4.89
665.062	4.88
665.39	4.89
665.719	4.9
666.048	4.87
666.376	4.9
666.705	4.95
667.033	4.95
667.362	4.98
667.69	4.88
668.018	4.92
668.347	4.86
668.675	4.86
669.003	4.85
669.331	4.86
669.659	4.88
669.987	4.86
670.315	4.87
670.643	4.89
670.971	4.93
671.299	5.02
671.627	4.92
671.955	4.94
672.283	4.94
672.61	4.96
672.938	4.95
673.266	5
673.593	5.09
673.921	5.06
674.249	5.12
674.576	5.15
674.904	5.16
675.231	5.22
675.558	5.13
675.886	5.1
676.213	4.97
676.54	4.99
676.867	5.02
677.195	5.06
677.522	5.06
677.849	5.06
