Data from BA28473_Reflection_00007.txt Node
Date: Mon Nov 18 15:28:25 EST 2019
User: vgr7
Spectrometer: USB2G7710
Scans to average: 3
Trigger mode: 4
Integration Time (sec): 2.000000E-2
Electric dark correction enabled: true
Boxcar width: 10
XAxis mode: Wavelengths
Number of Pixels in Spectrum: 2048
>>>>>Begin Spectral Data<<<<<
177.721	203.6
178.105	190.59
178.488	179.38
178.871	339.82
179.254	241.48
179.636	501.69
180.019	1260.31
180.402	50
180.785	-1198.7
181.168	-775
181.55	-287.67
181.933	144.64
182.316	119.94
182.698	99.09
183.081	84.71
183.463	96.1
183.846	81.32
184.228	72.31
184.611	93.93
184.993	279.97
185.376	148.78
185.758	39.91
186.14	47.86
186.522	21.04
186.904	-0.72
187.287	13.59
187.669	-42.96
188.051	30.07
188.433	72.25
188.815	48.78
189.197	97.57
189.579	97.32
189.961	197.8
190.342	109.24
190.724	21.09
191.106	331.63
191.488	328.12
191.869	207.9
192.251	322.84
192.633	223.54
193.014	-56.07
193.396	-85.24
193.777	47.23
194.159	270.21
194.54	-125.35
194.922	-63.47
195.303	-116.22
195.684	-176.99
196.065	-18.51
196.447	-114.1
196.828	1895.92
197.209	407.69
197.59	-189.59
197.971	27.56
198.352	34.08
198.733	-12.72
199.114	-41.96
199.495	-21.02
199.876	-24.48
200.257	-18.26
200.638	1.54
201.018	23.21
201.399	41.41
201.78	57.89
202.16	64.34
202.541	59.42
202.922	76.18
203.302	68.65
203.683	38.33
204.063	32.58
204.444	29.87
204.824	33.5
205.204	50.51
205.585	38.29
205.965	23.76
206.345	2.26
206.725	17.21
207.106	41.62
207.486	-9.52
207.866	57.66
208.246	18.57
208.626	-29.72
209.006	-31.15
209.386	-72.92
209.766	-115.8
210.145	-154.29
210.525	-137.27
210.905	-95.66
211.285	-71.89
211.664	-56.07
212.044	-77.08
212.424	-87.71
212.803	-154.92
213.183	-136.35
213.562	-93.31
213.942	-80.72
214.321	-48.3
214.701	-42.52
215.08	-46.17
215.459	-26.19
215.838	-36.76
216.218	-37.78
216.597	-30.32
216.976	-34.79
217.355	-20.95
217.734	-19.2
218.113	-1.71
218.492	-4.36
218.871	-25.13
219.25	-20.94
219.629	-16.95
220.008	-17.2
220.387	-14.38
220.766	-17.99
221.144	-30.78
221.523	-36.1
221.902	-38.99
222.28	-42.82
222.659	-33.77
223.037	-24.33
223.416	-41.26
223.794	-30.23
224.173	-19.75
224.551	-16.56
224.929	-12.91
225.308	-13.46
225.686	-11.52
226.064	-7.65
226.442	-0.36
226.821	2.93
227.199	-2.65
227.577	-4.43
227.955	0.01
228.333	3.09
228.711	7.47
229.089	9.63
229.467	10.48
229.845	12.88
230.222	13.89
230.6	13.84
230.978	13.99
231.356	19.26
231.733	16.27
232.111	15.95
232.488	16.2
232.866	12.82
233.243	13.13
233.621	12.86
233.998	12.69
234.376	9.99
234.753	10.5
235.13	12.63
235.508	13.73
235.885	14.59
236.262	11.88
236.639	9.81
237.016	10.94
237.393	11.51
237.77	10.76
238.147	11.49
238.524	11.04
238.901	10.39
239.278	9.09
239.655	8.97
240.032	8.21
240.409	8.21
240.785	9.07
241.162	9.13
241.539	8.73
241.915	8.56
242.292	8.26
242.668	8.08
243.045	8.08
243.421	7.64
243.798	6.54
244.174	6.52
244.551	6.57
244.927	6.32
245.303	6.21
245.679	6.06
246.056	5.87
246.432	5.82
246.808	6.06
247.184	5.73
247.56	5.83
247.936	5.88
248.312	5.66
248.688	5.53
249.064	5.26
249.44	5.17
249.815	5.05
250.191	5.28
250.567	5.11
250.943	4.98
251.318	5.12
251.694	5.5
252.069	5.75
252.445	5.78
252.82	5.67
253.196	5.38
253.571	5.47
253.947	5.53
254.322	5.75
254.697	5.52
255.073	5.64
255.448	5.19
255.823	5.11
256.198	5.15
256.573	4.99
256.948	5.16
257.323	5.28
257.698	5.27
258.073	5.2
258.448	5.29
258.823	5.35
259.198	5.35
259.573	5.4
259.948	5.27
260.322	5.33
260.697	5.37
261.072	5.36
261.446	5.27
261.821	5.16
262.195	5.23
262.57	5.17
262.944	5.32
263.319	5.57
263.693	5.53
264.067	5.52
264.442	5.69
264.816	5.53
265.19	5.5
265.564	5.77
265.938	5.62
266.313	5.73
266.687	5.76
267.061	5.75
267.435	5.7
267.809	5.75
268.183	5.71
268.556	5.6
268.93	5.79
269.304	5.76
269.678	5.87
270.051	5.57
270.425	5.68
270.799	5.59
271.172	5.51
271.546	5.48
271.919	5.58
272.293	5.47
272.666	5.54
273.04	5.55
273.413	5.38
273.787	5.33
274.16	5.19
274.533	4.99
274.906	4.91
275.279	4.8
275.653	4.75
276.026	4.55
276.399	4.42
276.772	4.4
277.145	4.32
277.518	4.27
277.891	4.49
278.263	4.34
278.636	4.38
279.009	4.52
279.382	4.73
279.755	4.69
280.127	4.86
280.5	4.89
280.872	5.09
281.245	5.07
281.617	5.27
281.99	5.5
282.362	5.73
282.735	5.54
283.107	5.59
283.479	5.61
283.852	5.81
284.224	6.04
284.596	5.96
284.968	6.05
285.34	6.16
285.713	6.1
286.085	6.13
286.457	6.19
286.829	6.06
287.201	5.94
287.572	6.01
287.944	5.82
288.316	5.83
288.688	5.77
289.06	5.76
289.431	5.77
289.803	5.75
290.175	5.66
290.546	5.95
290.918	6.03
291.289	6.01
291.661	6.06
292.032	6.11
292.403	6.19
292.775	6.36
293.146	6.28
293.517	6.21
293.889	6.36
294.26	6.38
294.631	6.44
295.002	6.57
295.373	6.52
295.744	6.8
296.115	6.83
296.486	6.71
296.857	6.77
297.228	6.71
297.599	6.6
297.97	6.71
298.34	6.75
298.711	6.77
299.082	6.86
299.452	6.78
299.823	6.76
300.194	6.71
300.564	6.66
300.935	6.75
301.305	6.88
301.676	6.99
302.046	6.98
302.416	7.23
302.787	7.29
303.157	7.47
303.527	7.27
303.897	7.29
304.267	7.58
304.637	7.66
305.008	7.84
305.378	8.15
305.748	8.21
306.117	8.17
306.487	8.16
306.857	8.33
307.227	8.52
307.597	8.58
307.967	8.86
308.336	8.85
308.706	8.82
309.076	8.77
309.445	8.79
309.815	8.78
310.184	8.67
310.554	8.77
310.923	8.7
311.293	8.84
311.662	8.9
312.031	8.86
312.401	8.9
312.77	9.13
313.139	9.07
313.508	9.15
313.877	9.23
314.246	9.47
314.616	9.38
314.985	9.28
315.353	9.45
315.722	9.44
316.091	9.5
316.46	9.57
316.829	9.75
317.198	9.72
317.567	9.89
317.935	9.95
318.304	9.92
318.672	10.08
319.041	10.21
319.41	10.43
319.778	10.57
320.147	10.67
320.515	10.4
320.883	10.36
321.252	10.43
321.62	10.46
321.988	10.43
322.357	10.55
322.725	10.71
323.093	10.73
323.461	10.76
323.829	10.81
324.197	10.94
324.565	11.11
324.933	11.11
325.301	11.2
325.669	11.35
326.037	11.44
326.405	11.49
326.772	11.61
327.14	11.68
327.508	11.77
327.875	11.76
328.243	11.96
328.61	12.17
328.978	12.24
329.346	12.48
329.713	12.46
330.08	12.6
330.448	12.62
330.815	12.42
331.182	12.41
331.55	12.63
331.917	12.61
332.284	12.59
332.651	12.67
333.018	12.69
333.385	12.6
333.752	12.65
334.119	12.64
334.486	12.61
334.853	12.5
335.22	12.49
335.587	12.63
335.954	12.57
336.32	12.54
336.687	12.57
337.054	12.51
337.42	12.6
337.787	12.67
338.153	12.73
338.52	12.88
338.886	12.96
339.253	12.99
339.619	13.14
339.986	13.09
340.352	13.11
340.718	13.12
341.084	13.16
341.451	13.14
341.817	13.24
342.183	13.18
342.549	13.2
342.915	13.24
343.281	13.25
343.647	13.18
344.013	13.26
344.379	13.1
344.745	13.03
345.11	13.06
345.476	12.95
345.842	13.04
346.208	13.07
346.573	13.09
346.939	13.15
347.304	13.13
347.67	13.1
348.035	13.15
348.401	13.19
348.766	13.31
349.132	13.36
349.497	13.26
349.862	13.45
350.228	13.53
350.593	13.46
350.958	13.46
351.323	13.6
351.688	13.54
352.053	13.73
352.418	13.85
352.783	13.89
353.148	13.93
353.513	13.93
353.878	13.94
354.243	13.95
354.608	13.89
354.972	13.91
355.337	14.08
355.702	14.02
356.066	14.05
356.431	14.07
356.795	14.14
357.16	14.2
357.524	14.14
357.889	14.13
358.253	14.17
358.618	14.26
358.982	14.29
359.346	14.23
359.71	14.21
360.075	14.15
360.439	14.1
360.803	14.14
361.167	14.11
361.531	14.09
361.895	14.11
362.259	14.04
362.623	14.06
362.987	14.02
363.351	14.08
363.714	14.11
364.078	14.07
364.442	13.97
364.806	13.95
365.169	13.88
365.533	13.89
365.896	13.89
366.26	13.78
366.623	13.74
366.987	13.79
367.35	13.8
367.714	13.79
368.077	13.76
368.44	13.69
368.803	13.66
369.167	13.57
369.53	13.42
369.893	13.48
370.256	13.45
370.619	13.43
370.982	13.35
371.345	13.27
371.708	13.25
372.071	13.25
372.434	13.18
372.797	13.16
373.159	13.07
373.522	13.01
373.885	12.98
374.247	12.98
374.61	12.85
374.973	12.7
375.335	12.67
375.698	12.7
376.06	12.63
376.423	12.64
376.785	12.67
377.147	12.66
377.51	12.57
377.872	12.54
378.234	12.45
378.596	12.46
378.958	12.36
379.321	12.22
379.683	12.23
380.045	12.17
380.407	12.09
380.769	12.06
381.13	12.02
381.492	11.95
381.854	11.85
382.216	11.87
382.578	11.89
382.939	11.84
383.301	11.71
383.663	11.68
384.024	11.57
384.386	11.56
384.747	11.59
385.109	11.55
385.47	11.51
385.832	11.5
386.193	11.44
386.554	11.44
386.916	11.44
387.277	11.38
387.638	11.42
387.999	11.45
388.36	11.37
388.721	11.33
389.082	11.29
389.443	11.26
389.804	11.23
390.165	11.18
390.526	11.11
390.887	11.07
391.248	11.04
391.609	11.01
391.969	10.92
392.33	10.8
392.691	10.76
393.051	10.67
393.412	10.58
393.772	10.48
394.133	10.46
394.493	10.37
394.854	10.29
395.214	10.2
395.574	10.11
395.935	10.08
396.295	10.03
396.655	10
397.015	9.93
397.376	9.85
397.736	9.76
398.096	9.76
398.456	9.74
398.816	9.66
399.176	9.56
399.535	9.5
399.895	9.46
400.255	9.43
400.615	9.35
400.975	9.32
401.334	9.27
401.694	9.17
402.054	9.1
402.413	9.08
402.773	9.02
403.132	8.98
403.492	8.97
403.851	8.93
404.211	8.89
404.57	8.83
404.929	8.79
405.288	8.76
405.648	8.69
406.007	8.66
406.366	8.64
406.725	8.67
407.084	8.67
407.443	8.66
407.802	8.61
408.161	8.63
408.52	8.56
408.879	8.56
409.238	8.56
409.596	8.6
409.955	8.58
410.314	8.57
410.673	8.52
411.031	8.49
411.39	8.47
411.748	8.45
412.107	8.47
412.465	8.45
412.824	8.45
413.182	8.4
413.54	8.36
413.899	8.35
414.257	8.3
414.615	8.23
414.974	8.21
415.332	8.16
415.69	8.1
416.048	8.09
416.406	8.05
416.764	8.01
417.122	7.95
417.48	7.91
417.838	7.88
418.195	7.86
418.553	7.81
418.911	7.77
419.269	7.75
419.626	7.71
419.984	7.69
420.342	7.65
420.699	7.65
421.057	7.62
421.414	7.58
421.772	7.56
422.129	7.55
422.486	7.51
422.844	7.51
423.201	7.48
423.558	7.47
423.915	7.44
424.273	7.44
424.63	7.43
424.987	7.41
425.344	7.42
425.701	7.39
426.058	7.37
426.415	7.35
426.772	7.31
427.128	7.28
427.485	7.27
427.842	7.24
428.199	7.22
428.555	7.19
428.912	7.18
429.269	7.16
429.625	7.14
429.982	7.14
430.338	7.11
430.695	7.1
431.051	7.08
431.407	7.08
431.764	7.04
432.12	7.02
432.476	7.04
432.832	7.02
433.189	7.03
433.545	7.03
433.901	7.03
434.257	7.05
434.613	7.08
434.969	7.07
435.325	7.09
435.681	7.09
436.036	7.08
436.392	7.1
436.748	7.09
437.104	7.09
437.459	7.09
437.815	7.1
438.171	7.11
438.526	7.12
438.882	7.11
439.237	7.09
439.593	7.09
439.948	7.07
440.304	7.07
440.659	7.08
441.014	7.11
441.369	7.08
441.725	7.07
442.08	7.05
442.435	7.04
442.79	7.03
443.145	7.02
443.5	7.01
443.855	6.96
444.21	6.95
444.565	6.95
444.92	6.93
445.275	6.89
445.629	6.88
445.984	6.86
446.339	6.83
446.693	6.83
447.048	6.81
447.403	6.78
447.757	6.77
448.112	6.73
448.466	6.69
448.82	6.69
449.175	6.66
449.529	6.63
449.883	6.62
450.238	6.61
450.592	6.6
450.946	6.56
451.3	6.57
451.654	6.56
452.008	6.55
452.362	6.5
452.716	6.51
453.07	6.5
453.424	6.5
453.778	6.51
454.132	6.5
454.486	6.49
454.839	6.49
455.193	6.46
455.547	6.45
455.9	6.45
456.254	6.45
456.607	6.45
456.961	6.45
457.314	6.46
457.668	6.46
458.021	6.44
458.375	6.47
458.728	6.47
459.081	6.49
459.434	6.48
459.787	6.52
460.141	6.49
460.494	6.51
460.847	6.51
461.2	6.5
461.553	6.52
461.906	6.54
462.259	6.56
462.611	6.59
462.964	6.62
463.317	6.64
463.67	6.65
464.022	6.67
464.375	6.69
464.728	6.7
465.08	6.7
465.433	6.74
465.785	6.77
466.138	6.78
466.49	6.78
466.843	6.82
467.195	6.84
467.547	6.89
467.899	6.9
468.252	6.91
468.604	6.94
468.956	6.96
469.308	6.98
469.66	6.97
470.012	6.98
470.364	6.99
470.716	7.02
471.068	7.06
471.42	7.1
471.772	7.14
472.123	7.16
472.475	7.18
472.827	7.21
473.178	7.23
473.53	7.24
473.882	7.26
474.233	7.26
474.585	7.26
474.936	7.27
475.288	7.28
475.639	7.31
475.99	7.3
476.342	7.3
476.693	7.31
477.044	7.35
477.395	7.32
477.746	7.33
478.097	7.3
478.448	7.28
478.8	7.24
479.15	7.22
479.501	7.19
479.852	7.16
480.203	7.12
480.554	7.12
480.905	7.12
481.255	7.12
481.606	7.13
481.957	7.14
482.307	7.13
482.658	7.12
483.009	7.11
483.359	7.11
483.709	7.12
484.06	7.09
484.41	7.1
484.761	7.1
485.111	7.11
485.461	7.11
485.811	7.11
486.162	7.12
486.512	7.12
486.862	7.12
487.212	7.13
487.562	7.14
487.912	7.14
488.262	7.14
488.612	7.14
488.961	7.15
489.311	7.15
489.661	7.14
490.011	7.16
490.36	7.17
490.71	7.18
491.06	7.18
491.409	7.21
491.759	7.21
492.108	7.22
492.458	7.23
492.807	7.25
493.157	7.28
493.506	7.31
493.855	7.35
494.204	7.4
494.554	7.45
494.903	7.46
495.252	7.5
495.601	7.54
495.95	7.6
496.299	7.64
496.648	7.68
496.997	7.76
497.346	7.83
497.695	7.87
498.043	7.91
498.392	7.98
498.741	8.07
499.09	8.15
499.438	8.2
499.787	8.3
500.135	8.37
500.484	8.44
500.832	8.52
501.181	8.61
501.529	8.67
501.878	8.75
502.226	8.86
502.574	8.96
502.923	9.05
503.271	9.11
503.619	9.23
503.967	9.35
504.315	9.48
504.663	9.6
505.011	9.73
505.359	9.84
505.707	9.97
506.055	10.07
506.403	10.16
506.751	10.3
507.098	10.38
507.446	10.49
507.794	10.59
508.141	10.72
508.489	10.82
508.837	10.94
509.184	11.06
509.531	11.19
509.879	11.32
510.226	11.47
510.574	11.59
510.921	11.7
511.268	11.78
511.616	11.89
511.963	12.03
512.31	12.15
512.657	12.32
513.004	12.46
513.351	12.6
513.698	12.76
514.045	12.92
514.392	13.07
514.739	13.24
515.086	13.42
515.432	13.55
515.779	13.72
516.126	13.89
516.473	14.03
516.819	14.15
517.166	14.28
517.512	14.39
517.859	14.53
518.205	14.65
518.552	14.8
518.898	14.92
519.245	15.01
519.591	15.14
519.937	15.26
520.283	15.38
520.629	15.56
520.976	15.72
521.322	15.88
521.668	16.07
522.014	16.26
522.36	16.46
522.706	16.67
523.052	16.88
523.398	17.11
523.743	17.35
524.089	17.59
524.435	17.84
524.781	18.08
525.126	18.29
525.472	18.48
525.817	18.7
526.163	18.89
526.509	19.06
526.854	19.23
527.199	19.39
527.545	19.57
527.89	19.71
528.235	19.86
528.581	20.01
528.926	20.17
529.271	20.32
529.616	20.48
529.961	20.63
530.306	20.79
530.651	20.98
530.996	21.17
531.341	21.38
531.686	21.59
532.031	21.81
532.376	22.05
532.721	22.3
533.065	22.51
533.41	22.74
533.755	22.99
534.099	23.24
534.444	23.5
534.788	23.71
535.133	23.95
535.477	24.23
535.822	24.51
536.166	24.81
536.51	25.11
536.855	25.46
537.199	25.83
537.543	26.16
537.887	26.5
538.231	26.85
538.576	27.19
538.92	27.53
539.264	27.84
539.608	28.17
539.951	28.47
540.295	28.76
540.639	29.02
540.983	29.28
541.327	29.55
541.671	29.79
542.014	30.04
542.358	30.31
542.701	30.54
543.045	30.78
543.389	31.05
543.732	31.33
544.075	31.58
544.419	31.81
544.762	32.09
545.105	32.36
545.449	32.63
545.792	32.95
546.135	33.24
546.478	33.56
546.821	33.89
547.165	34.17
547.508	34.53
547.851	34.9
548.194	35.26
548.536	35.61
548.879	35.98
549.222	36.36
549.565	36.69
549.908	37.09
550.25	37.43
550.593	37.79
550.936	38.13
551.278	38.4
551.621	38.79
551.963	39.2
552.306	39.55
552.648	39.95
552.991	40.23
553.333	40.58
553.675	40.91
554.017	41.18
554.36	41.51
554.702	41.76
555.044	42.08
555.386	42.35
555.728	42.67
556.07	42.95
556.412	43.25
556.754	43.57
557.096	43.88
557.438	44.16
557.78	44.45
558.121	44.71
558.463	45.08
558.805	45.32
559.147	45.54
559.488	45.81
559.83	46.08
560.171	46.32
560.513	46.64
560.854	46.83
561.196	47.11
561.537	47.42
561.878	47.68
562.22	47.96
562.561	48.25
562.902	48.47
563.243	48.72
563.584	48.91
563.925	49.17
564.266	49.37
564.607	49.65
564.948	49.83
565.289	50.04
565.63	50.23
565.971	50.45
566.312	50.66
566.653	50.87
566.993	50.98
567.334	51.18
567.675	51.3
568.015	51.54
568.356	51.71
568.696	51.81
569.037	51.96
569.377	52.1
569.718	52.2
570.058	52.41
570.398	52.52
570.739	52.77
571.079	52.9
571.419	53.02
571.759	53.12
572.099	53.25
572.439	53.41
572.779	53.52
573.119	53.66
573.459	53.82
573.799	53.99
574.139	54.13
574.479	54.31
574.819	54.45
575.158	54.54
575.498	54.66
575.838	54.84
576.177	55.03
576.517	55.17
576.856	55.4
577.196	55.52
577.535	55.69
577.875	55.74
578.214	55.86
578.553	56.05
578.893	56.2
579.232	56.31
579.571	56.38
579.91	56.52
580.25	56.66
580.589	56.76
580.928	56.87
581.267	57.04
581.606	57.06
581.945	57.19
582.283	57.39
582.622	57.52
582.961	57.55
583.3	57.57
583.639	57.63
583.977	57.72
584.316	57.84
584.654	57.94
584.993	58.03
585.332	58.12
585.67	58.16
586.008	58.31
586.347	58.5
586.685	58.62
587.024	58.78
587.362	58.9
587.7	58.91
588.038	58.94
588.376	58.98
588.715	59.13
589.053	59.18
589.391	59.27
589.729	59.41
590.067	59.39
590.404	59.5
590.742	59.52
591.08	59.56
591.418	59.6
591.756	59.71
592.093	59.82
592.431	59.95
592.769	60.06
593.106	60.14
593.444	60.14
593.781	60.24
594.119	60.23
594.456	60.33
594.793	60.34
595.131	60.47
595.468	60.51
595.805	60.49
596.143	60.52
596.48	60.49
596.817	60.52
597.154	60.7
597.491	60.78
597.828	60.84
598.165	60.86
598.502	60.9
598.839	60.89
599.176	60.95
599.512	61
599.849	61
600.186	61.1
600.523	61.14
600.859	61.2
601.196	61.28
601.532	61.33
601.869	61.5
602.205	61.49
602.542	61.6
602.878	61.7
603.215	61.7
603.551	61.71
603.887	61.77
604.223	61.8
604.56	61.85
604.896	61.85
605.232	61.87
605.568	61.9
605.904	62.05
606.24	62.03
606.576	62.1
606.912	62.14
607.248	62.03
607.583	62.13
607.919	62.16
608.255	62.22
608.591	62.22
608.926	62.26
609.262	62.34
609.597	62.42
609.933	62.44
610.268	62.53
610.604	62.63
610.939	62.64
611.275	62.62
611.61	62.65
611.945	62.81
612.281	62.88
612.616	62.89
612.951	62.8
613.286	62.87
613.621	62.91
613.956	63.06
614.291	63.13
614.626	63.1
614.961	63.1
615.296	63.14
615.631	63.14
615.966	63.18
616.3	63.17
616.635	63.24
616.97	63.38
617.304	63.43
617.639	63.5
617.973	63.49
618.308	63.6
618.642	63.71
618.977	63.72
619.311	63.85
619.646	63.86
619.98	63.97
620.314	64.1
620.648	64.04
620.983	63.99
621.317	64.05
621.651	64.11
621.985	64.15
622.319	64.19
622.653	64.33
622.987	64.33
623.321	64.26
623.655	64.2
623.988	64.18
624.322	64.19
624.656	64.24
624.99	64.3
625.323	64.29
625.657	64.25
625.99	64.25
626.324	64.17
626.657	64.24
626.991	64.22
627.324	64.12
627.658	64.16
627.991	64.26
628.324	64.35
628.657	64.43
628.991	64.46
629.324	64.52
629.657	64.51
629.99	64.58
630.323	64.69
630.656	64.73
630.989	64.69
631.322	64.71
631.655	64.74
631.987	64.73
632.32	64.89
632.653	64.9
632.986	64.98
633.318	65.14
633.651	65.17
633.984	65.26
634.316	65.38
634.649	65.28
634.981	65.15
635.313	65.13
635.646	65.14
635.978	65.21
636.31	65.17
636.643	65.16
636.975	65.17
637.307	65.22
637.639	65.27
637.971	65.37
638.303	65.41
638.635	65.48
638.967	65.51
639.299	65.44
639.631	65.34
639.963	65.34
640.295	65.36
640.626	65.29
640.958	65.23
641.29	65.22
641.621	65.46
641.953	65.66
642.285	65.64
642.616	65.7
642.948	65.76
643.279	65.69
643.61	65.78
643.942	65.67
644.273	65.65
644.604	65.67
644.936	65.61
645.267	65.69
645.598	65.7
645.929	65.7
646.26	65.74
646.591	65.87
646.922	65.79
647.253	65.73
647.584	65.93
647.915	65.96
648.245	66.05
648.576	65.93
648.907	65.89
649.238	65.94
649.568	65.84
649.899	65.82
650.229	65.97
650.56	65.96
650.89	66.06
651.221	66.04
651.551	65.97
651.882	65.94
652.212	65.87
652.542	65.8
652.872	65.77
653.203	65.79
653.533	65.85
653.863	65.92
654.193	66.03
654.523	66.03
654.853	66.11
655.183	66.06
655.513	66.15
655.843	66.26
656.172	66.38
656.502	66.47
656.832	66.54
657.162	66.5
657.491	66.48
657.821	66.46
658.15	66.48
658.48	66.64
658.809	66.85
659.139	66.87
659.468	66.87
659.798	66.91
660.127	66.83
660.456	66.77
660.785	66.91
661.115	66.78
661.444	66.8
