Data from BA28468_Reflection_00004.txt Node
Date: Mon Nov 18 15:14:46 EST 2019
User: vgr7
Spectrometer: USB2G7710
Scans to average: 3
Trigger mode: 4
Integration Time (sec): 2.000000E-2
Electric dark correction enabled: true
Boxcar width: 10
XAxis mode: Wavelengths
Number of Pixels in Spectrum: 2048
>>>>>Begin Spectral Data<<<<<
177.721	-10.28
178.105	-3757.14
178.488	145.42
178.871	319.67
179.254	194.62
179.636	-1242.11
180.019	242.49
180.402	81.82
180.785	213.67
181.168	46.13
181.55	-50.78
181.933	-1558.82
182.316	-437.66
182.698	-367.78
183.081	-184.67
183.463	-64.84
183.846	-6130.77
184.228	-794.04
184.611	-266.37
184.993	-167.38
185.376	-124.95
185.758	-113.04
186.14	-125.57
186.522	-173.34
186.904	-137.3
187.287	-147.94
187.669	-105.23
188.051	-102.32
188.433	-70.19
188.815	-69.24
189.197	-74.34
189.579	-63.64
189.961	-93.8
190.342	-80.89
190.724	-49.18
191.106	-48.92
191.488	-71.28
191.869	-65.59
192.251	-74.28
192.633	-58.55
193.014	-56.58
193.396	-64.34
193.777	-49.24
194.159	-52.24
194.54	-51.32
194.922	-54.16
195.303	-48.99
195.684	-39.3
196.065	-23.38
196.447	-18.24
196.828	-19.5
197.209	-14.98
197.59	-13.32
197.971	-4.15
198.352	2.23
198.733	-7.36
199.114	-5.17
199.495	-3.54
199.876	2.15
200.257	0.02
200.638	-7.46
201.018	-15.52
201.399	-17.54
201.78	-18.29
202.16	-27.56
202.541	-40.47
202.922	-48.46
203.302	-64.42
203.683	-70.88
204.063	-105.98
204.444	-119.8
204.824	-110.14
205.204	-117.48
205.585	-117.81
205.965	-101.9
206.345	-109.99
206.725	-138.78
207.106	-152.8
207.486	-158.07
207.866	-160.2
208.246	-135.28
208.626	-138.35
209.006	-107.42
209.386	-118.74
209.766	-128.28
210.145	-131.48
210.525	-94.64
210.905	-93.71
211.285	-66.84
211.664	-60.7
212.044	-59.75
212.424	-47.92
212.803	-51.25
213.183	-58.03
213.562	-70.53
213.942	-72.36
214.321	-68.16
214.701	-51.99
215.08	-61.87
215.459	-60.55
215.838	-52.52
216.218	-58.33
216.597	-60.11
216.976	-55.43
217.355	-44.05
217.734	-34.94
218.113	-30.17
218.492	-25.19
218.871	-24.03
219.25	-28.79
219.629	-34.66
220.008	-25.82
220.387	-26.68
220.766	-32.79
221.144	-28.79
221.523	-22.46
221.902	-31.74
222.28	-29.7
222.659	-27.5
223.037	-12.4
223.416	-13.01
223.794	-13.4
224.173	-10.41
224.551	-7.4
224.929	-7.87
225.308	-5.85
225.686	-9.64
226.064	-12.09
226.442	-12.38
226.821	-6.59
227.199	-3.96
227.577	-4.9
227.955	-7.47
228.333	-7.94
228.711	-3.61
229.089	-2.4
229.467	-1.8
229.845	0.28
230.222	-0.06
230.6	-0.98
230.978	-0.3
231.356	1.43
231.733	-1.11
232.111	-0.6
232.488	0.66
232.866	0.12
233.243	0.03
233.621	0.43
233.998	3.02
234.376	1.31
234.753	0.37
235.13	1.79
235.508	5.55
235.885	6.67
236.262	6.75
236.639	5.85
237.016	5.18
237.393	6.09
237.77	6.13
238.147	7.2
238.524	7.35
238.901	6.91
239.278	6.61
239.655	7.26
240.032	6.83
240.409	6.49
240.785	5.81
241.162	5.99
241.539	6.04
241.915	5.76
242.292	5.82
242.668	5.67
243.045	4.98
243.421	4.33
243.798	4.42
244.174	4.63
244.551	4.39
244.927	4.67
245.303	4.68
245.679	4.75
246.056	4.48
246.432	4.47
246.808	4.63
247.184	4.47
247.56	4.37
247.936	4.21
248.312	4.1
248.688	4.38
249.064	4.13
249.44	4.11
249.815	4.06
250.191	4.09
250.567	4
250.943	3.89
251.318	4
251.694	3.93
252.069	3.6
252.445	3.86
252.82	3.62
253.196	3.3
253.571	3.07
253.947	3.01
254.322	3.12
254.697	2.85
255.073	2.93
255.448	2.65
255.823	3.15
256.198	3.41
256.573	3.38
256.948	3.78
257.323	3.86
257.698	4.02
258.073	4.07
258.448	4.25
258.823	4.49
259.198	4.39
259.573	4.23
259.948	4.42
260.322	4.37
260.697	4.45
261.072	4.35
261.446	4.41
261.821	4.38
262.195	4.33
262.57	4.34
262.944	4.13
263.319	4.49
263.693	4.28
264.067	4.28
264.442	4.39
264.816	4.16
265.19	4.15
265.564	4.04
265.938	4.04
266.313	3.87
266.687	3.92
267.061	3.98
267.435	4.09
267.809	4.23
268.183	4.15
268.556	4.1
268.93	4.23
269.304	4.19
269.678	4.25
270.051	4.14
270.425	4.06
270.799	4.28
271.172	4.23
271.546	4.2
271.919	4.23
272.293	4.2
272.666	4.27
273.04	4.44
273.413	4.4
273.787	4.28
274.16	4.38
274.533	4.38
274.906	4.3
275.279	4.34
275.653	4.23
276.026	4.37
276.399	4.3
276.772	4.34
277.145	4.3
277.518	4.28
277.891	4.42
278.263	4.41
278.636	4.52
279.009	4.41
279.382	4.61
279.755	4.43
280.127	4.44
280.5	4.59
280.872	4.44
281.245	4.38
281.617	4.44
281.99	4.42
282.362	4.39
282.735	4.43
283.107	4.34
283.479	4.39
283.852	4.25
284.224	4.33
284.596	4.28
284.968	4.41
285.34	4.49
285.713	4.51
286.085	4.66
286.457	4.68
286.829	4.71
287.201	4.76
287.572	4.74
287.944	4.6
288.316	4.53
288.688	4.5
289.06	4.65
289.431	4.69
289.803	4.75
290.175	4.76
290.546	4.85
290.918	4.9
291.289	4.96
291.661	5.12
292.032	5.14
292.403	5.23
292.775	5.25
293.146	5.09
293.517	5.07
293.889	5.06
294.26	5.13
294.631	5.02
295.002	4.86
295.373	5.03
295.744	5.09
296.115	5.23
296.486	5.09
296.857	5.12
297.228	5.02
297.599	5.03
297.97	5.02
298.34	4.99
298.711	5.07
299.082	4.94
299.452	4.82
299.823	4.78
300.194	4.68
300.564	4.63
300.935	4.76
301.305	4.78
301.676	4.8
302.046	4.74
302.416	4.84
302.787	4.88
303.157	4.71
303.527	4.7
303.897	4.58
304.267	4.88
304.637	4.81
305.008	4.88
305.378	4.99
305.748	5.11
306.117	5.09
306.487	5.02
306.857	5.07
307.227	5.15
307.597	5.15
307.967	5.37
308.336	5.4
308.706	5.27
309.076	5.41
309.445	5.29
309.815	5.19
310.184	5.28
310.554	5.32
310.923	5.34
311.293	5.32
311.662	5.24
312.031	5.13
312.401	5.09
312.77	5.24
313.139	5.21
313.508	5.1
313.877	5.01
314.246	4.94
314.616	4.87
314.985	4.89
315.353	4.84
315.722	4.81
316.091	4.6
316.46	4.73
316.829	4.5
317.198	4.58
317.567	4.49
317.935	4.36
318.304	4.28
318.672	4.29
319.041	4.38
319.41	4.52
319.778	4.54
320.147	4.63
320.515	4.46
320.883	4.39
321.252	4.42
321.62	4.54
321.988	4.65
322.357	4.7
322.725	4.56
323.093	4.74
323.461	4.67
323.829	4.87
324.197	4.87
324.565	4.9
324.933	4.9
325.301	5.07
325.669	5.14
326.037	5.14
326.405	5.15
326.772	5.19
327.14	5.2
327.508	5.25
327.875	5.1
328.243	5.11
328.61	5.07
328.978	5.03
329.346	4.92
329.713	4.93
330.08	4.94
330.448	5.13
330.815	5.02
331.182	4.86
331.55	4.87
331.917	4.86
332.284	5
332.651	4.95
333.018	4.9
333.385	4.95
333.752	5.05
334.119	5.05
334.486	4.96
334.853	4.91
335.22	4.86
335.587	5
335.954	5
336.32	4.95
336.687	5.05
337.054	5.13
337.42	5
337.787	4.92
338.153	4.81
338.52	4.9
338.886	4.91
339.253	4.81
339.619	4.8
339.986	4.6
340.352	4.66
340.718	4.64
341.084	4.59
341.451	4.58
341.817	4.58
342.183	4.61
342.549	4.66
342.915	4.67
343.281	4.62
343.647	4.64
344.013	4.74
344.379	4.62
344.745	4.64
345.11	4.67
345.476	4.76
345.842	4.73
346.208	4.65
346.573	4.79
346.939	4.82
347.304	4.9
347.67	4.99
348.035	4.95
348.401	4.98
348.766	4.96
349.132	4.91
349.497	4.94
349.862	4.96
350.228	4.89
350.593	4.84
350.958	4.81
351.323	4.82
351.688	4.78
352.053	4.82
352.418	4.92
352.783	4.95
353.148	4.89
353.513	4.9
353.878	4.92
354.243	4.93
354.608	4.96
354.972	4.95
355.337	4.95
355.702	5.05
356.066	4.97
356.431	5
356.795	5.05
357.16	5.03
357.524	5.03
357.889	4.94
358.253	5
358.618	5.02
358.982	5.03
359.346	4.98
359.71	4.94
360.075	4.81
360.439	4.81
360.803	4.88
361.167	4.93
361.531	4.97
361.895	4.92
362.259	4.96
362.623	4.93
362.987	4.93
363.351	4.86
363.714	4.95
364.078	4.93
364.442	4.94
364.806	4.96
365.169	4.95
365.533	5.02
365.896	4.93
366.26	4.91
366.623	4.86
366.987	4.9
367.35	4.97
367.714	5.07
368.077	5.07
368.44	5
368.803	4.97
369.167	4.92
369.53	4.96
369.893	4.95
370.256	4.94
370.619	4.89
370.982	4.91
371.345	4.8
371.708	4.85
372.071	4.81
372.434	4.84
372.797	4.87
373.159	4.88
373.522	4.99
373.885	5.05
374.247	5.06
374.61	5.07
374.973	5.06
375.335	4.98
375.698	4.96
376.06	4.99
376.423	5.03
376.785	5.07
377.147	5.07
377.51	5.01
377.872	5.04
378.234	5.13
378.596	5.13
378.958	5.2
379.321	5.22
379.683	5.25
380.045	5.23
380.407	5.24
380.769	5.21
381.13	5.15
381.492	5.13
381.854	5.13
382.216	5.09
382.578	5.16
382.939	5.19
383.301	5.25
383.663	5.2
384.024	5.16
384.386	5.15
384.747	5.16
385.109	5.19
385.47	5.16
385.832	5.08
386.193	5.16
386.554	5.12
386.916	5.05
387.277	5.05
387.638	5.07
387.999	5.04
388.36	5.06
388.721	5.08
389.082	5.06
389.443	5.07
389.804	5.09
390.165	5.03
390.526	5.03
390.887	5.01
391.248	5.04
391.609	5.01
391.969	4.99
392.33	4.96
392.691	4.97
393.051	4.99
393.412	5.02
393.772	4.94
394.133	4.97
394.493	4.99
394.854	4.96
395.214	4.94
395.574	4.96
395.935	4.94
396.295	4.98
396.655	4.97
397.015	4.96
397.376	4.95
397.736	4.95
398.096	4.97
398.456	4.97
398.816	4.95
399.176	4.99
399.535	4.99
399.895	5
400.255	4.99
400.615	4.97
400.975	4.97
401.334	4.97
401.694	4.98
402.054	5.03
402.413	5.04
402.773	5.03
403.132	5.02
403.492	5.03
403.851	5
404.211	5.05
404.57	5.02
404.929	5.03
405.288	5.01
405.648	5.01
406.007	4.99
406.366	4.98
406.725	5.01
407.084	5.03
407.443	5.02
407.802	5.03
408.161	5.02
408.52	5.01
408.879	5.02
409.238	5.04
409.596	5.01
409.955	5.03
410.314	5.05
410.673	5.05
411.031	5.04
411.39	5.04
411.748	5.02
412.107	5.05
412.465	5.05
412.824	5.06
413.182	5.01
413.54	5.01
413.899	5.03
414.257	4.99
414.615	4.98
414.974	5
415.332	5.01
415.69	5.02
416.048	5.01
416.406	5.02
416.764	4.99
417.122	5
417.48	4.97
417.838	4.96
418.195	4.95
418.553	4.96
418.911	4.97
419.269	4.98
419.626	4.98
419.984	5
420.342	5.02
420.699	5.04
421.057	5.03
421.414	5.02
421.772	5.01
422.129	5.03
422.486	5.02
422.844	5.01
423.201	5
423.558	5.01
423.915	5.01
424.273	5.02
424.63	5.01
424.987	5.02
425.344	5.01
425.701	5.01
426.058	5.01
426.415	4.99
426.772	5
427.128	4.98
427.485	4.97
427.842	4.96
428.199	4.97
428.555	4.99
428.912	5.01
429.269	5.03
429.625	5.02
429.982	5.01
430.338	5
430.695	5.02
431.051	5.02
431.407	5.01
431.764	5
432.12	4.99
432.476	4.98
432.832	4.97
433.189	5
433.545	4.99
433.901	5
434.257	4.98
434.613	4.99
434.969	4.98
435.325	4.97
435.681	4.98
436.036	5
436.392	5
436.748	4.97
437.104	4.97
437.459	4.98
437.815	4.98
438.171	4.98
438.526	4.99
438.882	5
439.237	5.01
439.593	5.02
439.948	5.01
440.304	5.02
440.659	5.01
441.014	5.01
441.369	4.99
441.725	5
442.08	5.01
442.435	5.03
442.79	5.04
443.145	5.02
443.5	5
443.855	4.98
444.21	5
444.565	5.01
444.92	5
445.275	4.99
445.629	4.99
445.984	4.97
446.339	4.97
446.693	4.96
447.048	4.95
447.403	4.96
447.757	4.96
448.112	4.95
448.466	4.94
448.82	4.95
449.175	4.95
449.529	4.95
449.883	4.92
450.238	4.89
450.592	4.89
450.946	4.91
451.3	4.9
451.654	4.9
452.008	4.91
452.362	4.93
452.716	4.95
453.07	4.94
453.424	4.97
453.778	4.97
454.132	4.96
454.486	4.96
454.839	4.96
455.193	4.95
455.547	4.95
455.9	4.95
456.254	4.97
456.607	4.98
456.961	4.97
457.314	4.99
457.668	5.02
458.021	5.01
458.375	5
458.728	5.01
459.081	5
459.434	5.01
459.787	4.98
460.141	4.97
460.494	4.98
460.847	4.96
461.2	4.96
461.553	4.97
461.906	4.98
462.259	4.99
462.611	5.02
462.964	5.01
463.317	5.02
463.67	5.01
464.022	5.01
464.375	4.98
464.728	4.98
465.08	4.95
465.433	4.97
465.785	4.97
466.138	4.99
466.49	4.99
466.843	4.97
467.195	4.98
467.547	4.99
467.899	5
468.252	5
468.604	5
468.956	4.99
469.308	5
469.66	4.97
470.012	4.97
470.364	4.99
470.716	4.96
471.068	4.96
471.42	4.97
471.772	4.99
472.123	4.99
472.475	5.02
472.827	5
473.178	5.01
473.53	4.97
473.882	4.96
474.233	4.99
474.585	4.98
474.936	4.96
475.288	4.96
475.639	4.97
475.99	4.98
476.342	5
476.693	5.01
477.044	5.02
477.395	5.02
477.746	5.01
478.097	5.04
478.448	5.05
478.8	5.05
479.15	5.06
479.501	5.07
479.852	5.07
480.203	5.09
480.554	5.11
480.905	5.15
481.255	5.16
481.606	5.16
481.957	5.18
482.307	5.19
482.658	5.19
483.009	5.19
483.359	5.19
483.709	5.19
484.06	5.19
484.41	5.21
484.761	5.22
485.111	5.21
485.461	5.21
485.811	5.21
486.162	5.21
486.512	5.21
486.862	5.21
487.212	5.22
487.562	5.22
487.912	5.21
488.262	5.2
488.612	5.19
488.961	5.2
489.311	5.19
489.661	5.18
490.011	5.18
490.36	5.17
490.71	5.17
491.06	5.17
491.409	5.15
491.759	5.12
492.108	5.12
492.458	5.14
492.807	5.13
493.157	5.14
493.506	5.14
493.855	5.14
494.204	5.13
494.554	5.13
494.903	5.13
495.252	5.13
495.601	5.12
495.95	5.13
496.299	5.11
496.648	5.1
496.997	5.1
497.346	5.1
497.695	5.12
498.043	5.12
498.392	5.11
498.741	5.13
499.09	5.13
499.438	5.13
499.787	5.12
500.135	5.11
500.484	5.11
500.832	5.12
501.181	5.12
501.529	5.13
501.878	5.14
502.226	5.12
502.574	5.14
502.923	5.13
503.271	5.14
503.619	5.16
503.967	5.16
504.315	5.16
504.663	5.17
505.011	5.16
505.359	5.17
505.707	5.19
506.055	5.18
506.403	5.19
506.751	5.2
507.098	5.21
507.446	5.21
507.794	5.2
508.141	5.21
508.489	5.21
508.837	5.21
509.184	5.2
509.531	5.23
509.879	5.25
510.226	5.28
510.574	5.28
510.921	5.27
511.268	5.28
511.616	5.31
511.963	5.3
512.31	5.31
512.657	5.32
513.004	5.32
513.351	5.33
513.698	5.34
514.045	5.34
514.392	5.34
514.739	5.34
515.086	5.36
515.432	5.36
515.779	5.37
516.126	5.38
516.473	5.39
516.819	5.38
517.166	5.37
517.512	5.36
517.859	5.36
518.205	5.38
518.552	5.39
518.898	5.39
519.245	5.4
519.591	5.41
519.937	5.41
520.283	5.44
520.629	5.43
520.976	5.43
521.322	5.44
521.668	5.44
522.014	5.46
522.36	5.45
522.706	5.44
523.052	5.45
523.398	5.45
523.743	5.44
524.089	5.45
524.435	5.46
524.781	5.47
525.126	5.49
525.472	5.5
525.817	5.5
526.163	5.5
526.509	5.5
526.854	5.52
527.199	5.52
527.545	5.51
527.89	5.5
528.235	5.51
528.581	5.53
528.926	5.53
529.271	5.53
529.616	5.54
529.961	5.55
530.306	5.54
530.651	5.54
530.996	5.55
531.341	5.54
531.686	5.53
532.031	5.53
532.376	5.52
532.721	5.5
533.065	5.5
533.41	5.5
533.755	5.5
534.099	5.49
534.444	5.49
534.788	5.5
535.133	5.52
535.477	5.52
535.822	5.51
536.166	5.5
536.51	5.5
536.855	5.51
537.199	5.51
537.543	5.52
537.887	5.54
538.231	5.54
538.576	5.56
538.92	5.57
539.264	5.56
539.608	5.56
539.951	5.57
540.295	5.58
540.639	5.58
540.983	5.56
541.327	5.57
541.671	5.56
542.014	5.56
542.358	5.56
542.701	5.56
543.045	5.56
543.389	5.56
543.732	5.56
544.075	5.56
544.419	5.55
544.762	5.54
545.105	5.53
545.449	5.54
545.792	5.54
546.135	5.53
546.478	5.54
546.821	5.54
547.165	5.55
547.508	5.54
547.851	5.58
548.194	5.58
548.536	5.57
548.879	5.57
549.222	5.58
549.565	5.58
549.908	5.58
550.25	5.59
550.593	5.62
550.936	5.63
551.278	5.61
551.621	5.61
551.963	5.63
552.306	5.63
552.648	5.61
552.991	5.61
553.333	5.58
553.675	5.58
554.017	5.6
554.36	5.59
554.702	5.59
555.044	5.53
555.386	5.52
555.728	5.52
556.07	5.55
556.412	5.53
556.754	5.54
557.096	5.51
557.438	5.5
557.78	5.49
558.121	5.48
558.463	5.5
558.805	5.53
559.147	5.52
559.488	5.53
559.83	5.57
560.171	5.57
560.513	5.6
560.854	5.61
561.196	5.58
561.537	5.57
561.878	5.57
562.22	5.59
562.561	5.6
562.902	5.61
563.243	5.57
563.584	5.58
563.925	5.55
564.266	5.56
564.607	5.58
564.948	5.59
565.289	5.62
565.63	5.63
565.971	5.61
566.312	5.61
566.653	5.63
566.993	5.61
567.334	5.6
567.675	5.61
568.015	5.62
568.356	5.63
568.696	5.65
569.037	5.67
569.377	5.67
569.718	5.7
570.058	5.71
570.398	5.75
570.739	5.71
571.079	5.71
571.419	5.73
571.759	5.73
572.099	5.73
572.439	5.7
572.779	5.7
573.119	5.72
573.459	5.74
573.799	5.72
574.139	5.72
574.479	5.75
574.819	5.74
575.158	5.74
575.498	5.73
575.838	5.74
576.177	5.7
576.517	5.7
576.856	5.7
577.196	5.68
577.535	5.67
577.875	5.72
578.214	5.73
578.553	5.7
578.893	5.69
579.232	5.73
579.571	5.76
579.91	5.73
580.25	5.74
580.589	5.75
580.928	5.73
581.267	5.74
581.606	5.7
581.945	5.7
582.283	5.7
582.622	5.7
582.961	5.67
583.3	5.71
583.639	5.7
583.977	5.69
584.316	5.7
584.654	5.68
584.993	5.69
585.332	5.72
585.67	5.72
586.008	5.74
586.347	5.68
586.685	5.66
587.024	5.66
587.362	5.67
587.7	5.65
588.038	5.71
588.376	5.72
588.715	5.72
589.053	5.78
589.391	5.77
589.729	5.79
590.067	5.82
590.404	5.81
590.742	5.87
591.08	5.86
591.418	5.89
591.756	5.94
592.093	5.94
592.431	5.95
592.769	5.97
593.106	5.98
593.444	5.96
593.781	5.94
594.119	5.95
594.456	5.93
594.793	5.94
595.131	5.93
595.468	5.94
595.805	5.95
596.143	5.93
596.48	5.92
596.817	5.91
597.154	5.91
597.491	5.93
597.828	5.89
598.165	5.88
598.502	5.84
598.839	5.81
599.176	5.79
599.512	5.75
599.849	5.8
600.186	5.75
600.523	5.8
600.859	5.85
601.196	5.86
601.532	5.87
601.869	5.87
602.205	5.85
602.542	5.88
602.878	5.89
603.215	5.88
603.551	5.88
603.887	5.91
604.223	5.9
604.56	5.86
604.896	5.88
605.232	5.91
605.568	5.91
605.904	5.91
606.24	5.95
606.576	5.95
606.912	5.88
607.248	5.9
607.583	5.92
607.919	5.86
608.255	5.86
608.591	5.89
608.926	5.89
609.262	5.91
609.597	5.89
609.933	5.89
610.268	5.9
610.604	5.93
610.939	5.88
611.275	5.91
611.61	5.93
611.945	5.96
612.281	5.94
612.616	5.95
612.951	5.95
613.286	5.93
613.621	5.94
613.956	5.98
614.291	6.05
614.626	6.01
614.961	6.05
615.296	6.05
615.631	5.98
615.966	6
616.3	5.98
616.635	5.91
616.97	5.92
617.304	5.92
617.639	5.94
617.973	5.96
618.308	5.92
618.642	5.94
618.977	5.95
619.311	5.95
619.646	5.96
619.98	5.99
620.314	5.99
620.648	6.01
620.983	6
621.317	5.95
621.651	5.98
621.985	5.98
622.319	5.97
622.653	5.98
622.987	6.02
623.321	6.05
623.655	6.08
623.988	6.09
624.322	6.06
624.656	6.03
624.99	6.04
625.323	6.05
625.657	6.05
625.99	6.03
626.324	6.06
626.657	6.05
626.991	6.07
627.324	6.08
627.658	6.11
627.991	6.15
628.324	6.18
628.657	6.18
628.991	6.21
629.324	6.24
629.657	6.29
629.99	6.29
630.323	6.26
630.656	6.3
630.989	6.33
631.322	6.34
631.655	6.34
631.987	6.35
632.32	6.37
632.653	6.38
632.986	6.36
633.318	6.32
633.651	6.36
633.984	6.28
634.316	6.27
634.649	6.27
634.981	6.27
635.313	6.31
635.646	6.27
635.978	6.3
636.31	6.23
636.643	6.27
636.975	6.21
637.307	6.23
637.639	6.2
637.971	6.17
638.303	6.16
638.635	6.13
638.967	6.08
639.299	6.1
639.631	6.07
639.963	6.03
640.295	6.12
640.626	6.09
640.958	6.17
641.29	6.19
641.621	6.17
641.953	6.14
642.285	6.09
642.616	6.1
642.948	6.05
643.279	6.13
643.61	6.08
643.942	6.08
644.273	6.07
644.604	6.08
644.936	6.06
645.267	6.1
645.598	6.15
645.929	6.24
646.26	6.2
646.591	6.2
646.922	6.3
647.253	6.29
647.584	6.28
647.915	6.26
648.245	6.23
648.576	6.23
648.907	6.23
649.238	6.24
649.568	6.21
649.899	6.2
650.229	6.18
650.56	6.18
650.89	6.17
651.221	6.15
651.551	6.12
651.882	6.1
652.212	6.06
652.542	6.04
652.872	6.01
653.203	6.05
653.533	6.05
653.863	6.01
654.193	5.93
654.523	5.93
654.853	5.92
655.183	5.95
655.513	5.96
655.843	5.87
656.172	5.88
656.502	5.95
656.832	6.01
657.162	6.05
657.491	6.05
657.821	6.11
658.15	6.09
658.48	6.11
658.809	6.15
659.139	6.15
659.468	6.17
659.798	6.16
660.127	6.19
660.456	6.24
660.785	6.24
661.115	6.29
661.444	6.27
661.773	6.32
662.102	6.31
662.431	6.26
662.76	6.29
663.089	6.3
663.418	6.25
663.747	6.23
664.076	6.17
664.404	6.14
664.733	6.1
665.062	6.19
665.39	6.18
665.719	6.22
666.048	6.28
666.376	6.25
666.705	6.3
667.033	6.13
667.362	6.06
667.69	6.08
668.018	6.04
668.347	6.08
668.675	6.08
669.003	6.08
669.331	6.21
669.659	6.31
669.987	6.25
670.315	6.25
670.643	6.19
670.971	6.21
671.299	6.26
671.627	6.22
671.955	6.13
672.283	6.15
672.61	6.13
672.938	6.12
673.266	6.14
673.593	6.2
673.921	6.31
674.249	6.35
674.576	6.31
674.904	6.37
675.231	6.36
675.558	6.25
675.886	6.25
676.213	6.25
676.54	6.23
676.867	6.32
677.195	6.34
677.522	6.33
677.849	6.43
678.176	6.44
678.503	6.49
