Data from BA28308_Reflection_00001.txt Node
Date: Mon Nov 18 15:38:37 EST 2019
User: vgr7
Spectrometer: USB2G7710
Scans to average: 3
Trigger mode: 4
Integration Time (sec): 2.000000E-2
Electric dark correction enabled: true
Boxcar width: 10
XAxis mode: Wavelengths
Number of Pixels in Spectrum: 2048
>>>>>Begin Spectral Data<<<<<
177.721	65.81
178.105	109.29
178.488	161.53
178.871	154.32
179.254	84.97
179.636	-114.29
180.019	-69.6
180.402	111.76
180.785	15.46
181.168	7.19
181.55	-61.03
181.933	40.63
182.316	58.9
182.698	92.64
183.081	59.34
183.463	71.54
183.846	117.87
184.228	111.48
184.611	95.9
184.993	171.79
185.376	292.92
185.758	529.7
186.14	1037.95
186.522	676.75
186.904	608.16
187.287	659.95
187.669	878.58
188.051	1314.1
188.433	-1259.25
188.815	-289.09
189.197	-231.43
189.579	-322.08
189.961	-207.84
190.342	-210.42
190.724	-178.75
191.106	-158.36
191.488	-136.43
191.869	-117.08
192.251	-149.92
192.633	-138.07
193.014	-180.91
193.396	-214.53
193.777	-246.83
194.159	-312.93
194.54	-137.43
194.922	-104.57
195.303	-94.28
195.684	-66.21
196.065	-38.68
196.447	-60.34
196.828	-108.45
197.209	-114.01
197.59	-103.91
197.971	-128.49
198.352	-53.3
198.733	-108.04
199.114	-133.8
199.495	-118.87
199.876	-134.34
200.257	-101.64
200.638	-81.05
201.018	-90.92
201.399	-62.68
201.78	-43.34
202.16	-52.44
202.541	-135
202.922	-218.61
203.302	-228.16
203.683	-268.06
204.063	-545.47
204.444	-695.72
204.824	-693.35
205.204	-1623.4
205.585	-48328.57
205.965	4023.08
206.345	397.15
206.725	302.21
207.106	213.71
207.486	223.18
207.866	191.14
208.246	181.84
208.626	193.25
209.006	441.77
209.386	330.08
209.766	388.36
210.145	365.44
210.525	-5008.11
210.905	-328.57
211.285	-613.21
211.664	-759.3
212.044	-427.71
212.424	-105.48
212.803	-47.26
213.183	-29.72
213.562	-19.25
213.942	-12.59
214.321	-3.09
214.701	-0.12
215.08	-2.17
215.459	-2.9
215.838	3.27
216.218	-16.39
216.597	-10.57
216.976	-19.39
217.355	-13.29
217.734	-19.6
218.113	-11.91
218.492	-4.96
218.871	14.34
219.25	20.82
219.629	19.4
220.008	30.76
220.387	19.99
220.766	-9.5
221.144	-42.19
221.523	-71.29
221.902	-159.01
222.28	-174.69
222.659	-196.48
223.037	-102.41
223.416	-98.2
223.794	-108.74
224.173	-78.05
224.551	-63.77
224.929	-49.03
225.308	-39.35
225.686	-27.18
226.064	-22.07
226.442	-23.71
226.821	-16.9
227.199	-16.04
227.577	-13.41
227.955	-12.88
228.333	-13.56
228.711	-6.79
229.089	-1.38
229.467	-0.11
229.845	2.58
230.222	-0.87
230.6	3.05
230.978	2.27
231.356	3.81
231.733	5.8
232.111	6.7
232.488	8.63
232.866	8.11
233.243	9.1
233.621	8.32
233.998	7.58
234.376	7.3
234.753	5.64
235.13	5.79
235.508	6.61
235.885	6.56
236.262	7.1
236.639	6.26
237.016	6.13
237.393	6.44
237.77	6.66
238.147	8.26
238.524	7.79
238.901	7.79
239.278	7.28
239.655	7.26
240.032	7
240.409	6.18
240.785	5.63
241.162	5.26
241.539	5.26
241.915	5.28
242.292	4.92
242.668	5.19
243.045	4.97
243.421	4.79
243.798	4.68
244.174	4.77
244.551	4.84
244.927	4.68
245.303	4.69
245.679	4.61
246.056	4.29
246.432	3.93
246.808	3.99
247.184	4.01
247.56	3.71
247.936	3.6
248.312	3.77
248.688	3.68
249.064	3.34
249.44	3.08
249.815	3.15
250.191	3.25
250.567	3.33
250.943	3.15
251.318	3.23
251.694	3.39
252.069	3.31
252.445	3.34
252.82	3.42
253.196	3.31
253.571	3.1
253.947	2.97
254.322	3.37
254.697	3.53
255.073	3.4
255.448	3.39
255.823	3.34
256.198	3.18
256.573	3.23
256.948	3.47
257.323	3.93
257.698	3.9
258.073	3.98
258.448	3.92
258.823	4.09
259.198	3.87
259.573	3.78
259.948	3.56
260.322	3.35
260.697	3.23
261.072	3.18
261.446	3.28
261.821	3.35
262.195	3.16
262.57	3
262.944	2.96
263.319	2.87
263.693	2.8
264.067	2.91
264.442	3.16
264.816	3.22
265.19	3.13
265.564	2.94
265.938	2.78
266.313	2.56
266.687	2.54
267.061	2.71
267.435	2.64
267.809	2.62
268.183	2.74
268.556	2.62
268.93	2.71
269.304	2.62
269.678	2.77
270.051	2.92
270.425	3.09
270.799	3.1
271.172	3.16
271.546	3.29
271.919	3.09
272.293	2.99
272.666	3.01
273.04	2.99
273.413	3.05
273.787	2.97
274.16	3.05
274.533	2.85
274.906	2.81
275.279	2.81
275.653	2.91
276.026	2.89
276.399	3
276.772	2.84
277.145	2.91
277.518	2.73
277.891	2.77
278.263	2.83
278.636	2.73
279.009	2.74
279.382	2.75
279.755	2.95
280.127	3.07
280.5	3.16
280.872	3.31
281.245	3.32
281.617	3.52
281.99	3.65
282.362	3.76
282.735	3.64
283.107	3.7
283.479	3.74
283.852	3.8
284.224	3.79
284.596	3.91
284.968	3.87
285.34	3.82
285.713	3.65
286.085	3.64
286.457	3.78
286.829	3.79
287.201	3.93
287.572	3.78
287.944	3.53
288.316	3.38
288.688	3.28
289.06	3.29
289.431	3.32
289.803	3.32
290.175	3.32
290.546	3.43
290.918	3.55
291.289	3.55
291.661	3.47
292.032	3.57
292.403	3.47
292.775	3.61
293.146	3.62
293.517	3.72
293.889	3.57
294.26	3.54
294.631	3.56
295.002	3.4
295.373	3.45
295.744	3.52
296.115	3.61
296.486	3.54
296.857	3.51
297.228	3.44
297.599	3.34
297.97	3.31
298.34	3.33
298.711	3.27
299.082	3.24
299.452	3.25
299.823	3.19
300.194	3.27
300.564	3.09
300.935	3.19
301.305	3.19
301.676	3.36
302.046	3.51
302.416	3.51
302.787	3.53
303.157	3.58
303.527	3.66
303.897	3.56
304.267	3.66
304.637	3.78
305.008	3.81
305.378	3.83
305.748	3.96
306.117	3.89
306.487	3.84
306.857	3.86
307.227	3.87
307.597	3.89
307.967	4.02
308.336	4.07
308.706	4.01
309.076	4
309.445	3.85
309.815	3.66
310.184	3.61
310.554	3.55
310.923	3.47
311.293	3.42
311.662	3.4
312.031	3.34
312.401	3.27
312.77	3.28
313.139	3.36
313.508	3.21
313.877	3.14
314.246	3.1
314.616	3.14
314.985	3.11
315.353	3
315.722	2.87
316.091	2.8
316.46	2.71
316.829	2.74
317.198	2.74
317.567	2.8
317.935	2.81
318.304	2.83
318.672	2.85
319.041	2.96
319.41	2.98
319.778	2.91
320.147	2.96
320.515	2.96
320.883	2.83
321.252	2.98
321.62	3.04
321.988	3.01
322.357	2.86
322.725	2.76
323.093	2.88
323.461	2.85
323.829	2.99
324.197	3.12
324.565	3.1
324.933	3.08
325.301	3.03
325.669	3.1
326.037	3.15
326.405	3.15
326.772	3.15
327.14	3.22
327.508	3.3
327.875	3.2
328.243	3.15
328.61	3.08
328.978	3.06
329.346	3.08
329.713	2.96
330.08	3.01
330.448	2.99
330.815	2.89
331.182	2.81
331.55	2.75
331.917	2.63
332.284	2.58
332.651	2.58
333.018	2.68
333.385	2.59
333.752	2.6
334.119	2.66
334.486	2.66
334.853	2.62
335.22	2.53
335.587	2.58
335.954	2.64
336.32	2.7
336.687	2.81
337.054	2.74
337.42	2.94
337.787	2.97
338.153	3.03
338.52	2.98
338.886	3.03
339.253	3.06
339.619	3.18
339.986	3.28
340.352	3.32
340.718	3.28
341.084	3.27
341.451	3.29
341.817	3.31
342.183	3.2
342.549	3.23
342.915	3.33
343.281	3.38
343.647	3.34
344.013	3.33
344.379	3.16
344.745	3.19
345.11	3.11
345.476	3.07
345.842	3.03
346.208	3.08
346.573	3.12
346.939	3.11
347.304	3.06
347.67	2.89
348.035	2.83
348.401	2.76
348.766	2.76
349.132	2.79
349.497	2.74
349.862	2.8
350.228	2.72
350.593	2.62
350.958	2.58
351.323	2.59
351.688	2.56
352.053	2.57
352.418	2.58
352.783	2.55
353.148	2.57
353.513	2.62
353.878	2.66
354.243	2.74
354.608	2.66
354.972	2.65
355.337	2.75
355.702	2.9
356.066	2.94
356.431	2.92
356.795	2.92
357.16	2.9
357.524	2.87
357.889	2.9
358.253	3.01
358.618	3.08
358.982	3.03
359.346	3
359.71	3.04
360.075	3.06
360.439	3.06
360.803	3.02
361.167	3
361.531	2.94
361.895	2.86
362.259	2.89
362.623	2.83
362.987	2.82
363.351	2.7
363.714	2.77
364.078	2.8
364.442	2.76
364.806	2.76
365.169	2.75
365.533	2.75
365.896	2.68
366.26	2.62
366.623	2.66
366.987	2.68
367.35	2.66
367.714	2.71
368.077	2.7
368.44	2.74
368.803	2.76
369.167	2.76
369.53	2.77
369.893	2.79
370.256	2.87
370.619	2.88
370.982	2.88
371.345	2.84
371.708	2.85
372.071	2.89
372.434	2.85
372.797	2.89
373.159	2.89
373.522	2.87
373.885	2.86
374.247	2.86
374.61	2.91
374.973	2.92
375.335	2.89
375.698	2.93
376.06	2.86
376.423	2.9
376.785	2.94
377.147	2.95
377.51	2.97
377.872	2.98
378.234	3.02
378.596	3.06
378.958	3
379.321	2.97
379.683	2.94
380.045	2.98
380.407	2.93
380.769	2.93
381.13	2.94
381.492	2.95
381.854	2.93
382.216	2.89
382.578	2.91
382.939	2.88
383.301	2.89
383.663	2.88
384.024	2.83
384.386	2.86
384.747	2.85
385.109	2.84
385.47	2.83
385.832	2.81
386.193	2.8
386.554	2.81
386.916	2.8
387.277	2.84
387.638	2.87
387.999	2.88
388.36	2.88
388.721	2.88
389.082	2.89
389.443	2.84
389.804	2.85
390.165	2.83
390.526	2.87
390.887	2.85
391.248	2.85
391.609	2.86
391.969	2.82
392.33	2.86
392.691	2.86
393.051	2.85
393.412	2.86
393.772	2.86
394.133	2.84
394.493	2.87
394.854	2.81
395.214	2.77
395.574	2.77
395.935	2.75
396.295	2.78
396.655	2.76
397.015	2.79
397.376	2.8
397.736	2.8
398.096	2.74
398.456	2.75
398.816	2.8
399.176	2.77
399.535	2.76
399.895	2.7
400.255	2.69
400.615	2.73
400.975	2.73
401.334	2.73
401.694	2.73
402.054	2.71
402.413	2.71
402.773	2.69
403.132	2.7
403.492	2.7
403.851	2.69
404.211	2.67
404.57	2.67
404.929	2.68
405.288	2.68
405.648	2.69
406.007	2.69
406.366	2.66
406.725	2.67
407.084	2.7
407.443	2.71
407.802	2.75
408.161	2.69
408.52	2.64
408.879	2.64
409.238	2.66
409.596	2.69
409.955	2.7
410.314	2.76
410.673	2.74
411.031	2.76
411.39	2.73
411.748	2.74
412.107	2.74
412.465	2.73
412.824	2.73
413.182	2.71
413.54	2.72
413.899	2.75
414.257	2.76
414.615	2.75
414.974	2.76
415.332	2.75
415.69	2.75
416.048	2.76
416.406	2.77
416.764	2.77
417.122	2.76
417.48	2.75
417.838	2.74
418.195	2.76
418.553	2.77
418.911	2.76
419.269	2.76
419.626	2.77
419.984	2.77
420.342	2.79
420.699	2.8
421.057	2.8
421.414	2.77
421.772	2.78
422.129	2.78
422.486	2.77
422.844	2.77
423.201	2.77
423.558	2.78
423.915	2.79
424.273	2.78
424.63	2.77
424.987	2.77
425.344	2.77
425.701	2.78
426.058	2.77
426.415	2.77
426.772	2.77
427.128	2.77
427.485	2.76
427.842	2.74
428.199	2.74
428.555	2.72
428.912	2.75
429.269	2.75
429.625	2.76
429.982	2.76
430.338	2.75
430.695	2.77
431.051	2.76
431.407	2.75
431.764	2.75
432.12	2.75
432.476	2.74
432.832	2.74
433.189	2.74
433.545	2.74
433.901	2.73
434.257	2.73
434.613	2.73
434.969	2.71
435.325	2.73
435.681	2.73
436.036	2.73
436.392	2.73
436.748	2.72
437.104	2.71
437.459	2.71
437.815	2.72
438.171	2.7
438.526	2.71
438.882	2.7
439.237	2.72
439.593	2.73
439.948	2.73
440.304	2.74
440.659	2.74
441.014	2.75
441.369	2.73
441.725	2.73
442.08	2.74
442.435	2.74
442.79	2.74
443.145	2.75
443.5	2.75
443.855	2.76
444.21	2.76
444.565	2.76
444.92	2.77
445.275	2.76
445.629	2.78
445.984	2.78
446.339	2.78
446.693	2.77
447.048	2.75
447.403	2.76
447.757	2.76
448.112	2.74
448.466	2.73
448.82	2.76
449.175	2.77
449.529	2.75
449.883	2.77
450.238	2.76
450.592	2.76
450.946	2.75
451.3	2.74
451.654	2.73
452.008	2.74
452.362	2.73
452.716	2.72
453.07	2.71
453.424	2.71
453.778	2.71
454.132	2.71
454.486	2.7
454.839	2.7
455.193	2.67
455.547	2.68
455.9	2.7
456.254	2.7
456.607	2.69
456.961	2.69
457.314	2.66
457.668	2.66
458.021	2.65
458.375	2.66
458.728	2.65
459.081	2.67
459.434	2.64
459.787	2.64
460.141	2.67
460.494	2.68
460.847	2.68
461.2	2.66
461.553	2.66
461.906	2.68
462.259	2.69
462.611	2.72
462.964	2.73
463.317	2.7
463.67	2.71
464.022	2.72
464.375	2.72
464.728	2.74
465.08	2.76
465.433	2.78
465.785	2.79
466.138	2.81
466.49	2.81
466.843	2.8
467.195	2.79
467.547	2.79
467.899	2.76
468.252	2.77
468.604	2.81
468.956	2.79
469.308	2.81
469.66	2.81
470.012	2.8
470.364	2.82
470.716	2.83
471.068	2.82
471.42	2.84
471.772	2.86
472.123	2.86
472.475	2.85
472.827	2.86
473.178	2.85
473.53	2.84
473.882	2.84
474.233	2.86
474.585	2.87
474.936	2.85
475.288	2.87
475.639	2.87
475.99	2.83
476.342	2.86
476.693	2.85
477.044	2.85
477.395	2.84
477.746	2.82
478.097	2.83
478.448	2.83
478.8	2.81
479.15	2.78
479.501	2.78
479.852	2.78
480.203	2.78
480.554	2.8
480.905	2.8
481.255	2.8
481.606	2.81
481.957	2.82
482.307	2.82
482.658	2.82
483.009	2.81
483.359	2.81
483.709	2.82
484.06	2.82
484.41	2.83
484.761	2.83
485.111	2.82
485.461	2.83
485.811	2.83
486.162	2.84
486.512	2.85
486.862	2.84
487.212	2.84
487.562	2.84
487.912	2.83
488.262	2.83
488.612	2.84
488.961	2.84
489.311	2.83
489.661	2.84
490.011	2.83
490.36	2.84
490.71	2.85
491.06	2.84
491.409	2.84
491.759	2.83
492.108	2.84
492.458	2.85
492.807	2.83
493.157	2.84
493.506	2.84
493.855	2.84
494.204	2.85
494.554	2.85
494.903	2.85
495.252	2.84
495.601	2.84
495.95	2.84
496.299	2.83
496.648	2.83
496.997	2.82
497.346	2.84
497.695	2.85
498.043	2.86
498.392	2.85
498.741	2.85
499.09	2.84
499.438	2.86
499.787	2.85
500.135	2.85
500.484	2.85
500.832	2.85
501.181	2.86
501.529	2.86
501.878	2.88
502.226	2.89
502.574	2.89
502.923	2.91
503.271	2.89
503.619	2.88
503.967	2.89
504.315	2.92
504.663	2.9
505.011	2.9
505.359	2.89
505.707	2.9
506.055	2.9
506.403	2.9
506.751	2.89
507.098	2.89
507.446	2.91
507.794	2.91
508.141	2.92
508.489	2.91
508.837	2.93
509.184	2.93
509.531	2.93
509.879	2.94
510.226	2.96
510.574	2.97
510.921	2.98
511.268	2.97
511.616	2.96
511.963	2.98
512.31	3
512.657	3.01
513.004	3.01
513.351	3.01
513.698	3.02
514.045	3.02
514.392	3.03
514.739	3.03
515.086	3.04
515.432	3.04
515.779	3.04
516.126	3.04
516.473	3.04
516.819	3.04
517.166	3.03
517.512	3.04
517.859	3.05
518.205	3.06
518.552	3.07
518.898	3.07
519.245	3.09
519.591	3.08
519.937	3.07
520.283	3.07
520.629	3.07
520.976	3.07
521.322	3.07
521.668	3.07
522.014	3.07
522.36	3.07
522.706	3.08
523.052	3.06
523.398	3.07
523.743	3.07
524.089	3.08
524.435	3.09
524.781	3.08
525.126	3.07
525.472	3.08
525.817	3.08
526.163	3.09
526.509	3.1
526.854	3.09
527.199	3.1
527.545	3.11
527.89	3.12
528.235	3.12
528.581	3.11
528.926	3.11
529.271	3.11
529.616	3.11
529.961	3.11
530.306	3.12
530.651	3.11
530.996	3.12
531.341	3.11
531.686	3.11
532.031	3.12
532.376	3.13
532.721	3.14
533.065	3.14
533.41	3.13
533.755	3.12
534.099	3.13
534.444	3.13
534.788	3.14
535.133	3.13
535.477	3.14
535.822	3.14
536.166	3.14
536.51	3.14
536.855	3.16
537.199	3.16
537.543	3.16
537.887	3.16
538.231	3.16
538.576	3.18
538.92	3.18
539.264	3.15
539.608	3.16
539.951	3.14
540.295	3.13
540.639	3.14
540.983	3.15
541.327	3.14
541.671	3.14
542.014	3.14
542.358	3.14
542.701	3.14
543.045	3.14
543.389	3.16
543.732	3.17
544.075	3.17
544.419	3.17
544.762	3.18
545.105	3.19
545.449	3.2
545.792	3.19
546.135	3.21
546.478	3.25
546.821	3.24
547.165	3.27
547.508	3.3
547.851	3.32
548.194	3.32
548.536	3.34
548.879	3.35
549.222	3.34
549.565	3.34
549.908	3.36
550.25	3.37
550.593	3.37
550.936	3.37
551.278	3.36
551.621	3.37
551.963	3.37
552.306	3.35
552.648	3.34
552.991	3.41
553.333	3.38
553.675	3.35
554.017	3.37
554.36	3.36
554.702	3.37
555.044	3.34
555.386	3.33
555.728	3.32
556.07	3.32
556.412	3.33
556.754	3.32
557.096	3.34
557.438	3.33
557.78	3.34
558.121	3.35
558.463	3.38
558.805	3.36
559.147	3.32
559.488	3.33
559.83	3.34
560.171	3.29
560.513	3.3
560.854	3.31
561.196	3.32
561.537	3.31
561.878	3.29
562.22	3.3
562.561	3.3
562.902	3.33
563.243	3.31
563.584	3.31
563.925	3.3
564.266	3.3
564.607	3.29
564.948	3.28
565.289	3.29
565.63	3.27
565.971	3.26
566.312	3.27
566.653	3.26
566.993	3.24
567.334	3.24
567.675	3.24
568.015	3.24
568.356	3.21
568.696	3.22
569.037	3.24
569.377	3.22
569.718	3.26
570.058	3.24
570.398	3.28
570.739	3.25
571.079	3.29
571.419	3.28
571.759	3.31
572.099	3.3
572.439	3.28
572.779	3.26
573.119	3.3
573.459	3.34
573.799	3.36
574.139	3.38
574.479	3.37
574.819	3.38
575.158	3.38
575.498	3.4
575.838	3.39
576.177	3.38
576.517	3.41
576.856	3.4
577.196	3.38
577.535	3.35
577.875	3.38
578.214	3.34
578.553	3.33
578.893	3.35
579.232	3.36
579.571	3.37
579.91	3.4
580.25	3.41
580.589	3.39
580.928	3.35
581.267	3.33
581.606	3.3
581.945	3.3
582.283	3.3
582.622	3.29
582.961	3.29
583.3	3.27
583.639	3.29
583.977	3.28
584.316	3.28
584.654	3.31
584.993	3.3
585.332	3.34
585.67	3.36
586.008	3.34
586.347	3.33
586.685	3.32
587.024	3.34
587.362	3.34
587.7	3.32
588.038	3.38
588.376	3.38
588.715	3.39
589.053	3.41
589.391	3.44
589.729	3.46
590.067	3.49
590.404	3.51
590.742	3.51
591.08	3.5
591.418	3.5
591.756	3.5
592.093	3.52
592.431	3.5
592.769	3.51
593.106	3.51
593.444	3.54
593.781	3.53
594.119	3.51
594.456	3.52
594.793	3.52
595.131	3.52
595.468	3.57
595.805	3.6
596.143	3.56
596.48	3.54
596.817	3.53
597.154	3.51
597.491	3.5
597.828	3.49
598.165	3.48
598.502	3.48
598.839	3.44
599.176	3.45
599.512	3.47
599.849	3.44
600.186	3.43
600.523	3.43
600.859	3.49
601.196	3.51
601.532	3.47
601.869	3.47
602.205	3.46
602.542	3.45
602.878	3.44
603.215	3.45
603.551	3.48
603.887	3.5
604.223	3.52
604.56	3.52
604.896	3.52
605.232	3.54
605.568	3.54
605.904	3.57
606.24	3.59
606.576	3.57
606.912	3.59
607.248	3.58
607.583	3.59
607.919	3.55
608.255	3.51
608.591	3.56
608.926	3.57
609.262	3.54
609.597	3.54
609.933	3.54
610.268	3.54
610.604	3.56
610.939	3.54
611.275	3.53
611.61	3.55
611.945	3.55
612.281	3.56
612.616	3.57
612.951	3.63
613.286	3.6
613.621	3.61
613.956	3.6
614.291	3.62
614.626	3.62
614.961	3.64
615.296	3.64
615.631	3.63
615.966	3.62
616.3	3.67
616.635	3.66
616.97	3.66
617.304	3.65
617.639	3.58
617.973	3.59
618.308	3.63
618.642	3.65
618.977	3.62
619.311	3.63
619.646	3.64
619.98	3.6
620.314	3.58
620.648	3.64
620.983	3.64
621.317	3.65
621.651	3.65
621.985	3.67
622.319	3.7
622.653	3.69
622.987	3.68
623.321	3.62
623.655	3.68
623.988	3.74
624.322	3.73
624.656	3.74
624.99	3.74
625.323	3.69
625.657	3.71
625.99	3.76
626.324	3.77
626.657	3.74
626.991	3.73
627.324	3.74
627.658	3.72
627.991	3.74
628.324	3.76
628.657	3.71
628.991	3.69
629.324	3.68
629.657	3.69
629.99	3.71
630.323	3.77
630.656	3.78
630.989	3.78
631.322	3.82
631.655	3.82
631.987	3.82
632.32	3.83
632.653	3.75
632.986	3.73
633.318	3.69
633.651	3.74
633.984	3.71
634.316	3.73
634.649	3.71
634.981	3.7
635.313	3.66
635.646	3.69
635.978	3.77
636.31	3.76
636.643	3.76
636.975	3.75
637.307	3.72
637.639	3.59
637.971	3.56
638.303	3.56
638.635	3.57
638.967	3.61
639.299	3.64
639.631	3.69
639.963	3.62
640.295	3.63
640.626	3.57
640.958	3.64
641.29	3.65
641.621	3.67
641.953	3.65
642.285	3.68
642.616	3.67
642.948	3.56
643.279	3.57
643.61	3.51
643.942	3.58
644.273	3.58
644.604	3.64
644.936	3.66
645.267	3.68
645.598	3.71
645.929	3.64
646.26	3.62
646.591	3.62
646.922	3.67
647.253	3.69
647.584	3.67
647.915	3.62
648.245	3.59
648.576	3.59
648.907	3.63
649.238	3.61
649.568	3.63
649.899	3.64
650.229	3.64
650.56	3.68
650.89	3.61
651.221	3.62
651.551	3.64
651.882	3.61
652.212	3.59
652.542	3.56
652.872	3.56
653.203	3.56
653.533	3.51
653.863	3.53
654.193	3.53
654.523	3.55
654.853	3.62
655.183	3.65
655.513	3.63
655.843	3.62
656.172	3.66
656.502	3.64
656.832	3.71
657.162	3.76
657.491	3.78
657.821	3.81
658.15	3.8
658.48	3.78
658.809	3.79
659.139	3.83
659.468	3.83
659.798	3.85
660.127	3.84
660.456	3.91
660.785	3.95
661.115	3.98
661.444	4.02
661.773	4.04
662.102	4.06
662.431	4.14
662.76	4.16
663.089	4.2
663.418	4.17
663.747	4.09
664.076	4.07
664.404	4.07
664.733	4.09
665.062	4.08
665.39	4.11
665.719	4.13
666.048	4.03
666.376	4.03
666.705	4.01
667.033	3.97
667.362	3.96
667.69	3.86
668.018	3.82
668.347	3.8
668.675	3.72
669.003	3.61
669.331	3.61
669.659	3.58
669.987	3.54
670.315	3.65
670.643	3.7
670.971	3.72
671.299	3.73
671.627	3.71
671.955	3.71
672.283	3.71
672.61	3.73
672.938	3.71
673.266	3.75
673.593	3.85
673.921	3.84
674.249	3.85
674.576	3.95
674.904	3.94
675.231	3.91
675.558	4
675.886	4.05
676.213	4.01
