Data from BA28417_Reflection_00002.txt Node
Date: Mon Nov 18 16:10:58 EST 2019
User: vgr7
Spectrometer: USB2G7710
Scans to average: 3
Trigger mode: 4
Integration Time (sec): 2.000000E-2
Electric dark correction enabled: true
Boxcar width: 10
XAxis mode: Wavelengths
Number of Pixels in Spectrum: 2048
>>>>>Begin Spectral Data<<<<<
177.721	12.14
178.105	54.67
178.488	31.21
178.871	61.34
179.254	22.56
179.636	-57.48
180.019	56.94
180.402	147.62
180.785	131.6
181.168	-576.47
181.55	-2.67
181.933	112.23
182.316	126.11
182.698	117.5
183.081	176.12
183.463	250.06
183.846	187.33
184.228	228.18
184.611	217.97
184.993	363.26
185.376	746.39
185.758	1040.24
186.14	1885.23
186.522	419.54
186.904	728.24
187.287	517.54
187.669	-2811.39
188.051	-520.12
188.433	-184.95
188.815	-80.26
189.197	-108.24
189.579	-131.9
189.961	-147.22
190.342	-132.54
190.724	-78.34
191.106	-115.25
191.488	-116.13
191.869	-50.92
192.251	-39.28
192.633	-50.91
193.014	-91.6
193.396	-148.24
193.777	-51.71
194.159	-93
194.54	-44.13
194.922	-49.63
195.303	-49.11
195.684	-49.09
196.065	-43.77
196.447	-57.51
196.828	-98.18
197.209	-78.32
197.59	-104.19
197.971	-84.25
198.352	-35.11
198.733	-61.51
199.114	-53.85
199.495	-66.91
199.876	-95.24
200.257	-100.59
200.638	-85.32
201.018	-85.79
201.399	-65.34
201.78	-59.6
202.16	-62.43
202.541	-93.4
202.922	-125.58
203.302	-128.97
203.683	-137.54
204.063	-167.96
204.444	-168.72
204.824	-155.12
205.204	-121.39
205.585	-109.85
205.965	-105.39
206.345	-131.3
206.725	-145.31
207.106	-147.43
207.486	-168.08
207.866	-165.82
208.246	-108.35
208.626	-117.74
209.006	-83.67
209.386	-166.32
209.766	-171.24
210.145	-158.33
210.525	-106.44
210.905	-96.7
211.285	-99.04
211.664	-97.86
212.044	-90.9
212.424	-92.08
212.803	-97.39
213.183	-94.1
213.562	-78.77
213.942	-71.67
214.321	-62.23
214.701	-67.54
215.08	-79.08
215.459	-76.68
215.838	-72.54
216.218	-118.86
216.597	-114.84
216.976	-114.95
217.355	-58.01
217.734	-73.44
218.113	-41.15
218.492	-62.7
218.871	-94.58
219.25	-35.92
219.629	-40.46
220.008	-210.99
220.387	-383.75
220.766	-1405.15
221.144	982.68
221.523	475.37
221.902	448.45
222.28	473.76
222.659	392.13
223.037	12217.65
223.416	3972.34
223.794	-328.39
224.173	-165.23
224.551	-63.96
224.929	-68.03
225.308	-65.09
225.686	-55.58
226.064	-47.23
226.442	-32.56
226.821	-19.47
227.199	-20.78
227.577	-23.47
227.955	-16.73
228.333	-13.54
228.711	-9.15
229.089	-7.23
229.467	-9.38
229.845	-10.06
230.222	-9.23
230.6	-6.86
230.978	-5.38
231.356	-0.47
231.733	2.35
232.111	4.93
232.488	3.73
232.866	6.76
233.243	5.28
233.621	6.74
233.998	8.18
234.376	6.99
234.753	6.99
235.13	7.24
235.508	9.85
235.885	10.63
236.262	8.24
236.639	8.18
237.016	7.51
237.393	7.68
237.77	7.83
238.147	7.3
238.524	6.75
238.901	6.53
239.278	5.7
239.655	6
240.032	5.36
240.409	5.05
240.785	5.31
241.162	5.77
241.539	5.36
241.915	5.23
242.292	4.88
242.668	4.32
243.045	4.22
243.421	4.24
243.798	3.86
244.174	4.14
244.551	3.98
244.927	4.07
245.303	4.21
245.679	4.31
246.056	4.63
246.432	4.41
246.808	4.27
247.184	4.03
247.56	3.85
247.936	3.7
248.312	3.93
248.688	3.96
249.064	3.94
249.44	4.03
249.815	3.93
250.191	3.93
250.567	4.2
250.943	4.3
251.318	4.18
251.694	4.32
252.069	4.35
252.445	4.53
252.82	4.46
253.196	4.29
253.571	4.07
253.947	3.77
254.322	3.93
254.697	3.51
255.073	3.47
255.448	3.41
255.823	3.55
256.198	3.34
256.573	3.07
256.948	2.87
257.323	2.89
257.698	2.93
258.073	2.92
258.448	2.75
258.823	2.76
259.198	2.57
259.573	2.5
259.948	2.43
260.322	2.41
260.697	2.49
261.072	2.47
261.446	2.58
261.821	2.58
262.195	2.64
262.57	2.79
262.944	2.87
263.319	2.82
263.693	2.84
264.067	3.01
264.442	3.04
264.816	3.05
265.19	3.01
265.564	3.03
265.938	2.98
266.313	3.04
266.687	3.01
267.061	3.19
267.435	3.22
267.809	3.32
268.183	3.25
268.556	3.24
268.93	3.22
269.304	3.09
269.678	3.18
270.051	3.19
270.425	3.3
270.799	3.26
271.172	3.23
271.546	3.05
271.919	2.9
272.293	2.79
272.666	2.87
273.04	2.84
273.413	2.77
273.787	2.89
274.16	2.84
274.533	2.75
274.906	2.78
275.279	2.79
275.653	2.74
276.026	2.67
276.399	2.65
276.772	2.88
277.145	2.83
277.518	2.93
277.891	2.81
278.263	2.78
278.636	2.87
279.009	2.93
279.382	3.16
279.755	3.11
280.127	3.26
280.5	3.36
280.872	3.5
281.245	3.55
281.617	3.57
281.99	3.69
282.362	3.77
282.735	3.59
283.107	3.62
283.479	3.6
283.852	3.77
284.224	3.83
284.596	3.74
284.968	3.88
285.34	3.75
285.713	3.73
286.085	3.65
286.457	3.69
286.829	3.71
287.201	3.63
287.572	3.54
287.944	3.46
288.316	3.35
288.688	3.26
289.06	3.3
289.431	3.26
289.803	3.21
290.175	3.24
290.546	3.43
290.918	3.39
291.289	3.47
291.661	3.45
292.032	3.39
292.403	3.33
292.775	3.34
293.146	3.37
293.517	3.35
293.889	3.39
294.26	3.29
294.631	3.38
295.002	3.41
295.373	3.5
295.744	3.57
296.115	3.63
296.486	3.52
296.857	3.5
297.228	3.56
297.599	3.52
297.97	3.53
298.34	3.49
298.711	3.63
299.082	3.62
299.452	3.67
299.823	3.76
300.194	3.75
300.564	3.61
300.935	3.54
301.305	3.71
301.676	3.85
302.046	3.85
302.416	3.78
302.787	3.76
303.157	3.69
303.527	3.62
303.897	3.6
304.267	3.72
304.637	3.75
305.008	3.72
305.378	3.86
305.748	3.69
306.117	3.69
306.487	3.44
306.857	3.44
307.227	3.4
307.597	3.28
307.967	3.24
308.336	3.33
308.706	3.41
309.076	3.31
309.445	3.18
309.815	3.29
310.184	3.3
310.554	3.33
310.923	3.38
311.293	3.35
311.662	3.27
312.031	3.28
312.401	3.31
312.77	3.42
313.139	3.4
313.508	3.49
313.877	3.43
314.246	3.59
314.616	3.5
314.985	3.49
315.353	3.39
315.722	3.49
316.091	3.52
316.46	3.45
316.829	3.42
317.198	3.43
317.567	3.21
317.935	3.07
318.304	2.95
318.672	2.97
319.041	3.07
319.41	3.13
319.778	3.08
320.147	2.93
320.515	2.6
320.883	2.45
321.252	2.71
321.62	2.76
321.988	2.58
322.357	2.64
322.725	2.45
323.093	2.61
323.461	2.62
323.829	2.62
324.197	2.62
324.565	2.63
324.933	2.69
325.301	2.8
325.669	2.92
326.037	2.95
326.405	3.03
326.772	3.13
327.14	3.23
327.508	3.27
327.875	3.18
328.243	3.39
328.61	3.47
328.978	3.28
329.346	3.35
329.713	3.46
330.08	3.41
330.448	3.35
330.815	3.43
331.182	3.32
331.55	3.27
331.917	3.29
332.284	3.3
332.651	3.18
333.018	3.19
333.385	3.15
333.752	3.2
334.119	3.15
334.486	3
334.853	2.99
335.22	2.99
335.587	3.22
335.954	3.08
336.32	3.05
336.687	3.16
337.054	3.14
337.42	3.15
337.787	3.2
338.153	3.32
338.52	3.23
338.886	3.25
339.253	3.29
339.619	3.53
339.986	3.55
340.352	3.57
340.718	3.52
341.084	3.5
341.451	3.55
341.817	3.56
342.183	3.5
342.549	3.48
342.915	3.53
343.281	3.53
343.647	3.57
344.013	3.53
344.379	3.38
344.745	3.42
345.11	3.44
345.476	3.45
345.842	3.47
346.208	3.5
346.573	3.5
346.939	3.53
347.304	3.37
347.67	3.31
348.035	3.38
348.401	3.39
348.766	3.44
349.132	3.46
349.497	3.49
349.862	3.62
350.228	3.64
350.593	3.59
350.958	3.54
351.323	3.6
351.688	3.7
352.053	3.75
352.418	3.74
352.783	3.72
353.148	3.72
353.513	3.72
353.878	3.69
354.243	3.77
354.608	3.75
354.972	3.74
355.337	3.8
355.702	3.83
356.066	3.9
356.431	3.88
356.795	3.85
357.16	3.81
357.524	3.79
357.889	3.75
358.253	3.72
358.618	3.71
358.982	3.7
359.346	3.63
359.71	3.62
360.075	3.62
360.439	3.6
360.803	3.57
361.167	3.53
361.531	3.5
361.895	3.48
362.259	3.47
362.623	3.43
362.987	3.39
363.351	3.35
363.714	3.36
364.078	3.37
364.442	3.32
364.806	3.34
365.169	3.31
365.533	3.34
365.896	3.3
366.26	3.28
366.623	3.27
366.987	3.31
367.35	3.33
367.714	3.28
368.077	3.24
368.44	3.26
368.803	3.23
369.167	3.23
369.53	3.15
369.893	3.2
370.256	3.26
370.619	3.28
370.982	3.24
371.345	3.14
371.708	3.15
372.071	3.13
372.434	3.08
372.797	3.12
373.159	3.1
373.522	3.19
373.885	3.21
374.247	3.26
374.61	3.28
374.973	3.19
375.335	3.14
375.698	3.21
376.06	3.13
376.423	3.17
376.785	3.25
377.147	3.32
377.51	3.28
377.872	3.33
378.234	3.27
378.596	3.3
378.958	3.33
379.321	3.26
379.683	3.27
380.045	3.29
380.407	3.3
380.769	3.26
381.13	3.22
381.492	3.23
381.854	3.22
382.216	3.19
382.578	3.25
382.939	3.28
383.301	3.26
383.663	3.32
384.024	3.3
384.386	3.3
384.747	3.3
385.109	3.29
385.47	3.28
385.832	3.36
386.193	3.34
386.554	3.35
386.916	3.43
387.277	3.46
387.638	3.47
387.999	3.42
388.36	3.45
388.721	3.47
389.082	3.46
389.443	3.44
389.804	3.45
390.165	3.43
390.526	3.41
390.887	3.4
391.248	3.43
391.609	3.44
391.969	3.38
392.33	3.39
392.691	3.37
393.051	3.33
393.412	3.33
393.772	3.31
394.133	3.32
394.493	3.29
394.854	3.27
395.214	3.27
395.574	3.28
395.935	3.26
396.295	3.28
396.655	3.24
397.015	3.27
397.376	3.25
397.736	3.24
398.096	3.26
398.456	3.23
398.816	3.22
399.176	3.22
399.535	3.23
399.895	3.23
400.255	3.24
400.615	3.25
400.975	3.21
401.334	3.21
401.694	3.2
402.054	3.2
402.413	3.2
402.773	3.19
403.132	3.15
403.492	3.17
403.851	3.17
404.211	3.18
404.57	3.17
404.929	3.18
405.288	3.18
405.648	3.17
406.007	3.21
406.366	3.19
406.725	3.22
407.084	3.23
407.443	3.23
407.802	3.24
408.161	3.26
408.52	3.29
408.879	3.33
409.238	3.33
409.596	3.3
409.955	3.29
410.314	3.29
410.673	3.3
411.031	3.3
411.39	3.25
411.748	3.27
412.107	3.25
412.465	3.23
412.824	3.24
413.182	3.25
413.54	3.22
413.899	3.23
414.257	3.23
414.615	3.22
414.974	3.24
415.332	3.22
415.69	3.18
416.048	3.18
416.406	3.16
416.764	3.17
417.122	3.2
417.48	3.2
417.838	3.21
418.195	3.24
418.553	3.23
418.911	3.25
419.269	3.26
419.626	3.27
419.984	3.28
420.342	3.28
420.699	3.26
421.057	3.27
421.414	3.28
421.772	3.26
422.129	3.26
422.486	3.25
422.844	3.26
423.201	3.27
423.558	3.26
423.915	3.28
424.273	3.27
424.63	3.27
424.987	3.27
425.344	3.26
425.701	3.26
426.058	3.26
426.415	3.26
426.772	3.24
427.128	3.24
427.485	3.22
427.842	3.2
428.199	3.22
428.555	3.23
428.912	3.23
429.269	3.24
429.625	3.25
429.982	3.25
430.338	3.24
430.695	3.23
431.051	3.22
431.407	3.22
431.764	3.2
432.12	3.22
432.476	3.21
432.832	3.22
433.189	3.21
433.545	3.21
433.901	3.21
434.257	3.23
434.613	3.24
434.969	3.26
435.325	3.28
435.681	3.28
436.036	3.27
436.392	3.27
436.748	3.27
437.104	3.27
437.459	3.26
437.815	3.27
438.171	3.28
438.526	3.3
438.882	3.31
439.237	3.32
439.593	3.32
439.948	3.32
440.304	3.33
440.659	3.34
441.014	3.34
441.369	3.33
441.725	3.32
442.08	3.31
442.435	3.3
442.79	3.29
443.145	3.3
443.5	3.3
443.855	3.29
444.21	3.29
444.565	3.3
444.92	3.3
445.275	3.3
445.629	3.3
445.984	3.28
446.339	3.28
446.693	3.26
447.048	3.26
447.403	3.25
447.757	3.25
448.112	3.24
448.466	3.23
448.82	3.23
449.175	3.25
449.529	3.24
449.883	3.24
450.238	3.23
450.592	3.23
450.946	3.25
451.3	3.23
451.654	3.24
452.008	3.23
452.362	3.22
452.716	3.21
453.07	3.23
453.424	3.23
453.778	3.22
454.132	3.22
454.486	3.22
454.839	3.22
455.193	3.22
455.547	3.23
455.9	3.24
456.254	3.24
456.607	3.23
456.961	3.24
457.314	3.24
457.668	3.24
458.021	3.24
458.375	3.23
458.728	3.24
459.081	3.24
459.434	3.22
459.787	3.24
460.141	3.24
460.494	3.24
460.847	3.25
461.2	3.25
461.553	3.25
461.906	3.26
462.259	3.28
462.611	3.29
462.964	3.28
463.317	3.29
463.67	3.29
464.022	3.29
464.375	3.28
464.728	3.29
465.08	3.3
465.433	3.32
465.785	3.31
466.138	3.31
466.49	3.32
466.843	3.34
467.195	3.33
467.547	3.34
467.899	3.34
468.252	3.33
468.604	3.34
468.956	3.34
469.308	3.33
469.66	3.31
470.012	3.3
470.364	3.33
470.716	3.3
471.068	3.32
471.42	3.32
471.772	3.33
472.123	3.35
472.475	3.35
472.827	3.33
473.178	3.34
473.53	3.33
473.882	3.34
474.233	3.33
474.585	3.33
474.936	3.31
475.288	3.31
475.639	3.33
475.99	3.32
476.342	3.32
476.693	3.33
477.044	3.37
477.395	3.36
477.746	3.34
478.097	3.35
478.448	3.35
478.8	3.34
479.15	3.34
479.501	3.33
479.852	3.33
480.203	3.33
480.554	3.35
480.905	3.36
481.255	3.36
481.606	3.38
481.957	3.39
482.307	3.4
482.658	3.4
483.009	3.4
483.359	3.41
483.709	3.43
484.06	3.42
484.41	3.41
484.761	3.4
485.111	3.41
485.461	3.41
485.811	3.41
486.162	3.42
486.512	3.43
486.862	3.43
487.212	3.43
487.562	3.44
487.912	3.43
488.262	3.44
488.612	3.43
488.961	3.43
489.311	3.43
489.661	3.43
490.011	3.42
490.36	3.42
490.71	3.42
491.06	3.4
491.409	3.41
491.759	3.42
492.108	3.43
492.458	3.43
492.807	3.42
493.157	3.42
493.506	3.43
493.855	3.42
494.204	3.42
494.554	3.42
494.903	3.41
495.252	3.42
495.601	3.41
495.95	3.42
496.299	3.42
496.648	3.42
496.997	3.4
497.346	3.41
497.695	3.42
498.043	3.42
498.392	3.42
498.741	3.42
499.09	3.4
499.438	3.41
499.787	3.45
500.135	3.45
500.484	3.47
500.832	3.46
501.181	3.47
501.529	3.47
501.878	3.48
502.226	3.49
502.574	3.49
502.923	3.48
503.271	3.48
503.619	3.47
503.967	3.47
504.315	3.47
504.663	3.49
505.011	3.5
505.359	3.5
505.707	3.52
506.055	3.53
506.403	3.54
506.751	3.53
507.098	3.51
507.446	3.53
507.794	3.53
508.141	3.55
508.489	3.56
508.837	3.57
509.184	3.58
509.531	3.58
509.879	3.6
510.226	3.6
510.574	3.61
510.921	3.63
511.268	3.64
511.616	3.67
511.963	3.66
512.31	3.66
512.657	3.67
513.004	3.69
513.351	3.7
513.698	3.69
514.045	3.68
514.392	3.67
514.739	3.66
515.086	3.65
515.432	3.65
515.779	3.63
516.126	3.63
516.473	3.64
516.819	3.65
517.166	3.63
517.512	3.62
517.859	3.61
518.205	3.61
518.552	3.63
518.898	3.61
519.245	3.61
519.591	3.59
519.937	3.58
520.283	3.55
520.629	3.55
520.976	3.56
521.322	3.57
521.668	3.58
522.014	3.59
522.36	3.57
522.706	3.56
523.052	3.57
523.398	3.58
523.743	3.6
524.089	3.61
524.435	3.62
524.781	3.65
525.126	3.65
525.472	3.65
525.817	3.65
526.163	3.66
526.509	3.66
526.854	3.68
527.199	3.69
527.545	3.7
527.89	3.7
528.235	3.7
528.581	3.72
528.926	3.71
529.271	3.71
529.616	3.72
529.961	3.72
530.306	3.72
530.651	3.71
530.996	3.71
531.341	3.71
531.686	3.71
532.031	3.71
532.376	3.72
532.721	3.73
533.065	3.73
533.41	3.72
533.755	3.71
534.099	3.72
534.444	3.71
534.788	3.71
535.133	3.71
535.477	3.7
535.822	3.68
536.166	3.69
536.51	3.7
536.855	3.7
537.199	3.7
537.543	3.71
537.887	3.71
538.231	3.72
538.576	3.72
538.92	3.71
539.264	3.71
539.608	3.7
539.951	3.71
540.295	3.69
540.639	3.7
540.983	3.72
541.327	3.71
541.671	3.71
542.014	3.72
542.358	3.72
542.701	3.74
543.045	3.75
543.389	3.75
543.732	3.76
544.075	3.76
544.419	3.77
544.762	3.76
545.105	3.76
545.449	3.74
545.792	3.73
546.135	3.72
546.478	3.73
546.821	3.74
547.165	3.73
547.508	3.76
547.851	3.74
548.194	3.72
548.536	3.73
548.879	3.73
549.222	3.73
549.565	3.74
549.908	3.75
550.25	3.74
550.593	3.74
550.936	3.7
551.278	3.71
551.621	3.72
551.963	3.74
552.306	3.77
552.648	3.79
552.991	3.82
553.333	3.85
553.675	3.83
554.017	3.82
554.36	3.85
554.702	3.86
555.044	3.9
555.386	3.91
555.728	3.9
556.07	3.9
556.412	3.92
556.754	3.91
557.096	3.89
557.438	3.89
557.78	3.87
558.121	3.9
558.463	3.91
558.805	3.92
559.147	3.91
559.488	3.91
559.83	3.9
560.171	3.87
560.513	3.86
560.854	3.88
561.196	3.89
561.537	3.87
561.878	3.83
562.22	3.83
562.561	3.81
562.902	3.83
563.243	3.83
563.584	3.82
563.925	3.83
564.266	3.84
564.607	3.83
564.948	3.86
565.289	3.85
565.63	3.86
565.971	3.85
566.312	3.87
566.653	3.88
566.993	3.89
567.334	3.9
567.675	3.94
568.015	3.96
568.356	3.95
568.696	3.97
569.037	3.99
569.377	3.99
569.718	4.01
570.058	4
570.398	3.98
570.739	3.97
571.079	3.97
571.419	3.98
571.759	4
572.099	3.99
572.439	4
572.779	3.97
573.119	3.98
573.459	3.97
573.799	3.97
574.139	3.95
574.479	3.95
574.819	3.93
575.158	3.89
575.498	3.88
575.838	3.85
576.177	3.84
576.517	3.84
576.856	3.84
577.196	3.81
577.535	3.8
577.875	3.82
578.214	3.81
578.553	3.81
578.893	3.83
579.232	3.82
579.571	3.83
579.91	3.88
580.25	3.88
580.589	3.86
580.928	3.86
581.267	3.88
581.606	3.88
581.945	3.84
582.283	3.85
582.622	3.89
582.961	3.92
583.3	3.9
583.639	3.92
583.977	3.93
584.316	3.96
584.654	3.99
584.993	3.98
585.332	3.97
585.67	4.02
586.008	4.01
586.347	4.02
586.685	4
587.024	3.95
587.362	3.94
587.7	3.97
588.038	3.98
588.376	3.99
588.715	3.98
589.053	4.05
589.391	4.06
589.729	4.04
590.067	4.02
590.404	4.08
590.742	4.08
591.08	4.06
591.418	4.07
591.756	4.07
592.093	4.11
592.431	4.1
592.769	4.07
593.106	4.06
593.444	4.06
593.781	4.05
594.119	4.06
594.456	4.07
594.793	4.08
595.131	4.06
595.468	4.05
595.805	4.05
596.143	4.04
596.48	4.02
596.817	4.05
597.154	4.06
597.491	4.02
597.828	4.02
598.165	4.03
598.502	4.04
598.839	4.06
599.176	4.02
599.512	4
599.849	3.99
600.186	4
600.523	4.04
600.859	4.07
601.196	4.08
601.532	4.07
601.869	4.02
602.205	4.01
602.542	4.02
602.878	3.99
603.215	4
603.551	4.03
603.887	4.03
604.223	4.02
604.56	4.05
604.896	4.04
605.232	4.05
605.568	4.06
605.904	4.04
606.24	4.1
606.576	4.13
606.912	4.14
607.248	4.09
607.583	4.11
607.919	4.11
608.255	4.1
608.591	4.11
608.926	4.16
609.262	4.21
609.597	4.25
609.933	4.31
610.268	4.33
610.604	4.34
610.939	4.31
611.275	4.31
611.61	4.3
611.945	4.3
612.281	4.24
612.616	4.23
612.951	4.25
613.286	4.24
613.621	4.23
613.956	4.19
614.291	4.25
614.626	4.25
614.961	4.23
615.296	4.21
615.631	4.23
615.966	4.23
616.3	4.22
616.635	4.18
616.97	4.13
617.304	4.07
617.639	4.09
617.973	4.11
618.308	4.1
618.642	4.11
618.977	4.09
619.311	4.17
619.646	4.21
619.98	4.2
620.314	4.16
620.648	4.22
620.983	4.26
621.317	4.31
621.651	4.29
621.985	4.31
622.319	4.32
622.653	4.3
622.987	4.31
623.321	4.29
623.655	4.3
623.988	4.33
624.322	4.36
624.656	4.3
624.99	4.3
625.323	4.32
625.657	4.31
625.99	4.36
626.324	4.34
626.657	4.31
626.991	4.32
627.324	4.32
627.658	4.25
627.991	4.26
628.324	4.24
628.657	4.21
628.991	4.21
629.324	4.22
629.657	4.21
629.99	4.2
630.323	4.23
630.656	4.25
630.989	4.28
631.322	4.3
631.655	4.33
631.987	4.3
632.32	4.34
632.653	4.34
632.986	4.31
633.318	4.28
633.651	4.33
633.984	4.33
634.316	4.31
634.649	4.32
634.981	4.3
635.313	4.27
635.646	4.26
635.978	4.28
636.31	4.29
636.643	4.3
636.975	4.33
637.307	4.34
637.639	4.32
637.971	4.25
638.303	4.26
638.635	4.23
638.967	4.28
639.299	4.3
639.631	4.36
639.963	4.36
640.295	4.4
640.626	4.4
640.958	4.44
641.29	4.46
641.621	4.5
641.953	4.45
642.285	4.48
642.616	4.51
642.948	4.47
643.279	4.48
643.61	4.46
643.942	4.41
644.273	4.32
644.604	4.32
644.936	4.36
645.267	4.3
645.598	4.33
645.929	4.39
646.26	4.32
646.591	4.33
646.922	4.3
647.253	4.33
647.584	4.23
647.915	4.12
648.245	4.15
648.576	4.18
648.907	4.27
649.238	4.31
649.568	4.32
649.899	4.27
650.229	4.3
650.56	4.34
650.89	4.39
651.221	4.44
651.551	4.43
651.882	4.48
652.212	4.5
652.542	4.51
652.872	4.46
653.203	4.42
653.533	4.42
653.863	4.46
654.193	4.41
654.523	4.47
654.853	4.57
655.183	4.53
655.513	4.48
655.843	4.47
656.172	4.38
656.502	4.39
656.832	4.46
657.162	4.44
657.491	4.43
657.821	4.43
658.15	4.41
658.48	4.4
658.809	4.34
659.139	4.35
659.468	4.35
659.798	4.35
660.127	4.43
660.456	4.44
660.785	4.45
661.115	4.44
661.444	4.44
661.773	4.43
662.102	4.42
662.431	4.47
662.76	4.47
663.089	4.49
663.418	4.46
663.747	4.51
664.076	4.51
664.404	4.53
664.733	4.53
665.062	4.56
665.39	4.63
665.719	4.65
666.048	4.66
666.376	4.64
666.705	4.62
667.033	4.59
667.362	4.59
667.69	4.57
668.018	4.58
668.347	4.64
668.675	4.63
669.003	4.73
669.331	4.83
669.659	4.83
669.987	4.86
670.315	4.87
670.643	4.77
670.971	4.83
671.299	4.83
671.627	4.83
671.955	4.8
672.283	4.82
672.61	4.86
672.938	4.82
673.266	4.87
673.593	4.98
673.921	4.96
674.249	5.01
674.576	4.95
674.904	5.04
675.231	4.99
675.558	4.97
675.886	4.9
676.213	4.76
