Data from BA28420_Reflection_00002.txt Node
Date: Mon Nov 18 16:08:14 EST 2019
User: vgr7
Spectrometer: USB2G7710
Scans to average: 3
Trigger mode: 4
Integration Time (sec): 2.000000E-2
Electric dark correction enabled: true
Boxcar width: 10
XAxis mode: Wavelengths
Number of Pixels in Spectrum: 2048
>>>>>Begin Spectral Data<<<<<
177.721	27.38
178.105	226.98
178.488	866.08
178.871	17.14
179.254	12.95
179.636	94.23
180.019	33.71
180.402	391.67
180.785	-502.69
181.168	-203.42
181.55	-854.02
181.933	140.5
182.316	175.94
182.698	198.63
183.081	355.72
183.463	238.44
183.846	181.01
184.228	153.19
184.611	175.09
184.993	176.22
185.376	228.99
185.758	-24455.56
186.14	873.46
186.522	841.29
186.904	-753.48
187.287	1376.73
187.669	-1647.47
188.051	422.86
188.433	455.68
188.815	228.56
189.197	329.49
189.579	518.8
189.961	485.46
190.342	271.61
190.724	315.98
191.106	259.25
191.488	480.36
191.869	679.2
192.251	1521.46
192.633	686.45
193.014	294.73
193.396	287.05
193.777	218.59
194.159	208.1
194.54	217.83
194.922	260.23
195.303	243.9
195.684	282.92
196.065	538.45
196.447	329.74
196.828	322.5
197.209	336
197.59	307.8
197.971	397.18
198.352	-546.18
198.733	-542.97
199.114	-528.9
199.495	-174.28
199.876	-163.41
200.257	-110.68
200.638	-92.84
201.018	-78.89
201.399	-58.51
201.78	-33.02
202.16	-44.25
202.541	-78.78
202.922	-114.31
203.302	-132.07
203.683	-129.57
204.063	-148.88
204.444	-140.27
204.824	-115.18
205.204	-110.37
205.585	-120.55
205.965	-114.64
206.345	-166.06
206.725	-238
207.106	-258.58
207.486	-715.46
207.866	-497.41
208.246	-526.75
208.626	-638
209.006	-373.25
209.386	-525.87
209.766	-550.99
210.145	-955.2
210.525	-353.95
210.905	-178.91
211.285	-158.15
211.664	-213.45
212.044	-353.11
212.424	-229.33
212.803	-411.84
213.183	-209.02
213.562	-162.28
213.942	-95.97
214.321	-56.27
214.701	-53.28
215.08	-49.11
215.459	-19.73
215.838	-58.09
216.218	-69.13
216.597	-84.45
216.976	-80.48
217.355	-66.19
217.734	-68.09
218.113	-48.81
218.492	-61.75
218.871	-82.32
219.25	-78.68
219.629	-76.54
220.008	-72.3
220.387	-88.13
220.766	-80.17
221.144	-95.25
221.523	-99.26
221.902	-145.24
222.28	-162.44
222.659	-140.51
223.037	-136.35
223.416	-121.86
223.794	-112.56
224.173	-99.93
224.551	-81.57
224.929	-88.98
225.308	-72.76
225.686	-67
226.064	-68.89
226.442	-57.67
226.821	-47.3
227.199	-42.53
227.577	-38.58
227.955	-38.38
228.333	-38.61
228.711	-34.13
229.089	-24.13
229.467	-22.55
229.845	-21.37
230.222	-18.31
230.6	-15.48
230.978	-9.61
231.356	-7.63
231.733	-7.15
232.111	-4.7
232.488	-6.77
232.866	-5.98
233.243	-5.44
233.621	-6.57
233.998	-4.3
234.376	-3.09
234.753	-3.5
235.13	-2.98
235.508	-1.8
235.885	-2.47
236.262	-0.59
236.639	-0.6
237.016	-4.27
237.393	-1.89
237.77	-0.88
238.147	-0.38
238.524	0.45
238.901	0.19
239.278	0.31
239.655	1.06
240.032	0.93
240.409	1.42
240.785	1.71
241.162	2.17
241.539	2.34
241.915	2.34
242.292	1.47
242.668	1.63
243.045	1.43
243.421	1.72
243.798	2.03
244.174	1.86
244.551	2.01
244.927	2.31
245.303	2.11
245.679	2.24
246.056	2.13
246.432	2
246.808	1.99
247.184	1.5
247.56	1.45
247.936	1.38
248.312	1.34
248.688	1.1
249.064	0.99
249.44	0.93
249.815	0.88
250.191	1.19
250.567	1.11
250.943	1.11
251.318	0.89
251.694	0.95
252.069	0.92
252.445	0.79
252.82	0.7
253.196	0.7
253.571	0.73
253.947	0.73
254.322	0.98
254.697	0.71
255.073	0.84
255.448	0.83
255.823	1.02
256.198	1.57
256.573	1.83
256.948	2.13
257.323	2.37
257.698	2.44
258.073	2.47
258.448	2.44
258.823	2.55
259.198	2.53
259.573	2.38
259.948	2.38
260.322	2.32
260.697	2.27
261.072	2.17
261.446	2.07
261.821	2.12
262.195	1.91
262.57	1.86
262.944	1.95
263.319	1.79
263.693	1.74
264.067	1.45
264.442	1.53
264.816	1.29
265.19	1.17
265.564	1.11
265.938	1.07
266.313	1.17
266.687	1.08
267.061	1.17
267.435	1.35
267.809	1.4
268.183	1.54
268.556	1.5
268.93	1.65
269.304	1.61
269.678	1.54
270.051	1.61
270.425	1.81
270.799	1.91
271.172	2.12
271.546	2.09
271.919	2.18
272.293	2.21
272.666	2.28
273.04	2.21
273.413	2.19
273.787	2.15
274.16	2.21
274.533	2.16
274.906	2.18
275.279	2.06
275.653	2.03
276.026	1.89
276.399	1.97
276.772	2.06
277.145	2.05
277.518	2.19
277.891	2.14
278.263	2.07
278.636	2.08
279.009	2
279.382	2.08
279.755	1.99
280.127	2.11
280.5	2.31
280.872	2.52
281.245	2.5
281.617	2.54
281.99	2.56
282.362	2.58
282.735	2.4
283.107	2.53
283.479	2.63
283.852	2.65
284.224	2.65
284.596	2.65
284.968	2.73
285.34	2.75
285.713	2.72
286.085	2.57
286.457	2.61
286.829	2.73
287.201	2.8
287.572	2.81
287.944	2.57
288.316	2.46
288.688	2.34
289.06	2.35
289.431	2.31
289.803	2.25
290.175	2.27
290.546	2.47
290.918	2.47
291.289	2.38
291.661	2.4
292.032	2.31
292.403	2.19
292.775	2.27
293.146	2
293.517	2.12
293.889	2.36
294.26	2.38
294.631	2.18
295.002	2.06
295.373	2.03
295.744	2.14
296.115	2.09
296.486	2.02
296.857	2.12
297.228	2.18
297.599	2.2
297.97	2.23
298.34	2.15
298.711	2.21
299.082	2.17
299.452	2.18
299.823	2.4
300.194	2.38
300.564	2.28
300.935	2.5
301.305	2.4
301.676	2.35
302.046	2.28
302.416	2.46
302.787	2.5
303.157	2.55
303.527	2.45
303.897	2.46
304.267	2.69
304.637	2.72
305.008	2.7
305.378	2.69
305.748	2.79
306.117	2.73
306.487	2.7
306.857	2.85
307.227	2.89
307.597	2.85
307.967	2.87
308.336	2.99
308.706	2.96
309.076	2.97
309.445	2.93
309.815	2.92
310.184	2.9
310.554	2.99
310.923	2.94
311.293	3.03
311.662	2.99
312.031	2.91
312.401	2.85
312.77	2.99
313.139	3.1
313.508	3.08
313.877	3.13
314.246	3.12
314.616	3.19
314.985	3.11
315.353	3.04
315.722	3.17
316.091	3.15
316.46	3.18
316.829	3.11
317.198	3.18
317.567	3.16
317.935	3.24
318.304	3.1
318.672	3.19
319.041	3.35
319.41	3.42
319.778	3.32
320.147	3.21
320.515	3.02
320.883	2.9
321.252	2.76
321.62	2.87
321.988	2.72
322.357	2.6
322.725	2.62
323.093	2.69
323.461	2.6
323.829	2.56
324.197	2.57
324.565	2.77
324.933	2.72
325.301	2.73
325.669	2.61
326.037	2.63
326.405	2.7
326.772	2.6
327.14	2.65
327.508	2.75
327.875	2.87
328.243	2.88
328.61	3.02
328.978	3.08
329.346	3.01
329.713	3.02
330.08	3.05
330.448	2.99
330.815	2.84
331.182	2.81
331.55	2.8
331.917	2.76
332.284	2.75
332.651	2.81
333.018	2.85
333.385	2.84
333.752	2.92
334.119	2.93
334.486	2.91
334.853	2.9
335.22	2.97
335.587	2.95
335.954	2.93
336.32	2.73
336.687	2.82
337.054	2.81
337.42	2.94
337.787	3.04
338.153	3.08
338.52	3.11
338.886	3.13
339.253	3.14
339.619	3.25
339.986	3.23
340.352	3.28
340.718	3.26
341.084	3.25
341.451	3.27
341.817	3.21
342.183	3.23
342.549	3.2
342.915	3.13
343.281	3.04
343.647	3.06
344.013	3.1
344.379	2.94
344.745	2.96
345.11	2.97
345.476	2.93
345.842	2.97
346.208	3.03
346.573	3
346.939	3.09
347.304	2.96
347.67	2.91
348.035	2.89
348.401	2.92
348.766	2.97
349.132	2.99
349.497	3.02
349.862	3.08
350.228	3.13
350.593	3.07
350.958	3.16
351.323	3.21
351.688	3.27
352.053	3.42
352.418	3.44
352.783	3.45
353.148	3.39
353.513	3.35
353.878	3.3
354.243	3.38
354.608	3.35
354.972	3.4
355.337	3.47
355.702	3.41
356.066	3.45
356.431	3.39
356.795	3.45
357.16	3.4
357.524	3.37
357.889	3.25
358.253	3.25
358.618	3.2
358.982	3.19
359.346	3.12
359.71	3.01
360.075	3
360.439	3
360.803	3.04
361.167	3.07
361.531	3.13
361.895	3.1
362.259	3.07
362.623	3.11
362.987	3.03
363.351	3.07
363.714	3.09
364.078	3.14
364.442	3.04
364.806	3.08
365.169	3.02
365.533	3.11
365.896	3.13
366.26	3.17
366.623	3.15
366.987	3.21
367.35	3.31
367.714	3.35
368.077	3.24
368.44	3.22
368.803	3.25
369.167	3.2
369.53	3.17
369.893	3.24
370.256	3.24
370.619	3.32
370.982	3.33
371.345	3.23
371.708	3.23
372.071	3.21
372.434	3.17
372.797	3.2
373.159	3.17
373.522	3.26
373.885	3.27
374.247	3.33
374.61	3.31
374.973	3.27
375.335	3.22
375.698	3.33
376.06	3.31
376.423	3.27
376.785	3.3
377.147	3.38
377.51	3.37
377.872	3.36
378.234	3.34
378.596	3.35
378.958	3.41
379.321	3.41
379.683	3.44
380.045	3.49
380.407	3.52
380.769	3.55
381.13	3.53
381.492	3.52
381.854	3.52
382.216	3.5
382.578	3.57
382.939	3.56
383.301	3.54
383.663	3.54
384.024	3.55
384.386	3.53
384.747	3.53
385.109	3.52
385.47	3.51
385.832	3.52
386.193	3.51
386.554	3.49
386.916	3.52
387.277	3.54
387.638	3.58
387.999	3.55
388.36	3.54
388.721	3.5
389.082	3.49
389.443	3.49
389.804	3.51
390.165	3.48
390.526	3.53
390.887	3.56
391.248	3.62
391.609	3.61
391.969	3.62
392.33	3.61
392.691	3.61
393.051	3.58
393.412	3.63
393.772	3.62
394.133	3.67
394.493	3.67
394.854	3.68
395.214	3.65
395.574	3.69
395.935	3.69
396.295	3.72
396.655	3.74
397.015	3.74
397.376	3.78
397.736	3.75
398.096	3.75
398.456	3.74
398.816	3.74
399.176	3.74
399.535	3.75
399.895	3.73
400.255	3.74
400.615	3.77
400.975	3.73
401.334	3.73
401.694	3.68
402.054	3.63
402.413	3.64
402.773	3.64
403.132	3.61
403.492	3.58
403.851	3.56
404.211	3.55
404.57	3.52
404.929	3.52
405.288	3.54
405.648	3.54
406.007	3.55
406.366	3.5
406.725	3.53
407.084	3.56
407.443	3.56
407.802	3.56
408.161	3.56
408.52	3.58
408.879	3.59
409.238	3.6
409.596	3.63
409.955	3.6
410.314	3.6
410.673	3.61
411.031	3.63
411.39	3.66
411.748	3.67
412.107	3.69
412.465	3.69
412.824	3.69
413.182	3.68
413.54	3.7
413.899	3.73
414.257	3.72
414.615	3.68
414.974	3.71
415.332	3.72
415.69	3.73
416.048	3.74
416.406	3.76
416.764	3.75
417.122	3.76
417.48	3.77
417.838	3.79
418.195	3.79
418.553	3.78
418.911	3.78
419.269	3.8
419.626	3.79
419.984	3.8
420.342	3.8
420.699	3.81
421.057	3.81
421.414	3.79
421.772	3.79
422.129	3.82
422.486	3.8
422.844	3.81
423.201	3.8
423.558	3.81
423.915	3.8
424.273	3.83
424.63	3.82
424.987	3.83
425.344	3.83
425.701	3.84
426.058	3.86
426.415	3.86
426.772	3.85
427.128	3.87
427.485	3.89
427.842	3.88
428.199	3.9
428.555	3.9
428.912	3.95
429.269	3.97
429.625	3.97
429.982	3.98
430.338	3.98
430.695	4.01
431.051	3.99
431.407	3.98
431.764	3.96
432.12	3.97
432.476	3.97
432.832	3.96
433.189	3.95
433.545	3.93
433.901	3.95
434.257	3.95
434.613	3.93
434.969	3.89
435.325	3.89
435.681	3.9
436.036	3.9
436.392	3.89
436.748	3.89
437.104	3.87
437.459	3.87
437.815	3.85
438.171	3.84
438.526	3.87
438.882	3.89
439.237	3.89
439.593	3.89
439.948	3.88
440.304	3.88
440.659	3.88
441.014	3.91
441.369	3.88
441.725	3.87
442.08	3.88
442.435	3.9
442.79	3.92
443.145	3.9
443.5	3.88
443.855	3.88
444.21	3.87
444.565	3.9
444.92	3.92
445.275	3.92
445.629	3.92
445.984	3.91
446.339	3.89
446.693	3.88
447.048	3.88
447.403	3.89
447.757	3.89
448.112	3.89
448.466	3.88
448.82	3.89
449.175	3.91
449.529	3.9
449.883	3.91
450.238	3.89
450.592	3.91
450.946	3.9
451.3	3.89
451.654	3.89
452.008	3.89
452.362	3.86
452.716	3.87
453.07	3.88
453.424	3.87
453.778	3.9
454.132	3.91
454.486	3.92
454.839	3.92
455.193	3.93
455.547	3.95
455.9	3.96
456.254	3.99
456.607	3.98
456.961	3.98
457.314	3.97
457.668	3.98
458.021	3.97
458.375	3.98
458.728	3.99
459.081	4
459.434	4.01
459.787	4.02
460.141	4.02
460.494	4.02
460.847	4.02
461.2	4
461.553	4.01
461.906	4.02
462.259	4.02
462.611	4.02
462.964	4.02
463.317	4.01
463.67	4.01
464.022	4.01
464.375	4.01
464.728	4
465.08	3.99
465.433	4
465.785	3.99
466.138	3.99
466.49	4
466.843	3.97
467.195	3.97
467.547	3.98
467.899	3.99
468.252	3.97
468.604	3.99
468.956	3.97
469.308	3.96
469.66	3.95
470.012	3.95
470.364	3.93
470.716	3.94
471.068	3.93
471.42	3.94
471.772	3.95
472.123	4
472.475	4.01
472.827	4.02
473.178	4.02
473.53	4.01
473.882	3.98
474.233	3.98
474.585	3.97
474.936	3.95
475.288	3.95
475.639	3.97
475.99	3.98
476.342	4
476.693	3.98
477.044	4.01
477.395	4.02
477.746	4.02
478.097	4.01
478.448	4.01
478.8	4.02
479.15	4.01
479.501	4.01
479.852	4.02
480.203	4.04
480.554	4.07
480.905	4.1
481.255	4.13
481.606	4.15
481.957	4.17
482.307	4.19
482.658	4.2
483.009	4.2
483.359	4.2
483.709	4.22
484.06	4.23
484.41	4.24
484.761	4.25
485.111	4.26
485.461	4.27
485.811	4.28
486.162	4.28
486.512	4.3
486.862	4.3
487.212	4.3
487.562	4.3
487.912	4.3
488.262	4.29
488.612	4.29
488.961	4.29
489.311	4.3
489.661	4.29
490.011	4.3
490.36	4.31
490.71	4.31
491.06	4.31
491.409	4.31
491.759	4.3
492.108	4.28
492.458	4.29
492.807	4.27
493.157	4.28
493.506	4.27
493.855	4.27
494.204	4.28
494.554	4.29
494.903	4.27
495.252	4.27
495.601	4.29
495.95	4.3
496.299	4.28
496.648	4.27
496.997	4.26
497.346	4.25
497.695	4.24
498.043	4.25
498.392	4.22
498.741	4.22
499.09	4.2
499.438	4.21
499.787	4.23
500.135	4.25
500.484	4.26
500.832	4.3
501.181	4.3
501.529	4.28
501.878	4.29
502.226	4.29
502.574	4.29
502.923	4.28
503.271	4.27
503.619	4.29
503.967	4.29
504.315	4.29
504.663	4.28
505.011	4.29
505.359	4.27
505.707	4.29
506.055	4.3
506.403	4.31
506.751	4.3
507.098	4.29
507.446	4.3
507.794	4.3
508.141	4.29
508.489	4.3
508.837	4.33
509.184	4.34
509.531	4.34
509.879	4.34
510.226	4.36
510.574	4.37
510.921	4.38
511.268	4.38
511.616	4.39
511.963	4.42
512.31	4.43
512.657	4.43
513.004	4.45
513.351	4.47
513.698	4.46
514.045	4.48
514.392	4.5
514.739	4.49
515.086	4.5
515.432	4.48
515.779	4.48
516.126	4.48
516.473	4.47
516.819	4.48
517.166	4.49
517.512	4.48
517.859	4.48
518.205	4.49
518.552	4.52
518.898	4.54
519.245	4.51
519.591	4.51
519.937	4.52
520.283	4.52
520.629	4.51
520.976	4.54
521.322	4.56
521.668	4.55
522.014	4.57
522.36	4.57
522.706	4.58
523.052	4.58
523.398	4.57
523.743	4.58
524.089	4.58
524.435	4.59
524.781	4.59
525.126	4.6
525.472	4.59
525.817	4.57
526.163	4.57
526.509	4.6
526.854	4.6
527.199	4.6
527.545	4.6
527.89	4.6
528.235	4.58
528.581	4.57
528.926	4.58
529.271	4.57
529.616	4.57
529.961	4.57
530.306	4.57
530.651	4.57
530.996	4.57
531.341	4.57
531.686	4.57
532.031	4.58
532.376	4.59
532.721	4.6
533.065	4.6
533.41	4.6
533.755	4.6
534.099	4.6
534.444	4.61
534.788	4.61
535.133	4.61
535.477	4.61
535.822	4.61
536.166	4.6
536.51	4.59
536.855	4.6
537.199	4.6
537.543	4.62
537.887	4.64
538.231	4.65
538.576	4.66
538.92	4.66
539.264	4.65
539.608	4.65
539.951	4.65
540.295	4.66
540.639	4.66
540.983	4.66
541.327	4.67
541.671	4.67
542.014	4.66
542.358	4.67
542.701	4.69
543.045	4.71
543.389	4.72
543.732	4.73
544.075	4.74
544.419	4.73
544.762	4.72
545.105	4.72
545.449	4.71
545.792	4.71
546.135	4.71
546.478	4.71
546.821	4.73
547.165	4.74
547.508	4.74
547.851	4.75
548.194	4.75
548.536	4.73
548.879	4.73
549.222	4.74
549.565	4.73
549.908	4.73
550.25	4.73
550.593	4.73
550.936	4.73
551.278	4.73
551.621	4.77
551.963	4.78
552.306	4.78
552.648	4.79
552.991	4.8
553.333	4.81
553.675	4.83
554.017	4.82
554.36	4.82
554.702	4.84
555.044	4.8
555.386	4.81
555.728	4.83
556.07	4.86
556.412	4.86
556.754	4.85
557.096	4.83
557.438	4.85
557.78	4.84
558.121	4.85
558.463	4.85
558.805	4.82
559.147	4.82
559.488	4.85
559.83	4.84
560.171	4.82
560.513	4.82
560.854	4.83
561.196	4.81
561.537	4.79
561.878	4.79
562.22	4.82
562.561	4.82
562.902	4.85
563.243	4.84
563.584	4.85
563.925	4.84
564.266	4.86
564.607	4.84
564.948	4.87
565.289	4.91
565.63	4.91
565.971	4.9
566.312	4.9
566.653	4.88
566.993	4.92
567.334	4.92
567.675	4.93
568.015	4.93
568.356	4.9
568.696	4.94
569.037	4.95
569.377	4.95
569.718	4.96
570.058	4.93
570.398	4.92
570.739	4.95
571.079	4.97
571.419	4.96
571.759	4.97
572.099	4.96
572.439	4.94
572.779	4.96
573.119	5
573.459	5.03
573.799	5.05
574.139	5.03
574.479	5.05
574.819	5.05
575.158	5.05
575.498	5.09
575.838	5.08
576.177	5.05
576.517	5.06
576.856	5.06
577.196	5.07
577.535	5.07
577.875	5.08
578.214	5.09
578.553	5.1
578.893	5.11
579.232	5.11
579.571	5.11
579.91	5.1
580.25	5.08
580.589	5.07
580.928	5.07
581.267	5.07
581.606	5.07
581.945	5.08
582.283	5.09
582.622	5.07
582.961	5.09
583.3	5.11
583.639	5.18
583.977	5.17
584.316	5.14
584.654	5.15
584.993	5.12
585.332	5.11
585.67	5.14
586.008	5.12
586.347	5.13
586.685	5.14
587.024	5.14
587.362	5.1
587.7	5.08
588.038	5.09
588.376	5.1
588.715	5.08
589.053	5.08
589.391	5.09
589.729	5.11
590.067	5.07
590.404	5.06
590.742	5.03
591.08	5.05
591.418	5.08
591.756	5.08
592.093	5.09
592.431	5.15
592.769	5.13
593.106	5.18
593.444	5.16
593.781	5.15
594.119	5.16
594.456	5.18
594.793	5.22
595.131	5.2
595.468	5.17
595.805	5.18
596.143	5.17
596.48	5.16
596.817	5.13
597.154	5.15
597.491	5.17
597.828	5.14
598.165	5.14
598.502	5.16
598.839	5.19
599.176	5.18
599.512	5.15
599.849	5.19
600.186	5.17
600.523	5.23
600.859	5.3
601.196	5.32
601.532	5.27
601.869	5.25
602.205	5.28
602.542	5.33
602.878	5.3
603.215	5.31
603.551	5.31
603.887	5.35
604.223	5.35
604.56	5.36
604.896	5.37
605.232	5.38
605.568	5.35
605.904	5.34
606.24	5.35
606.576	5.35
606.912	5.34
607.248	5.34
607.583	5.32
607.919	5.27
608.255	5.25
608.591	5.32
608.926	5.33
609.262	5.35
609.597	5.31
609.933	5.37
610.268	5.36
610.604	5.39
610.939	5.38
611.275	5.38
611.61	5.36
611.945	5.38
612.281	5.38
612.616	5.39
612.951	5.43
613.286	5.41
613.621	5.38
613.956	5.36
614.291	5.33
614.626	5.34
614.961	5.32
615.296	5.32
615.631	5.31
615.966	5.28
616.3	5.3
616.635	5.35
616.97	5.32
617.304	5.34
617.639	5.3
617.973	5.29
618.308	5.27
618.642	5.29
618.977	5.25
619.311	5.26
619.646	5.29
619.98	5.28
620.314	5.31
620.648	5.31
620.983	5.35
621.317	5.39
621.651	5.37
621.985	5.48
622.319	5.49
622.653	5.48
622.987	5.53
623.321	5.53
623.655	5.49
623.988	5.57
624.322	5.54
624.656	5.6
624.99	5.61
625.323	5.65
625.657	5.66
625.99	5.71
626.324	5.75
626.657	5.75
626.991	5.73
627.324	5.71
627.658	5.75
627.991	5.72
628.324	5.72
628.657	5.73
628.991	5.65
629.324	5.68
629.657	5.72
629.99	5.74
630.323	5.7
630.656	5.74
630.989	5.72
631.322	5.74
631.655	5.71
631.987	5.75
632.32	5.73
632.653	5.73
632.986	5.68
633.318	5.65
633.651	5.67
633.984	5.69
634.316	5.71
634.649	5.72
634.981	5.72
635.313	5.73
635.646	5.73
635.978	5.78
636.31	5.79
636.643	5.76
636.975	5.68
637.307	5.72
637.639	5.75
637.971	5.69
638.303	5.69
638.635	5.65
638.967	5.62
639.299	5.59
639.631	5.56
639.963	5.56
640.295	5.56
640.626	5.49
640.958	5.56
641.29	5.56
641.621	5.56
641.953	5.55
642.285	5.52
642.616	5.55
642.948	5.56
643.279	5.57
643.61	5.58
643.942	5.63
644.273	5.63
644.604	5.62
644.936	5.69
645.267	5.73
645.598	5.78
645.929	5.78
646.26	5.87
646.591	5.88
646.922	5.85
647.253	5.87
647.584	5.85
647.915	5.78
648.245	5.79
648.576	5.78
648.907	5.87
649.238	5.87
649.568	5.83
649.899	5.81
650.229	5.73
650.56	5.78
650.89	5.73
651.221	5.77
651.551	5.69
651.882	5.63
652.212	5.57
652.542	5.6
652.872	5.55
653.203	5.5
653.533	5.52
653.863	5.62
654.193	5.58
654.523	5.64
654.853	5.61
655.183	5.65
655.513	5.58
655.843	5.53
656.172	5.57
656.502	5.63
656.832	5.62
657.162	5.65
657.491	5.62
657.821	5.73
658.15	5.68
658.48	5.68
658.809	5.69
659.139	5.78
659.468	5.72
659.798	5.82
660.127	5.94
660.456	6.01
660.785	5.96
661.115	5.97
661.444	5.97
661.773	6.02
662.102	5.97
662.431	6.03
662.76	6.06
663.089	6.02
663.418	5.96
663.747	5.95
664.076	6.01
664.404	5.95
664.733	5.85
665.062	5.89
665.39	5.96
665.719	6
666.048	5.95
666.376	6.01
666.705	5.98
667.033	5.83
667.362	5.8
667.69	5.87
668.018	5.86
668.347	5.8
668.675	5.82
669.003	5.9
669.331	5.96
669.659	5.94
669.987	5.96
670.315	6.03
670.643	6.07
670.971	6.05
671.299	6.17
671.627	6.21
671.955	6.18
672.283	6.25
672.61	6.28
672.938	6.36
673.266	6.39
673.593	6.46
673.921	6.46
674.249	6.44
674.576	6.47
674.904	6.45
675.231	6.54
675.558	6.48
675.886	6.4
676.213	6.32
