Data from BA28302_Reflection_00013.txt Node
Date: Mon Nov 18 15:49:03 EST 2019
User: vgr7
Spectrometer: USB2G7710
Scans to average: 3
Trigger mode: 4
Integration Time (sec): 2.000000E-2
Electric dark correction enabled: true
Boxcar width: 10
XAxis mode: Wavelengths
Number of Pixels in Spectrum: 2048
>>>>>Begin Spectral Data<<<<<
177.721	270.73
178.105	-73.23
178.488	24.08
178.871	19.92
179.254	930.51
179.636	-110.53
180.019	581.17
180.402	93.18
180.785	-85.01
181.168	548.86
181.55	-556.05
181.933	233.62
182.316	163.85
182.698	142.5
183.081	176.01
183.463	391.36
183.846	195.53
184.228	149.48
184.611	146.81
184.993	221.87
185.376	-14614.29
185.758	1060.4
186.14	-1785.25
186.522	145.37
186.904	122.08
187.287	165.03
187.669	23.08
188.051	66.33
188.433	33.72
188.815	-84.86
189.197	-475.22
189.579	2700
189.961	-798.31
190.342	-192.78
190.724	136.25
191.106	-187.13
191.488	-37.46
191.869	106.91
192.251	125.99
192.633	874.65
193.014	306.8
193.396	176.44
193.777	3858.62
194.159	-1990.91
194.54	-99.45
194.922	-52.48
195.303	-96.74
195.684	-67.44
196.065	-13.19
196.447	-9.19
196.828	-46.1
197.209	-43.54
197.59	-58.67
197.971	300
198.352	103.46
198.733	281.64
199.114	135.1
199.495	114.82
199.876	133.99
200.257	153.41
200.638	181.64
201.018	174.99
201.399	190.53
201.78	201.95
202.16	161.33
202.541	170.52
202.922	324.18
203.302	173.78
203.683	52.84
204.063	-28.91
204.444	139.81
204.824	682.42
205.204	164.79
205.585	27.32
205.965	32.51
206.345	-20.64
206.725	-23.35
207.106	1128.17
207.486	291.87
207.866	285.69
208.246	991.63
208.626	1446.37
209.006	392.31
209.386	530.14
209.766	-778.54
210.145	-378.74
210.525	-180.21
210.905	-88.29
211.285	-101.06
211.664	-76.69
212.044	-46.54
212.424	-54.71
212.803	-52.8
213.183	-29.76
213.562	-42.6
213.942	-72.56
214.321	-62.71
214.701	-85.09
215.08	-77.35
215.459	-53.95
215.838	-29.19
216.218	-38.74
216.597	-19.73
216.976	-23.11
217.355	-8.05
217.734	4.75
218.113	6.43
218.492	8.67
218.871	-5.74
219.25	18.16
219.629	21.71
220.008	-0.78
220.387	16.85
220.766	12.84
221.144	-11.56
221.523	-13.17
221.902	-2.31
222.28	-18.79
222.659	-8.38
223.037	5.66
223.416	-9.57
223.794	-18.56
224.173	-9.28
224.551	-9.32
224.929	-7.72
225.308	-7.96
225.686	-10
226.064	-4.28
226.442	-5.96
226.821	-0.94
227.199	-2.4
227.577	-3.88
227.955	-3.83
228.333	-7.4
228.711	-6.59
229.089	-3.59
229.467	-0.27
229.845	-1.67
230.222	4.67
230.6	3.59
230.978	2.58
231.356	5.86
231.733	5.9
232.111	5.2
232.488	5.06
232.866	5.4
233.243	4.62
233.621	4.45
233.998	5.44
234.376	6.7
234.753	5.64
235.13	5.35
235.508	6.23
235.885	7.97
236.262	7.84
236.639	10.16
237.016	9.74
237.393	9.09
237.77	9.86
238.147	8.09
238.524	7.57
238.901	7.21
239.278	7.83
239.655	8.45
240.032	8.26
240.409	7.57
240.785	7
241.162	7.09
241.539	7.11
241.915	6.5
242.292	5.85
242.668	5.76
243.045	5.65
243.421	5.35
243.798	5.03
244.174	4.79
244.551	4.4
244.927	4.11
245.303	4.04
245.679	4.05
246.056	4.01
246.432	4.12
246.808	3.85
247.184	3.46
247.56	3.27
247.936	3.27
248.312	3.12
248.688	3.24
249.064	3.12
249.44	3.26
249.815	3.28
250.191	3.47
250.567	3.63
250.943	3.46
251.318	3.54
251.694	3.67
252.069	3.87
252.445	4.16
252.82	4.43
253.196	4.58
253.571	4.47
253.947	4.54
254.322	4.63
254.697	4.68
255.073	4.51
255.448	4.42
255.823	4.17
256.198	4.34
256.573	4.2
256.948	4.25
257.323	4.15
257.698	3.99
258.073	3.88
258.448	3.71
258.823	3.81
259.198	3.75
259.573	3.68
259.948	3.56
260.322	3.39
260.697	3.33
261.072	3.24
261.446	3.27
261.821	3.14
262.195	3.15
262.57	3.23
262.944	3.29
263.319	3.27
263.693	3.14
264.067	3.1
264.442	3.13
264.816	3.08
265.19	2.91
265.564	2.97
265.938	2.9
266.313	2.74
266.687	2.79
267.061	2.78
267.435	2.73
267.809	2.96
268.183	2.91
268.556	2.73
268.93	2.75
269.304	2.68
269.678	2.75
270.051	2.74
270.425	2.77
270.799	2.79
271.172	2.89
271.546	3.01
271.919	3.04
272.293	2.87
272.666	2.9
273.04	2.92
273.413	2.7
273.787	2.73
274.16	2.88
274.533	2.89
274.906	2.8
275.279	2.79
275.653	2.64
276.026	2.64
276.399	2.79
276.772	2.76
277.145	2.7
277.518	2.88
277.891	2.77
278.263	2.7
278.636	2.62
279.009	2.63
279.382	2.75
279.755	2.65
280.127	2.87
280.5	2.82
280.872	2.84
281.245	2.98
281.617	2.97
281.99	2.99
282.362	3.05
282.735	2.99
283.107	2.93
283.479	3
283.852	3
284.224	2.99
284.596	3.09
284.968	3.28
285.34	3.17
285.713	3.32
286.085	3.35
286.457	3.37
286.829	3.4
287.201	3.3
287.572	3.35
287.944	3.3
288.316	3.38
288.688	3.39
289.06	3.35
289.431	3.46
289.803	3.48
290.175	3.38
290.546	3.52
290.918	3.7
291.289	3.73
291.661	3.81
292.032	3.97
292.403	3.85
292.775	3.81
293.146	3.78
293.517	3.61
293.889	3.71
294.26	3.66
294.631	3.59
295.002	3.66
295.373	3.74
295.744	3.73
296.115	3.79
296.486	3.83
296.857	3.95
297.228	3.93
297.599	3.96
297.97	4.04
298.34	4.05
298.711	3.99
299.082	4.06
299.452	3.95
299.823	4
300.194	4.06
300.564	4.02
300.935	4.2
301.305	4.25
301.676	4.37
302.046	4.51
302.416	4.64
302.787	4.69
303.157	4.76
303.527	4.86
303.897	4.96
304.267	5.05
304.637	5.19
305.008	5.37
305.378	5.54
305.748	5.61
306.117	5.65
306.487	5.64
306.857	5.61
307.227	5.79
307.597	5.7
307.967	5.81
308.336	5.88
308.706	5.83
309.076	5.87
309.445	5.79
309.815	5.74
310.184	5.77
310.554	5.96
310.923	5.87
311.293	5.83
311.662	5.71
312.031	5.65
312.401	5.53
312.77	5.45
313.139	5.37
313.508	5.4
313.877	5.47
314.246	5.57
314.616	5.5
314.985	5.53
315.353	5.61
315.722	5.61
316.091	5.61
316.46	5.55
316.829	5.67
317.198	5.69
317.567	5.82
317.935	5.78
318.304	5.78
318.672	5.81
319.041	5.99
319.41	6.06
319.778	6.24
320.147	6.4
320.515	6.47
320.883	6.45
321.252	6.45
321.62	6.5
321.988	6.55
322.357	6.75
322.725	6.86
323.093	6.94
323.461	6.94
323.829	6.96
324.197	7.11
324.565	7.14
324.933	7.16
325.301	7.22
325.669	7.32
326.037	7.3
326.405	7.43
326.772	7.48
327.14	7.65
327.508	7.63
327.875	7.56
328.243	7.7
328.61	7.72
328.978	7.83
329.346	7.97
329.713	7.91
330.08	8
330.448	7.89
330.815	7.83
331.182	7.86
331.55	7.99
331.917	8.09
332.284	8.21
332.651	8.25
333.018	8.38
333.385	8.47
333.752	8.55
334.119	8.56
334.486	8.61
334.853	8.59
335.22	8.58
335.587	8.69
335.954	8.62
336.32	8.63
336.687	8.6
337.054	8.55
337.42	8.68
337.787	8.59
338.153	8.75
338.52	8.85
338.886	8.94
339.253	8.97
339.619	8.85
339.986	8.81
340.352	8.9
340.718	8.8
341.084	8.74
341.451	8.8
341.817	8.86
342.183	8.79
342.549	8.85
342.915	8.87
343.281	8.92
343.647	8.98
344.013	9.12
344.379	9.09
344.745	9.14
345.11	9.21
345.476	9.25
345.842	9.22
346.208	9.25
346.573	9.35
346.939	9.42
347.304	9.51
347.67	9.47
348.035	9.5
348.401	9.57
348.766	9.63
349.132	9.59
349.497	9.56
349.862	9.68
350.228	9.64
350.593	9.64
350.958	9.66
351.323	9.73
351.688	9.71
352.053	9.79
352.418	9.74
352.783	9.68
353.148	9.7
353.513	9.65
353.878	9.55
354.243	9.61
354.608	9.54
354.972	9.58
355.337	9.66
355.702	9.59
356.066	9.61
356.431	9.52
356.795	9.54
357.16	9.58
357.524	9.47
357.889	9.41
358.253	9.48
358.618	9.45
358.982	9.38
359.346	9.29
359.71	9.26
360.075	9.24
360.439	9.24
360.803	9.22
361.167	9.19
361.531	9.21
361.895	9.08
362.259	9.07
362.623	9.04
362.987	8.95
363.351	8.96
363.714	8.96
364.078	8.92
364.442	8.86
364.806	8.7
365.169	8.67
365.533	8.73
365.896	8.73
366.26	8.69
366.623	8.59
366.987	8.65
367.35	8.62
367.714	8.59
368.077	8.46
368.44	8.44
368.803	8.5
369.167	8.45
369.53	8.36
369.893	8.33
370.256	8.3
370.619	8.36
370.982	8.26
371.345	8.19
371.708	8.21
372.071	8.16
372.434	8.18
372.797	8.2
373.159	8.09
373.522	7.99
373.885	8.02
374.247	8.05
374.61	7.92
374.973	7.91
375.335	7.9
375.698	7.93
376.06	7.83
376.423	7.76
376.785	7.77
377.147	7.79
377.51	7.74
377.872	7.68
378.234	7.6
378.596	7.59
378.958	7.51
379.321	7.45
379.683	7.42
380.045	7.44
380.407	7.35
380.769	7.3
381.13	7.22
381.492	7.09
381.854	7.08
382.216	7.08
382.578	7.03
382.939	6.92
383.301	6.9
383.663	6.89
384.024	6.83
384.386	6.79
384.747	6.73
385.109	6.7
385.47	6.64
385.832	6.58
386.193	6.5
386.554	6.48
386.916	6.47
387.277	6.41
387.638	6.35
387.999	6.31
388.36	6.29
388.721	6.24
389.082	6.22
389.443	6.13
389.804	6.06
390.165	6.01
390.526	6
390.887	5.93
391.248	5.9
391.609	5.87
391.969	5.81
392.33	5.79
392.691	5.73
393.051	5.7
393.412	5.69
393.772	5.64
394.133	5.61
394.493	5.54
394.854	5.5
395.214	5.46
395.574	5.41
395.935	5.33
396.295	5.31
396.655	5.28
397.015	5.23
397.376	5.18
397.736	5.11
398.096	5.1
398.456	5.06
398.816	5
399.176	4.94
399.535	4.88
399.895	4.81
400.255	4.8
400.615	4.75
400.975	4.73
401.334	4.72
401.694	4.66
402.054	4.64
402.413	4.63
402.773	4.57
403.132	4.57
403.492	4.59
403.851	4.55
404.211	4.53
404.57	4.52
404.929	4.52
405.288	4.5
405.648	4.46
406.007	4.45
406.366	4.46
406.725	4.45
407.084	4.43
407.443	4.44
407.802	4.42
408.161	4.4
408.52	4.33
408.879	4.31
409.238	4.32
409.596	4.29
409.955	4.25
410.314	4.25
410.673	4.21
411.031	4.2
411.39	4.16
411.748	4.14
412.107	4.14
412.465	4.11
412.824	4.1
413.182	4.03
413.54	4.03
413.899	3.99
414.257	3.97
414.615	3.94
414.974	3.92
415.332	3.89
415.69	3.87
416.048	3.85
416.406	3.84
416.764	3.8
417.122	3.8
417.48	3.77
417.838	3.76
418.195	3.75
418.553	3.72
418.911	3.72
419.269	3.69
419.626	3.67
419.984	3.63
420.342	3.62
420.699	3.61
421.057	3.58
421.414	3.57
421.772	3.55
422.129	3.54
422.486	3.51
422.844	3.5
423.201	3.48
423.558	3.47
423.915	3.46
424.273	3.45
424.63	3.42
424.987	3.42
425.344	3.4
425.701	3.39
426.058	3.36
426.415	3.34
426.772	3.34
427.128	3.31
427.485	3.33
427.842	3.32
428.199	3.33
428.555	3.31
428.912	3.3
429.269	3.29
429.625	3.29
429.982	3.28
430.338	3.25
430.695	3.25
431.051	3.24
431.407	3.22
431.764	3.2
432.12	3.2
432.476	3.19
432.832	3.18
433.189	3.17
433.545	3.16
433.901	3.17
434.257	3.17
434.613	3.18
434.969	3.16
435.325	3.14
435.681	3.12
436.036	3.14
436.392	3.16
436.748	3.16
437.104	3.16
437.459	3.17
437.815	3.17
438.171	3.18
438.526	3.19
438.882	3.19
439.237	3.21
439.593	3.22
439.948	3.21
440.304	3.22
440.659	3.22
441.014	3.24
441.369	3.21
441.725	3.19
442.08	3.18
442.435	3.18
442.79	3.17
443.145	3.16
443.5	3.14
443.855	3.13
444.21	3.11
444.565	3.11
444.92	3.11
445.275	3.11
445.629	3.11
445.984	3.09
446.339	3.06
446.693	3.04
447.048	3.02
447.403	3.02
447.757	3.01
448.112	2.98
448.466	2.96
448.82	2.96
449.175	2.97
449.529	2.96
449.883	2.96
450.238	2.96
450.592	2.97
450.946	2.98
451.3	2.96
451.654	2.95
452.008	2.93
452.362	2.91
452.716	2.9
453.07	2.88
453.424	2.88
453.778	2.9
454.132	2.9
454.486	2.88
454.839	2.89
455.193	2.88
455.547	2.88
455.9	2.89
456.254	2.89
456.607	2.89
456.961	2.9
457.314	2.89
457.668	2.89
458.021	2.87
458.375	2.87
458.728	2.86
459.081	2.87
459.434	2.87
459.787	2.87
460.141	2.87
460.494	2.88
460.847	2.88
461.2	2.87
461.553	2.88
461.906	2.91
462.259	2.91
462.611	2.93
462.964	2.95
463.317	2.95
463.67	2.95
464.022	2.97
464.375	2.96
464.728	2.97
465.08	2.98
465.433	3.02
465.785	3.03
466.138	3.05
466.49	3.05
466.843	3.05
467.195	3.07
467.547	3.1
467.899	3.11
468.252	3.11
468.604	3.13
468.956	3.15
469.308	3.16
469.66	3.14
470.012	3.16
470.364	3.17
470.716	3.17
471.068	3.19
471.42	3.19
471.772	3.2
472.123	3.22
472.475	3.22
472.827	3.23
473.178	3.23
473.53	3.21
473.882	3.23
474.233	3.25
474.585	3.24
474.936	3.23
475.288	3.23
475.639	3.23
475.99	3.24
476.342	3.24
476.693	3.23
477.044	3.26
477.395	3.26
477.746	3.25
478.097	3.25
478.448	3.24
478.8	3.23
479.15	3.22
479.501	3.21
479.852	3.2
480.203	3.19
480.554	3.19
480.905	3.21
481.255	3.19
481.606	3.2
481.957	3.19
482.307	3.19
482.658	3.19
483.009	3.18
483.359	3.18
483.709	3.18
484.06	3.18
484.41	3.17
484.761	3.17
485.111	3.17
485.461	3.17
485.811	3.16
486.162	3.16
486.512	3.16
486.862	3.16
487.212	3.16
487.562	3.16
487.912	3.16
488.262	3.15
488.612	3.15
488.961	3.14
489.311	3.15
489.661	3.15
490.011	3.15
490.36	3.15
490.71	3.15
491.06	3.15
491.409	3.16
491.759	3.16
492.108	3.16
492.458	3.17
492.807	3.17
493.157	3.19
493.506	3.21
493.855	3.21
494.204	3.22
494.554	3.25
494.903	3.25
495.252	3.27
495.601	3.31
495.95	3.33
496.299	3.35
496.648	3.36
496.997	3.38
497.346	3.41
497.695	3.44
498.043	3.46
498.392	3.46
498.741	3.49
499.09	3.51
499.438	3.55
499.787	3.57
500.135	3.6
500.484	3.64
500.832	3.69
501.181	3.73
501.529	3.76
501.878	3.77
502.226	3.81
502.574	3.82
502.923	3.84
503.271	3.88
503.619	3.93
503.967	3.99
504.315	4.02
504.663	4.07
505.011	4.11
505.359	4.16
505.707	4.23
506.055	4.28
506.403	4.3
506.751	4.34
507.098	4.4
507.446	4.45
507.794	4.49
508.141	4.52
508.489	4.57
508.837	4.62
509.184	4.67
509.531	4.72
509.879	4.79
510.226	4.85
510.574	4.89
510.921	4.92
511.268	4.96
511.616	5.01
511.963	5.04
512.31	5.08
512.657	5.14
513.004	5.21
513.351	5.25
513.698	5.32
514.045	5.37
514.392	5.43
514.739	5.5
515.086	5.55
515.432	5.6
515.779	5.65
516.126	5.72
516.473	5.79
516.819	5.86
517.166	5.91
517.512	5.96
517.859	6.03
518.205	6.09
518.552	6.14
518.898	6.18
519.245	6.25
519.591	6.34
519.937	6.36
520.283	6.42
520.629	6.48
520.976	6.53
521.322	6.61
521.668	6.69
522.014	6.73
522.36	6.81
522.706	6.89
523.052	6.99
523.398	7.09
523.743	7.2
524.089	7.3
524.435	7.41
524.781	7.51
525.126	7.61
525.472	7.7
525.817	7.78
526.163	7.86
526.509	7.94
526.854	8
527.199	8.08
527.545	8.15
527.89	8.23
528.235	8.31
528.581	8.39
528.926	8.46
529.271	8.55
529.616	8.62
529.961	8.71
530.306	8.8
530.651	8.87
530.996	8.97
531.341	9.06
531.686	9.16
532.031	9.27
532.376	9.37
532.721	9.47
533.065	9.6
533.41	9.74
533.755	9.88
534.099	10.02
534.444	10.17
534.788	10.32
535.133	10.47
535.477	10.61
535.822	10.75
536.166	10.95
536.51	11.14
536.855	11.36
537.199	11.58
537.543	11.77
537.887	12.02
538.231	12.24
538.576	12.47
538.92	12.71
539.264	12.95
539.608	13.18
539.951	13.39
540.295	13.62
540.639	13.82
540.983	14
541.327	14.21
541.671	14.41
542.014	14.61
542.358	14.79
542.701	15
543.045	15.21
543.389	15.4
543.732	15.61
544.075	15.83
544.419	16.04
544.762	16.31
545.105	16.53
545.449	16.76
545.792	17.04
546.135	17.29
546.478	17.58
546.821	17.88
547.165	18.2
547.508	18.48
547.851	18.8
548.194	19.13
548.536	19.46
548.879	19.82
549.222	20.14
549.565	20.51
549.908	20.89
550.25	21.27
550.593	21.63
550.936	22.01
551.278	22.38
551.621	22.75
551.963	23.11
552.306	23.53
552.648	23.93
552.991	24.36
553.333	24.75
553.675	25.09
554.017	25.48
554.36	25.85
554.702	26.24
555.044	26.62
555.386	27.02
555.728	27.38
556.07	27.75
556.412	28.14
556.754	28.48
557.096	28.81
557.438	29.22
557.78	29.64
558.121	30.03
558.463	30.42
558.805	30.8
559.147	31.21
559.488	31.55
559.83	31.92
560.171	32.2
560.513	32.55
560.854	32.97
561.196	33.31
561.537	33.68
561.878	34.01
562.22	34.28
562.561	34.58
562.902	34.9
563.243	35.21
563.584	35.53
563.925	35.82
564.266	36.18
564.607	36.47
564.948	36.76
565.289	37.04
565.63	37.32
565.971	37.67
566.312	37.95
566.653	38.28
566.993	38.56
567.334	38.87
567.675	39.17
568.015	39.4
568.356	39.64
568.696	39.94
569.037	40.17
569.377	40.48
569.718	40.78
570.058	41.08
570.398	41.32
570.739	41.59
571.079	41.9
571.419	42.17
571.759	42.46
572.099	42.67
572.439	42.91
572.779	43.16
573.119	43.37
573.459	43.57
573.799	43.77
574.139	43.96
574.479	44.13
574.819	44.33
575.158	44.54
575.498	44.78
575.838	44.95
576.177	45.19
576.517	45.42
576.856	45.61
577.196	45.81
577.535	46.08
577.875	46.31
578.214	46.51
578.553	46.74
578.893	46.89
579.232	47.13
579.571	47.35
579.91	47.48
580.25	47.63
580.589	47.81
580.928	47.99
581.267	48.21
581.606	48.45
581.945	48.63
582.283	48.79
582.622	48.97
582.961	49.1
583.3	49.29
583.639	49.48
583.977	49.67
584.316	49.82
584.654	49.95
584.993	50.11
585.332	50.24
585.67	50.32
586.008	50.49
586.347	50.62
586.685	50.82
587.024	50.92
587.362	51.07
587.7	51.23
588.038	51.32
588.376	51.44
588.715	51.55
589.053	51.65
589.391	51.78
589.729	51.92
590.067	52.08
590.404	52.15
590.742	52.22
591.08	52.29
591.418	52.37
591.756	52.45
592.093	52.54
592.431	52.59
592.769	52.7
593.106	52.78
593.444	52.86
593.781	52.88
594.119	52.95
594.456	53.04
594.793	53.04
595.131	53.09
595.468	53.2
595.805	53.28
596.143	53.34
596.48	53.44
596.817	53.53
597.154	53.58
597.491	53.73
597.828	53.79
598.165	53.84
598.502	53.93
598.839	53.98
599.176	54.03
599.512	54.15
599.849	54.27
600.186	54.32
600.523	54.41
600.859	54.5
601.196	54.64
601.532	54.8
601.869	54.9
602.205	55.03
602.542	55.09
602.878	55.13
603.215	55.22
603.551	55.27
603.887	55.26
604.223	55.24
604.56	55.2
604.896	55.24
605.232	55.25
605.568	55.27
605.904	55.35
606.24	55.43
606.576	55.55
606.912	55.54
607.248	55.62
607.583	55.69
607.919	55.75
608.255	55.78
608.591	55.69
608.926	55.78
609.262	55.78
609.597	55.79
609.933	55.87
610.268	55.87
610.604	55.95
610.939	55.97
611.275	56.12
611.61	56.23
611.945	56.31
612.281	56.41
612.616	56.53
612.951	56.57
613.286	56.56
613.621	56.63
613.956	56.68
614.291	56.74
614.626	56.78
614.961	56.88
615.296	56.92
615.631	57.04
615.966	57.09
616.3	57.16
616.635	57.28
616.97	57.29
617.304	57.31
617.639	57.29
617.973	57.35
618.308	57.36
618.642	57.41
618.977	57.45
619.311	57.5
619.646	57.53
619.98	57.54
620.314	57.56
620.648	57.54
620.983	57.59
621.317	57.55
621.651	57.54
621.985	57.53
622.319	57.6
622.653	57.57
622.987	57.62
623.321	57.6
623.655	57.58
623.988	57.59
624.322	57.64
624.656	57.67
624.99	57.72
625.323	57.75
625.657	57.68
625.99	57.67
626.324	57.69
626.657	57.65
626.991	57.66
627.324	57.66
627.658	57.7
627.991	57.67
628.324	57.68
628.657	57.71
628.991	57.75
629.324	57.79
629.657	57.88
629.99	57.82
630.323	57.79
630.656	57.81
630.989	57.88
631.322	57.85
631.655	57.77
631.987	57.81
632.32	57.79
632.653	57.84
632.986	57.88
633.318	57.87
633.651	57.93
633.984	57.94
634.316	57.99
634.649	57.92
634.981	57.95
635.313	57.99
635.646	57.99
635.978	57.96
636.31	57.95
636.643	58.03
636.975	58.18
637.307	58.29
637.639	58.27
637.971	58.33
638.303	58.48
638.635	58.6
638.967	58.64
639.299	58.76
639.631	58.78
639.963	58.81
640.295	58.8
640.626	58.86
640.958	59
641.29	59.03
641.621	59.11
641.953	59.09
642.285	59.12
642.616	59.23
642.948	59.26
643.279	59.3
643.61	59.21
643.942	59.2
644.273	59.22
644.604	59.3
644.936	59.14
645.267	59.04
645.598	59.06
645.929	59.04
646.26	58.96
646.591	58.96
646.922	58.97
647.253	59.03
647.584	58.99
647.915	58.99
648.245	59.05
648.576	59.13
648.907	59.22
649.238	59.32
649.568	59.26
649.899	59.14
650.229	59.16
650.56	59.16
650.89	59.23
651.221	59.28
651.551	59.25
651.882	59.36
652.212	59.34
652.542	59.43
652.872	59.42
653.203	59.52
653.533	59.57
653.863	59.66
654.193	59.71
654.523	59.73
654.853	59.76
655.183	59.74
655.513	59.68
655.843	59.75
656.172	59.57
656.502	59.73
656.832	59.9
657.162	59.82
657.491	59.81
657.821	59.75
658.15	59.71
658.48	59.82
658.809	59.9
659.139	60.01
659.468	60.04
659.798	60.13
660.127	60.13
660.456	60.09
660.785	59.94
661.115	59.94
661.444	59.87
661.773	59.84
662.102	59.9
662.431	59.98
662.76	59.88
663.089	60.05
663.418	59.98
663.747	59.91
664.076	59.96
664.404	60.06
664.733	60.08
665.062	60.2
665.39	60.03
665.719	59.77
666.048	59.76
666.376	59.62
666.705	59.52
667.033	59.54
667.362	59.66
667.69	59.7
668.018	59.6
668.347	59.69
