Data from BA28299_Reflection_00011.txt Node
Date: Mon Nov 18 15:42:31 EST 2019
User: vgr7
Spectrometer: USB2G7710
Scans to average: 3
Trigger mode: 4
Integration Time (sec): 2.000000E-2
Electric dark correction enabled: true
Boxcar width: 10
XAxis mode: Wavelengths
Number of Pixels in Spectrum: 2048
>>>>>Begin Spectral Data<<<<<
177.721	-20.47
178.105	-152.87
178.488	-96.35
178.871	448.48
179.254	-5.02
179.636	137.95
180.019	39.15
180.402	71.15
180.785	-478.23
181.168	422.92
181.55	-421.37
181.933	206.01
182.316	126.13
182.698	94.55
183.081	71.25
183.463	119.73
183.846	124.09
184.228	708.47
184.611	8966.67
184.993	-308.2
185.376	-359.17
185.758	-542.7
186.14	-370.99
186.522	-345.82
186.904	-139.33
187.287	-373.98
187.669	-81.78
188.051	-116.09
188.433	-98.04
188.815	-96.34
189.197	-98.42
189.579	-71.19
189.961	-82.62
190.342	-54.99
190.724	-54.73
191.106	-60.61
191.488	-55.97
191.869	-47.27
192.251	-61.42
192.633	-59.59
193.014	-40.19
193.396	-34.15
193.777	-29.15
194.159	-42.45
194.54	-27.33
194.922	-40.61
195.303	-32.24
195.684	-40.57
196.065	-27.05
196.447	-31.71
196.828	-28.95
197.209	-29.21
197.59	-42.27
197.971	-49.55
198.352	-46.4
198.733	-50.08
199.114	-54.89
199.495	-47.84
199.876	-43.47
200.257	-45.61
200.638	-44.94
201.018	-56.37
201.399	-52.42
201.78	-50.04
202.16	-49.52
202.541	-72.8
202.922	-81.32
203.302	-84.41
203.683	-94.58
204.063	-99.84
204.444	-107.69
204.824	-108.53
205.204	-96.98
205.585	-96.38
205.965	-79.18
206.345	-89.84
206.725	-96.73
207.106	-140.72
207.486	-194.03
207.866	-213.95
208.246	-163.87
208.626	-150.52
209.006	-124.14
209.386	-148.2
209.766	-142.99
210.145	-137.19
210.525	-91.56
210.905	-68.95
211.285	-57.95
211.664	-47.7
212.044	-54.97
212.424	-50.6
212.803	-75.43
213.183	-60.06
213.562	-53.4
213.942	-50.92
214.321	-46.75
214.701	-69.85
215.08	-49.01
215.459	-40.82
215.838	-31.95
216.218	-29.87
216.597	-0.36
216.976	-3.26
217.355	-14.32
217.734	-24.97
218.113	-19.76
218.492	-20.16
218.871	-29.67
219.25	-36.12
219.629	-40.69
220.008	-36.02
220.387	-34.06
220.766	-34.5
221.144	-56.11
221.523	-58.35
221.902	-63.7
222.28	-57.01
222.659	-30.89
223.037	-27.95
223.416	-32.26
223.794	-27.89
224.173	-28.99
224.551	-27.44
224.929	-23.08
225.308	-17.7
225.686	-10.49
226.064	-10.75
226.442	-7.34
226.821	-5.58
227.199	-3.41
227.577	-6.3
227.955	-5.72
228.333	-4.06
228.711	-0.62
229.089	2.46
229.467	1.24
229.845	2.03
230.222	2.69
230.6	-1.69
230.978	-2.59
231.356	-1.89
231.733	-4.62
232.111	-2.31
232.488	-1.86
232.866	-2.38
233.243	-0.19
233.621	-2.41
233.998	0.88
234.376	-0.25
234.753	-0.13
235.13	0.99
235.508	3.47
235.885	3.7
236.262	2.65
236.639	3
237.016	2.96
237.393	4.21
237.77	5.31
238.147	5.32
238.524	6.5
238.901	7.27
239.278	7.48
239.655	8.63
240.032	8.35
240.409	7.59
240.785	7.1
241.162	7.03
241.539	6.97
241.915	5.98
242.292	5.82
242.668	5.98
243.045	5.51
243.421	5.43
243.798	5.18
244.174	5.37
244.551	5.01
244.927	4.8
245.303	4.69
245.679	4.54
246.056	4.23
246.432	4.27
246.808	4.35
247.184	4.23
247.56	3.92
247.936	3.83
248.312	3.71
248.688	3.7
249.064	3.49
249.44	3.77
249.815	3.77
250.191	3.63
250.567	3.73
250.943	3.73
251.318	3.78
251.694	3.76
252.069	3.59
252.445	3.66
252.82	3.72
253.196	3.73
253.571	3.85
253.947	4.1
254.322	4.01
254.697	3.69
255.073	3.43
255.448	3.23
255.823	3.3
256.198	3.21
256.573	3.71
256.948	3.66
257.323	3.69
257.698	3.7
258.073	3.76
258.448	3.48
258.823	3.58
259.198	3.49
259.573	3.52
259.948	3.54
260.322	3.6
260.697	3.46
261.072	3.5
261.446	3.48
261.821	3.37
262.195	3.45
262.57	3.46
262.944	3.5
263.319	3.71
263.693	3.58
264.067	3.76
264.442	3.61
264.816	3.74
265.19	3.7
265.564	3.65
265.938	3.63
266.313	3.73
266.687	3.65
267.061	3.83
267.435	3.8
267.809	3.68
268.183	3.52
268.556	3.65
268.93	3.58
269.304	3.4
269.678	3.41
270.051	3.48
270.425	3.42
270.799	3.44
271.172	3.37
271.546	3.43
271.919	3.48
272.293	3.48
272.666	3.41
273.04	3.34
273.413	3.28
273.787	3.21
274.16	3.24
274.533	3.24
274.906	3.03
275.279	3.12
275.653	3.1
276.026	3.05
276.399	3.06
276.772	3.16
277.145	3.22
277.518	3.31
277.891	3.31
278.263	3.32
278.636	3.28
279.009	3.31
279.382	3.44
279.755	3.18
280.127	3.24
280.5	3.31
280.872	3.19
281.245	3.37
281.617	3.53
281.99	3.57
282.362	3.65
282.735	3.61
283.107	3.52
283.479	3.59
283.852	3.66
284.224	3.66
284.596	3.5
284.968	3.48
285.34	3.51
285.713	3.44
286.085	3.45
286.457	3.49
286.829	3.38
287.201	3.36
287.572	3.37
287.944	3.3
288.316	3.26
288.688	3.25
289.06	3.17
289.431	3.21
289.803	3.19
290.175	3.19
290.546	3.29
290.918	3.33
291.289	3.35
291.661	3.38
292.032	3.41
292.403	3.49
292.775	3.62
293.146	3.52
293.517	3.44
293.889	3.46
294.26	3.39
294.631	3.55
295.002	3.47
295.373	3.55
295.744	3.53
296.115	3.63
296.486	3.67
296.857	3.68
297.228	3.62
297.599	3.58
297.97	3.45
298.34	3.44
298.711	3.43
299.082	3.35
299.452	3.39
299.823	3.37
300.194	3.28
300.564	3.21
300.935	3.32
301.305	3.47
301.676	3.54
302.046	3.64
302.416	3.66
302.787	3.68
303.157	3.76
303.527	3.82
303.897	3.7
304.267	3.82
304.637	3.83
305.008	3.82
305.378	3.92
305.748	4.09
306.117	4.06
306.487	4.2
306.857	4.3
307.227	4.31
307.597	4.3
307.967	4.44
308.336	4.53
308.706	4.55
309.076	4.47
309.445	4.4
309.815	4.33
310.184	4.29
310.554	4.36
310.923	4.35
311.293	4.33
311.662	4.34
312.031	4.27
312.401	4.33
312.77	4.45
313.139	4.38
313.508	4.33
313.877	4.38
314.246	4.34
314.616	4.29
314.985	4.25
315.353	4.08
315.722	4.15
316.091	4.04
316.46	3.89
316.829	3.92
317.198	3.86
317.567	4.04
317.935	3.96
318.304	3.97
318.672	3.99
319.041	4
319.41	3.91
319.778	3.92
320.147	3.9
320.515	3.72
320.883	3.7
321.252	3.73
321.62	3.64
321.988	3.52
322.357	3.55
322.725	3.64
323.093	3.92
323.461	3.83
323.829	3.88
324.197	4
324.565	4.03
324.933	4.12
325.301	4.13
325.669	4.22
326.037	4.13
326.405	4.25
326.772	4.31
327.14	4.52
327.508	4.59
327.875	4.61
328.243	4.72
328.61	4.75
328.978	4.79
329.346	4.88
329.713	4.9
330.08	4.96
330.448	4.88
330.815	4.76
331.182	4.83
331.55	4.86
331.917	4.94
332.284	4.89
332.651	4.99
333.018	4.96
333.385	4.98
333.752	5.07
334.119	5.07
334.486	5.01
334.853	4.97
335.22	5.02
335.587	5.04
335.954	4.97
336.32	4.95
336.687	5.04
337.054	5.09
337.42	5.21
337.787	5.25
338.153	5.4
338.52	5.53
338.886	5.43
339.253	5.4
339.619	5.31
339.986	5.42
340.352	5.42
340.718	5.42
341.084	5.4
341.451	5.45
341.817	5.48
342.183	5.52
342.549	5.52
342.915	5.52
343.281	5.51
343.647	5.61
344.013	5.66
344.379	5.51
344.745	5.58
345.11	5.56
345.476	5.56
345.842	5.46
346.208	5.43
346.573	5.48
346.939	5.52
347.304	5.47
347.67	5.4
348.035	5.33
348.401	5.29
348.766	5.32
349.132	5.36
349.497	5.26
349.862	5.3
350.228	5.3
350.593	5.38
350.958	5.38
351.323	5.36
351.688	5.39
352.053	5.54
352.418	5.58
352.783	5.51
353.148	5.51
353.513	5.55
353.878	5.53
354.243	5.58
354.608	5.68
354.972	5.78
355.337	5.87
355.702	5.96
356.066	6.01
356.431	5.96
356.795	5.93
357.16	5.85
357.524	5.73
357.889	5.7
358.253	5.63
358.618	5.69
358.982	5.66
359.346	5.61
359.71	5.57
360.075	5.55
360.439	5.58
360.803	5.53
361.167	5.54
361.531	5.5
361.895	5.48
362.259	5.42
362.623	5.4
362.987	5.36
363.351	5.27
363.714	5.26
364.078	5.25
364.442	5.19
364.806	5.2
365.169	5.17
365.533	5.19
365.896	5.22
366.26	5.13
366.623	5.08
366.987	5.05
367.35	5.01
367.714	4.94
368.077	4.94
368.44	4.92
368.803	4.89
369.167	4.88
369.53	4.86
369.893	4.91
370.256	4.91
370.619	4.89
370.982	4.88
371.345	4.84
371.708	4.83
372.071	4.81
372.434	4.84
372.797	4.89
373.159	4.85
373.522	4.83
373.885	4.87
374.247	4.86
374.61	4.88
374.973	4.87
375.335	4.83
375.698	4.82
376.06	4.87
376.423	4.84
376.785	4.83
377.147	4.82
377.51	4.75
377.872	4.72
378.234	4.69
378.596	4.73
378.958	4.75
379.321	4.73
379.683	4.74
380.045	4.72
380.407	4.69
380.769	4.64
381.13	4.58
381.492	4.49
381.854	4.51
382.216	4.47
382.578	4.41
382.939	4.43
383.301	4.42
383.663	4.38
384.024	4.35
384.386	4.37
384.747	4.35
385.109	4.37
385.47	4.35
385.832	4.32
386.193	4.3
386.554	4.25
386.916	4.23
387.277	4.24
387.638	4.23
387.999	4.23
388.36	4.23
388.721	4.21
389.082	4.22
389.443	4.18
389.804	4.15
390.165	4.16
390.526	4.14
390.887	4.1
391.248	4.12
391.609	4.09
391.969	4.08
392.33	4.05
392.691	4.02
393.051	3.99
393.412	4
393.772	3.95
394.133	3.95
394.493	3.9
394.854	3.86
395.214	3.82
395.574	3.8
395.935	3.79
396.295	3.8
396.655	3.78
397.015	3.77
397.376	3.79
397.736	3.78
398.096	3.78
398.456	3.74
398.816	3.7
399.176	3.68
399.535	3.64
399.895	3.6
400.255	3.58
400.615	3.58
400.975	3.57
401.334	3.55
401.694	3.53
402.054	3.52
402.413	3.52
402.773	3.5
403.132	3.51
403.492	3.53
403.851	3.52
404.211	3.5
404.57	3.5
404.929	3.48
405.288	3.46
405.648	3.41
406.007	3.44
406.366	3.4
406.725	3.4
407.084	3.4
407.443	3.42
407.802	3.41
408.161	3.4
408.52	3.37
408.879	3.37
409.238	3.38
409.596	3.39
409.955	3.36
410.314	3.39
410.673	3.39
411.031	3.34
411.39	3.31
411.748	3.32
412.107	3.32
412.465	3.3
412.824	3.31
413.182	3.3
413.54	3.29
413.899	3.3
414.257	3.33
414.615	3.31
414.974	3.3
415.332	3.28
415.69	3.27
416.048	3.27
416.406	3.3
416.764	3.26
417.122	3.28
417.48	3.27
417.838	3.26
418.195	3.24
418.553	3.23
418.911	3.23
419.269	3.22
419.626	3.2
419.984	3.19
420.342	3.19
420.699	3.19
421.057	3.2
421.414	3.18
421.772	3.16
422.129	3.16
422.486	3.15
422.844	3.14
423.201	3.13
423.558	3.13
423.915	3.12
424.273	3.13
424.63	3.13
424.987	3.11
425.344	3.11
425.701	3.12
426.058	3.11
426.415	3.11
426.772	3.11
427.128	3.09
427.485	3.09
427.842	3.06
428.199	3.08
428.555	3.06
428.912	3.07
429.269	3.07
429.625	3.07
429.982	3.07
430.338	3.09
430.695	3.1
431.051	3.09
431.407	3.07
431.764	3.07
432.12	3.04
432.476	3.05
432.832	3.04
433.189	3.04
433.545	3.04
433.901	3.05
434.257	3.05
434.613	3.06
434.969	3.07
435.325	3.08
435.681	3.06
436.036	3.08
436.392	3.07
436.748	3.05
437.104	3.04
437.459	3.04
437.815	3.02
438.171	3.03
438.526	3.02
438.882	3.03
439.237	3.04
439.593	3.06
439.948	3.06
440.304	3.05
440.659	3.04
441.014	3.05
441.369	3.04
441.725	3.02
442.08	3.05
442.435	3.05
442.79	3.05
443.145	3.04
443.5	3.02
443.855	3.02
444.21	3.04
444.565	3.04
444.92	3.06
445.275	3.05
445.629	3.05
445.984	3.04
446.339	3.02
446.693	2.99
447.048	2.96
447.403	2.96
447.757	2.94
448.112	2.94
448.466	2.93
448.82	2.94
449.175	2.95
449.529	2.93
449.883	2.92
450.238	2.9
450.592	2.89
450.946	2.88
451.3	2.87
451.654	2.84
452.008	2.84
452.362	2.83
452.716	2.84
453.07	2.86
453.424	2.85
453.778	2.87
454.132	2.88
454.486	2.88
454.839	2.86
455.193	2.89
455.547	2.89
455.9	2.9
456.254	2.89
456.607	2.9
456.961	2.91
457.314	2.93
457.668	2.94
458.021	2.94
458.375	2.95
458.728	2.96
459.081	2.97
459.434	2.95
459.787	2.96
460.141	2.95
460.494	2.94
460.847	2.96
461.2	2.94
461.553	2.95
461.906	2.97
462.259	2.99
462.611	2.99
462.964	3
463.317	2.99
463.67	3.01
464.022	3.02
464.375	3.01
464.728	3
465.08	3
465.433	3.01
465.785	3.04
466.138	3.04
466.49	3.08
466.843	3.1
467.195	3.12
467.547	3.13
467.899	3.14
468.252	3.14
468.604	3.17
468.956	3.16
469.308	3.16
469.66	3.16
470.012	3.16
470.364	3.16
470.716	3.16
471.068	3.14
471.42	3.13
471.772	3.15
472.123	3.17
472.475	3.19
472.827	3.2
473.178	3.2
473.53	3.19
473.882	3.18
474.233	3.18
474.585	3.15
474.936	3.15
475.288	3.15
475.639	3.17
475.99	3.16
476.342	3.16
476.693	3.17
477.044	3.15
477.395	3.13
477.746	3.12
478.097	3.11
478.448	3.11
478.8	3.11
479.15	3.09
479.501	3.09
479.852	3.08
480.203	3.07
480.554	3.05
480.905	3.06
481.255	3.06
481.606	3.06
481.957	3.08
482.307	3.08
482.658	3.07
483.009	3.07
483.359	3.06
483.709	3.07
484.06	3.07
484.41	3.08
484.761	3.08
485.111	3.08
485.461	3.09
485.811	3.09
486.162	3.09
486.512	3.1
486.862	3.11
487.212	3.1
487.562	3.11
487.912	3.12
488.262	3.12
488.612	3.13
488.961	3.13
489.311	3.13
489.661	3.14
490.011	3.14
490.36	3.13
490.71	3.14
491.06	3.15
491.409	3.15
491.759	3.15
492.108	3.17
492.458	3.18
492.807	3.19
493.157	3.2
493.506	3.23
493.855	3.22
494.204	3.23
494.554	3.25
494.903	3.26
495.252	3.25
495.601	3.27
495.95	3.27
496.299	3.29
496.648	3.3
496.997	3.31
497.346	3.34
497.695	3.37
498.043	3.41
498.392	3.39
498.741	3.41
499.09	3.42
499.438	3.44
499.787	3.47
500.135	3.5
500.484	3.52
500.832	3.55
501.181	3.59
501.529	3.61
501.878	3.63
502.226	3.68
502.574	3.73
502.923	3.75
503.271	3.77
503.619	3.8
503.967	3.83
504.315	3.86
504.663	3.9
505.011	3.94
505.359	3.95
505.707	4.02
506.055	4.06
506.403	4.1
506.751	4.16
507.098	4.21
507.446	4.25
507.794	4.28
508.141	4.31
508.489	4.37
508.837	4.41
509.184	4.44
509.531	4.47
509.879	4.52
510.226	4.57
510.574	4.64
510.921	4.69
511.268	4.73
511.616	4.78
511.963	4.84
512.31	4.9
512.657	4.97
513.004	5.02
513.351	5.09
513.698	5.15
514.045	5.17
514.392	5.22
514.739	5.27
515.086	5.34
515.432	5.4
515.779	5.44
516.126	5.53
516.473	5.6
516.819	5.67
517.166	5.72
517.512	5.79
517.859	5.82
518.205	5.89
518.552	5.93
518.898	5.99
519.245	6.04
519.591	6.09
519.937	6.14
520.283	6.21
520.629	6.28
520.976	6.36
521.322	6.45
521.668	6.54
522.014	6.65
522.36	6.74
522.706	6.84
523.052	6.94
523.398	7.03
523.743	7.15
524.089	7.27
524.435	7.4
524.781	7.49
525.126	7.61
525.472	7.71
525.817	7.82
526.163	7.91
526.509	8
526.854	8.08
527.199	8.15
527.545	8.23
527.89	8.31
528.235	8.37
528.581	8.47
528.926	8.54
529.271	8.62
529.616	8.71
529.961	8.8
530.306	8.93
530.651	9.04
530.996	9.14
531.341	9.25
531.686	9.35
532.031	9.48
532.376	9.61
532.721	9.74
533.065	9.88
533.41	10.02
533.755	10.17
534.099	10.33
534.444	10.51
534.788	10.67
535.133	10.84
535.477	11.01
535.822	11.18
536.166	11.39
536.51	11.59
536.855	11.81
537.199	12.05
537.543	12.28
537.887	12.51
538.231	12.75
538.576	13.01
538.92	13.26
539.264	13.5
539.608	13.74
539.951	13.98
540.295	14.2
540.639	14.41
540.983	14.63
541.327	14.82
541.671	15.03
542.014	15.24
542.358	15.43
542.701	15.62
543.045	15.84
543.389	16.05
543.732	16.29
544.075	16.52
544.419	16.73
544.762	16.93
545.105	17.16
545.449	17.41
545.792	17.67
546.135	17.94
546.478	18.25
546.821	18.55
547.165	18.87
547.508	19.17
547.851	19.5
548.194	19.82
548.536	20.15
548.879	20.48
549.222	20.84
549.565	21.21
549.908	21.6
550.25	21.93
550.593	22.29
550.936	22.6
551.278	22.98
551.621	23.34
551.963	23.73
552.306	24.14
552.648	24.5
552.991	24.88
553.333	25.22
553.675	25.51
554.017	25.83
554.36	26.14
554.702	26.45
555.044	26.77
555.386	27.07
555.728	27.38
556.07	27.75
556.412	28.05
556.754	28.35
557.096	28.72
557.438	29.04
557.78	29.4
558.121	29.76
558.463	30.08
558.805	30.43
559.147	30.77
559.488	31.13
559.83	31.45
560.171	31.77
560.513	32.16
560.854	32.48
561.196	32.81
561.537	33.11
561.878	33.46
562.22	33.76
562.561	34.05
562.902	34.38
563.243	34.62
563.584	34.95
563.925	35.2
564.266	35.46
564.607	35.74
564.948	36.02
565.289	36.29
565.63	36.55
565.971	36.81
566.312	37.05
566.653	37.28
566.993	37.53
567.334	37.78
567.675	38.01
568.015	38.27
568.356	38.51
568.696	38.8
569.037	39.03
569.377	39.3
569.718	39.54
570.058	39.74
570.398	39.99
570.739	40.2
571.079	40.46
571.419	40.68
571.759	40.94
572.099	41.16
572.439	41.37
572.779	41.6
573.119	41.71
573.459	41.9
573.799	42.07
574.139	42.28
574.479	42.42
574.819	42.58
575.158	42.78
575.498	42.92
575.838	43.1
576.177	43.26
576.517	43.46
576.856	43.68
577.196	43.91
577.535	44.13
577.875	44.31
578.214	44.52
578.553	44.75
578.893	44.92
579.232	45.12
579.571	45.35
579.91	45.56
580.25	45.86
580.589	46.22
580.928	46.42
581.267	46.6
581.606	46.81
581.945	46.99
582.283	47.09
582.622	47.32
582.961	47.5
583.3	47.73
583.639	47.89
583.977	48.01
584.316	48.16
584.654	48.27
584.993	48.44
585.332	48.56
585.67	48.66
586.008	48.8
586.347	48.91
586.685	49.03
587.024	49.11
587.362	49.19
587.7	49.15
588.038	49.26
588.376	49.37
588.715	49.53
589.053	49.66
589.391	49.85
589.729	49.93
590.067	50.05
590.404	50.14
590.742	50.31
591.08	50.49
591.418	50.63
591.756	50.72
592.093	50.79
592.431	51
592.769	51.13
593.106	51.21
593.444	51.27
593.781	51.35
594.119	51.45
594.456	51.54
594.793	51.64
595.131	51.74
595.468	51.82
595.805	51.9
596.143	52
596.48	52.07
596.817	52.24
597.154	52.34
597.491	52.38
597.828	52.42
598.165	52.46
598.502	52.53
598.839	52.72
599.176	52.84
599.512	52.88
599.849	52.98
600.186	53.15
600.523	53.28
600.859	53.41
601.196	53.49
601.532	53.64
601.869	53.77
602.205	53.84
602.542	53.95
602.878	54.1
603.215	54.11
603.551	54.18
603.887	54.23
604.223	54.26
604.56	54.36
604.896	54.34
605.232	54.41
605.568	54.5
605.904	54.52
606.24	54.59
606.576	54.66
606.912	54.74
607.248	54.76
607.583	54.81
607.919	54.87
608.255	54.94
608.591	55
608.926	55.06
609.262	55.16
609.597	55.2
609.933	55.26
610.268	55.34
610.604	55.43
610.939	55.48
611.275	55.53
611.61	55.62
611.945	55.77
612.281	55.78
612.616	55.79
612.951	55.85
613.286	55.89
613.621	55.9
613.956	55.93
614.291	56.04
614.626	56.2
614.961	56.21
615.296	56.32
615.631	56.37
615.966	56.4
616.3	56.37
616.635	56.51
616.97	56.52
617.304	56.63
617.639	56.74
617.973	56.81
618.308	56.8
618.642	56.87
618.977	56.91
619.311	57.16
619.646	57.26
619.98	57.31
620.314	57.35
620.648	57.48
620.983	57.57
621.317	57.62
621.651	57.59
621.985	57.66
622.319	57.78
622.653	57.94
622.987	58.05
623.321	58.16
623.655	58.11
623.988	58.18
624.322	58.24
624.656	58.23
624.99	58.28
625.323	58.38
625.657	58.43
625.99	58.47
626.324	58.39
626.657	58.39
626.991	58.37
627.324	58.47
627.658	58.47
627.991	58.45
628.324	58.5
628.657	58.53
628.991	58.58
629.324	58.6
629.657	58.55
629.99	58.57
630.323	58.54
630.656	58.64
630.989	58.74
631.322	58.77
631.655	58.77
631.987	58.76
632.32	58.72
632.653	58.66
632.986	58.73
633.318	58.73
633.651	58.77
633.984	58.88
634.316	58.9
634.649	58.99
634.981	59.01
635.313	58.98
635.646	59.03
635.978	59.01
636.31	59.02
636.643	59.04
636.975	59.11
637.307	59.25
637.639	59.29
637.971	59.2
638.303	59.14
638.635	59.34
638.967	59.41
639.299	59.44
639.631	59.49
639.963	59.51
640.295	59.55
640.626	59.48
640.958	59.56
641.29	59.49
641.621	59.48
641.953	59.53
642.285	59.52
642.616	59.61
642.948	59.59
643.279	59.66
643.61	59.6
643.942	59.62
644.273	59.64
644.604	59.66
644.936	59.7
645.267	59.8
645.598	59.7
645.929	59.65
646.26	59.77
646.591	59.82
646.922	59.92
647.253	59.99
647.584	60.22
647.915	60.25
648.245	60.35
648.576	60.33
648.907	60.44
649.238	60.61
649.568	60.53
649.899	60.73
650.229	60.78
650.56	60.87
650.89	60.82
651.221	60.84
651.551	60.85
651.882	60.85
652.212	60.84
652.542	60.87
652.872	61.04
653.203	61.07
653.533	61.14
653.863	61.04
654.193	61.15
654.523	61.12
654.853	61.1
655.183	61.25
655.513	61.27
655.843	61.19
656.172	61.22
656.502	61.3
656.832	61.23
657.162	61.18
657.491	61.31
657.821	61.31
658.15	61.33
658.48	61.37
658.809	61.37
659.139	61.44
659.468	61.47
659.798	61.49
660.127	61.55
660.456	61.48
660.785	61.51
661.115	61.43
661.444	61.48
661.773	61.53
662.102	61.48
662.431	61.65
662.76	61.65
663.089	61.74
663.418	61.7
663.747	61.75
664.076	61.73
664.404	61.71
664.733	61.83
665.062	61.92
665.39	62.02
665.719	62.18
666.048	62.25
666.376	62.25
666.705	62.17
667.033	62.19
667.362	62.24
