Data from BA28468_Reflection_00003.txt Node
Date: Mon Nov 18 15:14:44 EST 2019
User: vgr7
Spectrometer: USB2G7710
Scans to average: 3
Trigger mode: 4
Integration Time (sec): 2.000000E-2
Electric dark correction enabled: true
Boxcar width: 10
XAxis mode: Wavelengths
Number of Pixels in Spectrum: 2048
>>>>>Begin Spectral Data<<<<<
177.721	-33.53
178.105	385.71
178.488	14.42
178.871	66.53
179.254	51.76
179.636	205.26
180.019	66.62
180.402	65.45
180.785	-301.98
181.168	-162.43
181.55	-94.11
181.933	-1852.94
182.316	-564.94
182.698	-332.43
183.081	-221.17
183.463	-235.95
183.846	-14515.38
184.228	-1754.3
184.611	-480.53
184.993	-250.64
185.376	-169.41
185.758	-116.17
186.14	-115.22
186.522	-160.48
186.904	-132.43
187.287	-132.8
187.669	-85.47
188.051	-102.62
188.433	-77.55
188.815	-55.09
189.197	-71.69
189.579	-77.68
189.961	-78.31
190.342	-64.62
190.724	-55
191.106	-48
191.488	-54.05
191.869	-43.68
192.251	-32.88
192.633	-39.09
193.014	-41.15
193.396	-56.52
193.777	-38.57
194.159	-41.88
194.54	-34.51
194.922	-24.17
195.303	-28.4
195.684	-29.75
196.065	-22.67
196.447	-23.78
196.828	-33.95
197.209	-21.5
197.59	-21.46
197.971	-17.36
198.352	-15.84
198.733	-26.44
199.114	-32.25
199.495	-31.06
199.876	-32.32
200.257	-28.97
200.638	-20.52
201.018	-20.73
201.399	-18.72
201.78	-24.89
202.16	-24.63
202.541	-33.17
202.922	-46.48
203.302	-48.2
203.683	-45.59
204.063	-57
204.444	-61.66
204.824	-48.07
205.204	-43.79
205.585	-49.37
205.965	-52.04
206.345	-55.06
206.725	-60.54
207.106	-62.81
207.486	-62.19
207.866	-59.3
208.246	-61.51
208.626	-66.14
209.006	-53.98
209.386	-46.29
209.766	-47.79
210.145	-59.45
210.525	-40.29
210.905	-38.39
211.285	-21.72
211.664	-14.65
212.044	-4.05
212.424	-2.23
212.803	-1.64
213.183	1.26
213.562	6.83
213.942	-2.61
214.321	-0.33
214.701	-4.5
215.08	-8.94
215.459	5.85
215.838	0.49
216.218	-2.44
216.597	2.82
216.976	-3.95
217.355	-8.3
217.734	-18.27
218.113	-7.83
218.492	-7.03
218.871	-11.47
219.25	-10.82
219.629	-19.15
220.008	-20.75
220.387	-20.42
220.766	-28.76
221.144	-40.45
221.523	-44.48
221.902	-40.47
222.28	-35.72
222.659	-30.28
223.037	-23.9
223.416	-29.22
223.794	-19.13
224.173	-15.6
224.551	-12.22
224.929	-8.59
225.308	-4.88
225.686	3.72
226.064	2.53
226.442	-0.77
226.821	2.61
227.199	-4.38
227.577	-5.96
227.955	-1.67
228.333	-1.97
228.711	0.76
229.089	5.08
229.467	2.31
229.845	0.7
230.222	0.34
230.6	0.66
230.978	0.47
231.356	1.4
231.733	-0.96
232.111	-0.98
232.488	-0.04
232.866	0.42
233.243	1.46
233.621	1.03
233.998	2.08
234.376	1.88
234.753	0.94
235.13	2.33
235.508	4.16
235.885	2.28
236.262	2.65
236.639	1.54
237.016	0.05
237.393	3.63
237.77	4.04
238.147	4.66
238.524	4.5
238.901	4.69
239.278	4.99
239.655	6.1
240.032	5.92
240.409	5.14
240.785	4.71
241.162	4.16
241.539	3.88
241.915	3.19
242.292	3.15
242.668	3.25
243.045	3.75
243.421	3.72
243.798	3.83
244.174	3.9
244.551	4.09
244.927	4.19
245.303	4.08
245.679	4.14
246.056	3.88
246.432	4
246.808	4
247.184	3.69
247.56	3.33
247.936	3.19
248.312	3.43
248.688	3.61
249.064	3.85
249.44	3.95
249.815	4.31
250.191	4.52
250.567	4.73
250.943	4.59
251.318	4.44
251.694	4.64
252.069	4.53
252.445	4.71
252.82	4.7
253.196	4.37
253.571	4.61
253.947	4.59
254.322	4.8
254.697	4.73
255.073	4.68
255.448	4.73
255.823	5.01
256.198	4.91
256.573	4.51
256.948	4.51
257.323	4.44
257.698	4.3
258.073	4.36
258.448	4.31
258.823	4.28
259.198	4.42
259.573	4.33
259.948	4.3
260.322	4.34
260.697	4.38
261.072	4.4
261.446	4.39
261.821	4.39
262.195	4.3
262.57	4.3
262.944	4.42
263.319	4.51
263.693	4.42
264.067	4.39
264.442	4.76
264.816	4.57
265.19	4.61
265.564	4.68
265.938	4.4
266.313	4.18
266.687	4.19
267.061	4.27
267.435	4.19
267.809	4.28
268.183	4.26
268.556	4.08
268.93	4.15
269.304	3.78
269.678	3.88
270.051	3.73
270.425	3.71
270.799	3.73
271.172	3.72
271.546	3.6
271.919	3.47
272.293	3.35
272.666	3.46
273.04	3.44
273.413	3.36
273.787	3.47
274.16	3.56
274.533	3.48
274.906	3.31
275.279	3.16
275.653	3.15
276.026	3.05
276.399	3.2
276.772	3.25
277.145	3.36
277.518	3.31
277.891	3.48
278.263	3.63
278.636	3.56
279.009	3.61
279.382	3.93
279.755	4
280.127	4.08
280.5	4.18
280.872	4.32
281.245	4.44
281.617	4.56
281.99	4.68
282.362	4.68
282.735	4.62
283.107	4.87
283.479	4.72
283.852	4.79
284.224	4.81
284.596	4.89
284.968	5.12
285.34	5.16
285.713	5.19
286.085	5.2
286.457	5.37
286.829	5.37
287.201	5.26
287.572	5.31
287.944	5.24
288.316	5.17
288.688	5.11
289.06	5.17
289.431	5.14
289.803	5.22
290.175	5.37
290.546	5.52
290.918	5.48
291.289	5.67
291.661	5.68
292.032	5.74
292.403	5.7
292.775	5.67
293.146	5.63
293.517	5.6
293.889	5.55
294.26	5.49
294.631	5.44
295.002	5.44
295.373	5.36
295.744	5.42
296.115	5.44
296.486	5.4
296.857	5.23
297.228	5.3
297.599	5.19
297.97	5.18
298.34	5.2
298.711	5.15
299.082	5.2
299.452	5.28
299.823	5.3
300.194	5.25
300.564	5.18
300.935	5.27
301.305	5.2
301.676	5.17
302.046	5.28
302.416	5.33
302.787	5.36
303.157	5.47
303.527	5.38
303.897	5.4
304.267	5.53
304.637	5.81
305.008	5.82
305.378	5.86
305.748	5.82
306.117	5.86
306.487	5.98
306.857	5.87
307.227	5.71
307.597	5.76
307.967	5.81
308.336	5.78
308.706	5.78
309.076	5.95
309.445	5.91
309.815	5.72
310.184	5.73
310.554	5.83
310.923	5.87
311.293	5.96
311.662	5.84
312.031	5.72
312.401	5.53
312.77	5.46
313.139	5.43
313.508	5.57
313.877	5.47
314.246	5.47
314.616	5.54
314.985	5.58
315.353	5.52
315.722	5.59
316.091	5.68
316.46	5.59
316.829	5.48
317.198	5.47
317.567	5.55
317.935	5.55
318.304	5.48
318.672	5.36
319.041	5.28
319.41	5.36
319.778	5.39
320.147	5.45
320.515	5.52
320.883	5.61
321.252	5.65
321.62	5.8
321.988	5.74
322.357	5.76
322.725	5.8
323.093	5.83
323.461	5.68
323.829	5.7
324.197	5.89
324.565	5.94
324.933	6.04
325.301	6.05
325.669	5.98
326.037	5.89
326.405	5.98
326.772	6.13
327.14	6.3
327.508	6.36
327.875	6.35
328.243	6.34
328.61	6.19
328.978	6.11
329.346	6.13
329.713	6.16
330.08	6.23
330.448	6.17
330.815	6.05
331.182	6.11
331.55	6.18
331.917	6.09
332.284	6.09
332.651	6.11
333.018	6.25
333.385	6.29
333.752	6.38
334.119	6.44
334.486	6.29
334.853	6.2
335.22	6.21
335.587	6.21
335.954	6.15
336.32	6.26
336.687	6.26
337.054	6.3
337.42	6.36
337.787	6.3
338.153	6.45
338.52	6.49
338.886	6.46
339.253	6.34
339.619	6.26
339.986	6.23
340.352	6.21
340.718	6.05
341.084	6.09
341.451	6.14
341.817	6.13
342.183	6.14
342.549	6.15
342.915	6.11
343.281	6.21
343.647	6.24
344.013	6.23
344.379	6.17
344.745	6.12
345.11	6.04
345.476	6
345.842	5.91
346.208	5.85
346.573	5.85
346.939	5.94
347.304	6.04
347.67	6.06
348.035	6.09
348.401	6.04
348.766	6.01
349.132	5.93
349.497	5.94
349.862	5.93
350.228	5.95
350.593	5.97
350.958	5.94
351.323	5.95
351.688	6.04
352.053	6.15
352.418	6.18
352.783	6.25
353.148	6.27
353.513	6.26
353.878	6.32
354.243	6.34
354.608	6.37
354.972	6.37
355.337	6.33
355.702	6.32
356.066	6.39
356.431	6.37
356.795	6.46
357.16	6.46
357.524	6.48
357.889	6.48
358.253	6.47
358.618	6.49
358.982	6.45
359.346	6.38
359.71	6.32
360.075	6.27
360.439	6.25
360.803	6.26
361.167	6.28
361.531	6.33
361.895	6.33
362.259	6.21
362.623	6.22
362.987	6.24
363.351	6.25
363.714	6.28
364.078	6.27
364.442	6.21
364.806	6.13
365.169	6.1
365.533	6.08
365.896	6.08
366.26	6.09
366.623	6.14
366.987	6.19
367.35	6.21
367.714	6.3
368.077	6.31
368.44	6.29
368.803	6.28
369.167	6.22
369.53	6.25
369.893	6.34
370.256	6.33
370.619	6.3
370.982	6.21
371.345	6.16
371.708	6.23
372.071	6.24
372.434	6.22
372.797	6.27
373.159	6.29
373.522	6.31
373.885	6.33
374.247	6.35
374.61	6.39
374.973	6.39
375.335	6.3
375.698	6.33
376.06	6.3
376.423	6.34
376.785	6.42
377.147	6.44
377.51	6.46
377.872	6.46
378.234	6.55
378.596	6.64
378.958	6.64
379.321	6.65
379.683	6.65
380.045	6.71
380.407	6.69
380.769	6.7
381.13	6.68
381.492	6.63
381.854	6.59
382.216	6.55
382.578	6.57
382.939	6.57
383.301	6.56
383.663	6.57
384.024	6.55
384.386	6.52
384.747	6.49
385.109	6.47
385.47	6.42
385.832	6.39
386.193	6.44
386.554	6.43
386.916	6.38
387.277	6.39
387.638	6.4
387.999	6.39
388.36	6.37
388.721	6.39
389.082	6.4
389.443	6.36
389.804	6.36
390.165	6.37
390.526	6.38
390.887	6.32
391.248	6.34
391.609	6.33
391.969	6.34
392.33	6.34
392.691	6.32
393.051	6.32
393.412	6.35
393.772	6.27
394.133	6.3
394.493	6.3
394.854	6.32
395.214	6.27
395.574	6.28
395.935	6.29
396.295	6.33
396.655	6.34
397.015	6.39
397.376	6.41
397.736	6.37
398.096	6.39
398.456	6.46
398.816	6.47
399.176	6.48
399.535	6.47
399.895	6.42
400.255	6.42
400.615	6.46
400.975	6.45
401.334	6.51
401.694	6.48
402.054	6.49
402.413	6.52
402.773	6.53
403.132	6.51
403.492	6.48
403.851	6.45
404.211	6.45
404.57	6.45
404.929	6.44
405.288	6.43
405.648	6.4
406.007	6.38
406.366	6.38
406.725	6.41
407.084	6.41
407.443	6.46
407.802	6.49
408.161	6.49
408.52	6.49
408.879	6.46
409.238	6.51
409.596	6.52
409.955	6.48
410.314	6.5
410.673	6.52
411.031	6.53
411.39	6.52
411.748	6.51
412.107	6.5
412.465	6.49
412.824	6.54
413.182	6.58
413.54	6.59
413.899	6.62
414.257	6.61
414.615	6.59
414.974	6.61
415.332	6.59
415.69	6.59
416.048	6.6
416.406	6.58
416.764	6.53
417.122	6.55
417.48	6.55
417.838	6.57
418.195	6.57
418.553	6.58
418.911	6.59
419.269	6.59
419.626	6.61
419.984	6.6
420.342	6.6
420.699	6.58
421.057	6.57
421.414	6.54
421.772	6.54
422.129	6.55
422.486	6.56
422.844	6.57
423.201	6.55
423.558	6.55
423.915	6.57
424.273	6.59
424.63	6.57
424.987	6.57
425.344	6.55
425.701	6.56
426.058	6.56
426.415	6.56
426.772	6.57
427.128	6.54
427.485	6.55
427.842	6.54
428.199	6.55
428.555	6.55
428.912	6.57
429.269	6.58
429.625	6.57
429.982	6.55
430.338	6.55
430.695	6.56
431.051	6.55
431.407	6.55
431.764	6.54
432.12	6.54
432.476	6.53
432.832	6.55
433.189	6.54
433.545	6.53
433.901	6.53
434.257	6.54
434.613	6.56
434.969	6.57
435.325	6.58
435.681	6.6
436.036	6.61
436.392	6.61
436.748	6.61
437.104	6.64
437.459	6.64
437.815	6.64
438.171	6.63
438.526	6.64
438.882	6.64
439.237	6.65
439.593	6.68
439.948	6.69
440.304	6.66
440.659	6.66
441.014	6.67
441.369	6.67
441.725	6.66
442.08	6.65
442.435	6.66
442.79	6.65
443.145	6.64
443.5	6.65
443.855	6.64
444.21	6.63
444.565	6.62
444.92	6.61
445.275	6.59
445.629	6.6
445.984	6.61
446.339	6.6
446.693	6.58
447.048	6.57
447.403	6.57
447.757	6.58
448.112	6.58
448.466	6.57
448.82	6.56
449.175	6.56
449.529	6.57
449.883	6.53
450.238	6.52
450.592	6.53
450.946	6.51
451.3	6.49
451.654	6.5
452.008	6.49
452.362	6.48
452.716	6.5
453.07	6.48
453.424	6.48
453.778	6.48
454.132	6.49
454.486	6.49
454.839	6.48
455.193	6.48
455.547	6.47
455.9	6.49
456.254	6.5
456.607	6.47
456.961	6.47
457.314	6.5
457.668	6.5
458.021	6.49
458.375	6.5
458.728	6.51
459.081	6.51
459.434	6.51
459.787	6.52
460.141	6.52
460.494	6.54
460.847	6.55
461.2	6.55
461.553	6.56
461.906	6.55
462.259	6.55
462.611	6.55
462.964	6.57
463.317	6.57
463.67	6.57
464.022	6.57
464.375	6.56
464.728	6.57
465.08	6.57
465.433	6.58
465.785	6.6
466.138	6.61
466.49	6.62
466.843	6.65
467.195	6.66
467.547	6.66
467.899	6.67
468.252	6.69
468.604	6.73
468.956	6.73
469.308	6.73
469.66	6.72
470.012	6.73
470.364	6.73
470.716	6.74
471.068	6.76
471.42	6.77
471.772	6.8
472.123	6.8
472.475	6.8
472.827	6.8
473.178	6.78
473.53	6.77
473.882	6.78
474.233	6.77
474.585	6.73
474.936	6.74
475.288	6.74
475.639	6.7
475.99	6.66
476.342	6.67
476.693	6.68
477.044	6.71
477.395	6.71
477.746	6.72
478.097	6.7
478.448	6.68
478.8	6.69
479.15	6.69
479.501	6.67
479.852	6.69
480.203	6.72
480.554	6.74
480.905	6.75
481.255	6.75
481.606	6.76
481.957	6.79
482.307	6.8
482.658	6.79
483.009	6.8
483.359	6.81
483.709	6.82
484.06	6.83
484.41	6.84
484.761	6.84
485.111	6.85
485.461	6.85
485.811	6.88
486.162	6.86
486.512	6.87
486.862	6.88
487.212	6.87
487.562	6.86
487.912	6.85
488.262	6.85
488.612	6.84
488.961	6.84
489.311	6.82
489.661	6.81
490.011	6.83
490.36	6.83
490.71	6.82
491.06	6.8
491.409	6.79
491.759	6.77
492.108	6.76
492.458	6.74
492.807	6.74
493.157	6.72
493.506	6.73
493.855	6.73
494.204	6.72
494.554	6.72
494.903	6.73
495.252	6.73
495.601	6.74
495.95	6.76
496.299	6.73
496.648	6.73
496.997	6.75
497.346	6.73
497.695	6.74
498.043	6.74
498.392	6.73
498.741	6.74
499.09	6.75
499.438	6.76
499.787	6.77
500.135	6.76
500.484	6.76
500.832	6.77
501.181	6.76
501.529	6.78
501.878	6.79
502.226	6.8
502.574	6.81
502.923	6.79
503.271	6.78
503.619	6.81
503.967	6.83
504.315	6.8
504.663	6.79
505.011	6.77
505.359	6.81
505.707	6.81
506.055	6.82
506.403	6.83
506.751	6.83
507.098	6.82
507.446	6.86
507.794	6.86
508.141	6.85
508.489	6.85
508.837	6.85
509.184	6.83
509.531	6.83
509.879	6.84
510.226	6.84
510.574	6.86
510.921	6.86
511.268	6.86
511.616	6.86
511.963	6.88
512.31	6.89
512.657	6.88
513.004	6.91
513.351	6.93
513.698	6.91
514.045	6.91
514.392	6.92
514.739	6.9
515.086	6.9
515.432	6.92
515.779	6.9
516.126	6.92
516.473	6.93
516.819	6.94
517.166	6.93
517.512	6.93
517.859	6.93
518.205	6.93
518.552	6.92
518.898	6.92
519.245	6.89
519.591	6.88
519.937	6.86
520.283	6.86
520.629	6.84
520.976	6.84
521.322	6.86
521.668	6.84
522.014	6.86
522.36	6.87
522.706	6.86
523.052	6.9
523.398	6.9
523.743	6.93
524.089	6.94
524.435	6.95
524.781	6.96
525.126	6.97
525.472	6.96
525.817	6.97
526.163	6.99
526.509	7.03
526.854	7.06
527.199	7.07
527.545	7.07
527.89	7.07
528.235	7.09
528.581	7.1
528.926	7.11
529.271	7.11
529.616	7.11
529.961	7.12
530.306	7.12
530.651	7.11
530.996	7.11
531.341	7.11
531.686	7.11
532.031	7.11
532.376	7.12
532.721	7.12
533.065	7.13
533.41	7.13
533.755	7.1
534.099	7.1
534.444	7.1
534.788	7.11
535.133	7.12
535.477	7.12
535.822	7.1
536.166	7.09
536.51	7.09
536.855	7.09
537.199	7.11
537.543	7.13
537.887	7.13
538.231	7.12
538.576	7.13
538.92	7.13
539.264	7.14
539.608	7.14
539.951	7.16
540.295	7.16
540.639	7.14
540.983	7.16
541.327	7.14
541.671	7.14
542.014	7.13
542.358	7.13
542.701	7.12
543.045	7.12
543.389	7.11
543.732	7.11
544.075	7.11
544.419	7.09
544.762	7.09
545.105	7.08
545.449	7.07
545.792	7.06
546.135	7.07
546.478	7.05
546.821	7.06
547.165	7.02
547.508	7.02
547.851	7.04
548.194	7.02
548.536	7.02
548.879	7.03
549.222	7.04
549.565	7.07
549.908	7.1
550.25	7.12
550.593	7.15
550.936	7.11
551.278	7.12
551.621	7.11
551.963	7.12
552.306	7.14
552.648	7.15
552.991	7.17
553.333	7.14
553.675	7.16
554.017	7.15
554.36	7.18
554.702	7.22
555.044	7.21
555.386	7.23
555.728	7.25
556.07	7.26
556.412	7.23
556.754	7.2
557.096	7.2
557.438	7.17
557.78	7.15
558.121	7.23
558.463	7.24
558.805	7.25
559.147	7.24
559.488	7.25
559.83	7.25
560.171	7.24
560.513	7.27
560.854	7.24
561.196	7.24
561.537	7.26
561.878	7.24
562.22	7.23
562.561	7.22
562.902	7.22
563.243	7.22
563.584	7.26
563.925	7.29
564.266	7.29
564.607	7.31
564.948	7.31
565.289	7.29
565.63	7.28
565.971	7.28
566.312	7.28
566.653	7.25
566.993	7.28
567.334	7.29
567.675	7.27
568.015	7.3
568.356	7.34
568.696	7.34
569.037	7.33
569.377	7.36
569.718	7.38
570.058	7.4
570.398	7.4
570.739	7.36
571.079	7.34
571.419	7.34
571.759	7.36
572.099	7.35
572.439	7.33
572.779	7.32
573.119	7.34
573.459	7.37
573.799	7.39
574.139	7.37
574.479	7.35
574.819	7.37
575.158	7.36
575.498	7.35
575.838	7.32
576.177	7.32
576.517	7.32
576.856	7.33
577.196	7.33
577.535	7.33
577.875	7.36
578.214	7.35
578.553	7.37
578.893	7.36
579.232	7.36
579.571	7.37
579.91	7.38
580.25	7.38
580.589	7.35
580.928	7.36
581.267	7.38
581.606	7.4
581.945	7.39
582.283	7.39
582.622	7.38
582.961	7.39
583.3	7.41
583.639	7.4
583.977	7.39
584.316	7.37
584.654	7.37
584.993	7.32
585.332	7.35
585.67	7.35
586.008	7.35
586.347	7.37
586.685	7.39
587.024	7.39
587.362	7.37
587.7	7.41
588.038	7.43
588.376	7.43
588.715	7.44
589.053	7.46
589.391	7.44
589.729	7.48
590.067	7.5
590.404	7.53
590.742	7.54
591.08	7.5
591.418	7.53
591.756	7.56
592.093	7.62
592.431	7.61
592.769	7.65
593.106	7.65
593.444	7.61
593.781	7.63
594.119	7.68
594.456	7.66
594.793	7.62
595.131	7.59
595.468	7.59
595.805	7.62
596.143	7.6
596.48	7.62
596.817	7.57
597.154	7.57
597.491	7.55
597.828	7.54
598.165	7.59
598.502	7.56
598.839	7.54
599.176	7.56
599.512	7.54
599.849	7.52
600.186	7.52
600.523	7.58
600.859	7.57
601.196	7.55
601.532	7.57
601.869	7.59
602.205	7.6
602.542	7.62
602.878	7.61
603.215	7.63
603.551	7.64
603.887	7.66
604.223	7.65
604.56	7.7
604.896	7.7
605.232	7.67
605.568	7.66
605.904	7.63
606.24	7.64
606.576	7.68
606.912	7.67
607.248	7.67
607.583	7.64
607.919	7.62
608.255	7.59
608.591	7.6
608.926	7.59
609.262	7.61
609.597	7.61
609.933	7.62
610.268	7.61
610.604	7.62
610.939	7.62
611.275	7.59
611.61	7.53
611.945	7.51
612.281	7.54
612.616	7.58
612.951	7.62
613.286	7.58
613.621	7.57
613.956	7.56
614.291	7.57
614.626	7.63
614.961	7.68
615.296	7.7
615.631	7.71
615.966	7.71
616.3	7.66
616.635	7.61
616.97	7.62
617.304	7.6
617.639	7.58
617.973	7.58
618.308	7.64
618.642	7.7
618.977	7.73
619.311	7.7
619.646	7.67
619.98	7.71
620.314	7.77
620.648	7.73
620.983	7.75
621.317	7.73
621.651	7.79
621.985	7.77
622.319	7.8
622.653	7.84
622.987	7.88
623.321	7.89
623.655	7.93
623.988	7.92
624.322	7.92
624.656	7.96
624.99	7.97
625.323	7.99
625.657	7.97
625.99	8.06
626.324	8.05
626.657	8.06
626.991	8.05
627.324	7.99
627.658	8
627.991	8.09
628.324	8.06
628.657	8.02
628.991	7.98
629.324	8.02
629.657	8.01
629.99	8.01
630.323	8.01
630.656	8
630.989	8
631.322	8.05
631.655	7.98
631.987	7.98
632.32	7.96
632.653	7.99
632.986	7.91
633.318	7.94
633.651	8.01
633.984	7.97
634.316	7.96
634.649	7.97
634.981	7.9
635.313	7.92
635.646	7.87
635.978	7.89
636.31	7.83
636.643	7.86
636.975	7.88
637.307	7.87
637.639	7.88
637.971	7.91
638.303	7.85
638.635	7.86
638.967	7.81
639.299	7.85
639.631	7.81
639.963	7.79
640.295	7.78
640.626	7.76
640.958	7.77
641.29	7.73
641.621	7.77
641.953	7.77
642.285	7.78
642.616	7.82
642.948	7.88
643.279	7.82
643.61	7.73
643.942	7.78
644.273	7.87
644.604	7.85
644.936	7.83
645.267	7.9
645.598	7.93
645.929	7.95
646.26	7.91
646.591	7.96
646.922	7.99
647.253	8.11
647.584	8.11
647.915	8.09
648.245	8.17
648.576	8.17
648.907	8.17
649.238	8.21
649.568	8.19
649.899	8.16
650.229	8.26
650.56	8.34
650.89	8.31
651.221	8.24
651.551	8.22
651.882	8.26
652.212	8.17
652.542	8.2
652.872	8.21
653.203	8.15
653.533	8.18
653.863	8.21
654.193	8.17
654.523	8.15
654.853	8.22
655.183	8.23
655.513	8.24
655.843	8.25
656.172	8.21
656.502	8.25
656.832	8.21
657.162	8.23
657.491	8.2
657.821	8.25
658.15	8.25
658.48	8.25
658.809	8.23
659.139	8.28
659.468	8.25
659.798	8.29
660.127	8.38
660.456	8.29
660.785	8.28
661.115	8.29
661.444	8.3
661.773	8.27
662.102	8.3
662.431	8.28
662.76	8.28
663.089	8.3
663.418	8.26
663.747	8.36
664.076	8.29
664.404	8.29
664.733	8.22
665.062	8.31
665.39	8.3
665.719	8.32
666.048	8.4
666.376	8.42
666.705	8.4
667.033	8.36
667.362	8.44
667.69	8.42
668.018	8.36
668.347	8.38
668.675	8.4
669.003	8.38
669.331	8.39
669.659	8.43
669.987	8.38
670.315	8.4
670.643	8.34
670.971	8.45
671.299	8.54
671.627	8.54
671.955	8.48
672.283	8.57
672.61	8.57
672.938	8.54
673.266	8.61
673.593	8.71
673.921	8.7
674.249	8.72
674.576	8.66
674.904	8.67
675.231	8.64
675.558	8.59
675.886	8.59
676.213	8.64
676.54	8.66
676.867	8.75
677.195	8.82
677.522	8.86
