Data from BA28524_Reflection_00002.txt Node
Date: Tue Nov 19 11:49:35 EST 2019
User: vgr7
Spectrometer: USB2G7710
Scans to average: 3
Trigger mode: 4
Integration Time (sec): 2.000000E-2
Electric dark correction enabled: true
Boxcar width: 10
XAxis mode: Wavelengths
Number of Pixels in Spectrum: 2048
>>>>>Begin Spectral Data<<<<<
177.721	-552.58
178.105	748.15
178.488	-627.89
178.871	733.33
179.254	388.89
179.636	1933.33
180.019	119.28
180.402	200
180.785	-134.67
181.168	-316.67
181.55	-87.79
181.933	6.76
182.316	41.55
182.698	-4.99
183.081	17.63
183.463	-62.85
183.846	-112.31
184.228	-356.62
184.611	-222.34
184.993	-485.19
185.376	-414.12
185.758	-2021.21
186.14	-3966.67
186.522	-6011.11
186.904	1766.67
187.287	162.89
187.669	160.32
188.051	120.45
188.433	94.99
188.815	67.79
189.197	36.64
189.579	33.99
189.961	25.93
190.342	41.34
190.724	29.11
191.106	26.81
191.488	21.75
191.869	-13.85
192.251	-36.27
192.633	-44.05
193.014	-25.16
193.396	-97.35
193.777	-70.8
194.159	-22.41
194.54	-46.57
194.922	-86.85
195.303	-75.24
195.684	-169.97
196.065	-216.53
196.447	-357.36
196.828	-636.43
197.209	-156.59
197.59	-157.45
197.971	-435.52
198.352	-248.35
198.733	-506.06
199.114	-811.56
199.495	-368.86
199.876	-623.16
200.257	-458.69
200.638	-917.09
201.018	2374.51
201.399	-402.35
201.78	-174.03
202.16	-166.67
202.541	-115.89
202.922	-124.81
203.302	262.6
203.683	-677.78
204.063	611.11
204.444	-160.54
204.824	-110.26
205.204	-122.22
205.585	-51.18
205.965	-29.33
206.345	-35.8
206.725	32.41
207.106	25.22
207.486	-43.43
207.866	-23.03
208.246	-26.03
208.626	-50.06
209.006	-46.81
209.386	-77.13
209.766	-94.56
210.145	-109.45
210.525	-155.91
210.905	-98.23
211.285	-72.6
211.664	-67.87
212.044	-49.14
212.424	-78.15
212.803	-96.45
213.183	-113.15
213.562	-120.51
213.942	-119.13
214.321	-172.84
214.701	-270.99
215.08	-413.29
215.459	-187.61
215.838	-193.49
216.218	-186.59
216.597	-97.84
216.976	-90.99
217.355	-84.69
217.734	-117.19
218.113	-113.46
218.492	-91.26
218.871	-89.03
219.25	-78.39
219.629	-87.46
220.008	-100.13
220.387	-95.8
220.766	-70.61
221.144	-57.42
221.523	-57.06
221.902	-43.62
222.28	-32.91
222.659	-14.4
223.037	-11.11
223.416	-20.06
223.794	-19.6
224.173	-18.57
224.551	-16.51
224.929	-21.01
225.308	-22.11
225.686	-14.13
226.064	-18.4
226.442	-16.05
226.821	-16.97
227.199	-10.15
227.577	-6.2
227.955	-1.85
228.333	-2.32
228.711	-0.58
229.089	-2.68
229.467	-3.43
229.845	-3.15
230.222	1.65
230.6	3.02
230.978	3.05
231.356	4.76
231.733	4.9
232.111	3.43
232.488	2.01
232.866	3.72
233.243	6.28
233.621	6.01
233.998	6.36
234.376	5.77
234.753	7.22
235.13	6.44
235.508	6.45
235.885	3.82
236.262	3
236.639	0.89
237.016	1.76
237.393	2.92
237.77	3.2
238.147	2.51
238.524	2.42
238.901	1.63
239.278	0.81
239.655	0.45
240.032	0.32
240.409	1.45
240.785	1.2
241.162	0.34
241.539	0.17
241.915	0.68
242.292	1.43
242.668	1.44
243.045	1.68
243.421	1.82
243.798	1.89
244.174	2.42
244.551	2.54
244.927	2.43
245.303	2.3
245.679	2.45
246.056	2.43
246.432	2.24
246.808	2.57
247.184	2.86
247.56	2.94
247.936	3.33
248.312	3.17
248.688	3.22
249.064	3.26
249.44	3.43
249.815	3.4
250.191	3.01
250.567	2.98
250.943	2.55
251.318	2.58
251.694	2.41
252.069	2.52
252.445	2.8
252.82	2.98
253.196	3.22
253.571	2.85
253.947	2.7
254.322	2.63
254.697	2.8
255.073	2.69
255.448	3.03
255.823	2.73
256.198	2.93
256.573	2.98
256.948	3.28
257.323	3.51
257.698	3.52
258.073	3.59
258.448	3.6
258.823	3.67
259.198	3.39
259.573	3.6
259.948	3.56
260.322	3.41
260.697	3.46
261.072	3.25
261.446	3.34
261.821	3.44
262.195	3.54
262.57	3.28
262.944	3.49
263.319	3.44
263.693	3.52
264.067	3.35
264.442	3.32
264.816	3.37
265.19	3.02
265.564	2.92
265.938	2.96
266.313	2.93
266.687	2.8
267.061	2.96
267.435	3.14
267.809	2.95
268.183	3.1
268.556	2.99
268.93	3.16
269.304	3.2
269.678	3.25
270.051	3.38
270.425	3.5
270.799	3.04
271.172	3.02
271.546	2.96
271.919	3.09
272.293	3.29
272.666	3.25
273.04	3.18
273.413	3.13
273.787	3.22
274.16	3.04
274.533	3.28
274.906	3.32
275.279	3.05
275.653	3.14
276.026	2.99
276.399	2.89
276.772	2.92
277.145	2.79
277.518	2.66
277.891	2.37
278.263	2.36
278.636	2.76
279.009	2.75
279.382	2.66
279.755	2.59
280.127	2.38
280.5	2.3
280.872	2.42
281.245	2.54
281.617	2.5
281.99	2.69
282.362	2.73
282.735	2.67
283.107	2.69
283.479	2.88
283.852	2.94
284.224	3
284.596	2.94
284.968	2.91
285.34	2.93
285.713	3.05
286.085	2.88
286.457	2.76
286.829	2.67
287.201	2.77
287.572	2.82
287.944	2.93
288.316	3.17
288.688	3.16
289.06	3.18
289.431	3.41
289.803	3.55
290.175	3.37
290.546	3.39
290.918	3.38
291.289	3.11
291.661	3.03
292.032	3.02
292.403	3
292.775	3.17
293.146	3.27
293.517	3.19
293.889	3.31
294.26	3.52
294.631	3.66
295.002	3.66
295.373	3.57
295.744	3.52
296.115	3.47
296.486	3.54
296.857	3.45
297.228	3.11
297.599	3
297.97	3.3
298.34	3.28
298.711	3.53
299.082	3.62
299.452	3.66
299.823	3.72
300.194	3.85
300.564	3.89
300.935	3.91
301.305	3.96
301.676	3.93
302.046	3.7
302.416	3.58
302.787	3.6
303.157	3.58
303.527	3.57
303.897	3.44
304.267	3.39
304.637	3.38
305.008	3.52
305.378	3.59
305.748	3.32
306.117	3.32
306.487	3.17
306.857	3.31
307.227	3.25
307.597	3.23
307.967	3.22
308.336	3.09
308.706	2.89
309.076	2.99
309.445	3.14
309.815	3.3
310.184	3.29
310.554	3.23
310.923	3.3
311.293	3.33
311.662	3.34
312.031	3.34
312.401	3.35
312.77	3.28
313.139	3.32
313.508	3.38
313.877	3.31
314.246	3.29
314.616	3.05
314.985	3.16
315.353	3.18
315.722	3.24
316.091	3.19
316.46	3.4
316.829	3.42
317.198	3.24
317.567	3.22
317.935	3.28
318.304	3.37
318.672	3.37
319.041	3.34
319.41	3.21
319.778	3.18
320.147	3.3
320.515	3.34
320.883	2.98
321.252	3.01
321.62	3.14
321.988	3.14
322.357	3.1
322.725	3.03
323.093	3.04
323.461	2.99
323.829	3.1
324.197	2.99
324.565	2.95
324.933	3.01
325.301	2.8
325.669	2.9
326.037	2.87
326.405	2.9
326.772	2.99
327.14	3.02
327.508	3
327.875	2.82
328.243	2.66
328.61	2.79
328.978	2.66
329.346	2.59
329.713	2.71
330.08	2.99
330.448	3.06
330.815	2.93
331.182	2.86
331.55	2.76
331.917	2.81
332.284	2.78
332.651	2.7
333.018	2.81
333.385	2.72
333.752	2.78
334.119	2.81
334.486	2.86
334.853	2.77
335.22	2.78
335.587	2.73
335.954	2.93
336.32	3.03
336.687	3.18
337.054	3.18
337.42	3.07
337.787	3
338.153	3.02
338.52	3.16
338.886	3.15
339.253	3.2
339.619	3.22
339.986	3.24
340.352	3.35
340.718	3.33
341.084	3.37
341.451	3.41
341.817	3.42
342.183	3.12
342.549	3.34
342.915	3.38
343.281	3.44
343.647	3.37
344.013	3.32
344.379	3.31
344.745	3.44
345.11	3.45
345.476	3.52
345.842	3.43
346.208	3.44
346.573	3.49
346.939	3.48
347.304	3.44
347.67	3.4
348.035	3.4
348.401	3.47
348.766	3.46
349.132	3.38
349.497	3.24
349.862	3.38
350.228	3.32
350.593	3.39
350.958	3.49
351.323	3.41
351.688	3.42
352.053	3.39
352.418	3.29
352.783	3.3
353.148	3.22
353.513	3.3
353.878	3.21
354.243	3.18
354.608	3.26
354.972	3.25
355.337	3.38
355.702	3.33
356.066	3.37
356.431	3.41
356.795	3.51
357.16	3.67
357.524	3.65
357.889	3.69
358.253	3.64
358.618	3.59
358.982	3.65
359.346	3.63
359.71	3.67
360.075	3.7
360.439	3.69
360.803	3.72
361.167	3.67
361.531	3.65
361.895	3.67
362.259	3.64
362.623	3.64
362.987	3.57
363.351	3.57
363.714	3.52
364.078	3.51
364.442	3.44
364.806	3.42
365.169	3.43
365.533	3.32
365.896	3.29
366.26	3.27
366.623	3.2
366.987	3.2
367.35	3.15
367.714	3.1
368.077	3.1
368.44	3.06
368.803	3.12
369.167	3.18
369.53	3.19
369.893	3.21
370.256	3.24
370.619	3.25
370.982	3.23
371.345	3.24
371.708	3.22
372.071	3.18
372.434	3.17
372.797	3.18
373.159	3.22
373.522	3.2
373.885	3.24
374.247	3.31
374.61	3.29
374.973	3.27
375.335	3.32
375.698	3.22
376.06	3.24
376.423	3.21
376.785	3.23
377.147	3.16
377.51	3.11
377.872	3.11
378.234	3.2
378.596	3.24
378.958	3.23
379.321	3.25
379.683	3.27
380.045	3.2
380.407	3.24
380.769	3.27
381.13	3.29
381.492	3.29
381.854	3.28
382.216	3.26
382.578	3.34
382.939	3.34
383.301	3.44
383.663	3.43
384.024	3.43
384.386	3.35
384.747	3.34
385.109	3.36
385.47	3.31
385.832	3.22
386.193	3.26
386.554	3.23
386.916	3.2
387.277	3.2
387.638	3.26
387.999	3.23
388.36	3.22
388.721	3.23
389.082	3.24
389.443	3.28
389.804	3.32
390.165	3.26
390.526	3.27
390.887	3.23
391.248	3.25
391.609	3.3
391.969	3.33
392.33	3.35
392.691	3.39
393.051	3.44
393.412	3.45
393.772	3.43
394.133	3.45
394.493	3.46
394.854	3.49
395.214	3.49
395.574	3.5
395.935	3.5
396.295	3.46
396.655	3.41
397.015	3.41
397.376	3.45
397.736	3.46
398.096	3.41
398.456	3.43
398.816	3.42
399.176	3.35
399.535	3.35
399.895	3.34
400.255	3.31
400.615	3.28
400.975	3.27
401.334	3.24
401.694	3.24
402.054	3.28
402.413	3.28
402.773	3.28
403.132	3.26
403.492	3.26
403.851	3.3
404.211	3.33
404.57	3.33
404.929	3.29
405.288	3.31
405.648	3.34
406.007	3.35
406.366	3.31
406.725	3.36
407.084	3.35
407.443	3.37
407.802	3.33
408.161	3.38
408.52	3.38
408.879	3.42
409.238	3.41
409.596	3.41
409.955	3.38
410.314	3.37
410.673	3.4
411.031	3.38
411.39	3.39
411.748	3.4
412.107	3.39
412.465	3.39
412.824	3.37
413.182	3.39
413.54	3.4
413.899	3.39
414.257	3.41
414.615	3.42
414.974	3.44
415.332	3.49
415.69	3.47
416.048	3.47
416.406	3.45
416.764	3.47
417.122	3.45
417.48	3.46
417.838	3.45
418.195	3.45
418.553	3.46
418.911	3.46
419.269	3.46
419.626	3.49
419.984	3.5
420.342	3.51
420.699	3.51
421.057	3.52
421.414	3.54
421.772	3.53
422.129	3.53
422.486	3.53
422.844	3.52
423.201	3.52
423.558	3.52
423.915	3.52
424.273	3.51
424.63	3.53
424.987	3.53
425.344	3.54
425.701	3.54
426.058	3.55
426.415	3.54
426.772	3.54
427.128	3.51
427.485	3.5
427.842	3.48
428.199	3.47
428.555	3.47
428.912	3.47
429.269	3.46
429.625	3.47
429.982	3.46
430.338	3.48
430.695	3.46
431.051	3.49
431.407	3.5
431.764	3.49
432.12	3.47
432.476	3.48
432.832	3.49
433.189	3.49
433.545	3.49
433.901	3.52
434.257	3.53
434.613	3.53
434.969	3.53
435.325	3.55
435.681	3.56
436.036	3.55
436.392	3.53
436.748	3.54
437.104	3.55
437.459	3.56
437.815	3.56
438.171	3.58
438.526	3.57
438.882	3.58
439.237	3.59
439.593	3.59
439.948	3.6
440.304	3.6
440.659	3.59
441.014	3.57
441.369	3.56
441.725	3.56
442.08	3.55
442.435	3.56
442.79	3.53
443.145	3.55
443.5	3.53
443.855	3.54
444.21	3.54
444.565	3.53
444.92	3.54
445.275	3.55
445.629	3.54
445.984	3.53
446.339	3.51
446.693	3.51
447.048	3.5
447.403	3.49
447.757	3.48
448.112	3.49
448.466	3.48
448.82	3.48
449.175	3.48
449.529	3.5
449.883	3.5
450.238	3.52
450.592	3.51
450.946	3.5
451.3	3.51
451.654	3.51
452.008	3.51
452.362	3.49
452.716	3.47
453.07	3.47
453.424	3.45
453.778	3.47
454.132	3.48
454.486	3.48
454.839	3.49
455.193	3.51
455.547	3.51
455.9	3.54
456.254	3.56
456.607	3.59
456.961	3.57
457.314	3.58
457.668	3.58
458.021	3.54
458.375	3.56
458.728	3.55
459.081	3.55
459.434	3.55
459.787	3.55
460.141	3.57
460.494	3.58
460.847	3.59
461.2	3.59
461.553	3.59
461.906	3.6
462.259	3.58
462.611	3.57
462.964	3.57
463.317	3.57
463.67	3.56
464.022	3.55
464.375	3.55
464.728	3.55
465.08	3.54
465.433	3.56
465.785	3.56
466.138	3.57
466.49	3.57
466.843	3.57
467.195	3.59
467.547	3.57
467.899	3.57
468.252	3.57
468.604	3.59
468.956	3.6
469.308	3.58
469.66	3.59
470.012	3.61
470.364	3.62
470.716	3.62
471.068	3.63
471.42	3.62
471.772	3.63
472.123	3.64
472.475	3.67
472.827	3.7
473.178	3.7
473.53	3.69
473.882	3.71
474.233	3.72
474.585	3.71
474.936	3.7
475.288	3.69
475.639	3.68
475.99	3.66
476.342	3.65
476.693	3.66
477.044	3.65
477.395	3.63
477.746	3.61
478.097	3.61
478.448	3.61
478.8	3.62
479.15	3.62
479.501	3.62
479.852	3.61
480.203	3.61
480.554	3.61
480.905	3.63
481.255	3.63
481.606	3.63
481.957	3.63
482.307	3.64
482.658	3.65
483.009	3.66
483.359	3.68
483.709	3.68
484.06	3.69
484.41	3.69
484.761	3.71
485.111	3.72
485.461	3.71
485.811	3.71
486.162	3.71
486.512	3.72
486.862	3.71
487.212	3.72
487.562	3.72
487.912	3.72
488.262	3.71
488.612	3.71
488.961	3.7
489.311	3.69
489.661	3.69
490.011	3.69
490.36	3.69
490.71	3.69
491.06	3.69
491.409	3.69
491.759	3.69
492.108	3.68
492.458	3.66
492.807	3.68
493.157	3.66
493.506	3.67
493.855	3.66
494.204	3.66
494.554	3.63
494.903	3.64
495.252	3.65
495.601	3.66
495.95	3.69
496.299	3.72
496.648	3.74
496.997	3.72
497.346	3.74
497.695	3.73
498.043	3.71
498.392	3.72
498.741	3.72
499.09	3.73
499.438	3.72
499.787	3.74
500.135	3.74
500.484	3.75
500.832	3.75
501.181	3.74
501.529	3.76
501.878	3.79
502.226	3.79
502.574	3.77
502.923	3.75
503.271	3.75
503.619	3.75
503.967	3.72
504.315	3.74
504.663	3.73
505.011	3.71
505.359	3.69
505.707	3.68
506.055	3.68
506.403	3.67
506.751	3.67
507.098	3.66
507.446	3.67
507.794	3.67
508.141	3.68
508.489	3.7
508.837	3.68
509.184	3.67
509.531	3.67
509.879	3.69
510.226	3.69
510.574	3.7
510.921	3.68
511.268	3.7
511.616	3.72
511.963	3.73
512.31	3.76
512.657	3.79
513.004	3.79
513.351	3.78
513.698	3.77
514.045	3.78
514.392	3.79
514.739	3.77
515.086	3.78
515.432	3.78
515.779	3.78
516.126	3.81
516.473	3.8
516.819	3.77
517.166	3.77
517.512	3.77
517.859	3.78
518.205	3.79
518.552	3.77
518.898	3.75
519.245	3.75
519.591	3.75
519.937	3.75
520.283	3.75
520.629	3.75
520.976	3.77
521.322	3.76
521.668	3.77
522.014	3.79
522.36	3.8
522.706	3.8
523.052	3.8
523.398	3.79
523.743	3.8
524.089	3.83
524.435	3.84
524.781	3.86
525.126	3.84
525.472	3.86
525.817	3.88
526.163	3.89
526.509	3.9
526.854	3.9
527.199	3.91
527.545	3.92
527.89	3.92
528.235	3.93
528.581	3.93
528.926	3.92
529.271	3.93
529.616	3.92
529.961	3.94
530.306	3.95
530.651	3.94
530.996	3.95
531.341	3.97
531.686	3.97
532.031	3.97
532.376	3.98
532.721	3.96
533.065	3.97
533.41	3.97
533.755	3.97
534.099	3.97
534.444	3.96
534.788	3.95
535.133	3.95
535.477	3.95
535.822	3.97
536.166	3.98
536.51	3.96
536.855	3.97
537.199	3.95
537.543	3.95
537.887	3.97
538.231	3.97
538.576	3.93
538.92	3.94
539.264	3.94
539.608	3.94
539.951	3.95
540.295	3.94
540.639	3.97
540.983	3.97
541.327	3.97
541.671	3.99
542.014	4
542.358	4
542.701	3.99
543.045	4
543.389	4.01
543.732	4.01
544.075	4.01
544.419	4
544.762	3.99
545.105	4
545.449	4.01
545.792	4.04
546.135	4.03
546.478	4.02
546.821	4.03
547.165	4.01
547.508	4.02
547.851	4
548.194	3.99
548.536	3.98
548.879	3.96
549.222	3.94
549.565	3.94
549.908	3.92
550.25	3.93
550.593	3.92
550.936	3.93
551.278	3.94
551.621	3.95
551.963	3.94
552.306	3.91
552.648	3.92
552.991	3.89
553.333	3.92
553.675	3.95
554.017	3.96
554.36	4
554.702	3.98
555.044	3.98
555.386	3.98
555.728	3.97
556.07	3.97
556.412	3.97
556.754	3.96
557.096	4.01
557.438	3.98
557.78	3.95
558.121	3.95
558.463	3.96
558.805	3.95
559.147	3.95
559.488	3.95
559.83	3.92
560.171	3.92
560.513	3.92
560.854	3.92
561.196	3.91
561.537	3.92
561.878	3.9
562.22	3.89
562.561	3.9
562.902	3.91
563.243	3.92
563.584	3.93
563.925	3.99
564.266	3.95
564.607	3.97
564.948	4
565.289	3.97
565.63	3.98
565.971	3.99
566.312	3.99
566.653	4
566.993	3.99
567.334	4.02
567.675	4.02
568.015	4.02
568.356	4.01
568.696	3.98
569.037	3.99
569.377	4
569.718	3.98
570.058	3.97
570.398	3.97
570.739	3.98
571.079	3.94
571.419	3.93
571.759	3.91
572.099	3.91
572.439	3.92
572.779	3.91
573.119	3.94
573.459	3.96
573.799	3.98
574.139	4
574.479	4
574.819	4
575.158	3.99
575.498	4
575.838	4
576.177	3.99
576.517	3.99
576.856	4.02
577.196	4.02
577.535	4.03
577.875	4.02
578.214	4.03
578.553	4.02
578.893	4.03
579.232	4.06
579.571	4.1
579.91	4.1
580.25	4.06
580.589	4.05
580.928	4.02
581.267	4
581.606	3.99
581.945	3.97
582.283	3.99
582.622	3.98
582.961	4
583.3	4.01
583.639	4.04
583.977	4.07
584.316	4.06
584.654	4.04
584.993	4.03
585.332	4.05
585.67	4.11
586.008	4.1
586.347	4.1
586.685	4.04
587.024	4.06
587.362	4.01
587.7	4.04
588.038	4.11
588.376	4.11
588.715	4.11
589.053	4.12
589.391	4.1
589.729	4.12
590.067	4.13
590.404	4.12
590.742	4.13
591.08	4.12
591.418	4.16
591.756	4.22
592.093	4.22
592.431	4.19
592.769	4.21
593.106	4.21
593.444	4.22
593.781	4.22
594.119	4.22
594.456	4.28
594.793	4.26
595.131	4.26
595.468	4.26
595.805	4.25
596.143	4.25
596.48	4.28
596.817	4.26
597.154	4.25
597.491	4.28
597.828	4.24
598.165	4.24
598.502	4.23
598.839	4.21
599.176	4.23
599.512	4.22
599.849	4.18
600.186	4.21
600.523	4.18
600.859	4.18
601.196	4.2
601.532	4.18
601.869	4.2
602.205	4.18
602.542	4.24
602.878	4.29
603.215	4.32
603.551	4.29
603.887	4.28
604.223	4.3
604.56	4.26
604.896	4.3
605.232	4.28
605.568	4.27
605.904	4.24
606.24	4.26
606.576	4.3
606.912	4.29
607.248	4.3
607.583	4.3
607.919	4.33
608.255	4.32
608.591	4.33
608.926	4.32
609.262	4.28
609.597	4.22
609.933	4.2
610.268	4.15
610.604	4.15
610.939	4.21
611.275	4.19
611.61	4.22
611.945	4.2
612.281	4.21
612.616	4.2
612.951	4.24
613.286	4.24
613.621	4.22
613.956	4.27
614.291	4.24
614.626	4.24
614.961	4.2
615.296	4.2
615.631	4.23
615.966	4.22
616.3	4.33
616.635	4.32
616.97	4.27
617.304	4.24
617.639	4.23
617.973	4.16
618.308	4.2
618.642	4.17
618.977	4.16
619.311	4.15
619.646	4.11
619.98	4.09
620.314	4.08
620.648	4.04
620.983	3.97
621.317	3.98
621.651	3.98
621.985	4.04
622.319	4.04
622.653	4.05
622.987	4.03
623.321	4
623.655	4
623.988	4.08
624.322	4.12
624.656	4.1
624.99	4.12
625.323	4.14
625.657	4.17
625.99	4.2
626.324	4.23
626.657	4.26
626.991	4.28
627.324	4.26
627.658	4.32
627.991	4.39
628.324	4.37
628.657	4.35
628.991	4.39
629.324	4.45
629.657	4.43
629.99	4.47
630.323	4.49
630.656	4.52
630.989	4.51
631.322	4.55
631.655	4.59
631.987	4.58
632.32	4.59
632.653	4.57
632.986	4.63
633.318	4.62
633.651	4.67
633.984	4.69
634.316	4.71
634.649	4.64
634.981	4.62
635.313	4.65
635.646	4.69
635.978	4.62
636.31	4.59
636.643	4.59
636.975	4.54
637.307	4.56
637.639	4.56
637.971	4.52
638.303	4.46
638.635	4.45
638.967	4.51
639.299	4.48
639.631	4.45
639.963	4.44
640.295	4.45
640.626	4.37
640.958	4.34
641.29	4.37
641.621	4.41
641.953	4.4
642.285	4.42
642.616	4.43
642.948	4.51
643.279	4.45
643.61	4.42
643.942	4.45
644.273	4.38
644.604	4.36
644.936	4.33
645.267	4.37
645.598	4.39
645.929	4.26
646.26	4.22
646.591	4.25
646.922	4.2
647.253	4.14
647.584	4.21
647.915	4.21
648.245	4.21
648.576	4.17
648.907	4.28
649.238	4.2
649.568	4.23
649.899	4.12
650.229	4.19
650.56	4.25
650.89	4.3
651.221	4.22
651.551	4.21
651.882	4.28
652.212	4.33
652.542	4.34
652.872	4.47
653.203	4.48
653.533	4.54
653.863	4.56
654.193	4.58
654.523	4.57
654.853	4.65
655.183	4.63
655.513	4.62
655.843	4.55
656.172	4.61
656.502	4.63
656.832	4.68
657.162	4.64
657.491	4.58
657.821	4.54
658.15	4.68
658.48	4.7
658.809	4.7
659.139	4.67
659.468	4.69
659.798	4.65
660.127	4.65
660.456	4.62
660.785	4.59
661.115	4.62
661.444	4.63
661.773	4.6
662.102	4.57
662.431	4.63
662.76	4.59
663.089	4.61
663.418	4.51
663.747	4.51
664.076	4.47
664.404	4.57
664.733	4.55
665.062	4.51
665.39	4.51
665.719	4.45
666.048	4.46
666.376	4.42
666.705	4.46
667.033	4.46
667.362	4.44
667.69	4.37
668.018	4.38
668.347	4.34
668.675	4.35
669.003	4.38
669.331	4.41
669.659	4.4
669.987	4.4
670.315	4.53
670.643	4.56
670.971	4.59
671.299	4.54
671.627	4.58
671.955	4.5
672.283	4.53
672.61	4.62
672.938	4.72
673.266	4.75
673.593	4.68
673.921	4.72
674.249	4.68
674.576	4.79
674.904	4.73
675.231	4.88
675.558	4.88
675.886	4.92
676.213	4.89
676.54	4.9
676.867	4.93
677.195	4.89
