Data from BA28416_Reflection_00009.txt Node
Date: Mon Nov 18 16:05:30 EST 2019
User: vgr7
Spectrometer: USB2G7710
Scans to average: 3
Trigger mode: 4
Integration Time (sec): 2.000000E-2
Electric dark correction enabled: true
Boxcar width: 10
XAxis mode: Wavelengths
Number of Pixels in Spectrum: 2048
>>>>>Begin Spectral Data<<<<<
177.721	5.43
178.105	95.07
178.488	35.8
178.871	375.86
179.254	-189.26
179.636	150.53
180.019	-178.69
180.402	28.89
180.785	-18.24
181.168	-39.04
181.55	-6.33
181.933	58.86
182.316	57.04
182.698	66.93
183.081	87.33
183.463	83.79
183.846	69.77
184.228	71.37
184.611	58.85
184.993	38.97
185.376	35.28
185.758	60.19
186.14	82.76
186.522	74.33
186.904	74.83
187.287	83.18
187.669	62.55
188.051	73.46
188.433	68.08
188.815	89.45
189.197	117.13
189.579	93.05
189.961	125.25
190.342	131.65
190.724	227.99
191.106	154.19
191.488	231.51
191.869	278.87
192.251	183.39
192.633	134.89
193.014	175.69
193.396	204.31
193.777	159.79
194.159	255.03
194.54	359.47
194.922	-281.01
195.303	-743.26
195.684	-728.25
196.065	-302.6
196.447	-330.01
196.828	-187.14
197.209	-118.88
197.59	-145.77
197.971	-205.99
198.352	-104.98
198.733	-105.05
199.114	-106.81
199.495	-86.02
199.876	-75.99
200.257	-49.17
200.638	-56.34
201.018	-77.09
201.399	-68.65
201.78	-64.3
202.16	-75.9
202.541	-91.42
202.922	-268.02
203.302	-208.4
203.683	-581.09
204.063	-837.3
204.444	-375.26
204.824	-572.63
205.204	-585.11
205.585	-216.27
205.965	-69.75
206.345	-214.37
206.725	-3700
207.106	640.6
207.486	197.01
207.866	212.21
208.246	117.03
208.626	109.14
209.006	129.79
209.386	126.73
209.766	85.44
210.145	83.32
210.525	20.55
210.905	18.19
211.285	-24.8
211.664	-9.46
212.044	-4.91
212.424	-11.85
212.803	9.33
213.183	4.88
213.562	-11.04
213.942	-8.34
214.321	-49.12
214.701	-58.02
215.08	-74.26
215.459	-71.16
215.838	-115.11
216.218	-390.68
216.597	-136.23
216.976	-367.49
217.355	-4042.86
217.734	-384.95
218.113	1223.71
218.492	554.55
218.871	127.56
219.25	49.52
219.629	57.66
220.008	36.24
220.387	14.17
220.766	21.04
221.144	-68.52
221.523	-60.64
221.902	-202.1
222.28	3137.74
222.659	-249.18
223.037	-126.71
223.416	-130.89
223.794	-136.47
224.173	-109.25
224.551	-50.12
224.929	-65.12
225.308	-52.97
225.686	-35.99
226.064	-28.11
226.442	-31.87
226.821	-16.04
227.199	-13.79
227.577	-17
227.955	-14.61
228.333	-14.28
228.711	-13.05
229.089	-9.21
229.467	-11.71
229.845	-7.36
230.222	-5.84
230.6	-5.96
230.978	-4.74
231.356	-2.95
231.733	-1.46
232.111	-0.38
232.488	-0.08
232.866	1.84
233.243	2.46
233.621	1.77
233.998	4.14
234.376	5.94
234.753	4.29
235.13	5.38
235.508	7.45
235.885	7.4
236.262	6.8
236.639	6.83
237.016	6.87
237.393	8.85
237.77	9.21
238.147	8.88
238.524	8.21
238.901	7.03
239.278	6.86
239.655	6.95
240.032	5.94
240.409	5.91
240.785	5.52
241.162	5.21
241.539	4.92
241.915	4.99
242.292	4.28
242.668	4.46
243.045	4.54
243.421	4.33
243.798	4.05
244.174	4.21
244.551	3.94
244.927	3.65
245.303	3.63
245.679	3.29
246.056	3.38
246.432	3.43
246.808	3.4
247.184	3.06
247.56	3.05
247.936	2.94
248.312	2.78
248.688	2.7
249.064	2.54
249.44	2.49
249.815	2.24
250.191	2.28
250.567	2.2
250.943	1.79
251.318	1.96
251.694	2.31
252.069	2.06
252.445	2.12
252.82	2.3
253.196	1.97
253.571	2.01
253.947	1.69
254.322	1.84
254.697	2.07
255.073	2.29
255.448	2.08
255.823	2.36
256.198	2.59
256.573	2.59
256.948	2.72
257.323	2.85
257.698	2.88
258.073	3.13
258.448	3.08
258.823	3.17
259.198	2.98
259.573	2.77
259.948	2.95
260.322	3.02
260.697	2.81
261.072	2.77
261.446	2.74
261.821	2.76
262.195	2.65
262.57	2.64
262.944	2.61
263.319	2.59
263.693	2.57
264.067	2.45
264.442	2.32
264.816	2.25
265.19	2.07
265.564	2.01
265.938	1.77
266.313	1.68
266.687	1.78
267.061	1.86
267.435	1.96
267.809	1.78
268.183	1.67
268.556	1.95
268.93	2
269.304	2.28
269.678	2.35
270.051	2.17
270.425	2.21
270.799	2.16
271.172	2.19
271.546	2.19
271.919	2.2
272.293	2.36
272.666	2.49
273.04	2.7
273.413	2.72
273.787	2.81
274.16	2.76
274.533	2.72
274.906	2.66
275.279	2.73
275.653	2.74
276.026	2.81
276.399	2.7
276.772	2.85
277.145	2.58
277.518	2.46
277.891	2.67
278.263	2.65
278.636	2.71
279.009	2.75
279.382	2.92
279.755	2.91
280.127	2.98
280.5	2.95
280.872	2.82
281.245	2.81
281.617	2.9
281.99	3.05
282.362	3.25
282.735	3.09
283.107	3.15
283.479	3.17
283.852	3.11
284.224	3.13
284.596	3.02
284.968	3.21
285.34	3.4
285.713	3.29
286.085	3.3
286.457	3.4
286.829	3.38
287.201	3.35
287.572	3.4
287.944	3.28
288.316	3.24
288.688	3.16
289.06	3.24
289.431	3.19
289.803	3.14
290.175	3.01
290.546	3.22
290.918	3.15
291.289	3.21
291.661	3.2
292.032	3.14
292.403	3.08
292.775	3.15
293.146	3
293.517	3.07
293.889	3.22
294.26	3.21
294.631	3.18
295.002	3.14
295.373	3.18
295.744	3.27
296.115	3.26
296.486	3.25
296.857	3.3
297.228	3.43
297.599	3.45
297.97	3.53
298.34	3.62
298.711	3.62
299.082	3.59
299.452	3.71
299.823	3.85
300.194	3.97
300.564	3.83
300.935	3.94
301.305	3.93
301.676	3.82
302.046	3.82
302.416	4
302.787	3.99
303.157	3.93
303.527	3.88
303.897	3.87
304.267	4.19
304.637	4.28
305.008	4.24
305.378	4.31
305.748	4.24
306.117	4.04
306.487	4.11
306.857	4.15
307.227	4.21
307.597	4.29
307.967	4.33
308.336	4.42
308.706	4.42
309.076	4.46
309.445	4.44
309.815	4.44
310.184	4.34
310.554	4.41
310.923	4.44
311.293	4.46
311.662	4.55
312.031	4.42
312.401	4.32
312.77	4.2
313.139	4.25
313.508	4.32
313.877	4.38
314.246	4.31
314.616	4.28
314.985	4.23
315.353	4.15
315.722	4.1
316.091	3.88
316.46	3.74
316.829	3.73
317.198	4
317.567	4.01
317.935	3.99
318.304	4.05
318.672	4.14
319.041	4.22
319.41	4.17
319.778	4.23
320.147	4.3
320.515	4.44
320.883	4.36
321.252	4.41
321.62	4.62
321.988	4.6
322.357	4.75
322.725	4.76
323.093	4.8
323.461	4.9
323.829	5.07
324.197	5.22
324.565	5.27
324.933	5.24
325.301	5.27
325.669	5.4
326.037	5.35
326.405	5.39
326.772	5.52
327.14	5.63
327.508	5.64
327.875	5.58
328.243	5.72
328.61	5.75
328.978	5.65
329.346	5.58
329.713	5.75
330.08	5.81
330.448	5.79
330.815	5.75
331.182	5.7
331.55	5.74
331.917	5.84
332.284	5.9
332.651	5.86
333.018	5.94
333.385	5.87
333.752	5.95
334.119	6
334.486	5.79
334.853	5.73
335.22	5.75
335.587	5.9
335.954	5.82
336.32	5.85
336.687	5.97
337.054	6.08
337.42	6.01
337.787	5.99
338.153	6.03
338.52	6.1
338.886	6.18
339.253	6.25
339.619	6.27
339.986	6.31
340.352	6.32
340.718	6.29
341.084	6.34
341.451	6.37
341.817	6.33
342.183	6.47
342.549	6.59
342.915	6.61
343.281	6.5
343.647	6.56
344.013	6.65
344.379	6.56
344.745	6.52
345.11	6.5
345.476	6.58
345.842	6.65
346.208	6.64
346.573	6.75
346.939	6.84
347.304	6.75
347.67	6.73
348.035	6.69
348.401	6.83
348.766	6.86
349.132	6.85
349.497	6.86
349.862	6.97
350.228	6.82
350.593	6.78
350.958	6.74
351.323	6.73
351.688	6.64
352.053	6.76
352.418	6.83
352.783	6.85
353.148	6.75
353.513	6.71
353.878	6.76
354.243	6.68
354.608	6.57
354.972	6.57
355.337	6.65
355.702	6.72
356.066	6.61
356.431	6.55
356.795	6.5
357.16	6.48
357.524	6.36
357.889	6.46
358.253	6.49
358.618	6.58
358.982	6.49
359.346	6.46
359.71	6.39
360.075	6.32
360.439	6.31
360.803	6.35
361.167	6.27
361.531	6.17
361.895	6.13
362.259	6.12
362.623	6.14
362.987	6.06
363.351	5.96
363.714	5.93
364.078	5.9
364.442	5.88
364.806	5.81
365.169	5.83
365.533	5.77
365.896	5.73
366.26	5.7
366.623	5.72
366.987	5.73
367.35	5.81
367.714	5.73
368.077	5.64
368.44	5.6
368.803	5.62
369.167	5.57
369.53	5.56
369.893	5.55
370.256	5.48
370.619	5.43
370.982	5.42
371.345	5.36
371.708	5.33
372.071	5.34
372.434	5.3
372.797	5.27
373.159	5.25
373.522	5.19
373.885	5.13
374.247	5.11
374.61	5.03
374.973	4.9
375.335	4.84
375.698	4.86
376.06	4.79
376.423	4.76
376.785	4.82
377.147	4.81
377.51	4.79
377.872	4.82
378.234	4.79
378.596	4.8
378.958	4.78
379.321	4.76
379.683	4.74
380.045	4.75
380.407	4.69
380.769	4.61
381.13	4.63
381.492	4.58
381.854	4.52
382.216	4.53
382.578	4.5
382.939	4.53
383.301	4.49
383.663	4.49
384.024	4.46
384.386	4.43
384.747	4.33
385.109	4.26
385.47	4.22
385.832	4.21
386.193	4.18
386.554	4.16
386.916	4.16
387.277	4.11
387.638	4.1
387.999	4.07
388.36	4.09
388.721	4.08
389.082	4.08
389.443	4.08
389.804	4.06
390.165	4.03
390.526	4
390.887	3.98
391.248	3.93
391.609	3.88
391.969	3.87
392.33	3.91
392.691	3.91
393.051	3.89
393.412	3.85
393.772	3.82
394.133	3.84
394.493	3.81
394.854	3.81
395.214	3.77
395.574	3.71
395.935	3.67
396.295	3.65
396.655	3.61
397.015	3.6
397.376	3.6
397.736	3.59
398.096	3.56
398.456	3.56
398.816	3.54
399.176	3.56
399.535	3.51
399.895	3.46
400.255	3.45
400.615	3.43
400.975	3.42
401.334	3.38
401.694	3.33
402.054	3.33
402.413	3.31
402.773	3.29
403.132	3.3
403.492	3.28
403.851	3.26
404.211	3.26
404.57	3.2
404.929	3.17
405.288	3.16
405.648	3.14
406.007	3.16
406.366	3.14
406.725	3.15
407.084	3.17
407.443	3.17
407.802	3.15
408.161	3.13
408.52	3.12
408.879	3.12
409.238	3.13
409.596	3.1
409.955	3.07
410.314	3.05
410.673	3.05
411.031	3.05
411.39	3.01
411.748	3
412.107	3.03
412.465	3
412.824	3
413.182	2.98
413.54	2.96
413.899	2.96
414.257	2.93
414.615	2.89
414.974	2.87
415.332	2.86
415.69	2.86
416.048	2.84
416.406	2.83
416.764	2.81
417.122	2.81
417.48	2.8
417.838	2.81
418.195	2.79
418.553	2.79
418.911	2.8
419.269	2.78
419.626	2.77
419.984	2.77
420.342	2.77
420.699	2.78
421.057	2.76
421.414	2.74
421.772	2.72
422.129	2.73
422.486	2.72
422.844	2.73
423.201	2.71
423.558	2.7
423.915	2.7
424.273	2.7
424.63	2.68
424.987	2.69
425.344	2.69
425.701	2.69
426.058	2.68
426.415	2.67
426.772	2.67
427.128	2.66
427.485	2.68
427.842	2.67
428.199	2.67
428.555	2.66
428.912	2.67
429.269	2.69
429.625	2.66
429.982	2.66
430.338	2.65
430.695	2.66
431.051	2.64
431.407	2.61
431.764	2.61
432.12	2.62
432.476	2.61
432.832	2.59
433.189	2.61
433.545	2.61
433.901	2.59
434.257	2.59
434.613	2.59
434.969	2.59
435.325	2.58
435.681	2.58
436.036	2.59
436.392	2.59
436.748	2.57
437.104	2.58
437.459	2.57
437.815	2.56
438.171	2.58
438.526	2.59
438.882	2.61
439.237	2.62
439.593	2.63
439.948	2.61
440.304	2.6
440.659	2.6
441.014	2.6
441.369	2.6
441.725	2.6
442.08	2.59
442.435	2.57
442.79	2.57
443.145	2.56
443.5	2.55
443.855	2.54
444.21	2.53
444.565	2.54
444.92	2.55
445.275	2.54
445.629	2.52
445.984	2.52
446.339	2.5
446.693	2.48
447.048	2.47
447.403	2.48
447.757	2.48
448.112	2.47
448.466	2.47
448.82	2.47
449.175	2.47
449.529	2.47
449.883	2.45
450.238	2.46
450.592	2.46
450.946	2.44
451.3	2.44
451.654	2.45
452.008	2.44
452.362	2.42
452.716	2.4
453.07	2.42
453.424	2.42
453.778	2.43
454.132	2.43
454.486	2.42
454.839	2.42
455.193	2.41
455.547	2.41
455.9	2.41
456.254	2.41
456.607	2.43
456.961	2.43
457.314	2.44
457.668	2.43
458.021	2.4
458.375	2.42
458.728	2.42
459.081	2.41
459.434	2.39
459.787	2.41
460.141	2.44
460.494	2.43
460.847	2.44
461.2	2.45
461.553	2.47
461.906	2.48
462.259	2.5
462.611	2.51
462.964	2.5
463.317	2.5
463.67	2.51
464.022	2.49
464.375	2.5
464.728	2.51
465.08	2.51
465.433	2.55
465.785	2.55
466.138	2.57
466.49	2.59
466.843	2.62
467.195	2.64
467.547	2.65
467.899	2.66
468.252	2.65
468.604	2.65
468.956	2.65
469.308	2.65
469.66	2.64
470.012	2.66
470.364	2.68
470.716	2.69
471.068	2.69
471.42	2.72
471.772	2.74
472.123	2.74
472.475	2.75
472.827	2.75
473.178	2.77
473.53	2.74
473.882	2.73
474.233	2.74
474.585	2.71
474.936	2.7
475.288	2.7
475.639	2.72
475.99	2.71
476.342	2.72
476.693	2.71
477.044	2.71
477.395	2.7
477.746	2.68
478.097	2.68
478.448	2.69
478.8	2.67
479.15	2.64
479.501	2.65
479.852	2.64
480.203	2.63
480.554	2.63
480.905	2.64
481.255	2.63
481.606	2.63
481.957	2.64
482.307	2.63
482.658	2.63
483.009	2.61
483.359	2.61
483.709	2.6
484.06	2.6
484.41	2.6
484.761	2.6
485.111	2.61
485.461	2.61
485.811	2.6
486.162	2.6
486.512	2.61
486.862	2.6
487.212	2.6
487.562	2.62
487.912	2.62
488.262	2.61
488.612	2.62
488.961	2.62
489.311	2.62
489.661	2.63
490.011	2.63
490.36	2.63
490.71	2.64
491.06	2.65
491.409	2.65
491.759	2.66
492.108	2.66
492.458	2.66
492.807	2.66
493.157	2.67
493.506	2.68
493.855	2.7
494.204	2.71
494.554	2.73
494.903	2.73
495.252	2.73
495.601	2.76
495.95	2.79
496.299	2.79
496.648	2.8
496.997	2.83
497.346	2.86
497.695	2.9
498.043	2.94
498.392	2.95
498.741	2.99
499.09	2.99
499.438	3.04
499.787	3.07
500.135	3.12
500.484	3.18
500.832	3.2
501.181	3.22
501.529	3.25
501.878	3.28
502.226	3.31
502.574	3.36
502.923	3.39
503.271	3.41
503.619	3.48
503.967	3.56
504.315	3.59
504.663	3.62
505.011	3.66
505.359	3.7
505.707	3.77
506.055	3.8
506.403	3.88
506.751	3.93
507.098	3.99
507.446	4.06
507.794	4.08
508.141	4.15
508.489	4.22
508.837	4.3
509.184	4.37
509.531	4.44
509.879	4.52
510.226	4.62
510.574	4.71
510.921	4.79
511.268	4.86
511.616	4.95
511.963	5.04
512.31	5.12
512.657	5.22
513.004	5.31
513.351	5.43
513.698	5.51
514.045	5.61
514.392	5.69
514.739	5.78
515.086	5.91
515.432	6.04
515.779	6.13
516.126	6.23
516.473	6.31
516.819	6.44
517.166	6.53
517.512	6.62
517.859	6.73
518.205	6.8
518.552	6.9
518.898	6.99
519.245	7.08
519.591	7.18
519.937	7.26
520.283	7.39
520.629	7.49
520.976	7.62
521.322	7.75
521.668	7.89
522.014	8.02
522.36	8.16
522.706	8.29
523.052	8.48
523.398	8.68
523.743	8.88
524.089	9.05
524.435	9.24
524.781	9.41
525.126	9.59
525.472	9.76
525.817	9.9
526.163	10.03
526.509	10.18
526.854	10.33
527.199	10.47
527.545	10.56
527.89	10.7
528.235	10.83
528.581	10.97
528.926	11.12
529.271	11.26
529.616	11.4
529.961	11.53
530.306	11.68
530.651	11.83
530.996	12
531.341	12.17
531.686	12.34
532.031	12.51
532.376	12.69
532.721	12.89
533.065	13.08
533.41	13.3
533.755	13.5
534.099	13.7
534.444	13.92
534.788	14.17
535.133	14.38
535.477	14.59
535.822	14.81
536.166	15.06
536.51	15.33
536.855	15.6
537.199	15.92
537.543	16.22
537.887	16.54
538.231	16.85
538.576	17.18
538.92	17.46
539.264	17.75
539.608	18.03
539.951	18.28
540.295	18.55
540.639	18.81
540.983	19.04
541.327	19.29
541.671	19.52
542.014	19.72
542.358	19.96
542.701	20.2
543.045	20.43
543.389	20.68
543.732	20.94
544.075	21.19
544.419	21.43
544.762	21.68
545.105	21.94
545.449	22.2
545.792	22.49
546.135	22.83
546.478	23.12
546.821	23.45
547.165	23.77
547.508	24.1
547.851	24.42
548.194	24.75
548.536	25.05
548.879	25.41
549.222	25.77
549.565	26.12
549.908	26.46
550.25	26.8
550.593	27.12
550.936	27.43
551.278	27.75
551.621	28.05
551.963	28.35
552.306	28.67
552.648	28.98
552.991	29.25
553.333	29.53
553.675	29.82
554.017	30.1
554.36	30.41
554.702	30.7
555.044	30.95
555.386	31.21
555.728	31.5
556.07	31.73
556.412	32
556.754	32.24
557.096	32.53
557.438	32.8
557.78	33.13
558.121	33.41
558.463	33.71
558.805	34.02
559.147	34.3
559.488	34.55
559.83	34.76
560.171	35.05
560.513	35.29
560.854	35.6
561.196	35.81
561.537	36.07
561.878	36.29
562.22	36.55
562.561	36.8
562.902	37.07
563.243	37.34
563.584	37.57
563.925	37.81
564.266	38.02
564.607	38.24
564.948	38.39
565.289	38.63
565.63	38.8
565.971	38.98
566.312	39.2
566.653	39.45
566.993	39.69
567.334	39.85
567.675	40.02
568.015	40.16
568.356	40.36
568.696	40.53
569.037	40.75
569.377	40.95
569.718	41.12
570.058	41.26
570.398	41.45
570.739	41.66
571.079	41.83
571.419	41.99
571.759	42.17
572.099	42.3
572.439	42.48
572.779	42.62
573.119	42.83
573.459	42.97
573.799	43.08
574.139	43.16
574.479	43.31
574.819	43.5
575.158	43.62
575.498	43.78
575.838	43.88
576.177	44
576.517	44.07
576.856	44.24
577.196	44.38
577.535	44.46
577.875	44.57
578.214	44.67
578.553	44.78
578.893	44.9
579.232	45.01
579.571	45.07
579.91	45.28
580.25	45.36
580.589	45.48
580.928	45.59
581.267	45.77
581.606	45.84
581.945	45.92
582.283	46.09
582.622	46.22
582.961	46.41
583.3	46.47
583.639	46.73
583.977	46.85
584.316	46.93
584.654	47.13
584.993	47.25
585.332	47.37
585.67	47.55
586.008	47.66
586.347	47.82
586.685	47.94
587.024	47.98
587.362	48.1
587.7	48.14
588.038	48.27
588.376	48.4
588.715	48.55
589.053	48.71
589.391	48.8
589.729	48.86
590.067	48.92
590.404	49.04
590.742	49.11
591.08	49.2
591.418	49.32
591.756	49.35
592.093	49.41
592.431	49.52
592.769	49.55
593.106	49.59
593.444	49.69
593.781	49.76
594.119	49.87
594.456	49.95
594.793	50.07
595.131	50.09
595.468	50.14
595.805	50.13
596.143	50.17
596.48	50.17
596.817	50.29
597.154	50.36
597.491	50.44
597.828	50.47
598.165	50.43
598.502	50.52
598.839	50.58
599.176	50.64
599.512	50.64
599.849	50.73
600.186	50.86
600.523	50.9
600.859	50.97
601.196	51.05
601.532	51.09
601.869	51.11
602.205	51.18
602.542	51.29
602.878	51.36
603.215	51.43
603.551	51.45
603.887	51.53
604.223	51.55
604.56	51.59
604.896	51.62
605.232	51.76
605.568	51.77
605.904	51.87
606.24	51.9
606.576	51.98
606.912	52.05
607.248	52.1
607.583	52.18
607.919	52.23
608.255	52.22
608.591	52.27
608.926	52.33
609.262	52.42
609.597	52.41
609.933	52.49
610.268	52.56
610.604	52.63
610.939	52.65
611.275	52.73
611.61	52.78
611.945	52.86
612.281	52.87
612.616	52.93
612.951	52.92
613.286	52.98
613.621	53.03
613.956	53.05
614.291	53.02
614.626	53.08
614.961	53.13
615.296	53.22
615.631	53.26
615.966	53.3
616.3	53.26
616.635	53.31
616.97	53.35
617.304	53.34
617.639	53.44
617.973	53.47
618.308	53.45
618.642	53.46
618.977	53.44
619.311	53.5
619.646	53.58
619.98	53.7
620.314	53.72
620.648	53.76
620.983	53.86
621.317	53.97
621.651	53.98
621.985	54.01
622.319	53.96
622.653	53.97
622.987	54.07
623.321	54.17
623.655	54.26
623.988	54.31
624.322	54.33
624.656	54.32
624.99	54.31
625.323	54.29
625.657	54.34
625.99	54.46
626.324	54.48
626.657	54.47
626.991	54.46
627.324	54.54
627.658	54.59
627.991	54.57
628.324	54.56
628.657	54.62
628.991	54.65
629.324	54.71
629.657	54.77
629.99	54.8
630.323	54.82
630.656	54.8
630.989	54.82
631.322	54.84
631.655	54.92
631.987	54.97
632.32	55.07
632.653	55.07
632.986	54.99
633.318	54.95
633.651	54.92
633.984	54.81
634.316	54.81
634.649	54.85
634.981	54.89
635.313	54.83
635.646	54.83
635.978	54.85
636.31	54.83
636.643	54.81
636.975	54.73
637.307	54.67
637.639	54.65
637.971	54.66
638.303	54.69
638.635	54.64
638.967	54.57
639.299	54.54
639.631	54.55
639.963	54.64
640.295	54.76
640.626	54.82
640.958	55
641.29	54.99
641.621	54.98
641.953	54.97
642.285	55.05
642.616	55.11
642.948	55.03
643.279	55.06
643.61	55.18
643.942	55.32
644.273	55.31
644.604	55.34
644.936	55.27
645.267	55.23
645.598	55.35
645.929	55.35
646.26	55.42
646.591	55.49
646.922	55.49
647.253	55.48
647.584	55.54
647.915	55.48
648.245	55.47
648.576	55.43
648.907	55.43
649.238	55.41
649.568	55.45
649.899	55.59
650.229	55.69
650.56	55.72
650.89	55.66
651.221	55.72
651.551	55.76
651.882	55.88
652.212	55.86
652.542	55.62
652.872	55.68
653.203	55.68
653.533	55.7
653.863	55.63
654.193	55.63
654.523	55.55
654.853	55.66
655.183	55.82
655.513	55.76
655.843	55.83
656.172	55.92
656.502	55.93
656.832	55.9
657.162	55.92
657.491	55.81
657.821	55.91
658.15	55.92
658.48	55.88
658.809	55.81
659.139	55.9
659.468	55.99
659.798	56.02
660.127	55.99
660.456	56.02
660.785	56.09
661.115	56.11
661.444	56.25
661.773	56.2
662.102	56.19
662.431	56.11
662.76	56.17
663.089	56.19
663.418	56.06
663.747	56.05
664.076	56.1
664.404	56.14
664.733	56.1
665.062	56.15
665.39	56.37
665.719	56.53
666.048	56.58
666.376	56.65
666.705	56.59
667.033	56.7
667.362	56.69
667.69	56.64
