Data from BA28417_Reflection_00009.txt Node
Date: Mon Nov 18 16:11:14 EST 2019
User: vgr7
Spectrometer: USB2G7710
Scans to average: 3
Trigger mode: 4
Integration Time (sec): 2.000000E-2
Electric dark correction enabled: true
Boxcar width: 10
XAxis mode: Wavelengths
Number of Pixels in Spectrum: 2048
>>>>>Begin Spectral Data<<<<<
177.721	-82.57
178.105	-86.97
178.488	-52.41
178.871	-118.8
179.254	-88.25
179.636	-762.2
180.019	-77.61
180.402	195.24
180.785	133.86
181.168	-3252.94
181.55	-201.85
181.933	217.9
182.316	194.36
182.698	167.25
183.081	210.03
183.463	244.46
183.846	157.98
184.228	171.12
184.611	141.47
184.993	129.47
185.376	202.66
185.758	374.9
186.14	563.09
186.522	164.19
186.904	316.14
187.287	319.21
187.669	-1760.76
188.051	-534.5
188.433	-233.93
188.815	-101.2
189.197	-84.76
189.579	-68.61
189.961	-98.45
190.342	-100.78
190.724	-78.77
191.106	-54.14
191.488	-37.59
191.869	-15.43
192.251	-35.05
192.633	-46.25
193.014	-136.55
193.396	-318.9
193.777	-280.2
194.159	-322.57
194.54	-162.52
194.922	-130.97
195.303	-106.54
195.684	-55.62
196.065	-32.01
196.447	-29.59
196.828	-80.44
197.209	-87.24
197.59	-149.87
197.971	-104.77
198.352	-56.46
198.733	-65.66
199.114	-74.22
199.495	-79.46
199.876	-83.17
200.257	-61.71
200.638	-45.9
201.018	-38.14
201.399	-20.46
201.78	1.71
202.16	18.34
202.541	-2.34
202.922	-26.1
203.302	-31.44
203.683	-66.2
204.063	-81.14
204.444	-94.84
204.824	-58.5
205.204	-51.97
205.585	-40.57
205.965	-41.11
206.345	-68.62
206.725	-88.1
207.106	-96.96
207.486	-148.84
207.866	-166.4
208.246	-133.05
208.626	-166.07
209.006	-107.99
209.386	-173.01
209.766	-181.94
210.145	-125.92
210.525	-92.24
210.905	-54.32
211.285	-56.98
211.664	-52.1
212.044	-48.14
212.424	-48.2
212.803	-57.58
213.183	-37.43
213.562	-25.57
213.942	-9.59
214.321	-1.02
214.701	-8.5
215.08	-17.8
215.459	-1.48
215.838	31.84
216.218	20.38
216.597	28.25
216.976	28.19
217.355	28.22
217.734	24.69
218.113	8.15
218.492	33.23
218.871	-11.33
219.25	-28.99
219.629	-96.95
220.008	-245.84
220.387	-344.04
220.766	-673.2
221.144	820.67
221.523	425.51
221.902	479.47
222.28	511.53
222.659	335.96
223.037	6276.47
223.416	3100
223.794	-205.81
224.173	-96.61
224.551	-32.84
224.929	-22.64
225.308	-15.26
225.686	-16.4
226.064	-13.46
226.442	-10.04
226.821	-7.01
227.199	-9.53
227.577	-9.64
227.955	-10.98
228.333	-11.13
228.711	-8.46
229.089	-3.14
229.467	-5.37
229.845	-6.56
230.222	-2.04
230.6	-2.05
230.978	-5.42
231.356	-3.08
231.733	-3.88
232.111	-5.58
232.488	-5.75
232.866	-3.73
233.243	-1.97
233.621	-0.79
233.998	1.87
234.376	0.06
234.753	0.58
235.13	2.06
235.508	5.09
235.885	5.03
236.262	4.86
236.639	5
237.016	3.4
237.393	4.2
237.77	4.11
238.147	3.66
238.524	3.54
238.901	4.64
239.278	4.6
239.655	4.86
240.032	5.48
240.409	4.61
240.785	3.46
241.162	3.48
241.539	2.97
241.915	2.32
242.292	2.46
242.668	2.33
243.045	2.15
243.421	2.22
243.798	2.39
244.174	2.3
244.551	2.04
244.927	2.22
245.303	2.39
245.679	2.67
246.056	2.53
246.432	2.46
246.808	2.46
247.184	2.15
247.56	1.85
247.936	1.69
248.312	1.56
248.688	1.84
249.064	1.92
249.44	1.84
249.815	1.97
250.191	1.94
250.567	2.3
250.943	2.35
251.318	2.31
251.694	2.24
252.069	2.45
252.445	2.39
252.82	2.46
253.196	2.33
253.571	2.25
253.947	2.35
254.322	2.33
254.697	2.22
255.073	2.48
255.448	2.54
255.823	2.6
256.198	2.96
256.573	2.79
256.948	2.52
257.323	2.73
257.698	2.75
258.073	2.72
258.448	2.58
258.823	2.79
259.198	2.66
259.573	2.7
259.948	2.56
260.322	2.64
260.697	2.53
261.072	2.38
261.446	2.48
261.821	2.28
262.195	2.33
262.57	2.12
262.944	2.14
263.319	2.14
263.693	2.2
264.067	2.26
264.442	2.37
264.816	2.44
265.19	2.44
265.564	2.48
265.938	2.34
266.313	2.24
266.687	2.25
267.061	2.24
267.435	2.14
267.809	2.22
268.183	2.32
268.556	2.3
268.93	2.52
269.304	2.3
269.678	2.66
270.051	2.59
270.425	2.76
270.799	2.75
271.172	2.78
271.546	2.57
271.919	2.41
272.293	2.44
272.666	2.52
273.04	2.55
273.413	2.48
273.787	2.66
274.16	2.57
274.533	2.39
274.906	2.35
275.279	2.44
275.653	2.4
276.026	2.26
276.399	2.09
276.772	2.12
277.145	2.22
277.518	2.06
277.891	2.21
278.263	2.21
278.636	2.16
279.009	2.28
279.382	2.45
279.755	2.42
280.127	2.41
280.5	2.5
280.872	2.39
281.245	2.43
281.617	2.56
281.99	2.62
282.362	2.66
282.735	2.63
283.107	2.64
283.479	2.68
283.852	2.66
284.224	2.85
284.596	2.69
284.968	2.73
285.34	2.79
285.713	2.83
286.085	2.86
286.457	2.93
286.829	2.89
287.201	2.88
287.572	2.99
287.944	2.73
288.316	2.53
288.688	2.55
289.06	2.51
289.431	2.42
289.803	2.44
290.175	2.49
290.546	2.55
290.918	2.56
291.289	2.64
291.661	2.61
292.032	2.67
292.403	2.82
292.775	2.83
293.146	2.8
293.517	2.66
293.889	2.65
294.26	2.61
294.631	2.63
295.002	2.65
295.373	2.6
295.744	2.77
296.115	2.86
296.486	2.83
296.857	2.82
297.228	2.91
297.599	2.88
297.97	2.9
298.34	2.96
298.711	2.95
299.082	2.85
299.452	3.06
299.823	3.1
300.194	3.02
300.564	3.09
300.935	3.13
301.305	3.09
301.676	3.08
302.046	3.08
302.416	3.22
302.787	3.19
303.157	3.27
303.527	3.29
303.897	3.24
304.267	3.37
304.637	3.34
305.008	3.33
305.378	3.31
305.748	3.22
306.117	3.2
306.487	3.2
306.857	3.28
307.227	3.2
307.597	3.1
307.967	3.11
308.336	3.07
308.706	3.03
309.076	3.16
309.445	3.16
309.815	3.16
310.184	3.07
310.554	3.08
310.923	2.92
311.293	2.93
311.662	2.86
312.031	2.88
312.401	2.96
312.77	3.06
313.139	3.19
313.508	3.24
313.877	3.21
314.246	3.25
314.616	3.12
314.985	3.19
315.353	3.15
315.722	3.21
316.091	3.25
316.46	3.25
316.829	3.27
317.198	3.3
317.567	3.38
317.935	3.26
318.304	3.41
318.672	3.69
319.041	3.76
319.41	3.9
319.778	3.85
320.147	3.9
320.515	3.8
320.883	3.66
321.252	3.64
321.62	3.77
321.988	3.76
322.357	3.87
322.725	3.74
323.093	3.85
323.461	3.95
323.829	3.92
324.197	3.96
324.565	4.02
324.933	4.14
325.301	4.07
325.669	4.2
326.037	4.12
326.405	4
326.772	4.08
327.14	4.12
327.508	4.23
327.875	4.13
328.243	4.14
328.61	4.37
328.978	4.43
329.346	4.52
329.713	4.43
330.08	4.41
330.448	4.42
330.815	4.43
331.182	4.33
331.55	4.33
331.917	4.4
332.284	4.43
332.651	4.3
333.018	4.34
333.385	4.39
333.752	4.45
334.119	4.54
334.486	4.53
334.853	4.58
335.22	4.54
335.587	4.65
335.954	4.63
336.32	4.51
336.687	4.54
337.054	4.43
337.42	4.56
337.787	4.59
338.153	4.67
338.52	4.67
338.886	4.55
339.253	4.49
339.619	4.55
339.986	4.45
340.352	4.56
340.718	4.62
341.084	4.56
341.451	4.65
341.817	4.61
342.183	4.57
342.549	4.49
342.915	4.62
343.281	4.67
343.647	4.68
344.013	4.72
344.379	4.71
344.745	4.71
345.11	4.62
345.476	4.62
345.842	4.66
346.208	4.62
346.573	4.73
346.939	4.78
347.304	4.65
347.67	4.69
348.035	4.59
348.401	4.54
348.766	4.57
349.132	4.54
349.497	4.57
349.862	4.63
350.228	4.76
350.593	4.61
350.958	4.56
351.323	4.66
351.688	4.67
352.053	4.73
352.418	4.78
352.783	4.93
353.148	4.89
353.513	4.86
353.878	4.92
354.243	4.99
354.608	4.96
354.972	5.03
355.337	5.14
355.702	5.26
356.066	5.23
356.431	5.2
356.795	5.18
357.16	5.12
357.524	5.04
357.889	4.97
358.253	5.01
358.618	5.01
358.982	4.92
359.346	4.89
359.71	4.84
360.075	4.83
360.439	4.77
360.803	4.8
361.167	4.77
361.531	4.76
361.895	4.73
362.259	4.74
362.623	4.7
362.987	4.58
363.351	4.55
363.714	4.55
364.078	4.55
364.442	4.52
364.806	4.52
365.169	4.47
365.533	4.42
365.896	4.35
366.26	4.3
366.623	4.27
366.987	4.24
367.35	4.22
367.714	4.21
368.077	4.15
368.44	4.13
368.803	4.13
369.167	4.08
369.53	3.97
369.893	3.97
370.256	3.96
370.619	3.96
370.982	3.9
371.345	3.91
371.708	3.9
372.071	3.86
372.434	3.83
372.797	3.92
373.159	3.9
373.522	3.9
373.885	3.93
374.247	3.92
374.61	3.92
374.973	3.87
375.335	3.76
375.698	3.75
376.06	3.7
376.423	3.66
376.785	3.69
377.147	3.72
377.51	3.71
377.872	3.67
378.234	3.65
378.596	3.67
378.958	3.65
379.321	3.65
379.683	3.62
380.045	3.63
380.407	3.57
380.769	3.64
381.13	3.6
381.492	3.57
381.854	3.55
382.216	3.47
382.578	3.46
382.939	3.47
383.301	3.49
383.663	3.47
384.024	3.44
384.386	3.41
384.747	3.47
385.109	3.47
385.47	3.42
385.832	3.37
386.193	3.3
386.554	3.25
386.916	3.2
387.277	3.2
387.638	3.19
387.999	3.16
388.36	3.1
388.721	3.12
389.082	3.13
389.443	3.08
389.804	3.12
390.165	3.11
390.526	3.12
390.887	3.09
391.248	3.11
391.609	3.09
391.969	3.1
392.33	3.03
392.691	3.01
393.051	3.03
393.412	3.06
393.772	3
394.133	2.99
394.493	3
394.854	3
395.214	2.97
395.574	2.93
395.935	2.87
396.295	2.88
396.655	2.81
397.015	2.79
397.376	2.76
397.736	2.74
398.096	2.75
398.456	2.74
398.816	2.68
399.176	2.66
399.535	2.63
399.895	2.62
400.255	2.58
400.615	2.54
400.975	2.49
401.334	2.53
401.694	2.52
402.054	2.48
402.413	2.46
402.773	2.42
403.132	2.43
403.492	2.47
403.851	2.43
404.211	2.44
404.57	2.47
404.929	2.46
405.288	2.47
405.648	2.43
406.007	2.41
406.366	2.41
406.725	2.46
407.084	2.44
407.443	2.45
407.802	2.46
408.161	2.46
408.52	2.46
408.879	2.47
409.238	2.47
409.596	2.45
409.955	2.46
410.314	2.46
410.673	2.45
411.031	2.44
411.39	2.43
411.748	2.41
412.107	2.38
412.465	2.37
412.824	2.35
413.182	2.34
413.54	2.33
413.899	2.33
414.257	2.3
414.615	2.29
414.974	2.26
415.332	2.27
415.69	2.25
416.048	2.24
416.406	2.25
416.764	2.23
417.122	2.23
417.48	2.2
417.838	2.22
418.195	2.22
418.553	2.21
418.911	2.2
419.269	2.21
419.626	2.21
419.984	2.21
420.342	2.22
420.699	2.22
421.057	2.21
421.414	2.2
421.772	2.2
422.129	2.2
422.486	2.19
422.844	2.17
423.201	2.17
423.558	2.18
423.915	2.17
424.273	2.18
424.63	2.18
424.987	2.19
425.344	2.17
425.701	2.16
426.058	2.15
426.415	2.13
426.772	2.12
427.128	2.13
427.485	2.14
427.842	2.12
428.199	2.12
428.555	2.12
428.912	2.15
429.269	2.15
429.625	2.14
429.982	2.14
430.338	2.16
430.695	2.16
431.051	2.15
431.407	2.15
431.764	2.14
432.12	2.11
432.476	2.1
432.832	2.11
433.189	2.11
433.545	2.12
433.901	2.13
434.257	2.13
434.613	2.11
434.969	2.1
435.325	2.1
435.681	2.13
436.036	2.13
436.392	2.11
436.748	2.09
437.104	2.09
437.459	2.09
437.815	2.07
438.171	2.08
438.526	2.09
438.882	2.08
439.237	2.1
439.593	2.12
439.948	2.14
440.304	2.14
440.659	2.14
441.014	2.14
441.369	2.13
441.725	2.13
442.08	2.15
442.435	2.15
442.79	2.15
443.145	2.13
443.5	2.12
443.855	2.11
444.21	2.11
444.565	2.13
444.92	2.13
445.275	2.13
445.629	2.12
445.984	2.1
446.339	2.1
446.693	2.08
447.048	2.07
447.403	2.05
447.757	2.04
448.112	2.03
448.466	2.01
448.82	2.02
449.175	2.02
449.529	2.01
449.883	2.01
450.238	1.99
450.592	2
450.946	1.98
451.3	2
451.654	1.99
452.008	1.98
452.362	1.98
452.716	1.97
453.07	1.97
453.424	1.97
453.778	1.97
454.132	1.98
454.486	1.98
454.839	1.99
455.193	1.99
455.547	1.99
455.9	2
456.254	2.01
456.607	2
456.961	1.99
457.314	1.99
457.668	2
458.021	1.98
458.375	1.99
458.728	1.99
459.081	2.01
459.434	2.01
459.787	2.02
460.141	2.04
460.494	2.06
460.847	2.06
461.2	2.06
461.553	2.07
461.906	2.07
462.259	2.07
462.611	2.09
462.964	2.1
463.317	2.11
463.67	2.11
464.022	2.1
464.375	2.11
464.728	2.11
465.08	2.1
465.433	2.12
465.785	2.12
466.138	2.11
466.49	2.1
466.843	2.11
467.195	2.1
467.547	2.08
467.899	2.06
468.252	2.07
468.604	2.1
468.956	2.08
469.308	2.09
469.66	2.09
470.012	2.08
470.364	2.09
470.716	2.09
471.068	2.07
471.42	2.08
471.772	2.09
472.123	2.1
472.475	2.11
472.827	2.12
473.178	2.13
473.53	2.14
473.882	2.16
474.233	2.16
474.585	2.15
474.936	2.14
475.288	2.13
475.639	2.12
475.99	2.11
476.342	2.12
476.693	2.1
477.044	2.11
477.395	2.12
477.746	2.11
478.097	2.11
478.448	2.12
478.8	2.12
479.15	2.1
479.501	2.1
479.852	2.1
480.203	2.09
480.554	2.1
480.905	2.1
481.255	2.09
481.606	2.09
481.957	2.1
482.307	2.11
482.658	2.11
483.009	2.13
483.359	2.12
483.709	2.13
484.06	2.13
484.41	2.13
484.761	2.12
485.111	2.12
485.461	2.12
485.811	2.12
486.162	2.13
486.512	2.13
486.862	2.13
487.212	2.13
487.562	2.13
487.912	2.12
488.262	2.13
488.612	2.13
488.961	2.13
489.311	2.14
489.661	2.14
490.011	2.14
490.36	2.14
490.71	2.15
491.06	2.15
491.409	2.15
491.759	2.14
492.108	2.14
492.458	2.15
492.807	2.17
493.157	2.17
493.506	2.18
493.855	2.18
494.204	2.2
494.554	2.2
494.903	2.21
495.252	2.22
495.601	2.24
495.95	2.24
496.299	2.24
496.648	2.24
496.997	2.24
497.346	2.26
497.695	2.28
498.043	2.29
498.392	2.29
498.741	2.32
499.09	2.32
499.438	2.34
499.787	2.37
500.135	2.38
500.484	2.39
500.832	2.39
501.181	2.41
501.529	2.44
501.878	2.49
502.226	2.51
502.574	2.54
502.923	2.53
503.271	2.58
503.619	2.61
503.967	2.63
504.315	2.65
504.663	2.67
505.011	2.68
505.359	2.69
505.707	2.73
506.055	2.76
506.403	2.8
506.751	2.86
507.098	2.88
507.446	2.91
507.794	2.95
508.141	3
508.489	3.03
508.837	3.05
509.184	3.06
509.531	3.1
509.879	3.14
510.226	3.2
510.574	3.24
510.921	3.28
511.268	3.32
511.616	3.38
511.963	3.44
512.31	3.49
512.657	3.55
513.004	3.61
513.351	3.66
513.698	3.74
514.045	3.76
514.392	3.8
514.739	3.86
515.086	3.91
515.432	3.96
515.779	4.01
516.126	4.08
516.473	4.15
516.819	4.2
517.166	4.24
517.512	4.27
517.859	4.3
518.205	4.36
518.552	4.43
518.898	4.45
519.245	4.48
519.591	4.51
519.937	4.55
520.283	4.61
520.629	4.66
520.976	4.69
521.322	4.77
521.668	4.84
522.014	4.91
522.36	5.01
522.706	5.08
523.052	5.17
523.398	5.25
523.743	5.34
524.089	5.43
524.435	5.52
524.781	5.63
525.126	5.74
525.472	5.8
525.817	5.88
526.163	5.97
526.509	6.04
526.854	6.11
527.199	6.18
527.545	6.22
527.89	6.29
528.235	6.36
528.581	6.43
528.926	6.5
529.271	6.57
529.616	6.63
529.961	6.7
530.306	6.78
530.651	6.86
530.996	6.94
531.341	7.04
531.686	7.14
532.031	7.22
532.376	7.32
532.721	7.42
533.065	7.53
533.41	7.66
533.755	7.78
534.099	7.92
534.444	8.04
534.788	8.21
535.133	8.34
535.477	8.48
535.822	8.64
536.166	8.8
536.51	8.96
536.855	9.17
537.199	9.38
537.543	9.59
537.887	9.79
538.231	10.01
538.576	10.21
538.92	10.42
539.264	10.62
539.608	10.82
539.951	11.02
540.295	11.21
540.639	11.38
540.983	11.56
541.327	11.71
541.671	11.9
542.014	12.06
542.358	12.25
542.701	12.43
543.045	12.6
543.389	12.79
543.732	13
544.075	13.19
544.419	13.38
544.762	13.59
545.105	13.81
545.449	14.07
545.792	14.3
546.135	14.55
546.478	14.8
546.821	15.06
547.165	15.34
547.508	15.63
547.851	15.9
548.194	16.2
548.536	16.5
548.879	16.81
549.222	17.13
549.565	17.43
549.908	17.73
550.25	18.05
550.593	18.34
550.936	18.65
551.278	18.95
551.621	19.27
551.963	19.59
552.306	19.9
552.648	20.21
552.991	20.55
553.333	20.86
553.675	21.18
554.017	21.49
554.36	21.8
554.702	22.06
555.044	22.4
555.386	22.68
555.728	23.01
556.07	23.31
556.412	23.58
556.754	23.9
557.096	24.25
557.438	24.54
557.78	24.86
558.121	25.19
558.463	25.52
558.805	25.86
559.147	26.14
559.488	26.42
559.83	26.71
560.171	27.02
560.513	27.34
560.854	27.68
561.196	28.01
561.537	28.3
561.878	28.64
562.22	28.91
562.561	29.19
562.902	29.47
563.243	29.75
563.584	30.09
563.925	30.38
564.266	30.66
564.607	30.95
564.948	31.24
565.289	31.5
565.63	31.74
565.971	31.97
566.312	32.27
566.653	32.54
566.993	32.76
567.334	33.01
567.675	33.25
568.015	33.48
568.356	33.7
568.696	33.96
569.037	34.21
569.377	34.48
569.718	34.77
570.058	35.03
570.398	35.25
570.739	35.46
571.079	35.69
571.419	35.92
571.759	36.14
572.099	36.39
572.439	36.6
572.779	36.79
573.119	37.03
573.459	37.22
573.799	37.48
574.139	37.71
574.479	37.89
574.819	38.1
575.158	38.3
575.498	38.53
575.838	38.71
576.177	38.91
576.517	39.12
576.856	39.35
577.196	39.56
577.535	39.82
577.875	40.05
578.214	40.25
578.553	40.49
578.893	40.69
579.232	40.87
579.571	41.13
579.91	41.38
580.25	41.59
580.589	41.8
580.928	42
581.267	42.19
581.606	42.46
581.945	42.68
582.283	42.85
582.622	43.08
582.961	43.29
583.3	43.52
583.639	43.73
583.977	43.91
584.316	44.02
584.654	44.21
584.993	44.34
585.332	44.54
585.67	44.74
586.008	44.93
586.347	45.11
586.685	45.25
587.024	45.37
587.362	45.5
587.7	45.66
588.038	45.86
588.376	46.04
588.715	46.18
589.053	46.39
589.391	46.56
589.729	46.72
590.067	46.91
590.404	47.03
590.742	47.08
591.08	47.16
591.418	47.37
591.756	47.55
592.093	47.65
592.431	47.76
592.769	47.88
593.106	48.04
593.444	48.1
593.781	48.29
594.119	48.45
594.456	48.57
594.793	48.64
595.131	48.68
595.468	48.72
595.805	48.76
596.143	48.82
596.48	48.95
596.817	48.96
597.154	49.05
597.491	49.12
597.828	49.27
598.165	49.41
598.502	49.5
598.839	49.55
599.176	49.69
599.512	49.76
599.849	49.82
600.186	49.96
600.523	50.13
600.859	50.2
601.196	50.26
601.532	50.34
601.869	50.39
602.205	50.48
602.542	50.68
602.878	50.79
603.215	50.81
603.551	50.76
603.887	50.85
604.223	50.87
604.56	50.92
604.896	50.97
605.232	50.99
605.568	51.02
605.904	51.14
606.24	51.24
606.576	51.37
606.912	51.5
607.248	51.53
607.583	51.62
607.919	51.66
608.255	51.84
608.591	51.96
608.926	52.1
609.262	52.22
609.597	52.28
609.933	52.36
610.268	52.46
610.604	52.57
610.939	52.57
611.275	52.71
611.61	52.85
611.945	52.96
612.281	53.09
612.616	53.19
612.951	53.2
613.286	53.29
613.621	53.4
613.956	53.42
614.291	53.48
614.626	53.57
614.961	53.62
615.296	53.5
615.631	53.51
615.966	53.65
616.3	53.7
616.635	53.67
616.97	53.73
617.304	53.78
617.639	53.95
617.973	54.15
618.308	54.13
618.642	54.16
618.977	54.18
619.311	54.21
619.646	54.2
619.98	54.23
620.314	54.26
620.648	54.31
620.983	54.29
621.317	54.34
621.651	54.38
621.985	54.43
622.319	54.71
622.653	54.9
622.987	54.94
623.321	54.92
623.655	54.95
623.988	54.98
624.322	55.06
624.656	55.12
624.99	55.11
625.323	55.14
625.657	55.22
625.99	55.3
626.324	55.32
626.657	55.4
626.991	55.46
627.324	55.38
627.658	55.34
627.991	55.4
628.324	55.44
628.657	55.41
628.991	55.49
629.324	55.49
629.657	55.47
629.99	55.54
630.323	55.55
630.656	55.63
630.989	55.66
631.322	55.58
631.655	55.57
631.987	55.58
632.32	55.61
632.653	55.57
632.986	55.58
633.318	55.61
633.651	55.76
633.984	55.81
634.316	56.07
634.649	56.09
634.981	56.18
635.313	56.26
635.646	56.36
635.978	56.45
636.31	56.38
636.643	56.38
636.975	56.28
637.307	56.43
637.639	56.48
637.971	56.49
638.303	56.68
638.635	56.77
638.967	56.85
639.299	56.98
639.631	56.94
639.963	57
640.295	57.12
640.626	57.1
640.958	57.15
641.29	56.94
641.621	57.09
641.953	57.08
642.285	57.12
642.616	57.13
642.948	57.11
643.279	57.2
643.61	57.23
643.942	57.29
644.273	57.35
644.604	57.3
644.936	57.36
645.267	57.3
645.598	57.3
645.929	57.35
646.26	57.36
646.591	57.52
646.922	57.56
647.253	57.49
647.584	57.45
647.915	57.46
648.245	57.66
648.576	57.72
648.907	57.68
649.238	57.6
649.568	57.65
649.899	57.72
650.229	57.75
650.56	57.75
650.89	57.79
651.221	57.76
651.551	57.86
651.882	57.87
652.212	57.78
652.542	57.74
652.872	57.7
653.203	57.7
653.533	57.79
653.863	57.71
654.193	57.83
654.523	57.9
654.853	57.97
655.183	57.91
655.513	57.75
655.843	57.85
656.172	57.85
656.502	57.75
656.832	57.75
657.162	57.73
657.491	57.83
657.821	57.86
658.15	57.82
658.48	57.88
658.809	58.02
659.139	58.2
659.468	58.32
659.798	58.37
660.127	58.3
660.456	58.17
660.785	58.23
661.115	58.21
661.444	58.23
661.773	58.32
662.102	58.51
662.431	58.69
662.76	58.78
663.089	58.93
663.418	59.02
663.747	59.04
664.076	59.16
664.404	59.05
664.733	59
665.062	59.01
665.39	59.05
665.719	58.96
666.048	58.99
666.376	58.89
666.705	58.83
667.033	58.89
667.362	58.96
667.69	59.04
668.018	58.95
668.347	58.93
