Data from BA28305_Reflection_00005.txt Node
Date: Mon Nov 18 15:56:52 EST 2019
User: vgr7
Spectrometer: USB2G7710
Scans to average: 3
Trigger mode: 4
Integration Time (sec): 2.000000E-2
Electric dark correction enabled: true
Boxcar width: 10
XAxis mode: Wavelengths
Number of Pixels in Spectrum: 2048
>>>>>Begin Spectral Data<<<<<
177.721	-34.28
178.105	29.82
178.488	-233.33
178.871	42.98
179.254	42.36
179.636	79.17
180.019	9.44
180.402	173.91
180.785	-5.96
181.168	-16.35
181.55	32.31
181.933	88.56
182.316	80.74
182.698	68.34
183.081	62.34
183.463	75.32
183.846	86.46
184.228	109.03
184.611	83.42
184.993	78.79
185.376	110.04
185.758	143.54
186.14	112.35
186.522	196.17
186.904	312.73
187.287	160.38
187.669	458.81
188.051	338.83
188.433	587.18
188.815	996.44
189.197	2381.05
189.579	-496.58
189.961	-704.99
190.342	-538.73
190.724	-228.37
191.106	-155.38
191.488	-233.33
191.869	-131.25
192.251	-111.66
192.633	-106.08
193.014	-126.41
193.396	-203.97
193.777	-259.59
194.159	-270.61
194.54	-269.47
194.922	-403.43
195.303	-367.72
195.684	-249.59
196.065	-174.43
196.447	-88.32
196.828	-52.64
197.209	-3.1
197.59	-63.4
197.971	-48.07
198.352	-21.77
198.733	-3.01
199.114	-25.28
199.495	-34.47
199.876	-40.81
200.257	-35.22
200.638	-50.11
201.018	-53.9
201.399	-28.97
201.78	-10.67
202.16	-31.63
202.541	-69.29
202.922	-184.17
203.302	-287.39
203.683	-177.91
204.063	-237.95
204.444	-313.56
204.824	-466.81
205.204	-894.67
205.585	-894.83
205.965	-486.99
206.345	-2542.28
206.725	1059.42
207.106	318.39
207.486	163.24
207.866	214.05
208.246	161.73
208.626	236.4
209.006	626.44
209.386	316.93
209.766	737.97
210.145	-347.15
210.525	-296.03
210.905	-116.39
211.285	-87.23
211.664	-99.66
212.044	-87.07
212.424	-85.8
212.803	-86.94
213.183	-61.04
213.562	-34.28
213.942	-10.04
214.321	2.56
214.701	-2.26
215.08	-13.73
215.459	-21.31
215.838	-24.07
216.218	-28.21
216.597	-14.01
216.976	-15.26
217.355	-14.52
217.734	-14.14
218.113	-4.62
218.492	5.01
218.871	-13.79
219.25	-9.84
219.629	-1.13
220.008	16.37
220.387	11.33
220.766	-14.91
221.144	-66.93
221.523	-87.14
221.902	-203.66
222.28	-708.79
222.659	-327.04
223.037	-176.06
223.416	-365.56
223.794	-163.03
224.173	-142.5
224.551	-111.61
224.929	-62.01
225.308	-39.25
225.686	-30.62
226.064	-30.82
226.442	-35.22
226.821	-21.55
227.199	-17.16
227.577	-19.05
227.955	-21.07
228.333	-21.62
228.711	-14.24
229.089	-3.91
229.467	-4.19
229.845	-5.31
230.222	-3.64
230.6	-3.31
230.978	-5.77
231.356	-3.57
231.733	-1.97
232.111	0.69
232.488	3.33
232.866	4.05
233.243	2.79
233.621	4.04
233.998	5.96
234.376	6.7
234.753	5.39
235.13	5.49
235.508	8.66
235.885	8.06
236.262	6.53
236.639	6.35
237.016	5.1
237.393	6.14
237.77	6.76
238.147	7.23
238.524	7.49
238.901	7.89
239.278	8.24
239.655	7.67
240.032	7.65
240.409	6.67
240.785	6.34
241.162	6.97
241.539	6.92
241.915	6.58
242.292	6.05
242.668	6.05
243.045	6
243.421	5
243.798	4.78
244.174	5.16
244.551	5.13
244.927	4.7
245.303	4.81
245.679	4.9
246.056	4.82
246.432	4.64
246.808	4.73
247.184	4.44
247.56	4.76
247.936	4.48
248.312	4.77
248.688	4.82
249.064	4.59
249.44	4.42
249.815	4.41
250.191	4.49
250.567	4.49
250.943	4.32
251.318	4.6
251.694	4.89
252.069	4.73
252.445	4.75
252.82	4.96
253.196	4.71
253.571	4.58
253.947	4.67
254.322	5.15
254.697	4.81
255.073	4.53
255.448	3.77
255.823	3.99
256.198	3.96
256.573	3.85
256.948	4.16
257.323	4.45
257.698	4.44
258.073	4.66
258.448	4.72
258.823	4.91
259.198	4.8
259.573	4.72
259.948	4.71
260.322	4.77
260.697	4.69
261.072	4.77
261.446	4.74
261.821	4.57
262.195	4.48
262.57	4.61
262.944	4.85
263.319	5.08
263.693	5.12
264.067	5.24
264.442	5.5
264.816	5.35
265.19	5.2
265.564	5.25
265.938	5.05
266.313	4.78
266.687	4.58
267.061	4.8
267.435	4.88
267.809	4.86
268.183	4.83
268.556	4.92
268.93	4.89
269.304	4.92
269.678	5.09
270.051	4.88
270.425	4.74
270.799	4.61
271.172	4.65
271.546	4.71
271.919	4.45
272.293	4.11
272.666	4.26
273.04	4.31
273.413	4.41
273.787	4.43
274.16	4.4
274.533	4.33
274.906	4.16
275.279	4.24
275.653	4.34
276.026	4.35
276.399	4.47
276.772	4.43
277.145	4.46
277.518	4.47
277.891	4.42
278.263	4.47
278.636	4.6
279.009	4.36
279.382	4.39
279.755	4.39
280.127	4.8
280.5	4.79
280.872	4.82
281.245	4.61
281.617	4.66
281.99	5.03
282.362	5.12
282.735	5.12
283.107	4.94
283.479	5.12
283.852	5.11
284.224	5
284.596	4.99
284.968	4.95
285.34	4.86
285.713	5
286.085	5.01
286.457	4.99
286.829	5.15
287.201	5.17
287.572	5.24
287.944	5.08
288.316	5.01
288.688	4.98
289.06	5.05
289.431	5.03
289.803	5.03
290.175	5.06
290.546	5.08
290.918	5.08
291.289	4.77
291.661	4.87
292.032	4.98
292.403	5.05
292.775	5.03
293.146	5.07
293.517	5.04
293.889	5.01
294.26	4.94
294.631	4.9
295.002	4.91
295.373	4.85
295.744	4.89
296.115	4.87
296.486	4.76
296.857	4.64
297.228	4.61
297.599	4.48
297.97	4.39
298.34	4.42
298.711	4.55
299.082	4.7
299.452	4.71
299.823	4.62
300.194	4.58
300.564	4.52
300.935	4.47
301.305	4.47
301.676	4.63
302.046	4.68
302.416	4.64
302.787	4.51
303.157	4.52
303.527	4.41
303.897	4.52
304.267	4.63
304.637	4.77
305.008	4.96
305.378	5.08
305.748	5.25
306.117	5.31
306.487	5.37
306.857	5.39
307.227	5.14
307.597	5.12
307.967	5.08
308.336	5.13
308.706	5.15
309.076	5.21
309.445	5.01
309.815	4.94
310.184	4.91
310.554	4.94
310.923	4.83
311.293	4.88
311.662	4.85
312.031	4.78
312.401	4.66
312.77	4.59
313.139	4.47
313.508	4.25
313.877	4.27
314.246	4.12
314.616	4.08
314.985	4.05
315.353	3.92
315.722	3.87
316.091	3.88
316.46	3.88
316.829	3.7
317.198	3.86
317.567	3.88
317.935	3.78
318.304	3.8
318.672	3.83
319.041	3.88
319.41	3.77
319.778	3.81
320.147	3.93
320.515	3.79
320.883	3.85
321.252	4.06
321.62	3.88
321.988	3.88
322.357	3.84
322.725	3.9
323.093	4.22
323.461	4.39
323.829	4.34
324.197	4.41
324.565	4.45
324.933	4.37
325.301	4.36
325.669	4.46
326.037	4.4
326.405	4.46
326.772	4.54
327.14	4.64
327.508	4.59
327.875	4.7
328.243	4.71
328.61	4.69
328.978	4.69
329.346	4.88
329.713	4.9
330.08	4.94
330.448	4.92
330.815	4.65
331.182	4.48
331.55	4.46
331.917	4.5
332.284	4.62
332.651	4.62
333.018	4.63
333.385	4.56
333.752	4.76
334.119	4.83
334.486	4.63
334.853	4.58
335.22	4.66
335.587	4.57
335.954	4.61
336.32	4.59
336.687	4.58
337.054	4.51
337.42	4.52
337.787	4.56
338.153	4.63
338.52	4.71
338.886	4.78
339.253	4.82
339.619	4.8
339.986	4.78
340.352	4.82
340.718	4.8
341.084	4.87
341.451	4.83
341.817	4.8
342.183	4.74
342.549	4.72
342.915	4.65
343.281	4.59
343.647	4.6
344.013	4.58
344.379	4.49
344.745	4.46
345.11	4.5
345.476	4.45
345.842	4.43
346.208	4.38
346.573	4.48
346.939	4.52
347.304	4.35
347.67	4.28
348.035	4.26
348.401	4.35
348.766	4.37
349.132	4.34
349.497	4.32
349.862	4.47
350.228	4.5
350.593	4.54
350.958	4.62
351.323	4.62
351.688	4.69
352.053	4.83
352.418	4.8
352.783	4.77
353.148	4.74
353.513	4.78
353.878	4.9
354.243	4.78
354.608	4.72
354.972	4.82
355.337	4.9
355.702	4.95
356.066	4.88
356.431	4.91
356.795	4.9
357.16	4.91
357.524	4.84
357.889	4.78
358.253	4.74
358.618	4.77
358.982	4.71
359.346	4.65
359.71	4.59
360.075	4.63
360.439	4.68
360.803	4.64
361.167	4.62
361.531	4.57
361.895	4.59
362.259	4.55
362.623	4.54
362.987	4.46
363.351	4.42
363.714	4.47
364.078	4.4
364.442	4.4
364.806	4.37
365.169	4.34
365.533	4.35
365.896	4.4
366.26	4.35
366.623	4.35
366.987	4.36
367.35	4.34
367.714	4.38
368.077	4.26
368.44	4.26
368.803	4.24
369.167	4.17
369.53	4.12
369.893	4.17
370.256	4.18
370.619	4.19
370.982	4.12
371.345	4.08
371.708	4.12
372.071	4.07
372.434	4.04
372.797	4.11
373.159	4.06
373.522	4.07
373.885	4.12
374.247	4.2
374.61	4.15
374.973	4.17
375.335	4.07
375.698	4.09
376.06	4.14
376.423	4.11
376.785	4.2
377.147	4.24
377.51	4.29
377.872	4.31
378.234	4.3
378.596	4.35
378.958	4.32
379.321	4.28
379.683	4.29
380.045	4.33
380.407	4.33
380.769	4.33
381.13	4.3
381.492	4.25
381.854	4.25
382.216	4.3
382.578	4.29
382.939	4.33
383.301	4.35
383.663	4.36
384.024	4.41
384.386	4.42
384.747	4.41
385.109	4.38
385.47	4.31
385.832	4.29
386.193	4.29
386.554	4.32
386.916	4.31
387.277	4.29
387.638	4.3
387.999	4.24
388.36	4.25
388.721	4.29
389.082	4.3
389.443	4.26
389.804	4.27
390.165	4.27
390.526	4.3
390.887	4.28
391.248	4.26
391.609	4.25
391.969	4.25
392.33	4.24
392.691	4.26
393.051	4.33
393.412	4.37
393.772	4.37
394.133	4.37
394.493	4.37
394.854	4.39
395.214	4.37
395.574	4.42
395.935	4.43
396.295	4.43
396.655	4.41
397.015	4.42
397.376	4.4
397.736	4.4
398.096	4.36
398.456	4.39
398.816	4.37
399.176	4.33
399.535	4.34
399.895	4.33
400.255	4.28
400.615	4.26
400.975	4.28
401.334	4.25
401.694	4.26
402.054	4.27
402.413	4.27
402.773	4.27
403.132	4.29
403.492	4.27
403.851	4.25
404.211	4.27
404.57	4.26
404.929	4.27
405.288	4.28
405.648	4.3
406.007	4.28
406.366	4.29
406.725	4.3
407.084	4.27
407.443	4.28
407.802	4.31
408.161	4.29
408.52	4.26
408.879	4.3
409.238	4.3
409.596	4.29
409.955	4.29
410.314	4.28
410.673	4.25
411.031	4.29
411.39	4.28
411.748	4.27
412.107	4.27
412.465	4.24
412.824	4.24
413.182	4.24
413.54	4.27
413.899	4.28
414.257	4.29
414.615	4.27
414.974	4.29
415.332	4.3
415.69	4.31
416.048	4.33
416.406	4.32
416.764	4.33
417.122	4.33
417.48	4.33
417.838	4.35
418.195	4.34
418.553	4.33
418.911	4.33
419.269	4.32
419.626	4.32
419.984	4.33
420.342	4.31
420.699	4.3
421.057	4.31
421.414	4.31
421.772	4.3
422.129	4.32
422.486	4.32
422.844	4.31
423.201	4.29
423.558	4.28
423.915	4.29
424.273	4.29
424.63	4.29
424.987	4.28
425.344	4.26
425.701	4.28
426.058	4.26
426.415	4.28
426.772	4.28
427.128	4.28
427.485	4.28
427.842	4.29
428.199	4.3
428.555	4.29
428.912	4.3
429.269	4.31
429.625	4.3
429.982	4.27
430.338	4.27
430.695	4.28
431.051	4.26
431.407	4.26
431.764	4.26
432.12	4.24
432.476	4.25
432.832	4.25
433.189	4.24
433.545	4.24
433.901	4.23
434.257	4.23
434.613	4.24
434.969	4.25
435.325	4.24
435.681	4.24
436.036	4.24
436.392	4.24
436.748	4.22
437.104	4.22
437.459	4.22
437.815	4.23
438.171	4.23
438.526	4.25
438.882	4.24
439.237	4.24
439.593	4.25
439.948	4.24
440.304	4.24
440.659	4.24
441.014	4.24
441.369	4.23
441.725	4.24
442.08	4.22
442.435	4.21
442.79	4.21
443.145	4.21
443.5	4.21
443.855	4.19
444.21	4.19
444.565	4.19
444.92	4.2
445.275	4.18
445.629	4.17
445.984	4.17
446.339	4.15
446.693	4.13
447.048	4.12
447.403	4.11
447.757	4.09
448.112	4.1
448.466	4.09
448.82	4.1
449.175	4.1
449.529	4.1
449.883	4.1
450.238	4.08
450.592	4.08
450.946	4.06
451.3	4.06
451.654	4.06
452.008	4.07
452.362	4.06
452.716	4.07
453.07	4.09
453.424	4.09
453.778	4.1
454.132	4.12
454.486	4.13
454.839	4.14
455.193	4.15
455.547	4.13
455.9	4.16
456.254	4.14
456.607	4.13
456.961	4.14
457.314	4.16
457.668	4.17
458.021	4.16
458.375	4.18
458.728	4.2
459.081	4.19
459.434	4.17
459.787	4.18
460.141	4.18
460.494	4.17
460.847	4.15
461.2	4.15
461.553	4.15
461.906	4.15
462.259	4.16
462.611	4.18
462.964	4.18
463.317	4.19
463.67	4.2
464.022	4.2
464.375	4.17
464.728	4.16
465.08	4.17
465.433	4.17
465.785	4.17
466.138	4.17
466.49	4.16
466.843	4.16
467.195	4.14
467.547	4.15
467.899	4.17
468.252	4.2
468.604	4.2
468.956	4.22
469.308	4.2
469.66	4.18
470.012	4.21
470.364	4.2
470.716	4.2
471.068	4.2
471.42	4.2
471.772	4.24
472.123	4.24
472.475	4.25
472.827	4.26
473.178	4.27
473.53	4.27
473.882	4.27
474.233	4.31
474.585	4.31
474.936	4.3
475.288	4.28
475.639	4.27
475.99	4.25
476.342	4.25
476.693	4.28
477.044	4.3
477.395	4.27
477.746	4.28
478.097	4.27
478.448	4.28
478.8	4.27
479.15	4.27
479.501	4.28
479.852	4.28
480.203	4.28
480.554	4.29
480.905	4.3
481.255	4.3
481.606	4.3
481.957	4.31
482.307	4.3
482.658	4.32
483.009	4.32
483.359	4.33
483.709	4.33
484.06	4.34
484.41	4.34
484.761	4.34
485.111	4.34
485.461	4.34
485.811	4.34
486.162	4.35
486.512	4.36
486.862	4.36
487.212	4.36
487.562	4.36
487.912	4.36
488.262	4.36
488.612	4.36
488.961	4.36
489.311	4.37
489.661	4.38
490.011	4.38
490.36	4.38
490.71	4.38
491.06	4.38
491.409	4.38
491.759	4.37
492.108	4.37
492.458	4.37
492.807	4.37
493.157	4.38
493.506	4.38
493.855	4.38
494.204	4.37
494.554	4.38
494.903	4.37
495.252	4.37
495.601	4.38
495.95	4.37
496.299	4.36
496.648	4.35
496.997	4.36
497.346	4.35
497.695	4.37
498.043	4.38
498.392	4.37
498.741	4.37
499.09	4.37
499.438	4.39
499.787	4.41
500.135	4.44
500.484	4.45
500.832	4.44
501.181	4.44
501.529	4.45
501.878	4.48
502.226	4.49
502.574	4.5
502.923	4.48
503.271	4.48
503.619	4.51
503.967	4.52
504.315	4.51
504.663	4.52
505.011	4.53
505.359	4.51
505.707	4.55
506.055	4.55
506.403	4.57
506.751	4.56
507.098	4.56
507.446	4.55
507.794	4.56
508.141	4.56
508.489	4.56
508.837	4.58
509.184	4.6
509.531	4.6
509.879	4.63
510.226	4.64
510.574	4.67
510.921	4.67
511.268	4.66
511.616	4.66
511.963	4.65
512.31	4.67
512.657	4.68
513.004	4.69
513.351	4.71
513.698	4.71
514.045	4.73
514.392	4.74
514.739	4.74
515.086	4.71
515.432	4.71
515.779	4.71
516.126	4.69
516.473	4.7
516.819	4.71
517.166	4.71
517.512	4.71
517.859	4.7
518.205	4.7
518.552	4.72
518.898	4.76
519.245	4.76
519.591	4.73
519.937	4.74
520.283	4.73
520.629	4.72
520.976	4.72
521.322	4.71
521.668	4.71
522.014	4.73
522.36	4.74
522.706	4.76
523.052	4.79
523.398	4.82
523.743	4.81
524.089	4.81
524.435	4.81
524.781	4.81
525.126	4.84
525.472	4.85
525.817	4.86
526.163	4.86
526.509	4.88
526.854	4.89
527.199	4.9
527.545	4.89
527.89	4.9
528.235	4.92
528.581	4.92
528.926	4.92
529.271	4.93
529.616	4.93
529.961	4.93
530.306	4.93
530.651	4.92
530.996	4.94
531.341	4.94
531.686	4.95
532.031	4.96
532.376	4.95
532.721	4.95
533.065	4.94
533.41	4.94
533.755	4.94
534.099	4.94
534.444	4.94
534.788	4.97
535.133	4.96
535.477	4.96
535.822	4.97
536.166	4.95
536.51	4.95
536.855	4.95
537.199	4.96
537.543	4.97
537.887	4.98
538.231	4.99
538.576	5
538.92	5
539.264	4.99
539.608	5.01
539.951	5.02
540.295	5.02
540.639	5.01
540.983	5.02
541.327	5
541.671	5
542.014	4.99
542.358	4.99
542.701	5
543.045	4.99
543.389	5
543.732	5.01
544.075	5.01
544.419	5.01
544.762	5
545.105	4.99
545.449	4.99
545.792	4.97
546.135	4.98
546.478	5
546.821	5
547.165	5
547.508	5
547.851	4.99
548.194	4.99
548.536	5.02
548.879	5.03
549.222	5.03
549.565	5.04
549.908	5.02
550.25	5.02
550.593	5.01
550.936	4.99
551.278	4.99
551.621	4.99
551.963	5.03
552.306	5.01
552.648	4.98
552.991	5
553.333	4.97
553.675	4.96
554.017	4.94
554.36	4.94
554.702	4.96
555.044	4.97
555.386	4.95
555.728	4.92
556.07	4.95
556.412	4.94
556.754	4.96
557.096	4.98
557.438	5.01
557.78	5.03
558.121	5.08
558.463	5.1
558.805	5.07
559.147	5.04
559.488	5.06
559.83	5.09
560.171	5.08
560.513	5.11
560.854	5.1
561.196	5.11
561.537	5.11
561.878	5.11
562.22	5.11
562.561	5.12
562.902	5.12
563.243	5.11
563.584	5.13
563.925	5.12
564.266	5.13
564.607	5.11
564.948	5.09
565.289	5.08
565.63	5.07
565.971	5.05
566.312	5.06
566.653	5.05
566.993	5.06
567.334	5.08
567.675	5.08
568.015	5.09
568.356	5.06
568.696	5.06
569.037	5.02
569.377	5.04
569.718	5.06
570.058	5.07
570.398	5.05
570.739	5.05
571.079	5.06
571.419	5.06
571.759	5.07
572.099	5.09
572.439	5.07
572.779	5.08
573.119	5.13
573.459	5.15
573.799	5.15
574.139	5.12
574.479	5.08
574.819	5.09
575.158	5.08
575.498	5.08
575.838	5.09
576.177	5.09
576.517	5.09
576.856	5.08
577.196	5.09
577.535	5.11
577.875	5.12
578.214	5.08
578.553	5.09
578.893	5.06
579.232	5.04
579.571	5.07
579.91	5.09
580.25	5.08
580.589	5.05
580.928	5.1
581.267	5.12
581.606	5.15
581.945	5.13
582.283	5.16
582.622	5.21
582.961	5.21
583.3	5.23
583.639	5.27
583.977	5.3
584.316	5.29
584.654	5.26
584.993	5.24
585.332	5.29
585.67	5.29
586.008	5.33
586.347	5.35
586.685	5.34
587.024	5.33
587.362	5.34
587.7	5.38
588.038	5.38
588.376	5.38
588.715	5.4
589.053	5.42
589.391	5.43
589.729	5.41
590.067	5.41
590.404	5.45
590.742	5.43
591.08	5.38
591.418	5.41
591.756	5.45
592.093	5.47
592.431	5.44
592.769	5.44
593.106	5.44
593.444	5.43
593.781	5.43
594.119	5.4
594.456	5.39
594.793	5.36
595.131	5.36
595.468	5.4
595.805	5.37
596.143	5.38
596.48	5.33
596.817	5.36
597.154	5.36
597.491	5.35
597.828	5.33
598.165	5.35
598.502	5.37
598.839	5.34
599.176	5.31
599.512	5.32
599.849	5.35
600.186	5.33
600.523	5.36
600.859	5.37
601.196	5.37
601.532	5.36
601.869	5.36
602.205	5.34
602.542	5.34
602.878	5.34
603.215	5.33
603.551	5.35
603.887	5.33
604.223	5.3
604.56	5.3
604.896	5.3
605.232	5.29
605.568	5.26
605.904	5.3
606.24	5.33
606.576	5.32
606.912	5.27
607.248	5.26
607.583	5.26
607.919	5.24
608.255	5.2
608.591	5.23
608.926	5.24
609.262	5.28
609.597	5.24
609.933	5.26
610.268	5.25
610.604	5.3
610.939	5.28
611.275	5.31
611.61	5.33
611.945	5.37
612.281	5.38
612.616	5.39
612.951	5.42
613.286	5.45
613.621	5.48
613.956	5.5
614.291	5.51
614.626	5.51
614.961	5.53
615.296	5.6
615.631	5.59
615.966	5.61
616.3	5.59
616.635	5.57
616.97	5.56
617.304	5.54
617.639	5.5
617.973	5.54
618.308	5.54
618.642	5.49
618.977	5.44
619.311	5.46
619.646	5.47
619.98	5.45
620.314	5.46
620.648	5.45
620.983	5.48
621.317	5.52
621.651	5.55
621.985	5.59
622.319	5.57
622.653	5.56
622.987	5.56
623.321	5.53
623.655	5.57
623.988	5.64
624.322	5.67
624.656	5.65
624.99	5.66
625.323	5.7
625.657	5.7
625.99	5.75
626.324	5.76
626.657	5.74
626.991	5.73
627.324	5.68
627.658	5.69
627.991	5.69
628.324	5.65
628.657	5.65
628.991	5.63
629.324	5.67
629.657	5.74
629.99	5.75
630.323	5.75
630.656	5.79
630.989	5.74
631.322	5.75
631.655	5.75
631.987	5.75
632.32	5.72
632.653	5.71
632.986	5.71
633.318	5.65
633.651	5.69
633.984	5.66
634.316	5.67
634.649	5.67
634.981	5.68
635.313	5.68
635.646	5.62
635.978	5.67
636.31	5.65
636.643	5.56
636.975	5.56
637.307	5.57
637.639	5.53
637.971	5.53
638.303	5.52
638.635	5.55
638.967	5.56
639.299	5.61
639.631	5.68
639.963	5.63
640.295	5.68
640.626	5.66
640.958	5.66
641.29	5.64
641.621	5.62
641.953	5.63
642.285	5.66
642.616	5.79
642.948	5.73
643.279	5.71
643.61	5.76
643.942	5.72
644.273	5.73
644.604	5.76
644.936	5.78
645.267	5.77
645.598	5.76
645.929	5.75
646.26	5.68
646.591	5.67
646.922	5.69
647.253	5.69
647.584	5.67
647.915	5.7
648.245	5.75
648.576	5.77
648.907	5.78
649.238	5.8
649.568	5.74
649.899	5.74
650.229	5.79
650.56	5.74
650.89	5.77
651.221	5.75
651.551	5.67
651.882	5.67
652.212	5.75
652.542	5.71
652.872	5.67
653.203	5.74
653.533	5.72
653.863	5.74
654.193	5.69
654.523	5.76
654.853	5.79
655.183	5.75
655.513	5.75
655.843	5.71
656.172	5.7
656.502	5.76
656.832	5.79
657.162	5.78
657.491	5.8
657.821	5.84
658.15	5.87
658.48	5.95
658.809	5.93
659.139	5.89
659.468	5.91
659.798	5.92
660.127	5.9
660.456	5.88
660.785	5.9
661.115	5.89
661.444	5.84
661.773	5.87
662.102	5.86
662.431	5.86
662.76	5.85
663.089	5.84
663.418	5.79
663.747	5.79
664.076	5.8
664.404	5.8
664.733	5.81
665.062	5.85
665.39	5.8
665.719	5.8
666.048	5.82
666.376	5.82
666.705	5.87
667.033	5.88
667.362	5.93
667.69	5.92
668.018	5.97
668.347	6.07
668.675	6.11
669.003	6.13
669.331	6.2
669.659	6.26
669.987	6.25
670.315	6.28
670.643	6.3
670.971	6.28
671.299	6.35
671.627	6.32
671.955	6.25
672.283	6.29
672.61	6.29
672.938	6.28
673.266	6.35
673.593	6.41
673.921	6.37
674.249	6.32
674.576	6.35
674.904	6.41
675.231	6.33
675.558	6.22
675.886	6.2
676.213	6.19
676.54	6.15
676.867	6.23
677.195	6.17
