Data from BA28417_Reflection_00010.txt Node
Date: Mon Nov 18 16:11:16 EST 2019
User: vgr7
Spectrometer: USB2G7710
Scans to average: 3
Trigger mode: 4
Integration Time (sec): 2.000000E-2
Electric dark correction enabled: true
Boxcar width: 10
XAxis mode: Wavelengths
Number of Pixels in Spectrum: 2048
>>>>>Begin Spectral Data<<<<<
177.721	-26.04
178.105	51.84
178.488	26.79
178.871	43.76
179.254	49.27
179.636	-238.58
180.019	-31.32
180.402	14.29
180.785	-94.13
181.168	511.76
181.55	-93.02
181.933	208.3
182.316	159.35
182.698	118.59
183.081	135.99
183.463	171.67
183.846	115.75
184.228	156.19
184.611	175.58
184.993	237.52
185.376	366.16
185.758	522.31
186.14	1576.51
186.522	336.8
186.904	647.55
187.287	434.03
187.669	-1469.62
188.051	-240.86
188.433	-74.53
188.815	-42.67
189.197	-37.35
189.579	-14.43
189.961	-3.33
190.342	21.84
190.724	40.84
191.106	16.71
191.488	-22.3
191.869	4.37
192.251	-10.04
192.633	4.2
193.014	-0.22
193.396	-108.74
193.777	-31.36
194.159	3.5
194.54	39.17
194.922	38.23
195.303	11.75
195.684	-14.74
196.065	-18.24
196.447	-26.36
196.828	-44.53
197.209	-28.58
197.59	-56.9
197.971	-62.29
198.352	-50.51
198.733	-71.72
199.114	-70.87
199.495	-53.49
199.876	-71.09
200.257	-50.28
200.638	-34.1
201.018	-54.38
201.399	-32.27
201.78	-35.88
202.16	-54.9
202.541	-112.57
202.922	-133.44
203.302	-143.04
203.683	-155.08
204.063	-163.55
204.444	-184.58
204.824	-176.06
205.204	-180.68
205.585	-163.52
205.965	-136.27
206.345	-158.79
206.725	-195.65
207.106	-161.72
207.486	-233.11
207.866	-201.8
208.246	-146.97
208.626	-177.8
209.006	-114.88
209.386	-195.12
209.766	-223.02
210.145	-161.98
210.525	-107.14
210.905	-70.17
211.285	-57.3
211.664	-34.28
212.044	-41.79
212.424	-61.4
212.803	-55.9
213.183	-11.3
213.562	-19.36
213.942	-17.02
214.321	-15.37
214.701	-5.1
215.08	-22.57
215.459	-18.54
215.838	-23.81
216.218	-29.03
216.597	-25.66
216.976	-42.65
217.355	-12.87
217.734	-8.63
218.113	4.51
218.492	0.23
218.871	-90.57
219.25	-205.13
219.629	-345.8
220.008	-666.76
220.387	-737.55
220.766	-2415.46
221.144	2167.04
221.523	1167.45
221.902	1068.97
222.28	907.16
222.659	626.48
223.037	21158.82
223.416	7717.02
223.794	-493.55
224.173	-305.55
224.551	-143.75
224.929	-85.51
225.308	-65.53
225.686	-45.83
226.064	-27.52
226.442	-19.35
226.821	-12.24
227.199	-6
227.577	-6.36
227.955	-4.33
228.333	-2.09
228.711	-1.4
229.089	6.82
229.467	6.07
229.845	7.94
230.222	6.65
230.6	4.18
230.978	2.67
231.356	1.76
231.733	2.51
232.111	1.59
232.488	2.08
232.866	3.35
233.243	2.66
233.621	0.43
233.998	-0.19
234.376	0.03
234.753	0.16
235.13	1.3
235.508	0.67
235.885	-1.07
236.262	-2.04
236.639	-0.9
237.016	-0.71
237.393	0.34
237.77	2.01
238.147	3.03
238.524	2.68
238.901	3.94
239.278	4.66
239.655	5.06
240.032	5.27
240.409	4.35
240.785	4.02
241.162	4.45
241.539	4.63
241.915	4.27
242.292	4.11
242.668	4.18
243.045	3.9
243.421	4.15
243.798	4.36
244.174	4.35
244.551	4.28
244.927	3.93
245.303	4.33
245.679	4.28
246.056	4.07
246.432	4.16
246.808	3.93
247.184	3.54
247.56	3.52
247.936	3.36
248.312	3.5
248.688	3.5
249.064	3.31
249.44	3.41
249.815	3.47
250.191	3.61
250.567	3.65
250.943	3.68
251.318	3.79
251.694	3.65
252.069	3.66
252.445	3.62
252.82	3.57
253.196	3.15
253.571	2.99
253.947	2.92
254.322	2.71
254.697	2.71
255.073	2.77
255.448	2.51
255.823	2.79
256.198	2.85
256.573	2.72
256.948	3.07
257.323	2.96
257.698	2.91
258.073	2.95
258.448	2.78
258.823	2.86
259.198	2.93
259.573	3.15
259.948	3.22
260.322	3.27
260.697	3.31
261.072	3.15
261.446	2.95
261.821	3.13
262.195	3.3
262.57	3.28
262.944	3.26
263.319	3.39
263.693	3.18
264.067	3.2
264.442	3.5
264.816	3.4
265.19	3.48
265.564	3.67
265.938	3.53
266.313	3.51
266.687	3.52
267.061	3.56
267.435	3.61
267.809	3.49
268.183	3.43
268.556	3.43
268.93	3.6
269.304	3.95
269.678	3.78
270.051	3.71
270.425	3.65
270.799	3.63
271.172	3.58
271.546	3.79
271.919	3.73
272.293	3.53
272.666	3.52
273.04	3.59
273.413	3.47
273.787	3.5
274.16	3.62
274.533	3.6
274.906	3.45
275.279	3.18
275.653	3.23
276.026	3.12
276.399	3.2
276.772	3.2
277.145	2.93
277.518	3.05
277.891	3.14
278.263	3.1
278.636	3.17
279.009	3.15
279.382	3.26
279.755	3.34
280.127	3.57
280.5	3.66
280.872	3.52
281.245	3.49
281.617	3.69
281.99	3.64
282.362	3.66
282.735	3.64
283.107	3.7
283.479	3.73
283.852	3.73
284.224	3.78
284.596	3.88
284.968	4.08
285.34	4.06
285.713	4.03
286.085	4.08
286.457	4.11
286.829	4.14
287.201	4
287.572	3.95
287.944	3.86
288.316	3.69
288.688	3.7
289.06	3.8
289.431	3.78
289.803	3.8
290.175	3.73
290.546	3.88
290.918	3.98
291.289	4.04
291.661	4.2
292.032	4.17
292.403	4.08
292.775	4.05
293.146	4.03
293.517	4.02
293.889	4.14
294.26	4.27
294.631	4.25
295.002	4.36
295.373	4.36
295.744	4.35
296.115	4.48
296.486	4.44
296.857	4.38
297.228	4.36
297.599	4.34
297.97	4.34
298.34	4.21
298.711	4.2
299.082	4.17
299.452	4.08
299.823	4.11
300.194	4.04
300.564	4.04
300.935	3.95
301.305	3.83
301.676	3.74
302.046	3.7
302.416	3.85
302.787	3.9
303.157	3.96
303.527	4.1
303.897	4.08
304.267	4.29
304.637	4.34
305.008	4.32
305.378	4.43
305.748	4.59
306.117	4.61
306.487	4.7
306.857	4.76
307.227	4.85
307.597	4.86
307.967	5.1
308.336	5.18
308.706	5.42
309.076	5.53
309.445	5.64
309.815	5.72
310.184	5.59
310.554	5.45
310.923	5.43
311.293	5.38
311.662	5.53
312.031	5.51
312.401	5.49
312.77	5.58
313.139	5.66
313.508	5.61
313.877	5.65
314.246	5.66
314.616	5.63
314.985	5.6
315.353	5.53
315.722	5.5
316.091	5.5
316.46	5.37
316.829	5.39
317.198	5.3
317.567	5.24
317.935	5.21
318.304	5.34
318.672	5.32
319.041	5.31
319.41	5.27
319.778	5.36
320.147	5.43
320.515	5.36
320.883	5.27
321.252	5.27
321.62	5.38
321.988	5.47
322.357	5.46
322.725	5.43
323.093	5.6
323.461	5.58
323.829	5.54
324.197	5.61
324.565	5.76
324.933	5.88
325.301	5.95
325.669	6.08
326.037	6.11
326.405	6.15
326.772	6.24
327.14	6.21
327.508	6.23
327.875	6.18
328.243	6.22
328.61	6.28
328.978	6.4
329.346	6.43
329.713	6.39
330.08	6.42
330.448	6.51
330.815	6.37
331.182	6.46
331.55	6.54
331.917	6.61
332.284	6.65
332.651	6.53
333.018	6.6
333.385	6.61
333.752	6.65
334.119	6.68
334.486	6.6
334.853	6.68
335.22	6.6
335.587	6.79
335.954	6.78
336.32	6.82
336.687	6.79
337.054	6.75
337.42	6.81
337.787	6.84
338.153	6.86
338.52	6.99
338.886	6.84
339.253	6.67
339.619	6.64
339.986	6.59
340.352	6.75
340.718	6.71
341.084	6.78
341.451	6.74
341.817	6.76
342.183	6.85
342.549	6.78
342.915	6.82
343.281	6.79
343.647	6.86
344.013	6.87
344.379	6.84
344.745	6.98
345.11	6.95
345.476	7.03
345.842	7.09
346.208	7.05
346.573	7.14
346.939	7.3
347.304	7.24
347.67	7.28
348.035	7.25
348.401	7.21
348.766	7.16
349.132	7.18
349.497	7.09
349.862	7.07
350.228	7.11
350.593	7.08
350.958	7.08
351.323	7.17
351.688	7.12
352.053	7.2
352.418	7.16
352.783	7.18
353.148	7.11
353.513	7.13
353.878	7.17
354.243	7.27
354.608	7.24
354.972	7.34
355.337	7.32
355.702	7.32
356.066	7.36
356.431	7.36
356.795	7.37
357.16	7.45
357.524	7.34
357.889	7.27
358.253	7.27
358.618	7.22
358.982	7.15
359.346	7.09
359.71	7.04
360.075	7.03
360.439	7.08
360.803	7.09
361.167	7.02
361.531	6.89
361.895	6.81
362.259	6.74
362.623	6.8
362.987	6.78
363.351	6.77
363.714	6.75
364.078	6.7
364.442	6.65
364.806	6.6
365.169	6.58
365.533	6.56
365.896	6.59
366.26	6.61
366.623	6.53
366.987	6.53
367.35	6.59
367.714	6.55
368.077	6.49
368.44	6.44
368.803	6.4
369.167	6.48
369.53	6.45
369.893	6.48
370.256	6.35
370.619	6.31
370.982	6.24
371.345	6.26
371.708	6.29
372.071	6.23
372.434	6.21
372.797	6.22
373.159	6.2
373.522	6.14
373.885	6.11
374.247	6.09
374.61	6.09
374.973	6.02
375.335	5.95
375.698	5.89
376.06	5.83
376.423	5.83
376.785	5.79
377.147	5.77
377.51	5.71
377.872	5.78
378.234	5.77
378.596	5.74
378.958	5.65
379.321	5.61
379.683	5.63
380.045	5.61
380.407	5.57
380.769	5.5
381.13	5.44
381.492	5.33
381.854	5.37
382.216	5.28
382.578	5.22
382.939	5.2
383.301	5.15
383.663	5.08
384.024	5.04
384.386	5.01
384.747	4.96
385.109	4.96
385.47	4.8
385.832	4.75
386.193	4.74
386.554	4.67
386.916	4.65
387.277	4.63
387.638	4.62
387.999	4.62
388.36	4.61
388.721	4.59
389.082	4.58
389.443	4.49
389.804	4.5
390.165	4.48
390.526	4.49
390.887	4.47
391.248	4.51
391.609	4.48
391.969	4.48
392.33	4.47
392.691	4.44
393.051	4.43
393.412	4.43
393.772	4.38
394.133	4.38
394.493	4.34
394.854	4.29
395.214	4.23
395.574	4.18
395.935	4.17
396.295	4.16
396.655	4.15
397.015	4.18
397.376	4.19
397.736	4.17
398.096	4.15
398.456	4.13
398.816	4.11
399.176	4.1
399.535	4.02
399.895	4.01
400.255	4
400.615	3.99
400.975	3.95
401.334	3.94
401.694	3.93
402.054	3.89
402.413	3.91
402.773	3.91
403.132	3.89
403.492	3.91
403.851	3.88
404.211	3.88
404.57	3.8
404.929	3.78
405.288	3.74
405.648	3.7
406.007	3.69
406.366	3.68
406.725	3.67
407.084	3.73
407.443	3.72
407.802	3.69
408.161	3.67
408.52	3.67
408.879	3.66
409.238	3.64
409.596	3.65
409.955	3.61
410.314	3.6
410.673	3.58
411.031	3.55
411.39	3.55
411.748	3.54
412.107	3.53
412.465	3.49
412.824	3.51
413.182	3.5
413.54	3.51
413.899	3.47
414.257	3.45
414.615	3.4
414.974	3.39
415.332	3.38
415.69	3.38
416.048	3.36
416.406	3.37
416.764	3.36
417.122	3.36
417.48	3.35
417.838	3.34
418.195	3.36
418.553	3.35
418.911	3.35
419.269	3.34
419.626	3.35
419.984	3.35
420.342	3.35
420.699	3.35
421.057	3.34
421.414	3.34
421.772	3.32
422.129	3.33
422.486	3.32
422.844	3.32
423.201	3.31
423.558	3.31
423.915	3.31
424.273	3.31
424.63	3.3
424.987	3.29
425.344	3.3
425.701	3.29
426.058	3.29
426.415	3.27
426.772	3.28
427.128	3.28
427.485	3.26
427.842	3.25
428.199	3.24
428.555	3.23
428.912	3.22
429.269	3.24
429.625	3.22
429.982	3.19
430.338	3.18
430.695	3.19
431.051	3.19
431.407	3.17
431.764	3.17
432.12	3.15
432.476	3.17
432.832	3.15
433.189	3.16
433.545	3.15
433.901	3.16
434.257	3.13
434.613	3.13
434.969	3.17
435.325	3.17
435.681	3.18
436.036	3.19
436.392	3.2
436.748	3.18
437.104	3.19
437.459	3.2
437.815	3.2
438.171	3.19
438.526	3.19
438.882	3.21
439.237	3.21
439.593	3.21
439.948	3.21
440.304	3.21
440.659	3.19
441.014	3.2
441.369	3.19
441.725	3.18
442.08	3.17
442.435	3.15
442.79	3.15
443.145	3.14
443.5	3.14
443.855	3.12
444.21	3.12
444.565	3.12
444.92	3.11
445.275	3.1
445.629	3.1
445.984	3.09
446.339	3.07
446.693	3.05
447.048	3.07
447.403	3.06
447.757	3.06
448.112	3.07
448.466	3.05
448.82	3.04
449.175	3.04
449.529	3.05
449.883	3.04
450.238	3.03
450.592	3.02
450.946	2.99
451.3	2.99
451.654	3
452.008	3
452.362	3
452.716	2.99
453.07	3
453.424	2.99
453.778	2.99
454.132	2.99
454.486	2.95
454.839	2.94
455.193	2.94
455.547	2.94
455.9	2.94
456.254	2.95
456.607	2.95
456.961	2.95
457.314	2.96
457.668	2.94
458.021	2.94
458.375	2.97
458.728	2.97
459.081	2.97
459.434	2.96
459.787	2.98
460.141	2.99
460.494	2.99
460.847	3.01
461.2	3.01
461.553	3.03
461.906	3.06
462.259	3.07
462.611	3.08
462.964	3.09
463.317	3.1
463.67	3.1
464.022	3.11
464.375	3.12
464.728	3.12
465.08	3.15
465.433	3.15
465.785	3.15
466.138	3.14
466.49	3.17
466.843	3.18
467.195	3.17
467.547	3.18
467.899	3.18
468.252	3.17
468.604	3.18
468.956	3.16
469.308	3.18
469.66	3.17
470.012	3.17
470.364	3.18
470.716	3.18
471.068	3.19
471.42	3.18
471.772	3.21
472.123	3.2
472.475	3.21
472.827	3.22
473.178	3.24
473.53	3.25
473.882	3.22
474.233	3.21
474.585	3.2
474.936	3.19
475.288	3.19
475.639	3.2
475.99	3.19
476.342	3.21
476.693	3.2
477.044	3.21
477.395	3.2
477.746	3.17
478.097	3.18
478.448	3.18
478.8	3.18
479.15	3.15
479.501	3.15
479.852	3.15
480.203	3.14
480.554	3.13
480.905	3.13
481.255	3.15
481.606	3.15
481.957	3.15
482.307	3.16
482.658	3.15
483.009	3.15
483.359	3.15
483.709	3.16
484.06	3.16
484.41	3.16
484.761	3.16
485.111	3.16
485.461	3.16
485.811	3.17
486.162	3.16
486.512	3.18
486.862	3.18
487.212	3.19
487.562	3.2
487.912	3.2
488.262	3.2
488.612	3.2
488.961	3.21
489.311	3.22
489.661	3.22
490.011	3.23
490.36	3.24
490.71	3.24
491.06	3.24
491.409	3.24
491.759	3.25
492.108	3.27
492.458	3.27
492.807	3.28
493.157	3.28
493.506	3.3
493.855	3.29
494.204	3.29
494.554	3.31
494.903	3.32
495.252	3.32
495.601	3.34
495.95	3.37
496.299	3.36
496.648	3.37
496.997	3.39
497.346	3.42
497.695	3.45
498.043	3.49
498.392	3.5
498.741	3.54
499.09	3.56
499.438	3.59
499.787	3.63
500.135	3.67
500.484	3.71
500.832	3.74
501.181	3.77
501.529	3.82
501.878	3.84
502.226	3.88
502.574	3.91
502.923	3.94
503.271	3.97
503.619	4.06
503.967	4.12
504.315	4.17
504.663	4.22
505.011	4.28
505.359	4.31
505.707	4.37
506.055	4.4
506.403	4.48
506.751	4.51
507.098	4.56
507.446	4.62
507.794	4.66
508.141	4.71
508.489	4.78
508.837	4.84
509.184	4.92
509.531	4.99
509.879	5.07
510.226	5.15
510.574	5.2
510.921	5.25
511.268	5.31
511.616	5.36
511.963	5.43
512.31	5.48
512.657	5.55
513.004	5.62
513.351	5.68
513.698	5.75
514.045	5.85
514.392	5.93
514.739	5.98
515.086	6.07
515.432	6.16
515.779	6.22
516.126	6.32
516.473	6.38
516.819	6.45
517.166	6.52
517.512	6.58
517.859	6.68
518.205	6.76
518.552	6.82
518.898	6.89
519.245	6.95
519.591	7
519.937	7.07
520.283	7.15
520.629	7.25
520.976	7.32
521.322	7.39
521.668	7.48
522.014	7.6
522.36	7.71
522.706	7.82
523.052	7.96
523.398	8.1
523.743	8.22
524.089	8.34
524.435	8.47
524.781	8.61
525.126	8.72
525.472	8.84
525.817	8.98
526.163	9.08
526.509	9.19
526.854	9.3
527.199	9.39
527.545	9.48
527.89	9.56
528.235	9.67
528.581	9.77
528.926	9.88
529.271	9.98
529.616	10.08
529.961	10.19
530.306	10.29
530.651	10.39
530.996	10.51
531.341	10.65
531.686	10.78
532.031	10.9
532.376	11.04
532.721	11.18
533.065	11.31
533.41	11.48
533.755	11.64
534.099	11.81
534.444	11.98
534.788	12.14
535.133	12.33
535.477	12.51
535.822	12.7
536.166	12.89
536.51	13.1
536.855	13.34
537.199	13.59
537.543	13.85
537.887	14.1
538.231	14.35
538.576	14.62
538.92	14.88
539.264	15.14
539.608	15.39
539.951	15.61
540.295	15.83
540.639	16.02
540.983	16.25
541.327	16.46
541.671	16.67
542.014	16.9
542.358	17.1
542.701	17.3
543.045	17.51
543.389	17.73
543.732	17.96
544.075	18.17
544.419	18.4
544.762	18.64
545.105	18.9
545.449	19.19
545.792	19.46
546.135	19.74
546.478	20.04
546.821	20.33
547.165	20.64
547.508	21.01
547.851	21.36
548.194	21.65
548.536	21.99
548.879	22.33
549.222	22.64
549.565	22.98
549.908	23.3
550.25	23.64
550.593	23.97
550.936	24.35
551.278	24.68
551.621	25.01
551.963	25.36
552.306	25.7
552.648	26.03
552.991	26.36
553.333	26.67
553.675	27
554.017	27.39
554.36	27.76
554.702	28.06
555.044	28.4
555.386	28.74
555.728	29.05
556.07	29.38
556.412	29.76
556.754	30.08
557.096	30.49
557.438	30.86
557.78	31.25
558.121	31.54
558.463	31.88
558.805	32.27
559.147	32.64
559.488	32.96
559.83	33.35
560.171	33.66
560.513	34.01
560.854	34.33
561.196	34.61
561.537	34.95
561.878	35.25
562.22	35.53
562.561	35.85
562.902	36.2
563.243	36.47
563.584	36.76
563.925	37.07
564.266	37.4
564.607	37.7
564.948	37.97
565.289	38.29
565.63	38.61
565.971	38.83
566.312	39.1
566.653	39.36
566.993	39.6
567.334	39.93
567.675	40.21
568.015	40.51
568.356	40.79
568.696	41.01
569.037	41.27
569.377	41.63
569.718	41.92
570.058	42.18
570.398	42.45
570.739	42.72
571.079	43.02
571.419	43.19
571.759	43.45
572.099	43.68
572.439	43.91
572.779	44.11
573.119	44.34
573.459	44.53
573.799	44.83
574.139	45.02
574.479	45.19
574.819	45.42
575.158	45.64
575.498	45.83
575.838	46.06
576.177	46.3
576.517	46.41
576.856	46.64
577.196	46.84
577.535	47.11
577.875	47.3
578.214	47.49
578.553	47.78
578.893	47.98
579.232	48.21
579.571	48.44
579.91	48.67
580.25	48.92
580.589	49.16
580.928	49.33
581.267	49.55
581.606	49.79
581.945	49.99
582.283	50.12
582.622	50.36
582.961	50.56
583.3	50.79
583.639	51.08
583.977	51.21
584.316	51.4
584.654	51.53
584.993	51.7
585.332	51.87
585.67	52.02
586.008	52.17
586.347	52.33
586.685	52.48
587.024	52.64
587.362	52.83
587.7	52.89
588.038	53.01
588.376	53.17
588.715	53.32
589.053	53.51
589.391	53.71
589.729	53.94
590.067	54.17
590.404	54.24
590.742	54.3
591.08	54.42
591.418	54.56
591.756	54.75
592.093	54.89
592.431	55.01
592.769	55.19
593.106	55.38
593.444	55.51
593.781	55.63
594.119	55.82
594.456	55.86
594.793	56.07
595.131	56.15
595.468	56.28
595.805	56.33
596.143	56.4
596.48	56.48
596.817	56.48
597.154	56.49
597.491	56.6
597.828	56.72
598.165	56.84
598.502	56.98
598.839	57.09
599.176	57.14
599.512	57.23
599.849	57.28
600.186	57.41
600.523	57.53
600.859	57.65
601.196	57.74
601.532	57.9
601.869	57.91
602.205	58.09
602.542	58.13
602.878	58.2
603.215	58.26
603.551	58.22
603.887	58.34
604.223	58.43
604.56	58.53
604.896	58.61
605.232	58.66
605.568	58.74
605.904	58.72
606.24	58.92
606.576	58.95
606.912	59.08
607.248	59.03
607.583	59.1
607.919	59.13
608.255	59.25
608.591	59.41
608.926	59.57
609.262	59.63
609.597	59.7
609.933	59.77
610.268	59.89
610.604	60.03
610.939	60.07
611.275	60.12
611.61	60.16
611.945	60.17
612.281	60.32
612.616	60.36
612.951	60.47
613.286	60.45
613.621	60.59
613.956	60.62
614.291	60.83
614.626	60.88
614.961	60.96
615.296	60.87
615.631	60.81
615.966	60.88
616.3	60.95
616.635	61.04
616.97	61.07
617.304	61.09
617.639	61.23
617.973	61.36
618.308	61.41
618.642	61.39
618.977	61.46
619.311	61.54
619.646	61.55
619.98	61.62
620.314	61.74
620.648	61.92
620.983	62.06
621.317	62.06
621.651	62.18
621.985	62.33
622.319	62.47
622.653	62.6
622.987	62.52
623.321	62.51
623.655	62.58
623.988	62.68
624.322	62.73
624.656	62.81
624.99	62.75
625.323	62.83
625.657	62.87
625.99	62.95
626.324	62.92
626.657	62.99
626.991	63.06
627.324	63.07
627.658	62.98
627.991	62.92
628.324	62.92
628.657	62.97
628.991	62.89
629.324	62.95
629.657	62.93
629.99	63.02
630.323	62.98
630.656	62.97
630.989	63.08
631.322	63.13
631.655	63.1
631.987	63.15
632.32	63.17
632.653	63.24
632.986	63.25
633.318	63.25
633.651	63.29
633.984	63.26
634.316	63.32
634.649	63.35
634.981	63.4
635.313	63.52
635.646	63.49
635.978	63.59
636.31	63.47
636.643	63.49
636.975	63.56
637.307	63.77
637.639	63.85
637.971	63.79
638.303	63.73
638.635	63.75
638.967	63.8
639.299	63.83
639.631	63.74
639.963	63.83
640.295	64
640.626	64.04
640.958	64.2
641.29	64.12
641.621	64.24
641.953	64.34
642.285	64.26
642.616	64.23
642.948	64.28
643.279	64.37
643.61	64.45
643.942	64.44
644.273	64.5
644.604	64.47
644.936	64.59
645.267	64.62
645.598	64.69
645.929	64.65
646.26	64.75
646.591	64.96
646.922	64.98
647.253	64.95
647.584	64.91
647.915	64.84
648.245	64.92
648.576	64.94
648.907	64.93
649.238	64.94
649.568	65.07
649.899	65.03
650.229	65.18
650.56	65.1
650.89	65.16
651.221	65.12
651.551	65.21
651.882	65.24
652.212	65.24
652.542	65.24
652.872	65.31
653.203	65.38
653.533	65.46
653.863	65.44
654.193	65.52
654.523	65.62
654.853	65.75
655.183	65.77
655.513	65.67
655.843	65.71
656.172	65.7
656.502	65.75
656.832	65.83
657.162	65.82
657.491	65.95
657.821	66.01
658.15	65.96
658.48	65.96
658.809	65.96
659.139	66.07
659.468	66.23
659.798	66.26
660.127	66.12
660.456	66.01
660.785	66.06
661.115	66.05
661.444	66.01
661.773	65.99
662.102	66.07
662.431	66.09
662.76	66.15
663.089	66.31
663.418	66.41
663.747	66.55
664.076	66.64
664.404	66.66
664.733	66.56
665.062	66.54
665.39	66.67
665.719	66.65
666.048	66.72
666.376	66.52
666.705	66.55
667.033	66.57
667.362	66.69
