Data from BA28308_Reflection_00005.txt Node
Date: Mon Nov 18 15:38:47 EST 2019
User: vgr7
Spectrometer: USB2G7710
Scans to average: 3
Trigger mode: 4
Integration Time (sec): 2.000000E-2
Electric dark correction enabled: true
Boxcar width: 10
XAxis mode: Wavelengths
Number of Pixels in Spectrum: 2048
>>>>>Begin Spectral Data<<<<<
177.721	62.81
178.105	84.52
178.488	190.24
178.871	123.68
179.254	136.73
179.636	77.68
180.019	3.61
180.402	152.94
180.785	20.79
181.168	13.04
181.55	60.24
181.933	61.26
182.316	54.6
182.698	78.42
183.081	94.25
183.463	84.02
183.846	141.15
184.228	118.59
184.611	107.29
184.993	142.06
185.376	165.24
185.758	310.25
186.14	682.34
186.522	427.87
186.904	383.56
187.287	349.69
187.669	390.38
188.051	721.41
188.433	-650.67
188.815	-166.48
189.197	-128.96
189.579	-125.87
189.961	-67.36
190.342	-103.21
190.724	-117.16
191.106	-96.51
191.488	-82.71
191.869	-59.14
192.251	-78.84
192.633	-74.52
193.014	-108.35
193.396	-160.78
193.777	-165.19
194.159	-163.12
194.54	-101.14
194.922	-82.93
195.303	-124.21
195.684	-113.1
196.065	-72.93
196.447	-91.67
196.828	-106.42
197.209	-114.44
197.59	-112.35
197.971	-142.19
198.352	-76.15
198.733	-81.46
199.114	-65.71
199.495	-66.54
199.876	-69.14
200.257	-42.61
200.638	-27.68
201.018	-61.59
201.399	-54.37
201.78	-51.37
202.16	-100.1
202.541	-139.94
202.922	-209.26
203.302	-182.29
203.683	-198.83
204.063	-514.34
204.444	-588.63
204.824	-590.02
205.204	-1474.47
205.585	-56185.71
205.965	6438.46
206.345	650.88
206.725	541.99
207.106	359.13
207.486	367.85
207.866	346.93
208.246	458.53
208.626	457.85
209.006	1355.7
209.386	809.77
209.766	825.13
210.145	757.76
210.525	-12981.08
210.905	-587.93
211.285	-1613.21
211.664	-1789.45
212.044	-704.82
212.424	-334.14
212.803	-354.28
213.183	-177.65
213.562	-115
213.942	-76.74
214.321	-59.7
214.701	-54.2
215.08	-47.66
215.459	-28.68
215.838	-30.64
216.218	-23.35
216.597	-13.47
216.976	-14.03
217.355	-9.89
217.734	-18.54
218.113	-10.79
218.492	-12.76
218.871	-12.33
219.25	6.16
219.629	-10.18
220.008	3.89
220.387	14.03
220.766	22.66
221.144	16.47
221.523	16.19
221.902	-0.61
222.28	-2.38
222.659	-2.28
223.037	-19.11
223.416	-30.84
223.794	-47.27
224.173	-44.03
224.551	-29.63
224.929	-23.06
225.308	-20.35
225.686	-14.55
226.064	-16.5
226.442	-11.29
226.821	-12.73
227.199	-17.42
227.577	-14.72
227.955	-15.16
228.333	-16.44
228.711	-12
229.089	-6.85
229.467	-7.78
229.845	-10.33
230.222	-8.84
230.6	-9.37
230.978	-9.7
231.356	-8
231.733	-6.13
232.111	-3.64
232.488	-5.28
232.866	-5.92
233.243	-4.9
233.621	-8.65
233.998	-7.53
234.376	-7.93
234.753	-6.2
235.13	-4.86
235.508	-4.79
235.885	-4.58
236.262	-4.73
236.639	-7.69
237.016	-7.08
237.393	-6.13
237.77	-4.25
238.147	-3.54
238.524	-2.88
238.901	-1.27
239.278	-0.38
239.655	0.37
240.032	0.7
240.409	0.12
240.785	0.2
241.162	0.64
241.539	2
241.915	1.68
242.292	1.91
242.668	1.73
243.045	2.03
243.421	2.45
243.798	2.71
244.174	3.03
244.551	3.95
244.927	4.03
245.303	4.08
245.679	4.18
246.056	4.22
246.432	4.09
246.808	4.14
247.184	3.78
247.56	3.64
247.936	3.46
248.312	3.72
248.688	3.75
249.064	3.62
249.44	3.65
249.815	3.85
250.191	3.73
250.567	3.94
250.943	3.81
251.318	3.86
251.694	3.64
252.069	3.43
252.445	3.18
252.82	3.05
253.196	2.76
253.571	2.45
253.947	2.65
254.322	2.99
254.697	2.6
255.073	2.77
255.448	2.98
255.823	2.97
256.198	3.2
256.573	3.34
256.948	3.43
257.323	3.6
257.698	3.71
258.073	3.92
258.448	3.85
258.823	4.02
259.198	3.81
259.573	3.94
259.948	3.94
260.322	4
260.697	3.9
261.072	3.89
261.446	4.05
261.821	3.81
262.195	3.95
262.57	3.95
262.944	3.97
263.319	3.86
263.693	3.8
264.067	3.72
264.442	3.69
264.816	3.58
265.19	3.38
265.564	3.3
265.938	3.06
266.313	3.01
266.687	2.83
267.061	2.89
267.435	2.88
267.809	2.91
268.183	2.79
268.556	2.74
268.93	2.9
269.304	2.73
269.678	2.98
270.051	2.81
270.425	3
270.799	3.1
271.172	3.21
271.546	3.27
271.919	3.28
272.293	3.39
272.666	3.51
273.04	3.6
273.413	3.58
273.787	3.61
274.16	3.49
274.533	3.39
274.906	3.33
275.279	3.35
275.653	3.41
276.026	3.34
276.399	3.49
276.772	3.48
277.145	3.59
277.518	3.48
277.891	3.44
278.263	3.28
278.636	3.23
279.009	3.23
279.382	3.44
279.755	3.34
280.127	3.51
280.5	3.6
280.872	3.64
281.245	3.67
281.617	3.86
281.99	4.1
282.362	4.3
282.735	4.21
283.107	4.24
283.479	4.27
283.852	4.31
284.224	4.36
284.596	4.35
284.968	4.39
285.34	4.34
285.713	4.28
286.085	4.38
286.457	4.42
286.829	4.44
287.201	4.42
287.572	4.4
287.944	4.26
288.316	4.29
288.688	4.24
289.06	4.18
289.431	4.06
289.803	4.06
290.175	4.12
290.546	4.45
290.918	4.43
291.289	4.41
291.661	4.6
292.032	4.62
292.403	4.65
292.775	4.67
293.146	4.85
293.517	4.96
293.889	5.06
294.26	4.9
294.631	4.8
295.002	4.72
295.373	4.79
295.744	4.8
296.115	4.68
296.486	4.53
296.857	4.66
297.228	4.67
297.599	4.5
297.97	4.43
298.34	4.29
298.711	4.45
299.082	4.32
299.452	4.21
299.823	4.18
300.194	4.13
300.564	4.12
300.935	4.01
301.305	3.98
301.676	3.89
302.046	4.01
302.416	4.23
302.787	4.22
303.157	4.12
303.527	4.11
303.897	4.21
304.267	4.39
304.637	4.46
305.008	4.48
305.378	4.77
305.748	4.76
306.117	4.71
306.487	4.62
306.857	4.79
307.227	4.79
307.597	4.67
307.967	4.78
308.336	4.76
308.706	4.75
309.076	4.82
309.445	4.84
309.815	4.91
310.184	4.75
310.554	4.71
310.923	4.82
311.293	4.8
311.662	4.71
312.031	4.75
312.401	4.53
312.77	4.62
313.139	4.6
313.508	4.55
313.877	4.51
314.246	4.45
314.616	4.47
314.985	4.55
315.353	4.64
315.722	4.68
316.091	4.63
316.46	4.55
316.829	4.44
317.198	4.44
317.567	4.31
317.935	4.36
318.304	4.37
318.672	4.33
319.041	4.39
319.41	4.44
319.778	4.42
320.147	4.58
320.515	4.5
320.883	4.31
321.252	4.45
321.62	4.42
321.988	4.36
322.357	4.32
322.725	4.2
323.093	4.14
323.461	4.07
323.829	4.12
324.197	4.34
324.565	4.31
324.933	4.19
325.301	4.24
325.669	4.18
326.037	4.26
326.405	4.26
326.772	4.17
327.14	4.25
327.508	4.2
327.875	4.09
328.243	4.1
328.61	4.17
328.978	4.15
329.346	4.31
329.713	4.33
330.08	4.33
330.448	4.24
330.815	4.3
331.182	4.27
331.55	4.22
331.917	4.24
332.284	4.4
332.651	4.55
333.018	4.55
333.385	4.65
333.752	4.72
334.119	4.8
334.486	4.82
334.853	4.72
335.22	4.76
335.587	4.84
335.954	4.82
336.32	4.7
336.687	4.69
337.054	4.56
337.42	4.58
337.787	4.56
338.153	4.59
338.52	4.55
338.886	4.46
339.253	4.44
339.619	4.31
339.986	4.27
340.352	4.3
340.718	4.31
341.084	4.26
341.451	4.16
341.817	4.09
342.183	4.06
342.549	4.13
342.915	4.11
343.281	4.13
343.647	4.2
344.013	4.3
344.379	4.3
344.745	4.43
345.11	4.46
345.476	4.61
345.842	4.62
346.208	4.65
346.573	4.79
346.939	4.93
347.304	4.88
347.67	4.77
348.035	4.74
348.401	4.74
348.766	4.75
349.132	4.77
349.497	4.75
349.862	4.83
350.228	4.76
350.593	4.75
350.958	4.74
351.323	4.74
351.688	4.67
352.053	4.7
352.418	4.6
352.783	4.58
353.148	4.48
353.513	4.45
353.878	4.43
354.243	4.5
354.608	4.47
354.972	4.57
355.337	4.64
355.702	4.61
356.066	4.62
356.431	4.56
356.795	4.6
357.16	4.61
357.524	4.54
357.889	4.51
358.253	4.56
358.618	4.55
358.982	4.47
359.346	4.49
359.71	4.51
360.075	4.54
360.439	4.5
360.803	4.45
361.167	4.52
361.531	4.55
361.895	4.48
362.259	4.46
362.623	4.43
362.987	4.41
363.351	4.45
363.714	4.44
364.078	4.52
364.442	4.53
364.806	4.57
365.169	4.61
365.533	4.58
365.896	4.55
366.26	4.51
366.623	4.51
366.987	4.48
367.35	4.51
367.714	4.56
368.077	4.51
368.44	4.57
368.803	4.53
369.167	4.45
369.53	4.47
369.893	4.5
370.256	4.45
370.619	4.42
370.982	4.37
371.345	4.33
371.708	4.25
372.071	4.28
372.434	4.24
372.797	4.19
373.159	4.28
373.522	4.32
373.885	4.4
374.247	4.39
374.61	4.48
374.973	4.41
375.335	4.37
375.698	4.43
376.06	4.38
376.423	4.39
376.785	4.45
377.147	4.42
377.51	4.41
377.872	4.51
378.234	4.55
378.596	4.56
378.958	4.59
379.321	4.64
379.683	4.61
380.045	4.63
380.407	4.67
380.769	4.69
381.13	4.66
381.492	4.66
381.854	4.71
382.216	4.68
382.578	4.67
382.939	4.65
383.301	4.66
383.663	4.63
384.024	4.63
384.386	4.63
384.747	4.67
385.109	4.64
385.47	4.57
385.832	4.55
386.193	4.61
386.554	4.58
386.916	4.57
387.277	4.59
387.638	4.58
387.999	4.58
388.36	4.52
388.721	4.51
389.082	4.47
389.443	4.44
389.804	4.43
390.165	4.41
390.526	4.43
390.887	4.42
391.248	4.47
391.609	4.49
391.969	4.5
392.33	4.49
392.691	4.51
393.051	4.55
393.412	4.57
393.772	4.49
394.133	4.51
394.493	4.49
394.854	4.47
395.214	4.45
395.574	4.47
395.935	4.48
396.295	4.52
396.655	4.55
397.015	4.55
397.376	4.6
397.736	4.62
398.096	4.63
398.456	4.66
398.816	4.7
399.176	4.67
399.535	4.65
399.895	4.61
400.255	4.61
400.615	4.6
400.975	4.57
401.334	4.57
401.694	4.55
402.054	4.54
402.413	4.53
402.773	4.51
403.132	4.51
403.492	4.49
403.851	4.48
404.211	4.42
404.57	4.42
404.929	4.4
405.288	4.37
405.648	4.37
406.007	4.32
406.366	4.29
406.725	4.3
407.084	4.32
407.443	4.34
407.802	4.34
408.161	4.32
408.52	4.31
408.879	4.34
409.238	4.36
409.596	4.38
409.955	4.4
410.314	4.42
410.673	4.39
411.031	4.41
411.39	4.41
411.748	4.46
412.107	4.48
412.465	4.49
412.824	4.52
413.182	4.49
413.54	4.52
413.899	4.53
414.257	4.55
414.615	4.52
414.974	4.53
415.332	4.52
415.69	4.52
416.048	4.53
416.406	4.53
416.764	4.54
417.122	4.54
417.48	4.52
417.838	4.53
418.195	4.53
418.553	4.53
418.911	4.52
419.269	4.51
419.626	4.51
419.984	4.52
420.342	4.52
420.699	4.52
421.057	4.52
421.414	4.5
421.772	4.5
422.129	4.51
422.486	4.49
422.844	4.49
423.201	4.49
423.558	4.48
423.915	4.5
424.273	4.51
424.63	4.5
424.987	4.51
425.344	4.49
425.701	4.48
426.058	4.47
426.415	4.46
426.772	4.46
427.128	4.45
427.485	4.42
427.842	4.43
428.199	4.43
428.555	4.42
428.912	4.42
429.269	4.4
429.625	4.39
429.982	4.42
430.338	4.43
430.695	4.45
431.051	4.42
431.407	4.39
431.764	4.38
432.12	4.37
432.476	4.37
432.832	4.37
433.189	4.38
433.545	4.37
433.901	4.38
434.257	4.39
434.613	4.39
434.969	4.39
435.325	4.39
435.681	4.39
436.036	4.38
436.392	4.38
436.748	4.38
437.104	4.38
437.459	4.37
437.815	4.37
438.171	4.36
438.526	4.39
438.882	4.39
439.237	4.4
439.593	4.41
439.948	4.42
440.304	4.42
440.659	4.43
441.014	4.45
441.369	4.45
441.725	4.43
442.08	4.44
442.435	4.44
442.79	4.44
443.145	4.45
443.5	4.45
443.855	4.48
444.21	4.48
444.565	4.48
444.92	4.49
445.275	4.49
445.629	4.48
445.984	4.47
446.339	4.46
446.693	4.45
447.048	4.46
447.403	4.42
447.757	4.43
448.112	4.43
448.466	4.42
448.82	4.41
449.175	4.41
449.529	4.4
449.883	4.41
450.238	4.4
450.592	4.39
450.946	4.38
451.3	4.35
451.654	4.35
452.008	4.35
452.362	4.34
452.716	4.34
453.07	4.35
453.424	4.34
453.778	4.34
454.132	4.34
454.486	4.33
454.839	4.32
455.193	4.31
455.547	4.31
455.9	4.31
456.254	4.31
456.607	4.33
456.961	4.34
457.314	4.34
457.668	4.35
458.021	4.33
458.375	4.36
458.728	4.36
459.081	4.37
459.434	4.37
459.787	4.37
460.141	4.35
460.494	4.34
460.847	4.35
461.2	4.35
461.553	4.34
461.906	4.35
462.259	4.37
462.611	4.39
462.964	4.38
463.317	4.39
463.67	4.41
464.022	4.4
464.375	4.39
464.728	4.39
465.08	4.41
465.433	4.41
465.785	4.39
466.138	4.41
466.49	4.42
466.843	4.4
467.195	4.4
467.547	4.42
467.899	4.42
468.252	4.4
468.604	4.42
468.956	4.41
469.308	4.42
469.66	4.42
470.012	4.42
470.364	4.43
470.716	4.41
471.068	4.4
471.42	4.4
471.772	4.42
472.123	4.43
472.475	4.41
472.827	4.43
473.178	4.46
473.53	4.44
473.882	4.42
474.233	4.43
474.585	4.44
474.936	4.44
475.288	4.45
475.639	4.47
475.99	4.48
476.342	4.49
476.693	4.5
477.044	4.51
477.395	4.51
477.746	4.51
478.097	4.52
478.448	4.52
478.8	4.51
479.15	4.48
479.501	4.5
479.852	4.51
480.203	4.52
480.554	4.52
480.905	4.52
481.255	4.52
481.606	4.53
481.957	4.54
482.307	4.54
482.658	4.55
483.009	4.56
483.359	4.56
483.709	4.55
484.06	4.55
484.41	4.56
484.761	4.56
485.111	4.56
485.461	4.56
485.811	4.56
486.162	4.56
486.512	4.58
486.862	4.57
487.212	4.58
487.562	4.57
487.912	4.57
488.262	4.56
488.612	4.57
488.961	4.57
489.311	4.57
489.661	4.57
490.011	4.57
490.36	4.56
490.71	4.56
491.06	4.57
491.409	4.57
491.759	4.56
492.108	4.56
492.458	4.56
492.807	4.55
493.157	4.55
493.506	4.56
493.855	4.56
494.204	4.56
494.554	4.55
494.903	4.55
495.252	4.56
495.601	4.58
495.95	4.59
496.299	4.58
496.648	4.57
496.997	4.58
497.346	4.57
497.695	4.6
498.043	4.6
498.392	4.59
498.741	4.6
499.09	4.59
499.438	4.59
499.787	4.6
500.135	4.61
500.484	4.64
500.832	4.64
501.181	4.63
501.529	4.63
501.878	4.65
502.226	4.66
502.574	4.67
502.923	4.67
503.271	4.65
503.619	4.66
503.967	4.65
504.315	4.66
504.663	4.64
505.011	4.63
505.359	4.64
505.707	4.67
506.055	4.69
506.403	4.71
506.751	4.73
507.098	4.74
507.446	4.77
507.794	4.76
508.141	4.75
508.489	4.76
508.837	4.76
509.184	4.75
509.531	4.76
509.879	4.77
510.226	4.79
510.574	4.82
510.921	4.83
511.268	4.85
511.616	4.86
511.963	4.89
512.31	4.89
512.657	4.89
513.004	4.9
513.351	4.91
513.698	4.92
514.045	4.9
514.392	4.88
514.739	4.86
515.086	4.86
515.432	4.86
515.779	4.87
516.126	4.89
516.473	4.91
516.819	4.92
517.166	4.93
517.512	4.92
517.859	4.92
518.205	4.93
518.552	4.93
518.898	4.93
519.245	4.93
519.591	4.95
519.937	4.96
520.283	4.95
520.629	4.95
520.976	4.94
521.322	4.97
521.668	4.99
522.014	5
522.36	5.03
522.706	5.03
523.052	5.04
523.398	5.06
523.743	5.06
524.089	5.07
524.435	5.07
524.781	5.08
525.126	5.09
525.472	5.1
525.817	5.1
526.163	5.1
526.509	5.11
526.854	5.13
527.199	5.15
527.545	5.16
527.89	5.18
528.235	5.2
528.581	5.21
528.926	5.22
529.271	5.22
529.616	5.22
529.961	5.23
530.306	5.23
530.651	5.22
530.996	5.23
531.341	5.22
531.686	5.23
532.031	5.24
532.376	5.24
532.721	5.24
533.065	5.25
533.41	5.25
533.755	5.25
534.099	5.25
534.444	5.22
534.788	5.22
535.133	5.21
535.477	5.2
535.822	5.19
536.166	5.19
536.51	5.19
536.855	5.2
537.199	5.2
537.543	5.22
537.887	5.22
538.231	5.23
538.576	5.24
538.92	5.23
539.264	5.23
539.608	5.22
539.951	5.21
540.295	5.21
540.639	5.23
540.983	5.23
541.327	5.23
541.671	5.24
542.014	5.23
542.358	5.23
542.701	5.21
543.045	5.23
543.389	5.23
543.732	5.25
544.075	5.26
544.419	5.26
544.762	5.26
545.105	5.25
545.449	5.25
545.792	5.23
546.135	5.25
546.478	5.25
546.821	5.27
547.165	5.28
547.508	5.31
547.851	5.3
548.194	5.3
548.536	5.29
548.879	5.3
549.222	5.31
549.565	5.31
549.908	5.36
550.25	5.36
550.593	5.37
550.936	5.33
551.278	5.33
551.621	5.32
551.963	5.33
552.306	5.34
552.648	5.34
552.991	5.37
553.333	5.35
553.675	5.37
554.017	5.36
554.36	5.38
554.702	5.37
555.044	5.35
555.386	5.37
555.728	5.38
556.07	5.38
556.412	5.38
556.754	5.37
557.096	5.34
557.438	5.35
557.78	5.36
558.121	5.4
558.463	5.4
558.805	5.41
559.147	5.37
559.488	5.37
559.83	5.37
560.171	5.36
560.513	5.38
560.854	5.38
561.196	5.37
561.537	5.37
561.878	5.34
562.22	5.35
562.561	5.32
562.902	5.36
563.243	5.35
563.584	5.35
563.925	5.37
564.266	5.35
564.607	5.33
564.948	5.31
565.289	5.33
565.63	5.34
565.971	5.34
566.312	5.36
566.653	5.35
566.993	5.34
567.334	5.33
567.675	5.34
568.015	5.33
568.356	5.35
568.696	5.34
569.037	5.36
569.377	5.4
569.718	5.42
570.058	5.38
570.398	5.39
570.739	5.41
571.079	5.42
571.419	5.45
571.759	5.47
572.099	5.46
572.439	5.43
572.779	5.44
573.119	5.43
573.459	5.44
573.799	5.45
574.139	5.46
574.479	5.46
574.819	5.46
575.158	5.46
575.498	5.43
575.838	5.44
576.177	5.42
576.517	5.39
576.856	5.38
577.196	5.39
577.535	5.37
577.875	5.36
578.214	5.32
578.553	5.33
578.893	5.32
579.232	5.31
579.571	5.31
579.91	5.29
580.25	5.33
580.589	5.31
580.928	5.34
581.267	5.32
581.606	5.34
581.945	5.32
582.283	5.31
582.622	5.37
582.961	5.39
583.3	5.41
583.639	5.46
583.977	5.5
584.316	5.52
584.654	5.52
584.993	5.51
585.332	5.54
585.67	5.56
586.008	5.57
586.347	5.57
586.685	5.57
587.024	5.56
587.362	5.56
587.7	5.55
588.038	5.58
588.376	5.59
588.715	5.61
589.053	5.65
589.391	5.66
589.729	5.65
590.067	5.63
590.404	5.64
590.742	5.58
591.08	5.56
591.418	5.54
591.756	5.58
592.093	5.6
592.431	5.6
592.769	5.54
593.106	5.55
593.444	5.58
593.781	5.61
594.119	5.65
594.456	5.61
594.793	5.63
595.131	5.59
595.468	5.61
595.805	5.61
596.143	5.63
596.48	5.63
596.817	5.62
597.154	5.65
597.491	5.66
597.828	5.67
598.165	5.65
598.502	5.65
598.839	5.61
599.176	5.62
599.512	5.62
599.849	5.63
600.186	5.65
600.523	5.67
600.859	5.69
601.196	5.69
601.532	5.7
601.869	5.72
602.205	5.73
602.542	5.73
602.878	5.69
603.215	5.67
603.551	5.68
603.887	5.68
604.223	5.66
604.56	5.66
604.896	5.68
605.232	5.72
605.568	5.73
605.904	5.74
606.24	5.73
606.576	5.71
606.912	5.71
607.248	5.72
607.583	5.73
607.919	5.67
608.255	5.64
608.591	5.7
608.926	5.69
609.262	5.67
609.597	5.7
609.933	5.75
610.268	5.76
610.604	5.73
610.939	5.74
611.275	5.7
611.61	5.71
611.945	5.72
612.281	5.71
612.616	5.71
612.951	5.76
613.286	5.78
613.621	5.79
613.956	5.8
614.291	5.77
614.626	5.71
614.961	5.72
615.296	5.71
615.631	5.7
615.966	5.69
616.3	5.72
616.635	5.67
616.97	5.64
617.304	5.63
617.639	5.66
617.973	5.66
618.308	5.7
618.642	5.7
618.977	5.7
619.311	5.69
619.646	5.71
619.98	5.63
620.314	5.64
620.648	5.68
620.983	5.72
621.317	5.7
621.651	5.73
621.985	5.77
622.319	5.77
622.653	5.7
622.987	5.76
623.321	5.76
623.655	5.82
623.988	5.86
624.322	5.85
624.656	5.87
624.99	5.91
625.323	5.9
625.657	5.89
625.99	5.88
626.324	5.91
626.657	5.97
626.991	6.01
627.324	6.04
627.658	6.01
627.991	6.05
628.324	6.09
628.657	6.09
628.991	6.06
629.324	6.08
629.657	6.11
629.99	6.09
630.323	6.05
630.656	6.02
630.989	6.02
631.322	6.03
631.655	6.02
631.987	6.01
632.32	5.99
632.653	6.01
632.986	6.01
633.318	5.98
633.651	5.93
633.984	5.89
634.316	5.84
634.649	5.85
634.981	5.78
635.313	5.77
635.646	5.77
635.978	5.79
636.31	5.78
636.643	5.73
636.975	5.76
637.307	5.79
637.639	5.79
637.971	5.77
638.303	5.77
638.635	5.79
638.967	5.77
639.299	5.83
639.631	5.8
639.963	5.78
640.295	5.8
640.626	5.82
640.958	5.84
641.29	5.9
641.621	5.93
641.953	5.93
642.285	5.94
642.616	5.98
642.948	5.98
643.279	6.05
643.61	6.09
643.942	6.08
644.273	6.11
644.604	6.12
644.936	6.08
645.267	6.12
645.598	6.09
645.929	6.07
646.26	6.09
646.591	6.13
646.922	6.12
647.253	6.12
647.584	6.08
647.915	6.05
648.245	6.02
648.576	6
648.907	6.06
649.238	6.01
649.568	5.98
649.899	5.99
650.229	5.95
650.56	5.96
650.89	5.89
651.221	5.91
651.551	5.86
651.882	5.92
652.212	5.94
652.542	5.96
652.872	5.95
653.203	5.89
653.533	5.9
653.863	5.89
654.193	5.89
654.523	5.94
654.853	6
655.183	5.98
655.513	5.96
655.843	5.95
656.172	6.03
656.502	6.09
656.832	6.1
657.162	6.06
657.491	6.07
657.821	6.14
658.15	6.09
658.48	6.13
658.809	6.1
659.139	6.03
659.468	6.02
659.798	6.02
660.127	6.1
660.456	6.06
660.785	6.07
661.115	6.09
661.444	6.11
661.773	6.08
662.102	6.05
662.431	6.09
662.76	6.1
663.089	6.01
663.418	5.93
663.747	5.82
664.076	5.86
664.404	5.77
664.733	5.79
665.062	5.83
665.39	5.84
665.719	5.87
666.048	5.92
666.376	5.91
666.705	5.98
667.033	5.95
667.362	6.02
667.69	6.05
668.018	6.04
668.347	6
668.675	6.02
669.003	6.1
669.331	6.17
669.659	6.11
669.987	6.1
670.315	6.16
670.643	6.24
670.971	6.29
671.299	6.39
671.627	6.4
671.955	6.32
672.283	6.27
672.61	6.23
672.938	6.21
673.266	6.27
673.593	6.27
673.921	6.24
674.249	6.16
674.576	6.15
674.904	6.19
675.231	6.15
675.558	6.2
675.886	6.23
