Data from BA28304_Reflection_00013.txt Node
Date: Mon Nov 18 15:36:30 EST 2019
User: vgr7
Spectrometer: USB2G7710
Scans to average: 3
Trigger mode: 4
Integration Time (sec): 2.000000E-2
Electric dark correction enabled: true
Boxcar width: 10
XAxis mode: Wavelengths
Number of Pixels in Spectrum: 2048
>>>>>Begin Spectral Data<<<<<
177.721	7.05
178.105	-3.19
178.488	13.93
178.871	248.51
179.254	-93.55
179.636	28.3
180.019	152.06
180.402	-19.35
180.785	190.23
181.168	-837.5
181.55	-605.88
181.933	106.7
182.316	90.87
182.698	82.84
183.081	12.04
183.463	-458.14
183.846	100
184.228	44.32
184.611	209.09
184.993	327.85
185.376	-516.82
185.758	-30.22
186.14	-37.86
186.522	-40.91
186.904	-106.9
187.287	-401.99
187.669	-60.21
188.051	-50.81
188.433	-74.58
188.815	-44.9
189.197	-61.75
189.579	-12.6
189.961	-15.33
190.342	-21.11
190.724	4.64
191.106	-25.04
191.488	-47
191.869	-41.2
192.251	-22.99
192.633	-24.25
193.014	-25.36
193.396	-37.54
193.777	-35.91
194.159	-50.27
194.54	-32.66
194.922	-18.01
195.303	-12.88
195.684	-22.48
196.065	-14.64
196.447	-19.04
196.828	-16.2
197.209	-35.22
197.59	-63.19
197.971	-85.35
198.352	-68.18
198.733	-138.49
199.114	-108.93
199.495	-55.28
199.876	-35.45
200.257	-60.5
200.638	29.85
201.018	19.42
201.399	33.8
201.78	9.7
202.16	8.6
202.541	-26.57
202.922	-136.98
203.302	-507
203.683	-142
204.063	180100
204.444	-375.37
204.824	-196.6
205.204	-39.95
205.585	-43.97
205.965	-10.25
206.345	-49.34
206.725	-66.84
207.106	-206.48
207.486	880.27
207.866	-1530.06
208.246	-216.34
208.626	-339.96
209.006	-222.53
209.386	-512.95
209.766	-528.01
210.145	-347.08
210.525	-179.42
210.905	-132.66
211.285	-84.9
211.664	-80.05
212.044	-79.07
212.424	-71.78
212.803	-69.29
213.183	-116.32
213.562	-103.64
213.942	-111.89
214.321	-99.58
214.701	-149.2
215.08	-133.24
215.459	-98.42
215.838	-65.95
216.218	-90.08
216.597	-132.32
216.976	-122.03
217.355	-92.98
217.734	-96.87
218.113	-81.22
218.492	-106.4
218.871	-119.17
219.25	-124.54
219.629	-156.87
220.008	-93.62
220.387	-85.34
220.766	-107.5
221.144	-112.96
221.523	-92.42
221.902	-87.2
222.28	-81.86
222.659	-60.17
223.037	-59.14
223.416	-48.96
223.794	-51.7
224.173	-46.65
224.551	-24.62
224.929	-23.84
225.308	-13.82
225.686	-12.14
226.064	-11.24
226.442	-9.94
226.821	-8.86
227.199	-9.83
227.577	-12.39
227.955	-10.47
228.333	-11.79
228.711	-5.36
229.089	-1.39
229.467	-4.47
229.845	-5
230.222	-5.45
230.6	-5.76
230.978	-4.23
231.356	-2.07
231.733	-1.7
232.111	-3.31
232.488	-2.2
232.866	-1.49
233.243	-1.18
233.621	-0.02
233.998	1.17
234.376	2.15
234.753	2.27
235.13	3.43
235.508	5.38
235.885	2.69
236.262	4.63
236.639	4.25
237.016	3.08
237.393	3.88
237.77	5.74
238.147	6.71
238.524	6.73
238.901	6.65
239.278	5.89
239.655	6.52
240.032	7.35
240.409	6.16
240.785	6.03
241.162	5.37
241.539	5.95
241.915	6.25
242.292	5.69
242.668	5.94
243.045	5.79
243.421	5.79
243.798	5.85
244.174	5.5
244.551	5.69
244.927	5.7
245.303	5.81
245.679	5.97
246.056	5.59
246.432	5.72
246.808	5.86
247.184	5.79
247.56	5.68
247.936	5.49
248.312	5.39
248.688	5.46
249.064	5.64
249.44	5.39
249.815	5.18
250.191	5.41
250.567	5.09
250.943	5.04
251.318	5.02
251.694	5.31
252.069	5.34
252.445	5.2
252.82	5.12
253.196	4.91
253.571	4.56
253.947	4.58
254.322	4.54
254.697	4.27
255.073	4.05
255.448	4.04
255.823	3.99
256.198	4.27
256.573	4.21
256.948	4.24
257.323	4.38
257.698	4.54
258.073	4.43
258.448	4.62
258.823	4.67
259.198	4.43
259.573	4.43
259.948	4.45
260.322	4.37
260.697	4.47
261.072	4.69
261.446	4.7
261.821	4.63
262.195	4.66
262.57	4.64
262.944	4.71
263.319	4.88
263.693	4.83
264.067	4.85
264.442	4.85
264.816	4.85
265.19	4.85
265.564	4.78
265.938	4.71
266.313	4.89
266.687	4.92
267.061	5.06
267.435	5.01
267.809	5.15
268.183	5.13
268.556	5.21
268.93	5.21
269.304	5.16
269.678	5.24
270.051	5.18
270.425	5.35
270.799	5.41
271.172	5.29
271.546	5.41
271.919	5.4
272.293	5.39
272.666	5.39
273.04	5.58
273.413	5.63
273.787	5.72
274.16	5.31
274.533	5.3
274.906	5.36
275.279	5.31
275.653	5.21
276.026	5.21
276.399	5.08
276.772	5.07
277.145	4.91
277.518	4.97
277.891	4.74
278.263	4.49
278.636	4.46
279.009	4.51
279.382	4.59
279.755	4.7
280.127	4.74
280.5	4.74
280.872	4.48
281.245	4.49
281.617	4.63
281.99	4.91
282.362	5
282.735	4.88
283.107	4.92
283.479	4.97
283.852	5
284.224	4.98
284.596	4.82
284.968	4.99
285.34	4.97
285.713	5.06
286.085	5.14
286.457	5.32
286.829	5.14
287.201	5.06
287.572	4.91
287.944	4.82
288.316	4.85
288.688	4.87
289.06	4.71
289.431	4.58
289.803	4.48
290.175	4.44
290.546	4.67
290.918	4.68
291.289	4.55
291.661	4.69
292.032	4.79
292.403	5.04
292.775	5.07
293.146	5.08
293.517	5.15
293.889	5.2
294.26	4.99
294.631	5.11
295.002	5.16
295.373	5.12
295.744	5.21
296.115	5.18
296.486	5.12
296.857	5.17
297.228	5.2
297.599	5.25
297.97	5.13
298.34	5.04
298.711	5.09
299.082	5.07
299.452	5.03
299.823	5.08
300.194	4.98
300.564	4.88
300.935	5
301.305	4.94
301.676	4.97
302.046	5.12
302.416	5.13
302.787	5.03
303.157	5.14
303.527	5.24
303.897	5.21
304.267	5.42
304.637	5.55
305.008	5.63
305.378	5.77
305.748	5.95
306.117	5.79
306.487	5.75
306.857	5.87
307.227	5.88
307.597	5.85
307.967	5.79
308.336	5.87
308.706	5.79
309.076	5.72
309.445	5.56
309.815	5.48
310.184	5.43
310.554	5.61
310.923	5.57
311.293	5.43
311.662	5.44
312.031	5.36
312.401	5.38
312.77	5.4
313.139	5.39
313.508	5.4
313.877	5.53
314.246	5.55
314.616	5.51
314.985	5.5
315.353	5.42
315.722	5.5
316.091	5.53
316.46	5.48
316.829	5.68
317.198	5.79
317.567	5.78
317.935	5.96
318.304	5.88
318.672	5.94
319.041	5.96
319.41	5.89
319.778	6
320.147	6.04
320.515	6.1
320.883	6.1
321.252	6.07
321.62	6.13
321.988	6.05
322.357	6.14
322.725	6.18
323.093	6.37
323.461	6.42
323.829	6.41
324.197	6.38
324.565	6.44
324.933	6.51
325.301	6.6
325.669	6.55
326.037	6.53
326.405	6.51
326.772	6.72
327.14	6.85
327.508	6.82
327.875	6.66
328.243	6.71
328.61	6.61
328.978	6.59
329.346	6.57
329.713	6.63
330.08	6.65
330.448	6.48
330.815	6.43
331.182	6.44
331.55	6.47
331.917	6.59
332.284	6.66
332.651	6.64
333.018	6.64
333.385	6.77
333.752	6.88
334.119	7.05
334.486	6.97
334.853	6.93
335.22	6.95
335.587	7.21
335.954	7.29
336.32	7.36
336.687	7.49
337.054	7.43
337.42	7.57
337.787	7.55
338.153	7.65
338.52	7.63
338.886	7.67
339.253	7.62
339.619	7.6
339.986	7.55
340.352	7.61
340.718	7.59
341.084	7.54
341.451	7.6
341.817	7.57
342.183	7.62
342.549	7.72
342.915	7.72
343.281	7.64
343.647	7.5
344.013	7.57
344.379	7.48
344.745	7.55
345.11	7.53
345.476	7.54
345.842	7.57
346.208	7.56
346.573	7.56
346.939	7.67
347.304	7.62
347.67	7.6
348.035	7.48
348.401	7.5
348.766	7.48
349.132	7.41
349.497	7.33
349.862	7.29
350.228	7.25
350.593	7.16
350.958	7.18
351.323	7.23
351.688	7.23
352.053	7.25
352.418	7.29
352.783	7.31
353.148	7.29
353.513	7.22
353.878	7.22
354.243	7.27
354.608	7.3
354.972	7.42
355.337	7.39
355.702	7.45
356.066	7.51
356.431	7.49
356.795	7.48
357.16	7.47
357.524	7.38
357.889	7.36
358.253	7.5
358.618	7.41
358.982	7.33
359.346	7.26
359.71	7.27
360.075	7.23
360.439	7.21
360.803	7.2
361.167	7.22
361.531	7.27
361.895	7.2
362.259	7.16
362.623	7.1
362.987	7.06
363.351	7.07
363.714	7.05
364.078	7.01
364.442	6.96
364.806	6.93
365.169	7
365.533	7
365.896	6.92
366.26	6.91
366.623	6.94
366.987	6.94
367.35	6.93
367.714	6.93
368.077	6.86
368.44	6.84
368.803	6.75
369.167	6.61
369.53	6.61
369.893	6.52
370.256	6.47
370.619	6.48
370.982	6.47
371.345	6.41
371.708	6.35
372.071	6.39
372.434	6.4
372.797	6.36
373.159	6.34
373.522	6.32
373.885	6.35
374.247	6.29
374.61	6.3
374.973	6.21
375.335	6.16
375.698	6.18
376.06	6.13
376.423	6.14
376.785	6.15
377.147	6.11
377.51	6.05
377.872	6.02
378.234	5.99
378.596	5.97
378.958	6.01
379.321	6.01
379.683	5.95
380.045	5.92
380.407	5.88
380.769	5.83
381.13	5.75
381.492	5.69
381.854	5.71
382.216	5.64
382.578	5.64
382.939	5.58
383.301	5.49
383.663	5.53
384.024	5.49
384.386	5.46
384.747	5.46
385.109	5.49
385.47	5.47
385.832	5.45
386.193	5.37
386.554	5.27
386.916	5.3
387.277	5.25
387.638	5.25
387.999	5.2
388.36	5.17
388.721	5.18
389.082	5.13
389.443	5.04
389.804	5.05
390.165	5.04
390.526	5.02
390.887	5.02
391.248	4.98
391.609	4.99
391.969	4.97
392.33	4.9
392.691	4.9
393.051	4.87
393.412	4.84
393.772	4.82
394.133	4.83
394.493	4.75
394.854	4.71
395.214	4.66
395.574	4.67
395.935	4.67
396.295	4.64
396.655	4.65
397.015	4.65
397.376	4.62
397.736	4.6
398.096	4.58
398.456	4.56
398.816	4.53
399.176	4.52
399.535	4.46
399.895	4.43
400.255	4.36
400.615	4.35
400.975	4.35
401.334	4.33
401.694	4.3
402.054	4.29
402.413	4.3
402.773	4.27
403.132	4.22
403.492	4.19
403.851	4.18
404.211	4.16
404.57	4.15
404.929	4.12
405.288	4.11
405.648	4.12
406.007	4.12
406.366	4.12
406.725	4.12
407.084	4.15
407.443	4.17
407.802	4.18
408.161	4.15
408.52	4.13
408.879	4.12
409.238	4.12
409.596	4.12
409.955	4.13
410.314	4.11
410.673	4.12
411.031	4.09
411.39	4.09
411.748	4.1
412.107	4.11
412.465	4.09
412.824	4.06
413.182	4.05
413.54	4.03
413.899	4
414.257	4
414.615	3.97
414.974	3.97
415.332	3.92
415.69	3.92
416.048	3.9
416.406	3.9
416.764	3.88
417.122	3.88
417.48	3.84
417.838	3.87
418.195	3.86
418.553	3.85
418.911	3.84
419.269	3.82
419.626	3.81
419.984	3.8
420.342	3.8
420.699	3.81
421.057	3.8
421.414	3.79
421.772	3.79
422.129	3.78
422.486	3.77
422.844	3.78
423.201	3.75
423.558	3.77
423.915	3.76
424.273	3.76
424.63	3.76
424.987	3.76
425.344	3.74
425.701	3.74
426.058	3.74
426.415	3.73
426.772	3.72
427.128	3.72
427.485	3.72
427.842	3.7
428.199	3.71
428.555	3.69
428.912	3.7
429.269	3.68
429.625	3.68
429.982	3.67
430.338	3.69
430.695	3.71
431.051	3.69
431.407	3.68
431.764	3.68
432.12	3.67
432.476	3.68
432.832	3.68
433.189	3.67
433.545	3.66
433.901	3.68
434.257	3.68
434.613	3.67
434.969	3.68
435.325	3.68
435.681	3.65
436.036	3.67
436.392	3.68
436.748	3.67
437.104	3.66
437.459	3.65
437.815	3.65
438.171	3.66
438.526	3.67
438.882	3.68
439.237	3.69
439.593	3.69
439.948	3.67
440.304	3.67
440.659	3.68
441.014	3.69
441.369	3.68
441.725	3.69
442.08	3.68
442.435	3.67
442.79	3.67
443.145	3.69
443.5	3.67
443.855	3.65
444.21	3.65
444.565	3.67
444.92	3.67
445.275	3.67
445.629	3.67
445.984	3.66
446.339	3.65
446.693	3.63
447.048	3.62
447.403	3.62
447.757	3.61
448.112	3.6
448.466	3.6
448.82	3.58
449.175	3.58
449.529	3.57
449.883	3.57
450.238	3.58
450.592	3.58
450.946	3.58
451.3	3.58
451.654	3.57
452.008	3.55
452.362	3.56
452.716	3.53
453.07	3.52
453.424	3.51
453.778	3.51
454.132	3.52
454.486	3.51
454.839	3.52
455.193	3.52
455.547	3.51
455.9	3.51
456.254	3.53
456.607	3.54
456.961	3.54
457.314	3.54
457.668	3.55
458.021	3.52
458.375	3.54
458.728	3.54
459.081	3.54
459.434	3.55
459.787	3.53
460.141	3.54
460.494	3.54
460.847	3.56
461.2	3.56
461.553	3.56
461.906	3.57
462.259	3.59
462.611	3.6
462.964	3.63
463.317	3.65
463.67	3.65
464.022	3.65
464.375	3.66
464.728	3.65
465.08	3.67
465.433	3.68
465.785	3.68
466.138	3.7
466.49	3.73
466.843	3.75
467.195	3.77
467.547	3.78
467.899	3.79
468.252	3.79
468.604	3.81
468.956	3.81
469.308	3.82
469.66	3.77
470.012	3.77
470.364	3.78
470.716	3.78
471.068	3.77
471.42	3.77
471.772	3.79
472.123	3.8
472.475	3.78
472.827	3.8
473.178	3.79
473.53	3.79
473.882	3.78
474.233	3.79
474.585	3.79
474.936	3.79
475.288	3.78
475.639	3.79
475.99	3.8
476.342	3.8
476.693	3.82
477.044	3.85
477.395	3.86
477.746	3.84
478.097	3.83
478.448	3.84
478.8	3.81
479.15	3.8
479.501	3.8
479.852	3.79
480.203	3.78
480.554	3.78
480.905	3.77
481.255	3.78
481.606	3.78
481.957	3.77
482.307	3.77
482.658	3.77
483.009	3.76
483.359	3.76
483.709	3.76
484.06	3.76
484.41	3.76
484.761	3.76
485.111	3.76
485.461	3.77
485.811	3.76
486.162	3.77
486.512	3.77
486.862	3.78
487.212	3.78
487.562	3.78
487.912	3.78
488.262	3.78
488.612	3.79
488.961	3.79
489.311	3.79
489.661	3.8
490.011	3.81
490.36	3.81
490.71	3.82
491.06	3.82
491.409	3.82
491.759	3.82
492.108	3.83
492.458	3.84
492.807	3.84
493.157	3.85
493.506	3.86
493.855	3.87
494.204	3.87
494.554	3.88
494.903	3.88
495.252	3.89
495.601	3.93
495.95	3.94
496.299	3.94
496.648	3.94
496.997	3.95
497.346	3.97
497.695	3.99
498.043	4.01
498.392	4.03
498.741	4.04
499.09	4.05
499.438	4.06
499.787	4.07
500.135	4.09
500.484	4.11
500.832	4.13
501.181	4.15
501.529	4.19
501.878	4.25
502.226	4.28
502.574	4.31
502.923	4.32
503.271	4.34
503.619	4.37
503.967	4.42
504.315	4.43
504.663	4.45
505.011	4.48
505.359	4.52
505.707	4.54
506.055	4.57
506.403	4.63
506.751	4.66
507.098	4.69
507.446	4.74
507.794	4.76
508.141	4.81
508.489	4.86
508.837	4.9
509.184	4.93
509.531	4.97
509.879	5.02
510.226	5.06
510.574	5.1
510.921	5.14
511.268	5.16
511.616	5.21
511.963	5.27
512.31	5.32
512.657	5.37
513.004	5.42
513.351	5.5
513.698	5.54
514.045	5.6
514.392	5.66
514.739	5.72
515.086	5.78
515.432	5.81
515.779	5.86
516.126	5.92
516.473	5.98
516.819	6.01
517.166	6.05
517.512	6.1
517.859	6.15
518.205	6.19
518.552	6.26
518.898	6.3
519.245	6.33
519.591	6.37
519.937	6.4
520.283	6.46
520.629	6.52
520.976	6.56
521.322	6.59
521.668	6.64
522.014	6.69
522.36	6.76
522.706	6.83
523.052	6.92
523.398	7
523.743	7.07
524.089	7.18
524.435	7.27
524.781	7.35
525.126	7.44
525.472	7.51
525.817	7.57
526.163	7.64
526.509	7.71
526.854	7.78
527.199	7.85
527.545	7.91
527.89	7.97
528.235	8.06
528.581	8.14
528.926	8.22
529.271	8.3
529.616	8.38
529.961	8.47
530.306	8.54
530.651	8.62
530.996	8.71
531.341	8.8
531.686	8.91
532.031	9.02
532.376	9.12
532.721	9.25
533.065	9.38
533.41	9.51
533.755	9.64
534.099	9.77
534.444	9.92
534.788	10.06
535.133	10.21
535.477	10.33
535.822	10.49
536.166	10.65
536.51	10.79
536.855	10.97
537.199	11.16
537.543	11.36
537.887	11.57
538.231	11.78
538.576	12
538.92	12.2
539.264	12.38
539.608	12.6
539.951	12.78
540.295	12.97
540.639	13.15
540.983	13.33
541.327	13.51
541.671	13.69
542.014	13.86
542.358	14.06
542.701	14.25
543.045	14.44
543.389	14.62
543.732	14.85
544.075	15.07
544.419	15.28
544.762	15.5
545.105	15.74
545.449	15.99
545.792	16.24
546.135	16.52
546.478	16.84
546.821	17.13
547.165	17.43
547.508	17.74
547.851	18.06
548.194	18.38
548.536	18.73
548.879	19.08
549.222	19.39
549.565	19.72
549.908	20.06
550.25	20.42
550.593	20.77
550.936	21.11
551.278	21.44
551.621	21.84
551.963	22.21
552.306	22.54
552.648	22.88
552.991	23.24
553.333	23.55
553.675	23.88
554.017	24.2
554.36	24.51
554.702	24.8
555.044	25.11
555.386	25.43
555.728	25.72
556.07	26.06
556.412	26.44
556.754	26.75
557.096	27.08
557.438	27.38
557.78	27.73
558.121	28.13
558.463	28.5
558.805	28.83
559.147	29.17
559.488	29.53
559.83	29.85
560.171	30.14
560.513	30.46
560.854	30.76
561.196	31.1
561.537	31.46
561.878	31.8
562.22	32.11
562.561	32.38
562.902	32.72
563.243	32.96
563.584	33.27
563.925	33.56
564.266	33.83
564.607	34.1
564.948	34.36
565.289	34.56
565.63	34.81
565.971	35.06
566.312	35.29
566.653	35.53
566.993	35.81
567.334	36.07
567.675	36.32
568.015	36.59
568.356	36.85
568.696	37.12
569.037	37.39
569.377	37.69
569.718	37.99
570.058	38.26
570.398	38.53
570.739	38.76
571.079	38.98
571.419	39.21
571.759	39.5
572.099	39.74
572.439	40.01
572.779	40.21
573.119	40.44
573.459	40.66
573.799	40.88
574.139	41.01
574.479	41.23
574.819	41.43
575.158	41.66
575.498	41.85
575.838	42.05
576.177	42.18
576.517	42.39
576.856	42.54
577.196	42.69
577.535	42.9
577.875	43.16
578.214	43.36
578.553	43.62
578.893	43.79
579.232	44.05
579.571	44.28
579.91	44.51
580.25	44.67
580.589	44.88
580.928	45.05
581.267	45.36
581.606	45.55
581.945	45.71
582.283	45.86
582.622	46.04
582.961	46.2
583.3	46.43
583.639	46.52
583.977	46.69
584.316	46.83
584.654	47
584.993	47.04
585.332	47.29
585.67	47.4
586.008	47.54
586.347	47.65
586.685	47.7
587.024	47.83
587.362	48
587.7	48.08
588.038	48.18
588.376	48.28
588.715	48.37
589.053	48.53
589.391	48.67
589.729	48.79
590.067	48.88
590.404	48.97
590.742	49.1
591.08	49.27
591.418	49.49
591.756	49.67
592.093	49.83
592.431	49.97
592.769	50.13
593.106	50.16
593.444	50.23
593.781	50.4
594.119	50.58
594.456	50.67
594.793	50.81
595.131	50.94
595.468	51.05
595.805	51.16
596.143	51.25
596.48	51.32
596.817	51.36
597.154	51.48
597.491	51.54
597.828	51.68
598.165	51.74
598.502	51.77
598.839	51.78
599.176	51.85
599.512	51.91
599.849	52.02
600.186	52.21
600.523	52.29
600.859	52.42
601.196	52.49
601.532	52.59
601.869	52.69
602.205	52.79
602.542	52.85
602.878	52.92
603.215	53.02
603.551	53.16
603.887	53.25
604.223	53.33
604.56	53.39
604.896	53.34
605.232	53.45
605.568	53.51
605.904	53.59
606.24	53.7
606.576	53.72
606.912	53.75
607.248	53.84
607.583	53.9
607.919	53.91
608.255	53.94
608.591	54.03
608.926	54.06
609.262	54.16
609.597	54.3
609.933	54.36
610.268	54.44
610.604	54.47
610.939	54.53
611.275	54.59
611.61	54.73
611.945	54.91
612.281	54.92
612.616	55.04
612.951	55.09
613.286	55.18
613.621	55.3
613.956	55.39
614.291	55.47
614.626	55.54
614.961	55.62
615.296	55.73
615.631	55.81
615.966	55.91
616.3	55.95
616.635	55.91
616.97	55.97
617.304	55.95
617.639	55.98
617.973	56.07
618.308	56.05
618.642	56.12
618.977	56.12
619.311	56.29
619.646	56.4
619.98	56.54
620.314	56.49
620.648	56.56
620.983	56.62
621.317	56.68
621.651	56.82
621.985	56.83
622.319	56.87
622.653	56.94
622.987	57.06
623.321	57.17
623.655	57.27
623.988	57.39
624.322	57.56
624.656	57.57
624.99	57.73
625.323	57.81
625.657	57.79
625.99	57.94
626.324	57.83
626.657	57.84
626.991	57.93
627.324	58.08
627.658	58.1
627.991	58.19
628.324	58.27
628.657	58.34
628.991	58.44
629.324	58.49
629.657	58.59
629.99	58.63
630.323	58.64
630.656	58.74
630.989	58.83
631.322	58.78
631.655	58.79
631.987	58.74
632.32	58.84
632.653	59.03
632.986	59.06
633.318	59.24
633.651	59.36
633.984	59.34
634.316	59.35
634.649	59.4
634.981	59.34
635.313	59.39
635.646	59.47
635.978	59.63
636.31	59.66
636.643	59.61
636.975	59.65
637.307	59.63
637.639	59.58
637.971	59.57
638.303	59.77
638.635	59.9
638.967	59.99
639.299	60.06
639.631	60.03
639.963	60.13
640.295	60.2
640.626	60.18
640.958	60.26
641.29	60.29
641.621	60.31
641.953	60.33
642.285	60.39
642.616	60.39
642.948	60.33
643.279	60.43
643.61	60.46
643.942	60.5
644.273	60.61
644.604	60.71
644.936	60.7
645.267	60.59
645.598	60.66
645.929	60.65
646.26	60.67
646.591	60.7
646.922	60.63
647.253	60.62
647.584	60.65
647.915	60.53
648.245	60.67
648.576	60.78
648.907	60.84
649.238	60.88
649.568	60.89
649.899	61.01
650.229	60.99
650.56	61.07
650.89	61.11
651.221	61.24
651.551	61.27
651.882	61.44
652.212	61.51
652.542	61.51
652.872	61.6
653.203	61.59
653.533	61.54
653.863	61.64
654.193	61.68
654.523	61.68
654.853	61.96
655.183	61.97
655.513	62
655.843	62.1
656.172	62.09
656.502	62.24
656.832	62.16
657.162	62.19
657.491	62.29
657.821	62.32
658.15	62.19
658.48	62.25
658.809	62.28
659.139	62.29
659.468	62.44
659.798	62.44
660.127	62.53
660.456	62.62
660.785	62.6
661.115	62.59
661.444	62.61
661.773	62.57
662.102	62.48
662.431	62.54
662.76	62.66
663.089	62.74
663.418	62.63
663.747	62.64
664.076	62.77
664.404	62.71
664.733	62.76
665.062	62.8
665.39	62.86
665.719	62.88
666.048	62.95
666.376	62.93
666.705	62.93
667.033	62.94
667.362	63.06
667.69	63
