Data from BA28472_Reflection_00015.txt Node
Date: Mon Nov 18 15:24:50 EST 2019
User: vgr7
Spectrometer: USB2G7710
Scans to average: 3
Trigger mode: 4
Integration Time (sec): 2.000000E-2
Electric dark correction enabled: true
Boxcar width: 10
XAxis mode: Wavelengths
Number of Pixels in Spectrum: 2048
>>>>>Begin Spectral Data<<<<<
177.721	-91.61
178.105	-34.19
178.488	-29.5
178.871	-36.11
179.254	-1.03
179.636	-68.22
180.019	-3172.73
180.402	96.15
180.785	-65.14
181.168	237.76
181.55	-331.14
181.933	171.35
182.316	116.38
182.698	51.17
183.081	47.83
183.463	48.82
183.846	34.3
184.228	21.02
184.611	14.71
184.993	-13.8
185.376	-12.66
185.758	-23.55
186.14	-22.72
186.522	-44.67
186.904	-32.99
187.287	-20.82
187.669	-30.71
188.051	-17.58
188.433	-45.19
188.815	-64.5
189.197	-60.95
189.579	-54.84
189.961	-110.85
190.342	-94.08
190.724	-211.85
191.106	-185.26
191.488	-346.65
191.869	261.58
192.251	77.76
192.633	48.46
193.014	100
193.396	85.17
193.777	82.02
194.159	145.11
194.54	86.91
194.922	129.19
195.303	126.69
195.684	125.75
196.065	165.89
196.447	96.91
196.828	54.52
197.209	93.97
197.59	126.72
197.971	89.89
198.352	112.96
198.733	139.64
199.114	158.25
199.495	167.04
199.876	231.11
200.257	453.26
200.638	391.89
201.018	289.85
201.399	301.78
201.78	189.93
202.16	137.79
202.541	169
202.922	152.11
203.302	127.19
203.683	116.48
204.063	84.94
204.444	104.73
204.824	204.76
205.204	184.63
205.585	183.11
205.965	214.46
206.345	192.43
206.725	285.64
207.106	183.41
207.486	131.94
207.866	122.34
208.246	87.9
208.626	94.18
209.006	122.75
209.386	93.78
209.766	148.62
210.145	254.34
210.525	232.68
210.905	213.21
211.285	405.45
211.664	300.51
212.044	-614.89
212.424	1410.92
212.803	204.5
213.183	235.79
213.562	632.02
213.942	-2365.75
214.321	373.42
214.701	404.48
215.08	313.7
215.459	250.81
215.838	213.98
216.218	75.59
216.597	90.25
216.976	79.85
217.355	86.92
217.734	76.6
218.113	124.32
218.492	132.91
218.871	123.12
219.25	65.5
219.629	41.69
220.008	74.2
220.387	71.66
220.766	84.33
221.144	23.67
221.523	17.75
221.902	12.72
222.28	22.83
222.659	20.06
223.037	38
223.416	38.14
223.794	26.44
224.173	48.15
224.551	44.71
224.929	38.86
225.308	43.77
225.686	46.16
226.064	32.07
226.442	24.02
226.821	26.37
227.199	33.24
227.577	32.9
227.955	23.7
228.333	22.69
228.711	18.96
229.089	27.01
229.467	25.4
229.845	20.34
230.222	16.81
230.6	14.47
230.978	12.51
231.356	13.03
231.733	11.45
232.111	11.64
232.488	11.08
232.866	10.55
233.243	8.67
233.621	6.99
233.998	8.01
234.376	6.17
234.753	6.4
235.13	7.07
235.508	8.72
235.885	10.2
236.262	8.05
236.639	8.62
237.016	6.54
237.393	8.49
237.77	8.34
238.147	8.84
238.524	8.41
238.901	8.85
239.278	8.74
239.655	9.48
240.032	8.73
240.409	7.66
240.785	7.49
241.162	8.22
241.539	7.71
241.915	7.78
242.292	7.44
242.668	6.99
243.045	6.55
243.421	6.31
243.798	6.11
244.174	6.19
244.551	6.02
244.927	5.79
245.303	5.65
245.679	5.77
246.056	5.7
246.432	5.88
246.808	5.82
247.184	5.39
247.56	5.2
247.936	5.13
248.312	5.25
248.688	5.24
249.064	5.01
249.44	5.15
249.815	5.01
250.191	5.17
250.567	5.23
250.943	5.06
251.318	5
251.694	5.01
252.069	5.17
252.445	5.2
252.82	5.31
253.196	5.25
253.571	5.3
253.947	5.47
254.322	5.33
254.697	5.14
255.073	5.2
255.448	4.91
255.823	4.87
256.198	4.69
256.573	4.75
256.948	4.76
257.323	4.68
257.698	4.46
258.073	4.43
258.448	4.51
258.823	4.44
259.198	4.27
259.573	4.23
259.948	4.13
260.322	4.11
260.697	4.11
261.072	4.03
261.446	3.98
261.821	4.01
262.195	4.12
262.57	4.2
262.944	4.3
263.319	4.33
263.693	4.3
264.067	4.44
264.442	4.23
264.816	4.17
265.19	4.02
265.564	4.16
265.938	4.11
266.313	3.82
266.687	3.79
267.061	4.09
267.435	4.16
267.809	4.39
268.183	4.47
268.556	4.52
268.93	4.49
269.304	4.43
269.678	4.4
270.051	4.35
270.425	4.35
270.799	4.36
271.172	4.42
271.546	4.47
271.919	4.31
272.293	4.36
272.666	4.41
273.04	4.47
273.413	4.45
273.787	4.41
274.16	4.5
274.533	4.56
274.906	4.4
275.279	4.41
275.653	4.15
276.026	4.1
276.399	3.9
276.772	4.07
277.145	4.07
277.518	4.04
277.891	3.99
278.263	3.98
278.636	4.06
279.009	4.14
279.382	4.21
279.755	4.24
280.127	4.5
280.5	4.6
280.872	4.82
281.245	4.78
281.617	4.92
281.99	4.92
282.362	4.75
282.735	4.78
283.107	4.66
283.479	4.77
283.852	4.66
284.224	4.68
284.596	4.67
284.968	4.8
285.34	4.83
285.713	4.83
286.085	4.87
286.457	5.01
286.829	4.98
287.201	4.94
287.572	4.91
287.944	4.83
288.316	4.79
288.688	4.64
289.06	4.71
289.431	4.7
289.803	4.84
290.175	4.97
290.546	5.09
290.918	5.3
291.289	5.3
291.661	5.55
292.032	5.79
292.403	5.89
292.775	5.88
293.146	5.71
293.517	5.72
293.889	5.86
294.26	5.69
294.631	5.75
295.002	5.79
295.373	5.96
295.744	5.99
296.115	5.95
296.486	5.95
296.857	5.94
297.228	5.93
297.599	5.81
297.97	5.92
298.34	5.89
298.711	5.95
299.082	5.94
299.452	5.95
299.823	5.88
300.194	5.85
300.564	5.71
300.935	5.91
301.305	6
301.676	5.94
302.046	5.97
302.416	6.11
302.787	6.21
303.157	6.25
303.527	6.25
303.897	6.43
304.267	6.59
304.637	6.61
305.008	6.67
305.378	6.81
305.748	6.89
306.117	6.84
306.487	6.89
306.857	7.04
307.227	6.88
307.597	6.9
307.967	6.82
308.336	6.94
308.706	6.95
309.076	7.01
309.445	6.95
309.815	6.99
310.184	6.84
310.554	6.94
310.923	6.85
311.293	6.95
311.662	6.91
312.031	6.86
312.401	7
312.77	7.12
313.139	7.18
313.508	7.17
313.877	7.23
314.246	7.15
314.616	7.21
314.985	7.4
315.353	7.45
315.722	7.61
316.091	7.78
316.46	7.89
316.829	8.04
317.198	8.22
317.567	8.17
317.935	8.27
318.304	8.28
318.672	8.26
319.041	8.36
319.41	8.4
319.778	8.55
320.147	8.45
320.515	8.46
320.883	8.56
321.252	8.62
321.62	8.72
321.988	8.8
322.357	8.7
322.725	8.78
323.093	8.93
323.461	9.03
323.829	9.19
324.197	9.14
324.565	9.08
324.933	9.04
325.301	9.2
325.669	9.23
326.037	9.15
326.405	9.27
326.772	9.28
327.14	9.36
327.508	9.38
327.875	9.4
328.243	9.51
328.61	9.48
328.978	9.43
329.346	9.53
329.713	9.44
330.08	9.53
330.448	9.42
330.815	9.29
331.182	9.1
331.55	9.08
331.917	9.18
332.284	9.19
332.651	9.18
333.018	9.23
333.385	9.24
333.752	9.39
334.119	9.46
334.486	9.47
334.853	9.4
335.22	9.38
335.587	9.55
335.954	9.5
336.32	9.48
336.687	9.57
337.054	9.62
337.42	9.78
337.787	9.88
338.153	9.93
338.52	10.02
338.886	10.2
339.253	10.11
339.619	10.02
339.986	9.99
340.352	10.09
340.718	10.13
341.084	10.27
341.451	10.23
341.817	10.23
342.183	10.16
342.549	10.17
342.915	10.29
343.281	10.2
343.647	10.17
344.013	10.29
344.379	10.33
344.745	10.23
345.11	10.24
345.476	10.19
345.842	10.17
346.208	10.19
346.573	10.19
346.939	10.29
347.304	10.39
347.67	10.4
348.035	10.25
348.401	10.3
348.766	10.32
349.132	10.23
349.497	10.24
349.862	10.34
350.228	10.4
350.593	10.39
350.958	10.41
351.323	10.49
351.688	10.4
352.053	10.31
352.418	10.4
352.783	10.35
353.148	10.28
353.513	10.3
353.878	10.33
354.243	10.32
354.608	10.34
354.972	10.3
355.337	10.39
355.702	10.49
356.066	10.46
356.431	10.39
356.795	10.46
357.16	10.46
357.524	10.34
357.889	10.36
358.253	10.3
358.618	10.33
358.982	10.29
359.346	10.23
359.71	10.26
360.075	10.2
360.439	10.25
360.803	10.25
361.167	10.2
361.531	10.12
361.895	10.11
362.259	10.05
362.623	10
362.987	9.95
363.351	9.98
363.714	9.92
364.078	9.87
364.442	9.82
364.806	9.79
365.169	9.85
365.533	9.75
365.896	9.73
366.26	9.72
366.623	9.63
366.987	9.63
367.35	9.59
367.714	9.54
368.077	9.46
368.44	9.44
368.803	9.43
369.167	9.42
369.53	9.32
369.893	9.28
370.256	9.24
370.619	9.15
370.982	8.99
371.345	8.97
371.708	8.94
372.071	8.93
372.434	8.83
372.797	8.73
373.159	8.66
373.522	8.67
373.885	8.64
374.247	8.65
374.61	8.61
374.973	8.52
375.335	8.47
375.698	8.46
376.06	8.4
376.423	8.33
376.785	8.28
377.147	8.26
377.51	8.16
377.872	8.2
378.234	8.15
378.596	8.15
378.958	8.06
379.321	8
379.683	7.93
380.045	7.94
380.407	7.93
380.769	7.88
381.13	7.74
381.492	7.61
381.854	7.53
382.216	7.46
382.578	7.44
382.939	7.36
383.301	7.25
383.663	7.19
384.024	7.16
384.386	7.17
384.747	7.09
385.109	7.05
385.47	6.93
385.832	6.88
386.193	6.84
386.554	6.78
386.916	6.71
387.277	6.7
387.638	6.69
387.999	6.66
388.36	6.63
388.721	6.61
389.082	6.61
389.443	6.56
389.804	6.57
390.165	6.49
390.526	6.51
390.887	6.46
391.248	6.48
391.609	6.46
391.969	6.38
392.33	6.35
392.691	6.32
393.051	6.31
393.412	6.26
393.772	6.2
394.133	6.2
394.493	6.18
394.854	6.11
395.214	6
395.574	5.92
395.935	5.87
396.295	5.84
396.655	5.77
397.015	5.73
397.376	5.7
397.736	5.69
398.096	5.64
398.456	5.63
398.816	5.55
399.176	5.48
399.535	5.43
399.895	5.4
400.255	5.39
400.615	5.38
400.975	5.35
401.334	5.35
401.694	5.3
402.054	5.28
402.413	5.26
402.773	5.25
403.132	5.21
403.492	5.22
403.851	5.19
404.211	5.17
404.57	5.16
404.929	5.12
405.288	5.08
405.648	5.05
406.007	4.99
406.366	4.98
406.725	4.99
407.084	5
407.443	4.96
407.802	4.95
408.161	4.9
408.52	4.88
408.879	4.81
409.238	4.8
409.596	4.76
409.955	4.74
410.314	4.74
410.673	4.74
411.031	4.72
411.39	4.71
411.748	4.7
412.107	4.7
412.465	4.68
412.824	4.68
413.182	4.67
413.54	4.67
413.899	4.65
414.257	4.6
414.615	4.57
414.974	4.55
415.332	4.51
415.69	4.49
416.048	4.47
416.406	4.46
416.764	4.42
417.122	4.43
417.48	4.41
417.838	4.39
418.195	4.36
418.553	4.35
418.911	4.33
419.269	4.3
419.626	4.28
419.984	4.26
420.342	4.24
420.699	4.21
421.057	4.21
421.414	4.17
421.772	4.17
422.129	4.15
422.486	4.13
422.844	4.11
423.201	4.08
423.558	4.06
423.915	4.07
424.273	4.07
424.63	4.03
424.987	4.01
425.344	4
425.701	3.99
426.058	3.97
426.415	3.94
426.772	3.94
427.128	3.93
427.485	3.91
427.842	3.88
428.199	3.88
428.555	3.87
428.912	3.87
429.269	3.87
429.625	3.87
429.982	3.86
430.338	3.84
430.695	3.85
431.051	3.86
431.407	3.84
431.764	3.82
432.12	3.82
432.476	3.82
432.832	3.81
433.189	3.82
433.545	3.8
433.901	3.79
434.257	3.78
434.613	3.8
434.969	3.78
435.325	3.79
435.681	3.77
436.036	3.76
436.392	3.75
436.748	3.73
437.104	3.71
437.459	3.71
437.815	3.74
438.171	3.75
438.526	3.75
438.882	3.73
439.237	3.74
439.593	3.76
439.948	3.76
440.304	3.75
440.659	3.75
441.014	3.75
441.369	3.74
441.725	3.74
442.08	3.74
442.435	3.74
442.79	3.73
443.145	3.74
443.5	3.73
443.855	3.73
444.21	3.71
444.565	3.71
444.92	3.72
445.275	3.7
445.629	3.68
445.984	3.68
446.339	3.7
446.693	3.68
447.048	3.66
447.403	3.66
447.757	3.64
448.112	3.63
448.466	3.62
448.82	3.62
449.175	3.61
449.529	3.6
449.883	3.59
450.238	3.58
450.592	3.57
450.946	3.56
451.3	3.55
451.654	3.55
452.008	3.55
452.362	3.5
452.716	3.49
453.07	3.48
453.424	3.48
453.778	3.44
454.132	3.42
454.486	3.42
454.839	3.42
455.193	3.43
455.547	3.42
455.9	3.42
456.254	3.42
456.607	3.41
456.961	3.42
457.314	3.43
457.668	3.43
458.021	3.42
458.375	3.41
458.728	3.4
459.081	3.4
459.434	3.41
459.787	3.44
460.141	3.43
460.494	3.46
460.847	3.46
461.2	3.47
461.553	3.49
461.906	3.5
462.259	3.51
462.611	3.51
462.964	3.53
463.317	3.54
463.67	3.55
464.022	3.59
464.375	3.57
464.728	3.57
465.08	3.57
465.433	3.6
465.785	3.62
466.138	3.66
466.49	3.67
466.843	3.68
467.195	3.69
467.547	3.72
467.899	3.71
468.252	3.73
468.604	3.74
468.956	3.75
469.308	3.75
469.66	3.74
470.012	3.76
470.364	3.78
470.716	3.79
471.068	3.8
471.42	3.79
471.772	3.81
472.123	3.83
472.475	3.84
472.827	3.86
473.178	3.89
473.53	3.87
473.882	3.91
474.233	3.92
474.585	3.89
474.936	3.89
475.288	3.89
475.639	3.9
475.99	3.91
476.342	3.92
476.693	3.92
477.044	3.94
477.395	3.94
477.746	3.91
478.097	3.91
478.448	3.91
478.8	3.91
479.15	3.91
479.501	3.91
479.852	3.91
480.203	3.89
480.554	3.87
480.905	3.87
481.255	3.86
481.606	3.85
481.957	3.85
482.307	3.84
482.658	3.82
483.009	3.81
483.359	3.8
483.709	3.79
484.06	3.79
484.41	3.79
484.761	3.78
485.111	3.78
485.461	3.78
485.811	3.77
486.162	3.76
486.512	3.75
486.862	3.74
487.212	3.73
487.562	3.74
487.912	3.72
488.262	3.72
488.612	3.71
488.961	3.71
489.311	3.72
489.661	3.72
490.011	3.73
490.36	3.74
490.71	3.74
491.06	3.74
491.409	3.75
491.759	3.75
492.108	3.75
492.458	3.77
492.807	3.78
493.157	3.79
493.506	3.8
493.855	3.84
494.204	3.84
494.554	3.88
494.903	3.89
495.252	3.94
495.601	3.96
495.95	4
496.299	4
496.648	4.02
496.997	4.04
497.346	4.09
497.695	4.12
498.043	4.15
498.392	4.18
498.741	4.22
499.09	4.25
499.438	4.31
499.787	4.35
500.135	4.41
500.484	4.48
500.832	4.54
501.181	4.58
501.529	4.64
501.878	4.67
502.226	4.74
502.574	4.79
502.923	4.85
503.271	4.91
503.619	5.01
503.967	5.09
504.315	5.16
504.663	5.22
505.011	5.31
505.359	5.4
505.707	5.49
506.055	5.57
506.403	5.67
506.751	5.74
507.098	5.81
507.446	5.89
507.794	5.94
508.141	6.02
508.489	6.11
508.837	6.21
509.184	6.31
509.531	6.41
509.879	6.51
510.226	6.63
510.574	6.72
510.921	6.82
511.268	6.9
511.616	7.02
511.963	7.14
512.31	7.24
512.657	7.34
513.004	7.47
513.351	7.58
513.698	7.69
514.045	7.79
514.392	7.92
514.739	8.05
515.086	8.21
515.432	8.33
515.779	8.44
516.126	8.55
516.473	8.67
516.819	8.79
517.166	8.91
517.512	9.02
517.859	9.13
518.205	9.25
518.552	9.37
518.898	9.46
519.245	9.57
519.591	9.67
519.937	9.78
520.283	9.86
520.629	10.03
520.976	10.17
521.322	10.33
521.668	10.49
522.014	10.64
522.36	10.8
522.706	10.99
523.052	11.16
523.398	11.36
523.743	11.54
524.089	11.73
524.435	11.92
524.781	12.09
525.126	12.27
525.472	12.41
525.817	12.54
526.163	12.68
526.509	12.82
526.854	12.93
527.199	13.04
527.545	13.16
527.89	13.27
528.235	13.37
528.581	13.48
528.926	13.59
529.271	13.72
529.616	13.85
529.961	13.95
530.306	14.09
530.651	14.22
530.996	14.37
531.341	14.52
531.686	14.68
532.031	14.83
532.376	14.98
532.721	15.16
533.065	15.35
533.41	15.53
533.755	15.72
534.099	15.94
534.444	16.15
534.788	16.36
535.133	16.53
535.477	16.76
535.822	16.99
536.166	17.24
536.51	17.46
536.855	17.72
537.199	18
537.543	18.29
537.887	18.57
538.231	18.86
538.576	19.13
538.92	19.38
539.264	19.65
539.608	19.9
539.951	20.13
540.295	20.35
540.639	20.57
540.983	20.77
541.327	20.99
541.671	21.2
542.014	21.4
542.358	21.64
542.701	21.85
543.045	22.06
543.389	22.28
543.732	22.5
544.075	22.71
544.419	22.98
544.762	23.19
545.105	23.43
545.449	23.65
545.792	23.93
546.135	24.21
546.478	24.49
546.821	24.8
547.165	25.1
547.508	25.42
547.851	25.74
548.194	26.06
548.536	26.38
548.879	26.67
549.222	27.02
549.565	27.32
549.908	27.62
550.25	27.92
550.593	28.21
550.936	28.52
551.278	28.81
551.621	29.06
551.963	29.38
552.306	29.67
552.648	30.05
552.991	30.31
553.333	30.64
553.675	30.97
554.017	31.25
554.36	31.53
554.702	31.82
555.044	32.1
555.386	32.35
555.728	32.65
556.07	32.99
556.412	33.28
556.754	33.54
557.096	33.81
557.438	34.13
557.78	34.49
558.121	34.76
558.463	35.04
558.805	35.31
559.147	35.57
559.488	35.84
559.83	36.03
560.171	36.33
560.513	36.53
560.854	36.75
561.196	36.96
561.537	37.23
561.878	37.43
562.22	37.64
562.561	37.86
562.902	38.03
563.243	38.19
563.584	38.38
563.925	38.59
564.266	38.77
564.607	38.97
564.948	39.1
565.289	39.33
565.63	39.52
565.971	39.71
566.312	39.92
566.653	40.1
566.993	40.25
567.334	40.43
567.675	40.61
568.015	40.79
568.356	41
568.696	41.2
569.037	41.35
569.377	41.57
569.718	41.73
570.058	41.89
570.398	42.08
570.739	42.23
571.079	42.38
571.419	42.55
571.759	42.67
572.099	42.8
572.439	42.93
572.779	43.08
573.119	43.21
573.459	43.35
573.799	43.51
574.139	43.64
574.479	43.74
574.819	43.9
575.158	43.98
575.498	44.08
575.838	44.16
576.177	44.31
576.517	44.41
576.856	44.57
577.196	44.73
577.535	44.84
577.875	45
578.214	45.12
578.553	45.25
578.893	45.4
579.232	45.56
579.571	45.72
579.91	45.83
580.25	45.98
580.589	46.05
580.928	46.18
581.267	46.34
581.606	46.51
581.945	46.67
582.283	46.87
582.622	47.01
582.961	47.19
583.3	47.33
583.639	47.43
583.977	47.51
584.316	47.62
584.654	47.64
584.993	47.72
585.332	47.85
585.67	47.96
586.008	48.04
586.347	48.16
586.685	48.2
587.024	48.27
587.362	48.38
587.7	48.54
588.038	48.6
588.376	48.67
588.715	48.74
589.053	48.72
589.391	48.81
589.729	48.87
590.067	48.91
590.404	48.97
590.742	49.03
591.08	49.12
591.418	49.14
591.756	49.23
592.093	49.42
592.431	49.49
592.769	49.52
593.106	49.52
593.444	49.56
593.781	49.66
594.119	49.81
594.456	49.82
594.793	49.85
595.131	49.85
595.468	49.87
595.805	49.96
596.143	50.04
596.48	50.05
596.817	50.08
597.154	50.13
597.491	50.16
597.828	50.23
598.165	50.28
598.502	50.35
598.839	50.53
599.176	50.45
599.512	50.44
599.849	50.55
600.186	50.76
600.523	50.91
600.859	50.91
601.196	50.84
601.532	50.96
601.869	50.97
602.205	51.08
602.542	51.17
602.878	51.17
603.215	51.17
603.551	51.21
603.887	51.26
604.223	51.27
604.56	51.29
604.896	51.3
605.232	51.33
605.568	51.36
605.904	51.36
606.24	51.51
606.576	51.62
606.912	51.58
607.248	51.56
607.583	51.49
607.919	51.58
608.255	51.65
608.591	51.69
608.926	51.76
609.262	51.8
609.597	51.88
609.933	51.93
610.268	52
610.604	52.04
610.939	52.08
611.275	52.15
611.61	52.25
611.945	52.3
612.281	52.38
612.616	52.45
612.951	52.54
613.286	52.55
613.621	52.6
613.956	52.71
614.291	52.75
614.626	52.88
614.961	52.92
615.296	53.02
615.631	53.1
615.966	53.21
616.3	53.26
616.635	53.25
616.97	53.29
617.304	53.36
617.639	53.49
617.973	53.59
618.308	53.61
618.642	53.58
618.977	53.61
619.311	53.63
619.646	53.62
619.98	53.55
620.314	53.53
620.648	53.52
620.983	53.58
621.317	53.59
621.651	53.53
621.985	53.53
622.319	53.5
622.653	53.44
622.987	53.46
623.321	53.45
623.655	53.43
623.988	53.42
624.322	53.38
624.656	53.3
624.99	53.33
625.323	53.4
625.657	53.38
625.99	53.39
626.324	53.38
626.657	53.43
626.991	53.5
627.324	53.54
627.658	53.59
627.991	53.65
628.324	53.7
628.657	53.69
628.991	53.71
629.324	53.74
629.657	53.75
629.99	53.71
630.323	53.78
630.656	53.99
630.989	53.98
631.322	54.05
631.655	54.07
631.987	54.05
632.32	54.04
632.653	54.17
632.986	54.22
633.318	54.27
633.651	54.17
633.984	54.16
634.316	54.24
634.649	54.28
634.981	54.27
635.313	54.28
635.646	54.38
635.978	54.41
636.31	54.41
636.643	54.45
636.975	54.56
637.307	54.48
637.639	54.31
637.971	54.41
638.303	54.33
638.635	54.46
638.967	54.53
639.299	54.59
639.631	54.6
639.963	54.63
640.295	54.66
640.626	54.85
640.958	54.83
641.29	54.74
641.621	54.68
641.953	54.64
642.285	54.65
642.616	54.67
642.948	54.73
643.279	54.81
643.61	54.83
643.942	54.83
644.273	54.85
644.604	54.99
644.936	54.89
645.267	54.94
645.598	54.87
645.929	54.77
646.26	54.76
646.591	54.76
646.922	54.67
647.253	54.68
647.584	54.58
647.915	54.67
648.245	54.72
648.576	54.85
648.907	54.89
649.238	54.84
649.568	54.89
649.899	54.84
650.229	54.9
650.56	55.02
650.89	54.95
651.221	55.1
651.551	55.14
651.882	55.27
652.212	55.32
652.542	55.34
652.872	55.34
653.203	55.31
653.533	55.39
653.863	55.51
654.193	55.46
654.523	55.53
654.853	55.55
655.183	55.62
655.513	55.63
655.843	55.64
656.172	55.73
656.502	55.57
656.832	55.62
657.162	55.62
657.491	55.59
657.821	55.67
658.15	55.58
658.48	55.47
658.809	55.41
659.139	55.47
659.468	55.49
659.798	55.63
660.127	55.61
660.456	55.61
660.785	55.57
661.115	55.66
661.444	55.67
661.773	55.69
662.102	55.64
662.431	55.54
662.76	55.72
663.089	55.71
663.418	55.89
663.747	55.9
664.076	55.81
664.404	55.71
664.733	55.64
665.062	55.63
665.39	55.75
665.719	55.69
666.048	55.68
666.376	55.67
