Data from BA28304_Reflection_00015.txt Node
Date: Mon Nov 18 15:36:34 EST 2019
User: vgr7
Spectrometer: USB2G7710
Scans to average: 3
Trigger mode: 4
Integration Time (sec): 2.000000E-2
Electric dark correction enabled: true
Boxcar width: 10
XAxis mode: Wavelengths
Number of Pixels in Spectrum: 2048
>>>>>Begin Spectral Data<<<<<
177.721	53.53
178.105	70.52
178.488	-5.51
178.871	129.7
179.254	12.02
179.636	25.43
180.019	-186.33
180.402	64.52
180.785	821.8
181.168	5537.5
181.55	-7311.76
181.933	260.89
182.316	277.95
182.698	297.28
183.081	464.4
183.463	8611.63
183.846	-1558.7
184.228	-930.16
184.611	6645.45
184.993	3973.42
185.376	-2703.74
185.758	-551.09
186.14	-337.56
186.522	-522.99
186.904	-2175.86
187.287	-1764.54
187.669	-524.83
188.051	-847.94
188.433	-726.95
188.815	-505.93
189.197	-375.15
189.579	-208.85
189.961	-173.91
190.342	-118.01
190.724	-77.63
191.106	-71.48
191.488	-68.51
191.869	-46.3
192.251	-49.67
192.633	-40.4
193.014	-46.47
193.396	-83.98
193.777	-106.58
194.159	-127.55
194.54	-93.61
194.922	-59.75
195.303	-65.75
195.684	-86.86
196.065	-63.36
196.447	-50.98
196.828	-57.03
197.209	-76.83
197.59	-97.1
197.971	-130.5
198.352	-103.13
198.733	-155.94
199.114	-147.18
199.495	-141.83
199.876	-146.28
200.257	-225.73
200.638	-206.46
201.018	-212.26
201.399	-120.68
201.78	-71.09
202.16	-77.85
202.541	-133.36
202.922	-449.37
203.302	-950.58
203.683	-308.9
204.063	294100
204.444	-645.18
204.824	-295.47
205.204	-153.1
205.585	-169.95
205.965	-167.14
206.345	-435.87
206.725	-336.36
207.106	-689.78
207.486	1552.91
207.866	-2189.02
208.246	-314.87
208.626	-397.34
209.006	-331.62
209.386	-754.68
209.766	-757.14
210.145	-433.45
210.525	-263.55
210.905	-199.87
211.285	-153.31
211.664	-143.71
212.044	-157.29
212.424	-154.63
212.803	-148.16
213.183	-194.44
213.562	-206.94
213.942	-197.72
214.321	-201.87
214.701	-310.22
215.08	-248.17
215.459	-196.23
215.838	-161.78
216.218	-192.62
216.597	-200.46
216.976	-116.8
217.355	-68.58
217.734	-64.82
218.113	-76.25
218.492	-94.94
218.871	-88.23
219.25	-84.75
219.629	-153.04
220.008	-91.32
220.387	-100.97
220.766	-79.1
221.144	-48.49
221.523	-22.17
221.902	-31.18
222.28	-23.02
222.659	-10.62
223.037	-22.26
223.416	-24.78
223.794	-18.09
224.173	-12.95
224.551	-12.63
224.929	-21.26
225.308	-19.38
225.686	-17.62
226.064	-13.4
226.442	-9.45
226.821	-7.51
227.199	-4.05
227.577	-1.69
227.955	-0.3
228.333	-0.08
228.711	-2.33
229.089	-4.84
229.467	-8.25
229.845	-5
230.222	-4.88
230.6	-3.62
230.978	-3.45
231.356	-1.32
231.733	-0.73
232.111	-1
232.488	-2.64
232.866	-1.91
233.243	-3.28
233.621	-4.49
233.998	-4.18
234.376	-4.11
234.753	-6.29
235.13	-6.73
235.508	-8.03
235.885	-7.9
236.262	-8.9
236.639	-9.02
237.016	-7.73
237.393	-5.06
237.77	-2.7
238.147	-0.63
238.524	-0.85
238.901	0.52
239.278	1.65
239.655	1.7
240.032	2.13
240.409	2.17
240.785	2.71
241.162	3.7
241.539	4.32
241.915	4.32
242.292	4.12
242.668	4.27
243.045	4.45
243.421	4.84
243.798	4.64
244.174	4.78
244.551	5.2
244.927	4.93
245.303	4.79
245.679	4.64
246.056	4.28
246.432	4.26
246.808	4.23
247.184	3.7
247.56	3.7
247.936	3.63
248.312	3.86
248.688	3.79
249.064	3.66
249.44	3.53
249.815	3.65
250.191	3.6
250.567	3.38
250.943	3.21
251.318	3.37
251.694	3.6
252.069	3.61
252.445	3.33
252.82	3.34
253.196	3.11
253.571	2.75
253.947	2.93
254.322	2.98
254.697	2.9
255.073	3.01
255.448	3.07
255.823	3.32
256.198	3.36
256.573	3.35
256.948	3.35
257.323	3.5
257.698	3.45
258.073	3.58
258.448	3.57
258.823	3.49
259.198	3.35
259.573	3.36
259.948	3.48
260.322	3.3
260.697	3.25
261.072	3.28
261.446	3.4
261.821	3.24
262.195	3.33
262.57	3.41
262.944	3.47
263.319	3.24
263.693	3.13
264.067	3.21
264.442	3.09
264.816	3.05
265.19	2.86
265.564	2.67
265.938	2.41
266.313	2.46
266.687	2.52
267.061	2.61
267.435	2.6
267.809	2.63
268.183	2.75
268.556	2.7
268.93	2.72
269.304	2.73
269.678	3.13
270.051	2.98
270.425	2.88
270.799	2.78
271.172	2.93
271.546	2.89
271.919	2.75
272.293	2.89
272.666	2.88
273.04	2.97
273.413	3.12
273.787	3.32
274.16	3.41
274.533	3.36
274.906	3.25
275.279	3.13
275.653	3.09
276.026	3.14
276.399	3.27
276.772	3.3
277.145	3.28
277.518	3.07
277.891	3.05
278.263	2.96
278.636	3.04
279.009	3.1
279.382	3.25
279.755	3.31
280.127	3.32
280.5	3.4
280.872	3.46
281.245	3.52
281.617	3.68
281.99	3.77
282.362	3.84
282.735	3.68
283.107	3.73
283.479	3.78
283.852	3.81
284.224	3.76
284.596	3.74
284.968	3.88
285.34	4
285.713	4.1
286.085	4.34
286.457	4.41
286.829	4.45
287.201	4.51
287.572	4.44
287.944	4.51
288.316	4.45
288.688	4.35
289.06	4.29
289.431	4.26
289.803	4.25
290.175	4.23
290.546	4.5
290.918	4.53
291.289	4.43
291.661	4.41
292.032	4.46
292.403	4.57
292.775	4.56
293.146	4.51
293.517	4.41
293.889	4.47
294.26	4.5
294.631	4.47
295.002	4.4
295.373	4.55
295.744	4.5
296.115	4.49
296.486	4.4
296.857	4.44
297.228	4.38
297.599	4.33
297.97	4.38
298.34	4.36
298.711	4.4
299.082	4.44
299.452	4.58
299.823	4.67
300.194	4.69
300.564	4.47
300.935	4.42
301.305	4.41
301.676	4.25
302.046	4.34
302.416	4.41
302.787	4.45
303.157	4.39
303.527	4.42
303.897	4.49
304.267	4.77
304.637	4.78
305.008	4.75
305.378	4.95
305.748	5.02
306.117	4.97
306.487	4.97
306.857	5.02
307.227	5.02
307.597	4.96
307.967	5
308.336	5.14
308.706	5.24
309.076	5.28
309.445	5.27
309.815	5.02
310.184	4.96
310.554	4.95
310.923	4.94
311.293	4.92
311.662	4.99
312.031	4.84
312.401	4.9
312.77	4.9
313.139	4.83
313.508	4.72
313.877	4.64
314.246	4.62
314.616	4.66
314.985	4.52
315.353	4.56
315.722	4.44
316.091	4.47
316.46	4.41
316.829	4.49
317.198	4.54
317.567	4.74
317.935	4.77
318.304	4.77
318.672	4.66
319.041	4.81
319.41	4.73
319.778	4.91
320.147	4.77
320.515	4.94
320.883	5
321.252	5.15
321.62	5.37
321.988	5.53
322.357	5.57
322.725	5.61
323.093	5.54
323.461	5.56
323.829	5.65
324.197	5.69
324.565	5.68
324.933	5.78
325.301	5.77
325.669	5.8
326.037	5.81
326.405	5.91
326.772	5.92
327.14	6.13
327.508	6.09
327.875	6.07
328.243	5.99
328.61	5.96
328.978	6.01
329.346	6.08
329.713	6.04
330.08	6.09
330.448	6.13
330.815	6.26
331.182	6.37
331.55	6.4
331.917	6.47
332.284	6.63
332.651	6.56
333.018	6.59
333.385	6.61
333.752	6.77
334.119	6.91
334.486	6.91
334.853	6.76
335.22	6.79
335.587	6.87
335.954	7.03
336.32	6.96
336.687	6.91
337.054	6.87
337.42	6.85
337.787	6.88
338.153	6.84
338.52	6.85
338.886	6.8
339.253	6.69
339.619	6.74
339.986	6.71
340.352	6.86
340.718	6.83
341.084	6.9
341.451	6.84
341.817	6.82
342.183	6.78
342.549	6.82
342.915	6.91
343.281	7.01
343.647	6.97
344.013	6.98
344.379	7
344.745	6.97
345.11	6.91
345.476	6.87
345.842	6.99
346.208	6.92
346.573	7.03
346.939	7.19
347.304	7.05
347.67	7.02
348.035	6.92
348.401	6.94
348.766	6.92
349.132	6.98
349.497	6.9
349.862	6.95
350.228	6.98
350.593	6.87
350.958	6.84
351.323	6.92
351.688	6.98
352.053	7.01
352.418	7.07
352.783	7.21
353.148	7.26
353.513	7.29
353.878	7.3
354.243	7.32
354.608	7.35
354.972	7.43
355.337	7.5
355.702	7.57
356.066	7.66
356.431	7.6
356.795	7.61
357.16	7.56
357.524	7.44
357.889	7.4
358.253	7.53
358.618	7.6
358.982	7.48
359.346	7.49
359.71	7.42
360.075	7.39
360.439	7.34
360.803	7.32
361.167	7.25
361.531	7.25
361.895	7.17
362.259	7.03
362.623	7.03
362.987	7.01
363.351	6.99
363.714	6.95
364.078	6.9
364.442	6.83
364.806	6.86
365.169	6.92
365.533	6.94
365.896	6.83
366.26	6.77
366.623	6.75
366.987	6.69
367.35	6.7
367.714	6.61
368.077	6.59
368.44	6.53
368.803	6.5
369.167	6.45
369.53	6.42
369.893	6.43
370.256	6.38
370.619	6.35
370.982	6.2
371.345	6.09
371.708	6.14
372.071	6.03
372.434	6.02
372.797	5.94
373.159	5.85
373.522	5.84
373.885	5.81
374.247	5.79
374.61	5.79
374.973	5.75
375.335	5.74
375.698	5.67
376.06	5.65
376.423	5.61
376.785	5.58
377.147	5.54
377.51	5.51
377.872	5.5
378.234	5.41
378.596	5.47
378.958	5.44
379.321	5.37
379.683	5.42
380.045	5.38
380.407	5.38
380.769	5.39
381.13	5.33
381.492	5.3
381.854	5.29
382.216	5.21
382.578	5.21
382.939	5.16
383.301	5.14
383.663	5.12
384.024	5.11
384.386	5.11
384.747	5.1
385.109	5.09
385.47	5.01
385.832	4.99
386.193	4.95
386.554	4.96
386.916	4.97
387.277	4.94
387.638	4.91
387.999	4.86
388.36	4.85
388.721	4.85
389.082	4.8
389.443	4.71
389.804	4.71
390.165	4.7
390.526	4.73
390.887	4.71
391.248	4.72
391.609	4.69
391.969	4.68
392.33	4.67
392.691	4.63
393.051	4.65
393.412	4.61
393.772	4.6
394.133	4.58
394.493	4.52
394.854	4.47
395.214	4.44
395.574	4.46
395.935	4.39
396.295	4.37
396.655	4.34
397.015	4.36
397.376	4.34
397.736	4.3
398.096	4.28
398.456	4.29
398.816	4.24
399.176	4.18
399.535	4.11
399.895	4.06
400.255	4.04
400.615	4.01
400.975	4.02
401.334	3.99
401.694	3.95
402.054	3.96
402.413	3.95
402.773	3.91
403.132	3.87
403.492	3.89
403.851	3.87
404.211	3.85
404.57	3.83
404.929	3.83
405.288	3.81
405.648	3.79
406.007	3.75
406.366	3.74
406.725	3.78
407.084	3.81
407.443	3.81
407.802	3.84
408.161	3.82
408.52	3.81
408.879	3.83
409.238	3.8
409.596	3.8
409.955	3.76
410.314	3.76
410.673	3.75
411.031	3.74
411.39	3.75
411.748	3.75
412.107	3.77
412.465	3.73
412.824	3.73
413.182	3.69
413.54	3.68
413.899	3.67
414.257	3.68
414.615	3.65
414.974	3.64
415.332	3.61
415.69	3.6
416.048	3.57
416.406	3.56
416.764	3.58
417.122	3.58
417.48	3.58
417.838	3.58
418.195	3.58
418.553	3.57
418.911	3.55
419.269	3.55
419.626	3.52
419.984	3.52
420.342	3.51
420.699	3.52
421.057	3.53
421.414	3.51
421.772	3.49
422.129	3.48
422.486	3.47
422.844	3.47
423.201	3.47
423.558	3.47
423.915	3.46
424.273	3.45
424.63	3.43
424.987	3.43
425.344	3.44
425.701	3.44
426.058	3.43
426.415	3.43
426.772	3.42
427.128	3.42
427.485	3.42
427.842	3.42
428.199	3.4
428.555	3.38
428.912	3.38
429.269	3.4
429.625	3.42
429.982	3.41
430.338	3.4
430.695	3.37
431.051	3.37
431.407	3.37
431.764	3.37
432.12	3.36
432.476	3.35
432.832	3.33
433.189	3.31
433.545	3.3
433.901	3.29
434.257	3.28
434.613	3.29
434.969	3.28
435.325	3.28
435.681	3.29
436.036	3.3
436.392	3.29
436.748	3.28
437.104	3.28
437.459	3.28
437.815	3.28
438.171	3.3
438.526	3.31
438.882	3.32
439.237	3.31
439.593	3.32
439.948	3.3
440.304	3.31
440.659	3.32
441.014	3.33
441.369	3.32
441.725	3.32
442.08	3.33
442.435	3.33
442.79	3.32
443.145	3.32
443.5	3.3
443.855	3.3
444.21	3.3
444.565	3.28
444.92	3.28
445.275	3.27
445.629	3.27
445.984	3.26
446.339	3.24
446.693	3.22
447.048	3.22
447.403	3.23
447.757	3.22
448.112	3.2
448.466	3.19
448.82	3.2
449.175	3.19
449.529	3.17
449.883	3.15
450.238	3.15
450.592	3.14
450.946	3.14
451.3	3.13
451.654	3.12
452.008	3.14
452.362	3.14
452.716	3.14
453.07	3.13
453.424	3.13
453.778	3.14
454.132	3.17
454.486	3.17
454.839	3.18
455.193	3.17
455.547	3.18
455.9	3.18
456.254	3.19
456.607	3.19
456.961	3.21
457.314	3.22
457.668	3.22
458.021	3.21
458.375	3.22
458.728	3.23
459.081	3.22
459.434	3.22
459.787	3.2
460.141	3.21
460.494	3.2
460.847	3.22
461.2	3.21
461.553	3.2
461.906	3.21
462.259	3.2
462.611	3.21
462.964	3.21
463.317	3.2
463.67	3.22
464.022	3.21
464.375	3.21
464.728	3.2
465.08	3.21
465.433	3.24
465.785	3.23
466.138	3.24
466.49	3.27
466.843	3.25
467.195	3.25
467.547	3.27
467.899	3.26
468.252	3.26
468.604	3.28
468.956	3.28
469.308	3.28
469.66	3.28
470.012	3.27
470.364	3.29
470.716	3.31
471.068	3.29
471.42	3.29
471.772	3.33
472.123	3.33
472.475	3.32
472.827	3.33
473.178	3.35
473.53	3.36
473.882	3.35
474.233	3.35
474.585	3.37
474.936	3.35
475.288	3.35
475.639	3.37
475.99	3.37
476.342	3.36
476.693	3.35
477.044	3.37
477.395	3.37
477.746	3.38
478.097	3.37
478.448	3.39
478.8	3.38
479.15	3.35
479.501	3.36
479.852	3.36
480.203	3.35
480.554	3.34
480.905	3.33
481.255	3.34
481.606	3.35
481.957	3.35
482.307	3.35
482.658	3.37
483.009	3.37
483.359	3.36
483.709	3.37
484.06	3.37
484.41	3.37
484.761	3.38
485.111	3.37
485.461	3.38
485.811	3.37
486.162	3.38
486.512	3.4
486.862	3.39
487.212	3.39
487.562	3.4
487.912	3.41
488.262	3.41
488.612	3.41
488.961	3.42
489.311	3.42
489.661	3.43
490.011	3.43
490.36	3.44
490.71	3.44
491.06	3.45
491.409	3.45
491.759	3.44
492.108	3.44
492.458	3.44
492.807	3.43
493.157	3.44
493.506	3.45
493.855	3.44
494.204	3.44
494.554	3.46
494.903	3.45
495.252	3.45
495.601	3.48
495.95	3.48
496.299	3.48
496.648	3.51
496.997	3.52
497.346	3.54
497.695	3.55
498.043	3.56
498.392	3.56
498.741	3.59
499.09	3.6
499.438	3.64
499.787	3.66
500.135	3.71
500.484	3.75
500.832	3.8
501.181	3.84
501.529	3.87
501.878	3.9
502.226	3.93
502.574	3.97
502.923	3.99
503.271	4.02
503.619	4.07
503.967	4.1
504.315	4.12
504.663	4.15
505.011	4.19
505.359	4.25
505.707	4.32
506.055	4.34
506.403	4.39
506.751	4.43
507.098	4.46
507.446	4.51
507.794	4.52
508.141	4.54
508.489	4.58
508.837	4.62
509.184	4.66
509.531	4.72
509.879	4.77
510.226	4.83
510.574	4.86
510.921	4.89
511.268	4.92
511.616	4.98
511.963	5.01
512.31	5.05
512.657	5.1
513.004	5.13
513.351	5.21
513.698	5.27
514.045	5.31
514.392	5.37
514.739	5.41
515.086	5.49
515.432	5.53
515.779	5.59
516.126	5.66
516.473	5.71
516.819	5.77
517.166	5.81
517.512	5.84
517.859	5.92
518.205	5.98
518.552	6.03
518.898	6.08
519.245	6.15
519.591	6.18
519.937	6.23
520.283	6.28
520.629	6.35
520.976	6.41
521.322	6.48
521.668	6.54
522.014	6.61
522.36	6.67
522.706	6.76
523.052	6.87
523.398	6.98
523.743	7.09
524.089	7.19
524.435	7.29
524.781	7.4
525.126	7.48
525.472	7.57
525.817	7.64
526.163	7.72
526.509	7.78
526.854	7.86
527.199	7.93
527.545	8
527.89	8.06
528.235	8.13
528.581	8.21
528.926	8.31
529.271	8.4
529.616	8.48
529.961	8.56
530.306	8.64
530.651	8.72
530.996	8.81
531.341	8.9
531.686	9
532.031	9.12
532.376	9.23
532.721	9.35
533.065	9.49
533.41	9.63
533.755	9.77
534.099	9.9
534.444	10.05
534.788	10.21
535.133	10.34
535.477	10.5
535.822	10.67
536.166	10.86
536.51	11.05
536.855	11.27
537.199	11.49
537.543	11.71
537.887	11.96
538.231	12.19
538.576	12.44
538.92	12.68
539.264	12.91
539.608	13.13
539.951	13.34
540.295	13.54
540.639	13.72
540.983	13.93
541.327	14.15
541.671	14.35
542.014	14.54
542.358	14.74
542.701	14.96
543.045	15.15
543.389	15.34
543.732	15.56
544.075	15.77
544.419	16
544.762	16.23
545.105	16.48
545.449	16.74
545.792	16.99
546.135	17.29
546.478	17.59
546.821	17.94
547.165	18.26
547.508	18.6
547.851	18.96
548.194	19.26
548.536	19.62
548.879	19.97
549.222	20.3
549.565	20.66
549.908	21
550.25	21.39
550.593	21.78
550.936	22.14
551.278	22.55
551.621	22.92
551.963	23.31
552.306	23.67
552.648	24.04
552.991	24.43
553.333	24.77
553.675	25.13
554.017	25.45
554.36	25.76
554.702	26.09
555.044	26.44
555.386	26.83
555.728	27.14
556.07	27.49
556.412	27.87
556.754	28.28
557.096	28.65
557.438	29.03
557.78	29.37
558.121	29.76
558.463	30.12
558.805	30.5
559.147	30.81
559.488	31.19
559.83	31.51
560.171	31.88
560.513	32.23
560.854	32.56
561.196	32.95
561.537	33.31
561.878	33.66
562.22	33.99
562.561	34.29
562.902	34.69
563.243	35.01
563.584	35.38
563.925	35.7
564.266	35.98
564.607	36.27
564.948	36.57
565.289	36.86
565.63	37.11
565.971	37.38
566.312	37.71
566.653	38.03
566.993	38.39
567.334	38.65
567.675	38.97
568.015	39.22
568.356	39.53
568.696	39.85
569.037	40.13
569.377	40.44
569.718	40.71
570.058	40.94
570.398	41.22
570.739	41.46
571.079	41.68
571.419	41.95
571.759	42.21
572.099	42.45
572.439	42.71
572.779	42.97
573.119	43.19
573.459	43.39
573.799	43.57
574.139	43.72
574.479	43.9
574.819	44.06
575.158	44.24
575.498	44.38
575.838	44.56
576.177	44.78
576.517	44.95
576.856	45.22
577.196	45.41
577.535	45.62
577.875	45.84
578.214	46.04
578.553	46.29
578.893	46.5
579.232	46.73
579.571	46.92
579.91	47.15
580.25	47.35
580.589	47.56
580.928	47.75
581.267	47.96
581.606	48.2
581.945	48.41
582.283	48.72
582.622	48.89
582.961	49.04
583.3	49.23
583.639	49.41
583.977	49.52
584.316	49.71
584.654	49.87
584.993	50.08
585.332	50.27
585.67	50.39
586.008	50.52
586.347	50.65
586.685	50.73
587.024	50.87
587.362	51.11
587.7	51.23
588.038	51.42
588.376	51.52
588.715	51.68
589.053	51.81
589.391	51.92
589.729	52.09
590.067	52.25
590.404	52.34
590.742	52.49
591.08	52.6
591.418	52.82
591.756	52.99
592.093	53.1
592.431	53.32
592.769	53.47
593.106	53.54
593.444	53.73
593.781	53.86
594.119	54.07
594.456	54.06
594.793	54.13
595.131	54.18
595.468	54.31
595.805	54.41
596.143	54.54
596.48	54.52
596.817	54.61
597.154	54.71
597.491	54.76
597.828	54.87
598.165	55
598.502	55.04
598.839	55.03
599.176	55.09
599.512	55.1
599.849	55.31
600.186	55.53
600.523	55.64
600.859	55.74
601.196	55.76
601.532	55.91
601.869	56.03
602.205	56.13
602.542	56.25
602.878	56.36
603.215	56.48
603.551	56.66
603.887	56.71
604.223	56.8
604.56	56.91
604.896	56.94
605.232	57.04
605.568	57.09
605.904	57.22
606.24	57.31
606.576	57.41
606.912	57.36
607.248	57.37
607.583	57.4
607.919	57.46
608.255	57.55
608.591	57.67
608.926	57.75
609.262	57.84
609.597	57.9
609.933	57.95
610.268	57.96
610.604	58
610.939	58.05
611.275	58.12
611.61	58.23
611.945	58.31
612.281	58.38
612.616	58.41
612.951	58.43
613.286	58.56
613.621	58.59
613.956	58.64
614.291	58.79
614.626	58.91
614.961	59.06
615.296	59.06
615.631	59.09
615.966	59.25
616.3	59.3
616.635	59.33
616.97	59.31
617.304	59.32
617.639	59.42
617.973	59.51
618.308	59.6
618.642	59.69
618.977	59.75
619.311	59.75
619.646	59.94
619.98	60.08
620.314	60.06
620.648	60.15
620.983	60.23
621.317	60.25
621.651	60.39
621.985	60.43
622.319	60.54
622.653	60.62
622.987	60.64
623.321	60.78
623.655	60.83
623.988	60.93
624.322	61.03
624.656	61.05
624.99	61.18
625.323	61.16
625.657	61.17
625.99	61.18
626.324	61.26
626.657	61.29
626.991	61.24
627.324	61.32
627.658	61.34
627.991	61.42
628.324	61.48
628.657	61.39
628.991	61.42
629.324	61.46
629.657	61.48
629.99	61.52
630.323	61.62
630.656	61.7
630.989	61.78
631.322	61.77
631.655	61.8
631.987	61.72
632.32	61.8
632.653	61.85
632.986	61.98
633.318	62.03
633.651	62.03
633.984	62.15
634.316	62.27
634.649	62.29
634.981	62.3
635.313	62.28
635.646	62.42
635.978	62.52
636.31	62.52
636.643	62.57
636.975	62.62
637.307	62.55
637.639	62.62
637.971	62.69
638.303	62.81
638.635	62.85
638.967	62.98
639.299	62.99
639.631	62.94
639.963	62.94
640.295	63.05
640.626	63.07
640.958	63.08
641.29	63.07
641.621	63.07
641.953	63.12
642.285	63.22
642.616	63.16
642.948	63.16
643.279	63.28
643.61	63.3
643.942	63.46
644.273	63.37
644.604	63.41
644.936	63.4
645.267	63.36
645.598	63.42
645.929	63.49
646.26	63.5
646.591	63.63
646.922	63.72
647.253	63.74
647.584	63.77
647.915	63.91
648.245	64.03
648.576	64.09
648.907	64.11
649.238	64.24
649.568	64.29
649.899	64.47
650.229	64.51
650.56	64.57
650.89	64.58
651.221	64.73
651.551	64.7
651.882	64.78
652.212	64.83
652.542	64.76
652.872	64.73
653.203	64.83
653.533	64.87
653.863	64.82
654.193	64.79
654.523	64.9
654.853	64.89
655.183	64.86
655.513	64.98
655.843	65.05
656.172	65.04
656.502	65.09
656.832	64.96
657.162	64.99
657.491	64.98
657.821	64.9
658.15	64.87
658.48	64.94
658.809	64.88
659.139	64.89
659.468	65.04
659.798	65.12
660.127	65.11
660.456	65.22
660.785	65.32
661.115	65.33
661.444	65.32
661.773	65.36
662.102	65.37
662.431	65.31
662.76	65.44
663.089	65.45
663.418	65.52
663.747	65.55
664.076	65.57
664.404	65.63
664.733	65.77
665.062	65.82
665.39	65.91
665.719	65.98
666.048	66.11
