Data from BA28416_Reflection_00002.txt Node
Date: Mon Nov 18 16:05:15 EST 2019
User: vgr7
Spectrometer: USB2G7710
Scans to average: 3
Trigger mode: 4
Integration Time (sec): 2.000000E-2
Electric dark correction enabled: true
Boxcar width: 10
XAxis mode: Wavelengths
Number of Pixels in Spectrum: 2048
>>>>>Begin Spectral Data<<<<<
177.721	1.51
178.105	1.48
178.488	-28.4
178.871	-124.14
179.254	-379.34
179.636	33.51
180.019	427.87
180.402	66.67
180.785	-18.57
181.168	2.41
181.55	56.93
181.933	94.99
182.316	82.36
182.698	73.22
183.081	83.51
183.463	91.4
183.846	73
184.228	66.99
184.611	39.71
184.993	44.03
185.376	38.56
185.758	52.71
186.14	29.92
186.522	37.78
186.904	42.55
187.287	60.84
187.669	25.11
188.051	31.94
188.433	8.27
188.815	18.11
189.197	8.9
189.579	-27.97
189.961	-63.89
190.342	-42.67
190.724	-80.02
191.106	-28.08
191.488	-39.45
191.869	-10.44
192.251	64.35
192.633	73.98
193.014	98.66
193.396	91.26
193.777	72.31
194.159	218.34
194.54	172.93
194.922	-108.06
195.303	-363.95
195.684	-575.9
196.065	-138.49
196.447	-230.39
196.828	-162.49
197.209	-115.64
197.59	-165.57
197.971	-254.57
198.352	-182.3
198.733	-227.12
199.114	-161.99
199.495	-124.43
199.876	-114.78
200.257	-63.81
200.638	-41.03
201.018	-37.97
201.399	-31.66
201.78	-30.25
202.16	-59.91
202.541	-96.05
202.922	-272.75
203.302	-203.46
203.683	-537.81
204.063	-740.13
204.444	-337.78
204.824	-600.77
205.204	-963.83
205.585	-411.88
205.965	-320.17
206.345	-272.69
206.725	-3572.73
207.106	485.15
207.486	234.18
207.866	264.85
208.246	151.67
208.626	144.11
209.006	251.49
209.386	258.53
209.766	332.92
210.145	229.94
210.525	153.84
210.905	117.72
211.285	125.07
211.664	257.28
212.044	198.11
212.424	162.21
212.803	72.58
213.183	55.2
213.562	46.02
213.942	48.08
214.321	26.5
214.701	14.87
215.08	21.72
215.459	2.4
215.838	-97.27
216.218	-545.96
216.597	-212.61
216.976	-519.2
217.355	-3900
217.734	-508.7
218.113	1728.87
218.492	677.08
218.871	201.43
219.25	269.71
219.629	295.62
220.008	289.74
220.387	195.14
220.766	105.31
221.144	41.47
221.523	0.76
221.902	6.29
222.28	1194.34
222.659	-82.82
223.037	-2.23
223.416	-23.89
223.794	-26.44
224.173	-30.41
224.551	-26.03
224.929	-27.06
225.308	-19.15
225.686	-19.56
226.064	-13.63
226.442	-7.7
226.821	-2.1
227.199	-6.19
227.577	-5.13
227.955	-6.5
228.333	-3.89
228.711	-2.12
229.089	5
229.467	6.03
229.845	5.37
230.222	2.98
230.6	3.51
230.978	2.24
231.356	3.77
231.733	2.16
232.111	2.77
232.488	2.17
232.866	2.85
233.243	3.07
233.621	4.25
233.998	5.28
234.376	4.87
234.753	3.76
235.13	5.23
235.508	6.27
235.885	7.43
236.262	5.85
236.639	4.81
237.016	4.37
237.393	5.38
237.77	6.03
238.147	7
238.524	6.42
238.901	6.41
239.278	5.57
239.655	6.15
240.032	5.95
240.409	5.73
240.785	5.41
241.162	5.33
241.539	4.56
241.915	4.45
242.292	4.24
242.668	4.51
243.045	4.07
243.421	4.12
243.798	3.99
244.174	3.97
244.551	4.38
244.927	4.25
245.303	4.39
245.679	4.23
246.056	4.1
246.432	3.95
246.808	4.04
247.184	3.97
247.56	3.93
247.936	3.81
248.312	3.95
248.688	3.83
249.064	3.69
249.44	3.68
249.815	3.49
250.191	3.51
250.567	3.4
250.943	3.46
251.318	3.47
251.694	3.58
252.069	3.48
252.445	3.36
252.82	3.31
253.196	2.9
253.571	2.93
253.947	3.12
254.322	3.17
254.697	2.96
255.073	2.91
255.448	2.69
255.823	2.77
256.198	2.76
256.573	3.16
256.948	3.35
257.323	3.63
257.698	3.91
258.073	3.94
258.448	4
258.823	4.07
259.198	3.8
259.573	3.64
259.948	3.51
260.322	3.37
260.697	3.41
261.072	3.43
261.446	3.24
261.821	3.04
262.195	3.18
262.57	3.33
262.944	3.45
263.319	3.33
263.693	3.21
264.067	3.28
264.442	3.18
264.816	3
265.19	2.9
265.564	2.73
265.938	2.49
266.313	2.52
266.687	2.39
267.061	2.68
267.435	2.71
267.809	2.95
268.183	2.97
268.556	2.97
268.93	3.1
269.304	3.37
269.678	3.49
270.051	3.41
270.425	3.39
270.799	3.34
271.172	3.45
271.546	3.52
271.919	3.41
272.293	3.33
272.666	3.48
273.04	3.61
273.413	3.62
273.787	3.63
274.16	3.33
274.533	3.44
274.906	3.32
275.279	3.36
275.653	3.27
276.026	3.23
276.399	3.23
276.772	3.24
277.145	3.07
277.518	3.07
277.891	3
278.263	2.91
278.636	2.9
279.009	2.93
279.382	3.09
279.755	2.93
280.127	2.93
280.5	2.88
280.872	2.88
281.245	2.87
281.617	3.03
281.99	3.28
282.362	3.28
282.735	3.26
283.107	3.15
283.479	3.24
283.852	3.26
284.224	3.24
284.596	3.15
284.968	3.22
285.34	3.2
285.713	3.21
286.085	3.15
286.457	3.2
286.829	3.23
287.201	3.2
287.572	3.29
287.944	3.39
288.316	3.43
288.688	3.39
289.06	3.43
289.431	3.37
289.803	3.36
290.175	3.4
290.546	3.54
290.918	3.69
291.289	3.65
291.661	3.7
292.032	3.73
292.403	3.94
292.775	4.03
293.146	4.03
293.517	4.07
293.889	4.16
294.26	4.14
294.631	4.1
295.002	4.03
295.373	3.99
295.744	3.9
296.115	3.96
296.486	3.91
296.857	3.94
297.228	4.03
297.599	3.92
297.97	3.82
298.34	3.8
298.711	3.76
299.082	3.67
299.452	3.67
299.823	3.71
300.194	3.5
300.564	3.51
300.935	3.52
301.305	3.57
301.676	3.58
302.046	3.6
302.416	3.66
302.787	3.8
303.157	3.88
303.527	3.96
303.897	3.96
304.267	4.13
304.637	4.17
305.008	4.13
305.378	4.28
305.748	4.47
306.117	4.47
306.487	4.48
306.857	4.64
307.227	4.67
307.597	4.63
307.967	4.72
308.336	4.7
308.706	4.66
309.076	4.6
309.445	4.56
309.815	4.53
310.184	4.45
310.554	4.32
310.923	4.32
311.293	4.35
311.662	4.28
312.031	4.19
312.401	4.05
312.77	4.07
313.139	4.02
313.508	3.91
313.877	3.82
314.246	3.84
314.616	3.72
314.985	3.68
315.353	3.55
315.722	3.57
316.091	3.46
316.46	3.49
316.829	3.5
317.198	3.53
317.567	3.55
317.935	3.66
318.304	3.69
318.672	3.68
319.041	3.73
319.41	3.77
319.778	3.75
320.147	3.82
320.515	3.71
320.883	3.58
321.252	3.5
321.62	3.53
321.988	3.43
322.357	3.56
322.725	3.63
323.093	3.82
323.461	3.72
323.829	3.79
324.197	3.8
324.565	3.86
324.933	3.95
325.301	3.82
325.669	3.78
326.037	3.75
326.405	3.81
326.772	3.79
327.14	3.83
327.508	3.84
327.875	3.7
328.243	3.82
328.61	4
328.978	4.1
329.346	4.14
329.713	4.14
330.08	4.03
330.448	3.95
330.815	3.73
331.182	3.86
331.55	3.74
331.917	3.77
332.284	3.8
332.651	3.76
333.018	3.87
333.385	3.84
333.752	3.92
334.119	3.87
334.486	3.8
334.853	3.78
335.22	3.78
335.587	3.89
335.954	3.88
336.32	3.88
336.687	3.96
337.054	3.94
337.42	3.92
337.787	3.97
338.153	4.06
338.52	4.22
338.886	4.09
339.253	4.18
339.619	4.21
339.986	4.13
340.352	4.05
340.718	3.93
341.084	3.97
341.451	3.96
341.817	4.05
342.183	4.03
342.549	4.01
342.915	4.13
343.281	4.25
343.647	4.25
344.013	4.33
344.379	4.25
344.745	4.29
345.11	4.38
345.476	4.4
345.842	4.36
346.208	4.33
346.573	4.41
346.939	4.46
347.304	4.39
347.67	4.33
348.035	4.38
348.401	4.57
348.766	4.57
349.132	4.58
349.497	4.5
349.862	4.47
350.228	4.5
350.593	4.4
350.958	4.3
351.323	4.33
351.688	4.29
352.053	4.23
352.418	4.21
352.783	4.18
353.148	4.15
353.513	4.09
353.878	4.07
354.243	4.1
354.608	4.1
354.972	4.12
355.337	4.21
355.702	4.24
356.066	4.24
356.431	4.18
356.795	4.19
357.16	4.19
357.524	4.18
357.889	4.12
358.253	4.14
358.618	4.17
358.982	4.1
359.346	3.99
359.71	4.02
360.075	4
360.439	3.99
360.803	4.04
361.167	4.05
361.531	4.06
361.895	3.97
362.259	3.93
362.623	3.99
362.987	3.96
363.351	3.98
363.714	3.98
364.078	4.02
364.442	3.96
364.806	3.94
365.169	3.96
365.533	3.97
365.896	3.93
366.26	3.94
366.623	3.96
366.987	4.04
367.35	4.06
367.714	4.07
368.077	4.12
368.44	4.12
368.803	4.13
369.167	4.13
369.53	4.21
369.893	4.19
370.256	4.15
370.619	4.1
370.982	4.06
371.345	4.02
371.708	4.04
372.071	4.08
372.434	4.08
372.797	4.1
373.159	4.09
373.522	4.14
373.885	4.14
374.247	4.17
374.61	4.24
374.973	4.32
375.335	4.31
375.698	4.27
376.06	4.19
376.423	4.25
376.785	4.26
377.147	4.3
377.51	4.32
377.872	4.36
378.234	4.43
378.596	4.43
378.958	4.42
379.321	4.41
379.683	4.44
380.045	4.51
380.407	4.45
380.769	4.49
381.13	4.46
381.492	4.48
381.854	4.48
382.216	4.42
382.578	4.34
382.939	4.34
383.301	4.3
383.663	4.35
384.024	4.32
384.386	4.35
384.747	4.38
385.109	4.42
385.47	4.36
385.832	4.36
386.193	4.36
386.554	4.37
386.916	4.35
387.277	4.35
387.638	4.32
387.999	4.34
388.36	4.31
388.721	4.32
389.082	4.33
389.443	4.34
389.804	4.3
390.165	4.31
390.526	4.33
390.887	4.35
391.248	4.36
391.609	4.34
391.969	4.34
392.33	4.28
392.691	4.26
393.051	4.26
393.412	4.27
393.772	4.26
394.133	4.27
394.493	4.27
394.854	4.25
395.214	4.24
395.574	4.27
395.935	4.3
396.295	4.33
396.655	4.28
397.015	4.29
397.376	4.33
397.736	4.33
398.096	4.31
398.456	4.34
398.816	4.36
399.176	4.34
399.535	4.33
399.895	4.35
400.255	4.31
400.615	4.33
400.975	4.3
401.334	4.34
401.694	4.34
402.054	4.35
402.413	4.35
402.773	4.33
403.132	4.3
403.492	4.25
403.851	4.2
404.211	4.23
404.57	4.2
404.929	4.22
405.288	4.25
405.648	4.24
406.007	4.23
406.366	4.19
406.725	4.24
407.084	4.26
407.443	4.27
407.802	4.29
408.161	4.27
408.52	4.26
408.879	4.22
409.238	4.24
409.596	4.22
409.955	4.22
410.314	4.25
410.673	4.27
411.031	4.28
411.39	4.3
411.748	4.3
412.107	4.31
412.465	4.28
412.824	4.23
413.182	4.24
413.54	4.24
413.899	4.27
414.257	4.26
414.615	4.25
414.974	4.23
415.332	4.22
415.69	4.22
416.048	4.23
416.406	4.24
416.764	4.24
417.122	4.25
417.48	4.26
417.838	4.27
418.195	4.27
418.553	4.27
418.911	4.27
419.269	4.28
419.626	4.28
419.984	4.28
420.342	4.3
420.699	4.31
421.057	4.3
421.414	4.3
421.772	4.29
422.129	4.29
422.486	4.28
422.844	4.29
423.201	4.3
423.558	4.3
423.915	4.3
424.273	4.28
424.63	4.28
424.987	4.27
425.344	4.27
425.701	4.27
426.058	4.27
426.415	4.28
426.772	4.26
427.128	4.26
427.485	4.25
427.842	4.24
428.199	4.25
428.555	4.28
428.912	4.27
429.269	4.29
429.625	4.29
429.982	4.3
430.338	4.31
430.695	4.33
431.051	4.31
431.407	4.3
431.764	4.31
432.12	4.31
432.476	4.32
432.832	4.31
433.189	4.32
433.545	4.33
433.901	4.33
434.257	4.34
434.613	4.34
434.969	4.36
435.325	4.35
435.681	4.36
436.036	4.32
436.392	4.34
436.748	4.34
437.104	4.34
437.459	4.34
437.815	4.32
438.171	4.3
438.526	4.33
438.882	4.33
439.237	4.34
439.593	4.34
439.948	4.34
440.304	4.33
440.659	4.34
441.014	4.32
441.369	4.31
441.725	4.31
442.08	4.32
442.435	4.32
442.79	4.33
443.145	4.31
443.5	4.34
443.855	4.32
444.21	4.32
444.565	4.32
444.92	4.32
445.275	4.33
445.629	4.35
445.984	4.35
446.339	4.35
446.693	4.34
447.048	4.35
447.403	4.35
447.757	4.35
448.112	4.34
448.466	4.35
448.82	4.35
449.175	4.35
449.529	4.34
449.883	4.34
450.238	4.33
450.592	4.35
450.946	4.34
451.3	4.33
451.654	4.33
452.008	4.34
452.362	4.34
452.716	4.33
453.07	4.33
453.424	4.32
453.778	4.32
454.132	4.33
454.486	4.33
454.839	4.33
455.193	4.32
455.547	4.32
455.9	4.34
456.254	4.33
456.607	4.35
456.961	4.36
457.314	4.35
457.668	4.37
458.021	4.36
458.375	4.34
458.728	4.36
459.081	4.36
459.434	4.36
459.787	4.37
460.141	4.36
460.494	4.36
460.847	4.36
461.2	4.36
461.553	4.36
461.906	4.37
462.259	4.38
462.611	4.42
462.964	4.43
463.317	4.42
463.67	4.42
464.022	4.4
464.375	4.38
464.728	4.4
465.08	4.39
465.433	4.38
465.785	4.4
466.138	4.39
466.49	4.39
466.843	4.38
467.195	4.38
467.547	4.41
467.899	4.4
468.252	4.39
468.604	4.38
468.956	4.38
469.308	4.37
469.66	4.35
470.012	4.35
470.364	4.36
470.716	4.36
471.068	4.37
471.42	4.37
471.772	4.4
472.123	4.4
472.475	4.4
472.827	4.42
473.178	4.42
473.53	4.42
473.882	4.41
474.233	4.43
474.585	4.42
474.936	4.39
475.288	4.4
475.639	4.43
475.99	4.45
476.342	4.47
476.693	4.47
477.044	4.49
477.395	4.48
477.746	4.46
478.097	4.47
478.448	4.47
478.8	4.48
479.15	4.47
479.501	4.48
479.852	4.47
480.203	4.47
480.554	4.49
480.905	4.49
481.255	4.51
481.606	4.51
481.957	4.52
482.307	4.53
482.658	4.54
483.009	4.54
483.359	4.55
483.709	4.55
484.06	4.56
484.41	4.57
484.761	4.57
485.111	4.58
485.461	4.59
485.811	4.6
486.162	4.6
486.512	4.6
486.862	4.6
487.212	4.61
487.562	4.61
487.912	4.6
488.262	4.61
488.612	4.6
488.961	4.61
489.311	4.62
489.661	4.63
490.011	4.62
490.36	4.62
490.71	4.61
491.06	4.61
491.409	4.6
491.759	4.6
492.108	4.6
492.458	4.59
492.807	4.57
493.157	4.57
493.506	4.59
493.855	4.6
494.204	4.6
494.554	4.61
494.903	4.61
495.252	4.6
495.601	4.61
495.95	4.63
496.299	4.62
496.648	4.62
496.997	4.63
497.346	4.65
497.695	4.66
498.043	4.67
498.392	4.69
498.741	4.7
499.09	4.69
499.438	4.71
499.787	4.71
500.135	4.72
500.484	4.72
500.832	4.71
501.181	4.7
501.529	4.72
501.878	4.73
502.226	4.73
502.574	4.75
502.923	4.74
503.271	4.74
503.619	4.75
503.967	4.76
504.315	4.76
504.663	4.76
505.011	4.75
505.359	4.76
505.707	4.76
506.055	4.75
506.403	4.75
506.751	4.73
507.098	4.7
507.446	4.71
507.794	4.73
508.141	4.73
508.489	4.74
508.837	4.76
509.184	4.75
509.531	4.78
509.879	4.8
510.226	4.8
510.574	4.8
510.921	4.79
511.268	4.75
511.616	4.73
511.963	4.73
512.31	4.73
512.657	4.74
513.004	4.74
513.351	4.75
513.698	4.75
514.045	4.76
514.392	4.78
514.739	4.77
515.086	4.77
515.432	4.78
515.779	4.77
516.126	4.78
516.473	4.79
516.819	4.77
517.166	4.76
517.512	4.76
517.859	4.77
518.205	4.77
518.552	4.8
518.898	4.82
519.245	4.82
519.591	4.83
519.937	4.79
520.283	4.8
520.629	4.8
520.976	4.82
521.322	4.82
521.668	4.85
522.014	4.85
522.36	4.85
522.706	4.85
523.052	4.85
523.398	4.84
523.743	4.84
524.089	4.85
524.435	4.86
524.781	4.87
525.126	4.89
525.472	4.91
525.817	4.92
526.163	4.93
526.509	4.95
526.854	4.96
527.199	4.97
527.545	4.96
527.89	4.97
528.235	4.97
528.581	4.98
528.926	4.97
529.271	4.98
529.616	4.98
529.961	4.98
530.306	4.98
530.651	4.99
530.996	4.98
531.341	4.98
531.686	4.99
532.031	4.99
532.376	4.98
532.721	4.97
533.065	4.97
533.41	4.96
533.755	4.96
534.099	4.95
534.444	4.95
534.788	4.98
535.133	4.99
535.477	4.99
535.822	5.01
536.166	5
536.51	5.01
536.855	5.01
537.199	5.03
537.543	5.04
537.887	5.04
538.231	5.04
538.576	5.04
538.92	5.05
539.264	5.06
539.608	5.06
539.951	5.08
540.295	5.08
540.639	5.09
540.983	5.09
541.327	5.1
541.671	5.1
542.014	5.08
542.358	5.08
542.701	5.08
543.045	5.08
543.389	5.09
543.732	5.1
544.075	5.1
544.419	5.1
544.762	5.1
545.105	5.1
545.449	5.12
545.792	5.14
546.135	5.13
546.478	5.13
546.821	5.13
547.165	5.12
547.508	5.12
547.851	5.12
548.194	5.11
548.536	5.09
548.879	5.1
549.222	5.13
549.565	5.12
549.908	5.14
550.25	5.14
550.593	5.15
550.936	5.13
551.278	5.13
551.621	5.14
551.963	5.12
552.306	5.15
552.648	5.16
552.991	5.17
553.333	5.15
553.675	5.17
554.017	5.18
554.36	5.17
554.702	5.19
555.044	5.19
555.386	5.18
555.728	5.19
556.07	5.19
556.412	5.15
556.754	5.17
557.096	5.17
557.438	5.15
557.78	5.12
558.121	5.11
558.463	5.09
558.805	5.06
559.147	5.06
559.488	5.05
559.83	5.03
560.171	5.03
560.513	5.05
560.854	5.05
561.196	5.04
561.537	5.09
561.878	5.05
562.22	5.04
562.561	5.05
562.902	5.06
563.243	5.06
563.584	5.08
563.925	5.05
564.266	5.04
564.607	5.06
564.948	5.08
565.289	5.11
565.63	5.17
565.971	5.18
566.312	5.22
566.653	5.21
566.993	5.2
567.334	5.21
567.675	5.21
568.015	5.21
568.356	5.23
568.696	5.19
569.037	5.22
569.377	5.24
569.718	5.24
570.058	5.21
570.398	5.22
570.739	5.24
571.079	5.28
571.419	5.3
571.759	5.3
572.099	5.27
572.439	5.29
572.779	5.27
573.119	5.3
573.459	5.31
573.799	5.34
574.139	5.32
574.479	5.33
574.819	5.33
575.158	5.32
575.498	5.31
575.838	5.32
576.177	5.31
576.517	5.31
576.856	5.36
577.196	5.42
577.535	5.44
577.875	5.46
578.214	5.42
578.553	5.41
578.893	5.4
579.232	5.43
579.571	5.42
579.91	5.42
580.25	5.42
580.589	5.38
580.928	5.34
581.267	5.38
581.606	5.37
581.945	5.36
582.283	5.36
582.622	5.35
582.961	5.36
583.3	5.37
583.639	5.37
583.977	5.34
584.316	5.31
584.654	5.3
584.993	5.27
585.332	5.3
585.67	5.34
586.008	5.36
586.347	5.36
586.685	5.33
587.024	5.33
587.362	5.33
587.7	5.32
588.038	5.37
588.376	5.39
588.715	5.4
589.053	5.45
589.391	5.49
589.729	5.49
590.067	5.49
590.404	5.48
590.742	5.51
591.08	5.48
591.418	5.53
591.756	5.55
592.093	5.55
592.431	5.55
592.769	5.51
593.106	5.49
593.444	5.47
593.781	5.46
594.119	5.48
594.456	5.47
594.793	5.49
595.131	5.46
595.468	5.47
595.805	5.49
596.143	5.47
596.48	5.46
596.817	5.45
597.154	5.47
597.491	5.49
597.828	5.46
598.165	5.49
598.502	5.47
598.839	5.49
599.176	5.49
599.512	5.51
599.849	5.54
600.186	5.54
600.523	5.56
600.859	5.62
601.196	5.62
601.532	5.62
601.869	5.6
602.205	5.61
602.542	5.59
602.878	5.58
603.215	5.56
603.551	5.56
603.887	5.59
604.223	5.58
604.56	5.58
604.896	5.56
605.232	5.59
605.568	5.56
605.904	5.55
606.24	5.57
606.576	5.55
606.912	5.55
607.248	5.55
607.583	5.54
607.919	5.51
608.255	5.48
608.591	5.52
608.926	5.56
609.262	5.58
609.597	5.59
609.933	5.6
610.268	5.57
610.604	5.59
610.939	5.59
611.275	5.58
611.61	5.58
611.945	5.63
612.281	5.59
612.616	5.58
612.951	5.59
613.286	5.62
613.621	5.61
613.956	5.63
614.291	5.63
614.626	5.66
614.961	5.64
615.296	5.62
615.631	5.61
615.966	5.6
616.3	5.58
616.635	5.6
616.97	5.62
617.304	5.65
617.639	5.65
617.973	5.65
618.308	5.65
618.642	5.66
618.977	5.61
619.311	5.64
619.646	5.66
619.98	5.6
620.314	5.55
620.648	5.55
620.983	5.51
621.317	5.55
621.651	5.6
621.985	5.62
622.319	5.66
622.653	5.64
622.987	5.65
623.321	5.65
623.655	5.66
623.988	5.64
624.322	5.64
624.656	5.61
624.99	5.63
625.323	5.64
625.657	5.68
625.99	5.7
626.324	5.71
626.657	5.73
626.991	5.74
627.324	5.75
627.658	5.78
627.991	5.79
628.324	5.77
628.657	5.77
628.991	5.8
629.324	5.81
629.657	5.82
629.99	5.83
630.323	5.85
630.656	5.83
630.989	5.84
631.322	5.88
631.655	5.91
631.987	5.91
632.32	5.91
632.653	5.86
632.986	5.84
633.318	5.83
633.651	5.82
633.984	5.88
634.316	5.87
634.649	5.87
634.981	5.89
635.313	5.92
635.646	5.9
635.978	5.94
636.31	5.92
636.643	5.95
636.975	5.97
637.307	5.92
637.639	5.92
637.971	5.97
638.303	5.93
638.635	5.87
638.967	5.86
639.299	5.92
639.631	5.89
639.963	5.88
640.295	5.87
640.626	5.87
640.958	5.79
641.29	5.85
641.621	5.83
641.953	5.84
642.285	5.78
642.616	5.74
642.948	5.69
643.279	5.72
643.61	5.68
643.942	5.63
644.273	5.68
644.604	5.71
644.936	5.6
645.267	5.61
645.598	5.66
645.929	5.64
646.26	5.61
646.591	5.72
646.922	5.71
647.253	5.82
647.584	5.81
647.915	5.88
648.245	5.83
648.576	5.8
648.907	5.84
649.238	5.93
649.568	6.02
649.899	6.04
650.229	6.06
650.56	6.14
650.89	6.22
651.221	6.24
651.551	6.21
651.882	6.31
652.212	6.36
652.542	6.35
652.872	6.38
653.203	6.35
653.533	6.29
653.863	6.38
654.193	6.34
654.523	6.34
654.853	6.38
655.183	6.45
655.513	6.41
655.843	6.37
656.172	6.3
656.502	6.25
656.832	6.25
657.162	6.2
657.491	6.15
657.821	6.12
658.15	6.07
658.48	6.1
658.809	6.07
659.139	6
659.468	6.08
659.798	6.08
660.127	6.12
660.456	6.18
660.785	6.14
661.115	6.11
661.444	6.12
661.773	6.12
662.102	6.12
662.431	6.26
662.76	6.26
663.089	6.32
663.418	6.36
663.747	6.34
664.076	6.41
664.404	6.38
664.733	6.42
665.062	6.51
665.39	6.57
665.719	6.51
666.048	6.62
666.376	6.54
666.705	6.51
667.033	6.46
667.362	6.49
667.69	6.49
668.018	6.47
668.347	6.48
668.675	6.42
669.003	6.43
669.331	6.36
669.659	6.33
669.987	6.26
670.315	6.29
670.643	6.3
670.971	6.28
671.299	6.38
671.627	6.32
671.955	6.28
672.283	6.2
672.61	6.29
672.938	6.27
673.266	6.29
673.593	6.35
673.921	6.35
674.249	6.26
674.576	6.29
674.904	6.32
675.231	6.26
675.558	6.27
675.886	6.33
676.213	6.37
676.54	6.36
676.867	6.43
677.195	6.38
677.522	6.4
677.849	6.43
