Data from BA28306_Reflection_00002.txt Node
Date: Mon Nov 18 15:53:28 EST 2019
User: vgr7
Spectrometer: USB2G7710
Scans to average: 3
Trigger mode: 4
Integration Time (sec): 2.000000E-2
Electric dark correction enabled: true
Boxcar width: 10
XAxis mode: Wavelengths
Number of Pixels in Spectrum: 2048
>>>>>Begin Spectral Data<<<<<
177.721	-1628.16
178.105	-231.21
178.488	-276.43
178.871	-333.96
179.254	-1130.77
179.636	48.98
180.019	-40.6
180.402	213.64
180.785	-35.33
181.168	-9.94
181.55	-37.55
181.933	137.55
182.316	146.99
182.698	196.52
183.081	217.84
183.463	524.02
183.846	1673.6
184.228	-1679.01
184.611	-2491.3
184.993	-547.99
185.376	-397.33
185.758	-1068.7
186.14	-652.53
186.522	-417.81
186.904	-385.96
187.287	-453.19
187.669	-326.58
188.051	-383.9
188.433	-276.79
188.815	-347.96
189.197	-273.45
189.579	-323.9
189.961	-261.66
190.342	-168.88
190.724	-128.41
191.106	-204.37
191.488	-168.99
191.869	-155.88
192.251	-177.83
192.633	-144.96
193.014	-128.45
193.396	-124.31
193.777	-87.53
194.159	-84.22
194.54	-93.18
194.922	-88.26
195.303	-75.58
195.684	-81.36
196.065	-61.13
196.447	-60.3
196.828	-95.52
197.209	-81.82
197.59	-124.55
197.971	-182.93
198.352	-180.53
198.733	-287.92
199.114	-139.66
199.495	-117.33
199.876	-119.44
200.257	-169.05
200.638	-127.17
201.018	-143.56
201.399	-156.31
201.78	-133.78
202.16	-164.4
202.541	-187.71
202.922	-250.86
203.302	-380.53
203.683	-340.35
204.063	-451.18
204.444	-349.42
204.824	-205.39
205.204	-217.24
205.585	-163.76
205.965	-134.23
206.345	-169.01
206.725	-139.18
207.106	-179.94
207.486	-251.07
207.866	-201.93
208.246	-128.96
208.626	-149.55
209.006	-120.13
209.386	-96.88
209.766	-103.53
210.145	-94.43
210.525	-70.69
210.905	-93.2
211.285	-63.48
211.664	-68.46
212.044	-58.15
212.424	-49.08
212.803	-54.82
213.183	-59.07
213.562	-65.51
213.942	-58.53
214.321	-50.99
214.701	-53.14
215.08	-35.57
215.459	-28.27
215.838	-26.37
216.218	-37.87
216.597	-34.47
216.976	-30.43
217.355	-32.33
217.734	-29.07
218.113	-16.91
218.492	-14.66
218.871	-9.08
219.25	-21.07
219.629	-5.59
220.008	-24.21
220.387	-36.82
220.766	-35.04
221.144	-46.64
221.523	-45.59
221.902	-62.8
222.28	-58.74
222.659	-45.32
223.037	-46
223.416	-59.46
223.794	-59.51
224.173	-46.92
224.551	-32.7
224.929	-37.86
225.308	-36.33
225.686	-24.62
226.064	-27.15
226.442	-26.67
226.821	-17.65
227.199	-13.49
227.577	-20.73
227.955	-17.22
228.333	-15.12
228.711	-10.02
229.089	-4.47
229.467	-7.67
229.845	-3.36
230.222	-5.82
230.6	-8.2
230.978	-8.19
231.356	-4.47
231.733	-6.27
232.111	-4.21
232.488	-3.2
232.866	-2.34
233.243	-2.37
233.621	-4.11
233.998	-2.7
234.376	-1.39
234.753	-1.62
235.13	-1.36
235.508	-0.52
235.885	1.08
236.262	1.3
236.639	-1.19
237.016	0.97
237.393	3.57
237.77	5.06
238.147	6.29
238.524	5.84
238.901	6.1
239.278	6.23
239.655	6.58
240.032	5.86
240.409	5.32
240.785	5.19
241.162	4.68
241.539	5.24
241.915	4.93
242.292	4.66
242.668	4.49
243.045	4.75
243.421	4.72
243.798	4.25
244.174	3.91
244.551	4.18
244.927	3.78
245.303	3.78
245.679	3.78
246.056	3.81
246.432	4.05
246.808	3.97
247.184	3.68
247.56	3.71
247.936	3.45
248.312	3.27
248.688	3.33
249.064	3.49
249.44	3.28
249.815	3.58
250.191	3.66
250.567	3.79
250.943	3.62
251.318	3.8
251.694	3.77
252.069	4.12
252.445	4.09
252.82	3.92
253.196	3.76
253.571	3.73
253.947	3.65
254.322	3.39
254.697	3.24
255.073	3.1
255.448	2.92
255.823	3.06
256.198	2.99
256.573	3.11
256.948	3.14
257.323	3.15
257.698	3.05
258.073	3.13
258.448	3.18
258.823	3.29
259.198	3.27
259.573	3.37
259.948	3.23
260.322	3.22
260.697	3.32
261.072	3.33
261.446	3.24
261.821	3.09
262.195	3.26
262.57	3.31
262.944	3.31
263.319	3.37
263.693	3.48
264.067	3.73
264.442	3.76
264.816	3.82
265.19	3.8
265.564	3.79
265.938	3.53
266.313	3.36
266.687	3.34
267.061	3.43
267.435	3.55
267.809	3.66
268.183	3.62
268.556	3.5
268.93	3.58
269.304	3.64
269.678	3.85
270.051	3.64
270.425	3.58
270.799	3.64
271.172	3.6
271.546	3.57
271.919	3.54
272.293	3.38
272.666	3.21
273.04	3.22
273.413	3.24
273.787	3.39
274.16	3.4
274.533	3.37
274.906	3.27
275.279	2.97
275.653	2.95
276.026	2.99
276.399	2.97
276.772	2.91
277.145	2.8
277.518	2.76
277.891	2.82
278.263	2.85
278.636	2.92
279.009	2.86
279.382	2.95
279.755	2.87
280.127	3.24
280.5	3.38
280.872	3.49
281.245	3.39
281.617	3.46
281.99	3.49
282.362	3.57
282.735	3.49
283.107	3.66
283.479	3.72
283.852	3.71
284.224	3.83
284.596	3.8
284.968	3.92
285.34	3.86
285.713	3.93
286.085	4.03
286.457	4.01
286.829	4.05
287.201	3.98
287.572	3.88
287.944	3.67
288.316	3.58
288.688	3.58
289.06	3.63
289.431	3.68
289.803	3.79
290.175	3.78
290.546	4.06
290.918	4.11
291.289	3.93
291.661	3.99
292.032	3.92
292.403	3.94
292.775	3.89
293.146	3.95
293.517	3.85
293.889	3.85
294.26	3.8
294.631	3.85
295.002	3.94
295.373	4
295.744	4.13
296.115	4.18
296.486	4.12
296.857	4.08
297.228	4.13
297.599	4.03
297.97	3.98
298.34	3.81
298.711	3.85
299.082	3.97
299.452	3.97
299.823	4.14
300.194	4.12
300.564	4.19
300.935	4.27
301.305	4.24
301.676	4.22
302.046	4.31
302.416	4.36
302.787	4.21
303.157	4.22
303.527	4.15
303.897	4.15
304.267	4.26
304.637	4.27
305.008	4.26
305.378	4.29
305.748	4.18
306.117	4.14
306.487	4.08
306.857	4
307.227	4.01
307.597	3.82
307.967	3.83
308.336	3.79
308.706	3.65
309.076	3.79
309.445	3.7
309.815	3.61
310.184	3.59
310.554	3.73
310.923	3.78
311.293	3.67
311.662	3.58
312.031	3.56
312.401	3.49
312.77	3.53
313.139	3.47
313.508	3.61
313.877	3.64
314.246	3.62
314.616	3.54
314.985	3.62
315.353	3.62
315.722	3.6
316.091	3.43
316.46	3.48
316.829	3.41
317.198	3.4
317.567	3.4
317.935	3.24
318.304	3.2
318.672	3.03
319.041	3.18
319.41	3.24
319.778	3.35
320.147	3.51
320.515	3.35
320.883	3.17
321.252	3.29
321.62	3.17
321.988	3.26
322.357	3.29
322.725	3.23
323.093	3.26
323.461	3.29
323.829	3.41
324.197	3.39
324.565	3.43
324.933	3.48
325.301	3.54
325.669	3.6
326.037	3.55
326.405	3.65
326.772	3.59
327.14	3.7
327.508	3.61
327.875	3.5
328.243	3.54
328.61	3.71
328.978	3.61
329.346	3.65
329.713	3.53
330.08	3.74
330.448	3.55
330.815	3.41
331.182	3.31
331.55	3.24
331.917	3.22
332.284	3.27
332.651	3.22
333.018	3.11
333.385	3.11
333.752	3.21
334.119	3.26
334.486	3.29
334.853	3.22
335.22	3.11
335.587	3.16
335.954	3.09
336.32	3.15
336.687	3.04
337.054	3.13
337.42	3.19
337.787	3.1
338.153	3.22
338.52	3.4
338.886	3.44
339.253	3.36
339.619	3.33
339.986	3.29
340.352	3.44
340.718	3.45
341.084	3.51
341.451	3.51
341.817	3.6
342.183	3.59
342.549	3.55
342.915	3.64
343.281	3.54
343.647	3.56
344.013	3.52
344.379	3.56
344.745	3.52
345.11	3.49
345.476	3.41
345.842	3.43
346.208	3.35
346.573	3.42
346.939	3.54
347.304	3.61
347.67	3.52
348.035	3.44
348.401	3.56
348.766	3.48
349.132	3.4
349.497	3.21
349.862	3.31
350.228	3.33
350.593	3.24
350.958	3.39
351.323	3.41
351.688	3.38
352.053	3.38
352.418	3.43
352.783	3.49
353.148	3.54
353.513	3.5
353.878	3.55
354.243	3.46
354.608	3.48
354.972	3.44
355.337	3.5
355.702	3.51
356.066	3.47
356.431	3.49
356.795	3.51
357.16	3.55
357.524	3.5
357.889	3.5
358.253	3.58
358.618	3.53
358.982	3.51
359.346	3.45
359.71	3.43
360.075	3.37
360.439	3.35
360.803	3.35
361.167	3.34
361.531	3.37
361.895	3.42
362.259	3.4
362.623	3.41
362.987	3.39
363.351	3.39
363.714	3.37
364.078	3.35
364.442	3.3
364.806	3.34
365.169	3.29
365.533	3.32
365.896	3.26
366.26	3.25
366.623	3.24
366.987	3.31
367.35	3.33
367.714	3.43
368.077	3.46
368.44	3.45
368.803	3.48
369.167	3.37
369.53	3.3
369.893	3.36
370.256	3.41
370.619	3.44
370.982	3.36
371.345	3.3
371.708	3.36
372.071	3.36
372.434	3.29
372.797	3.3
373.159	3.28
373.522	3.28
373.885	3.3
374.247	3.36
374.61	3.4
374.973	3.36
375.335	3.34
375.698	3.31
376.06	3.31
376.423	3.28
376.785	3.31
377.147	3.42
377.51	3.37
377.872	3.38
378.234	3.37
378.596	3.41
378.958	3.51
379.321	3.52
379.683	3.58
380.045	3.64
380.407	3.62
380.769	3.6
381.13	3.59
381.492	3.59
381.854	3.52
382.216	3.49
382.578	3.55
382.939	3.52
383.301	3.54
383.663	3.54
384.024	3.56
384.386	3.54
384.747	3.52
385.109	3.53
385.47	3.49
385.832	3.49
386.193	3.51
386.554	3.42
386.916	3.4
387.277	3.38
387.638	3.39
387.999	3.43
388.36	3.43
388.721	3.42
389.082	3.42
389.443	3.44
389.804	3.43
390.165	3.42
390.526	3.42
390.887	3.39
391.248	3.44
391.609	3.44
391.969	3.51
392.33	3.51
392.691	3.5
393.051	3.55
393.412	3.56
393.772	3.56
394.133	3.59
394.493	3.58
394.854	3.59
395.214	3.57
395.574	3.58
395.935	3.59
396.295	3.62
396.655	3.64
397.015	3.66
397.376	3.7
397.736	3.66
398.096	3.67
398.456	3.7
398.816	3.69
399.176	3.67
399.535	3.63
399.895	3.61
400.255	3.63
400.615	3.6
400.975	3.62
401.334	3.61
401.694	3.59
402.054	3.56
402.413	3.56
402.773	3.55
403.132	3.57
403.492	3.6
403.851	3.61
404.211	3.59
404.57	3.55
404.929	3.54
405.288	3.53
405.648	3.53
406.007	3.52
406.366	3.5
406.725	3.53
407.084	3.56
407.443	3.56
407.802	3.56
408.161	3.53
408.52	3.51
408.879	3.49
409.238	3.52
409.596	3.55
409.955	3.53
410.314	3.55
410.673	3.48
411.031	3.47
411.39	3.47
411.748	3.49
412.107	3.51
412.465	3.51
412.824	3.53
413.182	3.53
413.54	3.54
413.899	3.54
414.257	3.56
414.615	3.53
414.974	3.54
415.332	3.51
415.69	3.52
416.048	3.49
416.406	3.52
416.764	3.54
417.122	3.56
417.48	3.56
417.838	3.56
418.195	3.61
418.553	3.62
418.911	3.62
419.269	3.62
419.626	3.64
419.984	3.65
420.342	3.65
420.699	3.64
421.057	3.65
421.414	3.65
421.772	3.64
422.129	3.65
422.486	3.65
422.844	3.66
423.201	3.66
423.558	3.69
423.915	3.7
424.273	3.69
424.63	3.67
424.987	3.69
425.344	3.68
425.701	3.68
426.058	3.67
426.415	3.66
426.772	3.66
427.128	3.65
427.485	3.63
427.842	3.63
428.199	3.65
428.555	3.65
428.912	3.65
429.269	3.65
429.625	3.65
429.982	3.64
430.338	3.66
430.695	3.67
431.051	3.64
431.407	3.64
431.764	3.65
432.12	3.64
432.476	3.65
432.832	3.64
433.189	3.62
433.545	3.62
433.901	3.64
434.257	3.63
434.613	3.64
434.969	3.65
435.325	3.65
435.681	3.65
436.036	3.66
436.392	3.66
436.748	3.66
437.104	3.67
437.459	3.67
437.815	3.65
438.171	3.66
438.526	3.68
438.882	3.69
439.237	3.68
439.593	3.7
439.948	3.7
440.304	3.7
440.659	3.71
441.014	3.71
441.369	3.7
441.725	3.69
442.08	3.69
442.435	3.68
442.79	3.68
443.145	3.68
443.5	3.68
443.855	3.68
444.21	3.67
444.565	3.68
444.92	3.69
445.275	3.7
445.629	3.69
445.984	3.69
446.339	3.66
446.693	3.66
447.048	3.64
447.403	3.64
447.757	3.64
448.112	3.63
448.466	3.64
448.82	3.64
449.175	3.66
449.529	3.67
449.883	3.66
450.238	3.66
450.592	3.66
450.946	3.62
451.3	3.62
451.654	3.65
452.008	3.63
452.362	3.62
452.716	3.62
453.07	3.61
453.424	3.61
453.778	3.62
454.132	3.63
454.486	3.62
454.839	3.61
455.193	3.61
455.547	3.62
455.9	3.63
456.254	3.65
456.607	3.64
456.961	3.63
457.314	3.63
457.668	3.62
458.021	3.62
458.375	3.65
458.728	3.65
459.081	3.65
459.434	3.65
459.787	3.66
460.141	3.66
460.494	3.67
460.847	3.68
461.2	3.69
461.553	3.7
461.906	3.72
462.259	3.73
462.611	3.75
462.964	3.75
463.317	3.73
463.67	3.73
464.022	3.74
464.375	3.74
464.728	3.76
465.08	3.76
465.433	3.77
465.785	3.77
466.138	3.76
466.49	3.72
466.843	3.71
467.195	3.73
467.547	3.73
467.899	3.73
468.252	3.73
468.604	3.73
468.956	3.73
469.308	3.73
469.66	3.73
470.012	3.72
470.364	3.7
470.716	3.68
471.068	3.69
471.42	3.68
471.772	3.68
472.123	3.66
472.475	3.69
472.827	3.69
473.178	3.68
473.53	3.68
473.882	3.71
474.233	3.74
474.585	3.71
474.936	3.69
475.288	3.7
475.639	3.71
475.99	3.7
476.342	3.7
476.693	3.7
477.044	3.71
477.395	3.72
477.746	3.72
478.097	3.74
478.448	3.71
478.8	3.72
479.15	3.71
479.501	3.73
479.852	3.73
480.203	3.74
480.554	3.74
480.905	3.74
481.255	3.74
481.606	3.73
481.957	3.75
482.307	3.75
482.658	3.76
483.009	3.76
483.359	3.77
483.709	3.78
484.06	3.78
484.41	3.78
484.761	3.79
485.111	3.79
485.461	3.8
485.811	3.81
486.162	3.81
486.512	3.83
486.862	3.83
487.212	3.83
487.562	3.83
487.912	3.84
488.262	3.84
488.612	3.87
488.961	3.88
489.311	3.87
489.661	3.88
490.011	3.89
490.36	3.88
490.71	3.88
491.06	3.87
491.409	3.88
491.759	3.87
492.108	3.86
492.458	3.87
492.807	3.85
493.157	3.86
493.506	3.86
493.855	3.86
494.204	3.84
494.554	3.85
494.903	3.86
495.252	3.86
495.601	3.87
495.95	3.84
496.299	3.83
496.648	3.82
496.997	3.82
497.346	3.82
497.695	3.85
498.043	3.85
498.392	3.85
498.741	3.85
499.09	3.85
499.438	3.87
499.787	3.88
500.135	3.9
500.484	3.9
500.832	3.91
501.181	3.92
501.529	3.93
501.878	3.95
502.226	3.96
502.574	3.94
502.923	3.92
503.271	3.93
503.619	3.94
503.967	3.95
504.315	3.95
504.663	3.92
505.011	3.91
505.359	3.89
505.707	3.9
506.055	3.92
506.403	3.95
506.751	3.93
507.098	3.92
507.446	3.94
507.794	3.92
508.141	3.93
508.489	3.9
508.837	3.93
509.184	3.93
509.531	3.93
509.879	3.95
510.226	3.95
510.574	3.97
510.921	3.97
511.268	3.97
511.616	3.99
511.963	3.99
512.31	4
512.657	4.03
513.004	4.04
513.351	4.04
513.698	4.03
514.045	4.04
514.392	4.03
514.739	4.03
515.086	4.05
515.432	4.04
515.779	4.06
516.126	4.06
516.473	4.07
516.819	4.08
517.166	4.08
517.512	4.09
517.859	4.08
518.205	4.08
518.552	4.1
518.898	4.1
519.245	4.13
519.591	4.11
519.937	4.09
520.283	4.1
520.629	4.1
520.976	4.1
521.322	4.11
521.668	4.14
522.014	4.13
522.36	4.14
522.706	4.14
523.052	4.14
523.398	4.13
523.743	4.13
524.089	4.14
524.435	4.15
524.781	4.15
525.126	4.16
525.472	4.15
525.817	4.17
526.163	4.17
526.509	4.18
526.854	4.19
527.199	4.2
527.545	4.21
527.89	4.21
528.235	4.21
528.581	4.22
528.926	4.22
529.271	4.22
529.616	4.22
529.961	4.23
530.306	4.24
530.651	4.24
530.996	4.23
531.341	4.23
531.686	4.22
532.031	4.22
532.376	4.22
532.721	4.24
533.065	4.23
533.41	4.22
533.755	4.21
534.099	4.21
534.444	4.23
534.788	4.23
535.133	4.23
535.477	4.24
535.822	4.24
536.166	4.24
536.51	4.23
536.855	4.24
537.199	4.24
537.543	4.22
537.887	4.24
538.231	4.25
538.576	4.24
538.92	4.25
539.264	4.25
539.608	4.26
539.951	4.26
540.295	4.26
540.639	4.27
540.983	4.29
541.327	4.28
541.671	4.26
542.014	4.26
542.358	4.28
542.701	4.28
543.045	4.3
543.389	4.3
543.732	4.3
544.075	4.31
544.419	4.31
544.762	4.32
545.105	4.32
545.449	4.31
545.792	4.33
546.135	4.35
546.478	4.36
546.821	4.35
547.165	4.35
547.508	4.37
547.851	4.35
548.194	4.35
548.536	4.36
548.879	4.39
549.222	4.36
549.565	4.34
549.908	4.33
550.25	4.3
550.593	4.3
550.936	4.28
551.278	4.28
551.621	4.27
551.963	4.31
552.306	4.31
552.648	4.33
552.991	4.34
553.333	4.32
553.675	4.31
554.017	4.33
554.36	4.32
554.702	4.34
555.044	4.35
555.386	4.35
555.728	4.33
556.07	4.35
556.412	4.37
556.754	4.38
557.096	4.37
557.438	4.37
557.78	4.37
558.121	4.39
558.463	4.4
558.805	4.38
559.147	4.34
559.488	4.35
559.83	4.34
560.171	4.33
560.513	4.35
560.854	4.37
561.196	4.35
561.537	4.37
561.878	4.34
562.22	4.34
562.561	4.36
562.902	4.39
563.243	4.39
563.584	4.39
563.925	4.4
564.266	4.41
564.607	4.43
564.948	4.45
565.289	4.48
565.63	4.47
565.971	4.47
566.312	4.49
566.653	4.5
566.993	4.53
567.334	4.52
567.675	4.53
568.015	4.52
568.356	4.51
568.696	4.5
569.037	4.49
569.377	4.54
569.718	4.53
570.058	4.51
570.398	4.49
570.739	4.5
571.079	4.52
571.419	4.54
571.759	4.57
572.099	4.52
572.439	4.51
572.779	4.52
573.119	4.55
573.459	4.57
573.799	4.55
574.139	4.52
574.479	4.52
574.819	4.52
575.158	4.5
575.498	4.51
575.838	4.51
576.177	4.49
576.517	4.44
576.856	4.44
577.196	4.44
577.535	4.45
577.875	4.45
578.214	4.42
578.553	4.41
578.893	4.38
579.232	4.39
579.571	4.39
579.91	4.4
580.25	4.4
580.589	4.37
580.928	4.39
581.267	4.4
581.606	4.38
581.945	4.35
582.283	4.31
582.622	4.33
582.961	4.31
583.3	4.38
583.639	4.45
583.977	4.47
584.316	4.45
584.654	4.41
584.993	4.41
585.332	4.45
585.67	4.44
586.008	4.41
586.347	4.42
586.685	4.42
587.024	4.42
587.362	4.4
587.7	4.42
588.038	4.42
588.376	4.44
588.715	4.44
589.053	4.49
589.391	4.57
589.729	4.57
590.067	4.61
590.404	4.58
590.742	4.57
591.08	4.55
591.418	4.58
591.756	4.64
592.093	4.65
592.431	4.64
592.769	4.67
593.106	4.71
593.444	4.73
593.781	4.73
594.119	4.72
594.456	4.72
594.793	4.7
595.131	4.67
595.468	4.72
595.805	4.73
596.143	4.72
596.48	4.72
596.817	4.76
597.154	4.77
597.491	4.78
597.828	4.76
598.165	4.75
598.502	4.74
598.839	4.72
599.176	4.72
599.512	4.72
599.849	4.7
600.186	4.72
600.523	4.7
600.859	4.75
601.196	4.77
601.532	4.76
601.869	4.77
602.205	4.8
602.542	4.77
602.878	4.78
603.215	4.78
603.551	4.76
603.887	4.72
604.223	4.71
604.56	4.76
604.896	4.79
605.232	4.79
605.568	4.77
605.904	4.77
606.24	4.79
606.576	4.77
606.912	4.78
607.248	4.77
607.583	4.78
607.919	4.76
608.255	4.74
608.591	4.77
608.926	4.78
609.262	4.8
609.597	4.8
609.933	4.82
610.268	4.85
610.604	4.86
610.939	4.86
611.275	4.89
611.61	4.84
611.945	4.84
612.281	4.84
612.616	4.88
612.951	4.92
613.286	4.88
613.621	4.89
613.956	4.9
614.291	4.86
614.626	4.89
614.961	4.9
615.296	4.87
615.631	4.89
615.966	4.88
616.3	4.85
616.635	4.89
616.97	4.86
617.304	4.83
617.639	4.8
617.973	4.81
618.308	4.82
618.642	4.86
618.977	4.83
619.311	4.83
619.646	4.87
619.98	4.82
620.314	4.84
620.648	4.87
620.983	4.88
621.317	4.86
621.651	4.87
621.985	4.86
622.319	4.89
622.653	4.88
622.987	4.89
623.321	4.88
623.655	4.89
623.988	4.92
624.322	4.93
624.656	5.01
624.99	5.02
625.323	4.98
625.657	5.01
625.99	5.03
626.324	5.05
626.657	5.04
626.991	5.09
627.324	5.11
627.658	5.14
627.991	5.15
628.324	5.2
628.657	5.15
628.991	5.12
629.324	5.19
629.657	5.19
629.99	5.2
630.323	5.22
630.656	5.23
630.989	5.22
631.322	5.24
631.655	5.19
631.987	5.16
632.32	5.19
632.653	5.16
632.986	5.16
633.318	5.18
633.651	5.14
633.984	5.06
634.316	5.03
634.649	4.98
634.981	5
635.313	4.98
635.646	5.04
635.978	5.04
636.31	4.97
636.643	4.97
636.975	5.01
637.307	5.04
637.639	4.99
637.971	4.95
638.303	4.92
638.635	4.93
638.967	5.02
639.299	5
639.631	4.95
639.963	4.91
640.295	4.91
640.626	4.97
640.958	5.09
641.29	5.15
641.621	5.15
641.953	5.08
642.285	5.04
642.616	5.1
642.948	5.13
643.279	5.14
643.61	5.12
643.942	5.1
644.273	5.09
644.604	5.12
644.936	5.17
645.267	5.16
645.598	5.16
645.929	5.13
646.26	5.21
646.591	5.2
646.922	5.23
647.253	5.24
647.584	5.17
647.915	5.09
648.245	5.06
648.576	5.13
648.907	5.22
649.238	5.24
649.568	5.19
649.899	5.2
650.229	5.25
650.56	5.29
650.89	5.22
651.221	5.26
651.551	5.23
651.882	5.23
652.212	5.21
652.542	5.23
652.872	5.13
653.203	5.04
653.533	5.12
653.863	5.11
654.193	5.08
654.523	5.18
654.853	5.18
655.183	5.14
655.513	5.1
655.843	5.06
656.172	5.09
656.502	5.09
656.832	5.09
657.162	5.09
657.491	5.09
657.821	5.14
658.15	5.12
658.48	5.17
658.809	5.16
659.139	5.2
659.468	5.15
659.798	5.26
660.127	5.33
660.456	5.24
660.785	5.28
661.115	5.35
661.444	5.29
661.773	5.38
662.102	5.42
662.431	5.4
662.76	5.42
663.089	5.43
663.418	5.38
663.747	5.36
664.076	5.3
664.404	5.25
664.733	5.26
665.062	5.23
665.39	5.18
665.719	5.2
666.048	5.23
666.376	5.27
666.705	5.2
667.033	5.13
667.362	5.24
667.69	5.1
668.018	5.03
668.347	5.06
668.675	5.02
669.003	5.06
669.331	5.11
669.659	5.11
669.987	5.09
670.315	5.15
670.643	5.27
670.971	5.34
671.299	5.43
671.627	5.42
671.955	5.42
672.283	5.44
672.61	5.4
672.938	5.36
673.266	5.44
673.593	5.57
673.921	5.64
674.249	5.66
674.576	5.81
674.904	5.87
