Data from BA28469_Reflection_00013.txt Node
Date: Mon Nov 18 15:18:14 EST 2019
User: vgr7
Spectrometer: USB2G7710
Scans to average: 3
Trigger mode: 4
Integration Time (sec): 2.000000E-2
Electric dark correction enabled: true
Boxcar width: 10
XAxis mode: Wavelengths
Number of Pixels in Spectrum: 2048
>>>>>Begin Spectral Data<<<<<
177.721	110.81
178.105	-6233.33
178.488	25.7
178.871	-13.13
179.254	-6.71
179.636	5766.67
180.019	-24.74
180.402	189.47
180.785	115.21
181.168	86.04
181.55	405.16
181.933	134.43
182.316	147.81
182.698	99.41
183.081	232.03
183.463	143.05
183.846	259.42
184.228	592.63
184.611	280.61
184.993	9322.22
185.376	-528.69
185.758	-331.24
186.14	-221.04
186.522	-1138.99
186.904	-321.63
187.287	451.03
187.669	-240.24
188.051	-448.1
188.433	-137.89
188.815	-70.41
189.197	-49.8
189.579	-38.86
189.961	-38.54
190.342	-23.79
190.724	-33.29
191.106	-16.65
191.488	-32.1
191.869	-16.76
192.251	-20.08
192.633	-13.46
193.014	-32.37
193.396	-61.86
193.777	-53.48
194.159	-70.92
194.54	-57.84
194.922	-61.21
195.303	-60.55
195.684	-49.41
196.065	-17.66
196.447	-20.25
196.828	-36.42
197.209	-31.39
197.59	-50.57
197.971	-47.97
198.352	-62.81
198.733	-108.15
199.114	-90.91
199.495	-73.58
199.876	-49.71
200.257	-43.26
200.638	-43.22
201.018	-46.99
201.399	-31.89
201.78	-39.39
202.16	-72.2
202.541	-148.81
202.922	-185
203.302	-188.79
203.683	-174.7
204.063	-226.23
204.444	-223.32
204.824	-232.11
205.204	-188.12
205.585	-125.5
205.965	-96.01
206.345	-59.9
206.725	-53.12
207.106	-79.17
207.486	-85.71
207.866	-110.08
208.246	-115.04
208.626	-150.62
209.006	-118.49
209.386	-152.76
209.766	-97.52
210.145	-48.43
210.525	-32.7
210.905	-23.21
211.285	-8.75
211.664	-10.97
212.044	-4.88
212.424	-5.98
212.803	0.36
213.183	-4.54
213.562	2.31
213.942	4.51
214.321	-1.63
214.701	-5.51
215.08	-7.32
215.459	1.08
215.838	1.96
216.218	-0.64
216.597	11.3
216.976	11.3
217.355	16.04
217.734	12.22
218.113	5.68
218.492	1.15
218.871	9.73
219.25	-2.45
219.629	-4.11
220.008	-12.6
220.387	-12.24
220.766	-12.81
221.144	-44.6
221.523	-59.4
221.902	-105.11
222.28	-114.66
222.659	-111.38
223.037	-102.55
223.416	-105.22
223.794	-99.17
224.173	-71.65
224.551	-61.83
224.929	-60.89
225.308	-46.28
225.686	-40.87
226.064	-31.77
226.442	-26.14
226.821	-24.11
227.199	-22.46
227.577	-22.94
227.955	-21.28
228.333	-17.76
228.711	-14.83
229.089	-5.61
229.467	-5.34
229.845	-1.2
230.222	0.69
230.6	1.81
230.978	3.36
231.356	3.62
231.733	3.55
232.111	3.23
232.488	3.53
232.866	3.84
233.243	4.31
233.621	4.4
233.998	3.89
234.376	3.39
234.753	3.47
235.13	4.08
235.508	6.29
235.885	7.73
236.262	6.09
236.639	4.04
237.016	2.72
237.393	3.5
237.77	3.78
238.147	3.78
238.524	4.08
238.901	4.76
239.278	4.68
239.655	5.36
240.032	5.64
240.409	4.47
240.785	4.54
241.162	4.98
241.539	5.27
241.915	5.34
242.292	5.03
242.668	4.99
243.045	5.21
243.421	4.73
243.798	4.31
244.174	4.54
244.551	4.61
244.927	4.61
245.303	4.57
245.679	4.6
246.056	4.68
246.432	4.54
246.808	4.28
247.184	3.97
247.56	3.64
247.936	3.33
248.312	3.45
248.688	3.54
249.064	3.34
249.44	3.35
249.815	3.43
250.191	3.58
250.567	3.55
250.943	3.39
251.318	3.54
251.694	3.71
252.069	3.59
252.445	3.77
252.82	3.67
253.196	3.36
253.571	3.38
253.947	3.05
254.322	2.99
254.697	3.02
255.073	3.14
255.448	3.23
255.823	3.11
256.198	2.85
256.573	2.93
256.948	3.02
257.323	3.15
257.698	3.07
258.073	3
258.448	2.95
258.823	2.81
259.198	2.8
259.573	2.78
259.948	2.9
260.322	2.92
260.697	2.79
261.072	2.84
261.446	2.79
261.821	2.83
262.195	2.99
262.57	2.86
262.944	3.01
263.319	3
263.693	3.09
264.067	3.38
264.442	3.4
264.816	3.45
265.19	3.1
265.564	3.08
265.938	3.19
266.313	3.08
266.687	3.34
267.061	3.37
267.435	3.43
267.809	3.3
268.183	3.33
268.556	3.39
268.93	3.54
269.304	3.48
269.678	3.52
270.051	3.43
270.425	3.54
270.799	3.51
271.172	3.45
271.546	3.44
271.919	3.35
272.293	3.23
272.666	3.29
273.04	3.5
273.413	3.48
273.787	3.48
274.16	3.57
274.533	3.59
274.906	3.43
275.279	3.44
275.653	3.53
276.026	3.5
276.399	3.6
276.772	3.61
277.145	3.67
277.518	3.64
277.891	3.65
278.263	3.61
278.636	3.61
279.009	3.72
279.382	3.84
279.755	3.83
280.127	3.83
280.5	3.86
280.872	3.98
281.245	3.95
281.617	3.99
281.99	4.1
282.362	4.07
282.735	4.03
283.107	3.97
283.479	3.96
283.852	3.96
284.224	3.92
284.596	3.87
284.968	3.98
285.34	4.1
285.713	4.05
286.085	4.1
286.457	4.17
286.829	4.24
287.201	4.26
287.572	4.24
287.944	4.24
288.316	4.14
288.688	4.02
289.06	4.18
289.431	4.23
289.803	4.13
290.175	4.11
290.546	4.35
290.918	4.44
291.289	4.43
291.661	4.38
292.032	4.51
292.403	4.56
292.775	4.54
293.146	4.42
293.517	4.38
293.889	4.49
294.26	4.43
294.631	4.37
295.002	4.32
295.373	4.36
295.744	4.4
296.115	4.31
296.486	4.33
296.857	4.29
297.228	4.2
297.599	4.21
297.97	4.24
298.34	4.19
298.711	4.13
299.082	4.1
299.452	4.12
299.823	4.11
300.194	4.07
300.564	3.94
300.935	4.01
301.305	4.12
301.676	4.02
302.046	3.96
302.416	4.03
302.787	4.16
303.157	4.22
303.527	4.25
303.897	4.39
304.267	4.53
304.637	4.59
305.008	4.69
305.378	4.86
305.748	4.93
306.117	4.86
306.487	4.87
306.857	4.9
307.227	4.95
307.597	4.96
307.967	5.04
308.336	5.18
308.706	5.22
309.076	5.12
309.445	5.12
309.815	5.19
310.184	5.18
310.554	5.25
310.923	5.15
311.293	5.17
311.662	5.17
312.031	5.08
312.401	5.06
312.77	5.05
313.139	5.13
313.508	5.17
313.877	5.25
314.246	5.35
314.616	5.44
314.985	5.48
315.353	5.42
315.722	5.49
316.091	5.5
316.46	5.55
316.829	5.72
317.198	5.84
317.567	5.83
317.935	5.82
318.304	5.65
318.672	5.71
319.041	5.85
319.41	5.85
319.778	5.94
320.147	6.03
320.515	6.01
320.883	5.82
321.252	5.87
321.62	5.91
321.988	5.94
322.357	6.02
322.725	6.07
323.093	6.22
323.461	6.2
323.829	6.28
324.197	6.3
324.565	6.25
324.933	6.32
325.301	6.45
325.669	6.53
326.037	6.61
326.405	6.71
326.772	6.67
327.14	6.89
327.508	6.87
327.875	6.77
328.243	6.91
328.61	6.98
328.978	6.85
329.346	6.92
329.713	6.82
330.08	6.86
330.448	6.71
330.815	6.64
331.182	6.67
331.55	6.7
331.917	6.71
332.284	6.81
332.651	6.7
333.018	6.66
333.385	6.77
333.752	6.82
334.119	6.86
334.486	6.84
334.853	6.78
335.22	6.81
335.587	6.94
335.954	6.96
336.32	7.07
336.687	7.14
337.054	7.06
337.42	7.29
337.787	7.3
338.153	7.5
338.52	7.68
338.886	7.63
339.253	7.65
339.619	7.71
339.986	7.72
340.352	7.93
340.718	8.01
341.084	7.99
341.451	8.11
341.817	8.17
342.183	8.18
342.549	8.16
342.915	8.24
343.281	8.19
343.647	8.17
344.013	8.17
344.379	8.16
344.745	8.33
345.11	8.3
345.476	8.31
345.842	8.19
346.208	8.12
346.573	8.22
346.939	8.2
347.304	8.22
347.67	8.22
348.035	8.06
348.401	7.98
348.766	7.97
349.132	7.87
349.497	7.84
349.862	7.91
350.228	7.9
350.593	7.88
350.958	7.94
351.323	7.9
351.688	7.9
352.053	8.03
352.418	7.96
352.783	7.97
353.148	7.92
353.513	8.04
353.878	8.02
354.243	8.02
354.608	8.12
354.972	8.15
355.337	8.14
355.702	8.16
356.066	8.25
356.431	8.19
356.795	8.25
357.16	8.19
357.524	8.14
357.889	8.14
358.253	8.16
358.618	8.19
358.982	8.17
359.346	8.17
359.71	8.15
360.075	8.2
360.439	8.21
360.803	8.2
361.167	8.15
361.531	8.11
361.895	8.04
362.259	7.99
362.623	7.95
362.987	7.94
363.351	7.95
363.714	7.88
364.078	7.88
364.442	7.75
364.806	7.75
365.169	7.74
365.533	7.77
365.896	7.74
366.26	7.66
366.623	7.72
366.987	7.69
367.35	7.62
367.714	7.6
368.077	7.57
368.44	7.53
368.803	7.48
369.167	7.44
369.53	7.45
369.893	7.4
370.256	7.39
370.619	7.34
370.982	7.28
371.345	7.24
371.708	7.2
372.071	7.21
372.434	7.19
372.797	7.16
373.159	7.09
373.522	7.04
373.885	7.02
374.247	6.91
374.61	6.87
374.973	6.82
375.335	6.72
375.698	6.67
376.06	6.65
376.423	6.62
376.785	6.63
377.147	6.66
377.51	6.6
377.872	6.55
378.234	6.57
378.596	6.57
378.958	6.53
379.321	6.52
379.683	6.52
380.045	6.42
380.407	6.39
380.769	6.33
381.13	6.28
381.492	6.29
381.854	6.24
382.216	6.22
382.578	6.18
382.939	6.11
383.301	6.11
383.663	6.08
384.024	6.07
384.386	6.07
384.747	6.05
385.109	6
385.47	5.95
385.832	5.92
386.193	5.89
386.554	5.9
386.916	5.85
387.277	5.83
387.638	5.85
387.999	5.82
388.36	5.83
388.721	5.81
389.082	5.76
389.443	5.76
389.804	5.71
390.165	5.67
390.526	5.69
390.887	5.6
391.248	5.59
391.609	5.58
391.969	5.52
392.33	5.47
392.691	5.47
393.051	5.46
393.412	5.42
393.772	5.39
394.133	5.38
394.493	5.38
394.854	5.35
395.214	5.34
395.574	5.3
395.935	5.26
396.295	5.23
396.655	5.2
397.015	5.16
397.376	5.13
397.736	5.14
398.096	5.13
398.456	5.13
398.816	5.09
399.176	5.04
399.535	5
399.895	4.97
400.255	4.9
400.615	4.89
400.975	4.86
401.334	4.84
401.694	4.78
402.054	4.73
402.413	4.7
402.773	4.66
403.132	4.64
403.492	4.61
403.851	4.59
404.211	4.6
404.57	4.58
404.929	4.6
405.288	4.55
405.648	4.49
406.007	4.49
406.366	4.48
406.725	4.48
407.084	4.49
407.443	4.48
407.802	4.5
408.161	4.48
408.52	4.46
408.879	4.47
409.238	4.48
409.596	4.46
409.955	4.47
410.314	4.48
410.673	4.47
411.031	4.48
411.39	4.46
411.748	4.44
412.107	4.42
412.465	4.35
412.824	4.35
413.182	4.34
413.54	4.33
413.899	4.32
414.257	4.29
414.615	4.24
414.974	4.22
415.332	4.21
415.69	4.17
416.048	4.18
416.406	4.15
416.764	4.13
417.122	4.14
417.48	4.1
417.838	4.09
418.195	4.09
418.553	4.07
418.911	4.06
419.269	4.03
419.626	4.05
419.984	4.04
420.342	4.04
420.699	4.02
421.057	4.01
421.414	3.99
421.772	3.98
422.129	3.98
422.486	3.98
422.844	3.97
423.201	3.97
423.558	3.94
423.915	3.94
424.273	3.93
424.63	3.91
424.987	3.89
425.344	3.89
425.701	3.88
426.058	3.86
426.415	3.86
426.772	3.86
427.128	3.84
427.485	3.86
427.842	3.84
428.199	3.84
428.555	3.83
428.912	3.82
429.269	3.83
429.625	3.82
429.982	3.8
430.338	3.78
430.695	3.79
431.051	3.78
431.407	3.76
431.764	3.76
432.12	3.76
432.476	3.75
432.832	3.71
433.189	3.69
433.545	3.69
433.901	3.66
434.257	3.64
434.613	3.64
434.969	3.61
435.325	3.62
435.681	3.63
436.036	3.62
436.392	3.63
436.748	3.62
437.104	3.61
437.459	3.6
437.815	3.62
438.171	3.61
438.526	3.62
438.882	3.61
439.237	3.61
439.593	3.62
439.948	3.64
440.304	3.65
440.659	3.66
441.014	3.66
441.369	3.67
441.725	3.68
442.08	3.69
442.435	3.68
442.79	3.68
443.145	3.69
443.5	3.68
443.855	3.67
444.21	3.67
444.565	3.67
444.92	3.69
445.275	3.67
445.629	3.66
445.984	3.66
446.339	3.64
446.693	3.62
447.048	3.61
447.403	3.59
447.757	3.57
448.112	3.56
448.466	3.57
448.82	3.57
449.175	3.56
449.529	3.55
449.883	3.55
450.238	3.52
450.592	3.5
450.946	3.49
451.3	3.5
451.654	3.47
452.008	3.47
452.362	3.44
452.716	3.42
453.07	3.43
453.424	3.4
453.778	3.42
454.132	3.43
454.486	3.42
454.839	3.44
455.193	3.44
455.547	3.44
455.9	3.43
456.254	3.42
456.607	3.42
456.961	3.42
457.314	3.42
457.668	3.44
458.021	3.43
458.375	3.43
458.728	3.42
459.081	3.43
459.434	3.42
459.787	3.43
460.141	3.45
460.494	3.45
460.847	3.46
461.2	3.45
461.553	3.45
461.906	3.45
462.259	3.45
462.611	3.46
462.964	3.47
463.317	3.46
463.67	3.46
464.022	3.46
464.375	3.44
464.728	3.45
465.08	3.44
465.433	3.43
465.785	3.44
466.138	3.44
466.49	3.46
466.843	3.46
467.195	3.48
467.547	3.48
467.899	3.49
468.252	3.5
468.604	3.53
468.956	3.54
469.308	3.55
469.66	3.55
470.012	3.57
470.364	3.57
470.716	3.59
471.068	3.6
471.42	3.61
471.772	3.65
472.123	3.66
472.475	3.67
472.827	3.7
473.178	3.7
473.53	3.72
473.882	3.73
474.233	3.75
474.585	3.73
474.936	3.74
475.288	3.74
475.639	3.76
475.99	3.74
476.342	3.72
476.693	3.73
477.044	3.75
477.395	3.74
477.746	3.74
478.097	3.74
478.448	3.73
478.8	3.74
479.15	3.72
479.501	3.72
479.852	3.72
480.203	3.71
480.554	3.71
480.905	3.72
481.255	3.71
481.606	3.72
481.957	3.73
482.307	3.73
482.658	3.73
483.009	3.73
483.359	3.74
483.709	3.75
484.06	3.74
484.41	3.74
484.761	3.75
485.111	3.75
485.461	3.75
485.811	3.76
486.162	3.76
486.512	3.76
486.862	3.75
487.212	3.74
487.562	3.74
487.912	3.74
488.262	3.73
488.612	3.72
488.961	3.71
489.311	3.7
489.661	3.69
490.011	3.69
490.36	3.68
490.71	3.67
491.06	3.66
491.409	3.66
491.759	3.66
492.108	3.65
492.458	3.63
492.807	3.64
493.157	3.65
493.506	3.65
493.855	3.66
494.204	3.66
494.554	3.66
494.903	3.67
495.252	3.69
495.601	3.71
495.95	3.71
496.299	3.74
496.648	3.77
496.997	3.78
497.346	3.81
497.695	3.84
498.043	3.84
498.392	3.87
498.741	3.9
499.09	3.93
499.438	3.96
499.787	4.01
500.135	4.03
500.484	4.05
500.832	4.07
501.181	4.11
501.529	4.16
501.878	4.21
502.226	4.26
502.574	4.3
502.923	4.36
503.271	4.41
503.619	4.44
503.967	4.49
504.315	4.51
504.663	4.56
505.011	4.6
505.359	4.67
505.707	4.71
506.055	4.77
506.403	4.83
506.751	4.9
507.098	4.94
507.446	4.99
507.794	5.03
508.141	5.1
508.489	5.14
508.837	5.21
509.184	5.26
509.531	5.32
509.879	5.36
510.226	5.42
510.574	5.48
510.921	5.53
511.268	5.57
511.616	5.64
511.963	5.69
512.31	5.75
512.657	5.81
513.004	5.87
513.351	5.94
513.698	6
514.045	6.05
514.392	6.13
514.739	6.2
515.086	6.28
515.432	6.32
515.779	6.41
516.126	6.48
516.473	6.54
516.819	6.61
517.166	6.69
517.512	6.73
517.859	6.79
518.205	6.86
518.552	6.93
518.898	7
519.245	7.07
519.591	7.15
519.937	7.19
520.283	7.28
520.629	7.34
520.976	7.42
521.322	7.5
521.668	7.61
522.014	7.7
522.36	7.8
522.706	7.89
523.052	7.99
523.398	8.1
523.743	8.23
524.089	8.35
524.435	8.45
524.781	8.56
525.126	8.67
525.472	8.76
525.817	8.84
526.163	8.94
526.509	9.03
526.854	9.11
527.199	9.2
527.545	9.27
527.89	9.34
528.235	9.43
528.581	9.51
528.926	9.59
529.271	9.68
529.616	9.76
529.961	9.87
530.306	9.97
530.651	10.06
530.996	10.16
531.341	10.28
531.686	10.4
532.031	10.53
532.376	10.64
532.721	10.79
533.065	10.92
533.41	11.06
533.755	11.19
534.099	11.34
534.444	11.47
534.788	11.63
535.133	11.79
535.477	11.92
535.822	12.09
536.166	12.26
536.51	12.45
536.855	12.67
537.199	12.89
537.543	13.1
537.887	13.35
538.231	13.59
538.576	13.85
538.92	14.08
539.264	14.32
539.608	14.55
539.951	14.76
540.295	14.98
540.639	15.21
540.983	15.41
541.327	15.62
541.671	15.84
542.014	16.05
542.358	16.27
542.701	16.52
543.045	16.74
543.389	16.95
543.732	17.16
544.075	17.37
544.419	17.61
544.762	17.87
545.105	18.11
545.449	18.37
545.792	18.61
546.135	18.9
546.478	19.2
546.821	19.51
547.165	19.81
547.508	20.14
547.851	20.47
548.194	20.85
548.536	21.19
548.879	21.55
549.222	21.92
549.565	22.27
549.908	22.62
550.25	22.96
550.593	23.33
550.936	23.73
551.278	24.1
551.621	24.48
551.963	24.88
552.306	25.32
552.648	25.69
552.991	26.01
553.333	26.39
553.675	26.73
554.017	27.13
554.36	27.55
554.702	27.88
555.044	28.22
555.386	28.53
555.728	28.87
556.07	29.27
556.412	29.6
556.754	29.95
557.096	30.33
557.438	30.74
557.78	31.14
558.121	31.56
558.463	31.97
558.805	32.36
559.147	32.71
559.488	32.99
559.83	33.35
560.171	33.8
560.513	34.16
560.854	34.54
561.196	34.84
561.537	35.17
561.878	35.54
562.22	35.88
562.561	36.23
562.902	36.59
563.243	36.87
563.584	37.2
563.925	37.53
564.266	37.81
564.607	38.06
564.948	38.38
565.289	38.65
565.63	38.89
565.971	39.15
566.312	39.41
566.653	39.69
566.993	39.98
567.334	40.22
567.675	40.49
568.015	40.72
568.356	41.01
568.696	41.3
569.037	41.53
569.377	41.78
569.718	42.05
570.058	42.28
570.398	42.5
570.739	42.75
571.079	42.97
571.419	43.18
571.759	43.47
572.099	43.65
572.439	43.86
572.779	44.07
573.119	44.28
573.459	44.54
573.799	44.73
574.139	44.91
574.479	45.08
574.819	45.28
575.158	45.5
575.498	45.66
575.838	45.8
576.177	46.03
576.517	46.24
576.856	46.43
577.196	46.61
577.535	46.83
577.875	46.96
578.214	47.18
578.553	47.4
578.893	47.55
579.232	47.75
579.571	47.89
579.91	48.17
580.25	48.3
580.589	48.4
580.928	48.54
581.267	48.73
581.606	48.88
581.945	49.04
582.283	49.25
582.622	49.48
582.961	49.64
583.3	49.78
583.639	49.94
583.977	50.13
584.316	50.31
584.654	50.47
584.993	50.7
585.332	50.82
585.67	50.96
586.008	51.11
586.347	51.3
586.685	51.46
587.024	51.56
587.362	51.74
587.7	51.82
588.038	52.02
588.376	52.1
588.715	52.23
589.053	52.36
589.391	52.49
589.729	52.55
590.067	52.67
590.404	52.72
590.742	52.8
591.08	52.84
591.418	52.92
591.756	53.05
592.093	53.15
592.431	53.23
592.769	53.33
593.106	53.45
593.444	53.52
593.781	53.63
594.119	53.67
594.456	53.74
594.793	53.91
595.131	53.94
595.468	54.06
595.805	54.17
596.143	54.15
596.48	54.18
596.817	54.28
597.154	54.35
597.491	54.45
597.828	54.52
598.165	54.54
598.502	54.65
598.839	54.73
599.176	54.77
599.512	54.87
599.849	54.93
600.186	54.99
600.523	55.05
600.859	55.17
601.196	55.31
601.532	55.32
601.869	55.39
602.205	55.52
602.542	55.59
602.878	55.63
603.215	55.78
603.551	55.85
603.887	55.85
604.223	55.95
604.56	56.07
604.896	56.13
605.232	56.26
605.568	56.28
605.904	56.32
606.24	56.42
606.576	56.46
606.912	56.5
607.248	56.53
607.583	56.62
607.919	56.63
608.255	56.59
608.591	56.74
608.926	56.76
609.262	56.73
609.597	56.73
609.933	56.71
610.268	56.72
610.604	56.75
610.939	56.88
611.275	56.93
611.61	56.88
611.945	56.95
612.281	57.01
612.616	57.14
612.951	57.15
613.286	57.21
613.621	57.31
613.956	57.41
614.291	57.53
614.626	57.49
614.961	57.55
615.296	57.67
615.631	57.65
615.966	57.73
616.3	57.8
616.635	57.93
616.97	58.1
617.304	58.18
617.639	58.2
617.973	58.24
618.308	58.21
618.642	58.35
618.977	58.35
619.311	58.29
619.646	58.27
619.98	58.34
620.314	58.33
620.648	58.37
620.983	58.42
621.317	58.43
621.651	58.55
621.985	58.65
622.319	58.62
622.653	58.68
622.987	58.74
623.321	58.82
623.655	58.84
623.988	58.91
624.322	59.03
624.656	59.16
624.99	59.1
625.323	59.09
625.657	59.05
625.99	59.16
626.324	59.13
626.657	59.14
626.991	59.18
627.324	59.17
627.658	59.18
627.991	59.29
628.324	59.33
628.657	59.32
628.991	59.35
629.324	59.53
629.657	59.53
629.99	59.52
630.323	59.56
630.656	59.59
630.989	59.65
631.322	59.63
631.655	59.53
631.987	59.65
632.32	59.82
632.653	59.85
632.986	59.83
633.318	59.94
633.651	60
633.984	60.01
634.316	60.05
634.649	60.04
634.981	59.99
635.313	60.01
635.646	60.1
635.978	60.08
636.31	59.99
636.643	59.98
636.975	60.04
637.307	60.07
637.639	60.09
637.971	60.05
638.303	60.04
638.635	60.09
638.967	60.06
639.299	60
639.631	60.02
639.963	60.01
640.295	60.01
640.626	60.01
640.958	60.1
641.29	60.17
641.621	60.3
641.953	60.32
642.285	60.39
642.616	60.37
642.948	60.31
643.279	60.4
643.61	60.54
643.942	60.46
644.273	60.45
644.604	60.51
644.936	60.47
645.267	60.43
645.598	60.47
645.929	60.51
646.26	60.6
646.591	60.57
646.922	60.61
647.253	60.72
647.584	60.7
647.915	60.59
648.245	60.59
648.576	60.55
648.907	60.62
649.238	60.62
649.568	60.56
649.899	60.7
650.229	60.69
650.56	60.76
650.89	60.86
651.221	60.91
651.551	60.9
651.882	60.99
652.212	61.07
652.542	61.1
652.872	61.11
653.203	61.12
653.533	61.18
653.863	61.24
654.193	61.27
654.523	61.35
654.853	61.46
655.183	61.52
655.513	61.57
655.843	61.65
656.172	61.68
656.502	61.83
656.832	61.74
657.162	61.76
657.491	61.76
657.821	61.79
658.15	61.72
658.48	61.7
658.809	61.72
659.139	61.72
659.468	61.75
659.798	61.81
660.127	61.79
660.456	61.82
660.785	61.75
661.115	61.71
661.444	61.75
661.773	61.69
662.102	61.78
662.431	61.82
662.76	61.69
663.089	61.73
663.418	61.65
663.747	61.79
664.076	61.82
664.404	61.88
664.733	61.76
665.062	61.81
665.39	61.8
665.719	61.7
666.048	61.73
666.376	61.78
666.705	61.8
667.033	61.83
667.362	61.83
