Data from BA28306_Reflection_00010.txt Node
Date: Mon Nov 18 15:53:52 EST 2019
User: vgr7
Spectrometer: USB2G7710
Scans to average: 3
Trigger mode: 4
Integration Time (sec): 2.000000E-2
Electric dark correction enabled: true
Boxcar width: 10
XAxis mode: Wavelengths
Number of Pixels in Spectrum: 2048
>>>>>Begin Spectral Data<<<<<
177.721	-404.85
178.105	-192.99
178.488	-217.51
178.871	-376.42
179.254	-141.76
179.636	-226.53
180.019	85.94
180.402	59.09
180.785	-129.02
181.168	-172.59
181.55	-111.83
181.933	202.53
182.316	191.69
182.698	264.66
183.081	262.66
183.463	524.02
183.846	1490.86
184.228	-1513.26
184.611	-1917.39
184.993	-474.43
185.376	-243.65
185.758	-716.63
186.14	-574.38
186.522	-377.38
186.904	-391.77
187.287	-364.38
187.669	-351.19
188.051	-389.42
188.433	-284.28
188.815	-312.99
189.197	-253.94
189.579	-261.75
189.961	-192.32
190.342	-136.74
190.724	-119.92
191.106	-175.61
191.488	-168.99
191.869	-213.82
192.251	-359.02
192.633	-248.02
193.014	-225.72
193.396	-253.26
193.777	-138.93
194.159	-64.4
194.54	-79.88
194.922	-59.91
195.303	-80.48
195.684	-68.71
196.065	-51.74
196.447	-55.27
196.828	-102.08
197.209	-102.15
197.59	-150.46
197.971	-216.38
198.352	-199.31
198.733	-282.43
199.114	-172.02
199.495	-133.5
199.876	-87.98
200.257	-84.09
200.638	-76.1
201.018	-105.45
201.399	-103.44
201.78	-111.01
202.16	-159.04
202.541	-153.61
202.922	-230.94
203.302	-330.82
203.683	-335.55
204.063	-498.43
204.444	-360.16
204.824	-202.05
205.204	-191.78
205.585	-193.51
205.965	-154.02
206.345	-206.26
206.725	-141.65
207.106	-163.42
207.486	-288.39
207.866	-291.77
208.246	-273.21
208.626	-313.08
209.006	-192.08
209.386	-198.44
209.766	-150.31
210.145	-172.05
210.525	-129.06
210.905	-127.53
211.285	-88.15
211.664	-71.21
212.044	-59.31
212.424	-58.14
212.803	-69.48
213.183	-61.66
213.562	-50.79
213.942	-36.19
214.321	-33.47
214.701	-42.17
215.08	-48.16
215.459	-31.65
215.838	-27.57
216.218	-37.87
216.597	-30.43
216.976	-23.68
217.355	-18.84
217.734	-26.76
218.113	-10.67
218.492	-21.35
218.871	-37.43
219.25	-23.6
219.629	-33.86
220.008	-49.14
220.387	-38.04
220.766	-37.3
221.144	-51.34
221.523	-64.12
221.902	-69.7
222.28	-68.89
222.659	-68.94
223.037	-69.54
223.416	-84.39
223.794	-86.37
224.173	-64.78
224.551	-48.3
224.929	-52.79
225.308	-53.65
225.686	-44.63
226.064	-37.43
226.442	-31.48
226.821	-14.06
227.199	-15.93
227.577	-16.99
227.955	-11.72
228.333	-6.78
228.711	-1.78
229.089	-3.12
229.467	-3.84
229.845	-4.23
230.222	-2.21
230.6	-0.63
230.978	0.47
231.356	1.37
231.733	2.64
232.111	2.89
232.488	2.28
232.866	2.35
233.243	4.1
233.621	3.57
233.998	3.44
234.376	2.5
234.753	1.21
235.13	1.55
235.508	1.94
235.885	1.56
236.262	-1.38
236.639	-0.89
237.016	-0.01
237.393	2.28
237.77	3.03
238.147	2.73
238.524	3.09
238.901	3.95
239.278	3.84
239.655	4.02
240.032	4.13
240.409	3.45
240.785	3.56
241.162	3.27
241.539	3.54
241.915	3.18
242.292	3.06
242.668	3.07
243.045	3.39
243.421	3.8
243.798	3.81
244.174	4.32
244.551	4.01
244.927	4.27
245.303	4.04
245.679	4.16
246.056	4
246.432	3.93
246.808	3.74
247.184	3.54
247.56	3.28
247.936	3.05
248.312	3.36
248.688	3.27
249.064	3.18
249.44	3.19
249.815	3.11
250.191	3.47
250.567	3.47
250.943	3.4
251.318	3.37
251.694	3.57
252.069	3.17
252.445	3.45
252.82	3.23
253.196	3.25
253.571	3.07
253.947	3.31
254.322	3.62
254.697	3.38
255.073	3.7
255.448	3.77
255.823	4.19
256.198	4.22
256.573	4.25
256.948	4.16
257.323	4.22
257.698	4.44
258.073	4.35
258.448	4.2
258.823	4.12
259.198	4.1
259.573	4.07
259.948	4.05
260.322	3.92
260.697	3.9
261.072	4
261.446	4.11
261.821	4.15
262.195	4.04
262.57	4.12
262.944	4.06
263.319	4.04
263.693	3.85
264.067	3.79
264.442	3.91
264.816	3.93
265.19	3.9
265.564	3.97
265.938	3.85
266.313	4.09
266.687	4.16
267.061	4.05
267.435	4.15
267.809	4.22
268.183	4.15
268.556	4.16
268.93	4.06
269.304	3.96
269.678	4.01
270.051	4.09
270.425	4.12
270.799	4.04
271.172	4
271.546	4.07
271.919	4.01
272.293	3.83
272.666	4.01
273.04	4.09
273.413	3.97
273.787	3.98
274.16	3.84
274.533	3.77
274.906	3.8
275.279	3.68
275.653	3.57
276.026	3.57
276.399	3.57
276.772	3.76
277.145	3.64
277.518	3.52
277.891	3.55
278.263	3.24
278.636	3.26
279.009	3.43
279.382	3.43
279.755	3.39
280.127	3.47
280.5	3.58
280.872	3.53
281.245	3.72
281.617	3.74
281.99	3.82
282.362	3.94
282.735	3.8
283.107	3.86
283.479	4.06
283.852	4.19
284.224	4.23
284.596	3.99
284.968	4.19
285.34	4.25
285.713	4.04
286.085	4.28
286.457	4.4
286.829	4.35
287.201	4.32
287.572	4.4
287.944	4.47
288.316	4.3
288.688	4.19
289.06	4.04
289.431	4.07
289.803	4.07
290.175	4.05
290.546	4.25
290.918	4.17
291.289	4.23
291.661	4.21
292.032	4.29
292.403	4.3
292.775	4.27
293.146	4.18
293.517	4.29
293.889	4.35
294.26	4.33
294.631	4.28
295.002	4.27
295.373	4.22
295.744	4.16
296.115	4.14
296.486	4.14
296.857	4.14
297.228	4.15
297.599	4.17
297.97	4.08
298.34	4.06
298.711	4.05
299.082	3.9
299.452	3.88
299.823	3.91
300.194	4.02
300.564	4.02
300.935	4.09
301.305	4.09
301.676	4.03
302.046	3.93
302.416	3.96
302.787	4.09
303.157	4.14
303.527	4.14
303.897	4.26
304.267	4.47
304.637	4.46
305.008	4.56
305.378	4.59
305.748	4.68
306.117	4.52
306.487	4.57
306.857	4.63
307.227	4.53
307.597	4.47
307.967	4.48
308.336	4.53
308.706	4.58
309.076	4.6
309.445	4.68
309.815	4.65
310.184	4.61
310.554	4.61
310.923	4.62
311.293	4.63
311.662	4.53
312.031	4.46
312.401	4.45
312.77	4.46
313.139	4.48
313.508	4.5
313.877	4.54
314.246	4.57
314.616	4.61
314.985	4.69
315.353	4.64
315.722	4.64
316.091	4.55
316.46	4.56
316.829	4.51
317.198	4.53
317.567	4.58
317.935	4.47
318.304	4.47
318.672	4.49
319.041	4.57
319.41	4.59
319.778	4.63
320.147	4.79
320.515	4.61
320.883	4.49
321.252	4.49
321.62	4.54
321.988	4.4
322.357	4.34
322.725	4.45
323.093	4.48
323.461	4.49
323.829	4.53
324.197	4.45
324.565	4.54
324.933	4.59
325.301	4.68
325.669	4.89
326.037	4.84
326.405	4.89
326.772	4.89
327.14	4.96
327.508	4.9
327.875	4.83
328.243	4.92
328.61	4.96
328.978	5.07
329.346	5.24
329.713	5.32
330.08	5.41
330.448	5.37
330.815	5.25
331.182	5.31
331.55	5.38
331.917	5.44
332.284	5.36
332.651	5.28
333.018	5.3
333.385	5.31
333.752	5.45
334.119	5.41
334.486	5.34
334.853	5.37
335.22	5.38
335.587	5.4
335.954	5.53
336.32	5.48
336.687	5.44
337.054	5.33
337.42	5.42
337.787	5.44
338.153	5.45
338.52	5.72
338.886	5.68
339.253	5.61
339.619	5.71
339.986	5.83
340.352	5.9
340.718	5.84
341.084	5.76
341.451	5.7
341.817	5.73
342.183	5.8
342.549	5.66
342.915	5.73
343.281	5.87
343.647	5.83
344.013	5.99
344.379	5.9
344.745	5.91
345.11	5.92
345.476	5.84
345.842	5.82
346.208	5.7
346.573	5.65
346.939	5.68
347.304	5.56
347.67	5.52
348.035	5.48
348.401	5.57
348.766	5.64
349.132	5.56
349.497	5.55
349.862	5.67
350.228	5.75
350.593	5.73
350.958	5.68
351.323	5.63
351.688	5.56
352.053	5.68
352.418	5.69
352.783	5.66
353.148	5.7
353.513	5.69
353.878	5.73
354.243	5.74
354.608	5.72
354.972	5.79
355.337	5.82
355.702	5.96
356.066	5.95
356.431	5.9
356.795	5.98
357.16	5.93
357.524	5.85
357.889	5.86
358.253	5.75
358.618	5.72
358.982	5.71
359.346	5.65
359.71	5.57
360.075	5.57
360.439	5.56
360.803	5.53
361.167	5.52
361.531	5.52
361.895	5.47
362.259	5.46
362.623	5.44
362.987	5.37
363.351	5.27
363.714	5.27
364.078	5.27
364.442	5.2
364.806	5.21
365.169	5.13
365.533	5.11
365.896	5.14
366.26	5.1
366.623	5.12
366.987	5.16
367.35	5.2
367.714	5.2
368.077	5.13
368.44	5.07
368.803	5.05
369.167	4.94
369.53	4.99
369.893	4.97
370.256	4.92
370.619	4.93
370.982	4.87
371.345	4.8
371.708	4.78
372.071	4.73
372.434	4.71
372.797	4.72
373.159	4.72
373.522	4.77
373.885	4.77
374.247	4.72
374.61	4.65
374.973	4.55
375.335	4.47
375.698	4.5
376.06	4.56
376.423	4.52
376.785	4.54
377.147	4.55
377.51	4.48
377.872	4.49
378.234	4.47
378.596	4.44
378.958	4.39
379.321	4.37
379.683	4.41
380.045	4.32
380.407	4.28
380.769	4.3
381.13	4.25
381.492	4.2
381.854	4.22
382.216	4.24
382.578	4.24
382.939	4.27
383.301	4.3
383.663	4.27
384.024	4.29
384.386	4.31
384.747	4.31
385.109	4.32
385.47	4.24
385.832	4.24
386.193	4.27
386.554	4.31
386.916	4.33
387.277	4.3
387.638	4.37
387.999	4.33
388.36	4.3
388.721	4.29
389.082	4.3
389.443	4.24
389.804	4.2
390.165	4.21
390.526	4.15
390.887	4.08
391.248	4.09
391.609	4.05
391.969	4
392.33	3.98
392.691	3.97
393.051	3.98
393.412	3.97
393.772	3.93
394.133	3.91
394.493	3.86
394.854	3.86
395.214	3.77
395.574	3.79
395.935	3.76
396.295	3.8
396.655	3.77
397.015	3.77
397.376	3.79
397.736	3.73
398.096	3.73
398.456	3.74
398.816	3.7
399.176	3.73
399.535	3.7
399.895	3.67
400.255	3.68
400.615	3.7
400.975	3.67
401.334	3.66
401.694	3.66
402.054	3.65
402.413	3.64
402.773	3.66
403.132	3.66
403.492	3.64
403.851	3.58
404.211	3.6
404.57	3.57
404.929	3.56
405.288	3.58
405.648	3.56
406.007	3.55
406.366	3.54
406.725	3.56
407.084	3.58
407.443	3.59
407.802	3.58
408.161	3.56
408.52	3.57
408.879	3.57
409.238	3.55
409.596	3.57
409.955	3.55
410.314	3.58
410.673	3.55
411.031	3.58
411.39	3.59
411.748	3.58
412.107	3.58
412.465	3.56
412.824	3.56
413.182	3.52
413.54	3.52
413.899	3.51
414.257	3.46
414.615	3.43
414.974	3.42
415.332	3.42
415.69	3.42
416.048	3.4
416.406	3.41
416.764	3.39
417.122	3.37
417.48	3.37
417.838	3.37
418.195	3.38
418.553	3.35
418.911	3.34
419.269	3.34
419.626	3.36
419.984	3.36
420.342	3.37
420.699	3.39
421.057	3.39
421.414	3.38
421.772	3.38
422.129	3.39
422.486	3.39
422.844	3.38
423.201	3.37
423.558	3.37
423.915	3.36
424.273	3.37
424.63	3.37
424.987	3.36
425.344	3.34
425.701	3.33
426.058	3.33
426.415	3.32
426.772	3.31
427.128	3.3
427.485	3.29
427.842	3.27
428.199	3.29
428.555	3.28
428.912	3.3
429.269	3.31
429.625	3.3
429.982	3.29
430.338	3.28
430.695	3.28
431.051	3.28
431.407	3.29
431.764	3.28
432.12	3.27
432.476	3.28
432.832	3.29
433.189	3.3
433.545	3.31
433.901	3.33
434.257	3.31
434.613	3.31
434.969	3.33
435.325	3.33
435.681	3.31
436.036	3.32
436.392	3.32
436.748	3.31
437.104	3.32
437.459	3.33
437.815	3.33
438.171	3.34
438.526	3.35
438.882	3.34
439.237	3.34
439.593	3.34
439.948	3.33
440.304	3.32
440.659	3.31
441.014	3.31
441.369	3.3
441.725	3.3
442.08	3.3
442.435	3.3
442.79	3.3
443.145	3.3
443.5	3.29
443.855	3.28
444.21	3.27
444.565	3.26
444.92	3.27
445.275	3.27
445.629	3.27
445.984	3.26
446.339	3.25
446.693	3.24
447.048	3.23
447.403	3.22
447.757	3.22
448.112	3.21
448.466	3.2
448.82	3.21
449.175	3.19
449.529	3.17
449.883	3.15
450.238	3.14
450.592	3.14
450.946	3.12
451.3	3.11
451.654	3.12
452.008	3.13
452.362	3.13
452.716	3.12
453.07	3.13
453.424	3.14
453.778	3.15
454.132	3.16
454.486	3.17
454.839	3.18
455.193	3.19
455.547	3.19
455.9	3.21
456.254	3.21
456.607	3.24
456.961	3.25
457.314	3.26
457.668	3.27
458.021	3.26
458.375	3.28
458.728	3.28
459.081	3.27
459.434	3.26
459.787	3.25
460.141	3.24
460.494	3.23
460.847	3.25
461.2	3.25
461.553	3.26
461.906	3.27
462.259	3.29
462.611	3.29
462.964	3.3
463.317	3.29
463.67	3.29
464.022	3.3
464.375	3.29
464.728	3.29
465.08	3.27
465.433	3.28
465.785	3.28
466.138	3.29
466.49	3.31
466.843	3.32
467.195	3.33
467.547	3.33
467.899	3.32
468.252	3.3
468.604	3.29
468.956	3.27
469.308	3.27
469.66	3.26
470.012	3.26
470.364	3.27
470.716	3.26
471.068	3.24
471.42	3.24
471.772	3.27
472.123	3.26
472.475	3.3
472.827	3.27
473.178	3.28
473.53	3.29
473.882	3.27
474.233	3.27
474.585	3.24
474.936	3.26
475.288	3.25
475.639	3.25
475.99	3.26
476.342	3.26
476.693	3.26
477.044	3.26
477.395	3.27
477.746	3.27
478.097	3.27
478.448	3.27
478.8	3.26
479.15	3.23
479.501	3.24
479.852	3.23
480.203	3.25
480.554	3.25
480.905	3.25
481.255	3.26
481.606	3.26
481.957	3.29
482.307	3.3
482.658	3.31
483.009	3.31
483.359	3.32
483.709	3.33
484.06	3.32
484.41	3.32
484.761	3.33
485.111	3.33
485.461	3.33
485.811	3.33
486.162	3.33
486.512	3.35
486.862	3.35
487.212	3.36
487.562	3.36
487.912	3.36
488.262	3.37
488.612	3.37
488.961	3.37
489.311	3.36
489.661	3.36
490.011	3.35
490.36	3.35
490.71	3.34
491.06	3.34
491.409	3.35
491.759	3.35
492.108	3.34
492.458	3.33
492.807	3.33
493.157	3.34
493.506	3.35
493.855	3.36
494.204	3.35
494.554	3.36
494.903	3.35
495.252	3.35
495.601	3.36
495.95	3.36
496.299	3.38
496.648	3.38
496.997	3.39
497.346	3.42
497.695	3.45
498.043	3.45
498.392	3.47
498.741	3.47
499.09	3.46
499.438	3.49
499.787	3.52
500.135	3.54
500.484	3.56
500.832	3.56
501.181	3.59
501.529	3.61
501.878	3.65
502.226	3.68
502.574	3.72
502.923	3.7
503.271	3.74
503.619	3.75
503.967	3.78
504.315	3.78
504.663	3.79
505.011	3.79
505.359	3.81
505.707	3.86
506.055	3.89
506.403	3.93
506.751	3.96
507.098	3.99
507.446	4.01
507.794	4.03
508.141	4.06
508.489	4.08
508.837	4.09
509.184	4.1
509.531	4.13
509.879	4.14
510.226	4.2
510.574	4.22
510.921	4.26
511.268	4.27
511.616	4.32
511.963	4.36
512.31	4.4
512.657	4.44
513.004	4.46
513.351	4.5
513.698	4.53
514.045	4.55
514.392	4.58
514.739	4.62
515.086	4.66
515.432	4.7
515.779	4.73
516.126	4.79
516.473	4.85
516.819	4.89
517.166	4.95
517.512	4.98
517.859	5.01
518.205	5.05
518.552	5.09
518.898	5.11
519.245	5.14
519.591	5.16
519.937	5.19
520.283	5.23
520.629	5.28
520.976	5.33
521.322	5.38
521.668	5.43
522.014	5.48
522.36	5.54
522.706	5.62
523.052	5.69
523.398	5.77
523.743	5.84
524.089	5.93
524.435	5.99
524.781	6.06
525.126	6.14
525.472	6.21
525.817	6.26
526.163	6.34
526.509	6.4
526.854	6.48
527.199	6.53
527.545	6.59
527.89	6.65
528.235	6.71
528.581	6.78
528.926	6.85
529.271	6.92
529.616	6.98
529.961	7.05
530.306	7.12
530.651	7.19
530.996	7.26
531.341	7.32
531.686	7.4
532.031	7.49
532.376	7.57
532.721	7.67
533.065	7.78
533.41	7.88
533.755	8
534.099	8.11
534.444	8.23
534.788	8.35
535.133	8.46
535.477	8.59
535.822	8.72
536.166	8.85
536.51	9
536.855	9.17
537.199	9.35
537.543	9.54
537.887	9.73
538.231	9.93
538.576	10.13
538.92	10.32
539.264	10.51
539.608	10.71
539.951	10.9
540.295	11.07
540.639	11.25
540.983	11.41
541.327	11.58
541.671	11.74
542.014	11.92
542.358	12.1
542.701	12.27
543.045	12.43
543.389	12.62
543.732	12.81
544.075	13
544.419	13.19
544.762	13.4
545.105	13.62
545.449	13.86
545.792	14.12
546.135	14.39
546.478	14.67
546.821	14.93
547.165	15.2
547.508	15.52
547.851	15.79
548.194	16.08
548.536	16.39
548.879	16.71
549.222	17
549.565	17.32
549.908	17.65
550.25	18.01
550.593	18.33
550.936	18.68
551.278	19
551.621	19.37
551.963	19.71
552.306	20.03
552.648	20.38
552.991	20.7
553.333	21.03
553.675	21.36
554.017	21.7
554.36	22.01
554.702	22.31
555.044	22.66
555.386	23.06
555.728	23.37
556.07	23.74
556.412	24.07
556.754	24.44
557.096	24.76
557.438	25.12
557.78	25.53
558.121	25.92
558.463	26.34
558.805	26.64
559.147	27.01
559.488	27.35
559.83	27.68
560.171	28.04
560.513	28.37
560.854	28.73
561.196	29.06
561.537	29.37
561.878	29.72
562.22	30.06
562.561	30.34
562.902	30.7
563.243	31.04
563.584	31.38
563.925	31.72
564.266	32.03
564.607	32.29
564.948	32.59
565.289	32.85
565.63	33.1
565.971	33.39
566.312	33.66
566.653	33.95
566.993	34.22
567.334	34.45
567.675	34.71
568.015	35.02
568.356	35.3
568.696	35.58
569.037	35.81
569.377	36.03
569.718	36.27
570.058	36.5
570.398	36.72
570.739	36.98
571.079	37.21
571.419	37.47
571.759	37.73
572.099	37.89
572.439	38.13
572.779	38.35
573.119	38.6
573.459	38.82
573.799	39.03
574.139	39.24
574.479	39.51
574.819	39.74
575.158	39.87
575.498	40.11
575.838	40.34
576.177	40.55
576.517	40.75
576.856	40.96
577.196	41.22
577.535	41.41
577.875	41.62
578.214	41.88
578.553	42.13
578.893	42.3
579.232	42.6
579.571	42.75
579.91	42.97
580.25	43.19
580.589	43.39
580.928	43.57
581.267	43.79
581.606	43.93
581.945	44.11
582.283	44.3
582.622	44.49
582.961	44.65
583.3	44.87
583.639	45.11
583.977	45.43
584.316	45.58
584.654	45.79
584.993	45.92
585.332	46
585.67	46.16
586.008	46.39
586.347	46.45
586.685	46.74
587.024	46.97
587.362	47.08
587.7	47.21
588.038	47.41
588.376	47.55
588.715	47.67
589.053	47.86
589.391	48.03
589.729	48.09
590.067	48.24
590.404	48.39
590.742	48.53
591.08	48.53
591.418	48.67
591.756	48.8
592.093	48.96
592.431	49.07
592.769	49.15
593.106	49.25
593.444	49.47
593.781	49.5
594.119	49.56
594.456	49.66
594.793	49.78
595.131	49.84
595.468	49.94
595.805	50.08
596.143	50.14
596.48	50.28
596.817	50.37
597.154	50.44
597.491	50.53
597.828	50.59
598.165	50.68
598.502	50.71
598.839	50.81
599.176	50.92
599.512	51.1
599.849	51.3
600.186	51.42
600.523	51.58
600.859	51.68
601.196	51.78
601.532	51.94
601.869	52.02
602.205	52.12
602.542	52.15
602.878	52.21
603.215	52.29
603.551	52.29
603.887	52.43
604.223	52.52
604.56	52.64
604.896	52.75
605.232	52.91
605.568	52.97
605.904	53.06
606.24	53.08
606.576	53.1
606.912	53.15
607.248	53.23
607.583	53.26
607.919	53.34
608.255	53.37
608.591	53.42
608.926	53.5
609.262	53.65
609.597	53.76
609.933	53.93
610.268	54.09
610.604	54.28
610.939	54.3
611.275	54.37
611.61	54.34
611.945	54.39
612.281	54.48
612.616	54.6
612.951	54.69
613.286	54.84
613.621	55.01
613.956	55.08
614.291	55.08
614.626	55.17
614.961	55.31
615.296	55.43
615.631	55.45
615.966	55.56
616.3	55.53
616.635	55.57
616.97	55.57
617.304	55.58
617.639	55.58
617.973	55.65
618.308	55.66
618.642	55.75
618.977	55.84
619.311	55.8
619.646	55.84
619.98	55.92
620.314	55.94
620.648	55.86
620.983	55.86
621.317	55.93
621.651	55.98
621.985	55.88
622.319	55.94
622.653	56.1
622.987	56.13
623.321	56.22
623.655	56.34
623.988	56.29
624.322	56.31
624.656	56.36
624.99	56.46
625.323	56.56
625.657	56.66
625.99	56.68
626.324	56.71
626.657	56.8
626.991	56.79
627.324	56.87
627.658	56.98
627.991	57.08
628.324	57.2
628.657	57.2
628.991	57.31
629.324	57.36
629.657	57.32
629.99	57.39
630.323	57.44
630.656	57.51
630.989	57.65
631.322	57.67
631.655	57.64
631.987	57.62
632.32	57.69
632.653	57.69
632.986	57.69
633.318	57.78
633.651	57.79
633.984	57.74
634.316	57.76
634.649	57.82
634.981	57.9
635.313	57.85
635.646	57.89
635.978	57.97
636.31	57.95
636.643	57.96
636.975	57.91
637.307	58.03
637.639	58.03
637.971	57.95
638.303	58.03
638.635	58.13
638.967	58.18
639.299	58.2
639.631	58.27
639.963	58.33
640.295	58.39
640.626	58.47
640.958	58.67
641.29	58.63
641.621	58.64
641.953	58.58
642.285	58.73
642.616	58.81
642.948	58.83
643.279	59
643.61	59.14
643.942	59.18
644.273	59.09
644.604	59.18
644.936	59.26
645.267	59.33
645.598	59.28
645.929	59.37
646.26	59.39
646.591	59.37
646.922	59.48
647.253	59.41
647.584	59.39
647.915	59.39
648.245	59.44
648.576	59.45
648.907	59.64
649.238	59.64
649.568	59.72
649.899	59.79
650.229	59.82
650.56	59.9
650.89	59.93
651.221	60.02
651.551	59.96
651.882	60.12
652.212	60.06
652.542	60.07
652.872	60.09
653.203	60.18
653.533	60.26
653.863	60.23
654.193	60.25
654.523	60.36
654.853	60.35
655.183	60.48
655.513	60.61
655.843	60.58
656.172	60.64
656.502	60.56
656.832	60.62
657.162	60.59
657.491	60.38
657.821	60.44
658.15	60.41
658.48	60.55
658.809	60.44
659.139	60.55
659.468	60.69
659.798	60.77
660.127	60.74
660.456	60.68
660.785	60.71
661.115	60.74
661.444	60.72
661.773	60.88
662.102	61
662.431	60.99
662.76	60.88
663.089	60.8
663.418	60.83
663.747	60.7
664.076	60.72
664.404	60.9
664.733	60.88
665.062	60.92
665.39	60.82
665.719	60.93
666.048	60.9
666.376	60.78
