Data from BA28420_Reflection_00010.txt Node
Date: Mon Nov 18 16:08:34 EST 2019
User: vgr7
Spectrometer: USB2G7710
Scans to average: 3
Trigger mode: 4
Integration Time (sec): 2.000000E-2
Electric dark correction enabled: true
Boxcar width: 10
XAxis mode: Wavelengths
Number of Pixels in Spectrum: 2048
>>>>>Begin Spectral Data<<<<<
177.721	-177.34
178.105	798.41
178.488	-1344.44
178.871	-152.35
179.254	-267.3
179.636	-16.16
180.019	-50.33
180.402	141.67
180.785	-260.27
181.168	-241.88
181.55	-95.4
181.933	99.38
182.316	109.86
182.698	142.48
183.081	176.62
183.463	89.95
183.846	54.85
184.228	26.8
184.611	2.46
184.993	-22.13
185.376	-0.89
185.758	4877.78
186.14	-175.08
186.522	-382.59
186.904	499.27
187.287	-585.53
187.669	2110.1
188.051	-362.48
188.433	-404.66
188.815	-283.39
189.197	-262.41
189.579	-373.5
189.961	-321.12
190.342	-192
190.724	-238.33
191.106	-156.18
191.488	-200.14
191.869	-242.79
192.251	-271.65
192.633	-137.08
193.014	-91.96
193.396	-37.91
193.777	-6.51
194.159	6.97
194.54	-26.59
194.922	-8.71
195.303	-10.41
195.684	11.41
196.065	-75.66
196.447	-41.19
196.828	-24.9
197.209	-88.25
197.59	-124.77
197.971	-158.76
198.352	370.02
198.733	348.03
199.114	288.83
199.495	170.71
199.876	151.24
200.257	141.45
200.638	116.55
201.018	70.12
201.399	72.07
201.78	81.53
202.16	74.69
202.541	49.77
202.922	15.96
203.302	6.02
203.683	18.96
204.063	13.12
204.444	23.03
204.824	18.43
205.204	-1.53
205.585	-18.88
205.965	-11.11
206.345	-26.81
206.725	-58.97
207.106	-79.06
207.486	-272.55
207.866	-248.11
208.246	-254.91
208.626	-326.72
209.006	-165.84
209.386	-179.6
209.766	-218.7
210.145	-356.48
210.525	-85
210.905	-25.07
211.285	-13.78
211.664	-26.57
212.044	-7.34
212.424	10.91
212.803	3.46
213.183	15.91
213.562	32.73
213.942	55.26
214.321	49.33
214.701	35.61
215.08	51.65
215.459	60.37
215.838	78.21
216.218	68.15
216.597	56.36
216.976	61.61
217.355	42.9
217.734	66.26
218.113	42.04
218.492	32.12
218.871	40.59
219.25	47.25
219.629	38.48
220.008	11.1
220.387	-5.71
220.766	2.98
221.144	-4.11
221.523	-13.06
221.902	-55.26
222.28	-64.13
222.659	-33.19
223.037	-20.25
223.416	-19.97
223.794	-6.79
224.173	-7.25
224.551	-1.45
224.929	-3.37
225.308	5.52
225.686	-0.46
226.064	11.05
226.442	6.35
226.821	10.68
227.199	8.12
227.577	7.94
227.955	10.29
228.333	12.8
228.711	11.21
229.089	15.37
229.467	13.91
229.845	15.8
230.222	18.13
230.6	17.41
230.978	15.67
231.356	17.64
231.733	16.1
232.111	15.85
232.488	14.31
232.866	10.54
233.243	10.92
233.621	10.58
233.998	7.55
234.376	8.34
234.753	7.59
235.13	10.44
235.508	11.56
235.885	9.54
236.262	7.83
236.639	8.72
237.016	9.04
237.393	10.1
237.77	9.54
238.147	9.45
238.524	8.57
238.901	8.67
239.278	7.69
239.655	7.7
240.032	7.25
240.409	7.05
240.785	7.09
241.162	6.73
241.539	6.74
241.915	6.5
242.292	6
242.668	5.67
243.045	4.97
243.421	5.1
243.798	4.93
244.174	5.21
244.551	4.93
244.927	4.48
245.303	4.35
245.679	4.22
246.056	4.04
246.432	3.93
246.808	3.88
247.184	3.72
247.56	3.44
247.936	3.23
248.312	3.15
248.688	3.55
249.064	3.56
249.44	3.53
249.815	3.45
250.191	3.73
250.567	3.72
250.943	3.54
251.318	3.48
251.694	3.61
252.069	3.46
252.445	3.41
252.82	3.39
253.196	3.39
253.571	3.28
253.947	3.6
254.322	3.86
254.697	3.91
255.073	3.82
255.448	3.88
255.823	4.23
256.198	4.16
256.573	3.72
256.948	3.79
257.323	3.88
257.698	4.05
258.073	3.98
258.448	4.08
258.823	4.31
259.198	4.12
259.573	4.08
259.948	4.24
260.322	4.34
260.697	4.27
261.072	4.16
261.446	4.25
261.821	4.05
262.195	4.01
262.57	3.93
262.944	3.95
263.319	3.94
263.693	3.89
264.067	3.88
264.442	4.08
264.816	3.99
265.19	3.72
265.564	3.65
265.938	3.49
266.313	3.44
266.687	3.26
267.061	3.37
267.435	3.37
267.809	3.08
268.183	3.04
268.556	3.07
268.93	3.13
269.304	3.08
269.678	3.03
270.051	2.98
270.425	3.17
270.799	3.17
271.172	3.36
271.546	3.36
271.919	3.52
272.293	3.31
272.666	3.35
273.04	3.48
273.413	3.61
273.787	3.68
274.16	3.55
274.533	3.6
274.906	3.64
275.279	3.6
275.653	3.67
276.026	3.64
276.399	3.8
276.772	3.76
277.145	3.67
277.518	3.91
277.891	4.02
278.263	3.87
278.636	3.87
279.009	3.81
279.382	3.78
279.755	3.62
280.127	3.91
280.5	4.05
280.872	4.14
281.245	4.07
281.617	4.31
281.99	4.42
282.362	4.36
282.735	4.2
283.107	4.29
283.479	4.35
283.852	4.26
284.224	4.09
284.596	4.19
284.968	4.24
285.34	4.17
285.713	4.11
286.085	4.05
286.457	4.14
286.829	4.14
287.201	4.14
287.572	4.19
287.944	4.02
288.316	3.98
288.688	3.93
289.06	3.85
289.431	3.8
289.803	3.81
290.175	3.8
290.546	3.97
290.918	3.9
291.289	3.7
291.661	3.83
292.032	4.07
292.403	4.1
292.775	4.18
293.146	4.12
293.517	4.18
293.889	4.19
294.26	4.17
294.631	4.17
295.002	4.15
295.373	4.18
295.744	4.2
296.115	4.23
296.486	4.16
296.857	4.21
297.228	4.09
297.599	3.97
297.97	3.95
298.34	3.95
298.711	4.08
299.082	4.13
299.452	4.1
299.823	4.06
300.194	4.1
300.564	4.08
300.935	4.18
301.305	4.16
301.676	4.28
302.046	4.33
302.416	4.32
302.787	4.42
303.157	4.51
303.527	4.5
303.897	4.42
304.267	4.5
304.637	4.63
305.008	4.74
305.378	4.97
305.748	5.15
306.117	5.09
306.487	4.98
306.857	5.12
307.227	5.17
307.597	5.04
307.967	4.98
308.336	5.07
308.706	5.03
309.076	5.03
309.445	4.95
309.815	4.89
310.184	4.85
310.554	4.82
310.923	4.78
311.293	4.9
311.662	4.96
312.031	4.96
312.401	4.97
312.77	5.01
313.139	5
313.508	5.02
313.877	5.04
314.246	5.16
314.616	5.15
314.985	5.09
315.353	5.08
315.722	5.23
316.091	5.25
316.46	5.24
316.829	5.34
317.198	5.31
317.567	5.51
317.935	5.61
318.304	5.64
318.672	5.51
319.041	5.57
319.41	5.51
319.778	5.61
320.147	5.47
320.515	5.38
320.883	5.17
321.252	5.23
321.62	5.13
321.988	5.2
322.357	5.13
322.725	5.26
323.093	5.44
323.461	5.35
323.829	5.39
324.197	5.44
324.565	5.39
324.933	5.51
325.301	5.37
325.669	5.37
326.037	5.42
326.405	5.55
326.772	5.52
327.14	5.61
327.508	5.66
327.875	5.72
328.243	5.88
328.61	5.96
328.978	6
329.346	6.13
329.713	6.04
330.08	6.25
330.448	6.2
330.815	6.14
331.182	6.16
331.55	6.14
331.917	6.24
332.284	6.36
332.651	6.35
333.018	6.56
333.385	6.55
333.752	6.71
334.119	6.81
334.486	6.74
334.853	6.82
335.22	6.89
335.587	6.9
335.954	6.83
336.32	6.89
336.687	6.84
337.054	6.86
337.42	6.99
337.787	6.85
338.153	6.9
338.52	6.96
338.886	7.07
339.253	7.03
339.619	7.01
339.986	7.01
340.352	7.15
340.718	7.06
341.084	7.04
341.451	6.91
341.817	6.92
342.183	6.95
342.549	6.92
342.915	6.83
343.281	6.8
343.647	6.85
344.013	6.91
344.379	6.8
344.745	6.89
345.11	6.87
345.476	7.08
345.842	7.07
346.208	7.18
346.573	7.03
346.939	7.09
347.304	7.1
347.67	7.06
348.035	7.06
348.401	7.08
348.766	7.19
349.132	7.24
349.497	7.14
349.862	7.28
350.228	7.29
350.593	7.32
350.958	7.33
351.323	7.36
351.688	7.37
352.053	7.53
352.418	7.53
352.783	7.56
353.148	7.51
353.513	7.48
353.878	7.44
354.243	7.58
354.608	7.57
354.972	7.52
355.337	7.54
355.702	7.54
356.066	7.62
356.431	7.49
356.795	7.47
357.16	7.53
357.524	7.45
357.889	7.45
358.253	7.45
358.618	7.51
358.982	7.48
359.346	7.42
359.71	7.31
360.075	7.32
360.439	7.38
360.803	7.34
361.167	7.37
361.531	7.38
361.895	7.32
362.259	7.28
362.623	7.32
362.987	7.33
363.351	7.32
363.714	7.25
364.078	7.32
364.442	7.3
364.806	7.21
365.169	7.22
365.533	7.19
365.896	7.18
366.26	7.11
366.623	7.07
366.987	7.03
367.35	7.08
367.714	6.99
368.077	6.84
368.44	6.83
368.803	6.78
369.167	6.65
369.53	6.66
369.893	6.67
370.256	6.67
370.619	6.62
370.982	6.54
371.345	6.45
371.708	6.41
372.071	6.43
372.434	6.47
372.797	6.42
373.159	6.35
373.522	6.29
373.885	6.29
374.247	6.29
374.61	6.34
374.973	6.25
375.335	6.24
375.698	6.23
376.06	6.18
376.423	6.13
376.785	6.17
377.147	6.17
377.51	6.14
377.872	6.11
378.234	6.03
378.596	6.03
378.958	6.07
379.321	6.05
379.683	5.95
380.045	5.87
380.407	5.84
380.769	5.85
381.13	5.83
381.492	5.81
381.854	5.73
382.216	5.63
382.578	5.67
382.939	5.62
383.301	5.57
383.663	5.53
384.024	5.52
384.386	5.49
384.747	5.47
385.109	5.46
385.47	5.43
385.832	5.48
386.193	5.46
386.554	5.43
386.916	5.42
387.277	5.42
387.638	5.48
387.999	5.46
388.36	5.43
388.721	5.39
389.082	5.37
389.443	5.34
389.804	5.36
390.165	5.32
390.526	5.34
390.887	5.35
391.248	5.35
391.609	5.34
391.969	5.3
392.33	5.23
392.691	5.19
393.051	5.14
393.412	5.11
393.772	5.07
394.133	5
394.493	4.93
394.854	4.89
395.214	4.83
395.574	4.79
395.935	4.72
396.295	4.74
396.655	4.68
397.015	4.67
397.376	4.62
397.736	4.58
398.096	4.54
398.456	4.5
398.816	4.45
399.176	4.41
399.535	4.39
399.895	4.39
400.255	4.34
400.615	4.33
400.975	4.31
401.334	4.3
401.694	4.32
402.054	4.34
402.413	4.33
402.773	4.33
403.132	4.32
403.492	4.32
403.851	4.29
404.211	4.29
404.57	4.29
404.929	4.3
405.288	4.29
405.648	4.26
406.007	4.24
406.366	4.25
406.725	4.23
407.084	4.21
407.443	4.21
407.802	4.23
408.161	4.23
408.52	4.18
408.879	4.15
409.238	4.16
409.596	4.14
409.955	4.14
410.314	4.12
410.673	4.11
411.031	4.12
411.39	4.08
411.748	4.08
412.107	4.08
412.465	4.06
412.824	4.05
413.182	4.01
413.54	3.99
413.899	3.98
414.257	3.96
414.615	3.95
414.974	3.92
415.332	3.89
415.69	3.83
416.048	3.82
416.406	3.79
416.764	3.77
417.122	3.76
417.48	3.72
417.838	3.72
418.195	3.72
418.553	3.7
418.911	3.69
419.269	3.68
419.626	3.66
419.984	3.65
420.342	3.65
420.699	3.64
421.057	3.63
421.414	3.62
421.772	3.61
422.129	3.61
422.486	3.61
422.844	3.59
423.201	3.6
423.558	3.6
423.915	3.6
424.273	3.59
424.63	3.59
424.987	3.57
425.344	3.56
425.701	3.56
426.058	3.56
426.415	3.56
426.772	3.55
427.128	3.55
427.485	3.54
427.842	3.54
428.199	3.55
428.555	3.56
428.912	3.56
429.269	3.57
429.625	3.57
429.982	3.56
430.338	3.57
430.695	3.58
431.051	3.6
431.407	3.58
431.764	3.58
432.12	3.56
432.476	3.56
432.832	3.55
433.189	3.53
433.545	3.51
433.901	3.53
434.257	3.53
434.613	3.53
434.969	3.51
435.325	3.51
435.681	3.49
436.036	3.5
436.392	3.49
436.748	3.48
437.104	3.47
437.459	3.44
437.815	3.44
438.171	3.42
438.526	3.4
438.882	3.43
439.237	3.41
439.593	3.42
439.948	3.43
440.304	3.44
440.659	3.42
441.014	3.43
441.369	3.41
441.725	3.4
442.08	3.42
442.435	3.42
442.79	3.42
443.145	3.42
443.5	3.41
443.855	3.41
444.21	3.39
444.565	3.4
444.92	3.39
445.275	3.37
445.629	3.38
445.984	3.38
446.339	3.35
446.693	3.34
447.048	3.32
447.403	3.31
447.757	3.31
448.112	3.32
448.466	3.3
448.82	3.3
449.175	3.3
449.529	3.27
449.883	3.25
450.238	3.23
450.592	3.23
450.946	3.21
451.3	3.21
451.654	3.23
452.008	3.2
452.362	3.21
452.716	3.23
453.07	3.23
453.424	3.24
453.778	3.26
454.132	3.26
454.486	3.27
454.839	3.29
455.193	3.3
455.547	3.3
455.9	3.3
456.254	3.32
456.607	3.32
456.961	3.33
457.314	3.34
457.668	3.37
458.021	3.34
458.375	3.36
458.728	3.37
459.081	3.36
459.434	3.36
459.787	3.36
460.141	3.35
460.494	3.36
460.847	3.36
461.2	3.36
461.553	3.38
461.906	3.39
462.259	3.38
462.611	3.37
462.964	3.38
463.317	3.39
463.67	3.4
464.022	3.42
464.375	3.4
464.728	3.43
465.08	3.42
465.433	3.45
465.785	3.46
466.138	3.48
466.49	3.49
466.843	3.51
467.195	3.54
467.547	3.56
467.899	3.54
468.252	3.53
468.604	3.55
468.956	3.55
469.308	3.55
469.66	3.56
470.012	3.56
470.364	3.58
470.716	3.59
471.068	3.58
471.42	3.56
471.772	3.6
472.123	3.6
472.475	3.62
472.827	3.64
473.178	3.62
473.53	3.6
473.882	3.61
474.233	3.61
474.585	3.59
474.936	3.58
475.288	3.59
475.639	3.6
475.99	3.62
476.342	3.6
476.693	3.59
477.044	3.59
477.395	3.58
477.746	3.57
478.097	3.56
478.448	3.56
478.8	3.54
479.15	3.51
479.501	3.51
479.852	3.49
480.203	3.49
480.554	3.5
480.905	3.49
481.255	3.49
481.606	3.48
481.957	3.49
482.307	3.49
482.658	3.49
483.009	3.48
483.359	3.47
483.709	3.47
484.06	3.48
484.41	3.48
484.761	3.49
485.111	3.49
485.461	3.5
485.811	3.51
486.162	3.51
486.512	3.53
486.862	3.54
487.212	3.55
487.562	3.55
487.912	3.55
488.262	3.55
488.612	3.56
488.961	3.58
489.311	3.6
489.661	3.61
490.011	3.62
490.36	3.64
490.71	3.66
491.06	3.66
491.409	3.67
491.759	3.67
492.108	3.68
492.458	3.68
492.807	3.69
493.157	3.71
493.506	3.72
493.855	3.72
494.204	3.72
494.554	3.73
494.903	3.77
495.252	3.8
495.601	3.83
495.95	3.85
496.299	3.87
496.648	3.87
496.997	3.91
497.346	3.94
497.695	3.99
498.043	4.01
498.392	4.04
498.741	4.08
499.09	4.12
499.438	4.14
499.787	4.2
500.135	4.24
500.484	4.27
500.832	4.33
501.181	4.38
501.529	4.42
501.878	4.48
502.226	4.52
502.574	4.56
502.923	4.59
503.271	4.63
503.619	4.67
503.967	4.75
504.315	4.79
504.663	4.84
505.011	4.88
505.359	4.91
505.707	4.97
506.055	5.03
506.403	5.1
506.751	5.18
507.098	5.24
507.446	5.31
507.794	5.38
508.141	5.46
508.489	5.52
508.837	5.6
509.184	5.67
509.531	5.75
509.879	5.83
510.226	5.93
510.574	5.99
510.921	6.07
511.268	6.13
511.616	6.21
511.963	6.27
512.31	6.37
512.657	6.46
513.004	6.55
513.351	6.67
513.698	6.76
514.045	6.85
514.392	6.97
514.739	7.07
515.086	7.18
515.432	7.3
515.779	7.4
516.126	7.5
516.473	7.6
516.819	7.68
517.166	7.77
517.512	7.85
517.859	7.97
518.205	8.07
518.552	8.17
518.898	8.27
519.245	8.37
519.591	8.46
519.937	8.56
520.283	8.7
520.629	8.8
520.976	8.91
521.322	9.04
521.668	9.17
522.014	9.31
522.36	9.44
522.706	9.58
523.052	9.77
523.398	9.96
523.743	10.18
524.089	10.39
524.435	10.55
524.781	10.76
525.126	10.94
525.472	11.11
525.817	11.26
526.163	11.4
526.509	11.55
526.854	11.68
527.199	11.82
527.545	11.95
527.89	12.1
528.235	12.24
528.581	12.39
528.926	12.54
529.271	12.69
529.616	12.85
529.961	13.01
530.306	13.17
530.651	13.32
530.996	13.49
531.341	13.67
531.686	13.88
532.031	14.06
532.376	14.25
532.721	14.46
533.065	14.68
533.41	14.89
533.755	15.13
534.099	15.38
534.444	15.61
534.788	15.83
535.133	16.06
535.477	16.3
535.822	16.56
536.166	16.82
536.51	17.12
536.855	17.45
537.199	17.75
537.543	18.04
537.887	18.37
538.231	18.68
538.576	19.01
538.92	19.34
539.264	19.63
539.608	19.95
539.951	20.24
540.295	20.5
540.639	20.8
540.983	21.05
541.327	21.29
541.671	21.57
542.014	21.83
542.358	22.05
542.701	22.29
543.045	22.54
543.389	22.78
543.732	23.04
544.075	23.27
544.419	23.52
544.762	23.81
545.105	24.09
545.449	24.41
545.792	24.7
546.135	25.04
546.478	25.41
546.821	25.72
547.165	26.08
547.508	26.5
547.851	26.85
548.194	27.19
548.536	27.57
548.879	27.91
549.222	28.31
549.565	28.73
549.908	29.11
550.25	29.44
550.593	29.81
550.936	30.19
551.278	30.53
551.621	30.95
551.963	31.33
552.306	31.71
552.648	32.02
552.991	32.4
553.333	32.68
553.675	33.01
554.017	33.32
554.36	33.63
554.702	33.88
555.044	34.21
555.386	34.57
555.728	34.9
556.07	35.26
556.412	35.55
556.754	35.86
557.096	36.18
557.438	36.48
557.78	36.82
558.121	37.15
558.463	37.55
558.805	37.79
559.147	38.08
559.488	38.38
559.83	38.69
560.171	38.93
560.513	39.26
560.854	39.56
561.196	39.88
561.537	40.15
561.878	40.43
562.22	40.64
562.561	40.88
562.902	41.13
563.243	41.39
563.584	41.67
563.925	41.88
564.266	42.14
564.607	42.41
564.948	42.63
565.289	42.83
565.63	43.04
565.971	43.29
566.312	43.52
566.653	43.76
566.993	44.01
567.334	44.22
567.675	44.45
568.015	44.59
568.356	44.8
568.696	44.99
569.037	45.23
569.377	45.45
569.718	45.68
570.058	45.93
570.398	46.12
570.739	46.31
571.079	46.5
571.419	46.69
571.759	46.85
572.099	47.03
572.439	47.21
572.779	47.38
573.119	47.59
573.459	47.76
573.799	47.95
574.139	48.05
574.479	48.23
574.819	48.38
575.158	48.62
575.498	48.77
575.838	48.93
576.177	49.02
576.517	49.17
576.856	49.28
577.196	49.37
577.535	49.55
577.875	49.71
578.214	49.87
578.553	50.08
578.893	50.29
579.232	50.45
579.571	50.62
579.91	50.74
580.25	50.86
580.589	51
580.928	51.15
581.267	51.31
581.606	51.47
581.945	51.63
582.283	51.69
582.622	51.91
582.961	52.12
583.3	52.28
583.639	52.45
583.977	52.6
584.316	52.74
584.654	52.83
584.993	52.9
585.332	53.11
585.67	53.2
586.008	53.31
586.347	53.43
586.685	53.5
587.024	53.63
587.362	53.72
587.7	53.75
588.038	53.81
588.376	53.96
588.715	54.06
589.053	54.13
589.391	54.26
589.729	54.23
590.067	54.28
590.404	54.45
590.742	54.56
591.08	54.71
591.418	54.82
591.756	54.99
592.093	55.1
592.431	55.13
592.769	55.21
593.106	55.24
593.444	55.32
593.781	55.5
594.119	55.63
594.456	55.72
594.793	55.84
595.131	55.95
595.468	55.99
595.805	56.03
596.143	56.05
596.48	56.13
596.817	56.21
597.154	56.28
597.491	56.28
597.828	56.42
598.165	56.45
598.502	56.49
598.839	56.49
599.176	56.52
599.512	56.62
599.849	56.72
600.186	56.82
600.523	56.9
600.859	56.87
601.196	56.92
601.532	56.97
601.869	57.01
602.205	57.1
602.542	57.17
602.878	57.19
603.215	57.27
603.551	57.34
603.887	57.48
604.223	57.51
604.56	57.59
604.896	57.6
605.232	57.64
605.568	57.72
605.904	57.76
606.24	57.84
606.576	57.84
606.912	57.85
607.248	57.98
607.583	57.98
607.919	58.13
608.255	58.2
608.591	58.24
608.926	58.33
609.262	58.32
609.597	58.33
609.933	58.49
610.268	58.56
610.604	58.64
610.939	58.61
611.275	58.71
611.61	58.72
611.945	58.69
612.281	58.84
612.616	58.88
612.951	58.96
613.286	59.04
613.621	59.13
613.956	59.23
614.291	59.2
614.626	59.35
614.961	59.4
615.296	59.39
615.631	59.5
615.966	59.46
616.3	59.53
616.635	59.68
616.97	59.66
617.304	59.7
617.639	59.73
617.973	59.8
618.308	59.8
618.642	59.79
618.977	59.85
619.311	59.79
619.646	59.81
619.98	59.9
620.314	59.84
620.648	59.87
620.983	59.86
621.317	59.92
621.651	59.98
621.985	59.98
622.319	60.09
622.653	60.12
622.987	60.24
623.321	60.35
623.655	60.3
623.988	60.46
624.322	60.47
624.656	60.48
624.99	60.52
625.323	60.55
625.657	60.64
625.99	60.63
626.324	60.7
626.657	60.76
626.991	60.74
627.324	60.87
627.658	60.94
627.991	60.97
628.324	60.96
628.657	60.92
628.991	60.87
629.324	60.93
629.657	61.01
629.99	61.04
630.323	61.06
630.656	61.07
630.989	60.99
631.322	61.02
631.655	60.97
631.987	61.02
632.32	61.01
632.653	61.15
632.986	61.26
633.318	61.24
633.651	61.28
633.984	61.3
634.316	61.31
634.649	61.39
634.981	61.55
635.313	61.65
635.646	61.71
635.978	61.74
636.31	61.77
636.643	61.74
636.975	61.74
637.307	61.65
637.639	61.74
637.971	61.67
638.303	61.78
638.635	61.81
638.967	61.81
639.299	61.88
639.631	61.87
639.963	61.81
640.295	61.83
640.626	61.85
640.958	61.91
641.29	61.9
641.621	61.81
641.953	61.7
642.285	61.71
642.616	61.72
642.948	61.79
643.279	61.67
643.61	61.83
643.942	61.91
644.273	62.08
644.604	61.98
644.936	62.05
645.267	62.1
645.598	62.22
645.929	62.31
646.26	62.32
646.591	62.23
646.922	62.34
647.253	62.41
647.584	62.33
647.915	62.32
648.245	62.37
648.576	62.41
648.907	62.37
649.238	62.41
649.568	62.42
649.899	62.46
650.229	62.5
650.56	62.43
650.89	62.41
651.221	62.36
651.551	62.47
651.882	62.56
652.212	62.56
652.542	62.55
652.872	62.57
653.203	62.58
653.533	62.64
653.863	62.57
654.193	62.58
654.523	62.73
654.853	62.81
655.183	62.94
655.513	63.05
655.843	63.09
656.172	63.21
656.502	63.27
656.832	63.16
657.162	63.14
657.491	63.13
657.821	63.15
658.15	63.07
658.48	63.06
658.809	63.15
659.139	63.17
659.468	63.11
659.798	63.05
660.127	63.19
660.456	63.15
660.785	63.18
661.115	63.21
661.444	63.19
661.773	63.11
662.102	63.01
662.431	62.88
662.76	62.83
663.089	62.69
663.418	62.65
663.747	62.73
664.076	62.86
664.404	62.92
664.733	62.91
665.062	62.98
665.39	63.04
665.719	62.96
666.048	62.99
666.376	63.16
666.705	63.22
667.033	63.16
667.362	63.27
