Data from BA28470_Reflection_00015.txt Node
Date: Mon Nov 18 15:10:27 EST 2019
User: vgr7
Spectrometer: USB2G7710
Scans to average: 3
Trigger mode: 4
Integration Time (sec): 2.000000E-2
Electric dark correction enabled: true
Boxcar width: 10
XAxis mode: Wavelengths
Number of Pixels in Spectrum: 2048
>>>>>Begin Spectral Data<<<<<
177.721	140.96
178.105	131.5
178.488	-301.75
178.871	96.32
179.254	-173.06
179.636	197.35
180.019	171.27
180.402	78.79
180.785	208.11
181.168	-12.58
181.55	-43.32
181.933	87.26
182.316	96.31
182.698	169.22
183.081	93.85
183.463	124.23
183.846	97.25
184.228	67.66
184.611	74.62
184.993	40.84
185.376	61.65
185.758	102.74
186.14	163.86
186.522	95.75
186.904	54.9
187.287	239.61
187.669	68.22
188.051	67.65
188.433	29.13
188.815	-15.33
189.197	-41.9
189.579	-80.89
189.961	19.16
190.342	-428.3
190.724	323.94
191.106	-1139.44
191.488	-179.72
191.869	-35.67
192.251	-35.62
192.633	2.57
193.014	-19.3
193.396	-178.44
193.777	-183.04
194.159	-152.02
194.54	-111.92
194.922	-140.81
195.303	-107.45
195.684	-80.01
196.065	-55.05
196.447	-99.78
196.828	-155.59
197.209	-136.62
197.59	-136.03
197.971	-95.83
198.352	-79.06
198.733	-92.57
199.114	-65.6
199.495	-40.82
199.876	-41.48
200.257	-36.27
200.638	-45.76
201.018	-67.7
201.399	-48.23
201.78	-35.25
202.16	-51.47
202.541	-78.01
202.922	-91.27
203.302	-116.49
203.683	-185.71
204.063	-401.95
204.444	-184.45
204.824	-139.59
205.204	-184.98
205.585	-180.04
205.965	-607.69
206.345	-693.57
206.725	870.91
207.106	-2115.83
207.486	523.56
207.866	1876.65
208.246	3250.44
208.626	938.05
209.006	-1900
209.386	-1309.23
209.766	-625.97
210.145	-573.77
210.525	-504.49
210.905	-545.44
211.285	-444.52
211.664	-216.95
212.044	-215.68
212.424	-206.56
212.803	-248.4
213.183	-228.43
213.562	-186.99
213.942	-144.32
214.321	-143.59
214.701	-145.14
215.08	-182.66
215.459	-123.23
215.838	-137.68
216.218	-129.65
216.597	-100.13
216.976	-83.27
217.355	-75.57
217.734	-76.41
218.113	-67.97
218.492	-64.05
218.871	-62.59
219.25	-62.17
219.629	-72.33
220.008	-62.35
220.387	-60.58
220.766	-62.84
221.144	-80.11
221.523	-87.06
221.902	-98.07
222.28	-105.42
222.659	-78.33
223.037	-53.59
223.416	-74.94
223.794	-54.55
224.173	-72.16
224.551	-58.46
224.929	-61.86
225.308	-47.6
225.686	-43.76
226.064	-47.22
226.442	-37.95
226.821	-31.31
227.199	-23.08
227.577	-21.33
227.955	-15.69
228.333	-15.19
228.711	-8.36
229.089	-2.11
229.467	-3.58
229.845	-5.17
230.222	-4.8
230.6	-7.81
230.978	-9.42
231.356	-6.39
231.733	-7.24
232.111	-1.03
232.488	-2.17
232.866	-2.32
233.243	-1.76
233.621	-3.46
233.998	0.25
234.376	-0.63
234.753	0.03
235.13	-0.28
235.508	2.66
235.885	0.79
236.262	1.78
236.639	0.06
237.016	0.46
237.393	1.78
237.77	3.42
238.147	4.49
238.524	5.69
238.901	5.38
239.278	6.19
239.655	6.59
240.032	6.18
240.409	6.13
240.785	5.91
241.162	5.84
241.539	6.34
241.915	6.28
242.292	5.53
242.668	5.47
243.045	5.62
243.421	5.34
243.798	5.23
244.174	5.18
244.551	5.59
244.927	5.53
245.303	5.79
245.679	6.02
246.056	5.9
246.432	5.81
246.808	5.99
247.184	5.69
247.56	5.71
247.936	5.55
248.312	5.63
248.688	5.6
249.064	5.54
249.44	5.37
249.815	5.29
250.191	5.53
250.567	5.52
250.943	5.45
251.318	5.26
251.694	5.4
252.069	5
252.445	4.65
252.82	4.58
253.196	3.99
253.571	3.29
253.947	3.07
254.322	3.22
254.697	3.22
255.073	3.23
255.448	3.07
255.823	3.16
256.198	3.35
256.573	3.63
256.948	3.95
257.323	4.15
257.698	4.28
258.073	4.29
258.448	4.22
258.823	4.15
259.198	4.35
259.573	4.42
259.948	4.68
260.322	4.72
260.697	4.68
261.072	4.83
261.446	5.07
261.821	5.2
262.195	5.1
262.57	4.91
262.944	4.99
263.319	5.08
263.693	5.01
264.067	4.92
264.442	4.89
264.816	4.66
265.19	4.68
265.564	4.7
265.938	4.66
266.313	4.67
266.687	4.67
267.061	4.58
267.435	4.51
267.809	4.42
268.183	4.34
268.556	4.43
268.93	4.4
269.304	4.28
269.678	4.14
270.051	4.12
270.425	4.28
270.799	4.26
271.172	4.15
271.546	4.23
271.919	4.08
272.293	4.1
272.666	4.23
273.04	4.35
273.413	4.17
273.787	4.24
274.16	4.19
274.533	4.18
274.906	4.2
275.279	4.27
275.653	4.27
276.026	4.24
276.399	4.21
276.772	4.26
277.145	4.36
277.518	4.46
277.891	4.46
278.263	4.51
278.636	4.48
279.009	4.48
279.382	4.5
279.755	4.57
280.127	4.73
280.5	4.76
280.872	4.58
281.245	4.47
281.617	4.6
281.99	4.78
282.362	4.81
282.735	4.7
283.107	4.58
283.479	4.63
283.852	4.6
284.224	4.54
284.596	4.57
284.968	4.71
285.34	4.7
285.713	4.66
286.085	4.62
286.457	4.73
286.829	4.83
287.201	4.82
287.572	4.78
287.944	4.61
288.316	4.61
288.688	4.65
289.06	4.81
289.431	4.74
289.803	4.76
290.175	4.84
290.546	5
290.918	5.09
291.289	5.12
291.661	5.22
292.032	5.3
292.403	5.27
292.775	5.25
293.146	5.27
293.517	5.37
293.889	5.45
294.26	5.41
294.631	5.31
295.002	5.26
295.373	5.3
295.744	5.38
296.115	5.32
296.486	5.23
296.857	5.23
297.228	5.3
297.599	5.23
297.97	5.14
298.34	5.1
298.711	5.1
299.082	5.09
299.452	5.17
299.823	5.21
300.194	5.37
300.564	5.17
300.935	5.21
301.305	5.21
301.676	5.17
302.046	5.3
302.416	5.41
302.787	5.4
303.157	5.43
303.527	5.46
303.897	5.51
304.267	5.79
304.637	5.97
305.008	5.94
305.378	6.16
305.748	6.36
306.117	6.25
306.487	6.32
306.857	6.36
307.227	6.44
307.597	6.49
307.967	6.56
308.336	6.89
308.706	6.96
309.076	7.04
309.445	7.21
309.815	7.24
310.184	7.31
310.554	7.44
310.923	7.47
311.293	7.59
311.662	7.62
312.031	7.56
312.401	7.57
312.77	7.72
313.139	7.68
313.508	7.7
313.877	7.92
314.246	8.04
314.616	8.08
314.985	8.1
315.353	8.06
315.722	8.01
316.091	8.04
316.46	8.15
316.829	8.18
317.198	8.29
317.567	8.18
317.935	8.17
318.304	8.35
318.672	8.44
319.041	8.49
319.41	8.67
319.778	8.65
320.147	8.63
320.515	8.63
320.883	8.64
321.252	8.71
321.62	8.73
321.988	8.89
322.357	9.09
322.725	9.23
323.093	9.39
323.461	9.5
323.829	9.5
324.197	9.66
324.565	9.86
324.933	9.79
325.301	9.9
325.669	10.15
326.037	10.14
326.405	10.25
326.772	10.28
327.14	10.33
327.508	10.46
327.875	10.66
328.243	10.81
328.61	10.96
328.978	11.06
329.346	11.24
329.713	11.18
330.08	11.25
330.448	11.15
330.815	11.14
331.182	11.1
331.55	11.11
331.917	11.15
332.284	11.09
332.651	11.07
333.018	11.01
333.385	11.08
333.752	11.21
334.119	11.23
334.486	11.23
334.853	11.12
335.22	11.16
335.587	11.09
335.954	11.05
336.32	11.11
336.687	11.17
337.054	11.2
337.42	11.29
337.787	11.3
338.153	11.34
338.52	11.47
338.886	11.45
339.253	11.55
339.619	11.47
339.986	11.51
340.352	11.59
340.718	11.72
341.084	11.65
341.451	11.69
341.817	11.67
342.183	11.69
342.549	11.71
342.915	11.78
343.281	11.69
343.647	11.73
344.013	11.69
344.379	11.63
344.745	11.61
345.11	11.48
345.476	11.42
345.842	11.45
346.208	11.45
346.573	11.61
346.939	11.63
347.304	11.58
347.67	11.48
348.035	11.51
348.401	11.53
348.766	11.59
349.132	11.7
349.497	11.64
349.862	11.67
350.228	11.83
350.593	11.79
350.958	11.98
351.323	11.96
351.688	11.85
352.053	11.89
352.418	11.95
352.783	12
353.148	11.98
353.513	12.08
353.878	12.1
354.243	12.05
354.608	12.01
354.972	11.94
355.337	12.02
355.702	12
356.066	12.03
356.431	11.91
356.795	11.75
357.16	11.81
357.524	11.73
357.889	11.59
358.253	11.59
358.618	11.57
358.982	11.53
359.346	11.55
359.71	11.43
360.075	11.37
360.439	11.41
360.803	11.38
361.167	11.32
361.531	11.23
361.895	11.18
362.259	11.15
362.623	11.23
362.987	11.17
363.351	11.12
363.714	11.07
364.078	11.01
364.442	11
364.806	10.99
365.169	11.02
365.533	11.02
365.896	10.88
366.26	10.78
366.623	10.73
366.987	10.72
367.35	10.77
367.714	10.72
368.077	10.64
368.44	10.59
368.803	10.52
369.167	10.47
369.53	10.41
369.893	10.33
370.256	10.34
370.619	10.34
370.982	10.29
371.345	10.19
371.708	10.2
372.071	10.14
372.434	10.1
372.797	9.96
373.159	9.83
373.522	9.87
373.885	9.8
374.247	9.76
374.61	9.7
374.973	9.62
375.335	9.57
375.698	9.53
376.06	9.5
376.423	9.4
376.785	9.39
377.147	9.33
377.51	9.32
377.872	9.19
378.234	9.13
378.596	9.09
378.958	9.04
379.321	8.96
379.683	8.92
380.045	8.86
380.407	8.78
380.769	8.86
381.13	8.83
381.492	8.78
381.854	8.75
382.216	8.72
382.578	8.69
382.939	8.64
383.301	8.53
383.663	8.44
384.024	8.48
384.386	8.43
384.747	8.41
385.109	8.35
385.47	8.3
385.832	8.22
386.193	8.15
386.554	8.08
386.916	8.04
387.277	7.99
387.638	7.99
387.999	8.01
388.36	7.9
388.721	7.8
389.082	7.76
389.443	7.7
389.804	7.62
390.165	7.57
390.526	7.52
390.887	7.53
391.248	7.56
391.609	7.52
391.969	7.44
392.33	7.37
392.691	7.31
393.051	7.28
393.412	7.27
393.772	7.22
394.133	7.23
394.493	7.21
394.854	7.14
395.214	7.05
395.574	6.99
395.935	6.95
396.295	6.97
396.655	6.92
397.015	6.87
397.376	6.84
397.736	6.77
398.096	6.75
398.456	6.69
398.816	6.6
399.176	6.51
399.535	6.52
399.895	6.47
400.255	6.45
400.615	6.41
400.975	6.37
401.334	6.32
401.694	6.27
402.054	6.24
402.413	6.21
402.773	6.15
403.132	6.14
403.492	6.11
403.851	6.03
404.211	6
404.57	5.95
404.929	5.94
405.288	5.92
405.648	5.86
406.007	5.83
406.366	5.83
406.725	5.81
407.084	5.77
407.443	5.77
407.802	5.76
408.161	5.72
408.52	5.65
408.879	5.64
409.238	5.62
409.596	5.56
409.955	5.53
410.314	5.54
410.673	5.49
411.031	5.48
411.39	5.47
411.748	5.43
412.107	5.42
412.465	5.38
412.824	5.38
413.182	5.35
413.54	5.35
413.899	5.33
414.257	5.32
414.615	5.29
414.974	5.29
415.332	5.26
415.69	5.25
416.048	5.26
416.406	5.26
416.764	5.23
417.122	5.24
417.48	5.21
417.838	5.2
418.195	5.18
418.553	5.16
418.911	5.13
419.269	5.15
419.626	5.13
419.984	5.11
420.342	5.08
420.699	5.08
421.057	5.07
421.414	5.04
421.772	5.04
422.129	5.04
422.486	5.02
422.844	5
423.201	4.98
423.558	4.96
423.915	4.95
424.273	4.95
424.63	4.92
424.987	4.9
425.344	4.87
425.701	4.86
426.058	4.85
426.415	4.85
426.772	4.83
427.128	4.81
427.485	4.81
427.842	4.8
428.199	4.77
428.555	4.75
428.912	4.74
429.269	4.7
429.625	4.69
429.982	4.65
430.338	4.64
430.695	4.63
431.051	4.61
431.407	4.62
431.764	4.61
432.12	4.62
432.476	4.64
432.832	4.66
433.189	4.66
433.545	4.66
433.901	4.65
434.257	4.64
434.613	4.66
434.969	4.68
435.325	4.69
435.681	4.7
436.036	4.71
436.392	4.72
436.748	4.71
437.104	4.68
437.459	4.69
437.815	4.68
438.171	4.71
438.526	4.72
438.882	4.7
439.237	4.7
439.593	4.7
439.948	4.69
440.304	4.69
440.659	4.69
441.014	4.69
441.369	4.67
441.725	4.67
442.08	4.66
442.435	4.64
442.79	4.62
443.145	4.61
443.5	4.59
443.855	4.58
444.21	4.58
444.565	4.59
444.92	4.6
445.275	4.59
445.629	4.58
445.984	4.58
446.339	4.56
446.693	4.53
447.048	4.51
447.403	4.5
447.757	4.48
448.112	4.46
448.466	4.43
448.82	4.42
449.175	4.41
449.529	4.4
449.883	4.39
450.238	4.37
450.592	4.37
450.946	4.35
451.3	4.34
451.654	4.31
452.008	4.31
452.362	4.28
452.716	4.27
453.07	4.26
453.424	4.24
453.778	4.25
454.132	4.26
454.486	4.25
454.839	4.24
455.193	4.24
455.547	4.25
455.9	4.26
456.254	4.29
456.607	4.29
456.961	4.3
457.314	4.31
457.668	4.31
458.021	4.29
458.375	4.32
458.728	4.33
459.081	4.35
459.434	4.34
459.787	4.35
460.141	4.38
460.494	4.37
460.847	4.38
461.2	4.38
461.553	4.39
461.906	4.41
462.259	4.42
462.611	4.42
462.964	4.45
463.317	4.45
463.67	4.45
464.022	4.45
464.375	4.44
464.728	4.44
465.08	4.46
465.433	4.47
465.785	4.49
466.138	4.49
466.49	4.5
466.843	4.52
467.195	4.52
467.547	4.52
467.899	4.56
468.252	4.57
468.604	4.58
468.956	4.57
469.308	4.59
469.66	4.59
470.012	4.62
470.364	4.61
470.716	4.62
471.068	4.61
471.42	4.64
471.772	4.67
472.123	4.69
472.475	4.7
472.827	4.72
473.178	4.72
473.53	4.71
473.882	4.71
474.233	4.72
474.585	4.72
474.936	4.72
475.288	4.7
475.639	4.69
475.99	4.69
476.342	4.69
476.693	4.68
477.044	4.7
477.395	4.68
477.746	4.67
478.097	4.67
478.448	4.68
478.8	4.67
479.15	4.65
479.501	4.64
479.852	4.64
480.203	4.63
480.554	4.63
480.905	4.63
481.255	4.63
481.606	4.63
481.957	4.62
482.307	4.63
482.658	4.62
483.009	4.62
483.359	4.63
483.709	4.64
484.06	4.64
484.41	4.64
484.761	4.64
485.111	4.64
485.461	4.64
485.811	4.64
486.162	4.64
486.512	4.65
486.862	4.65
487.212	4.65
487.562	4.66
487.912	4.66
488.262	4.66
488.612	4.66
488.961	4.66
489.311	4.67
489.661	4.66
490.011	4.67
490.36	4.68
490.71	4.68
491.06	4.68
491.409	4.68
491.759	4.71
492.108	4.72
492.458	4.74
492.807	4.75
493.157	4.76
493.506	4.79
493.855	4.81
494.204	4.82
494.554	4.84
494.903	4.86
495.252	4.88
495.601	4.93
495.95	4.97
496.299	4.99
496.648	5.02
496.997	5.07
497.346	5.1
497.695	5.15
498.043	5.18
498.392	5.21
498.741	5.25
499.09	5.26
499.438	5.32
499.787	5.36
500.135	5.42
500.484	5.46
500.832	5.48
501.181	5.53
501.529	5.58
501.878	5.66
502.226	5.73
502.574	5.78
502.923	5.84
503.271	5.89
503.619	5.97
503.967	6.04
504.315	6.1
504.663	6.17
505.011	6.22
505.359	6.29
505.707	6.39
506.055	6.46
506.403	6.54
506.751	6.6
507.098	6.68
507.446	6.75
507.794	6.83
508.141	6.91
508.489	6.97
508.837	7.06
509.184	7.11
509.531	7.18
509.879	7.27
510.226	7.34
510.574	7.41
510.921	7.48
511.268	7.56
511.616	7.63
511.963	7.71
512.31	7.8
512.657	7.88
513.004	7.95
513.351	8.05
513.698	8.12
514.045	8.22
514.392	8.32
514.739	8.42
515.086	8.52
515.432	8.64
515.779	8.74
516.126	8.85
516.473	8.97
516.819	9.09
517.166	9.17
517.512	9.26
517.859	9.37
518.205	9.45
518.552	9.55
518.898	9.64
519.245	9.75
519.591	9.85
519.937	9.95
520.283	10.06
520.629	10.19
520.976	10.33
521.322	10.45
521.668	10.57
522.014	10.71
522.36	10.87
522.706	10.99
523.052	11.16
523.398	11.32
523.743	11.46
524.089	11.64
524.435	11.83
524.781	11.99
525.126	12.13
525.472	12.3
525.817	12.42
526.163	12.54
526.509	12.64
526.854	12.75
527.199	12.84
527.545	12.94
527.89	13.03
528.235	13.13
528.581	13.25
528.926	13.36
529.271	13.48
529.616	13.57
529.961	13.69
530.306	13.82
530.651	13.94
530.996	14.09
531.341	14.22
531.686	14.35
532.031	14.5
532.376	14.65
532.721	14.78
533.065	14.95
533.41	15.15
533.755	15.35
534.099	15.53
534.444	15.75
534.788	15.96
535.133	16.15
535.477	16.35
535.822	16.55
536.166	16.79
536.51	17.02
536.855	17.31
537.199	17.6
537.543	17.86
537.887	18.13
538.231	18.4
538.576	18.67
538.92	18.95
539.264	19.23
539.608	19.51
539.951	19.76
540.295	20.01
540.639	20.2
540.983	20.44
541.327	20.67
541.671	20.89
542.014	21.09
542.358	21.33
542.701	21.56
543.045	21.78
543.389	21.99
543.732	22.22
544.075	22.44
544.419	22.68
544.762	22.94
545.105	23.2
545.449	23.48
545.792	23.8
546.135	24.08
546.478	24.44
546.821	24.75
547.165	25.11
547.508	25.47
547.851	25.82
548.194	26.15
548.536	26.48
548.879	26.84
549.222	27.26
549.565	27.63
549.908	28.02
550.25	28.45
550.593	28.85
550.936	29.25
551.278	29.69
551.621	30.11
551.963	30.52
552.306	30.92
552.648	31.34
552.991	31.68
553.333	32.11
553.675	32.41
554.017	32.79
554.36	33.16
554.702	33.48
555.044	33.84
555.386	34.26
555.728	34.67
556.07	35.05
556.412	35.4
556.754	35.77
557.096	36.13
557.438	36.45
557.78	36.85
558.121	37.23
558.463	37.57
558.805	37.96
559.147	38.32
559.488	38.71
559.83	39.07
560.171	39.47
560.513	39.78
560.854	40.12
561.196	40.39
561.537	40.77
561.878	41.17
562.22	41.53
562.561	41.79
562.902	42.11
563.243	42.41
563.584	42.68
563.925	42.97
564.266	43.31
564.607	43.59
564.948	43.83
565.289	44.13
565.63	44.37
565.971	44.6
566.312	44.85
566.653	45.08
566.993	45.28
567.334	45.48
567.675	45.71
568.015	46
568.356	46.31
568.696	46.5
569.037	46.72
569.377	46.95
569.718	47.24
570.058	47.46
570.398	47.76
570.739	48.06
571.079	48.28
571.419	48.49
571.759	48.72
572.099	48.98
572.439	49.2
572.779	49.38
573.119	49.6
573.459	49.81
573.799	49.98
574.139	50.17
574.479	50.45
574.819	50.66
575.158	50.81
575.498	51.05
575.838	51.24
576.177	51.46
576.517	51.71
576.856	51.9
577.196	52.12
577.535	52.22
577.875	52.35
578.214	52.56
578.553	52.79
578.893	53.04
579.232	53.22
579.571	53.42
579.91	53.63
580.25	53.82
580.589	54.09
580.928	54.31
581.267	54.58
581.606	54.69
581.945	54.9
582.283	55.04
582.622	55.2
582.961	55.44
583.3	55.63
583.639	55.79
583.977	55.95
584.316	56.13
584.654	56.34
584.993	56.52
585.332	56.69
585.67	56.8
586.008	56.84
586.347	56.87
586.685	57.02
587.024	57.15
587.362	57.24
587.7	57.21
588.038	57.38
588.376	57.44
588.715	57.53
589.053	57.58
589.391	57.76
589.729	57.84
590.067	57.85
590.404	57.92
590.742	57.98
591.08	58.07
591.418	58.1
591.756	58.15
592.093	58.27
592.431	58.36
592.769	58.45
593.106	58.6
593.444	58.74
593.781	58.74
594.119	58.87
594.456	58.95
594.793	59.08
595.131	59.1
595.468	59.16
595.805	59.24
596.143	59.34
596.48	59.33
596.817	59.39
597.154	59.5
597.491	59.5
597.828	59.59
598.165	59.65
598.502	59.69
598.839	59.78
599.176	59.82
599.512	59.89
599.849	60.04
600.186	60.08
600.523	60.17
600.859	60.3
601.196	60.31
601.532	60.36
601.869	60.38
602.205	60.43
602.542	60.52
602.878	60.51
603.215	60.56
603.551	60.68
603.887	60.74
604.223	60.74
604.56	60.87
604.896	60.91
605.232	61.06
605.568	61.19
605.904	61.28
606.24	61.39
606.576	61.4
606.912	61.45
607.248	61.56
607.583	61.62
607.919	61.63
608.255	61.71
608.591	61.84
608.926	61.97
609.262	62.04
609.597	62.16
609.933	62.27
610.268	62.41
610.604	62.48
610.939	62.45
611.275	62.57
611.61	62.64
611.945	62.68
612.281	62.63
612.616	62.7
612.951	62.75
613.286	62.81
613.621	62.95
613.956	62.93
614.291	62.89
614.626	62.94
614.961	63.02
615.296	63.08
615.631	63.09
615.966	63.13
616.3	63.16
616.635	63.16
616.97	63.21
617.304	63.16
617.639	63.15
617.973	63.35
618.308	63.44
618.642	63.46
618.977	63.46
619.311	63.47
619.646	63.45
619.98	63.47
620.314	63.52
620.648	63.58
620.983	63.64
621.317	63.61
621.651	63.62
621.985	63.8
622.319	63.8
622.653	63.86
622.987	63.86
623.321	63.89
623.655	63.88
623.988	63.93
624.322	64
624.656	63.98
624.99	63.98
625.323	63.84
625.657	63.9
625.99	63.99
626.324	64.06
626.657	64.09
626.991	63.99
627.324	63.84
627.658	63.79
627.991	63.78
628.324	63.95
628.657	64.03
628.991	63.93
629.324	63.94
629.657	63.91
629.99	64.03
630.323	64.06
630.656	64.16
630.989	64.19
631.322	64.29
631.655	64.42
631.987	64.48
632.32	64.63
632.653	64.56
632.986	64.53
633.318	64.59
633.651	64.61
633.984	64.7
634.316	64.81
634.649	64.88
634.981	64.94
635.313	64.92
635.646	64.88
635.978	64.94
636.31	65.03
636.643	65.06
636.975	65.05
637.307	65.03
637.639	65.04
637.971	65.07
638.303	64.9
638.635	64.92
638.967	64.85
639.299	64.86
639.631	64.88
639.963	64.95
640.295	64.91
640.626	64.94
640.958	64.98
641.29	65
641.621	65.03
641.953	65.05
642.285	65.12
642.616	65.12
642.948	65.08
643.279	65
643.61	64.98
643.942	64.92
644.273	65.03
644.604	64.99
644.936	64.9
645.267	64.92
645.598	64.85
645.929	64.86
646.26	64.82
646.591	64.95
646.922	64.92
647.253	64.93
647.584	65.05
647.915	65.13
648.245	65.15
648.576	65.12
648.907	65.1
649.238	65.06
649.568	65.11
649.899	65.03
650.229	65.13
650.56	65.24
650.89	65.36
651.221	65.39
651.551	65.38
651.882	65.49
652.212	65.52
652.542	65.53
652.872	65.58
653.203	65.61
653.533	65.59
653.863	65.6
654.193	65.69
654.523	65.5
654.853	65.54
655.183	65.6
655.513	65.56
655.843	65.7
656.172	65.65
656.502	65.66
656.832	65.9
657.162	65.99
657.491	65.89
657.821	65.73
658.15	65.68
658.48	65.73
658.809	65.71
659.139	65.69
659.468	65.75
659.798	65.7
660.127	65.67
660.456	65.66
660.785	65.62
661.115	65.5
661.444	65.6
661.773	65.54
662.102	65.44
662.431	65.5
662.76	65.36
663.089	65.33
