Data from BA28299_Reflection_00009.txt Node
Date: Mon Nov 18 15:42:26 EST 2019
User: vgr7
Spectrometer: USB2G7710
Scans to average: 3
Trigger mode: 4
Integration Time (sec): 2.000000E-2
Electric dark correction enabled: true
Boxcar width: 10
XAxis mode: Wavelengths
Number of Pixels in Spectrum: 2048
>>>>>Begin Spectral Data<<<<<
177.721	92.61
178.105	88.51
178.488	109.13
178.871	-369.7
179.254	282.65
179.636	-25.41
180.019	-1.73
180.402	88.46
180.785	-661.9
181.168	704.17
181.55	-703.42
181.933	287.98
182.316	191.73
182.698	155.47
183.081	223.55
183.463	372.07
183.846	308.24
184.228	2057.67
184.611	25166.67
184.993	-559.54
185.376	-451.54
185.758	-745.32
186.14	-488.39
186.522	-555.69
186.904	-262.98
187.287	-597.61
187.669	-164.79
188.051	-166.15
188.433	-124.33
188.815	-135.76
189.197	-121.03
189.579	-102.35
189.961	-116.07
190.342	-81.38
190.724	-63.58
191.106	-69
191.488	-60.25
191.869	-31.61
192.251	-31.49
192.633	-38
193.014	-57.69
193.396	-52.82
193.777	-41.24
194.159	-45.49
194.54	-37.83
194.922	-53.23
195.303	-47.56
195.684	-48.37
196.065	-34.37
196.447	-40.51
196.828	-34.69
197.209	-38.56
197.59	-33.21
197.971	-21.54
198.352	-12.76
198.733	-19.49
199.114	-11.86
199.495	-11.5
199.876	-23.27
200.257	-21.76
200.638	-24.2
201.018	-24.09
201.399	-30.15
201.78	-35.3
202.16	-44.83
202.541	-51.71
202.922	-56.57
203.302	-63.12
203.683	-72.92
204.063	-89.8
204.444	-96.03
204.824	-107.87
205.204	-105.39
205.585	-119.57
205.965	-119.42
206.345	-132.76
206.725	-146.55
207.106	-200.39
207.486	-273.01
207.866	-270.84
208.246	-224.14
208.626	-181.57
209.006	-152.95
209.386	-167.92
209.766	-154.5
210.145	-149.6
210.525	-112.9
210.905	-108.6
211.285	-91.64
211.664	-80.12
212.044	-67.43
212.424	-74.53
212.803	-79.23
213.183	-57.98
213.562	-43.23
213.942	-41.65
214.321	-39.49
214.701	-36.63
215.08	-34.27
215.459	-27.83
215.838	-34.66
216.218	-37.54
216.597	-19.22
216.976	-17.24
217.355	-21.88
217.734	-24.27
218.113	-24.62
218.492	-28.3
218.871	-27.41
219.25	-16.22
219.629	-25.31
220.008	-40.51
220.387	-32.14
220.766	-36.43
221.144	-62.38
221.523	-86.75
221.902	-63.04
222.28	-63.45
222.659	-50.49
223.037	-40.27
223.416	-49.21
223.794	-40.59
224.173	-33.62
224.551	-32.83
224.929	-31.61
225.308	-22.21
225.686	-19.61
226.064	-15.85
226.442	-17.56
226.821	-14.4
227.199	-17.77
227.577	-15.31
227.955	-15.34
228.333	-15.51
228.711	-10.32
229.089	-5.95
229.467	-4.51
229.845	-7.22
230.222	-5.03
230.6	-5.39
230.978	-5.93
231.356	-2.56
231.733	-1.89
232.111	-2.04
232.488	-3.21
232.866	-4.21
233.243	-3.65
233.621	-3.49
233.998	-2.81
234.376	-2.43
234.753	-3.25
235.13	-2.98
235.508	-3.19
235.885	-1.56
236.262	-1.84
236.639	-2.03
237.016	-2.95
237.393	-1.46
237.77	-0.18
238.147	0.88
238.524	0.92
238.901	1.29
239.278	2.19
239.655	2.25
240.032	2.18
240.409	2.43
240.785	2.86
241.162	2.97
241.539	3.13
241.915	3.22
242.292	3.05
242.668	3.32
243.045	4.04
243.421	4.16
243.798	3.98
244.174	4.02
244.551	3.88
244.927	3.95
245.303	3.86
245.679	3.67
246.056	3.44
246.432	3.29
246.808	3.25
247.184	2.75
247.56	2.73
247.936	2.57
248.312	2.57
248.688	2.65
249.064	2.59
249.44	2.65
249.815	2.61
250.191	2.8
250.567	2.96
250.943	2.61
251.318	2.73
251.694	2.66
252.069	2.67
252.445	2.64
252.82	2.81
253.196	2.86
253.571	2.95
253.947	2.78
254.322	2.97
254.697	3.06
255.073	3.42
255.448	3.44
255.823	3.72
256.198	3.85
256.573	3.72
256.948	3.77
257.323	3.85
257.698	3.8
258.073	4.01
258.448	3.73
258.823	3.85
259.198	3.49
259.573	3.51
259.948	3.5
260.322	3.53
260.697	3.43
261.072	3.4
261.446	3.46
261.821	3.59
262.195	3.67
262.57	3.65
262.944	3.58
263.319	3.41
263.693	3.19
264.067	3.26
264.442	3.31
264.816	3.27
265.19	3.24
265.564	3.22
265.938	2.88
266.313	2.93
266.687	2.84
267.061	3.14
267.435	3.29
267.809	3.27
268.183	3.11
268.556	2.97
268.93	2.92
269.304	2.88
269.678	2.91
270.051	2.74
270.425	2.84
270.799	2.76
271.172	2.8
271.546	2.93
271.919	2.69
272.293	2.73
272.666	2.78
273.04	2.75
273.413	2.69
273.787	2.71
274.16	2.69
274.533	2.57
274.906	2.5
275.279	2.47
275.653	2.54
276.026	2.57
276.399	2.78
276.772	2.75
277.145	2.73
277.518	2.64
277.891	2.77
278.263	2.77
278.636	2.87
279.009	2.81
279.382	2.9
279.755	3.06
280.127	3.13
280.5	3.26
280.872	3.38
281.245	3.28
281.617	3.35
281.99	3.38
282.362	3.51
282.735	3.43
283.107	3.32
283.479	3.34
283.852	3.38
284.224	3.28
284.596	3.26
284.968	3.4
285.34	3.48
285.713	3.51
286.085	3.51
286.457	3.58
286.829	3.73
287.201	3.74
287.572	3.6
287.944	3.48
288.316	3.42
288.688	3.24
289.06	3.4
289.431	3.44
289.803	3.46
290.175	3.43
290.546	3.6
290.918	3.7
291.289	3.68
291.661	3.8
292.032	3.97
292.403	4.02
292.775	3.95
293.146	3.92
293.517	3.81
293.889	3.81
294.26	3.84
294.631	3.86
295.002	3.99
295.373	4.1
295.744	4.2
296.115	4.04
296.486	4.05
296.857	3.98
297.228	4.04
297.599	4.08
297.97	4.03
298.34	3.99
298.711	4.02
299.082	4.07
299.452	4.07
299.823	4.07
300.194	4.1
300.564	4.08
300.935	4.18
301.305	4.16
301.676	4.16
302.046	4.17
302.416	4.1
302.787	4.03
303.157	4.1
303.527	4.06
303.897	4.27
304.267	4.41
304.637	4.55
305.008	4.52
305.378	4.42
305.748	4.57
306.117	4.54
306.487	4.58
306.857	4.59
307.227	4.56
307.597	4.58
307.967	4.66
308.336	4.71
308.706	4.71
309.076	5.03
309.445	5.1
309.815	4.99
310.184	5.09
310.554	5.13
310.923	5.13
311.293	5.2
311.662	5.21
312.031	5.32
312.401	5.38
312.77	5.52
313.139	5.66
313.508	5.78
313.877	5.92
314.246	5.96
314.616	5.94
314.985	6.09
315.353	5.99
315.722	6.13
316.091	6.22
316.46	6.19
316.829	5.98
317.198	6.16
317.567	6.42
317.935	6.45
318.304	6.56
318.672	6.52
319.041	6.72
319.41	6.88
319.778	6.84
320.147	6.83
320.515	6.74
320.883	6.89
321.252	6.89
321.62	6.92
321.988	6.98
322.357	7.21
322.725	7.22
323.093	7.42
323.461	7.34
323.829	7.27
324.197	7.31
324.565	7.52
324.933	7.45
325.301	7.35
325.669	7.51
326.037	7.46
326.405	7.66
326.772	7.55
327.14	7.65
327.508	7.77
327.875	7.75
328.243	7.94
328.61	8.01
328.978	8.1
329.346	8.22
329.713	8.17
330.08	8.16
330.448	8.11
330.815	8.06
331.182	8.09
331.55	8.27
331.917	8.52
332.284	8.58
332.651	8.65
333.018	8.78
333.385	8.74
333.752	8.97
334.119	9.02
334.486	8.93
334.853	8.83
335.22	8.71
335.587	8.92
335.954	8.94
336.32	8.94
336.687	8.89
337.054	8.9
337.42	8.98
337.787	9.05
338.153	9.07
338.52	9.2
338.886	9.17
339.253	9.14
339.619	9.05
339.986	8.92
340.352	8.88
340.718	8.86
341.084	8.85
341.451	8.79
341.817	8.8
342.183	8.92
342.549	8.91
342.915	9.05
343.281	8.92
343.647	8.84
344.013	8.89
344.379	8.99
344.745	9.06
345.11	9.04
345.476	9.02
345.842	9.01
346.208	9.08
346.573	9.22
346.939	9.31
347.304	9.34
347.67	9.53
348.035	9.49
348.401	9.6
348.766	9.72
349.132	9.79
349.497	9.79
349.862	9.86
350.228	9.89
350.593	9.85
350.958	9.93
351.323	9.95
351.688	9.95
352.053	10.03
352.418	10.11
352.783	10.1
353.148	10.07
353.513	10.11
353.878	10.03
354.243	10.08
354.608	10.11
354.972	10.09
355.337	9.99
355.702	10.12
356.066	10.05
356.431	10
356.795	10
357.16	10.04
357.524	9.98
357.889	9.95
358.253	9.99
358.618	10.02
358.982	10.03
359.346	9.94
359.71	9.9
360.075	9.83
360.439	9.87
360.803	9.95
361.167	9.94
361.531	10.01
361.895	9.91
362.259	9.88
362.623	9.86
362.987	9.92
363.351	9.9
363.714	9.95
364.078	9.88
364.442	9.83
364.806	9.79
365.169	9.79
365.533	9.83
365.896	9.79
366.26	9.79
366.623	9.77
366.987	9.81
367.35	9.76
367.714	9.71
368.077	9.64
368.44	9.53
368.803	9.52
369.167	9.36
369.53	9.39
369.893	9.39
370.256	9.45
370.619	9.39
370.982	9.38
371.345	9.29
371.708	9.27
372.071	9.2
372.434	9.15
372.797	9.15
373.159	9.07
373.522	9.05
373.885	8.96
374.247	8.94
374.61	8.78
374.973	8.76
375.335	8.72
375.698	8.74
376.06	8.73
376.423	8.69
376.785	8.75
377.147	8.69
377.51	8.59
377.872	8.5
378.234	8.41
378.596	8.32
378.958	8.26
379.321	8.23
379.683	8.19
380.045	8.14
380.407	8.07
380.769	8.02
381.13	7.97
381.492	7.95
381.854	7.93
382.216	7.95
382.578	7.86
382.939	7.79
383.301	7.69
383.663	7.61
384.024	7.55
384.386	7.49
384.747	7.5
385.109	7.48
385.47	7.45
385.832	7.44
386.193	7.44
386.554	7.44
386.916	7.39
387.277	7.38
387.638	7.37
387.999	7.33
388.36	7.3
388.721	7.26
389.082	7.2
389.443	7.1
389.804	7.08
390.165	7.08
390.526	7.05
390.887	7.04
391.248	7.07
391.609	7.03
391.969	6.96
392.33	6.89
392.691	6.82
393.051	6.77
393.412	6.76
393.772	6.65
394.133	6.63
394.493	6.62
394.854	6.53
395.214	6.51
395.574	6.48
395.935	6.46
396.295	6.43
396.655	6.39
397.015	6.36
397.376	6.33
397.736	6.23
398.096	6.17
398.456	6.12
398.816	6.03
399.176	5.97
399.535	5.95
399.895	5.92
400.255	5.9
400.615	5.82
400.975	5.77
401.334	5.74
401.694	5.66
402.054	5.63
402.413	5.6
402.773	5.53
403.132	5.49
403.492	5.45
403.851	5.39
404.211	5.37
404.57	5.35
404.929	5.32
405.288	5.31
405.648	5.31
406.007	5.3
406.366	5.28
406.725	5.29
407.084	5.25
407.443	5.22
407.802	5.19
408.161	5.22
408.52	5.17
408.879	5.17
409.238	5.18
409.596	5.12
409.955	5.1
410.314	5.1
410.673	5
411.031	4.95
411.39	4.92
411.748	4.91
412.107	4.89
412.465	4.87
412.824	4.85
413.182	4.82
413.54	4.8
413.899	4.77
414.257	4.74
414.615	4.71
414.974	4.7
415.332	4.68
415.69	4.62
416.048	4.59
416.406	4.55
416.764	4.51
417.122	4.5
417.48	4.46
417.838	4.42
418.195	4.43
418.553	4.43
418.911	4.41
419.269	4.37
419.626	4.34
419.984	4.32
420.342	4.32
420.699	4.3
421.057	4.27
421.414	4.26
421.772	4.22
422.129	4.21
422.486	4.18
422.844	4.17
423.201	4.15
423.558	4.12
423.915	4.13
424.273	4.11
424.63	4.09
424.987	4.09
425.344	4.08
425.701	4.06
426.058	4.03
426.415	4.02
426.772	4
427.128	3.98
427.485	3.97
427.842	3.93
428.199	3.91
428.555	3.88
428.912	3.89
429.269	3.89
429.625	3.86
429.982	3.86
430.338	3.84
430.695	3.86
431.051	3.86
431.407	3.82
431.764	3.83
432.12	3.84
432.476	3.83
432.832	3.8
433.189	3.82
433.545	3.81
433.901	3.81
434.257	3.82
434.613	3.83
434.969	3.83
435.325	3.83
435.681	3.84
436.036	3.85
436.392	3.85
436.748	3.85
437.104	3.84
437.459	3.83
437.815	3.83
438.171	3.82
438.526	3.82
438.882	3.81
439.237	3.8
439.593	3.79
439.948	3.79
440.304	3.81
440.659	3.8
441.014	3.8
441.369	3.8
441.725	3.77
442.08	3.75
442.435	3.73
442.79	3.73
443.145	3.71
443.5	3.69
443.855	3.67
444.21	3.67
444.565	3.67
444.92	3.67
445.275	3.65
445.629	3.65
445.984	3.65
446.339	3.65
446.693	3.63
447.048	3.61
447.403	3.59
447.757	3.56
448.112	3.55
448.466	3.53
448.82	3.54
449.175	3.53
449.529	3.54
449.883	3.52
450.238	3.51
450.592	3.52
450.946	3.51
451.3	3.49
451.654	3.47
452.008	3.47
452.362	3.45
452.716	3.44
453.07	3.42
453.424	3.41
453.778	3.4
454.132	3.42
454.486	3.42
454.839	3.41
455.193	3.4
455.547	3.4
455.9	3.43
456.254	3.44
456.607	3.44
456.961	3.43
457.314	3.42
457.668	3.42
458.021	3.41
458.375	3.4
458.728	3.42
459.081	3.44
459.434	3.42
459.787	3.44
460.141	3.45
460.494	3.45
460.847	3.47
461.2	3.46
461.553	3.45
461.906	3.47
462.259	3.5
462.611	3.55
462.964	3.57
463.317	3.58
463.67	3.6
464.022	3.61
464.375	3.63
464.728	3.66
465.08	3.69
465.433	3.72
465.785	3.75
466.138	3.75
466.49	3.77
466.843	3.79
467.195	3.79
467.547	3.82
467.899	3.82
468.252	3.82
468.604	3.86
468.956	3.87
469.308	3.89
469.66	3.88
470.012	3.89
470.364	3.9
470.716	3.9
471.068	3.9
471.42	3.91
471.772	3.92
472.123	3.95
472.475	3.94
472.827	3.95
473.178	3.95
473.53	3.96
473.882	3.95
474.233	3.96
474.585	3.95
474.936	3.95
475.288	3.94
475.639	3.96
475.99	3.95
476.342	3.95
476.693	3.91
477.044	3.91
477.395	3.89
477.746	3.85
478.097	3.81
478.448	3.81
478.8	3.81
479.15	3.8
479.501	3.78
479.852	3.78
480.203	3.77
480.554	3.78
480.905	3.77
481.255	3.77
481.606	3.76
481.957	3.76
482.307	3.77
482.658	3.78
483.009	3.77
483.359	3.77
483.709	3.77
484.06	3.78
484.41	3.79
484.761	3.8
485.111	3.81
485.461	3.83
485.811	3.83
486.162	3.83
486.512	3.85
486.862	3.86
487.212	3.87
487.562	3.88
487.912	3.88
488.262	3.89
488.612	3.89
488.961	3.91
489.311	3.92
489.661	3.93
490.011	3.94
490.36	3.96
490.71	3.98
491.06	4
491.409	4.01
491.759	4.02
492.108	4.03
492.458	4.05
492.807	4.05
493.157	4.06
493.506	4.08
493.855	4.09
494.204	4.11
494.554	4.12
494.903	4.14
495.252	4.17
495.601	4.21
495.95	4.26
496.299	4.29
496.648	4.31
496.997	4.35
497.346	4.4
497.695	4.45
498.043	4.48
498.392	4.51
498.741	4.55
499.09	4.61
499.438	4.66
499.787	4.74
500.135	4.81
500.484	4.89
500.832	4.97
501.181	5.05
501.529	5.12
501.878	5.22
502.226	5.3
502.574	5.38
502.923	5.45
503.271	5.5
503.619	5.58
503.967	5.69
504.315	5.75
504.663	5.82
505.011	5.9
505.359	5.99
505.707	6.09
506.055	6.18
506.403	6.28
506.751	6.36
507.098	6.46
507.446	6.53
507.794	6.6
508.141	6.68
508.489	6.77
508.837	6.86
509.184	6.94
509.531	7.04
509.879	7.16
510.226	7.26
510.574	7.37
510.921	7.49
511.268	7.57
511.616	7.68
511.963	7.77
512.31	7.89
512.657	8.01
513.004	8.1
513.351	8.21
513.698	8.34
514.045	8.46
514.392	8.56
514.739	8.7
515.086	8.83
515.432	8.93
515.779	9.03
516.126	9.17
516.473	9.28
516.819	9.4
517.166	9.48
517.512	9.59
517.859	9.7
518.205	9.78
518.552	9.87
518.898	9.99
519.245	10.09
519.591	10.17
519.937	10.26
520.283	10.4
520.629	10.5
520.976	10.61
521.322	10.73
521.668	10.88
522.014	11.04
522.36	11.22
522.706	11.39
523.052	11.59
523.398	11.78
523.743	12
524.089	12.18
524.435	12.4
524.781	12.6
525.126	12.79
525.472	12.96
525.817	13.15
526.163	13.3
526.509	13.45
526.854	13.58
527.199	13.71
527.545	13.83
527.89	13.97
528.235	14.11
528.581	14.25
528.926	14.39
529.271	14.52
529.616	14.64
529.961	14.79
530.306	14.93
530.651	15.09
530.996	15.23
531.341	15.41
531.686	15.58
532.031	15.74
532.376	15.91
532.721	16.13
533.065	16.3
533.41	16.52
533.755	16.72
534.099	16.96
534.444	17.19
534.788	17.42
535.133	17.65
535.477	17.88
535.822	18.14
536.166	18.4
536.51	18.69
536.855	18.99
537.199	19.29
537.543	19.6
537.887	19.91
538.231	20.24
538.576	20.55
538.92	20.91
539.264	21.25
539.608	21.57
539.951	21.82
540.295	22.12
540.639	22.38
540.983	22.64
541.327	22.88
541.671	23.15
542.014	23.38
542.358	23.6
542.701	23.84
543.045	24.05
543.389	24.29
543.732	24.56
544.075	24.83
544.419	25.09
544.762	25.4
545.105	25.67
545.449	25.98
545.792	26.26
546.135	26.55
546.478	26.83
546.821	27.16
547.165	27.53
547.508	27.86
547.851	28.2
548.194	28.54
548.536	28.9
548.879	29.27
549.222	29.68
549.565	30.02
549.908	30.38
550.25	30.77
550.593	31.15
550.936	31.47
551.278	31.82
551.621	32.22
551.963	32.54
552.306	32.88
552.648	33.23
552.991	33.61
553.333	33.93
553.675	34.31
554.017	34.64
554.36	34.95
554.702	35.24
555.044	35.53
555.386	35.83
555.728	36.1
556.07	36.37
556.412	36.66
556.754	37.02
557.096	37.36
557.438	37.64
557.78	37.93
558.121	38.29
558.463	38.55
558.805	38.84
559.147	39.16
559.488	39.46
559.83	39.76
560.171	40.02
560.513	40.3
560.854	40.53
561.196	40.8
561.537	41.04
561.878	41.29
562.22	41.58
562.561	41.86
562.902	42.12
563.243	42.36
563.584	42.58
563.925	42.79
564.266	42.96
564.607	43.17
564.948	43.38
565.289	43.57
565.63	43.82
565.971	44
566.312	44.13
566.653	44.32
566.993	44.46
567.334	44.63
567.675	44.8
568.015	44.99
568.356	45.13
568.696	45.25
569.037	45.45
569.377	45.63
569.718	45.79
570.058	45.96
570.398	46.12
570.739	46.26
571.079	46.37
571.419	46.56
571.759	46.78
572.099	46.95
572.439	47.05
572.779	47.14
573.119	47.25
573.459	47.4
573.799	47.54
574.139	47.71
574.479	47.84
574.819	47.89
575.158	48.01
575.498	48.14
575.838	48.33
576.177	48.43
576.517	48.53
576.856	48.73
577.196	48.86
577.535	49.02
577.875	49.17
578.214	49.35
578.553	49.5
578.893	49.54
579.232	49.66
579.571	49.79
579.91	49.93
580.25	50.15
580.589	50.35
580.928	50.42
581.267	50.5
581.606	50.65
581.945	50.81
582.283	50.94
582.622	51.09
582.961	51.26
583.3	51.41
583.639	51.5
583.977	51.54
584.316	51.64
584.654	51.67
584.993	51.8
585.332	51.87
585.67	51.91
586.008	52.05
586.347	52.15
586.685	52.23
587.024	52.3
587.362	52.32
587.7	52.34
588.038	52.47
588.376	52.52
588.715	52.55
589.053	52.71
589.391	52.75
589.729	52.81
590.067	52.86
590.404	52.93
590.742	53.02
591.08	53.08
591.418	53.14
591.756	53.23
592.093	53.26
592.431	53.36
592.769	53.47
593.106	53.55
593.444	53.5
593.781	53.54
594.119	53.56
594.456	53.59
594.793	53.63
595.131	53.65
595.468	53.78
595.805	53.86
596.143	53.82
596.48	53.89
596.817	53.9
597.154	53.94
597.491	53.95
597.828	53.93
598.165	53.97
598.502	54.05
598.839	54.14
599.176	54.2
599.512	54.24
599.849	54.26
600.186	54.36
600.523	54.43
600.859	54.54
601.196	54.54
601.532	54.55
601.869	54.53
602.205	54.59
602.542	54.5
602.878	54.62
603.215	54.64
603.551	54.69
603.887	54.76
604.223	54.8
604.56	54.83
604.896	54.89
605.232	54.92
605.568	54.97
605.904	54.98
606.24	55.02
606.576	55.07
606.912	55.11
607.248	55.09
607.583	55.18
607.919	55.19
608.255	55.28
608.591	55.41
608.926	55.51
609.262	55.54
609.597	55.7
609.933	55.73
610.268	55.82
610.604	55.88
610.939	55.9
611.275	55.97
611.61	56.06
611.945	56.09
612.281	56.18
612.616	56.14
612.951	56.19
613.286	56.19
613.621	56.22
613.956	56.22
614.291	56.26
614.626	56.3
614.961	56.33
615.296	56.39
615.631	56.36
615.966	56.41
616.3	56.4
616.635	56.33
616.97	56.2
617.304	56.23
617.639	56.23
617.973	56.26
618.308	56.23
618.642	56.28
618.977	56.28
619.311	56.29
619.646	56.4
619.98	56.47
620.314	56.56
620.648	56.58
620.983	56.61
621.317	56.66
621.651	56.71
621.985	56.79
622.319	56.87
622.653	56.87
622.987	56.95
623.321	57.04
623.655	57.13
623.988	57.23
624.322	57.28
624.656	57.33
624.99	57.37
625.323	57.4
625.657	57.34
625.99	57.33
626.324	57.29
626.657	57.26
626.991	57.24
627.324	57.2
627.658	57.23
627.991	57.25
628.324	57.23
628.657	57.31
628.991	57.32
629.324	57.37
629.657	57.42
629.99	57.44
630.323	57.46
630.656	57.5
630.989	57.62
631.322	57.53
631.655	57.53
631.987	57.48
632.32	57.44
632.653	57.42
632.986	57.51
633.318	57.57
633.651	57.6
633.984	57.61
634.316	57.61
634.649	57.54
634.981	57.55
635.313	57.63
635.646	57.6
635.978	57.58
636.31	57.54
636.643	57.5
636.975	57.5
637.307	57.58
637.639	57.58
637.971	57.45
638.303	57.62
638.635	57.69
638.967	57.76
639.299	57.77
639.631	57.83
639.963	57.79
640.295	57.71
640.626	57.68
640.958	57.71
641.29	57.75
641.621	57.94
641.953	58.04
642.285	57.97
642.616	57.96
642.948	58.05
643.279	58.01
643.61	58.02
643.942	58.04
644.273	57.88
644.604	57.87
644.936	57.88
645.267	57.83
645.598	57.78
645.929	57.66
646.26	57.8
646.591	57.9
646.922	57.99
647.253	58.1
647.584	58.14
647.915	58.14
648.245	58.16
648.576	58.21
648.907	58.2
649.238	58.31
649.568	58.28
649.899	58.34
650.229	58.41
650.56	58.49
650.89	58.52
651.221	58.66
651.551	58.61
651.882	58.66
652.212	58.63
652.542	58.55
652.872	58.66
653.203	58.65
653.533	58.65
653.863	58.61
654.193	58.56
654.523	58.64
654.853	58.56
655.183	58.62
655.513	58.4
655.843	58.38
656.172	58.33
656.502	58.33
656.832	58.22
657.162	58.28
657.491	58.31
657.821	58.28
658.15	58.26
658.48	58.29
658.809	58.32
659.139	58.35
659.468	58.37
659.798	58.42
660.127	58.4
660.456	58.38
660.785	58.26
661.115	58.33
661.444	58.31
661.773	58.29
662.102	58.21
662.431	58.21
662.76	58.2
663.089	58.25
663.418	58.16
663.747	58.24
664.076	58.25
664.404	58.21
664.733	58.23
665.062	58.22
665.39	58.35
