Data from BA28472_Reflection_00003.txt Node
Date: Mon Nov 18 15:24:13 EST 2019
User: vgr7
Spectrometer: USB2G7710
Scans to average: 3
Trigger mode: 4
Integration Time (sec): 2.000000E-2
Electric dark correction enabled: true
Boxcar width: 10
XAxis mode: Wavelengths
Number of Pixels in Spectrum: 2048
>>>>>Begin Spectral Data<<<<<
177.721	22.98
178.105	80.83
178.488	74.49
178.871	29.11
179.254	52.29
179.636	-222.43
180.019	12918.18
180.402	115.38
180.785	103.93
181.168	-160.2
181.55	333.53
181.933	-0.54
182.316	44.71
182.698	49.74
183.081	65.68
183.463	53.34
183.846	37.82
184.228	24.41
184.611	21.65
184.993	9.63
185.376	2.92
185.758	11.27
186.14	20.79
186.522	25.03
186.904	3.58
187.287	36.67
187.669	-3.8
188.051	-15.74
188.433	10.52
188.815	3.36
189.197	15.78
189.579	3.23
189.961	65.62
190.342	52.51
190.724	106.24
191.106	66.72
191.488	18.11
191.869	-34.65
192.251	-64.04
192.633	-16.73
193.014	-87.31
193.396	-259.7
193.777	-280.62
194.159	-418.8
194.54	-302.4
194.922	-218.97
195.303	-200.22
195.684	-177.74
196.065	-165.61
196.447	-120.79
196.828	-117.43
197.209	-121.5
197.59	-162.74
197.971	-141.26
198.352	-69.61
198.733	-99.38
199.114	-103.88
199.495	-115.3
199.876	-143.24
200.257	-159.59
200.638	-115.44
201.018	-99.74
201.399	-50.31
201.78	22.72
202.16	-3.37
202.541	-27.93
202.922	-37.23
203.302	-29.13
203.683	-49.47
204.063	-53.82
204.444	-57.27
204.824	-57.13
205.204	-49.62
205.585	-48.64
205.965	-5.23
206.345	-102.95
206.725	-221.55
207.106	-186.38
207.486	-163.53
207.866	-143.48
208.246	-160.26
208.626	-275.36
209.006	-244.08
209.386	-338.34
209.766	-498.06
210.145	-777.81
210.525	-452.83
210.905	-506.47
211.285	-609.09
211.664	-262.47
212.044	495.74
212.424	-731.93
212.803	-130.77
213.183	-158.84
213.562	-476.35
213.942	1045.21
214.321	-165.82
214.701	55.22
215.08	75.34
215.459	51.53
215.838	87.79
216.218	82.91
216.597	88.63
216.976	94.96
217.355	121.25
217.734	95.61
218.113	105.21
218.492	91.77
218.871	85.14
219.25	66.83
219.629	70.84
220.008	55.57
220.387	58.9
220.766	33.39
221.144	14.13
221.523	7.74
221.902	-13.02
222.28	15.94
222.659	25.46
223.037	26.63
223.416	-3.45
223.794	-10.33
224.173	-4.79
224.551	-4.72
224.929	-14.33
225.308	-7.95
225.686	-10.54
226.064	-15.35
226.442	-10.9
226.821	-5.48
227.199	-4.95
227.577	-7.49
227.955	-6.42
228.333	-10.96
228.711	-7.61
229.089	-1.18
229.467	-2.74
229.845	-3.28
230.222	-4.35
230.6	-6.31
230.978	-7.56
231.356	-1.23
231.733	-2.67
232.111	-2.39
232.488	-1.84
232.866	-0.83
233.243	-0.31
233.621	1.13
233.998	2.06
234.376	1.52
234.753	1.44
235.13	2.85
235.508	2.96
235.885	2.31
236.262	2.27
236.639	3.7
237.016	2.95
237.393	4.24
237.77	5.16
238.147	5.21
238.524	4.24
238.901	4.65
239.278	3.09
239.655	4.66
240.032	3.96
240.409	3.79
240.785	3.93
241.162	3.56
241.539	3.44
241.915	3.79
242.292	3.64
242.668	3.59
243.045	3.55
243.421	3.43
243.798	3.61
244.174	3.48
244.551	3.13
244.927	2.95
245.303	3.18
245.679	3.2
246.056	3.35
246.432	3.65
246.808	3.75
247.184	3.88
247.56	3.64
247.936	3.76
248.312	3.72
248.688	3.81
249.064	3.76
249.44	3.58
249.815	3.54
250.191	3.74
250.567	3.74
250.943	3.68
251.318	4.13
251.694	4.11
252.069	3.98
252.445	4.08
252.82	4.35
253.196	4.21
253.571	4.41
253.947	4.38
254.322	4.35
254.697	4.27
255.073	4.19
255.448	3.95
255.823	3.87
256.198	3.7
256.573	3.71
256.948	3.92
257.323	4.29
257.698	4.14
258.073	4.16
258.448	4.24
258.823	4.17
259.198	3.94
259.573	3.91
259.948	4.2
260.322	4.3
260.697	4.31
261.072	4.35
261.446	4.36
261.821	4.24
262.195	4.4
262.57	4.46
262.944	4.61
263.319	4.56
263.693	4.56
264.067	4.66
264.442	4.55
264.816	4.4
265.19	4.44
265.564	4.72
265.938	4.61
266.313	4.4
266.687	4.42
267.061	4.6
267.435	4.74
267.809	4.51
268.183	4.44
268.556	4.34
268.93	4.38
269.304	4.24
269.678	4.33
270.051	4.14
270.425	4.08
270.799	4.07
271.172	4.16
271.546	4.09
271.919	4.03
272.293	4.1
272.666	4.23
273.04	4.17
273.413	4.2
273.787	4.16
274.16	4.31
274.533	4.44
274.906	4.28
275.279	4.3
275.653	4.43
276.026	4.43
276.399	4.41
276.772	4.39
277.145	4.2
277.518	4.23
277.891	4.19
278.263	4.2
278.636	4.12
279.009	4.23
279.382	4.54
279.755	4.69
280.127	4.81
280.5	4.71
280.872	4.63
281.245	4.68
281.617	4.89
281.99	4.81
282.362	4.73
282.735	4.66
283.107	4.68
283.479	4.7
283.852	4.71
284.224	4.72
284.596	4.62
284.968	4.8
285.34	4.86
285.713	4.98
286.085	5.02
286.457	5.04
286.829	4.96
287.201	4.87
287.572	4.8
287.944	4.8
288.316	4.89
288.688	4.94
289.06	4.75
289.431	4.7
289.803	4.75
290.175	4.81
290.546	5.03
290.918	4.97
291.289	5.09
291.661	5.12
292.032	5.2
292.403	5.31
292.775	5.36
293.146	5.26
293.517	5.2
293.889	5.35
294.26	5.25
294.631	5.34
295.002	5.31
295.373	5.3
295.744	5.19
296.115	5.09
296.486	4.97
296.857	5.01
297.228	4.98
297.599	4.85
297.97	4.77
298.34	4.62
298.711	4.67
299.082	4.51
299.452	4.45
299.823	4.42
300.194	4.38
300.564	4.29
300.935	4.31
301.305	4.24
301.676	4.15
302.046	4.21
302.416	4.23
302.787	4.2
303.157	4.19
303.527	4.28
303.897	4.35
304.267	4.33
304.637	4.29
305.008	4.4
305.378	4.56
305.748	4.57
306.117	4.64
306.487	4.64
306.857	4.82
307.227	4.75
307.597	4.74
307.967	4.73
308.336	4.74
308.706	4.71
309.076	4.68
309.445	4.61
309.815	4.61
310.184	4.5
310.554	4.54
310.923	4.54
311.293	4.59
311.662	4.48
312.031	4.47
312.401	4.51
312.77	4.43
313.139	4.36
313.508	4.46
313.877	4.53
314.246	4.39
314.616	4.29
314.985	4.39
315.353	4.41
315.722	4.46
316.091	4.4
316.46	4.48
316.829	4.6
317.198	4.7
317.567	4.69
317.935	4.65
318.304	4.56
318.672	4.42
319.041	4.36
319.41	4.4
319.778	4.49
320.147	4.47
320.515	4.41
320.883	4.39
321.252	4.35
321.62	4.27
321.988	4.33
322.357	4.26
322.725	4.17
323.093	4.22
323.461	4.25
323.829	4.27
324.197	4.31
324.565	4.27
324.933	4.19
325.301	4.32
325.669	4.41
326.037	4.44
326.405	4.46
326.772	4.52
327.14	4.6
327.508	4.47
327.875	4.42
328.243	4.49
328.61	4.51
328.978	4.33
329.346	4.34
329.713	4.27
330.08	4.36
330.448	4.28
330.815	4.11
331.182	4.12
331.55	4.16
331.917	4.06
332.284	4.06
332.651	3.94
333.018	3.81
333.385	3.65
333.752	3.76
334.119	3.84
334.486	3.79
334.853	3.74
335.22	3.82
335.587	3.97
335.954	3.91
336.32	3.96
336.687	4.07
337.054	4.06
337.42	4.21
337.787	4.13
338.153	4.11
338.52	4.23
338.886	4.08
339.253	3.97
339.619	4.05
339.986	3.92
340.352	4.06
340.718	4.05
341.084	4.1
341.451	4.12
341.817	4.16
342.183	4.15
342.549	4.14
342.915	4.29
343.281	4.17
343.647	4.16
344.013	4.18
344.379	4.19
344.745	4.17
345.11	4.15
345.476	4.16
345.842	4.24
346.208	4.18
346.573	4.29
346.939	4.36
347.304	4.22
347.67	4.32
348.035	4.25
348.401	4.33
348.766	4.34
349.132	4.3
349.497	4.29
349.862	4.34
350.228	4.33
350.593	4.17
350.958	4.11
351.323	4.11
351.688	4.12
352.053	4.09
352.418	4.07
352.783	4.01
353.148	3.94
353.513	3.94
353.878	3.9
354.243	3.89
354.608	3.93
354.972	4.06
355.337	4.1
355.702	4.2
356.066	4.21
356.431	4.25
356.795	4.28
357.16	4.2
357.524	4.11
357.889	4.14
358.253	4.24
358.618	4.35
358.982	4.39
359.346	4.36
359.71	4.41
360.075	4.48
360.439	4.52
360.803	4.57
361.167	4.6
361.531	4.63
361.895	4.62
362.259	4.55
362.623	4.56
362.987	4.5
363.351	4.49
363.714	4.5
364.078	4.57
364.442	4.55
364.806	4.64
365.169	4.72
365.533	4.77
365.896	4.73
366.26	4.65
366.623	4.64
366.987	4.61
367.35	4.62
367.714	4.59
368.077	4.54
368.44	4.52
368.803	4.49
369.167	4.43
369.53	4.4
369.893	4.47
370.256	4.44
370.619	4.48
370.982	4.42
371.345	4.34
371.708	4.28
372.071	4.25
372.434	4.21
372.797	4.17
373.159	4.09
373.522	4.15
373.885	4.26
374.247	4.28
374.61	4.3
374.973	4.24
375.335	4.2
375.698	4.28
376.06	4.3
376.423	4.3
376.785	4.35
377.147	4.38
377.51	4.32
377.872	4.36
378.234	4.4
378.596	4.41
378.958	4.36
379.321	4.37
379.683	4.43
380.045	4.44
380.407	4.41
380.769	4.43
381.13	4.4
381.492	4.31
381.854	4.32
382.216	4.32
382.578	4.4
382.939	4.38
383.301	4.37
383.663	4.34
384.024	4.34
384.386	4.37
384.747	4.4
385.109	4.4
385.47	4.33
385.832	4.33
386.193	4.38
386.554	4.42
386.916	4.44
387.277	4.4
387.638	4.41
387.999	4.43
388.36	4.47
388.721	4.48
389.082	4.52
389.443	4.47
389.804	4.49
390.165	4.45
390.526	4.5
390.887	4.49
391.248	4.54
391.609	4.54
391.969	4.54
392.33	4.48
392.691	4.51
393.051	4.54
393.412	4.57
393.772	4.5
394.133	4.5
394.493	4.51
394.854	4.5
395.214	4.51
395.574	4.52
395.935	4.49
396.295	4.5
396.655	4.47
397.015	4.52
397.376	4.5
397.736	4.52
398.096	4.51
398.456	4.53
398.816	4.5
399.176	4.5
399.535	4.46
399.895	4.48
400.255	4.51
400.615	4.55
400.975	4.52
401.334	4.56
401.694	4.58
402.054	4.54
402.413	4.58
402.773	4.53
403.132	4.53
403.492	4.52
403.851	4.52
404.211	4.53
404.57	4.49
404.929	4.5
405.288	4.48
405.648	4.47
406.007	4.45
406.366	4.44
406.725	4.46
407.084	4.51
407.443	4.53
407.802	4.52
408.161	4.47
408.52	4.45
408.879	4.44
409.238	4.43
409.596	4.44
409.955	4.4
410.314	4.42
410.673	4.41
411.031	4.41
411.39	4.4
411.748	4.41
412.107	4.44
412.465	4.44
412.824	4.46
413.182	4.44
413.54	4.47
413.899	4.51
414.257	4.5
414.615	4.48
414.974	4.47
415.332	4.46
415.69	4.46
416.048	4.48
416.406	4.51
416.764	4.51
417.122	4.52
417.48	4.54
417.838	4.54
418.195	4.55
418.553	4.54
418.911	4.53
419.269	4.56
419.626	4.56
419.984	4.57
420.342	4.57
420.699	4.57
421.057	4.58
421.414	4.54
421.772	4.53
422.129	4.54
422.486	4.53
422.844	4.54
423.201	4.54
423.558	4.53
423.915	4.52
424.273	4.54
424.63	4.53
424.987	4.51
425.344	4.52
425.701	4.52
426.058	4.52
426.415	4.55
426.772	4.53
427.128	4.52
427.485	4.52
427.842	4.48
428.199	4.5
428.555	4.49
428.912	4.51
429.269	4.54
429.625	4.54
429.982	4.54
430.338	4.56
430.695	4.57
431.051	4.56
431.407	4.55
431.764	4.55
432.12	4.53
432.476	4.53
432.832	4.51
433.189	4.5
433.545	4.5
433.901	4.49
434.257	4.5
434.613	4.5
434.969	4.49
435.325	4.53
435.681	4.53
436.036	4.54
436.392	4.53
436.748	4.51
437.104	4.49
437.459	4.5
437.815	4.47
438.171	4.48
438.526	4.5
438.882	4.52
439.237	4.51
439.593	4.54
439.948	4.56
440.304	4.58
440.659	4.58
441.014	4.58
441.369	4.57
441.725	4.56
442.08	4.57
442.435	4.58
442.79	4.56
443.145	4.56
443.5	4.56
443.855	4.57
444.21	4.59
444.565	4.59
444.92	4.59
445.275	4.59
445.629	4.6
445.984	4.6
446.339	4.59
446.693	4.59
447.048	4.57
447.403	4.55
447.757	4.54
448.112	4.55
448.466	4.55
448.82	4.55
449.175	4.55
449.529	4.54
449.883	4.54
450.238	4.54
450.592	4.53
450.946	4.5
451.3	4.5
451.654	4.5
452.008	4.5
452.362	4.51
452.716	4.51
453.07	4.49
453.424	4.49
453.778	4.49
454.132	4.48
454.486	4.5
454.839	4.51
455.193	4.53
455.547	4.53
455.9	4.53
456.254	4.55
456.607	4.55
456.961	4.55
457.314	4.55
457.668	4.56
458.021	4.52
458.375	4.55
458.728	4.54
459.081	4.54
459.434	4.52
459.787	4.52
460.141	4.52
460.494	4.53
460.847	4.55
461.2	4.54
461.553	4.55
461.906	4.56
462.259	4.56
462.611	4.52
462.964	4.54
463.317	4.54
463.67	4.53
464.022	4.52
464.375	4.53
464.728	4.53
465.08	4.51
465.433	4.55
465.785	4.54
466.138	4.55
466.49	4.55
466.843	4.57
467.195	4.57
467.547	4.57
467.899	4.56
468.252	4.55
468.604	4.54
468.956	4.53
469.308	4.52
469.66	4.53
470.012	4.55
470.364	4.55
470.716	4.55
471.068	4.56
471.42	4.59
471.772	4.6
472.123	4.6
472.475	4.64
472.827	4.63
473.178	4.64
473.53	4.64
473.882	4.62
474.233	4.63
474.585	4.63
474.936	4.64
475.288	4.64
475.639	4.63
475.99	4.64
476.342	4.64
476.693	4.64
477.044	4.65
477.395	4.66
477.746	4.65
478.097	4.63
478.448	4.64
478.8	4.64
479.15	4.64
479.501	4.65
479.852	4.65
480.203	4.68
480.554	4.68
480.905	4.69
481.255	4.71
481.606	4.73
481.957	4.73
482.307	4.74
482.658	4.73
483.009	4.74
483.359	4.74
483.709	4.75
484.06	4.76
484.41	4.76
484.761	4.76
485.111	4.76
485.461	4.76
485.811	4.76
486.162	4.75
486.512	4.76
486.862	4.76
487.212	4.76
487.562	4.74
487.912	4.75
488.262	4.74
488.612	4.73
488.961	4.73
489.311	4.72
489.661	4.72
490.011	4.72
490.36	4.72
490.71	4.72
491.06	4.71
491.409	4.7
491.759	4.7
492.108	4.7
492.458	4.71
492.807	4.7
493.157	4.7
493.506	4.71
493.855	4.72
494.204	4.72
494.554	4.71
494.903	4.7
495.252	4.7
495.601	4.7
495.95	4.69
496.299	4.68
496.648	4.69
496.997	4.71
497.346	4.72
497.695	4.72
498.043	4.71
498.392	4.69
498.741	4.69
499.09	4.68
499.438	4.66
499.787	4.65
500.135	4.65
500.484	4.65
500.832	4.62
501.181	4.59
501.529	4.58
501.878	4.62
502.226	4.63
502.574	4.63
502.923	4.62
503.271	4.65
503.619	4.68
503.967	4.68
504.315	4.65
504.663	4.66
505.011	4.65
505.359	4.65
505.707	4.66
506.055	4.67
506.403	4.7
506.751	4.7
507.098	4.74
507.446	4.75
507.794	4.77
508.141	4.81
508.489	4.83
508.837	4.83
509.184	4.83
509.531	4.84
509.879	4.88
510.226	4.91
510.574	4.9
510.921	4.91
511.268	4.91
511.616	4.9
511.963	4.9
512.31	4.93
512.657	4.94
513.004	4.95
513.351	4.95
513.698	4.94
514.045	4.96
514.392	4.95
514.739	4.96
515.086	4.96
515.432	4.96
515.779	4.94
516.126	4.95
516.473	4.96
516.819	4.98
517.166	4.98
517.512	4.97
517.859	4.97
518.205	4.96
518.552	4.98
518.898	4.97
519.245	4.98
519.591	4.99
519.937	4.97
520.283	4.99
520.629	4.99
520.976	5
521.322	5.01
521.668	5.02
522.014	5.03
522.36	5.04
522.706	5.05
523.052	5.05
523.398	5.06
523.743	5.05
524.089	5.04
524.435	5.01
524.781	5.01
525.126	5.04
525.472	5.05
525.817	5.06
526.163	5.07
526.509	5.08
526.854	5.09
527.199	5.1
527.545	5.1
527.89	5.1
528.235	5.09
528.581	5.09
528.926	5.09
529.271	5.1
529.616	5.09
529.961	5.09
530.306	5.11
530.651	5.11
530.996	5.11
531.341	5.13
531.686	5.13
532.031	5.14
532.376	5.14
532.721	5.13
533.065	5.14
533.41	5.15
533.755	5.14
534.099	5.15
534.444	5.16
534.788	5.17
535.133	5.17
535.477	5.19
535.822	5.18
536.166	5.19
536.51	5.17
536.855	5.19
537.199	5.21
537.543	5.19
537.887	5.21
538.231	5.21
538.576	5.19
538.92	5.2
539.264	5.19
539.608	5.19
539.951	5.2
540.295	5.18
540.639	5.18
540.983	5.19
541.327	5.19
541.671	5.18
542.014	5.19
542.358	5.2
542.701	5.21
543.045	5.21
543.389	5.22
543.732	5.23
544.075	5.22
544.419	5.2
544.762	5.19
545.105	5.2
545.449	5.21
545.792	5.23
546.135	5.24
546.478	5.26
546.821	5.25
547.165	5.22
547.508	5.26
547.851	5.25
548.194	5.25
548.536	5.24
548.879	5.26
549.222	5.27
549.565	5.26
549.908	5.25
550.25	5.27
550.593	5.26
550.936	5.23
551.278	5.25
551.621	5.26
551.963	5.31
552.306	5.26
552.648	5.28
552.991	5.29
553.333	5.29
553.675	5.29
554.017	5.29
554.36	5.31
554.702	5.3
555.044	5.29
555.386	5.28
555.728	5.3
556.07	5.29
556.412	5.25
556.754	5.24
557.096	5.22
557.438	5.21
557.78	5.24
558.121	5.29
558.463	5.29
558.805	5.28
559.147	5.26
559.488	5.25
559.83	5.24
560.171	5.24
560.513	5.25
560.854	5.27
561.196	5.29
561.537	5.3
561.878	5.26
562.22	5.3
562.561	5.33
562.902	5.34
563.243	5.34
563.584	5.34
563.925	5.39
564.266	5.4
564.607	5.38
564.948	5.36
565.289	5.35
565.63	5.35
565.971	5.33
566.312	5.33
566.653	5.35
566.993	5.35
567.334	5.34
567.675	5.36
568.015	5.36
568.356	5.37
568.696	5.4
569.037	5.42
569.377	5.4
569.718	5.4
570.058	5.38
570.398	5.4
570.739	5.42
571.079	5.4
571.419	5.41
571.759	5.43
572.099	5.44
572.439	5.44
572.779	5.46
573.119	5.48
573.459	5.48
573.799	5.52
574.139	5.52
574.479	5.53
574.819	5.53
575.158	5.51
575.498	5.48
575.838	5.46
576.177	5.45
576.517	5.47
576.856	5.45
577.196	5.44
577.535	5.43
577.875	5.43
578.214	5.43
578.553	5.49
578.893	5.48
579.232	5.52
579.571	5.53
579.91	5.52
580.25	5.49
580.589	5.53
580.928	5.48
581.267	5.48
581.606	5.43
581.945	5.4
582.283	5.4
582.622	5.4
582.961	5.4
583.3	5.4
583.639	5.42
583.977	5.46
584.316	5.48
584.654	5.49
584.993	5.46
585.332	5.44
585.67	5.42
586.008	5.44
586.347	5.36
586.685	5.31
587.024	5.33
587.362	5.39
587.7	5.37
588.038	5.4
588.376	5.41
588.715	5.46
589.053	5.46
589.391	5.5
589.729	5.53
590.067	5.55
590.404	5.57
590.742	5.55
591.08	5.52
591.418	5.54
591.756	5.55
592.093	5.57
592.431	5.57
592.769	5.56
593.106	5.52
593.444	5.57
593.781	5.6
594.119	5.62
594.456	5.6
594.793	5.62
595.131	5.61
595.468	5.64
595.805	5.65
596.143	5.66
596.48	5.63
596.817	5.63
597.154	5.65
597.491	5.62
597.828	5.61
598.165	5.61
598.502	5.58
598.839	5.56
599.176	5.57
599.512	5.6
599.849	5.64
600.186	5.68
600.523	5.72
600.859	5.73
601.196	5.72
601.532	5.74
601.869	5.72
602.205	5.71
602.542	5.71
602.878	5.74
603.215	5.74
603.551	5.74
603.887	5.74
604.223	5.73
604.56	5.75
604.896	5.76
605.232	5.79
605.568	5.83
605.904	5.83
606.24	5.85
606.576	5.83
606.912	5.82
607.248	5.82
607.583	5.8
607.919	5.79
608.255	5.77
608.591	5.77
608.926	5.8
609.262	5.84
609.597	5.82
609.933	5.81
610.268	5.81
610.604	5.83
610.939	5.82
611.275	5.83
611.61	5.82
611.945	5.84
612.281	5.81
612.616	5.81
612.951	5.82
613.286	5.78
613.621	5.77
613.956	5.74
614.291	5.74
614.626	5.73
614.961	5.72
615.296	5.75
615.631	5.77
615.966	5.73
616.3	5.72
616.635	5.72
616.97	5.71
617.304	5.71
617.639	5.72
617.973	5.7
618.308	5.7
618.642	5.73
618.977	5.71
619.311	5.7
619.646	5.7
619.98	5.71
620.314	5.72
620.648	5.74
620.983	5.79
621.317	5.78
621.651	5.81
621.985	5.85
622.319	5.85
622.653	5.83
622.987	5.82
623.321	5.8
623.655	5.83
623.988	5.85
624.322	5.87
624.656	5.86
624.99	5.9
625.323	5.94
625.657	5.93
625.99	5.98
626.324	5.99
626.657	5.97
626.991	5.98
627.324	5.99
627.658	6.02
627.991	6.01
628.324	6.03
628.657	6.03
628.991	5.98
629.324	5.97
629.657	5.97
629.99	5.99
630.323	6.02
630.656	6.05
630.989	6.02
631.322	5.99
631.655	5.99
631.987	5.98
632.32	5.96
632.653	5.93
632.986	5.92
633.318	5.96
633.651	5.96
633.984	6.02
634.316	6
634.649	5.99
634.981	6
635.313	6.04
635.646	6.01
635.978	6.03
636.31	6.05
636.643	6.04
636.975	6.08
637.307	6.12
637.639	6.07
637.971	6.08
638.303	6.09
638.635	6.06
638.967	6.05
639.299	6.05
639.631	6.07
639.963	6.05
640.295	6.01
640.626	6.04
640.958	5.96
641.29	6
641.621	6.01
641.953	6.03
642.285	6
642.616	6.1
642.948	6.11
643.279	6.12
643.61	6.11
643.942	6.11
644.273	6.08
644.604	6.04
644.936	6.07
645.267	6.06
645.598	6.1
645.929	6.2
646.26	6.22
646.591	6.25
646.922	6.24
647.253	6.26
647.584	6.19
647.915	6.2
648.245	6.2
648.576	6.17
648.907	6.13
649.238	6.14
649.568	6.11
649.899	6.09
650.229	6.05
650.56	6.13
650.89	6.07
651.221	6.05
651.551	6.04
651.882	6.04
652.212	6.05
652.542	6.04
652.872	5.98
653.203	5.97
653.533	5.95
653.863	6.01
654.193	5.98
654.523	6.06
654.853	6.05
655.183	6
655.513	6
655.843	5.98
656.172	5.97
656.502	5.93
656.832	5.98
657.162	5.98
657.491	5.97
657.821	6.02
658.15	5.98
658.48	6.06
658.809	6.01
659.139	6.02
659.468	6.04
659.798	6.02
660.127	6.03
660.456	6.07
660.785	6.05
661.115	6.1
661.444	6.11
661.773	6.18
662.102	6.21
662.431	6.25
662.76	6.33
663.089	6.3
663.418	6.31
663.747	6.32
664.076	6.35
664.404	6.34
664.733	6.37
665.062	6.41
665.39	6.3
665.719	6.32
666.048	6.37
666.376	6.33
666.705	6.38
667.033	6.35
667.362	6.38
667.69	6.38
668.018	6.38
668.347	6.38
668.675	6.3
669.003	6.31
669.331	6.33
669.659	6.33
669.987	6.32
670.315	6.28
670.643	6.26
670.971	6.31
671.299	6.36
671.627	6.37
671.955	6.38
672.283	6.42
672.61	6.48
672.938	6.48
673.266	6.56
673.593	6.62
673.921	6.6
674.249	6.49
674.576	6.49
674.904	6.44
675.231	6.41
675.558	6.46
675.886	6.45
676.213	6.38
676.54	6.37
676.867	6.46
677.195	6.45
677.522	6.46
677.849	6.41
