Data from BA28468_Reflection_00008.txt Node
Date: Mon Nov 18 15:14:57 EST 2019
User: vgr7
Spectrometer: USB2G7710
Scans to average: 3
Trigger mode: 4
Integration Time (sec): 2.000000E-2
Electric dark correction enabled: true
Boxcar width: 10
XAxis mode: Wavelengths
Number of Pixels in Spectrum: 2048
>>>>>Begin Spectral Data<<<<<
177.721	-59.79
178.105	-4185.71
178.488	149.37
178.871	181.59
179.254	49.91
179.636	-571.05
180.019	96.15
180.402	25.45
180.785	-13.67
181.168	29.56
181.55	105.2
181.933	-641.18
182.316	-157.14
182.698	-68.4
183.081	-44.53
183.463	-111.93
183.846	-10284.62
184.228	-873.51
184.611	-138.94
184.993	-43.98
185.376	-17.45
185.758	-0.49
186.14	-39.13
186.522	-55.95
186.904	-28.59
187.287	-12.94
187.669	-6.72
188.051	-32.74
188.433	-7.52
188.815	3.94
189.197	-12.13
189.579	-20.83
189.961	-11.37
190.342	-4.33
190.724	-4.15
191.106	-13.49
191.488	-14.38
191.869	-0.4
192.251	-2.86
192.633	-6.9
193.014	-13.92
193.396	-26.55
193.777	-21.65
194.159	-18.53
194.54	-5.38
194.922	-9.42
195.303	-9.53
195.684	-6.29
196.065	12.48
196.447	15.03
196.828	6.21
197.209	21.38
197.59	31.12
197.971	27.71
198.352	33.83
198.733	37.1
199.114	53.65
199.495	53.93
199.876	51.31
200.257	54.89
200.638	65.41
201.018	68.22
201.399	73.26
201.78	72.7
202.16	64.37
202.541	44.99
202.922	36.84
203.302	26.75
203.683	21.8
204.063	19.45
204.444	2.1
204.824	3.61
205.204	-7.85
205.585	-21.7
205.965	-17.73
206.345	-22.91
206.725	-21.08
207.106	-31.06
207.486	-44.2
207.866	-48.79
208.246	-40.33
208.626	-61.56
209.006	-43.29
209.386	-40.57
209.766	-43.14
210.145	-53.04
210.525	-40.05
210.905	-22.89
211.285	-10.18
211.664	-4.96
212.044	0.61
212.424	5.21
212.803	8.28
213.183	21.31
213.562	16.89
213.942	14.14
214.321	20.83
214.701	5.21
215.08	3.49
215.459	8.18
215.838	14.78
216.218	1.89
216.597	3.94
216.976	-1.84
217.355	0.82
217.734	4
218.113	11.34
218.492	14.74
218.871	6.45
219.25	14
219.629	16.4
220.008	15.01
220.387	11.68
220.766	8.01
221.144	-5.75
221.523	-9.83
221.902	-7.71
222.28	-8.72
222.659	-4.72
223.037	-1.85
223.416	-3.5
223.794	-2.87
224.173	-4.62
224.551	0.01
224.929	3.74
225.308	2.6
225.686	2.84
226.064	6.92
226.442	7.22
226.821	10.83
227.199	6.13
227.577	3.5
227.955	0.66
228.333	1.69
228.711	5.77
229.089	10.63
229.467	11.15
229.845	9.06
230.222	8.32
230.6	5.53
230.978	3.71
231.356	4.09
231.733	3.56
232.111	5.11
232.488	4.7
232.866	5.76
233.243	4.88
233.621	3.43
233.998	3.94
234.376	4.13
234.753	3.32
235.13	5.32
235.508	6.24
235.885	6.41
236.262	6.5
236.639	4.62
237.016	3.78
237.393	5.14
237.77	5.44
238.147	4.86
238.524	6.18
238.901	6.99
239.278	7.17
239.655	7.33
240.032	7.66
240.409	7.16
240.785	6.7
241.162	6.78
241.539	7.02
241.915	6.74
242.292	6.11
242.668	6.33
243.045	5.74
243.421	5.5
243.798	5.44
244.174	5.43
244.551	5.36
244.927	4.98
245.303	4.99
245.679	4.98
246.056	5.11
246.432	4.94
246.808	4.82
247.184	4.51
247.56	4.31
247.936	4.03
248.312	4.24
248.688	4.18
249.064	4.07
249.44	4.05
249.815	4.04
250.191	4.35
250.567	4.46
250.943	4.53
251.318	4.71
251.694	4.69
252.069	4.62
252.445	4.56
252.82	4.82
253.196	4.52
253.571	4.64
253.947	4.62
254.322	4.73
254.697	4.55
255.073	4.43
255.448	4.32
255.823	4.38
256.198	4.27
256.573	4.26
256.948	4.39
257.323	4.44
257.698	4.47
258.073	4.24
258.448	4.05
258.823	4.02
259.198	3.92
259.573	4.08
259.948	4.2
260.322	4.44
260.697	4.43
261.072	4.43
261.446	4.34
261.821	4.38
262.195	4.51
262.57	4.56
262.944	4.64
263.319	4.72
263.693	4.76
264.067	4.92
264.442	5.06
264.816	5.02
265.19	5.03
265.564	5.11
265.938	5.05
266.313	4.97
266.687	5.14
267.061	5.19
267.435	5.07
267.809	5.05
268.183	4.78
268.556	4.85
268.93	4.96
269.304	4.9
269.678	4.89
270.051	4.71
270.425	4.76
270.799	4.96
271.172	4.96
271.546	4.95
271.919	4.63
272.293	4.51
272.666	4.51
273.04	4.63
273.413	4.48
273.787	4.53
274.16	4.6
274.533	4.33
274.906	4.21
275.279	4.14
275.653	4.01
276.026	4.05
276.399	3.78
276.772	3.73
277.145	3.71
277.518	3.7
277.891	3.75
278.263	3.58
278.636	3.42
279.009	3.42
279.382	3.55
279.755	3.68
280.127	3.71
280.5	3.85
280.872	3.93
281.245	3.88
281.617	3.91
281.99	3.96
282.362	4.11
282.735	4.14
283.107	4.06
283.479	4.2
283.852	4.18
284.224	4.27
284.596	4.36
284.968	4.52
285.34	4.54
285.713	4.51
286.085	4.47
286.457	4.53
286.829	4.47
287.201	4.51
287.572	4.43
287.944	4.41
288.316	4.43
288.688	4.34
289.06	4.38
289.431	4.48
289.803	4.54
290.175	4.58
290.546	4.74
290.918	4.92
291.289	4.9
291.661	4.96
292.032	4.94
292.403	4.86
292.775	4.81
293.146	4.82
293.517	4.88
293.889	4.97
294.26	5.01
294.631	5.06
295.002	4.98
295.373	5.19
295.744	5.2
296.115	5.1
296.486	5.08
296.857	5.12
297.228	5.18
297.599	5.16
297.97	5.2
298.34	5.16
298.711	5.17
299.082	5.32
299.452	5.39
299.823	5.62
300.194	5.73
300.564	5.62
300.935	5.73
301.305	5.77
301.676	5.95
302.046	5.94
302.416	6.1
302.787	6.19
303.157	6.17
303.527	6.28
303.897	6.39
304.267	6.44
304.637	6.59
305.008	6.5
305.378	6.65
305.748	6.73
306.117	6.62
306.487	6.62
306.857	6.58
307.227	6.67
307.597	6.51
307.967	6.56
308.336	6.72
308.706	6.66
309.076	6.66
309.445	6.63
309.815	6.73
310.184	6.74
310.554	6.75
310.923	6.79
311.293	6.86
311.662	6.87
312.031	6.85
312.401	6.95
312.77	7.15
313.139	7.21
313.508	7.3
313.877	7.5
314.246	7.59
314.616	7.67
314.985	7.65
315.353	7.74
315.722	7.62
316.091	7.72
316.46	7.63
316.829	7.68
317.198	7.85
317.567	7.81
317.935	7.85
318.304	7.96
318.672	7.94
319.041	7.96
319.41	8.05
319.778	8.13
320.147	8.01
320.515	7.99
320.883	7.98
321.252	8.14
321.62	8.2
321.988	8.2
322.357	8.1
322.725	8.11
323.093	8.33
323.461	8.54
323.829	8.58
324.197	8.79
324.565	8.87
324.933	8.86
325.301	8.99
325.669	9.04
326.037	8.99
326.405	9.07
326.772	9.18
327.14	9.26
327.508	9.44
327.875	9.52
328.243	9.61
328.61	9.66
328.978	9.6
329.346	9.65
329.713	9.67
330.08	9.88
330.448	9.95
330.815	9.95
331.182	9.97
331.55	10.1
331.917	10.27
332.284	10.47
332.651	10.49
333.018	10.59
333.385	10.73
333.752	10.73
334.119	10.79
334.486	10.73
334.853	10.75
335.22	10.74
335.587	10.9
335.954	10.92
336.32	10.85
336.687	10.9
337.054	10.9
337.42	11.01
337.787	10.99
338.153	11.15
338.52	11.3
338.886	11.3
339.253	11.29
339.619	11.28
339.986	11.21
340.352	11.25
340.718	11.17
341.084	11.06
341.451	11.19
341.817	11.27
342.183	11.3
342.549	11.31
342.915	11.39
343.281	11.29
343.647	11.23
344.013	11.23
344.379	11.16
344.745	11.28
345.11	11.31
345.476	11.43
345.842	11.38
346.208	11.29
346.573	11.38
346.939	11.4
347.304	11.33
347.67	11.38
348.035	11.44
348.401	11.55
348.766	11.6
349.132	11.67
349.497	11.58
349.862	11.67
350.228	11.65
350.593	11.58
350.958	11.71
351.323	11.72
351.688	11.78
352.053	11.83
352.418	11.79
352.783	11.73
353.148	11.49
353.513	11.51
353.878	11.44
354.243	11.38
354.608	11.38
354.972	11.34
355.337	11.3
355.702	11.23
356.066	11.25
356.431	11.18
356.795	11.16
357.16	11.23
357.524	11.16
357.889	11.15
358.253	11.12
358.618	10.99
358.982	11.01
359.346	10.94
359.71	10.86
360.075	10.81
360.439	10.87
360.803	10.93
361.167	10.89
361.531	10.91
361.895	10.9
362.259	10.84
362.623	10.88
362.987	10.87
363.351	10.84
363.714	10.79
364.078	10.76
364.442	10.69
364.806	10.62
365.169	10.62
365.533	10.66
365.896	10.66
366.26	10.62
366.623	10.53
366.987	10.55
367.35	10.59
367.714	10.58
368.077	10.42
368.44	10.44
368.803	10.39
369.167	10.3
369.53	10.22
369.893	10.24
370.256	10.19
370.619	10.11
370.982	10.05
371.345	9.96
371.708	9.96
372.071	9.97
372.434	9.88
372.797	9.77
373.159	9.61
373.522	9.58
373.885	9.53
374.247	9.45
374.61	9.4
374.973	9.26
375.335	9.13
375.698	9.15
376.06	9.03
376.423	8.92
376.785	8.91
377.147	8.89
377.51	8.79
377.872	8.78
378.234	8.75
378.596	8.68
378.958	8.62
379.321	8.58
379.683	8.53
380.045	8.51
380.407	8.44
380.769	8.42
381.13	8.32
381.492	8.29
381.854	8.28
382.216	8.19
382.578	8.18
382.939	8.11
383.301	8.01
383.663	7.95
384.024	7.96
384.386	7.95
384.747	7.89
385.109	7.86
385.47	7.76
385.832	7.68
386.193	7.67
386.554	7.63
386.916	7.55
387.277	7.5
387.638	7.47
387.999	7.44
388.36	7.37
388.721	7.36
389.082	7.35
389.443	7.31
389.804	7.27
390.165	7.2
390.526	7.17
390.887	7.16
391.248	7.16
391.609	7.06
391.969	7.01
392.33	6.98
392.691	6.93
393.051	6.87
393.412	6.82
393.772	6.76
394.133	6.71
394.493	6.67
394.854	6.58
395.214	6.51
395.574	6.47
395.935	6.43
396.295	6.37
396.655	6.29
397.015	6.25
397.376	6.19
397.736	6.17
398.096	6.11
398.456	6.06
398.816	6.03
399.176	5.98
399.535	5.89
399.895	5.81
400.255	5.77
400.615	5.76
400.975	5.71
401.334	5.68
401.694	5.61
402.054	5.59
402.413	5.53
402.773	5.49
403.132	5.44
403.492	5.42
403.851	5.41
404.211	5.42
404.57	5.4
404.929	5.4
405.288	5.38
405.648	5.36
406.007	5.33
406.366	5.27
406.725	5.28
407.084	5.3
407.443	5.29
407.802	5.25
408.161	5.22
408.52	5.2
408.879	5.16
409.238	5.19
409.596	5.17
409.955	5.19
410.314	5.19
410.673	5.19
411.031	5.18
411.39	5.14
411.748	5.09
412.107	5.06
412.465	5.01
412.824	4.94
413.182	4.91
413.54	4.88
413.899	4.89
414.257	4.89
414.615	4.84
414.974	4.81
415.332	4.78
415.69	4.75
416.048	4.7
416.406	4.68
416.764	4.62
417.122	4.61
417.48	4.58
417.838	4.58
418.195	4.56
418.553	4.55
418.911	4.54
419.269	4.53
419.626	4.5
419.984	4.49
420.342	4.5
420.699	4.49
421.057	4.49
421.414	4.46
421.772	4.43
422.129	4.42
422.486	4.4
422.844	4.41
423.201	4.39
423.558	4.39
423.915	4.39
424.273	4.4
424.63	4.37
424.987	4.36
425.344	4.33
425.701	4.31
426.058	4.31
426.415	4.28
426.772	4.25
427.128	4.25
427.485	4.22
427.842	4.2
428.199	4.18
428.555	4.17
428.912	4.15
429.269	4.15
429.625	4.12
429.982	4.12
430.338	4.1
430.695	4.1
431.051	4.11
431.407	4.11
431.764	4.1
432.12	4.09
432.476	4.08
432.832	4.08
433.189	4.08
433.545	4.06
433.901	4.07
434.257	4.06
434.613	4.05
434.969	4.06
435.325	4.1
435.681	4.1
436.036	4.11
436.392	4.12
436.748	4.12
437.104	4.13
437.459	4.11
437.815	4.11
438.171	4.1
438.526	4.09
438.882	4.08
439.237	4.07
439.593	4.08
439.948	4.08
440.304	4.07
440.659	4.06
441.014	4.04
441.369	4.04
441.725	4.03
442.08	4.03
442.435	4.01
442.79	3.98
443.145	3.97
443.5	3.94
443.855	3.93
444.21	3.91
444.565	3.91
444.92	3.91
445.275	3.9
445.629	3.9
445.984	3.89
446.339	3.88
446.693	3.86
447.048	3.84
447.403	3.83
447.757	3.83
448.112	3.82
448.466	3.8
448.82	3.8
449.175	3.81
449.529	3.8
449.883	3.81
450.238	3.8
450.592	3.81
450.946	3.79
451.3	3.78
451.654	3.78
452.008	3.76
452.362	3.74
452.716	3.72
453.07	3.71
453.424	3.71
453.778	3.71
454.132	3.69
454.486	3.69
454.839	3.69
455.193	3.68
455.547	3.68
455.9	3.71
456.254	3.72
456.607	3.72
456.961	3.71
457.314	3.71
457.668	3.72
458.021	3.7
458.375	3.73
458.728	3.73
459.081	3.73
459.434	3.73
459.787	3.74
460.141	3.77
460.494	3.78
460.847	3.8
461.2	3.79
461.553	3.82
461.906	3.82
462.259	3.85
462.611	3.86
462.964	3.88
463.317	3.88
463.67	3.88
464.022	3.91
464.375	3.92
464.728	3.93
465.08	3.94
465.433	3.97
465.785	4
466.138	4.01
466.49	4.02
466.843	4.06
467.195	4.09
467.547	4.1
467.899	4.1
468.252	4.09
468.604	4.11
468.956	4.14
469.308	4.14
469.66	4.12
470.012	4.14
470.364	4.15
470.716	4.15
471.068	4.17
471.42	4.17
471.772	4.18
472.123	4.2
472.475	4.23
472.827	4.24
473.178	4.23
473.53	4.21
473.882	4.21
474.233	4.2
474.585	4.2
474.936	4.18
475.288	4.17
475.639	4.19
475.99	4.18
476.342	4.19
476.693	4.18
477.044	4.2
477.395	4.19
477.746	4.18
478.097	4.15
478.448	4.13
478.8	4.11
479.15	4.09
479.501	4.07
479.852	4.05
480.203	4.03
480.554	4.03
480.905	4.04
481.255	4.03
481.606	4.04
481.957	4.02
482.307	4.02
482.658	4.02
483.009	4.01
483.359	4.01
483.709	4.02
484.06	4.02
484.41	4.03
484.761	4.02
485.111	4.02
485.461	4.04
485.811	4.05
486.162	4.05
486.512	4.06
486.862	4.06
487.212	4.07
487.562	4.09
487.912	4.1
488.262	4.11
488.612	4.12
488.961	4.12
489.311	4.14
489.661	4.15
490.011	4.15
490.36	4.15
490.71	4.16
491.06	4.17
491.409	4.18
491.759	4.19
492.108	4.21
492.458	4.22
492.807	4.23
493.157	4.24
493.506	4.26
493.855	4.28
494.204	4.3
494.554	4.31
494.903	4.31
495.252	4.32
495.601	4.35
495.95	4.39
496.299	4.42
496.648	4.46
496.997	4.49
497.346	4.56
497.695	4.6
498.043	4.62
498.392	4.64
498.741	4.69
499.09	4.72
499.438	4.79
499.787	4.84
500.135	4.9
500.484	4.92
500.832	4.99
501.181	5.05
501.529	5.1
501.878	5.15
502.226	5.21
502.574	5.28
502.923	5.34
503.271	5.38
503.619	5.45
503.967	5.5
504.315	5.57
504.663	5.62
505.011	5.68
505.359	5.77
505.707	5.85
506.055	5.91
506.403	5.99
506.751	6.05
507.098	6.11
507.446	6.2
507.794	6.25
508.141	6.33
508.489	6.4
508.837	6.5
509.184	6.58
509.531	6.66
509.879	6.75
510.226	6.85
510.574	6.95
510.921	6.99
511.268	7.09
511.616	7.18
511.963	7.27
512.31	7.38
512.657	7.48
513.004	7.58
513.351	7.69
513.698	7.8
514.045	7.88
514.392	7.99
514.739	8.1
515.086	8.22
515.432	8.34
515.779	8.44
516.126	8.54
516.473	8.67
516.819	8.78
517.166	8.87
517.512	8.94
517.859	9.05
518.205	9.16
518.552	9.25
518.898	9.33
519.245	9.42
519.591	9.52
519.937	9.6
520.283	9.71
520.629	9.81
520.976	9.94
521.322	10.07
521.668	10.21
522.014	10.35
522.36	10.5
522.706	10.66
523.052	10.83
523.398	10.99
523.743	11.14
524.089	11.3
524.435	11.48
524.781	11.67
525.126	11.83
525.472	11.98
525.817	12.13
526.163	12.25
526.509	12.4
526.854	12.51
527.199	12.64
527.545	12.76
527.89	12.86
528.235	12.98
528.581	13.11
528.926	13.23
529.271	13.35
529.616	13.46
529.961	13.58
530.306	13.7
530.651	13.85
530.996	14.01
531.341	14.18
531.686	14.34
532.031	14.5
532.376	14.67
532.721	14.85
533.065	15.02
533.41	15.22
533.755	15.42
534.099	15.63
534.444	15.83
534.788	16.02
535.133	16.24
535.477	16.46
535.822	16.65
536.166	16.88
536.51	17.12
536.855	17.42
537.199	17.69
537.543	17.98
537.887	18.27
538.231	18.55
538.576	18.83
538.92	19.13
539.264	19.39
539.608	19.67
539.951	19.93
540.295	20.17
540.639	20.41
540.983	20.62
541.327	20.84
541.671	21.08
542.014	21.31
542.358	21.51
542.701	21.73
543.045	21.97
543.389	22.2
543.732	22.45
544.075	22.68
544.419	22.91
544.762	23.17
545.105	23.45
545.449	23.73
545.792	24.02
546.135	24.32
546.478	24.66
546.821	24.97
547.165	25.28
547.508	25.63
547.851	26.01
548.194	26.34
548.536	26.67
548.879	27.02
549.222	27.36
549.565	27.75
549.908	28.1
550.25	28.46
550.593	28.87
550.936	29.21
551.278	29.57
551.621	29.96
551.963	30.31
552.306	30.69
552.648	31.01
552.991	31.34
553.333	31.62
553.675	31.91
554.017	32.26
554.36	32.59
554.702	32.88
555.044	33.17
555.386	33.44
555.728	33.8
556.07	34.14
556.412	34.42
556.754	34.73
557.096	35
557.438	35.33
557.78	35.65
558.121	35.92
558.463	36.27
558.805	36.55
559.147	36.84
559.488	37.1
559.83	37.41
560.171	37.73
560.513	38.02
560.854	38.31
561.196	38.56
561.537	38.86
561.878	39.11
562.22	39.36
562.561	39.68
562.902	39.92
563.243	40.11
563.584	40.47
563.925	40.69
564.266	40.94
564.607	41.19
564.948	41.4
565.289	41.67
565.63	41.88
565.971	42.12
566.312	42.33
566.653	42.57
566.993	42.83
567.334	43.03
567.675	43.34
568.015	43.57
568.356	43.75
568.696	43.98
569.037	44.24
569.377	44.47
569.718	44.62
570.058	44.83
570.398	45.11
570.739	45.23
571.079	45.43
571.419	45.65
571.759	45.83
572.099	46.01
572.439	46.23
572.779	46.39
573.119	46.58
573.459	46.79
573.799	46.97
574.139	47.12
574.479	47.27
574.819	47.31
575.158	47.48
575.498	47.68
575.838	47.81
576.177	47.95
576.517	48.11
576.856	48.36
577.196	48.49
577.535	48.56
577.875	48.77
578.214	48.95
578.553	49.13
578.893	49.25
579.232	49.35
579.571	49.41
579.91	49.53
580.25	49.6
580.589	49.7
580.928	49.79
581.267	49.91
581.606	50.06
581.945	50.22
582.283	50.27
582.622	50.36
582.961	50.46
583.3	50.58
583.639	50.64
583.977	50.72
584.316	50.77
584.654	50.95
584.993	51.07
585.332	51.2
585.67	51.27
586.008	51.46
586.347	51.64
586.685	51.76
587.024	51.86
587.362	52.05
587.7	52.1
588.038	52.24
588.376	52.32
588.715	52.36
589.053	52.52
589.391	52.53
589.729	52.63
590.067	52.7
590.404	52.81
590.742	52.91
591.08	52.95
591.418	53.15
591.756	53.2
592.093	53.24
592.431	53.35
592.769	53.41
593.106	53.43
593.444	53.51
593.781	53.64
594.119	53.74
594.456	53.78
594.793	53.91
595.131	53.96
595.468	54.01
595.805	54.13
596.143	54.1
596.48	54.24
596.817	54.38
597.154	54.51
597.491	54.58
597.828	54.68
598.165	54.75
598.502	54.78
598.839	54.83
599.176	54.94
599.512	54.99
599.849	55.09
600.186	55.1
600.523	55.16
600.859	55.19
601.196	55.21
601.532	55.24
601.869	55.27
602.205	55.27
602.542	55.32
602.878	55.28
603.215	55.32
603.551	55.38
603.887	55.3
604.223	55.24
604.56	55.22
604.896	55.2
605.232	55.25
605.568	55.19
605.904	55.24
606.24	55.27
606.576	55.38
606.912	55.37
607.248	55.44
607.583	55.45
607.919	55.51
608.255	55.58
608.591	55.63
608.926	55.65
609.262	55.73
609.597	55.81
609.933	55.89
610.268	55.91
610.604	55.93
610.939	56.04
611.275	56.19
611.61	56.25
611.945	56.3
612.281	56.4
612.616	56.48
612.951	56.51
613.286	56.57
613.621	56.43
613.956	56.47
614.291	56.48
614.626	56.52
614.961	56.49
615.296	56.58
615.631	56.55
615.966	56.57
616.3	56.65
616.635	56.59
616.97	56.56
617.304	56.62
617.639	56.64
617.973	56.64
618.308	56.59
618.642	56.64
618.977	56.68
619.311	56.64
619.646	56.73
619.98	56.8
620.314	56.84
620.648	56.81
620.983	56.86
621.317	56.95
621.651	56.92
621.985	57.04
622.319	57.03
622.653	57.22
622.987	57.28
623.321	57.26
623.655	57.29
623.988	57.37
624.322	57.36
624.656	57.42
624.99	57.45
625.323	57.5
625.657	57.51
625.99	57.56
626.324	57.52
626.657	57.54
626.991	57.54
627.324	57.51
627.658	57.66
627.991	57.73
628.324	57.72
628.657	57.83
628.991	57.73
629.324	57.74
629.657	57.66
629.99	57.57
630.323	57.55
630.656	57.51
630.989	57.46
631.322	57.54
631.655	57.48
631.987	57.48
632.32	57.39
632.653	57.42
632.986	57.41
633.318	57.49
633.651	57.52
633.984	57.53
634.316	57.59
634.649	57.54
634.981	57.47
635.313	57.53
635.646	57.44
635.978	57.52
636.31	57.56
636.643	57.61
636.975	57.73
637.307	57.76
637.639	57.81
637.971	57.94
638.303	57.98
638.635	58.01
638.967	58.02
639.299	58.18
639.631	58.11
639.963	58.08
640.295	58.15
640.626	58.11
640.958	58.14
641.29	58.09
641.621	58.1
641.953	58.2
642.285	58.15
642.616	58.16
642.948	58.21
643.279	58.2
643.61	58.26
643.942	58.27
644.273	58.32
644.604	58.32
644.936	58.2
645.267	58.14
645.598	58.14
645.929	58.18
646.26	58.23
646.591	58.29
646.922	58.33
647.253	58.3
647.584	58.26
647.915	58.21
648.245	58.23
648.576	58.22
648.907	58.23
649.238	58.19
649.568	58.29
649.899	58.24
650.229	58.25
650.56	58.24
650.89	58.32
651.221	58.31
651.551	58.29
651.882	58.39
652.212	58.42
652.542	58.52
652.872	58.49
653.203	58.44
653.533	58.52
653.863	58.56
654.193	58.56
654.523	58.66
654.853	58.7
655.183	58.75
655.513	58.9
655.843	58.83
656.172	58.93
656.502	58.94
656.832	59.04
657.162	58.97
657.491	58.94
657.821	58.96
658.15	58.97
658.48	58.95
658.809	58.97
659.139	58.94
659.468	58.82
659.798	58.81
660.127	58.86
660.456	58.82
660.785	58.74
661.115	58.75
661.444	58.69
661.773	58.77
662.102	58.67
662.431	58.55
662.76	58.49
663.089	58.58
663.418	58.49
663.747	58.51
664.076	58.46
664.404	58.4
664.733	58.37
665.062	58.31
665.39	58.31
665.719	58.3
666.048	58.34
666.376	58.44
