Data from BA28472_Reflection_00005.txt Node
Date: Mon Nov 18 15:24:21 EST 2019
User: vgr7
Spectrometer: USB2G7710
Scans to average: 3
Trigger mode: 4
Integration Time (sec): 2.000000E-2
Electric dark correction enabled: true
Boxcar width: 10
XAxis mode: Wavelengths
Number of Pixels in Spectrum: 2048
>>>>>Begin Spectral Data<<<<<
177.721	-149.22
178.105	-50.16
178.488	-43.88
178.871	-76.75
179.254	-19.74
179.636	-63.55
180.019	-5718.18
180.402	53.85
180.785	-52.03
181.168	-78.57
181.55	147.9
181.933	-12.43
182.316	-40.61
182.698	-24.46
183.081	-35.47
183.463	-78.63
183.846	-60.34
184.228	-83.53
184.611	-75.21
184.993	-83.71
185.376	-104.55
185.758	-93.93
186.14	-72.55
186.522	-61.33
186.904	-82.49
187.287	-68.24
187.669	-95.64
188.051	-106.98
188.433	-113.84
188.815	-152.23
189.197	-95.88
189.579	-91.2
189.961	-84.87
190.342	-25.26
190.724	-166.11
191.106	-216.96
191.488	-262.28
191.869	103.59
192.251	-9.36
192.633	-47.55
193.014	-106.76
193.396	-164.52
193.777	-113.79
194.159	-221.8
194.54	-133.37
194.922	-127.94
195.303	-147.59
195.684	-141.57
196.065	-108.65
196.447	-84.25
196.828	-75.27
197.209	-28.58
197.59	-56.36
197.971	-60.84
198.352	-41.88
198.733	-41.47
199.114	-38.46
199.495	-35.8
199.876	-29.96
200.257	-37.38
200.638	18.15
201.018	2.44
201.399	-26.29
201.78	-8.67
202.16	18.49
202.541	31.96
202.922	59.47
203.302	57.41
203.683	41.94
204.063	14.66
204.444	27.47
204.824	-7.16
205.204	-47.1
205.585	-26.8
205.965	-31.69
206.345	-35.3
206.725	-162.98
207.106	-215.11
207.486	-254.92
207.866	-171.03
208.246	-144.79
208.626	-229.78
209.006	-216.59
209.386	-264.77
209.766	-451.05
210.145	-916.08
210.525	-632.19
210.905	-654.72
211.285	-961.82
211.664	-712.34
212.044	934.04
212.424	-1900
212.803	-376.05
213.183	-253.61
213.562	-835.96
213.942	1880.82
214.321	-411.39
214.701	-198.51
215.08	-173.97
215.459	-4.13
215.838	-43.83
216.218	13.75
216.597	26.37
216.976	33.97
217.355	61.85
217.734	51.24
218.113	35.15
218.492	35.27
218.871	2.04
219.25	-13.22
219.629	-6.39
220.008	-30.91
220.387	-52.1
220.766	6.84
221.144	-29.94
221.523	-37.09
221.902	-60.39
222.28	-53.42
222.659	-50.52
223.037	-46.06
223.416	-59.26
223.794	-59.02
224.173	-72.13
224.551	-72.02
224.929	-52.44
225.308	-52.3
225.686	-36.78
226.064	-23.53
226.442	-20.5
226.821	-8.86
227.199	-7.31
227.577	-10.31
227.955	-7.36
228.333	-0.16
228.711	-3.85
229.089	4.99
229.467	3.2
229.845	5.32
230.222	3.66
230.6	1.16
230.978	1.62
231.356	4.76
231.733	3.52
232.111	5.59
232.488	9.08
232.866	9.01
233.243	9.89
233.621	8.21
233.998	7.88
234.376	9.08
234.753	7.4
235.13	9.28
235.508	11.79
235.885	10.9
236.262	8.4
236.639	9.1
237.016	7.94
237.393	9.39
237.77	8.71
238.147	9.89
238.524	10.41
238.901	9.56
239.278	8.68
239.655	9.36
240.032	7.62
240.409	6.44
240.785	6.18
241.162	6.31
241.539	6.12
241.915	5.82
242.292	5.43
242.668	5.46
243.045	5.05
243.421	4.57
243.798	4.7
244.174	4.79
244.551	4.82
244.927	4.86
245.303	4.79
245.679	5.07
246.056	4.66
246.432	4.6
246.808	4.88
247.184	4.66
247.56	4.43
247.936	4.72
248.312	4.78
248.688	4.99
249.064	4.69
249.44	4.97
249.815	5.12
250.191	5
250.567	4.87
250.943	4.7
251.318	4.83
251.694	4.95
252.069	4.87
252.445	4.74
252.82	4.43
253.196	4.39
253.571	4.16
253.947	4.37
254.322	4.31
254.697	4.15
255.073	4.15
255.448	4.13
255.823	4.15
256.198	4.5
256.573	4.26
256.948	4.74
257.323	4.85
257.698	4.75
258.073	4.85
258.448	4.88
258.823	4.96
259.198	4.77
259.573	4.55
259.948	4.51
260.322	4.4
260.697	4.43
261.072	4.38
261.446	4.52
261.821	4.6
262.195	4.78
262.57	4.72
262.944	4.86
263.319	4.85
263.693	4.78
264.067	4.67
264.442	4.79
264.816	4.48
265.19	4.26
265.564	4.18
265.938	3.98
266.313	3.86
266.687	3.87
267.061	4.08
267.435	4.31
267.809	4.33
268.183	4.39
268.556	4.4
268.93	4.67
269.304	4.43
269.678	4.2
270.051	4.17
270.425	4.21
270.799	4.33
271.172	4.41
271.546	4.43
271.919	4.33
272.293	4.39
272.666	4.53
273.04	4.56
273.413	4.54
273.787	4.74
274.16	4.8
274.533	4.82
274.906	4.76
275.279	4.73
275.653	4.85
276.026	4.91
276.399	4.87
276.772	4.58
277.145	4.55
277.518	4.71
277.891	4.57
278.263	4.5
278.636	4.35
279.009	4.46
279.382	4.63
279.755	4.67
280.127	4.63
280.5	4.69
280.872	4.79
281.245	4.74
281.617	4.8
281.99	4.8
282.362	4.85
282.735	4.74
283.107	4.74
283.479	4.71
283.852	4.67
284.224	4.72
284.596	4.69
284.968	4.78
285.34	4.75
285.713	4.82
286.085	4.78
286.457	4.8
286.829	4.73
287.201	4.61
287.572	4.55
287.944	4.53
288.316	4.48
288.688	4.48
289.06	4.62
289.431	4.5
289.803	4.55
290.175	4.51
290.546	4.68
290.918	4.6
291.289	4.61
291.661	4.81
292.032	4.81
292.403	4.92
292.775	4.82
293.146	4.78
293.517	4.78
293.889	4.92
294.26	4.96
294.631	5.02
295.002	4.96
295.373	4.98
295.744	4.98
296.115	4.98
296.486	4.83
296.857	4.84
297.228	4.81
297.599	4.76
297.97	4.68
298.34	4.7
298.711	4.71
299.082	4.69
299.452	4.51
299.823	4.58
300.194	4.5
300.564	4.54
300.935	4.66
301.305	4.58
301.676	4.51
302.046	4.54
302.416	4.56
302.787	4.5
303.157	4.57
303.527	4.66
303.897	4.84
304.267	4.96
304.637	4.89
305.008	5.02
305.378	5.04
305.748	5.22
306.117	5.09
306.487	5.15
306.857	5.15
307.227	5.11
307.597	5.07
307.967	5.09
308.336	5.14
308.706	4.97
309.076	5.01
309.445	4.93
309.815	4.75
310.184	4.65
310.554	4.79
310.923	4.72
311.293	4.64
311.662	4.4
312.031	4.26
312.401	4.2
312.77	4.22
313.139	4.21
313.508	4.05
313.877	4.06
314.246	3.97
314.616	3.94
314.985	4.04
315.353	4.04
315.722	4.18
316.091	4.11
316.46	4.18
316.829	4.09
317.198	4.2
317.567	4.09
317.935	4.1
318.304	4.14
318.672	4.07
319.041	4.11
319.41	4.1
319.778	4.28
320.147	4.23
320.515	4.01
320.883	3.91
321.252	4.08
321.62	4
321.988	3.99
322.357	3.93
322.725	3.84
323.093	3.83
323.461	3.73
323.829	3.78
324.197	3.83
324.565	3.9
324.933	3.91
325.301	4.1
325.669	4.08
326.037	4.01
326.405	3.99
326.772	4.05
327.14	4.15
327.508	4.14
327.875	4.14
328.243	4.36
328.61	4.38
328.978	4.31
329.346	4.5
329.713	4.44
330.08	4.69
330.448	4.71
330.815	4.6
331.182	4.61
331.55	4.57
331.917	4.57
332.284	4.59
332.651	4.53
333.018	4.5
333.385	4.48
333.752	4.56
334.119	4.72
334.486	4.58
334.853	4.55
335.22	4.52
335.587	4.54
335.954	4.47
336.32	4.42
336.687	4.51
337.054	4.56
337.42	4.64
337.787	4.47
338.153	4.52
338.52	4.52
338.886	4.37
339.253	4.33
339.619	4.3
339.986	4.32
340.352	4.35
340.718	4.33
341.084	4.35
341.451	4.29
341.817	4.34
342.183	4.39
342.549	4.38
342.915	4.44
343.281	4.48
343.647	4.39
344.013	4.43
344.379	4.43
344.745	4.37
345.11	4.34
345.476	4.29
345.842	4.23
346.208	4.18
346.573	4.28
346.939	4.42
347.304	4.39
347.67	4.38
348.035	4.42
348.401	4.54
348.766	4.4
349.132	4.33
349.497	4.18
349.862	4.25
350.228	4.28
350.593	4.24
350.958	4.24
351.323	4.3
351.688	4.37
352.053	4.29
352.418	4.17
352.783	4.26
353.148	4.3
353.513	4.29
353.878	4.36
354.243	4.43
354.608	4.44
354.972	4.48
355.337	4.45
355.702	4.47
356.066	4.44
356.431	4.48
356.795	4.62
357.16	4.64
357.524	4.58
357.889	4.54
358.253	4.56
358.618	4.51
358.982	4.45
359.346	4.38
359.71	4.34
360.075	4.45
360.439	4.38
360.803	4.33
361.167	4.32
361.531	4.32
361.895	4.34
362.259	4.27
362.623	4.21
362.987	4.2
363.351	4.2
363.714	4.16
364.078	4.21
364.442	4.12
364.806	4.16
365.169	4.23
365.533	4.31
365.896	4.26
366.26	4.3
366.623	4.28
366.987	4.36
367.35	4.43
367.714	4.34
368.077	4.32
368.44	4.3
368.803	4.31
369.167	4.3
369.53	4.24
369.893	4.25
370.256	4.26
370.619	4.3
370.982	4.19
371.345	4.18
371.708	4.18
372.071	4.14
372.434	4.13
372.797	4.01
373.159	3.93
373.522	3.95
373.885	3.98
374.247	4.08
374.61	4.06
374.973	4.02
375.335	4.02
375.698	4.08
376.06	4.15
376.423	4.16
376.785	4.21
377.147	4.16
377.51	4.16
377.872	4.17
378.234	4.13
378.596	4.2
378.958	4.24
379.321	4.27
379.683	4.34
380.045	4.35
380.407	4.42
380.769	4.43
381.13	4.4
381.492	4.34
381.854	4.29
382.216	4.26
382.578	4.3
382.939	4.36
383.301	4.35
383.663	4.29
384.024	4.33
384.386	4.32
384.747	4.39
385.109	4.39
385.47	4.42
385.832	4.44
386.193	4.47
386.554	4.43
386.916	4.37
387.277	4.37
387.638	4.36
387.999	4.33
388.36	4.35
388.721	4.37
389.082	4.41
389.443	4.41
389.804	4.4
390.165	4.35
390.526	4.37
390.887	4.32
391.248	4.41
391.609	4.39
391.969	4.36
392.33	4.35
392.691	4.35
393.051	4.36
393.412	4.39
393.772	4.32
394.133	4.33
394.493	4.32
394.854	4.3
395.214	4.31
395.574	4.3
395.935	4.27
396.295	4.3
396.655	4.29
397.015	4.29
397.376	4.3
397.736	4.33
398.096	4.31
398.456	4.37
398.816	4.33
399.176	4.28
399.535	4.31
399.895	4.29
400.255	4.3
400.615	4.27
400.975	4.22
401.334	4.26
401.694	4.26
402.054	4.32
402.413	4.3
402.773	4.28
403.132	4.27
403.492	4.27
403.851	4.27
404.211	4.27
404.57	4.26
404.929	4.26
405.288	4.22
405.648	4.18
406.007	4.15
406.366	4.14
406.725	4.18
407.084	4.2
407.443	4.21
407.802	4.21
408.161	4.21
408.52	4.22
408.879	4.23
409.238	4.24
409.596	4.19
409.955	4.21
410.314	4.19
410.673	4.21
411.031	4.19
411.39	4.19
411.748	4.19
412.107	4.22
412.465	4.21
412.824	4.25
413.182	4.25
413.54	4.24
413.899	4.26
414.257	4.26
414.615	4.24
414.974	4.25
415.332	4.25
415.69	4.25
416.048	4.24
416.406	4.24
416.764	4.23
417.122	4.25
417.48	4.24
417.838	4.25
418.195	4.23
418.553	4.26
418.911	4.24
419.269	4.22
419.626	4.23
419.984	4.24
420.342	4.23
420.699	4.24
421.057	4.24
421.414	4.23
421.772	4.23
422.129	4.23
422.486	4.2
422.844	4.21
423.201	4.2
423.558	4.22
423.915	4.2
424.273	4.2
424.63	4.19
424.987	4.19
425.344	4.19
425.701	4.18
426.058	4.17
426.415	4.18
426.772	4.18
427.128	4.16
427.485	4.16
427.842	4.15
428.199	4.13
428.555	4.13
428.912	4.14
429.269	4.14
429.625	4.12
429.982	4.13
430.338	4.12
430.695	4.14
431.051	4.12
431.407	4.14
431.764	4.1
432.12	4.09
432.476	4.11
432.832	4.1
433.189	4.12
433.545	4.12
433.901	4.12
434.257	4.11
434.613	4.13
434.969	4.13
435.325	4.14
435.681	4.15
436.036	4.16
436.392	4.15
436.748	4.15
437.104	4.17
437.459	4.17
437.815	4.17
438.171	4.16
438.526	4.17
438.882	4.17
439.237	4.2
439.593	4.21
439.948	4.21
440.304	4.21
440.659	4.22
441.014	4.23
441.369	4.23
441.725	4.23
442.08	4.24
442.435	4.23
442.79	4.24
443.145	4.24
443.5	4.23
443.855	4.23
444.21	4.22
444.565	4.23
444.92	4.24
445.275	4.24
445.629	4.25
445.984	4.23
446.339	4.23
446.693	4.21
447.048	4.21
447.403	4.2
447.757	4.21
448.112	4.2
448.466	4.19
448.82	4.17
449.175	4.18
449.529	4.15
449.883	4.15
450.238	4.15
450.592	4.15
450.946	4.13
451.3	4.13
451.654	4.14
452.008	4.13
452.362	4.12
452.716	4.12
453.07	4.14
453.424	4.14
453.778	4.14
454.132	4.11
454.486	4.1
454.839	4.1
455.193	4.08
455.547	4.06
455.9	4.08
456.254	4.08
456.607	4.08
456.961	4.08
457.314	4.09
457.668	4.08
458.021	4.07
458.375	4.09
458.728	4.09
459.081	4.09
459.434	4.08
459.787	4.09
460.141	4.09
460.494	4.08
460.847	4.08
461.2	4.08
461.553	4.11
461.906	4.14
462.259	4.15
462.611	4.17
462.964	4.19
463.317	4.18
463.67	4.18
464.022	4.18
464.375	4.18
464.728	4.19
465.08	4.21
465.433	4.22
465.785	4.21
466.138	4.23
466.49	4.22
466.843	4.24
467.195	4.22
467.547	4.23
467.899	4.21
468.252	4.22
468.604	4.23
468.956	4.22
469.308	4.21
469.66	4.21
470.012	4.23
470.364	4.23
470.716	4.24
471.068	4.26
471.42	4.27
471.772	4.29
472.123	4.29
472.475	4.28
472.827	4.3
473.178	4.33
473.53	4.32
473.882	4.33
474.233	4.32
474.585	4.32
474.936	4.31
475.288	4.31
475.639	4.31
475.99	4.33
476.342	4.31
476.693	4.3
477.044	4.33
477.395	4.32
477.746	4.32
478.097	4.33
478.448	4.32
478.8	4.33
479.15	4.3
479.501	4.3
479.852	4.31
480.203	4.31
480.554	4.3
480.905	4.31
481.255	4.31
481.606	4.32
481.957	4.33
482.307	4.34
482.658	4.35
483.009	4.34
483.359	4.34
483.709	4.36
484.06	4.36
484.41	4.35
484.761	4.34
485.111	4.34
485.461	4.34
485.811	4.35
486.162	4.35
486.512	4.35
486.862	4.36
487.212	4.35
487.562	4.36
487.912	4.36
488.262	4.35
488.612	4.35
488.961	4.35
489.311	4.34
489.661	4.35
490.011	4.34
490.36	4.34
490.71	4.33
491.06	4.31
491.409	4.31
491.759	4.32
492.108	4.33
492.458	4.32
492.807	4.3
493.157	4.29
493.506	4.3
493.855	4.3
494.204	4.3
494.554	4.3
494.903	4.28
495.252	4.28
495.601	4.29
495.95	4.29
496.299	4.29
496.648	4.28
496.997	4.29
497.346	4.31
497.695	4.31
498.043	4.33
498.392	4.35
498.741	4.34
499.09	4.35
499.438	4.35
499.787	4.36
500.135	4.38
500.484	4.39
500.832	4.39
501.181	4.41
501.529	4.4
501.878	4.41
502.226	4.43
502.574	4.46
502.923	4.46
503.271	4.45
503.619	4.47
503.967	4.49
504.315	4.48
504.663	4.46
505.011	4.48
505.359	4.49
505.707	4.51
506.055	4.5
506.403	4.49
506.751	4.51
507.098	4.53
507.446	4.54
507.794	4.55
508.141	4.54
508.489	4.55
508.837	4.58
509.184	4.58
509.531	4.6
509.879	4.6
510.226	4.62
510.574	4.64
510.921	4.66
511.268	4.65
511.616	4.65
511.963	4.67
512.31	4.69
512.657	4.68
513.004	4.69
513.351	4.71
513.698	4.73
514.045	4.72
514.392	4.71
514.739	4.71
515.086	4.71
515.432	4.72
515.779	4.72
516.126	4.73
516.473	4.73
516.819	4.73
517.166	4.73
517.512	4.73
517.859	4.73
518.205	4.73
518.552	4.74
518.898	4.74
519.245	4.74
519.591	4.72
519.937	4.72
520.283	4.71
520.629	4.71
520.976	4.71
521.322	4.73
521.668	4.75
522.014	4.77
522.36	4.79
522.706	4.78
523.052	4.78
523.398	4.78
523.743	4.79
524.089	4.81
524.435	4.82
524.781	4.83
525.126	4.84
525.472	4.83
525.817	4.83
526.163	4.84
526.509	4.86
526.854	4.86
527.199	4.87
527.545	4.88
527.89	4.88
528.235	4.88
528.581	4.87
528.926	4.87
529.271	4.87
529.616	4.85
529.961	4.85
530.306	4.86
530.651	4.86
530.996	4.87
531.341	4.87
531.686	4.86
532.031	4.87
532.376	4.86
532.721	4.87
533.065	4.87
533.41	4.87
533.755	4.87
534.099	4.87
534.444	4.87
534.788	4.89
535.133	4.9
535.477	4.9
535.822	4.89
536.166	4.89
536.51	4.89
536.855	4.9
537.199	4.92
537.543	4.93
537.887	4.93
538.231	4.91
538.576	4.91
538.92	4.9
539.264	4.91
539.608	4.92
539.951	4.91
540.295	4.92
540.639	4.92
540.983	4.92
541.327	4.94
541.671	4.93
542.014	4.93
542.358	4.92
542.701	4.93
543.045	4.96
543.389	4.96
543.732	4.96
544.075	4.97
544.419	4.97
544.762	4.98
545.105	4.99
545.449	5
545.792	5.01
546.135	5.02
546.478	5.01
546.821	5
547.165	5.01
547.508	5.02
547.851	5.02
548.194	5.03
548.536	5
548.879	5.02
549.222	4.99
549.565	5
549.908	5.01
550.25	5
550.593	4.99
550.936	4.97
551.278	4.96
551.621	4.97
551.963	4.96
552.306	4.94
552.648	4.95
552.991	4.96
553.333	5
553.675	4.98
554.017	5
554.36	5.01
554.702	5.01
555.044	5
555.386	5.01
555.728	5.03
556.07	5.04
556.412	5.07
556.754	5.08
557.096	5.08
557.438	5.07
557.78	5.08
558.121	5.11
558.463	5.12
558.805	5.11
559.147	5.1
559.488	5.11
559.83	5.11
560.171	5.1
560.513	5.1
560.854	5.11
561.196	5.12
561.537	5.14
561.878	5.13
562.22	5.14
562.561	5.12
562.902	5.12
563.243	5.11
563.584	5.09
563.925	5.08
564.266	5.06
564.607	5.09
564.948	5.12
565.289	5.11
565.63	5.12
565.971	5.11
566.312	5.11
566.653	5.11
566.993	5.1
567.334	5.1
567.675	5.08
568.015	5.08
568.356	5.08
568.696	5.09
569.037	5.1
569.377	5.1
569.718	5.12
570.058	5.11
570.398	5.1
570.739	5.13
571.079	5.13
571.419	5.15
571.759	5.13
572.099	5.13
572.439	5.13
572.779	5.14
573.119	5.15
573.459	5.14
573.799	5.16
574.139	5.14
574.479	5.14
574.819	5.14
575.158	5.15
575.498	5.11
575.838	5.11
576.177	5.09
576.517	5.1
576.856	5.08
577.196	5.09
577.535	5.07
577.875	5.05
578.214	5.02
578.553	5.05
578.893	5.06
579.232	5.04
579.571	5.07
579.91	5.07
580.25	5.06
580.589	5.08
580.928	5.07
581.267	5.1
581.606	5.06
581.945	5.09
582.283	5.11
582.622	5.12
582.961	5.12
583.3	5.12
583.639	5.12
583.977	5.16
584.316	5.19
584.654	5.21
584.993	5.25
585.332	5.29
585.67	5.28
586.008	5.27
586.347	5.27
586.685	5.24
587.024	5.23
587.362	5.26
587.7	5.27
588.038	5.28
588.376	5.27
588.715	5.31
589.053	5.32
589.391	5.33
589.729	5.36
590.067	5.35
590.404	5.36
590.742	5.39
591.08	5.37
591.418	5.37
591.756	5.39
592.093	5.37
592.431	5.4
592.769	5.4
593.106	5.39
593.444	5.39
593.781	5.43
594.119	5.46
594.456	5.41
594.793	5.38
595.131	5.35
595.468	5.38
595.805	5.39
596.143	5.37
596.48	5.34
596.817	5.35
597.154	5.37
597.491	5.37
597.828	5.34
598.165	5.32
598.502	5.32
598.839	5.31
599.176	5.32
599.512	5.29
599.849	5.31
600.186	5.32
600.523	5.33
600.859	5.31
601.196	5.31
601.532	5.36
601.869	5.38
602.205	5.41
602.542	5.39
602.878	5.38
603.215	5.37
603.551	5.39
603.887	5.41
604.223	5.4
604.56	5.39
604.896	5.43
605.232	5.46
605.568	5.47
605.904	5.44
606.24	5.48
606.576	5.48
606.912	5.46
607.248	5.44
607.583	5.44
607.919	5.47
608.255	5.44
608.591	5.46
608.926	5.46
609.262	5.47
609.597	5.48
609.933	5.51
610.268	5.51
610.604	5.48
610.939	5.46
611.275	5.46
611.61	5.46
611.945	5.43
612.281	5.46
612.616	5.45
612.951	5.49
613.286	5.48
613.621	5.44
613.956	5.41
614.291	5.46
614.626	5.51
614.961	5.47
615.296	5.51
615.631	5.49
615.966	5.48
616.3	5.51
616.635	5.47
616.97	5.48
617.304	5.51
617.639	5.53
617.973	5.52
618.308	5.53
618.642	5.55
618.977	5.55
619.311	5.52
619.646	5.5
619.98	5.48
620.314	5.46
620.648	5.51
620.983	5.58
621.317	5.58
621.651	5.52
621.985	5.56
622.319	5.52
622.653	5.49
622.987	5.5
623.321	5.48
623.655	5.52
623.988	5.52
624.322	5.5
624.656	5.51
624.99	5.54
625.323	5.58
625.657	5.57
625.99	5.59
626.324	5.59
626.657	5.61
626.991	5.6
627.324	5.59
627.658	5.61
627.991	5.65
628.324	5.68
628.657	5.72
628.991	5.72
629.324	5.77
629.657	5.77
629.99	5.79
630.323	5.79
630.656	5.82
630.989	5.81
631.322	5.88
631.655	5.87
631.987	5.88
632.32	5.83
632.653	5.8
632.986	5.79
633.318	5.8
633.651	5.75
633.984	5.77
634.316	5.77
634.649	5.69
634.981	5.62
635.313	5.58
635.646	5.55
635.978	5.54
636.31	5.51
636.643	5.57
636.975	5.52
637.307	5.58
637.639	5.58
637.971	5.61
638.303	5.55
638.635	5.49
638.967	5.44
639.299	5.51
639.631	5.49
639.963	5.45
640.295	5.44
640.626	5.54
640.958	5.54
641.29	5.57
641.621	5.59
641.953	5.58
642.285	5.64
642.616	5.65
642.948	5.59
643.279	5.64
643.61	5.57
643.942	5.61
644.273	5.58
644.604	5.52
644.936	5.5
645.267	5.52
645.598	5.56
645.929	5.64
646.26	5.58
646.591	5.62
646.922	5.67
647.253	5.7
647.584	5.66
647.915	5.72
648.245	5.68
648.576	5.68
648.907	5.71
649.238	5.63
649.568	5.68
649.899	5.77
650.229	5.76
650.56	5.8
650.89	5.81
651.221	5.76
651.551	5.76
651.882	5.74
652.212	5.76
652.542	5.77
652.872	5.73
653.203	5.73
653.533	5.76
653.863	5.78
654.193	5.74
654.523	5.78
654.853	5.82
655.183	5.86
655.513	5.86
655.843	5.86
656.172	5.9
656.502	5.86
656.832	5.77
657.162	5.74
657.491	5.78
657.821	5.84
658.15	5.88
658.48	5.88
658.809	5.89
659.139	5.87
659.468	5.88
659.798	5.85
660.127	5.87
660.456	5.86
660.785	5.84
661.115	5.82
661.444	5.81
661.773	5.69
662.102	5.66
662.431	5.72
662.76	5.74
663.089	5.69
663.418	5.68
663.747	5.74
664.076	5.76
664.404	5.68
664.733	5.66
665.062	5.69
665.39	5.63
665.719	5.71
666.048	5.7
666.376	5.78
666.705	5.81
667.033	5.77
667.362	5.83
667.69	5.81
668.018	5.87
668.347	5.86
668.675	5.9
669.003	5.91
669.331	5.97
669.659	5.99
669.987	6.11
670.315	6.16
670.643	6.18
670.971	6.15
671.299	6.15
671.627	6.09
671.955	6.03
672.283	6.21
672.61	6.13
672.938	6.09
673.266	6.02
673.593	6.12
673.921	6.16
674.249	6.12
674.576	6.05
674.904	6.05
675.231	6.02
675.558	6.07
675.886	6.15
676.213	6.11
676.54	6.05
676.867	6
