Data from BA28470_Reflection_00007.txt Node
Date: Mon Nov 18 15:10:05 EST 2019
User: vgr7
Spectrometer: USB2G7710
Scans to average: 3
Trigger mode: 4
Integration Time (sec): 2.000000E-2
Electric dark correction enabled: true
Boxcar width: 10
XAxis mode: Wavelengths
Number of Pixels in Spectrum: 2048
>>>>>Begin Spectral Data<<<<<
177.721	-191.18
178.105	-136.22
178.488	637.12
178.871	-484.56
179.254	-221.03
179.636	46.9
180.019	186.86
180.402	93.94
180.785	-3872.97
181.168	-128.48
181.55	-105.21
181.933	203.18
182.316	268.66
182.698	385.54
183.081	205.23
183.463	337.65
183.846	242.07
184.228	186.41
184.611	174.84
184.993	196.29
185.376	309.97
185.758	530.92
186.14	487.52
186.522	390.12
186.904	468.66
187.287	596.21
187.669	403.06
188.051	208.76
188.433	273.73
188.815	414.11
189.197	263.95
189.579	356.05
189.961	400.53
190.342	2760.38
190.724	-583.4
191.106	1240.85
191.488	372.73
191.869	-24.73
192.251	-56.02
192.633	-57.89
193.014	-121.16
193.396	-424.62
193.777	-234.03
194.159	-291.91
194.54	-209.37
194.922	-202.58
195.303	-213.37
195.684	-101.21
196.065	-65.75
196.447	-100.15
196.828	-134.14
197.209	-114.53
197.59	-105.14
197.971	-77.75
198.352	-76.09
198.733	-78.39
199.114	-65.85
199.495	-61.32
199.876	-84.86
200.257	-61.56
200.638	-41.03
201.018	-38.76
201.399	-42.01
201.78	-42.45
202.16	-43.18
202.541	-65.38
202.922	-50.58
203.302	-59.82
203.683	-113.42
204.063	-255.01
204.444	-118.87
204.824	-74.89
205.204	-108.58
205.585	-135.57
205.965	-500
206.345	-551.47
206.725	852.73
207.106	-1820.86
207.486	474.47
207.866	1759.9
208.246	2993.81
208.626	925.19
209.006	-1734.29
209.386	-943.08
209.766	-446.63
210.145	-487.22
210.525	-371.07
210.905	-425.33
211.285	-360.65
211.664	-175.88
212.044	-135.99
212.424	-110.65
212.803	-151.4
213.183	-97.91
213.562	-75.55
213.942	-60.22
214.321	-45.6
214.701	-22.3
215.08	-9.89
215.459	8.31
215.838	9.18
216.218	11.91
216.597	20.25
216.976	2.1
217.355	11.22
217.734	6.01
218.113	19.07
218.492	13.4
218.871	5.65
219.25	9.81
219.629	12.27
220.008	-6.74
220.387	-22.31
220.766	-23.68
221.144	-40.93
221.523	-57.47
221.902	-53.95
222.28	-60.68
222.659	-71.27
223.037	-67
223.416	-77.64
223.794	-64.94
224.173	-72.33
224.551	-73.16
224.929	-62.88
225.308	-51.67
225.686	-43.89
226.064	-38.06
226.442	-32.8
226.821	-26.27
227.199	-25.45
227.577	-20.16
227.955	-13.81
228.333	-10.15
228.711	-8.76
229.089	-1.25
229.467	0.95
229.845	-4.61
230.222	-3.49
230.6	-3.17
230.978	-4.23
231.356	-2.29
231.733	-1.93
232.111	-1.28
232.488	2.58
232.866	3.05
233.243	3.23
233.621	1.71
233.998	3.97
234.376	3.45
234.753	3.2
235.13	3.11
235.508	2.64
235.885	-0.03
236.262	0.06
236.639	0.61
237.016	-1.53
237.393	-0.79
237.77	1.22
238.147	1.9
238.524	3.14
238.901	4.26
239.278	4.45
239.655	5.44
240.032	5.38
240.409	5.57
240.785	4.99
241.162	4.32
241.539	4.55
241.915	4.1
242.292	4.4
242.668	4.38
243.045	4.73
243.421	4.69
243.798	5.02
244.174	4.81
244.551	4.81
244.927	4.72
245.303	4.64
245.679	4.47
246.056	4.47
246.432	4.01
246.808	3.87
247.184	3.55
247.56	3.34
247.936	3.17
248.312	2.93
248.688	3.05
249.064	2.94
249.44	2.85
249.815	2.81
250.191	2.87
250.567	2.73
250.943	2.59
251.318	2.62
251.694	2.59
252.069	2.48
252.445	2.52
252.82	2.47
253.196	2.42
253.571	2.8
253.947	2.59
254.322	2.87
254.697	2.83
255.073	2.55
255.448	2.62
255.823	2.78
256.198	2.93
256.573	3.07
256.948	3.38
257.323	3.42
257.698	3.39
258.073	3.48
258.448	3.54
258.823	3.45
259.198	3.37
259.573	3.34
259.948	3.38
260.322	3.51
260.697	3.53
261.072	3.47
261.446	3.39
261.821	3.27
262.195	3.42
262.57	3.45
262.944	3.64
263.319	3.59
263.693	3.56
264.067	3.55
264.442	3.59
264.816	3.52
265.19	3.51
265.564	3.59
265.938	3.45
266.313	3.31
266.687	3.38
267.061	3.53
267.435	3.64
267.809	3.67
268.183	3.45
268.556	3.4
268.93	3.56
269.304	3.38
269.678	3.5
270.051	3.34
270.425	3.3
270.799	3.26
271.172	3.29
271.546	3.27
271.919	3.16
272.293	3
272.666	3.04
273.04	3.12
273.413	3.01
273.787	2.98
274.16	3.05
274.533	3.04
274.906	2.87
275.279	2.81
275.653	2.88
276.026	2.84
276.399	2.68
276.772	2.65
277.145	2.73
277.518	2.74
277.891	2.94
278.263	2.92
278.636	2.95
279.009	2.96
279.382	3.06
279.755	3.08
280.127	3.2
280.5	3.25
280.872	3.21
281.245	3.17
281.617	3.23
281.99	3.21
282.362	3.24
282.735	3.13
283.107	3.04
283.479	3.06
283.852	3.19
284.224	3.28
284.596	3.31
284.968	3.43
285.34	3.46
285.713	3.4
286.085	3.45
286.457	3.55
286.829	3.54
287.201	3.54
287.572	3.56
287.944	3.5
288.316	3.46
288.688	3.44
289.06	3.57
289.431	3.64
289.803	3.73
290.175	3.73
290.546	3.96
290.918	3.99
291.289	4.06
291.661	4.02
292.032	4.13
292.403	4.07
292.775	4.08
293.146	3.96
293.517	3.85
293.889	3.79
294.26	3.76
294.631	3.81
295.002	3.8
295.373	3.79
295.744	3.85
296.115	3.95
296.486	3.88
296.857	3.86
297.228	3.92
297.599	3.89
297.97	3.92
298.34	3.9
298.711	4.06
299.082	4.01
299.452	4
299.823	4.13
300.194	4.34
300.564	4.29
300.935	4.38
301.305	4.48
301.676	4.58
302.046	4.64
302.416	4.66
302.787	4.76
303.157	4.85
303.527	4.79
303.897	4.69
304.267	4.82
304.637	4.88
305.008	4.77
305.378	4.91
305.748	4.97
306.117	4.9
306.487	4.84
306.857	4.99
307.227	4.99
307.597	4.96
307.967	4.86
308.336	4.97
308.706	5.09
309.076	5.12
309.445	5.06
309.815	5.04
310.184	5.02
310.554	4.99
310.923	4.99
311.293	5.02
311.662	4.96
312.031	5.06
312.401	5.05
312.77	5.1
313.139	5.19
313.508	5.29
313.877	5.35
314.246	5.43
314.616	5.31
314.985	5.45
315.353	5.33
315.722	5.4
316.091	5.37
316.46	5.32
316.829	5.39
317.198	5.59
317.567	5.66
317.935	5.68
318.304	5.82
318.672	5.84
319.041	6.05
319.41	6.21
319.778	6.23
320.147	6.42
320.515	6.49
320.883	6.3
321.252	6.39
321.62	6.48
321.988	6.34
322.357	6.5
322.725	6.41
323.093	6.67
323.461	6.59
323.829	6.62
324.197	6.72
324.565	6.65
324.933	6.66
325.301	6.73
325.669	6.84
326.037	6.69
326.405	6.7
326.772	6.64
327.14	6.67
327.508	6.75
327.875	6.65
328.243	6.62
328.61	6.7
328.978	6.62
329.346	6.64
329.713	6.83
330.08	6.84
330.448	6.87
330.815	6.81
331.182	6.89
331.55	6.86
331.917	6.9
332.284	6.97
332.651	6.92
333.018	6.86
333.385	6.83
333.752	7.03
334.119	7.17
334.486	7.13
334.853	7.18
335.22	7.1
335.587	7.32
335.954	7.31
336.32	7.31
336.687	7.47
337.054	7.46
337.42	7.5
337.787	7.53
338.153	7.52
338.52	7.55
338.886	7.47
339.253	7.43
339.619	7.34
339.986	7.43
340.352	7.43
340.718	7.43
341.084	7.45
341.451	7.37
341.817	7.44
342.183	7.51
342.549	7.5
342.915	7.63
343.281	7.43
343.647	7.46
344.013	7.5
344.379	7.3
344.745	7.31
345.11	7.24
345.476	7.25
345.842	7.33
346.208	7.29
346.573	7.31
346.939	7.41
347.304	7.44
347.67	7.27
348.035	7.38
348.401	7.4
348.766	7.48
349.132	7.53
349.497	7.43
349.862	7.48
350.228	7.52
350.593	7.37
350.958	7.5
351.323	7.52
351.688	7.57
352.053	7.66
352.418	7.66
352.783	7.62
353.148	7.52
353.513	7.55
353.878	7.58
354.243	7.67
354.608	7.75
354.972	7.83
355.337	7.9
355.702	7.87
356.066	7.89
356.431	7.81
356.795	7.83
357.16	7.71
357.524	7.58
357.889	7.5
358.253	7.56
358.618	7.5
358.982	7.48
359.346	7.42
359.71	7.37
360.075	7.37
360.439	7.35
360.803	7.32
361.167	7.24
361.531	7.22
361.895	7.13
362.259	7.06
362.623	6.97
362.987	6.96
363.351	6.92
363.714	6.9
364.078	6.84
364.442	6.74
364.806	6.85
365.169	6.9
365.533	6.91
365.896	6.82
366.26	6.75
366.623	6.72
366.987	6.72
367.35	6.72
367.714	6.7
368.077	6.69
368.44	6.68
368.803	6.69
369.167	6.57
369.53	6.56
369.893	6.57
370.256	6.55
370.619	6.47
370.982	6.38
371.345	6.3
371.708	6.31
372.071	6.28
372.434	6.18
372.797	6.11
373.159	6.03
373.522	6.03
373.885	6.01
374.247	5.97
374.61	5.89
374.973	5.8
375.335	5.73
375.698	5.75
376.06	5.7
376.423	5.66
376.785	5.7
377.147	5.61
377.51	5.53
377.872	5.5
378.234	5.51
378.596	5.46
378.958	5.44
379.321	5.39
379.683	5.35
380.045	5.3
380.407	5.24
380.769	5.22
381.13	5.16
381.492	5.16
381.854	5.15
382.216	5.1
382.578	5.12
382.939	5.05
383.301	4.99
383.663	4.97
384.024	4.94
384.386	4.9
384.747	4.91
385.109	4.89
385.47	4.81
385.832	4.8
386.193	4.83
386.554	4.77
386.916	4.77
387.277	4.77
387.638	4.76
387.999	4.78
388.36	4.77
388.721	4.76
389.082	4.72
389.443	4.7
389.804	4.7
390.165	4.66
390.526	4.67
390.887	4.63
391.248	4.64
391.609	4.62
391.969	4.62
392.33	4.6
392.691	4.57
393.051	4.57
393.412	4.53
393.772	4.48
394.133	4.46
394.493	4.45
394.854	4.4
395.214	4.38
395.574	4.37
395.935	4.32
396.295	4.35
396.655	4.32
397.015	4.29
397.376	4.25
397.736	4.24
398.096	4.21
398.456	4.18
398.816	4.15
399.176	4.12
399.535	4.05
399.895	4.02
400.255	3.99
400.615	4
400.975	3.99
401.334	3.95
401.694	3.96
402.054	3.91
402.413	3.92
402.773	3.92
403.132	3.87
403.492	3.9
403.851	3.83
404.211	3.82
404.57	3.77
404.929	3.78
405.288	3.75
405.648	3.72
406.007	3.72
406.366	3.68
406.725	3.68
407.084	3.68
407.443	3.68
407.802	3.72
408.161	3.68
408.52	3.65
408.879	3.69
409.238	3.68
409.596	3.67
409.955	3.65
410.314	3.62
410.673	3.63
411.031	3.59
411.39	3.59
411.748	3.54
412.107	3.55
412.465	3.53
412.824	3.55
413.182	3.53
413.54	3.52
413.899	3.55
414.257	3.54
414.615	3.51
414.974	3.5
415.332	3.44
415.69	3.45
416.048	3.44
416.406	3.43
416.764	3.42
417.122	3.43
417.48	3.43
417.838	3.41
418.195	3.4
418.553	3.4
418.911	3.36
419.269	3.36
419.626	3.36
419.984	3.35
420.342	3.31
420.699	3.31
421.057	3.3
421.414	3.28
421.772	3.26
422.129	3.26
422.486	3.24
422.844	3.25
423.201	3.22
423.558	3.2
423.915	3.19
424.273	3.18
424.63	3.14
424.987	3.13
425.344	3.13
425.701	3.12
426.058	3.11
426.415	3.12
426.772	3.11
427.128	3.09
427.485	3.08
427.842	3.09
428.199	3.09
428.555	3.09
428.912	3.09
429.269	3.09
429.625	3.08
429.982	3.06
430.338	3.03
430.695	3.05
431.051	3.07
431.407	3.05
431.764	3.06
432.12	3.07
432.476	3.05
432.832	3.02
433.189	3.03
433.545	3.02
433.901	3.01
434.257	3.03
434.613	3.04
434.969	3.04
435.325	3.04
435.681	3.04
436.036	3.03
436.392	3.03
436.748	3.03
437.104	3.04
437.459	3.06
437.815	3.08
438.171	3.07
438.526	3.07
438.882	3.07
439.237	3.07
439.593	3.09
439.948	3.07
440.304	3.07
440.659	3.06
441.014	3.06
441.369	3.06
441.725	3.05
442.08	3.04
442.435	3.04
442.79	3.04
443.145	3.05
443.5	3.04
443.855	3.02
444.21	3.02
444.565	3.02
444.92	3.01
445.275	2.99
445.629	2.99
445.984	2.98
446.339	2.98
446.693	2.97
447.048	2.93
447.403	2.93
447.757	2.95
448.112	2.95
448.466	2.95
448.82	2.96
449.175	2.96
449.529	2.97
449.883	2.96
450.238	2.94
450.592	2.92
450.946	2.9
451.3	2.91
451.654	2.89
452.008	2.88
452.362	2.86
452.716	2.86
453.07	2.87
453.424	2.88
453.778	2.89
454.132	2.86
454.486	2.88
454.839	2.88
455.193	2.87
455.547	2.86
455.9	2.87
456.254	2.87
456.607	2.86
456.961	2.83
457.314	2.83
457.668	2.85
458.021	2.84
458.375	2.87
458.728	2.86
459.081	2.87
459.434	2.87
459.787	2.88
460.141	2.9
460.494	2.89
460.847	2.87
461.2	2.86
461.553	2.88
461.906	2.9
462.259	2.89
462.611	2.9
462.964	2.92
463.317	2.92
463.67	2.94
464.022	2.96
464.375	2.96
464.728	2.97
465.08	2.97
465.433	2.98
465.785	2.97
466.138	2.99
466.49	3.01
466.843	3.02
467.195	3
467.547	3
467.899	3.01
468.252	3.02
468.604	3.02
468.956	3.03
469.308	3.03
469.66	3.05
470.012	3.05
470.364	3.03
470.716	3.02
471.068	3.01
471.42	3.02
471.772	3.07
472.123	3.07
472.475	3.07
472.827	3.07
473.178	3.06
473.53	3.04
473.882	3.03
474.233	3.03
474.585	3.03
474.936	3.05
475.288	3.06
475.639	3.08
475.99	3.08
476.342	3.08
476.693	3.09
477.044	3.08
477.395	3.07
477.746	3.08
478.097	3.07
478.448	3.05
478.8	3.03
479.15	2.99
479.501	2.97
479.852	2.99
480.203	3
480.554	3.02
480.905	3.03
481.255	3.03
481.606	3.04
481.957	3.05
482.307	3.04
482.658	3.04
483.009	3.03
483.359	3.04
483.709	3.04
484.06	3.04
484.41	3.05
484.761	3.05
485.111	3.06
485.461	3.07
485.811	3.07
486.162	3.07
486.512	3.09
486.862	3.1
487.212	3.09
487.562	3.08
487.912	3.08
488.262	3.08
488.612	3.1
488.961	3.1
489.311	3.1
489.661	3.1
490.011	3.11
490.36	3.11
490.71	3.12
491.06	3.13
491.409	3.13
491.759	3.12
492.108	3.13
492.458	3.14
492.807	3.12
493.157	3.13
493.506	3.15
493.855	3.15
494.204	3.16
494.554	3.18
494.903	3.19
495.252	3.21
495.601	3.24
495.95	3.24
496.299	3.25
496.648	3.28
496.997	3.28
497.346	3.31
497.695	3.33
498.043	3.33
498.392	3.34
498.741	3.37
499.09	3.38
499.438	3.42
499.787	3.42
500.135	3.48
500.484	3.5
500.832	3.53
501.181	3.55
501.529	3.6
501.878	3.61
502.226	3.66
502.574	3.69
502.923	3.7
503.271	3.72
503.619	3.77
503.967	3.78
504.315	3.82
504.663	3.85
505.011	3.9
505.359	3.94
505.707	3.98
506.055	4.03
506.403	4.09
506.751	4.13
507.098	4.17
507.446	4.21
507.794	4.25
508.141	4.29
508.489	4.34
508.837	4.36
509.184	4.4
509.531	4.45
509.879	4.48
510.226	4.56
510.574	4.61
510.921	4.65
511.268	4.7
511.616	4.75
511.963	4.79
512.31	4.83
512.657	4.88
513.004	4.93
513.351	4.97
513.698	5.02
514.045	5.07
514.392	5.14
514.739	5.18
515.086	5.23
515.432	5.29
515.779	5.35
516.126	5.45
516.473	5.53
516.819	5.59
517.166	5.65
517.512	5.69
517.859	5.75
518.205	5.79
518.552	5.84
518.898	5.9
519.245	5.94
519.591	6.01
519.937	6.07
520.283	6.13
520.629	6.2
520.976	6.29
521.322	6.35
521.668	6.42
522.014	6.51
522.36	6.61
522.706	6.69
523.052	6.79
523.398	6.89
523.743	7.01
524.089	7.12
524.435	7.23
524.781	7.33
525.126	7.42
525.472	7.53
525.817	7.62
526.163	7.72
526.509	7.81
526.854	7.89
527.199	7.97
527.545	8.06
527.89	8.16
528.235	8.22
528.581	8.31
528.926	8.4
529.271	8.49
529.616	8.58
529.961	8.67
530.306	8.77
530.651	8.86
530.996	8.96
531.341	9.06
531.686	9.18
532.031	9.29
532.376	9.42
532.721	9.54
533.065	9.69
533.41	9.83
533.755	9.97
534.099	10.12
534.444	10.28
534.788	10.43
535.133	10.57
535.477	10.72
535.822	10.89
536.166	11.07
536.51	11.28
536.855	11.5
537.199	11.76
537.543	11.98
537.887	12.19
538.231	12.44
538.576	12.68
538.92	12.94
539.264	13.17
539.608	13.4
539.951	13.62
540.295	13.83
540.639	14.04
540.983	14.24
541.327	14.43
541.671	14.62
542.014	14.82
542.358	15
542.701	15.22
543.045	15.43
543.389	15.64
543.732	15.84
544.075	16.08
544.419	16.31
544.762	16.53
545.105	16.79
545.449	17.04
545.792	17.32
546.135	17.56
546.478	17.89
546.821	18.23
547.165	18.54
547.508	18.85
547.851	19.18
548.194	19.56
548.536	19.93
548.879	20.3
549.222	20.7
549.565	21.1
549.908	21.46
550.25	21.88
550.593	22.23
550.936	22.59
551.278	22.92
551.621	23.27
551.963	23.71
552.306	24.12
552.648	24.51
552.991	24.9
553.333	25.32
553.675	25.64
554.017	25.98
554.36	26.37
554.702	26.78
555.044	27.13
555.386	27.51
555.728	27.88
556.07	28.28
556.412	28.64
556.754	29.01
557.096	29.39
557.438	29.77
557.78	30.21
558.121	30.69
558.463	31.1
558.805	31.53
559.147	31.88
559.488	32.26
559.83	32.68
560.171	33.08
560.513	33.5
560.854	33.9
561.196	34.25
561.537	34.68
561.878	35.04
562.22	35.45
562.561	35.8
562.902	36.22
563.243	36.58
563.584	36.91
563.925	37.3
564.266	37.69
564.607	38.05
564.948	38.43
565.289	38.73
565.63	39.05
565.971	39.44
566.312	39.8
566.653	40.13
566.993	40.43
567.334	40.77
567.675	41.04
568.015	41.43
568.356	41.82
568.696	42.07
569.037	42.36
569.377	42.65
569.718	42.97
570.058	43.26
570.398	43.56
570.739	43.92
571.079	44.24
571.419	44.5
571.759	44.8
572.099	45.08
572.439	45.35
572.779	45.62
573.119	45.79
573.459	46.05
573.799	46.31
574.139	46.57
574.479	46.81
574.819	47.09
575.158	47.28
575.498	47.51
575.838	47.81
576.177	48.09
576.517	48.36
576.856	48.6
577.196	48.79
577.535	49.05
577.875	49.3
578.214	49.56
578.553	49.89
578.893	50.16
579.232	50.4
579.571	50.68
579.91	50.99
580.25	51.31
580.589	51.57
580.928	51.85
581.267	52.14
581.606	52.36
581.945	52.61
582.283	52.82
582.622	53.1
582.961	53.35
583.3	53.63
583.639	53.91
583.977	54.13
584.316	54.39
584.654	54.57
584.993	54.69
585.332	54.8
585.67	54.97
586.008	55.11
586.347	55.26
586.685	55.58
587.024	55.78
587.362	55.91
587.7	56.02
588.038	56.25
588.376	56.38
588.715	56.55
589.053	56.69
589.391	56.88
589.729	57.04
590.067	57.14
590.404	57.21
590.742	57.33
591.08	57.47
591.418	57.64
591.756	57.88
592.093	58.05
592.431	58.24
592.769	58.41
593.106	58.58
593.444	58.75
593.781	58.78
594.119	58.89
594.456	59.04
594.793	59.22
595.131	59.28
595.468	59.42
595.805	59.56
596.143	59.66
596.48	59.75
596.817	59.83
597.154	59.9
597.491	60.02
597.828	60.17
598.165	60.35
598.502	60.4
598.839	60.45
599.176	60.59
599.512	60.69
599.849	60.83
600.186	60.91
600.523	61.13
600.859	61.24
601.196	61.39
601.532	61.48
601.869	61.55
602.205	61.61
602.542	61.66
602.878	61.62
603.215	61.74
603.551	61.88
603.887	61.93
604.223	62.03
604.56	62.17
604.896	62.23
605.232	62.32
605.568	62.47
605.904	62.56
606.24	62.67
606.576	62.77
606.912	62.87
607.248	62.96
607.583	62.92
607.919	63
608.255	63.07
608.591	63.22
608.926	63.34
609.262	63.48
609.597	63.61
609.933	63.81
610.268	63.95
610.604	63.99
610.939	64.09
611.275	64.21
611.61	64.26
611.945	64.35
612.281	64.4
612.616	64.51
612.951	64.64
613.286	64.71
613.621	64.81
613.956	64.87
614.291	64.95
614.626	65.13
614.961	65.22
615.296	65.29
615.631	65.28
615.966	65.33
616.3	65.39
616.635	65.45
616.97	65.5
617.304	65.49
617.639	65.63
617.973	65.72
618.308	65.8
618.642	65.82
618.977	65.9
619.311	65.9
619.646	65.88
619.98	65.88
620.314	65.92
620.648	66.05
620.983	66.05
621.317	66.01
621.651	66.04
621.985	66.16
622.319	66.16
622.653	66.27
622.987	66.33
623.321	66.4
623.655	66.42
623.988	66.54
624.322	66.52
624.656	66.55
624.99	66.61
625.323	66.63
625.657	66.66
625.99	66.63
626.324	66.68
626.657	66.77
626.991	66.77
627.324	66.81
627.658	66.79
627.991	66.83
628.324	66.96
628.657	66.93
628.991	66.84
629.324	66.96
629.657	66.92
629.99	66.98
630.323	66.92
630.656	67.02
630.989	67.1
631.322	67.21
631.655	67.28
631.987	67.4
632.32	67.42
632.653	67.45
632.986	67.45
633.318	67.52
633.651	67.56
633.984	67.58
634.316	67.55
634.649	67.58
634.981	67.61
635.313	67.67
635.646	67.75
635.978	67.88
636.31	67.88
636.643	67.94
636.975	67.95
637.307	67.95
637.639	67.96
637.971	67.89
638.303	67.79
638.635	67.73
638.967	67.61
639.299	67.58
639.631	67.54
639.963	67.67
640.295	67.67
640.626	67.71
640.958	67.74
641.29	67.84
641.621	67.94
641.953	68.04
642.285	68.12
642.616	68.14
642.948	68.16
643.279	68.13
643.61	68.17
643.942	68.18
644.273	68.29
644.604	68.28
644.936	68.33
645.267	68.45
645.598	68.57
645.929	68.53
646.26	68.68
646.591	68.78
646.922	68.77
647.253	68.82
647.584	68.81
647.915	69
648.245	69
648.576	68.94
648.907	69
649.238	68.93
649.568	68.99
649.899	68.91
650.229	68.98
650.56	69.07
650.89	69.18
651.221	69.2
651.551	69.25
651.882	69.17
652.212	69.19
652.542	69.21
652.872	69.39
653.203	69.32
653.533	69.3
653.863	69.37
654.193	69.37
654.523	69.33
654.853	69.35
655.183	69.53
655.513	69.47
655.843	69.4
656.172	69.42
656.502	69.44
656.832	69.65
657.162	69.75
657.491	69.64
657.821	69.52
658.15	69.7
658.48	69.79
658.809	69.91
659.139	69.87
659.468	69.69
659.798	69.66
660.127	69.75
660.456	69.83
660.785	69.82
661.115	69.8
661.444	69.81
661.773	69.8
662.102	69.63
662.431	69.67
662.76	69.64
663.089	69.62
663.418	69.56
663.747	69.53
664.076	69.53
664.404	69.72
664.733	69.88
665.062	69.81
665.39	69.78
665.719	69.87
666.048	70.05
666.376	70.32
666.705	70.26
667.033	70.25
