Data from BA28473_Reflection_00003.txt Node
Date: Mon Nov 18 15:28:08 EST 2019
User: vgr7
Spectrometer: USB2G7710
Scans to average: 3
Trigger mode: 4
Integration Time (sec): 2.000000E-2
Electric dark correction enabled: true
Boxcar width: 10
XAxis mode: Wavelengths
Number of Pixels in Spectrum: 2048
>>>>>Begin Spectral Data<<<<<
177.721	29.25
178.105	12.89
178.488	-7.73
178.871	-94.57
179.254	-163.67
179.636	80.34
180.019	115.27
180.402	12.5
180.785	1061.04
181.168	205.77
181.55	82.38
181.933	77.68
182.316	88.27
182.698	55.64
183.081	65.39
183.463	81.49
183.846	105.98
184.228	112.51
184.611	106.94
184.993	361.46
185.376	256.95
185.758	126.13
186.14	214.38
186.522	187.6
186.904	188.54
187.287	201.19
187.669	194.38
188.051	213.16
188.433	354
188.815	460.88
189.197	520.41
189.579	604.7
189.961	931.3
190.342	954.5
190.724	-588.92
191.106	-991.31
191.488	-1263.4
191.869	-431.99
192.251	-1064.35
192.633	-637.9
193.014	330.09
193.396	592.04
193.777	1076.25
194.159	1597.87
194.54	-728.97
194.922	-293.66
195.303	-602.7
195.684	-910.18
196.065	-368.55
196.447	-1101.04
196.828	8263.27
197.209	2253.85
197.59	-1737.1
197.971	-728.35
198.352	-294.2
198.733	-341.74
199.114	-137.04
199.495	-131.09
199.876	-129.51
200.257	-124.32
200.638	-114.27
201.018	-94.2
201.399	-111.04
201.78	-94.2
202.16	-107.92
202.541	-123.2
202.922	-191.78
203.302	-189.99
203.683	-153.14
204.063	-158.7
204.444	-151.83
204.824	-110.18
205.204	-100.67
205.585	-115.71
205.965	-115.2
206.345	-144.36
206.725	-189.36
207.106	-393.74
207.486	-413.9
207.866	-614.82
208.246	-481.93
208.626	-291.79
209.006	-219.44
209.386	-238.24
209.766	-245.9
210.145	-292.67
210.525	-261.5
210.905	-190.09
211.285	-130.05
211.664	-161.26
212.044	-209.21
212.424	-199.19
212.803	-396.15
213.183	-265.93
213.562	-239.88
213.942	-170.14
214.321	-120.44
214.701	-107.06
215.08	-110.77
215.459	-115.02
215.838	-91.75
216.218	-127.92
216.597	-115.51
216.976	-100.23
217.355	-103.89
217.734	-96.15
218.113	-63.5
218.492	-84.54
218.871	-104.26
219.25	-104.82
219.629	-93.47
220.008	-82.24
220.387	-89.88
220.766	-70.13
221.144	-112.94
221.523	-121.84
221.902	-131.43
222.28	-128.84
222.659	-112.22
223.037	-93.88
223.416	-109.65
223.794	-106.14
224.173	-87.16
224.551	-87.82
224.929	-84.02
225.308	-70.94
225.686	-63.46
226.064	-66
226.442	-58.79
226.821	-42.37
227.199	-40.76
227.577	-39.14
227.955	-36.86
228.333	-33.79
228.711	-28.3
229.089	-22.57
229.467	-21.61
229.845	-23.72
230.222	-21.49
230.6	-19.68
230.978	-17.3
231.356	-9.81
231.733	-9.19
232.111	-7.91
232.488	-5.81
232.866	-5.94
233.243	-5.72
233.621	-5.66
233.998	-2.69
234.376	-1.02
234.753	-2.98
235.13	-3.46
235.508	-1.54
235.885	-2.37
236.262	-2.66
236.639	-4.66
237.016	-5.26
237.393	-3.35
237.77	-1.97
238.147	-0.65
238.524	-0.77
238.901	0.68
239.278	0.67
239.655	1.25
240.032	1.8
240.409	1.34
240.785	1.46
241.162	2.21
241.539	2.43
241.915	2.05
242.292	2.18
242.668	2.82
243.045	3.44
243.421	3.28
243.798	3.66
244.174	3.72
244.551	4.08
244.927	4.39
245.303	4.59
245.679	4.8
246.056	4.6
246.432	4.66
246.808	4.55
247.184	4.39
247.56	4.29
247.936	4.27
248.312	4.45
248.688	4.49
249.064	4.5
249.44	4.34
249.815	4.55
250.191	4.59
250.567	4.48
250.943	4.23
251.318	4.42
251.694	4.48
252.069	4.59
252.445	4.36
252.82	4.35
253.196	4.04
253.571	3.96
253.947	3.98
254.322	4.28
254.697	4.33
255.073	4.28
255.448	4.25
255.823	4.51
256.198	4.57
256.573	4.71
256.948	4.82
257.323	4.99
257.698	4.84
258.073	4.84
258.448	4.89
258.823	5.06
259.198	4.82
259.573	4.79
259.948	4.94
260.322	5.05
260.697	4.88
261.072	4.92
261.446	5.01
261.821	4.88
262.195	4.79
262.57	4.68
262.944	4.66
263.319	4.66
263.693	4.44
264.067	4.38
264.442	4.32
264.816	4.25
265.19	4.1
265.564	4.12
265.938	4.19
266.313	4.06
266.687	3.93
267.061	4.26
267.435	4.22
267.809	4.25
268.183	4.37
268.556	4.43
268.93	4.42
269.304	4.42
269.678	4.62
270.051	4.76
270.425	4.91
270.799	5.15
271.172	5.14
271.546	5.29
271.919	5.42
272.293	5.46
272.666	5.41
273.04	5.55
273.413	5.57
273.787	5.49
274.16	5.62
274.533	5.56
274.906	5.45
275.279	5.5
275.653	5.55
276.026	5.48
276.399	5.55
276.772	5.6
277.145	5.45
277.518	5.38
277.891	5.28
278.263	5.03
278.636	4.77
279.009	4.74
279.382	4.95
279.755	4.88
280.127	4.99
280.5	5.18
280.872	5.19
281.245	5.13
281.617	5.26
281.99	5.36
282.362	5.42
282.735	5.21
283.107	5.07
283.479	5.12
283.852	5
284.224	5.11
284.596	5.14
284.968	5.27
285.34	5.28
285.713	5.39
286.085	5.62
286.457	5.82
286.829	5.96
287.201	5.92
287.572	5.93
287.944	5.78
288.316	5.7
288.688	5.72
289.06	5.85
289.431	5.63
289.803	5.48
290.175	5.47
290.546	5.73
290.918	5.83
291.289	5.79
291.661	5.96
292.032	5.89
292.403	5.85
292.775	5.73
293.146	5.77
293.517	5.77
293.889	5.8
294.26	5.73
294.631	5.72
295.002	5.57
295.373	5.57
295.744	5.66
296.115	5.64
296.486	5.63
296.857	5.61
297.228	5.81
297.599	5.8
297.97	5.9
298.34	5.94
298.711	5.94
299.082	5.97
299.452	6.02
299.823	6.15
300.194	6.27
300.564	6.34
300.935	6.37
301.305	6.24
301.676	6.2
302.046	6.27
302.416	6.3
302.787	6.37
303.157	6.28
303.527	6.19
303.897	6.35
304.267	6.48
304.637	6.58
305.008	6.62
305.378	6.76
305.748	6.8
306.117	6.7
306.487	6.8
306.857	6.79
307.227	6.83
307.597	6.59
307.967	6.61
308.336	6.61
308.706	6.59
309.076	6.71
309.445	6.84
309.815	6.73
310.184	6.73
310.554	6.8
310.923	6.87
311.293	6.93
311.662	6.75
312.031	6.64
312.401	6.53
312.77	6.55
313.139	6.55
313.508	6.47
313.877	6.48
314.246	6.37
314.616	6.34
314.985	6.16
315.353	6.39
315.722	6.4
316.091	6.52
316.46	6.42
316.829	6.46
317.198	6.29
317.567	6.21
317.935	6.2
318.304	6.17
318.672	6.12
319.041	6.41
319.41	6.43
319.778	6.26
320.147	6.43
320.515	6.29
320.883	6.32
321.252	6.53
321.62	6.55
321.988	6.76
322.357	6.78
322.725	6.87
323.093	6.91
323.461	6.94
323.829	7.02
324.197	7.15
324.565	7.16
324.933	7.19
325.301	7.21
325.669	7.13
326.037	7.17
326.405	7.28
326.772	7.16
327.14	7.28
327.508	7.4
327.875	7.19
328.243	7.47
328.61	7.48
328.978	7.43
329.346	7.52
329.713	7.34
330.08	7.33
330.448	7.25
330.815	7.02
331.182	6.97
331.55	6.82
331.917	6.88
332.284	6.94
332.651	6.88
333.018	6.99
333.385	7.02
333.752	7.02
334.119	6.93
334.486	6.95
334.853	7.01
335.22	7
335.587	7.12
335.954	6.88
336.32	6.83
336.687	6.75
337.054	6.64
337.42	6.76
337.787	6.78
338.153	6.91
338.52	6.98
338.886	6.86
339.253	6.82
339.619	6.76
339.986	6.64
340.352	6.66
340.718	6.64
341.084	6.64
341.451	6.66
341.817	6.7
342.183	6.71
342.549	6.52
342.915	6.53
343.281	6.52
343.647	6.56
344.013	6.5
344.379	6.43
344.745	6.5
345.11	6.5
345.476	6.44
345.842	6.39
346.208	6.38
346.573	6.42
346.939	6.54
347.304	6.61
347.67	6.67
348.035	6.71
348.401	6.71
348.766	6.71
349.132	6.61
349.497	6.62
349.862	6.62
350.228	6.67
350.593	6.75
350.958	6.77
351.323	6.71
351.688	6.78
352.053	6.89
352.418	6.83
352.783	6.84
353.148	6.84
353.513	6.85
353.878	6.93
354.243	7.09
354.608	7.08
354.972	7.11
355.337	7.1
355.702	7.14
356.066	7.15
356.431	7.13
356.795	7.19
357.16	7.21
357.524	7.1
357.889	7.11
358.253	7.08
358.618	7.11
358.982	7.12
359.346	7.12
359.71	7.07
360.075	7.15
360.439	7.09
360.803	7.13
361.167	7.1
361.531	7.11
361.895	7.04
362.259	7
362.623	6.96
362.987	6.95
363.351	6.97
363.714	7.03
364.078	7.04
364.442	7.01
364.806	7.01
365.169	7.03
365.533	7.03
365.896	7.06
366.26	7.05
366.623	7.11
366.987	7.14
367.35	7.16
367.714	7.18
368.077	7.14
368.44	7.12
368.803	7.15
369.167	7.13
369.53	7.08
369.893	7.13
370.256	7.13
370.619	7.15
370.982	7.05
371.345	7.04
371.708	7.07
372.071	7.05
372.434	7.05
372.797	7.13
373.159	7.15
373.522	7.18
373.885	7.14
374.247	7.16
374.61	7.07
374.973	7.04
375.335	7.03
375.698	7.11
376.06	7.12
376.423	7.11
376.785	7.11
377.147	7.19
377.51	7.18
377.872	7.16
378.234	7.15
378.596	7.23
378.958	7.19
379.321	7.17
379.683	7.26
380.045	7.28
380.407	7.25
380.769	7.29
381.13	7.26
381.492	7.34
381.854	7.36
382.216	7.45
382.578	7.45
382.939	7.46
383.301	7.47
383.663	7.5
384.024	7.49
384.386	7.53
384.747	7.52
385.109	7.53
385.47	7.55
385.832	7.56
386.193	7.58
386.554	7.62
386.916	7.69
387.277	7.61
387.638	7.59
387.999	7.56
388.36	7.55
388.721	7.55
389.082	7.52
389.443	7.43
389.804	7.44
390.165	7.45
390.526	7.44
390.887	7.41
391.248	7.41
391.609	7.42
391.969	7.42
392.33	7.43
392.691	7.42
393.051	7.4
393.412	7.43
393.772	7.41
394.133	7.4
394.493	7.35
394.854	7.36
395.214	7.37
395.574	7.44
395.935	7.44
396.295	7.47
396.655	7.45
397.015	7.5
397.376	7.49
397.736	7.51
398.096	7.47
398.456	7.49
398.816	7.51
399.176	7.5
399.535	7.49
399.895	7.43
400.255	7.42
400.615	7.45
400.975	7.39
401.334	7.39
401.694	7.37
402.054	7.41
402.413	7.45
402.773	7.45
403.132	7.4
403.492	7.38
403.851	7.34
404.211	7.35
404.57	7.33
404.929	7.34
405.288	7.34
405.648	7.36
406.007	7.37
406.366	7.36
406.725	7.4
407.084	7.41
407.443	7.44
407.802	7.48
408.161	7.46
408.52	7.46
408.879	7.48
409.238	7.51
409.596	7.5
409.955	7.48
410.314	7.5
410.673	7.49
411.031	7.51
411.39	7.54
411.748	7.56
412.107	7.59
412.465	7.55
412.824	7.52
413.182	7.53
413.54	7.51
413.899	7.54
414.257	7.53
414.615	7.5
414.974	7.48
415.332	7.47
415.69	7.49
416.048	7.51
416.406	7.48
416.764	7.46
417.122	7.47
417.48	7.43
417.838	7.43
418.195	7.46
418.553	7.46
418.911	7.46
419.269	7.47
419.626	7.47
419.984	7.49
420.342	7.51
420.699	7.5
421.057	7.51
421.414	7.5
421.772	7.51
422.129	7.53
422.486	7.55
422.844	7.55
423.201	7.56
423.558	7.56
423.915	7.57
424.273	7.6
424.63	7.6
424.987	7.63
425.344	7.62
425.701	7.63
426.058	7.64
426.415	7.64
426.772	7.64
427.128	7.64
427.485	7.64
427.842	7.62
428.199	7.64
428.555	7.65
428.912	7.67
429.269	7.67
429.625	7.65
429.982	7.62
430.338	7.62
430.695	7.6
431.051	7.58
431.407	7.57
431.764	7.53
432.12	7.52
432.476	7.52
432.832	7.51
433.189	7.52
433.545	7.49
433.901	7.47
434.257	7.46
434.613	7.51
434.969	7.49
435.325	7.49
435.681	7.49
436.036	7.48
436.392	7.46
436.748	7.46
437.104	7.46
437.459	7.49
437.815	7.5
438.171	7.51
438.526	7.53
438.882	7.55
439.237	7.58
439.593	7.58
439.948	7.59
440.304	7.61
440.659	7.6
441.014	7.62
441.369	7.62
441.725	7.63
442.08	7.61
442.435	7.63
442.79	7.65
443.145	7.63
443.5	7.64
443.855	7.65
444.21	7.65
444.565	7.65
444.92	7.63
445.275	7.63
445.629	7.61
445.984	7.6
446.339	7.58
446.693	7.55
447.048	7.55
447.403	7.54
447.757	7.54
448.112	7.52
448.466	7.52
448.82	7.51
449.175	7.51
449.529	7.49
449.883	7.48
450.238	7.47
450.592	7.49
450.946	7.47
451.3	7.48
451.654	7.47
452.008	7.49
452.362	7.48
452.716	7.47
453.07	7.49
453.424	7.5
453.778	7.5
454.132	7.5
454.486	7.51
454.839	7.51
455.193	7.49
455.547	7.5
455.9	7.5
456.254	7.52
456.607	7.52
456.961	7.53
457.314	7.52
457.668	7.53
458.021	7.51
458.375	7.53
458.728	7.53
459.081	7.52
459.434	7.51
459.787	7.52
460.141	7.52
460.494	7.51
460.847	7.54
461.2	7.52
461.553	7.54
461.906	7.54
462.259	7.53
462.611	7.55
462.964	7.57
463.317	7.57
463.67	7.57
464.022	7.55
464.375	7.53
464.728	7.55
465.08	7.56
465.433	7.56
465.785	7.54
466.138	7.54
466.49	7.54
466.843	7.54
467.195	7.53
467.547	7.54
467.899	7.54
468.252	7.52
468.604	7.55
468.956	7.54
469.308	7.53
469.66	7.53
470.012	7.52
470.364	7.51
470.716	7.49
471.068	7.49
471.42	7.5
471.772	7.53
472.123	7.55
472.475	7.55
472.827	7.56
473.178	7.57
473.53	7.57
473.882	7.59
474.233	7.6
474.585	7.59
474.936	7.61
475.288	7.61
475.639	7.62
475.99	7.61
476.342	7.63
476.693	7.65
477.044	7.68
477.395	7.69
477.746	7.69
478.097	7.73
478.448	7.74
478.8	7.73
479.15	7.73
479.501	7.73
479.852	7.73
480.203	7.74
480.554	7.74
480.905	7.76
481.255	7.78
481.606	7.8
481.957	7.83
482.307	7.84
482.658	7.84
483.009	7.84
483.359	7.86
483.709	7.86
484.06	7.86
484.41	7.86
484.761	7.86
485.111	7.88
485.461	7.87
485.811	7.88
486.162	7.88
486.512	7.88
486.862	7.89
487.212	7.9
487.562	7.9
487.912	7.91
488.262	7.91
488.612	7.89
488.961	7.88
489.311	7.87
489.661	7.86
490.011	7.84
490.36	7.83
490.71	7.83
491.06	7.81
491.409	7.8
491.759	7.79
492.108	7.79
492.458	7.77
492.807	7.77
493.157	7.76
493.506	7.78
493.855	7.78
494.204	7.76
494.554	7.75
494.903	7.72
495.252	7.71
495.601	7.71
495.95	7.71
496.299	7.72
496.648	7.73
496.997	7.73
497.346	7.76
497.695	7.78
498.043	7.76
498.392	7.76
498.741	7.79
499.09	7.8
499.438	7.81
499.787	7.8
500.135	7.81
500.484	7.81
500.832	7.82
501.181	7.8
501.529	7.81
501.878	7.81
502.226	7.85
502.574	7.89
502.923	7.9
503.271	7.91
503.619	7.89
503.967	7.87
504.315	7.87
504.663	7.88
505.011	7.89
505.359	7.92
505.707	7.93
506.055	7.93
506.403	7.95
506.751	7.97
507.098	7.99
507.446	7.99
507.794	7.98
508.141	8
508.489	7.99
508.837	8
509.184	8.01
509.531	8.01
509.879	8
510.226	8
510.574	8
510.921	8.03
511.268	8.04
511.616	8.04
511.963	8.06
512.31	8.04
512.657	8.04
513.004	8.02
513.351	8.03
513.698	8.04
514.045	8.02
514.392	8.02
514.739	8.03
515.086	8.04
515.432	8.01
515.779	8.03
516.126	8.04
516.473	8.04
516.819	8.04
517.166	8.07
517.512	8.07
517.859	8.1
518.205	8.1
518.552	8.11
518.898	8.15
519.245	8.12
519.591	8.13
519.937	8.12
520.283	8.15
520.629	8.15
520.976	8.14
521.322	8.14
521.668	8.15
522.014	8.17
522.36	8.18
522.706	8.2
523.052	8.22
523.398	8.23
523.743	8.24
524.089	8.25
524.435	8.23
524.781	8.24
525.126	8.24
525.472	8.24
525.817	8.25
526.163	8.22
526.509	8.24
526.854	8.25
527.199	8.27
527.545	8.27
527.89	8.28
528.235	8.3
528.581	8.3
528.926	8.3
529.271	8.3
529.616	8.31
529.961	8.3
530.306	8.3
530.651	8.3
530.996	8.3
531.341	8.3
531.686	8.31
532.031	8.32
532.376	8.32
532.721	8.32
533.065	8.31
533.41	8.33
533.755	8.35
534.099	8.35
534.444	8.34
534.788	8.35
535.133	8.35
535.477	8.35
535.822	8.35
536.166	8.36
536.51	8.35
536.855	8.37
537.199	8.39
537.543	8.4
537.887	8.42
538.231	8.45
538.576	8.46
538.92	8.44
539.264	8.43
539.608	8.46
539.951	8.48
540.295	8.5
540.639	8.51
540.983	8.48
541.327	8.49
541.671	8.49
542.014	8.49
542.358	8.48
542.701	8.47
543.045	8.5
543.389	8.5
543.732	8.51
544.075	8.5
544.419	8.48
544.762	8.47
545.105	8.44
545.449	8.43
545.792	8.42
546.135	8.46
546.478	8.46
546.821	8.44
547.165	8.4
547.508	8.4
547.851	8.39
548.194	8.4
548.536	8.4
548.879	8.38
549.222	8.4
549.565	8.4
549.908	8.39
550.25	8.38
550.593	8.35
550.936	8.32
551.278	8.32
551.621	8.36
551.963	8.39
552.306	8.39
552.648	8.38
552.991	8.39
553.333	8.41
553.675	8.41
554.017	8.37
554.36	8.41
554.702	8.43
555.044	8.41
555.386	8.38
555.728	8.36
556.07	8.4
556.412	8.38
556.754	8.41
557.096	8.41
557.438	8.42
557.78	8.45
558.121	8.51
558.463	8.53
558.805	8.54
559.147	8.5
559.488	8.51
559.83	8.55
560.171	8.53
560.513	8.53
560.854	8.53
561.196	8.55
561.537	8.55
561.878	8.53
562.22	8.55
562.561	8.56
562.902	8.58
563.243	8.56
563.584	8.57
563.925	8.57
564.266	8.53
564.607	8.5
564.948	8.53
565.289	8.48
565.63	8.48
565.971	8.45
566.312	8.47
566.653	8.47
566.993	8.46
567.334	8.47
567.675	8.48
568.015	8.49
568.356	8.51
568.696	8.48
569.037	8.46
569.377	8.48
569.718	8.48
570.058	8.49
570.398	8.49
570.739	8.5
571.079	8.49
571.419	8.51
571.759	8.57
572.099	8.56
572.439	8.58
572.779	8.57
573.119	8.57
573.459	8.58
573.799	8.61
574.139	8.58
574.479	8.56
574.819	8.56
575.158	8.55
575.498	8.56
575.838	8.56
576.177	8.55
576.517	8.54
576.856	8.56
577.196	8.56
577.535	8.56
577.875	8.59
578.214	8.57
578.553	8.59
578.893	8.55
579.232	8.52
579.571	8.5
579.91	8.52
580.25	8.53
580.589	8.51
580.928	8.48
581.267	8.54
581.606	8.56
581.945	8.56
582.283	8.55
582.622	8.52
582.961	8.57
583.3	8.58
583.639	8.59
583.977	8.6
584.316	8.62
584.654	8.6
584.993	8.59
585.332	8.6
585.67	8.56
586.008	8.58
586.347	8.58
586.685	8.6
587.024	8.58
587.362	8.54
587.7	8.52
588.038	8.51
588.376	8.48
588.715	8.48
589.053	8.51
589.391	8.53
589.729	8.57
590.067	8.53
590.404	8.57
590.742	8.56
591.08	8.57
591.418	8.54
591.756	8.54
592.093	8.53
592.431	8.54
592.769	8.56
593.106	8.62
593.444	8.61
593.781	8.59
594.119	8.58
594.456	8.61
594.793	8.63
595.131	8.62
595.468	8.66
595.805	8.65
596.143	8.62
596.48	8.61
596.817	8.6
597.154	8.63
597.491	8.62
597.828	8.59
598.165	8.58
598.502	8.56
598.839	8.6
599.176	8.62
599.512	8.61
599.849	8.62
600.186	8.59
600.523	8.63
600.859	8.69
601.196	8.73
601.532	8.76
601.869	8.82
602.205	8.8
602.542	8.77
602.878	8.73
603.215	8.73
603.551	8.69
603.887	8.73
604.223	8.72
604.56	8.74
604.896	8.78
605.232	8.8
605.568	8.82
605.904	8.82
606.24	8.84
606.576	8.87
606.912	8.88
607.248	8.89
607.583	8.9
607.919	8.86
608.255	8.81
608.591	8.82
608.926	8.76
609.262	8.86
609.597	8.9
609.933	8.95
610.268	8.95
610.604	9.01
610.939	9
611.275	9.03
611.61	9.02
611.945	9.01
612.281	9.01
612.616	9.06
612.951	9.01
613.286	9.01
613.621	9
613.956	8.98
614.291	8.93
614.626	8.94
614.961	8.94
615.296	9
615.631	8.97
615.966	8.98
616.3	8.89
616.635	8.84
616.97	8.85
617.304	8.88
617.639	8.9
617.973	8.88
618.308	8.83
618.642	8.85
618.977	8.85
619.311	8.8
619.646	8.83
619.98	8.82
620.314	8.82
620.648	8.78
620.983	8.83
621.317	8.9
621.651	8.89
621.985	8.93
622.319	8.88
622.653	8.88
622.987	8.95
623.321	9.01
623.655	9.03
623.988	9.05
624.322	9.09
624.656	9.07
624.99	9.1
625.323	9.09
625.657	9.11
625.99	9.11
626.324	9.13
626.657	9.08
626.991	9.09
627.324	9.08
627.658	9.14
627.991	9.1
628.324	9.05
628.657	9.1
628.991	9.07
629.324	9.1
629.657	9.12
629.99	9.08
630.323	9.05
630.656	9.1
630.989	9.11
631.322	9.09
631.655	9.09
631.987	9.07
632.32	9.16
632.653	9.13
632.986	9.12
633.318	9.14
633.651	9.19
633.984	9.25
634.316	9.28
634.649	9.25
634.981	9.26
635.313	9.28
635.646	9.24
635.978	9.25
636.31	9.25
636.643	9.28
636.975	9.29
637.307	9.24
637.639	9.18
637.971	9.15
638.303	9.08
638.635	9.08
638.967	9.07
639.299	9
639.631	8.98
639.963	8.99
640.295	9
640.626	8.95
640.958	9.02
641.29	8.98
641.621	9
641.953	8.98
642.285	9.07
642.616	9.13
642.948	9.16
643.279	9.15
643.61	9.12
643.942	9.14
644.273	9.26
644.604	9.3
644.936	9.3
645.267	9.39
645.598	9.41
645.929	9.43
646.26	9.48
646.591	9.53
646.922	9.51
647.253	9.51
647.584	9.57
647.915	9.48
648.245	9.5
648.576	9.51
648.907	9.51
649.238	9.47
649.568	9.4
649.899	9.39
650.229	9.49
650.56	9.55
650.89	9.58
651.221	9.49
651.551	9.48
651.882	9.47
652.212	9.47
652.542	9.48
652.872	9.47
653.203	9.43
653.533	9.47
653.863	9.52
654.193	9.61
654.523	9.59
654.853	9.56
655.183	9.57
655.513	9.63
655.843	9.68
656.172	9.63
656.502	9.64
656.832	9.69
657.162	9.75
657.491	9.71
657.821	9.67
658.15	9.74
658.48	9.72
658.809	9.72
659.139	9.7
659.468	9.69
659.798	9.72
660.127	9.75
660.456	9.73
660.785	9.72
661.115	9.69
661.444	9.7
661.773	9.76
662.102	9.74
662.431	9.76
662.76	9.75
663.089	9.84
663.418	9.81
663.747	9.76
664.076	9.62
664.404	9.6
664.733	9.64
665.062	9.54
665.39	9.54
665.719	9.56
666.048	9.57
666.376	9.6
666.705	9.56
667.033	9.5
667.362	9.47
667.69	9.52
668.018	9.46
668.347	9.41
668.675	9.43
669.003	9.42
669.331	9.45
669.659	9.46
669.987	9.42
670.315	9.45
670.643	9.5
670.971	9.53
671.299	9.6
671.627	9.59
671.955	9.69
672.283	9.71
672.61	9.68
672.938	9.72
673.266	9.73
673.593	9.8
673.921	9.85
674.249	9.87
674.576	9.9
674.904	9.96
675.231	10.03
675.558	9.97
