Data from BA28415_Reflection_00010.txt Node
Date: Mon Nov 18 16:02:28 EST 2019
User: vgr7
Spectrometer: USB2G7710
Scans to average: 3
Trigger mode: 4
Integration Time (sec): 2.000000E-2
Electric dark correction enabled: true
Boxcar width: 10
XAxis mode: Wavelengths
Number of Pixels in Spectrum: 2048
>>>>>Begin Spectral Data<<<<<
177.721	-21.47
178.105	-16.59
178.488	78.9
178.871	103.13
179.254	47.47
179.636	105.43
180.019	-85.34
180.402	107.14
180.785	296.54
181.168	82.85
181.55	101.17
181.933	95.68
182.316	140.47
182.698	155.4
183.081	145.78
183.463	180.53
183.846	198.74
184.228	219.3
184.611	217.57
184.993	231.36
185.376	175.95
185.758	214.67
186.14	311.85
186.522	280.93
186.904	311.88
187.287	249.24
187.669	450.49
188.051	812.48
188.433	2313
188.815	4380.58
189.197	-1266.2
189.579	-747.85
189.961	-845.28
190.342	-683.57
190.724	-386.24
191.106	-367.75
191.488	-418.49
191.869	-327.08
192.251	-488.43
192.633	-277.81
193.014	-318.1
193.396	-263.48
193.777	-276.28
194.159	-322.92
194.54	-149.89
194.922	-140.02
195.303	-159.11
195.684	-164.16
196.065	-143.65
196.447	-484.65
196.828	-323.9
197.209	-112.69
197.59	-1513.86
197.971	-319.13
198.352	-278.82
198.733	-1448.67
199.114	-218.1
199.495	-226.78
199.876	552.28
200.257	1056.83
200.638	-187.27
201.018	315.55
201.399	216.56
201.78	170.97
202.16	102.77
202.541	207.78
202.922	230.96
203.302	208.05
203.683	230.91
204.063	256.78
204.444	363.67
204.824	264.7
205.204	317.62
205.585	1611.21
205.965	313.79
206.345	343.79
206.725	346.51
207.106	406.56
207.486	325.81
207.866	468.1
208.246	1044.57
208.626	408.66
209.006	1801.89
209.386	1036.84
209.766	1151.84
210.145	-7097.18
210.525	-10006.38
210.905	-623.67
211.285	-303.86
211.664	-279.02
212.044	-238.34
212.424	-173.69
212.803	-185.87
213.183	-185.55
213.562	-208.29
213.942	-146.47
214.321	-129.08
214.701	-158.84
215.08	-229.1
215.459	-247.44
215.838	-179.39
216.218	-177.62
216.597	-136.28
216.976	-119.4
217.355	-149.47
217.734	-142.36
218.113	-150.39
218.492	-143.83
218.871	-159.23
219.25	-233.03
219.629	-319.66
220.008	-350.84
220.387	-445.38
220.766	-699.11
221.144	-1125.6
221.523	-1769.57
221.902	7175.95
222.28	-821.3
222.659	-238.84
223.037	-144.67
223.416	-141.87
223.794	-148.63
224.173	-169.59
224.551	-145.35
224.929	-123.25
225.308	-59.15
225.686	-51.73
226.064	-40.64
226.442	-33.23
226.821	-22.67
227.199	-16.43
227.577	-18.26
227.955	-17.7
228.333	-18.04
228.711	-14.58
229.089	-9.36
229.467	-10.93
229.845	-9.44
230.222	-8.79
230.6	-12.66
230.978	-14.04
231.356	-9.99
231.733	-7.7
232.111	-6.13
232.488	-5.2
232.866	-5.75
233.243	-6.11
233.621	-4.68
233.998	-3.18
234.376	-5.95
234.753	-5.35
235.13	-6.08
235.508	-4.04
235.885	-4.38
236.262	-4.09
236.639	-4.47
237.016	-4.52
237.393	-1.79
237.77	-0.86
238.147	-0.38
238.524	0.53
238.901	1.81
239.278	2.48
239.655	2.32
240.032	2.5
240.409	2.63
240.785	2.38
241.162	2.52
241.539	2.41
241.915	2.14
242.292	2.26
242.668	2.43
243.045	2.67
243.421	2.69
243.798	2.94
244.174	3.2
244.551	3.46
244.927	3.35
245.303	3.16
245.679	3.27
246.056	3.28
246.432	3.22
246.808	3.17
247.184	2.82
247.56	2.78
247.936	2.81
248.312	2.86
248.688	3.09
249.064	2.77
249.44	2.67
249.815	2.88
250.191	3.13
250.567	3.1
250.943	2.92
251.318	2.63
251.694	2.81
252.069	2.9
252.445	2.89
252.82	2.92
253.196	2.79
253.571	2.62
253.947	2.72
254.322	2.89
254.697	2.86
255.073	2.95
255.448	2.63
255.823	2.41
256.198	2.42
256.573	2.33
256.948	2.43
257.323	2.62
257.698	2.46
258.073	2.43
258.448	2.56
258.823	2.7
259.198	2.75
259.573	2.58
259.948	2.54
260.322	2.62
260.697	2.64
261.072	2.65
261.446	2.73
261.821	2.53
262.195	2.56
262.57	2.67
262.944	2.71
263.319	2.84
263.693	2.95
264.067	2.89
264.442	2.97
264.816	2.81
265.19	2.7
265.564	2.72
265.938	2.48
266.313	2.28
266.687	2.27
267.061	2.37
267.435	2.44
267.809	2.52
268.183	2.36
268.556	2.3
268.93	2.47
269.304	2.37
269.678	2.58
270.051	2.42
270.425	2.32
270.799	2.13
271.172	2.19
271.546	2.12
271.919	2.14
272.293	2.03
272.666	2.28
273.04	2.18
273.413	2.07
273.787	2.34
274.16	2.28
274.533	2.27
274.906	2.36
275.279	2.28
275.653	2.26
276.026	2.15
276.399	2.37
276.772	2.32
277.145	2.28
277.518	2.18
277.891	2.24
278.263	2.15
278.636	2.23
279.009	2.14
279.382	2.35
279.755	2.5
280.127	2.79
280.5	2.86
280.872	2.94
281.245	3.08
281.617	3.04
281.99	3.24
282.362	3.29
282.735	3.24
283.107	3.31
283.479	3.26
283.852	3.32
284.224	3.25
284.596	3.23
284.968	3.36
285.34	3.44
285.713	3.44
286.085	3.49
286.457	3.62
286.829	3.8
287.201	3.69
287.572	3.62
287.944	3.46
288.316	3.34
288.688	3.36
289.06	3.38
289.431	3.4
289.803	3.31
290.175	3.34
290.546	3.36
290.918	3.36
291.289	3.35
291.661	3.48
292.032	3.47
292.403	3.45
292.775	3.56
293.146	3.47
293.517	3.49
293.889	3.54
294.26	3.58
294.631	3.53
295.002	3.43
295.373	3.45
295.744	3.44
296.115	3.56
296.486	3.53
296.857	3.53
297.228	3.47
297.599	3.46
297.97	3.4
298.34	3.45
298.711	3.45
299.082	3.35
299.452	3.39
299.823	3.53
300.194	3.59
300.564	3.36
300.935	3.49
301.305	3.51
301.676	3.57
302.046	3.5
302.416	3.5
302.787	3.69
303.157	3.58
303.527	3.65
303.897	3.68
304.267	3.78
304.637	3.78
305.008	3.89
305.378	4.02
305.748	4.09
306.117	4.07
306.487	4.1
306.857	4.13
307.227	4.06
307.597	4.01
307.967	3.97
308.336	4.08
308.706	4.05
309.076	4.03
309.445	3.98
309.815	4.04
310.184	3.95
310.554	3.94
310.923	3.92
311.293	3.86
311.662	3.77
312.031	3.73
312.401	3.74
312.77	3.7
313.139	3.59
313.508	3.57
313.877	3.48
314.246	3.47
314.616	3.57
314.985	3.53
315.353	3.41
315.722	3.36
316.091	3.42
316.46	3.37
316.829	3.39
317.198	3.38
317.567	3.29
317.935	3.27
318.304	3.35
318.672	3.47
319.041	3.61
319.41	3.66
319.778	3.68
320.147	3.64
320.515	3.75
320.883	3.81
321.252	3.85
321.62	4
321.988	4.03
322.357	3.91
322.725	3.9
323.093	3.92
323.461	4.18
323.829	4.05
324.197	4.2
324.565	4.21
324.933	4.32
325.301	4.29
325.669	4.3
326.037	4.18
326.405	4.16
326.772	4.27
327.14	4.29
327.508	4.33
327.875	4.39
328.243	4.32
328.61	4.23
328.978	4.2
329.346	4.1
329.713	4
330.08	4.09
330.448	4.05
330.815	4.17
331.182	4.09
331.55	4.24
331.917	4.21
332.284	4.31
332.651	4.23
333.018	4.29
333.385	4.52
333.752	4.61
334.119	4.61
334.486	4.55
334.853	4.55
335.22	4.49
335.587	4.54
335.954	4.44
336.32	4.51
336.687	4.53
337.054	4.56
337.42	4.65
337.787	4.77
338.153	4.87
338.52	4.84
338.886	4.8
339.253	4.71
339.619	4.77
339.986	4.76
340.352	4.81
340.718	4.78
341.084	4.61
341.451	4.62
341.817	4.62
342.183	4.52
342.549	4.45
342.915	4.54
343.281	4.59
343.647	4.59
344.013	4.65
344.379	4.62
344.745	4.58
345.11	4.59
345.476	4.52
345.842	4.44
346.208	4.42
346.573	4.51
346.939	4.57
347.304	4.36
347.67	4.24
348.035	4.28
348.401	4.33
348.766	4.36
349.132	4.32
349.497	4.3
349.862	4.3
350.228	4.42
350.593	4.37
350.958	4.33
351.323	4.35
351.688	4.38
352.053	4.45
352.418	4.54
352.783	4.58
353.148	4.59
353.513	4.62
353.878	4.63
354.243	4.57
354.608	4.49
354.972	4.63
355.337	4.65
355.702	4.62
356.066	4.72
356.431	4.74
356.795	4.87
357.16	4.96
357.524	5
357.889	5.01
358.253	4.98
358.618	4.98
358.982	4.97
359.346	4.89
359.71	4.87
360.075	4.88
360.439	4.88
360.803	4.87
361.167	4.91
361.531	4.86
361.895	4.86
362.259	4.85
362.623	4.85
362.987	4.88
363.351	4.92
363.714	4.87
364.078	4.79
364.442	4.67
364.806	4.58
365.169	4.52
365.533	4.45
365.896	4.53
366.26	4.52
366.623	4.56
366.987	4.59
367.35	4.59
367.714	4.57
368.077	4.55
368.44	4.57
368.803	4.5
369.167	4.43
369.53	4.4
369.893	4.47
370.256	4.44
370.619	4.39
370.982	4.26
371.345	4.23
371.708	4.26
372.071	4.23
372.434	4.28
372.797	4.31
373.159	4.29
373.522	4.2
373.885	4.19
374.247	4.14
374.61	4.13
374.973	4.08
375.335	4.01
375.698	3.96
376.06	3.87
376.423	3.81
376.785	3.93
377.147	3.92
377.51	3.95
377.872	3.94
378.234	3.91
378.596	3.95
378.958	3.86
379.321	3.88
379.683	3.88
380.045	3.84
380.407	3.82
380.769	3.78
381.13	3.76
381.492	3.71
381.854	3.77
382.216	3.7
382.578	3.7
382.939	3.69
383.301	3.66
383.663	3.65
384.024	3.68
384.386	3.67
384.747	3.66
385.109	3.56
385.47	3.55
385.832	3.57
386.193	3.57
386.554	3.6
386.916	3.59
387.277	3.58
387.638	3.59
387.999	3.61
388.36	3.61
388.721	3.65
389.082	3.65
389.443	3.57
389.804	3.63
390.165	3.63
390.526	3.69
390.887	3.74
391.248	3.78
391.609	3.76
391.969	3.71
392.33	3.71
392.691	3.72
393.051	3.68
393.412	3.68
393.772	3.65
394.133	3.65
394.493	3.66
394.854	3.63
395.214	3.61
395.574	3.6
395.935	3.59
396.295	3.56
396.655	3.53
397.015	3.56
397.376	3.55
397.736	3.54
398.096	3.48
398.456	3.43
398.816	3.41
399.176	3.38
399.535	3.35
399.895	3.33
400.255	3.3
400.615	3.28
400.975	3.25
401.334	3.26
401.694	3.23
402.054	3.18
402.413	3.18
402.773	3.16
403.132	3.14
403.492	3.14
403.851	3.12
404.211	3.13
404.57	3.1
404.929	3.11
405.288	3.08
405.648	3.05
406.007	3.06
406.366	3.02
406.725	3.05
407.084	3.09
407.443	3.08
407.802	3.12
408.161	3.12
408.52	3.13
408.879	3.13
409.238	3.14
409.596	3.14
409.955	3.14
410.314	3.16
410.673	3.15
411.031	3.13
411.39	3.15
411.748	3.15
412.107	3.19
412.465	3.14
412.824	3.16
413.182	3.17
413.54	3.16
413.899	3.18
414.257	3.17
414.615	3.13
414.974	3.15
415.332	3.13
415.69	3.16
416.048	3.15
416.406	3.14
416.764	3.13
417.122	3.13
417.48	3.13
417.838	3.11
418.195	3.1
418.553	3.1
418.911	3.11
419.269	3.1
419.626	3.08
419.984	3.08
420.342	3.07
420.699	3.08
421.057	3.09
421.414	3.08
421.772	3.07
422.129	3.08
422.486	3.06
422.844	3.05
423.201	3.03
423.558	3.03
423.915	3.02
424.273	3.03
424.63	3.02
424.987	3.02
425.344	3.03
425.701	3.05
426.058	3.06
426.415	3.05
426.772	3.05
427.128	3.05
427.485	3.06
427.842	3.05
428.199	3.06
428.555	3.05
428.912	3.06
429.269	3.06
429.625	3.06
429.982	3.05
430.338	3.04
430.695	3.05
431.051	3.06
431.407	3.05
431.764	3.04
432.12	3.04
432.476	3.03
432.832	3.03
433.189	3
433.545	2.98
433.901	3
434.257	3
434.613	3.03
434.969	3.02
435.325	3.03
435.681	3.02
436.036	3.02
436.392	3.01
436.748	3.02
437.104	3.04
437.459	3.05
437.815	3.05
438.171	3.06
438.526	3.08
438.882	3.09
439.237	3.1
439.593	3.1
439.948	3.1
440.304	3.11
440.659	3.12
441.014	3.13
441.369	3.1
441.725	3.09
442.08	3.07
442.435	3.06
442.79	3.05
443.145	3.06
443.5	3.04
443.855	3.04
444.21	3.03
444.565	3.02
444.92	3.02
445.275	3.01
445.629	3
445.984	2.98
446.339	2.97
446.693	2.96
447.048	2.96
447.403	2.96
447.757	2.95
448.112	2.93
448.466	2.94
448.82	2.95
449.175	2.96
449.529	2.97
449.883	2.97
450.238	2.97
450.592	2.96
450.946	2.96
451.3	2.96
451.654	2.96
452.008	2.97
452.362	2.96
452.716	2.96
453.07	2.97
453.424	2.99
453.778	2.99
454.132	2.98
454.486	2.97
454.839	2.96
455.193	2.95
455.547	2.97
455.9	2.95
456.254	2.96
456.607	2.96
456.961	2.96
457.314	2.97
457.668	2.97
458.021	2.96
458.375	2.98
458.728	2.99
459.081	2.99
459.434	2.98
459.787	3
460.141	3
460.494	2.99
460.847	2.98
461.2	2.96
461.553	2.98
461.906	3
462.259	3
462.611	3.02
462.964	3.04
463.317	3.02
463.67	3.02
464.022	3.01
464.375	3
464.728	3.01
465.08	3.02
465.433	3.02
465.785	3.01
466.138	2.99
466.49	3
466.843	2.99
467.195	2.99
467.547	3.02
467.899	3.05
468.252	3.04
468.604	3.07
468.956	3.07
469.308	3.07
469.66	3.05
470.012	3.06
470.364	3.04
470.716	3.06
471.068	3.06
471.42	3.07
471.772	3.1
472.123	3.09
472.475	3.09
472.827	3.09
473.178	3.12
473.53	3.12
473.882	3.11
474.233	3.09
474.585	3.07
474.936	3.05
475.288	3.04
475.639	3.03
475.99	3.02
476.342	3.01
476.693	3.02
477.044	3.05
477.395	3.03
477.746	3.03
478.097	3.02
478.448	3.02
478.8	3.02
479.15	3.01
479.501	3.01
479.852	3
480.203	3.01
480.554	3.02
480.905	3.03
481.255	3.04
481.606	3.07
481.957	3.08
482.307	3.09
482.658	3.09
483.009	3.09
483.359	3.1
483.709	3.1
484.06	3.1
484.41	3.09
484.761	3.09
485.111	3.09
485.461	3.1
485.811	3.1
486.162	3.1
486.512	3.1
486.862	3.11
487.212	3.11
487.562	3.1
487.912	3.1
488.262	3.09
488.612	3.09
488.961	3.09
489.311	3.08
489.661	3.07
490.011	3.08
490.36	3.08
490.71	3.08
491.06	3.08
491.409	3.08
491.759	3.08
492.108	3.09
492.458	3.09
492.807	3.08
493.157	3.08
493.506	3.09
493.855	3.09
494.204	3.09
494.554	3.11
494.903	3.12
495.252	3.13
495.601	3.16
495.95	3.17
496.299	3.16
496.648	3.16
496.997	3.18
497.346	3.19
497.695	3.19
498.043	3.19
498.392	3.19
498.741	3.19
499.09	3.2
499.438	3.21
499.787	3.22
500.135	3.24
500.484	3.25
500.832	3.27
501.181	3.27
501.529	3.3
501.878	3.3
502.226	3.33
502.574	3.34
502.923	3.34
503.271	3.35
503.619	3.39
503.967	3.4
504.315	3.4
504.663	3.41
505.011	3.45
505.359	3.47
505.707	3.52
506.055	3.55
506.403	3.56
506.751	3.58
507.098	3.62
507.446	3.66
507.794	3.65
508.141	3.66
508.489	3.67
508.837	3.69
509.184	3.71
509.531	3.72
509.879	3.75
510.226	3.8
510.574	3.82
510.921	3.82
511.268	3.85
511.616	3.89
511.963	3.92
512.31	3.93
512.657	3.97
513.004	3.99
513.351	4.03
513.698	4.07
514.045	4.1
514.392	4.13
514.739	4.13
515.086	4.2
515.432	4.23
515.779	4.28
516.126	4.33
516.473	4.38
516.819	4.42
517.166	4.46
517.512	4.47
517.859	4.49
518.205	4.54
518.552	4.57
518.898	4.61
519.245	4.64
519.591	4.68
519.937	4.72
520.283	4.76
520.629	4.81
520.976	4.87
521.322	4.92
521.668	4.97
522.014	5.04
522.36	5.1
522.706	5.16
523.052	5.25
523.398	5.31
523.743	5.41
524.089	5.47
524.435	5.55
524.781	5.64
525.126	5.71
525.472	5.79
525.817	5.86
526.163	5.9
526.509	5.96
526.854	6.02
527.199	6.09
527.545	6.13
527.89	6.17
528.235	6.23
528.581	6.3
528.926	6.36
529.271	6.43
529.616	6.49
529.961	6.56
530.306	6.62
530.651	6.69
530.996	6.74
531.341	6.81
531.686	6.9
532.031	6.99
532.376	7.06
532.721	7.15
533.065	7.23
533.41	7.35
533.755	7.46
534.099	7.55
534.444	7.66
534.788	7.78
535.133	7.89
535.477	8.01
535.822	8.13
536.166	8.26
536.51	8.39
536.855	8.55
537.199	8.73
537.543	8.91
537.887	9.11
538.231	9.29
538.576	9.49
538.92	9.66
539.264	9.84
539.608	10.04
539.951	10.2
540.295	10.38
540.639	10.56
540.983	10.72
541.327	10.87
541.671	11.03
542.014	11.2
542.358	11.37
542.701	11.53
543.045	11.7
543.389	11.89
543.732	12.05
544.075	12.24
544.419	12.41
544.762	12.58
545.105	12.77
545.449	13
545.792	13.22
546.135	13.46
546.478	13.67
546.821	13.91
547.165	14.19
547.508	14.46
547.851	14.69
548.194	14.97
548.536	15.27
548.879	15.54
549.222	15.81
549.565	16.1
549.908	16.38
550.25	16.67
550.593	16.96
550.936	17.3
551.278	17.61
551.621	17.89
551.963	18.21
552.306	18.53
552.648	18.82
552.991	19.14
553.333	19.41
553.675	19.72
554.017	20
554.36	20.23
554.702	20.5
555.044	20.82
555.386	21.13
555.728	21.43
556.07	21.74
556.412	22.06
556.754	22.4
557.096	22.73
557.438	23.04
557.78	23.38
558.121	23.72
558.463	24.06
558.805	24.4
559.147	24.72
559.488	25.01
559.83	25.3
560.171	25.63
560.513	25.98
560.854	26.27
561.196	26.63
561.537	26.96
561.878	27.25
562.22	27.57
562.561	27.87
562.902	28.16
563.243	28.48
563.584	28.79
563.925	29.05
564.266	29.31
564.607	29.59
564.948	29.85
565.289	30.1
565.63	30.39
565.971	30.64
566.312	30.87
566.653	31.2
566.993	31.49
567.334	31.76
567.675	32.01
568.015	32.32
568.356	32.56
568.696	32.84
569.037	33.16
569.377	33.4
569.718	33.65
570.058	33.91
570.398	34.14
570.739	34.4
571.079	34.64
571.419	34.92
571.759	35.15
572.099	35.4
572.439	35.6
572.779	35.82
573.119	36.06
573.459	36.34
573.799	36.49
574.139	36.71
574.479	36.86
574.819	37.09
575.158	37.29
575.498	37.55
575.838	37.78
576.177	37.9
576.517	38.11
576.856	38.35
577.196	38.59
577.535	38.78
577.875	38.97
578.214	39.17
578.553	39.35
578.893	39.53
579.232	39.71
579.571	39.93
579.91	40.15
580.25	40.31
580.589	40.43
580.928	40.69
581.267	40.85
581.606	41.07
581.945	41.27
582.283	41.36
582.622	41.46
582.961	41.62
583.3	41.87
583.639	42.05
583.977	42.17
584.316	42.34
584.654	42.58
584.993	42.75
585.332	42.92
585.67	43.1
586.008	43.3
586.347	43.48
586.685	43.65
587.024	43.79
587.362	43.99
587.7	44.17
588.038	44.3
588.376	44.49
588.715	44.63
589.053	44.72
589.391	45
589.729	45.17
590.067	45.32
590.404	45.48
590.742	45.58
591.08	45.73
591.418	45.85
591.756	46
592.093	46.14
592.431	46.3
592.769	46.46
593.106	46.63
593.444	46.82
593.781	46.89
594.119	47.04
594.456	47.16
594.793	47.28
595.131	47.39
595.468	47.44
595.805	47.55
596.143	47.63
596.48	47.68
596.817	47.78
597.154	47.89
597.491	48.03
597.828	48.17
598.165	48.3
598.502	48.39
598.839	48.43
599.176	48.57
599.512	48.74
599.849	48.84
600.186	48.91
600.523	48.97
600.859	49.18
601.196	49.27
601.532	49.31
601.869	49.35
602.205	49.43
602.542	49.58
602.878	49.71
603.215	49.81
603.551	49.87
603.887	49.96
604.223	50.05
604.56	50.09
604.896	50.22
605.232	50.22
605.568	50.35
605.904	50.49
606.24	50.57
606.576	50.63
606.912	50.72
607.248	50.77
607.583	50.88
607.919	50.93
608.255	51.01
608.591	51.26
608.926	51.41
609.262	51.57
609.597	51.61
609.933	51.64
610.268	51.74
610.604	51.86
610.939	51.86
611.275	51.87
611.61	51.95
611.945	52
612.281	52.13
612.616	52.19
612.951	52.17
613.286	52.24
613.621	52.25
613.956	52.29
614.291	52.36
614.626	52.42
614.961	52.44
615.296	52.46
615.631	52.32
615.966	52.35
616.3	52.31
616.635	52.38
616.97	52.42
617.304	52.47
617.639	52.54
617.973	52.63
618.308	52.63
618.642	52.71
618.977	52.7
619.311	52.78
619.646	52.8
619.98	52.89
620.314	52.98
620.648	52.9
620.983	52.96
621.317	53.15
621.651	53.13
621.985	53.18
622.319	53.26
622.653	53.41
622.987	53.53
623.321	53.66
623.655	53.78
623.988	53.87
624.322	53.87
624.656	53.92
624.99	54.02
625.323	54.11
625.657	54.16
625.99	54.26
626.324	54.23
626.657	54.35
626.991	54.38
627.324	54.36
627.658	54.52
627.991	54.61
628.324	54.51
628.657	54.52
628.991	54.56
629.324	54.64
629.657	54.68
629.99	54.65
630.323	54.67
630.656	54.72
630.989	54.76
631.322	54.83
631.655	54.92
631.987	55.01
632.32	55.11
632.653	55.12
632.986	55.21
633.318	55.28
633.651	55.21
633.984	55.31
634.316	55.35
634.649	55.31
634.981	55.33
635.313	55.53
635.646	55.68
635.978	55.78
636.31	55.86
636.643	55.86
636.975	55.91
637.307	55.91
637.639	55.81
637.971	55.82
638.303	55.91
638.635	55.87
638.967	55.81
639.299	55.87
639.631	55.97
639.963	55.9
640.295	55.82
640.626	55.92
640.958	55.9
641.29	55.98
641.621	56.03
641.953	56.07
642.285	56.05
642.616	56.09
642.948	56.15
643.279	56.09
643.61	56.1
643.942	56.21
644.273	56.39
644.604	56.53
644.936	56.5
645.267	56.46
645.598	56.49
645.929	56.62
646.26	56.52
646.591	56.54
646.922	56.56
647.253	56.72
647.584	56.83
647.915	56.78
648.245	56.72
648.576	56.72
648.907	56.76
649.238	56.79
649.568	56.83
649.899	56.88
650.229	56.92
650.56	56.98
650.89	56.95
651.221	56.86
651.551	56.81
651.882	56.98
652.212	57.08
652.542	56.99
652.872	56.96
653.203	57.14
653.533	57.02
653.863	57
654.193	56.97
654.523	57.03
654.853	57.08
655.183	57.22
655.513	57.34
655.843	57.33
656.172	57.32
656.502	57.33
656.832	57.38
657.162	57.38
657.491	57.33
657.821	57.34
658.15	57.32
658.48	57.35
658.809	57.29
659.139	57.26
659.468	57.48
659.798	57.47
660.127	57.41
660.456	57.54
660.785	57.61
661.115	57.81
661.444	57.74
661.773	57.8
662.102	57.8
662.431	57.8
662.76	57.8
663.089	57.75
663.418	57.71
663.747	57.69
664.076	57.74
664.404	57.87
664.733	57.93
665.062	57.97
665.39	58.01
665.719	58.18
666.048	58.16
