Data from BA28474_Reflection_00010.txt Node
Date: Mon Nov 18 15:30:51 EST 2019
User: vgr7
Spectrometer: USB2G7710
Scans to average: 3
Trigger mode: 4
Integration Time (sec): 2.000000E-2
Electric dark correction enabled: true
Boxcar width: 10
XAxis mode: Wavelengths
Number of Pixels in Spectrum: 2048
>>>>>Begin Spectral Data<<<<<
177.721	51.23
178.105	59.03
178.488	63.93
178.871	31.2
179.254	5.47
179.636	94.91
180.019	408.18
180.402	80
180.785	-121.78
181.168	61.44
181.55	-12.23
181.933	307.21
182.316	74.93
182.698	72.66
183.081	109.74
183.463	159.47
183.846	160.72
184.228	15544.44
184.611	-495.7
184.993	-290.01
185.376	-111.71
185.758	-113.28
186.14	-91.24
186.522	-78.33
186.904	-92.29
187.287	-114.96
187.669	-90.82
188.051	-185.81
188.433	-122.4
188.815	-120.26
189.197	-166.55
189.579	-157.54
189.961	-79.28
190.342	-57.07
190.724	-59.52
191.106	-43.06
191.488	-44.6
191.869	-46.24
192.251	-33.26
192.633	-26.4
193.014	-44.09
193.396	-57.65
193.777	-49.71
194.159	-58.97
194.54	-68.28
194.922	-56.02
195.303	-81.97
195.684	-57.95
196.065	-44
196.447	-63.46
196.828	-70.13
197.209	-76.94
197.59	-67.3
197.971	-66.54
198.352	-49.26
198.733	-46.18
199.114	-49.54
199.495	-51.22
199.876	-37.25
200.257	-45.21
200.638	-37.51
201.018	-38.13
201.399	-23.88
201.78	-18.49
202.16	-23.49
202.541	-21.97
202.922	-56.98
203.302	-27.43
203.683	-67
204.063	-68.29
204.444	-68.18
204.824	-46.16
205.204	-23.94
205.585	-29.6
205.965	-25.45
206.345	-63.28
206.725	-110.56
207.106	-245
207.486	-216.62
207.866	-749.85
208.246	-225.61
208.626	-236.27
209.006	-69.97
209.386	-142.81
209.766	-130.12
210.145	-80.36
210.525	-58.85
210.905	-53.28
211.285	-53.87
211.664	-43.23
212.044	-50.41
212.424	-47.3
212.803	-47.37
213.183	-46.41
213.562	-45.88
213.942	-42.15
214.321	-39.58
214.701	-45.29
215.08	-21.23
215.459	-17.9
215.838	-8.67
216.218	-17.56
216.597	-13.11
216.976	-20.67
217.355	0.82
217.734	-11.11
218.113	-11.92
218.492	-34.05
218.871	-28.6
219.25	-12.87
219.629	-16.87
220.008	-14.93
220.387	3.6
220.766	-23.65
221.144	-42.03
221.523	-51.62
221.902	-62.35
222.28	-69.13
222.659	-36.88
223.037	-44.22
223.416	-46.26
223.794	-58.86
224.173	-68.01
224.551	-52.93
224.929	-44
225.308	-35.28
225.686	-22.17
226.064	-20.86
226.442	-12.02
226.821	-8.24
227.199	-14.83
227.577	-15.78
227.955	-11.11
228.333	-12.6
228.711	-8.15
229.089	-3.18
229.467	-0.21
229.845	2.71
230.222	3.98
230.6	2.76
230.978	2.48
231.356	4.49
231.733	5.93
232.111	5.99
232.488	5.56
232.866	7.35
233.243	6
233.621	4.41
233.998	5.17
234.376	3.79
234.753	3.49
235.13	5.28
235.508	7.36
235.885	8.95
236.262	9.12
236.639	9.33
237.016	8.75
237.393	8.34
237.77	7.78
238.147	7.58
238.524	6.28
238.901	7.19
239.278	6.54
239.655	6.75
240.032	6.54
240.409	6.57
240.785	6.6
241.162	7.04
241.539	7.2
241.915	6.6
242.292	6.3
242.668	6.24
243.045	6.08
243.421	5.93
243.798	5.43
244.174	5.15
244.551	4.98
244.927	4.7
245.303	4.8
245.679	4.89
246.056	4.56
246.432	4.71
246.808	4.72
247.184	4.64
247.56	4.41
247.936	4.32
248.312	4.06
248.688	4.18
249.064	4.15
249.44	3.89
249.815	4.09
250.191	4.37
250.567	4.57
250.943	4.6
251.318	4.61
251.694	4.59
252.069	4.7
252.445	4.97
252.82	5.09
253.196	5.06
253.571	4.94
253.947	4.94
254.322	5.29
254.697	4.9
255.073	4.78
255.448	4.84
255.823	4.75
256.198	4.82
256.573	4.45
256.948	4.34
257.323	4.47
257.698	4.33
258.073	4.26
258.448	4.05
258.823	3.91
259.198	3.72
259.573	3.63
259.948	3.53
260.322	3.51
260.697	3.53
261.072	3.36
261.446	3.34
261.821	3.47
262.195	3.46
262.57	3.62
262.944	3.68
263.319	3.58
263.693	3.6
264.067	3.78
264.442	3.98
264.816	4.01
265.19	3.75
265.564	3.74
265.938	3.56
266.313	3.69
266.687	3.82
267.061	3.97
267.435	4.01
267.809	4.1
268.183	4.01
268.556	3.96
268.93	4.26
269.304	4.15
269.678	4.26
270.051	4.24
270.425	4.1
270.799	4.02
271.172	4.04
271.546	4.04
271.919	3.96
272.293	3.75
272.666	3.58
273.04	3.74
273.413	3.89
273.787	4.04
274.16	3.88
274.533	3.86
274.906	3.84
275.279	3.88
275.653	3.89
276.026	3.79
276.399	3.6
276.772	3.44
277.145	3.35
277.518	3.28
277.891	3.25
278.263	3.18
278.636	3.29
279.009	3.38
279.382	3.64
279.755	3.65
280.127	3.75
280.5	3.91
280.872	3.94
281.245	3.94
281.617	3.93
281.99	3.98
282.362	4.12
282.735	4.03
283.107	4.01
283.479	3.99
283.852	4
284.224	4.18
284.596	4.21
284.968	4.48
285.34	4.43
285.713	4.36
286.085	4.54
286.457	4.56
286.829	4.57
287.201	4.47
287.572	4.29
287.944	4.19
288.316	4.28
288.688	4.38
289.06	4.25
289.431	4.25
289.803	4.26
290.175	4.27
290.546	4.53
290.918	4.56
291.289	4.48
291.661	4.67
292.032	4.65
292.403	4.66
292.775	4.58
293.146	4.61
293.517	4.56
293.889	4.53
294.26	4.6
294.631	4.64
295.002	4.63
295.373	4.9
295.744	5.11
296.115	5.04
296.486	4.93
296.857	4.98
297.228	5.08
297.599	5.08
297.97	5.06
298.34	4.97
298.711	5.08
299.082	5.2
299.452	5.2
299.823	5.29
300.194	5.34
300.564	5.38
300.935	5.47
301.305	5.58
301.676	5.71
302.046	5.61
302.416	5.68
302.787	5.75
303.157	5.57
303.527	5.48
303.897	5.57
304.267	5.77
304.637	5.98
305.008	5.87
305.378	6.13
305.748	6.21
306.117	6.2
306.487	6.28
306.857	6.44
307.227	6.44
307.597	6.53
307.967	6.45
308.336	6.56
308.706	6.5
309.076	6.52
309.445	6.42
309.815	6.51
310.184	6.45
310.554	6.53
310.923	6.59
311.293	6.63
311.662	6.66
312.031	6.66
312.401	6.65
312.77	6.7
313.139	6.61
313.508	6.63
313.877	6.68
314.246	6.7
314.616	6.72
314.985	6.7
315.353	6.66
315.722	6.91
316.091	6.79
316.46	6.96
316.829	7.08
317.198	7.34
317.567	7.42
317.935	7.43
318.304	7.43
318.672	7.58
319.041	7.87
319.41	7.99
319.778	7.92
320.147	7.85
320.515	7.94
320.883	8.18
321.252	8.27
321.62	8.36
321.988	8.4
322.357	8.37
322.725	8.44
323.093	8.54
323.461	8.43
323.829	8.67
324.197	8.77
324.565	8.9
324.933	8.85
325.301	8.8
325.669	8.93
326.037	8.93
326.405	9.06
326.772	8.97
327.14	8.9
327.508	8.95
327.875	8.97
328.243	9.04
328.61	8.89
328.978	8.91
329.346	9.05
329.713	8.96
330.08	9.03
330.448	9.12
330.815	9.09
331.182	9.15
331.55	8.99
331.917	8.87
332.284	8.83
332.651	8.6
333.018	8.73
333.385	8.74
333.752	8.82
334.119	8.81
334.486	8.77
334.853	8.82
335.22	8.92
335.587	9.07
335.954	9.05
336.32	9.07
336.687	9.09
337.054	9.03
337.42	9.11
337.787	9.19
338.153	9.08
338.52	9.12
338.886	9.23
339.253	9.29
339.619	9.32
339.986	9.34
340.352	9.65
340.718	9.68
341.084	9.75
341.451	9.68
341.817	9.76
342.183	9.88
342.549	9.84
342.915	9.86
343.281	9.8
343.647	9.78
344.013	9.85
344.379	9.84
344.745	9.77
345.11	9.77
345.476	9.84
345.842	9.93
346.208	9.97
346.573	9.89
346.939	10.04
347.304	10.13
347.67	10.1
348.035	10.05
348.401	10.09
348.766	10.07
349.132	10.15
349.497	10.11
349.862	10.11
350.228	10.22
350.593	10.21
350.958	10.3
351.323	10.36
351.688	10.35
352.053	10.4
352.418	10.5
352.783	10.51
353.148	10.44
353.513	10.49
353.878	10.52
354.243	10.59
354.608	10.5
354.972	10.45
355.337	10.38
355.702	10.41
356.066	10.37
356.431	10.37
356.795	10.33
357.16	10.24
357.524	10.19
357.889	10.12
358.253	10.08
358.618	10.05
358.982	9.98
359.346	9.95
359.71	9.87
360.075	9.84
360.439	9.84
360.803	9.79
361.167	9.72
361.531	9.61
361.895	9.54
362.259	9.46
362.623	9.47
362.987	9.48
363.351	9.38
363.714	9.34
364.078	9.24
364.442	9.22
364.806	9.16
365.169	9.1
365.533	9.06
365.896	9.04
366.26	9.02
366.623	9.05
366.987	9.01
367.35	9
367.714	8.91
368.077	8.79
368.44	8.81
368.803	8.73
369.167	8.69
369.53	8.64
369.893	8.67
370.256	8.65
370.619	8.61
370.982	8.6
371.345	8.52
371.708	8.54
372.071	8.46
372.434	8.42
372.797	8.44
373.159	8.38
373.522	8.36
373.885	8.3
374.247	8.23
374.61	8.14
374.973	8.04
375.335	7.99
375.698	7.99
376.06	7.84
376.423	7.8
376.785	7.8
377.147	7.79
377.51	7.72
377.872	7.68
378.234	7.6
378.596	7.57
378.958	7.52
379.321	7.41
379.683	7.36
380.045	7.3
380.407	7.23
380.769	7.17
381.13	7.04
381.492	6.94
381.854	6.88
382.216	6.83
382.578	6.82
382.939	6.75
383.301	6.68
383.663	6.64
384.024	6.6
384.386	6.57
384.747	6.51
385.109	6.5
385.47	6.41
385.832	6.4
386.193	6.38
386.554	6.32
386.916	6.3
387.277	6.25
387.638	6.29
387.999	6.22
388.36	6.17
388.721	6.18
389.082	6.16
389.443	6.1
389.804	6.03
390.165	5.97
390.526	5.98
390.887	5.95
391.248	5.96
391.609	5.96
391.969	5.94
392.33	5.89
392.691	5.81
393.051	5.76
393.412	5.72
393.772	5.63
394.133	5.63
394.493	5.59
394.854	5.56
395.214	5.5
395.574	5.46
395.935	5.45
396.295	5.41
396.655	5.34
397.015	5.27
397.376	5.29
397.736	5.27
398.096	5.2
398.456	5.16
398.816	5.11
399.176	5.02
399.535	4.95
399.895	4.9
400.255	4.88
400.615	4.88
400.975	4.84
401.334	4.83
401.694	4.81
402.054	4.78
402.413	4.76
402.773	4.71
403.132	4.69
403.492	4.67
403.851	4.61
404.211	4.57
404.57	4.58
404.929	4.54
405.288	4.52
405.648	4.5
406.007	4.47
406.366	4.46
406.725	4.47
407.084	4.47
407.443	4.46
407.802	4.44
408.161	4.41
408.52	4.4
408.879	4.4
409.238	4.37
409.596	4.36
409.955	4.34
410.314	4.37
410.673	4.36
411.031	4.34
411.39	4.35
411.748	4.38
412.107	4.37
412.465	4.34
412.824	4.3
413.182	4.31
413.54	4.32
413.899	4.29
414.257	4.24
414.615	4.19
414.974	4.16
415.332	4.14
415.69	4.12
416.048	4.08
416.406	4.05
416.764	4.04
417.122	4.02
417.48	4
417.838	3.97
418.195	3.96
418.553	3.94
418.911	3.92
419.269	3.91
419.626	3.89
419.984	3.88
420.342	3.87
420.699	3.85
421.057	3.83
421.414	3.82
421.772	3.8
422.129	3.8
422.486	3.79
422.844	3.78
423.201	3.77
423.558	3.76
423.915	3.75
424.273	3.72
424.63	3.7
424.987	3.7
425.344	3.69
425.701	3.68
426.058	3.66
426.415	3.66
426.772	3.64
427.128	3.62
427.485	3.63
427.842	3.61
428.199	3.6
428.555	3.57
428.912	3.57
429.269	3.59
429.625	3.58
429.982	3.57
430.338	3.56
430.695	3.57
431.051	3.56
431.407	3.57
431.764	3.59
432.12	3.6
432.476	3.6
432.832	3.59
433.189	3.59
433.545	3.61
433.901	3.63
434.257	3.63
434.613	3.63
434.969	3.63
435.325	3.64
435.681	3.64
436.036	3.64
436.392	3.65
436.748	3.64
437.104	3.65
437.459	3.65
437.815	3.67
438.171	3.66
438.526	3.66
438.882	3.68
439.237	3.68
439.593	3.68
439.948	3.68
440.304	3.68
440.659	3.67
441.014	3.67
441.369	3.64
441.725	3.62
442.08	3.62
442.435	3.62
442.79	3.6
443.145	3.61
443.5	3.6
443.855	3.59
444.21	3.59
444.565	3.6
444.92	3.59
445.275	3.56
445.629	3.55
445.984	3.55
446.339	3.51
446.693	3.49
447.048	3.48
447.403	3.46
447.757	3.44
448.112	3.44
448.466	3.42
448.82	3.41
449.175	3.41
449.529	3.42
449.883	3.4
450.238	3.39
450.592	3.38
450.946	3.38
451.3	3.36
451.654	3.35
452.008	3.32
452.362	3.31
452.716	3.33
453.07	3.33
453.424	3.32
453.778	3.33
454.132	3.32
454.486	3.33
454.839	3.32
455.193	3.33
455.547	3.32
455.9	3.32
456.254	3.34
456.607	3.35
456.961	3.34
457.314	3.35
457.668	3.36
458.021	3.35
458.375	3.35
458.728	3.35
459.081	3.35
459.434	3.34
459.787	3.34
460.141	3.35
460.494	3.35
460.847	3.35
461.2	3.34
461.553	3.35
461.906	3.35
462.259	3.36
462.611	3.37
462.964	3.39
463.317	3.4
463.67	3.4
464.022	3.4
464.375	3.42
464.728	3.44
465.08	3.44
465.433	3.45
465.785	3.47
466.138	3.48
466.49	3.51
466.843	3.54
467.195	3.55
467.547	3.56
467.899	3.57
468.252	3.58
468.604	3.61
468.956	3.6
469.308	3.63
469.66	3.63
470.012	3.64
470.364	3.66
470.716	3.67
471.068	3.68
471.42	3.71
471.772	3.72
472.123	3.73
472.475	3.78
472.827	3.8
473.178	3.8
473.53	3.81
473.882	3.8
474.233	3.79
474.585	3.8
474.936	3.79
475.288	3.81
475.639	3.82
475.99	3.82
476.342	3.84
476.693	3.83
477.044	3.86
477.395	3.86
477.746	3.84
478.097	3.82
478.448	3.8
478.8	3.77
479.15	3.74
479.501	3.71
479.852	3.68
480.203	3.67
480.554	3.66
480.905	3.65
481.255	3.64
481.606	3.64
481.957	3.64
482.307	3.65
482.658	3.65
483.009	3.64
483.359	3.64
483.709	3.63
484.06	3.63
484.41	3.62
484.761	3.61
485.111	3.62
485.461	3.62
485.811	3.62
486.162	3.62
486.512	3.63
486.862	3.64
487.212	3.64
487.562	3.64
487.912	3.65
488.262	3.64
488.612	3.65
488.961	3.66
489.311	3.66
489.661	3.65
490.011	3.65
490.36	3.65
490.71	3.66
491.06	3.67
491.409	3.67
491.759	3.68
492.108	3.68
492.458	3.69
492.807	3.68
493.157	3.69
493.506	3.72
493.855	3.73
494.204	3.74
494.554	3.76
494.903	3.78
495.252	3.78
495.601	3.83
495.95	3.84
496.299	3.86
496.648	3.87
496.997	3.89
497.346	3.93
497.695	3.97
498.043	4.01
498.392	4.04
498.741	4.08
499.09	4.12
499.438	4.17
499.787	4.21
500.135	4.27
500.484	4.31
500.832	4.35
501.181	4.42
501.529	4.48
501.878	4.53
502.226	4.59
502.574	4.67
502.923	4.73
503.271	4.79
503.619	4.85
503.967	4.91
504.315	4.99
504.663	5.07
505.011	5.14
505.359	5.18
505.707	5.24
506.055	5.31
506.403	5.39
506.751	5.48
507.098	5.55
507.446	5.63
507.794	5.7
508.141	5.78
508.489	5.85
508.837	5.92
509.184	5.99
509.531	6.06
509.879	6.14
510.226	6.23
510.574	6.31
510.921	6.4
511.268	6.5
511.616	6.58
511.963	6.65
512.31	6.71
512.657	6.82
513.004	6.91
513.351	7.02
513.698	7.12
514.045	7.21
514.392	7.31
514.739	7.41
515.086	7.56
515.432	7.66
515.779	7.74
516.126	7.82
516.473	7.94
516.819	8.02
517.166	8.13
517.512	8.19
517.859	8.29
518.205	8.37
518.552	8.45
518.898	8.53
519.245	8.6
519.591	8.7
519.937	8.78
520.283	8.89
520.629	9.03
520.976	9.13
521.322	9.27
521.668	9.39
522.014	9.52
522.36	9.62
522.706	9.76
523.052	9.93
523.398	10.12
523.743	10.26
524.089	10.45
524.435	10.61
524.781	10.79
525.126	10.96
525.472	11.12
525.817	11.28
526.163	11.39
526.509	11.53
526.854	11.62
527.199	11.73
527.545	11.84
527.89	11.94
528.235	12.06
528.581	12.19
528.926	12.32
529.271	12.45
529.616	12.58
529.961	12.71
530.306	12.84
530.651	12.98
530.996	13.13
531.341	13.3
531.686	13.47
532.031	13.62
532.376	13.78
532.721	13.96
533.065	14.13
533.41	14.36
533.755	14.56
534.099	14.79
534.444	15.03
534.788	15.23
535.133	15.44
535.477	15.67
535.822	15.91
536.166	16.16
536.51	16.43
536.855	16.72
537.199	17.02
537.543	17.34
537.887	17.65
538.231	17.98
538.576	18.28
538.92	18.57
539.264	18.89
539.608	19.19
539.951	19.47
540.295	19.74
540.639	20
540.983	20.27
541.327	20.55
541.671	20.79
542.014	21.05
542.358	21.31
542.701	21.55
543.045	21.79
543.389	22.06
543.732	22.29
544.075	22.55
544.419	22.81
544.762	23.1
545.105	23.41
545.449	23.72
545.792	24.04
546.135	24.38
546.478	24.72
546.821	25.09
547.165	25.46
547.508	25.83
547.851	26.16
548.194	26.52
548.536	26.88
548.879	27.31
549.222	27.68
549.565	28.06
549.908	28.43
550.25	28.83
550.593	29.22
550.936	29.68
551.278	30.06
551.621	30.48
551.963	30.85
552.306	31.23
552.648	31.58
552.991	31.98
553.333	32.31
553.675	32.66
554.017	32.99
554.36	33.35
554.702	33.71
555.044	34.07
555.386	34.4
555.728	34.74
556.07	35.06
556.412	35.4
556.754	35.73
557.096	36.11
557.438	36.43
557.78	36.73
558.121	37.03
558.463	37.4
558.805	37.69
559.147	38.01
559.488	38.31
559.83	38.63
560.171	38.86
560.513	39.16
560.854	39.5
561.196	39.78
561.537	40
561.878	40.25
562.22	40.52
562.561	40.79
562.902	41.09
563.243	41.33
563.584	41.61
563.925	41.87
564.266	42.07
564.607	42.27
564.948	42.52
565.289	42.75
565.63	42.94
565.971	43.14
566.312	43.37
566.653	43.59
566.993	43.82
567.334	44
567.675	44.26
568.015	44.43
568.356	44.63
568.696	44.84
569.037	45.08
569.377	45.23
569.718	45.41
570.058	45.57
570.398	45.74
570.739	45.94
571.079	46.15
571.419	46.38
571.759	46.64
572.099	46.85
572.439	47.01
572.779	47.19
573.119	47.39
573.459	47.51
573.799	47.64
574.139	47.74
574.479	47.96
574.819	48.11
575.158	48.25
575.498	48.41
575.838	48.6
576.177	48.78
576.517	49.02
576.856	49.17
577.196	49.38
577.535	49.53
577.875	49.69
578.214	49.81
578.553	49.9
578.893	49.99
579.232	50.12
579.571	50.33
579.91	50.51
580.25	50.68
580.589	50.82
580.928	51.03
581.267	51.23
581.606	51.37
581.945	51.48
582.283	51.67
582.622	51.77
582.961	51.89
583.3	52.03
583.639	52.17
583.977	52.27
584.316	52.31
584.654	52.44
584.993	52.47
585.332	52.61
585.67	52.75
586.008	52.87
586.347	52.88
586.685	52.99
587.024	53.09
587.362	53.14
587.7	53.21
588.038	53.33
588.376	53.38
588.715	53.49
589.053	53.57
589.391	53.61
589.729	53.74
590.067	53.81
590.404	53.8
590.742	53.84
591.08	53.99
591.418	54.16
591.756	54.25
592.093	54.37
592.431	54.43
592.769	54.52
593.106	54.59
593.444	54.75
593.781	54.77
594.119	54.84
594.456	55
594.793	55.09
595.131	55.05
595.468	55.1
595.805	55.15
596.143	55.25
596.48	55.36
596.817	55.39
597.154	55.52
597.491	55.63
597.828	55.71
598.165	55.77
598.502	55.83
598.839	55.98
599.176	56.1
599.512	56.17
599.849	56.27
600.186	56.39
600.523	56.47
600.859	56.52
601.196	56.71
601.532	56.77
601.869	56.8
602.205	56.88
602.542	56.93
602.878	57.04
603.215	57.09
603.551	57.15
603.887	57.27
604.223	57.27
604.56	57.32
604.896	57.35
605.232	57.5
605.568	57.49
605.904	57.49
606.24	57.55
606.576	57.6
606.912	57.55
607.248	57.58
607.583	57.67
607.919	57.84
608.255	57.74
608.591	57.74
608.926	57.87
609.262	58.03
609.597	58.14
609.933	58.11
610.268	58.23
610.604	58.25
610.939	58.28
611.275	58.37
611.61	58.45
611.945	58.59
612.281	58.61
612.616	58.7
612.951	58.74
613.286	58.86
613.621	58.95
613.956	59.2
614.291	59.25
614.626	59.31
614.961	59.26
615.296	59.42
615.631	59.46
615.966	59.5
616.3	59.47
616.635	59.56
616.97	59.64
617.304	59.58
617.639	59.56
617.973	59.56
618.308	59.61
618.642	59.59
618.977	59.58
619.311	59.64
619.646	59.71
619.98	59.82
620.314	59.87
620.648	59.88
620.983	59.89
621.317	59.95
621.651	59.93
621.985	59.96
622.319	59.82
622.653	59.9
622.987	59.91
623.321	60.04
623.655	60
623.988	60.02
624.322	60.08
624.656	60.18
624.99	60.2
625.323	60.16
625.657	60.19
625.99	60.17
626.324	60.09
626.657	60.11
626.991	60.13
627.324	60.17
627.658	60.21
627.991	60.22
628.324	60.17
628.657	60.17
628.991	60.19
629.324	60.34
629.657	60.35
629.99	60.4
630.323	60.35
630.656	60.45
630.989	60.58
631.322	60.64
631.655	60.65
631.987	60.75
632.32	60.8
632.653	60.82
632.986	60.83
633.318	60.92
633.651	60.81
633.984	60.73
634.316	60.56
634.649	60.59
634.981	60.6
635.313	60.69
635.646	60.79
635.978	60.84
636.31	60.87
636.643	60.97
636.975	60.98
637.307	61.01
637.639	61.03
637.971	61.04
638.303	61.08
638.635	61.13
638.967	61.07
639.299	61.07
639.631	61.13
639.963	61.25
640.295	61.22
640.626	61.45
640.958	61.59
641.29	61.73
641.621	61.68
641.953	61.73
642.285	61.74
642.616	61.7
642.948	61.83
643.279	61.81
643.61	61.79
643.942	61.89
644.273	61.96
644.604	61.96
644.936	62
645.267	61.99
645.598	62.02
645.929	62.2
646.26	62.27
646.591	62.28
646.922	62.37
647.253	62.42
647.584	62.29
647.915	62.33
648.245	62.35
648.576	62.5
648.907	62.69
649.238	62.57
649.568	62.51
649.899	62.53
650.229	62.53
650.56	62.62
650.89	62.6
651.221	62.58
651.551	62.58
651.882	62.56
652.212	62.45
652.542	62.48
652.872	62.52
653.203	62.53
653.533	62.43
653.863	62.27
654.193	62.31
654.523	62.49
654.853	62.38
655.183	62.4
655.513	62.46
655.843	62.22
656.172	62.38
656.502	62.58
656.832	62.44
657.162	62.58
657.491	62.57
657.821	62.66
658.15	62.72
658.48	62.8
658.809	62.89
659.139	63.09
659.468	63.08
659.798	62.95
660.127	63.03
660.456	63.13
660.785	63.23
661.115	63.22
661.444	63.16
661.773	63.17
662.102	63.2
662.431	63.06
662.76	63.12
663.089	63.2
663.418	63.24
663.747	63.4
664.076	63.4
664.404	63.21
664.733	63.16
665.062	63.2
665.39	63.17
665.719	63.06
666.048	63
666.376	63.03
666.705	63.02
