Data from BA28468_Reflection_00001.txt Node
Date: Mon Nov 18 15:14:38 EST 2019
User: vgr7
Spectrometer: USB2G7710
Scans to average: 3
Trigger mode: 4
Integration Time (sec): 2.000000E-2
Electric dark correction enabled: true
Boxcar width: 10
XAxis mode: Wavelengths
Number of Pixels in Spectrum: 2048
>>>>>Begin Spectral Data<<<<<
177.721	56.49
178.105	814.29
178.488	22.32
178.871	53.97
179.254	74.03
179.636	-228.95
180.019	28.11
180.402	34.55
180.785	14.33
181.168	-96.13
181.55	-104.51
181.933	-1076.47
182.316	-393.51
182.698	-344.91
183.081	-203.65
183.463	-179.43
183.846	-7592.31
184.228	-880.13
184.611	-300
184.993	-109.6
185.376	-65.89
185.758	-65.25
186.14	-88.2
186.522	-120.23
186.904	-74.11
187.287	-93.86
187.669	-61.75
188.051	-67.84
188.433	-47.64
188.815	-44.63
189.197	-44.2
189.579	-43.15
189.961	-64.28
190.342	-46.61
190.724	-39.24
191.106	-48
191.488	-34.31
191.869	-27.91
192.251	-22.22
192.633	-10.17
193.014	-20.34
193.396	-37.05
193.777	-26.74
194.159	-26.08
194.54	-20.53
194.922	-22.22
195.303	-23.2
195.684	-18.1
196.065	-9.01
196.447	-11.19
196.828	-20.62
197.209	-11.5
197.59	-14.35
197.971	-16.54
198.352	-20.11
198.733	-19.82
199.114	-1.35
199.495	-9.17
199.876	-22.12
200.257	-26.18
200.638	-29.75
201.018	-27.8
201.399	-21.74
201.78	-20.61
202.16	-30.83
202.541	-40.64
202.922	-46.48
203.302	-42.05
203.683	-47.91
204.063	-52.08
204.444	-59.07
204.824	-48.07
205.204	-49.75
205.585	-38.13
205.965	-38.39
206.345	-39.63
206.725	-53.78
207.106	-78.56
207.486	-88.81
207.866	-71.02
208.246	-78.26
208.626	-87.88
209.006	-86.7
209.386	-84.69
209.766	-85.96
210.145	-64.06
210.525	-53.22
210.905	-52.28
211.285	-44.39
211.664	-37.18
212.044	-46.75
212.424	-32.42
212.803	-35.65
213.183	-38.42
213.562	-37.49
213.942	-16.6
214.321	-6.87
214.701	-3.44
215.08	-3.83
215.459	3.71
215.838	3.75
216.218	8.98
216.597	16.2
216.976	19.44
217.355	16.83
217.734	16.24
218.113	13.8
218.492	7.11
218.871	-2.16
219.25	7.28
219.629	-0.21
220.008	-1.45
220.387	-5.24
220.766	3.7
221.144	-1.77
221.523	-6.61
221.902	-16.44
222.28	-22.29
222.659	-18.01
223.037	-17.41
223.416	-18.25
223.794	-17.73
224.173	-15.6
224.551	-8.18
224.929	-7.98
225.308	-5.41
225.686	-5.88
226.064	-8.7
226.442	-5.78
226.821	-0.35
227.199	-6.54
227.577	-3.94
227.955	-4.93
228.333	-2.27
228.711	-2.28
229.089	0.81
229.467	0.84
229.845	-0.45
230.222	1.67
230.6	1.71
230.978	2.68
231.356	3.68
231.733	4.25
232.111	4.73
232.488	3.49
232.866	3.57
233.243	3.72
233.621	2.14
233.998	3.76
234.376	2.91
234.753	2.85
235.13	3.6
235.508	3.34
235.885	4.8
236.262	3.03
236.639	2.52
237.016	1.44
237.393	2.99
237.77	5.03
238.147	5.93
238.524	5.5
238.901	5.68
239.278	6.18
239.655	6.03
240.032	5.5
240.409	4.91
240.785	4.97
241.162	4.85
241.539	5.05
241.915	4.87
242.292	4.73
242.668	4.81
243.045	4.54
243.421	4.59
243.798	4.11
244.174	4.62
244.551	4.47
244.927	4.34
245.303	4.27
245.679	4.04
246.056	3.88
246.432	4.06
246.808	4.04
247.184	3.71
247.56	3.41
247.936	3.4
248.312	3.55
248.688	3.61
249.064	3.59
249.44	3.77
249.815	3.92
250.191	4.03
250.567	3.98
250.943	3.95
251.318	3.87
251.694	3.97
252.069	3.85
252.445	4.15
252.82	4.44
253.196	4.23
253.571	4.18
253.947	4.12
254.322	4.27
254.697	4.26
255.073	4.14
255.448	4.32
255.823	4.25
256.198	4.29
256.573	4.22
256.948	4.29
257.323	4.27
257.698	4.34
258.073	4.32
258.448	4.52
258.823	4.71
259.198	4.77
259.573	4.76
259.948	4.59
260.322	4.47
260.697	4.28
261.072	4.27
261.446	4.21
261.821	4.17
262.195	4.15
262.57	4.1
262.944	4.18
263.319	4.35
263.693	4.38
264.067	4.4
264.442	4.51
264.816	4.52
265.19	4.54
265.564	4.35
265.938	4.4
266.313	4.12
266.687	4.15
267.061	4.15
267.435	4.22
267.809	4.36
268.183	4.41
268.556	4.6
268.93	4.58
269.304	4.82
269.678	4.93
270.051	4.83
270.425	4.81
270.799	4.74
271.172	4.53
271.546	4.42
271.919	4.37
272.293	4.33
272.666	4.29
273.04	4.18
273.413	4.25
273.787	4.19
274.16	4.25
274.533	4.2
274.906	4.03
275.279	3.95
275.653	3.88
276.026	3.9
276.399	3.89
276.772	4.04
277.145	3.88
277.518	3.86
277.891	3.94
278.263	4.01
278.636	4.03
279.009	4.15
279.382	4.49
279.755	4.5
280.127	4.59
280.5	4.71
280.872	4.88
281.245	4.9
281.617	4.98
281.99	4.97
282.362	4.97
282.735	5.08
283.107	5.12
283.479	5.19
283.852	5.33
284.224	5.25
284.596	5.23
284.968	5.2
285.34	5.26
285.713	5.11
286.085	5.12
286.457	5.12
286.829	5.11
287.201	5
287.572	4.98
287.944	4.91
288.316	4.92
288.688	4.78
289.06	4.67
289.431	4.71
289.803	4.84
290.175	4.89
290.546	5.04
290.918	5.03
291.289	4.97
291.661	4.81
292.032	4.97
292.403	4.91
292.775	5
293.146	4.82
293.517	4.9
293.889	4.99
294.26	5.11
294.631	5.06
295.002	5.05
295.373	5.13
295.744	5.06
296.115	5.07
296.486	5.06
296.857	5.14
297.228	5.08
297.599	5.04
297.97	5.03
298.34	4.94
298.711	5.04
299.082	5.09
299.452	5.19
299.823	5.13
300.194	5.2
300.564	5.15
300.935	5.35
301.305	5.37
301.676	5.25
302.046	5.38
302.416	5.56
302.787	5.46
303.157	5.38
303.527	5.49
303.897	5.48
304.267	5.73
304.637	5.78
305.008	5.85
305.378	5.82
305.748	5.83
306.117	5.84
306.487	5.84
306.857	5.84
307.227	5.87
307.597	5.86
307.967	5.9
308.336	5.94
308.706	5.82
309.076	5.85
309.445	5.9
309.815	5.79
310.184	5.7
310.554	5.88
310.923	5.9
311.293	5.95
311.662	5.96
312.031	5.89
312.401	5.92
312.77	5.96
313.139	6.01
313.508	6.04
313.877	5.99
314.246	6.02
314.616	6.16
314.985	6.12
315.353	6.05
315.722	6.05
316.091	6.03
316.46	5.96
316.829	5.98
317.198	6.06
317.567	5.96
317.935	5.91
318.304	5.91
318.672	5.73
319.041	5.69
319.41	5.59
319.778	5.52
320.147	5.49
320.515	5.43
320.883	5.22
321.252	5.21
321.62	5.28
321.988	5.19
322.357	5.13
322.725	5.17
323.093	5.31
323.461	5.26
323.829	5.32
324.197	5.5
324.565	5.57
324.933	5.46
325.301	5.53
325.669	5.52
326.037	5.5
326.405	5.6
326.772	5.73
327.14	5.97
327.508	5.93
327.875	5.87
328.243	6.02
328.61	6.21
328.978	6.24
329.346	6.3
329.713	6.27
330.08	6.23
330.448	6.04
330.815	5.87
331.182	5.89
331.55	5.9
331.917	5.9
332.284	5.97
332.651	5.9
333.018	5.78
333.385	5.8
333.752	5.77
334.119	5.89
334.486	5.82
334.853	5.79
335.22	5.75
335.587	5.83
335.954	5.81
336.32	5.69
336.687	5.8
337.054	5.74
337.42	5.84
337.787	5.82
338.153	5.95
338.52	6.16
338.886	6.18
339.253	6.05
339.619	6.08
339.986	5.93
340.352	6.04
340.718	6.27
341.084	6.21
341.451	6.22
341.817	6.19
342.183	6.12
342.549	6.02
342.915	6.16
343.281	6.1
343.647	6.08
344.013	6.08
344.379	5.9
344.745	5.92
345.11	5.91
345.476	5.93
345.842	5.93
346.208	5.83
346.573	5.9
346.939	6.02
347.304	5.86
347.67	5.89
348.035	5.92
348.401	5.93
348.766	6.03
349.132	6.09
349.497	6.07
349.862	6.15
350.228	6.15
350.593	6.01
350.958	6.03
351.323	6.01
351.688	6.08
352.053	6.13
352.418	6.15
352.783	6.12
353.148	6.12
353.513	6.09
353.878	6.11
354.243	6.04
354.608	6.12
354.972	6.24
355.337	6.29
355.702	6.3
356.066	6.24
356.431	6.24
356.795	6.27
357.16	6.34
357.524	6.28
357.889	6.27
358.253	6.41
358.618	6.39
358.982	6.35
359.346	6.26
359.71	6.24
360.075	6.25
360.439	6.27
360.803	6.25
361.167	6.29
361.531	6.26
361.895	6.29
362.259	6.18
362.623	6.19
362.987	6.15
363.351	6.17
363.714	6.21
364.078	6.19
364.442	6.13
364.806	6.07
365.169	6.11
365.533	6.14
365.896	6.11
366.26	6.15
366.623	6.13
366.987	6.22
367.35	6.31
367.714	6.31
368.077	6.34
368.44	6.4
368.803	6.36
369.167	6.36
369.53	6.27
369.893	6.35
370.256	6.3
370.619	6.31
370.982	6.29
371.345	6.25
371.708	6.26
372.071	6.29
372.434	6.28
372.797	6.31
373.159	6.27
373.522	6.32
373.885	6.36
374.247	6.47
374.61	6.42
374.973	6.35
375.335	6.29
375.698	6.27
376.06	6.28
376.423	6.29
376.785	6.32
377.147	6.43
377.51	6.41
377.872	6.43
378.234	6.4
378.596	6.38
378.958	6.4
379.321	6.45
379.683	6.48
380.045	6.55
380.407	6.49
380.769	6.49
381.13	6.45
381.492	6.42
381.854	6.38
382.216	6.42
382.578	6.47
382.939	6.44
383.301	6.4
383.663	6.36
384.024	6.35
384.386	6.42
384.747	6.42
385.109	6.49
385.47	6.48
385.832	6.5
386.193	6.55
386.554	6.49
386.916	6.47
387.277	6.5
387.638	6.45
387.999	6.48
388.36	6.5
388.721	6.53
389.082	6.55
389.443	6.52
389.804	6.52
390.165	6.53
390.526	6.58
390.887	6.59
391.248	6.58
391.609	6.55
391.969	6.53
392.33	6.49
392.691	6.45
393.051	6.48
393.412	6.49
393.772	6.45
394.133	6.5
394.493	6.51
394.854	6.47
395.214	6.48
395.574	6.46
395.935	6.42
396.295	6.39
396.655	6.35
397.015	6.36
397.376	6.34
397.736	6.33
398.096	6.35
398.456	6.39
398.816	6.41
399.176	6.42
399.535	6.38
399.895	6.38
400.255	6.36
400.615	6.32
400.975	6.3
401.334	6.34
401.694	6.33
402.054	6.3
402.413	6.33
402.773	6.33
403.132	6.36
403.492	6.42
403.851	6.43
404.211	6.45
404.57	6.44
404.929	6.44
405.288	6.43
405.648	6.39
406.007	6.37
406.366	6.38
406.725	6.41
407.084	6.41
407.443	6.44
407.802	6.47
408.161	6.49
408.52	6.51
408.879	6.51
409.238	6.5
409.596	6.53
409.955	6.53
410.314	6.54
410.673	6.55
411.031	6.53
411.39	6.5
411.748	6.52
412.107	6.55
412.465	6.57
412.824	6.55
413.182	6.55
413.54	6.56
413.899	6.56
414.257	6.55
414.615	6.55
414.974	6.54
415.332	6.53
415.69	6.51
416.048	6.5
416.406	6.49
416.764	6.48
417.122	6.48
417.48	6.47
417.838	6.47
418.195	6.45
418.553	6.45
418.911	6.48
419.269	6.46
419.626	6.46
419.984	6.47
420.342	6.48
420.699	6.49
421.057	6.49
421.414	6.48
421.772	6.48
422.129	6.49
422.486	6.49
422.844	6.5
423.201	6.48
423.558	6.49
423.915	6.49
424.273	6.5
424.63	6.5
424.987	6.5
425.344	6.49
425.701	6.51
426.058	6.5
426.415	6.49
426.772	6.5
427.128	6.49
427.485	6.49
427.842	6.49
428.199	6.48
428.555	6.48
428.912	6.5
429.269	6.49
429.625	6.5
429.982	6.49
430.338	6.49
430.695	6.51
431.051	6.51
431.407	6.52
431.764	6.53
432.12	6.53
432.476	6.55
432.832	6.54
433.189	6.54
433.545	6.55
433.901	6.56
434.257	6.56
434.613	6.57
434.969	6.55
435.325	6.57
435.681	6.59
436.036	6.6
436.392	6.6
436.748	6.62
437.104	6.63
437.459	6.62
437.815	6.62
438.171	6.62
438.526	6.61
438.882	6.58
439.237	6.57
439.593	6.58
439.948	6.57
440.304	6.57
440.659	6.55
441.014	6.55
441.369	6.55
441.725	6.54
442.08	6.54
442.435	6.56
442.79	6.54
443.145	6.56
443.5	6.55
443.855	6.55
444.21	6.54
444.565	6.53
444.92	6.53
445.275	6.53
445.629	6.54
445.984	6.53
446.339	6.54
446.693	6.54
447.048	6.53
447.403	6.51
447.757	6.54
448.112	6.53
448.466	6.52
448.82	6.53
449.175	6.55
449.529	6.54
449.883	6.53
450.238	6.53
450.592	6.52
450.946	6.48
451.3	6.48
451.654	6.51
452.008	6.51
452.362	6.53
452.716	6.51
453.07	6.51
453.424	6.53
453.778	6.54
454.132	6.54
454.486	6.55
454.839	6.57
455.193	6.55
455.547	6.57
455.9	6.58
456.254	6.56
456.607	6.56
456.961	6.57
457.314	6.57
457.668	6.55
458.021	6.52
458.375	6.53
458.728	6.53
459.081	6.51
459.434	6.51
459.787	6.49
460.141	6.51
460.494	6.51
460.847	6.5
461.2	6.49
461.553	6.5
461.906	6.5
462.259	6.5
462.611	6.49
462.964	6.49
463.317	6.48
463.67	6.49
464.022	6.48
464.375	6.48
464.728	6.49
465.08	6.51
465.433	6.54
465.785	6.56
466.138	6.56
466.49	6.57
466.843	6.58
467.195	6.58
467.547	6.58
467.899	6.59
468.252	6.57
468.604	6.58
468.956	6.58
469.308	6.56
469.66	6.56
470.012	6.56
470.364	6.55
470.716	6.57
471.068	6.58
471.42	6.58
471.772	6.57
472.123	6.57
472.475	6.57
472.827	6.57
473.178	6.57
473.53	6.53
473.882	6.51
474.233	6.54
474.585	6.56
474.936	6.54
475.288	6.55
475.639	6.57
475.99	6.57
476.342	6.59
476.693	6.61
477.044	6.64
477.395	6.63
477.746	6.63
478.097	6.61
478.448	6.6
478.8	6.6
479.15	6.61
479.501	6.63
479.852	6.64
480.203	6.64
480.554	6.66
480.905	6.68
481.255	6.71
481.606	6.72
481.957	6.72
482.307	6.75
482.658	6.75
483.009	6.75
483.359	6.76
483.709	6.77
484.06	6.77
484.41	6.77
484.761	6.78
485.111	6.78
485.461	6.79
485.811	6.79
486.162	6.8
486.512	6.81
486.862	6.81
487.212	6.81
487.562	6.81
487.912	6.82
488.262	6.83
488.612	6.83
488.961	6.82
489.311	6.82
489.661	6.8
490.011	6.79
490.36	6.78
490.71	6.77
491.06	6.77
491.409	6.77
491.759	6.75
492.108	6.75
492.458	6.74
492.807	6.73
493.157	6.74
493.506	6.73
493.855	6.72
494.204	6.7
494.554	6.7
494.903	6.69
495.252	6.67
495.601	6.66
495.95	6.64
496.299	6.64
496.648	6.63
496.997	6.62
497.346	6.61
497.695	6.61
498.043	6.62
498.392	6.6
498.741	6.61
499.09	6.6
499.438	6.6
499.787	6.6
500.135	6.63
500.484	6.62
500.832	6.62
501.181	6.62
501.529	6.63
501.878	6.65
502.226	6.64
502.574	6.65
502.923	6.63
503.271	6.65
503.619	6.66
503.967	6.67
504.315	6.67
504.663	6.69
505.011	6.7
505.359	6.7
505.707	6.7
506.055	6.7
506.403	6.73
506.751	6.72
507.098	6.71
507.446	6.72
507.794	6.73
508.141	6.74
508.489	6.75
508.837	6.76
509.184	6.77
509.531	6.8
509.879	6.81
510.226	6.83
510.574	6.82
510.921	6.8
511.268	6.8
511.616	6.81
511.963	6.83
512.31	6.79
512.657	6.81
513.004	6.82
513.351	6.83
513.698	6.8
514.045	6.81
514.392	6.83
514.739	6.82
515.086	6.82
515.432	6.82
515.779	6.8
516.126	6.81
516.473	6.8
516.819	6.8
517.166	6.8
517.512	6.78
517.859	6.8
518.205	6.8
518.552	6.82
518.898	6.83
519.245	6.82
519.591	6.86
519.937	6.85
520.283	6.85
520.629	6.84
520.976	6.87
521.322	6.89
521.668	6.9
522.014	6.9
522.36	6.92
522.706	6.93
523.052	6.94
523.398	6.92
523.743	6.91
524.089	6.91
524.435	6.91
524.781	6.93
525.126	6.94
525.472	6.96
525.817	6.96
526.163	6.95
526.509	6.96
526.854	6.97
527.199	6.97
527.545	6.97
527.89	6.97
528.235	6.97
528.581	6.97
528.926	6.97
529.271	6.97
529.616	6.95
529.961	6.96
530.306	6.98
530.651	6.98
530.996	6.97
531.341	6.97
531.686	6.97
532.031	6.97
532.376	6.96
532.721	6.96
533.065	6.96
533.41	6.96
533.755	6.95
534.099	6.95
534.444	6.95
534.788	6.96
535.133	6.97
535.477	6.97
535.822	6.96
536.166	6.95
536.51	6.95
536.855	6.98
537.199	6.97
537.543	6.94
537.887	6.96
538.231	6.98
538.576	6.99
538.92	6.99
539.264	6.99
539.608	7
539.951	7.01
540.295	7.02
540.639	7.03
540.983	7.02
541.327	7.03
541.671	7.04
542.014	7.03
542.358	7.02
542.701	7.03
543.045	7.04
543.389	7.05
543.732	7.06
544.075	7.06
544.419	7.05
544.762	7.08
545.105	7.06
545.449	7.05
545.792	7.04
546.135	7.05
546.478	7.06
546.821	7.05
547.165	7.02
547.508	7.02
547.851	7.01
548.194	7.01
548.536	6.99
548.879	6.98
549.222	6.97
549.565	6.97
549.908	6.98
550.25	6.97
550.593	6.99
550.936	6.97
551.278	6.94
551.621	6.94
551.963	6.93
552.306	6.92
552.648	6.92
552.991	6.94
553.333	6.91
553.675	6.9
554.017	6.91
554.36	6.91
554.702	6.93
555.044	6.95
555.386	6.96
555.728	6.95
556.07	6.97
556.412	6.96
556.754	6.97
557.096	6.97
557.438	6.99
557.78	6.96
558.121	6.99
558.463	7.03
558.805	7.04
559.147	7.05
559.488	7.1
559.83	7.1
560.171	7.1
560.513	7.1
560.854	7.11
561.196	7.09
561.537	7.11
561.878	7.06
562.22	7.04
562.561	7.04
562.902	7.09
563.243	7.07
563.584	7.1
563.925	7.14
564.266	7.11
564.607	7.1
564.948	7.11
565.289	7.1
565.63	7.11
565.971	7.1
566.312	7.1
566.653	7.11
566.993	7.15
567.334	7.13
567.675	7.18
568.015	7.21
568.356	7.2
568.696	7.21
569.037	7.22
569.377	7.25
569.718	7.27
570.058	7.24
570.398	7.26
570.739	7.25
571.079	7.23
571.419	7.25
571.759	7.27
572.099	7.27
572.439	7.28
572.779	7.27
573.119	7.3
573.459	7.31
573.799	7.3
574.139	7.28
574.479	7.28
574.819	7.26
575.158	7.23
575.498	7.26
575.838	7.26
576.177	7.24
576.517	7.23
576.856	7.23
577.196	7.23
577.535	7.22
577.875	7.25
578.214	7.25
578.553	7.26
578.893	7.26
579.232	7.28
579.571	7.29
579.91	7.27
580.25	7.26
580.589	7.27
580.928	7.28
581.267	7.27
581.606	7.28
581.945	7.32
582.283	7.3
582.622	7.29
582.961	7.28
583.3	7.34
583.639	7.33
583.977	7.33
584.316	7.31
584.654	7.31
584.993	7.31
585.332	7.31
585.67	7.3
586.008	7.27
586.347	7.31
586.685	7.3
587.024	7.32
587.362	7.32
587.7	7.29
588.038	7.3
588.376	7.32
588.715	7.36
589.053	7.32
589.391	7.35
589.729	7.38
590.067	7.38
590.404	7.38
590.742	7.45
591.08	7.42
591.418	7.42
591.756	7.44
592.093	7.43
592.431	7.44
592.769	7.44
593.106	7.44
593.444	7.37
593.781	7.38
594.119	7.37
594.456	7.37
594.793	7.38
595.131	7.36
595.468	7.37
595.805	7.36
596.143	7.36
596.48	7.35
596.817	7.34
597.154	7.38
597.491	7.39
597.828	7.33
598.165	7.33
598.502	7.35
598.839	7.36
599.176	7.4
599.512	7.41
599.849	7.38
600.186	7.4
600.523	7.46
600.859	7.46
601.196	7.47
601.532	7.43
601.869	7.46
602.205	7.46
602.542	7.47
602.878	7.48
603.215	7.5
603.551	7.52
603.887	7.52
604.223	7.48
604.56	7.47
604.896	7.48
605.232	7.53
605.568	7.54
605.904	7.53
606.24	7.53
606.576	7.53
606.912	7.55
607.248	7.57
607.583	7.51
607.919	7.5
608.255	7.5
608.591	7.57
608.926	7.56
609.262	7.59
609.597	7.57
609.933	7.58
610.268	7.52
610.604	7.5
610.939	7.49
611.275	7.5
611.61	7.49
611.945	7.5
612.281	7.45
612.616	7.43
612.951	7.45
613.286	7.46
613.621	7.43
613.956	7.42
614.291	7.4
614.626	7.41
614.961	7.43
615.296	7.46
615.631	7.42
615.966	7.42
616.3	7.44
616.635	7.39
616.97	7.42
617.304	7.47
617.639	7.49
617.973	7.53
618.308	7.53
618.642	7.56
618.977	7.57
619.311	7.61
619.646	7.63
619.98	7.66
620.314	7.68
620.648	7.7
620.983	7.73
621.317	7.76
621.651	7.83
621.985	7.84
622.319	7.84
622.653	7.84
622.987	7.85
623.321	7.82
623.655	7.89
623.988	7.87
624.322	7.88
624.656	7.9
624.99	7.94
625.323	7.92
625.657	7.94
625.99	7.96
626.324	7.99
626.657	7.97
626.991	7.98
627.324	7.95
627.658	7.94
627.991	7.99
628.324	7.93
628.657	7.92
628.991	7.91
629.324	7.9
629.657	7.93
629.99	7.92
630.323	7.93
630.656	7.95
630.989	7.92
631.322	7.93
631.655	7.9
631.987	7.86
632.32	7.9
632.653	7.87
632.986	7.9
633.318	7.87
633.651	7.92
633.984	7.9
634.316	7.88
634.649	7.9
634.981	7.87
635.313	7.95
635.646	7.95
635.978	7.95
636.31	7.94
636.643	7.87
636.975	7.9
637.307	7.87
637.639	7.9
637.971	7.85
638.303	7.92
638.635	7.9
638.967	7.9
639.299	7.91
639.631	7.88
639.963	7.83
640.295	7.85
640.626	7.83
640.958	7.89
641.29	7.91
641.621	7.89
641.953	7.9
642.285	7.88
642.616	7.93
642.948	7.92
643.279	7.96
643.61	8.04
643.942	8.05
644.273	8.13
644.604	8.07
644.936	8.19
645.267	8.12
645.598	8.14
645.929	8.13
646.26	8.12
646.591	8.17
646.922	8.15
647.253	8.13
647.584	8.12
647.915	8.03
648.245	8.02
648.576	8.02
648.907	7.94
649.238	7.92
649.568	7.83
649.899	7.9
650.229	7.92
650.56	7.89
650.89	7.9
651.221	7.85
651.551	7.84
651.882	7.79
652.212	7.78
652.542	7.8
652.872	7.78
653.203	7.77
653.533	7.76
653.863	7.81
654.193	7.86
654.523	7.94
654.853	7.97
655.183	7.99
655.513	8
655.843	8.07
656.172	8.07
656.502	8.1
656.832	8.06
657.162	8.1
657.491	8.12
657.821	8.14
658.15	8.16
658.48	8.2
658.809	8.25
659.139	8.27
659.468	8.27
659.798	8.29
660.127	8.28
660.456	8.29
660.785	8.29
661.115	8.27
661.444	8.19
661.773	8.26
662.102	8.22
662.431	8.29
662.76	8.26
663.089	8.34
663.418	8.37
663.747	8.35
664.076	8.34
664.404	8.32
664.733	8.32
665.062	8.29
665.39	8.31
665.719	8.28
666.048	8.3
666.376	8.27
666.705	8.22
667.033	8.23
667.362	8.27
667.69	8.23
668.018	8.25
668.347	8.26
668.675	8.19
669.003	8.32
669.331	8.32
669.659	8.36
669.987	8.36
670.315	8.41
670.643	8.47
670.971	8.51
671.299	8.54
671.627	8.56
671.955	8.57
672.283	8.58
672.61	8.58
672.938	8.58
673.266	8.7
673.593	8.89
673.921	8.97
674.249	8.92
674.576	8.91
674.904	8.86
675.231	8.87
675.558	8.91
675.886	8.86
676.213	8.78
676.54	8.72
676.867	8.68
677.195	8.61
677.522	8.63
677.849	8.56
678.176	8.55
