Data from BA28301_Reflection_00003.txt Node
Date: Mon Nov 18 15:45:00 EST 2019
User: vgr7
Spectrometer: USB2G7710
Scans to average: 3
Trigger mode: 4
Integration Time (sec): 2.000000E-2
Electric dark correction enabled: true
Boxcar width: 10
XAxis mode: Wavelengths
Number of Pixels in Spectrum: 2048
>>>>>Begin Spectral Data<<<<<
177.721	110.6
178.105	1814.29
178.488	106.4
178.871	0.27
179.254	-29.19
179.636	173.43
180.019	-162.84
180.402	255.56
180.785	20.15
181.168	-255.93
181.55	-163.46
181.933	55.12
182.316	52.08
182.698	60.99
183.081	59.82
183.463	19.31
183.846	19.23
184.228	22.33
184.611	27.32
184.993	28.52
185.376	-13.33
185.758	-21.84
186.14	-0.18
186.522	82.73
186.904	43.7
187.287	-177.31
187.669	52.16
188.051	-19.44
188.433	44.52
188.815	172.09
189.197	141.47
189.579	10.97
189.961	-60.64
190.342	-140.25
190.724	16.05
191.106	-9.45
191.488	-35.86
191.869	-16.49
192.251	-29.67
192.633	-50.11
193.014	-65.24
193.396	-153.58
193.777	-468.11
194.159	-1205.88
194.54	-195.4
194.922	-98.57
195.303	-97.23
195.684	90.88
196.065	54.05
196.447	-1841.18
196.828	-199.09
197.209	-66.4
197.59	-73.55
197.971	1136.36
198.352	95.29
198.733	8.49
199.114	48.96
199.495	39.15
199.876	53.24
200.257	82.7
200.638	62.74
201.018	40.61
201.399	61.15
201.78	33.52
202.16	35.29
202.541	37.37
202.922	1.98
203.302	5.75
203.683	21.01
204.063	-14.27
204.444	-25.75
204.824	25.05
205.204	-11.25
205.585	4.36
205.965	-29.3
206.345	-60.76
206.725	-370.77
207.106	3978.05
207.486	251.18
207.866	180.38
208.246	150.31
208.626	193.65
209.006	176.69
209.386	146.49
209.766	72.92
210.145	86.15
210.525	106.28
210.905	226.27
211.285	24700
211.664	-1083.49
212.044	372.73
212.424	-147.17
212.803	-77.5
213.183	-45.81
213.562	-61.93
213.942	-25.28
214.321	-26.26
214.701	-15.73
215.08	4.64
215.459	9.84
215.838	14.73
216.218	-0.68
216.597	-4.13
216.976	-4.21
217.355	-1.4
217.734	2.52
218.113	2.89
218.492	8.65
218.871	8.46
219.25	-3
219.629	-3.2
220.008	-5.02
220.387	-9.1
220.766	-14.23
221.144	-12.09
221.523	-20.44
221.902	-23.43
222.28	-18.14
222.659	-18.83
223.037	-18.71
223.416	-6.49
223.794	-17.85
224.173	-9.03
224.551	-1.03
224.929	2.38
225.308	7.99
225.686	4.88
226.064	9.03
226.442	6.38
226.821	9.46
227.199	11.74
227.577	7.13
227.955	6.27
228.333	7.06
228.711	6.88
229.089	6.74
229.467	7.29
229.845	8.38
230.222	7.96
230.6	7.76
230.978	5.49
231.356	2.75
231.733	4.45
232.111	4.96
232.488	3.28
232.866	1.51
233.243	-0.2
233.621	-1.22
233.998	-0.89
234.376	-0.7
234.753	-2.24
235.13	-1.69
235.508	-0.56
235.885	0.93
236.262	-0.08
236.639	0.55
237.016	0.64
237.393	2.41
237.77	2.11
238.147	2.51
238.524	3.08
238.901	4.85
239.278	5.91
239.655	5.89
240.032	5.7
240.409	5.95
240.785	6.07
241.162	6.36
241.539	6.54
241.915	6.48
242.292	6.08
242.668	6.3
243.045	6.1
243.421	5.98
243.798	5.65
244.174	5.78
244.551	5.48
244.927	5.46
245.303	5.41
245.679	5.29
246.056	5.29
246.432	5.19
246.808	4.99
247.184	4.68
247.56	4.67
247.936	4.52
248.312	4.48
248.688	4.58
249.064	4.44
249.44	4.55
249.815	4.39
250.191	4.36
250.567	4.25
250.943	4.12
251.318	4.43
251.694	4.45
252.069	4.27
252.445	4.23
252.82	4.14
253.196	4.13
253.571	4.25
253.947	4.23
254.322	4.44
254.697	4.17
255.073	4.01
255.448	3.87
255.823	4.24
256.198	4.3
256.573	4.07
256.948	4.14
257.323	4.19
257.698	4.12
258.073	4.31
258.448	4.18
258.823	4.17
259.198	3.89
259.573	3.91
259.948	4.03
260.322	4.12
260.697	4.13
261.072	3.99
261.446	4.03
261.821	3.93
262.195	3.99
262.57	4.09
262.944	4.12
263.319	4.16
263.693	4
264.067	4.15
264.442	4.04
264.816	4.09
265.19	3.98
265.564	4.11
265.938	3.98
266.313	4.08
266.687	4
267.061	4.14
267.435	4.19
267.809	4.19
268.183	4.19
268.556	4.08
268.93	4.17
269.304	4.18
269.678	4.48
270.051	4.33
270.425	4.3
270.799	4.47
271.172	4.49
271.546	4.45
271.919	4.32
272.293	4.61
272.666	4.53
273.04	4.52
273.413	4.36
273.787	4.29
274.16	4.32
274.533	4.35
274.906	4.22
275.279	4.21
275.653	4.15
276.026	4.06
276.399	4.1
276.772	4.14
277.145	4.06
277.518	3.98
277.891	4.03
278.263	3.98
278.636	3.89
279.009	3.85
279.382	3.94
279.755	3.89
280.127	3.88
280.5	3.91
280.872	3.94
281.245	4.06
281.617	4.22
281.99	4.35
282.362	4.45
282.735	4.48
283.107	4.28
283.479	4.32
283.852	4.38
284.224	4.41
284.596	4.3
284.968	4.19
285.34	4.14
285.713	4.12
286.085	4.23
286.457	4.25
286.829	4.42
287.201	4.46
287.572	4.37
287.944	4.43
288.316	4.47
288.688	4.47
289.06	4.46
289.431	4.46
289.803	4.46
290.175	4.33
290.546	4.47
290.918	4.55
291.289	4.66
291.661	4.78
292.032	4.84
292.403	4.88
292.775	5.02
293.146	5
293.517	4.99
293.889	4.97
294.26	4.99
294.631	4.84
295.002	4.78
295.373	4.93
295.744	4.81
296.115	4.89
296.486	4.74
296.857	4.72
297.228	4.78
297.599	4.68
297.97	4.9
298.34	4.89
298.711	4.98
299.082	4.93
299.452	4.87
299.823	4.95
300.194	5.09
300.564	5.13
300.935	5.15
301.305	5.12
301.676	5.17
302.046	5.22
302.416	5.34
302.787	5.39
303.157	5.45
303.527	5.53
303.897	5.51
304.267	5.77
304.637	5.92
305.008	5.97
305.378	6.1
305.748	5.88
306.117	5.84
306.487	5.92
306.857	5.99
307.227	6.03
307.597	5.92
307.967	5.88
308.336	5.81
308.706	5.9
309.076	6
309.445	5.92
309.815	5.86
310.184	5.75
310.554	5.79
310.923	5.62
311.293	5.6
311.662	5.5
312.031	5.42
312.401	5.38
312.77	5.34
313.139	5.43
313.508	5.58
313.877	5.58
314.246	5.53
314.616	5.41
314.985	5.28
315.353	5.31
315.722	5.35
316.091	5.3
316.46	5.18
316.829	5.17
317.198	5.21
317.567	5.23
317.935	5.31
318.304	5.28
318.672	5.51
319.041	5.56
319.41	5.64
319.778	5.64
320.147	5.68
320.515	5.63
320.883	5.28
321.252	5.27
321.62	5.13
321.988	5.12
322.357	5.16
322.725	5.16
323.093	5.09
323.461	5.03
323.829	5.14
324.197	5.11
324.565	5.1
324.933	4.96
325.301	4.96
325.669	4.97
326.037	4.92
326.405	4.77
326.772	4.81
327.14	4.86
327.508	5.02
327.875	4.87
328.243	4.91
328.61	4.97
328.978	4.97
329.346	5.11
329.713	5.06
330.08	5.11
330.448	5.09
330.815	5.06
331.182	4.93
331.55	4.89
331.917	4.93
332.284	4.92
332.651	5.03
333.018	5.11
333.385	5.1
333.752	5.1
334.119	5.18
334.486	5.16
334.853	5.08
335.22	4.97
335.587	5.08
335.954	4.96
336.32	5
336.687	4.91
337.054	4.88
337.42	4.85
337.787	4.77
338.153	4.79
338.52	4.96
338.886	5.08
339.253	5.05
339.619	5.08
339.986	5.01
340.352	5.09
340.718	5.04
341.084	5.07
341.451	5.14
341.817	5.19
342.183	5.12
342.549	5.19
342.915	5.17
343.281	5.12
343.647	5.2
344.013	5.23
344.379	5.22
344.745	5.23
345.11	5.24
345.476	5.26
345.842	5.24
346.208	5.2
346.573	5.19
346.939	5.3
347.304	5.16
347.67	5.15
348.035	5.12
348.401	5.15
348.766	5.11
349.132	5.14
349.497	5.04
349.862	5.09
350.228	5.03
350.593	5.02
350.958	5.05
351.323	5.07
351.688	5.01
352.053	5.05
352.418	5.05
352.783	5.11
353.148	5.16
353.513	5.17
353.878	5.18
354.243	5.24
354.608	5.27
354.972	5.39
355.337	5.5
355.702	5.5
356.066	5.57
356.431	5.49
356.795	5.43
357.16	5.4
357.524	5.33
357.889	5.35
358.253	5.39
358.618	5.42
358.982	5.37
359.346	5.37
359.71	5.31
360.075	5.34
360.439	5.33
360.803	5.3
361.167	5.32
361.531	5.29
361.895	5.25
362.259	5.18
362.623	5.15
362.987	5.13
363.351	5.05
363.714	5
364.078	5.04
364.442	5.04
364.806	5.04
365.169	5.11
365.533	5.07
365.896	5
366.26	4.98
366.623	4.97
366.987	4.99
367.35	5.03
367.714	4.95
368.077	5
368.44	5.01
368.803	4.99
369.167	4.95
369.53	4.89
369.893	4.96
370.256	4.99
370.619	4.96
370.982	5.06
371.345	4.98
371.708	4.98
372.071	4.9
372.434	4.89
372.797	4.85
373.159	4.86
373.522	4.99
373.885	5.06
374.247	5.13
374.61	5.11
374.973	5.12
375.335	5.16
375.698	5.15
376.06	5.15
376.423	5.18
376.785	5.21
377.147	5.28
377.51	5.25
377.872	5.27
378.234	5.27
378.596	5.25
378.958	5.28
379.321	5.31
379.683	5.45
380.045	5.5
380.407	5.49
380.769	5.56
381.13	5.49
381.492	5.4
381.854	5.35
382.216	5.31
382.578	5.33
382.939	5.33
383.301	5.3
383.663	5.27
384.024	5.27
384.386	5.27
384.747	5.25
385.109	5.23
385.47	5.13
385.832	5.16
386.193	5.14
386.554	5.16
386.916	5.14
387.277	5.12
387.638	5.14
387.999	5.14
388.36	5.1
388.721	5.12
389.082	5.14
389.443	5.13
389.804	5.19
390.165	5.14
390.526	5.11
390.887	5.09
391.248	5.12
391.609	5.14
391.969	5.11
392.33	5.11
392.691	5.11
393.051	5.15
393.412	5.15
393.772	5.17
394.133	5.15
394.493	5.16
394.854	5.12
395.214	5.11
395.574	5.11
395.935	5.14
396.295	5.13
396.655	5.11
397.015	5.13
397.376	5.13
397.736	5.16
398.096	5.2
398.456	5.21
398.816	5.23
399.176	5.2
399.535	5.21
399.895	5.17
400.255	5.2
400.615	5.21
400.975	5.18
401.334	5.17
401.694	5.15
402.054	5.13
402.413	5.12
402.773	5.1
403.132	5.09
403.492	5.07
403.851	5.1
404.211	5.1
404.57	5.08
404.929	5.06
405.288	5.02
405.648	5.02
406.007	5.03
406.366	5.01
406.725	5.04
407.084	5.07
407.443	5.08
407.802	5.09
408.161	5.1
408.52	5.1
408.879	5.1
409.238	5.1
409.596	5.1
409.955	5.09
410.314	5.08
410.673	5.1
411.031	5.1
411.39	5.11
411.748	5.14
412.107	5.16
412.465	5.17
412.824	5.2
413.182	5.18
413.54	5.2
413.899	5.22
414.257	5.19
414.615	5.17
414.974	5.19
415.332	5.15
415.69	5.16
416.048	5.15
416.406	5.16
416.764	5.14
417.122	5.16
417.48	5.15
417.838	5.18
418.195	5.17
418.553	5.15
418.911	5.13
419.269	5.11
419.626	5.12
419.984	5.09
420.342	5.09
420.699	5.08
421.057	5.06
421.414	5.03
421.772	5.04
422.129	5.05
422.486	5.04
422.844	5.05
423.201	5.03
423.558	5.04
423.915	5.03
424.273	5.04
424.63	5.01
424.987	5.03
425.344	5.02
425.701	5
426.058	5
426.415	4.99
426.772	4.99
427.128	4.97
427.485	4.99
427.842	4.97
428.199	5
428.555	5.01
428.912	5.02
429.269	5.02
429.625	4.99
429.982	5.01
430.338	5
430.695	5.01
431.051	4.99
431.407	5
431.764	5
432.12	5.01
432.476	5.01
432.832	4.97
433.189	4.99
433.545	4.99
433.901	5.01
434.257	5.01
434.613	5
434.969	5.01
435.325	5.04
435.681	5.02
436.036	5
436.392	5
436.748	4.99
437.104	5
437.459	4.98
437.815	4.99
438.171	4.99
438.526	5.01
438.882	5.03
439.237	5.02
439.593	5.06
439.948	5.07
440.304	5.08
440.659	5.07
441.014	5.06
441.369	5.05
441.725	5.04
442.08	5.06
442.435	5.06
442.79	5.05
443.145	5.05
443.5	5.06
443.855	5.06
444.21	5.05
444.565	5.06
444.92	5.06
445.275	5.05
445.629	5.05
445.984	5.02
446.339	5.01
446.693	5.01
447.048	4.97
447.403	4.96
447.757	4.95
448.112	4.93
448.466	4.93
448.82	4.93
449.175	4.94
449.529	4.92
449.883	4.91
450.238	4.9
450.592	4.89
450.946	4.87
451.3	4.86
451.654	4.88
452.008	4.87
452.362	4.87
452.716	4.86
453.07	4.88
453.424	4.91
453.778	4.92
454.132	4.91
454.486	4.91
454.839	4.92
455.193	4.93
455.547	4.97
455.9	4.98
456.254	5
456.607	5.01
456.961	5.04
457.314	5.05
457.668	5.05
458.021	5.06
458.375	5.08
458.728	5.08
459.081	5.08
459.434	5.08
459.787	5.09
460.141	5.09
460.494	5.08
460.847	5.06
461.2	5.05
461.553	5.06
461.906	5.07
462.259	5.08
462.611	5.08
462.964	5.08
463.317	5.08
463.67	5.06
464.022	5.07
464.375	5.05
464.728	5.06
465.08	5.07
465.433	5.07
465.785	5.08
466.138	5.08
466.49	5.1
466.843	5.08
467.195	5.09
467.547	5.1
467.899	5.11
468.252	5.12
468.604	5.15
468.956	5.14
469.308	5.14
469.66	5.13
470.012	5.16
470.364	5.17
470.716	5.17
471.068	5.19
471.42	5.18
471.772	5.19
472.123	5.2
472.475	5.21
472.827	5.21
473.178	5.23
473.53	5.23
473.882	5.19
474.233	5.22
474.585	5.21
474.936	5.22
475.288	5.2
475.639	5.21
475.99	5.18
476.342	5.19
476.693	5.18
477.044	5.21
477.395	5.19
477.746	5.17
478.097	5.16
478.448	5.16
478.8	5.15
479.15	5.14
479.501	5.14
479.852	5.13
480.203	5.14
480.554	5.15
480.905	5.16
481.255	5.18
481.606	5.19
481.957	5.21
482.307	5.23
482.658	5.23
483.009	5.23
483.359	5.25
483.709	5.25
484.06	5.25
484.41	5.24
484.761	5.25
485.111	5.26
485.461	5.27
485.811	5.28
486.162	5.28
486.512	5.28
486.862	5.28
487.212	5.29
487.562	5.3
487.912	5.3
488.262	5.3
488.612	5.31
488.961	5.29
489.311	5.29
489.661	5.28
490.011	5.28
490.36	5.29
490.71	5.28
491.06	5.29
491.409	5.29
491.759	5.3
492.108	5.29
492.458	5.29
492.807	5.29
493.157	5.27
493.506	5.29
493.855	5.3
494.204	5.31
494.554	5.32
494.903	5.31
495.252	5.31
495.601	5.31
495.95	5.32
496.299	5.33
496.648	5.33
496.997	5.35
497.346	5.36
497.695	5.37
498.043	5.39
498.392	5.37
498.741	5.39
499.09	5.39
499.438	5.4
499.787	5.4
500.135	5.42
500.484	5.42
500.832	5.43
501.181	5.44
501.529	5.44
501.878	5.43
502.226	5.45
502.574	5.46
502.923	5.45
503.271	5.47
503.619	5.48
503.967	5.46
504.315	5.44
504.663	5.44
505.011	5.43
505.359	5.43
505.707	5.46
506.055	5.47
506.403	5.51
506.751	5.51
507.098	5.51
507.446	5.51
507.794	5.51
508.141	5.52
508.489	5.52
508.837	5.53
509.184	5.55
509.531	5.58
509.879	5.61
510.226	5.63
510.574	5.63
510.921	5.65
511.268	5.65
511.616	5.69
511.963	5.69
512.31	5.72
512.657	5.72
513.004	5.74
513.351	5.74
513.698	5.73
514.045	5.75
514.392	5.76
514.739	5.78
515.086	5.81
515.432	5.8
515.779	5.8
516.126	5.85
516.473	5.84
516.819	5.85
517.166	5.84
517.512	5.83
517.859	5.83
518.205	5.82
518.552	5.85
518.898	5.84
519.245	5.86
519.591	5.87
519.937	5.85
520.283	5.88
520.629	5.87
520.976	5.87
521.322	5.91
521.668	5.9
522.014	5.88
522.36	5.89
522.706	5.91
523.052	5.92
523.398	5.91
523.743	5.92
524.089	5.91
524.435	5.9
524.781	5.92
525.126	5.93
525.472	5.95
525.817	5.94
526.163	5.95
526.509	5.97
526.854	5.96
527.199	5.97
527.545	5.96
527.89	5.97
528.235	5.97
528.581	5.96
528.926	5.96
529.271	5.98
529.616	5.97
529.961	5.97
530.306	5.97
530.651	5.96
530.996	5.97
531.341	5.97
531.686	5.97
532.031	5.97
532.376	5.97
532.721	5.96
533.065	5.97
533.41	5.97
533.755	5.95
534.099	5.96
534.444	5.97
534.788	5.98
535.133	5.98
535.477	5.98
535.822	5.99
536.166	5.99
536.51	6.01
536.855	6.01
537.199	6.03
537.543	6.04
537.887	6.06
538.231	6.05
538.576	6.05
538.92	6.06
539.264	6.07
539.608	6.06
539.951	6.08
540.295	6.06
540.639	6.09
540.983	6.09
541.327	6.09
541.671	6.09
542.014	6.09
542.358	6.1
542.701	6.1
543.045	6.1
543.389	6.11
543.732	6.1
544.075	6.11
544.419	6.1
544.762	6.09
545.105	6.09
545.449	6.08
545.792	6.09
546.135	6.1
546.478	6.11
546.821	6.11
547.165	6.1
547.508	6.12
547.851	6.09
548.194	6.1
548.536	6.08
548.879	6.09
549.222	6.1
549.565	6.08
549.908	6.11
550.25	6.1
550.593	6.11
550.936	6.08
551.278	6.08
551.621	6.09
551.963	6.13
552.306	6.11
552.648	6.11
552.991	6.16
553.333	6.15
553.675	6.15
554.017	6.17
554.36	6.19
554.702	6.2
555.044	6.21
555.386	6.22
555.728	6.23
556.07	6.24
556.412	6.23
556.754	6.24
557.096	6.22
557.438	6.21
557.78	6.2
558.121	6.22
558.463	6.21
558.805	6.2
559.147	6.17
559.488	6.18
559.83	6.18
560.171	6.17
560.513	6.19
560.854	6.15
561.196	6.13
561.537	6.14
561.878	6.13
562.22	6.15
562.561	6.1
562.902	6.1
563.243	6.09
563.584	6.09
563.925	6.09
564.266	6.09
564.607	6.11
564.948	6.11
565.289	6.12
565.63	6.13
565.971	6.12
566.312	6.13
566.653	6.14
566.993	6.17
567.334	6.16
567.675	6.12
568.015	6.14
568.356	6.14
568.696	6.14
569.037	6.13
569.377	6.13
569.718	6.17
570.058	6.17
570.398	6.19
570.739	6.22
571.079	6.22
571.419	6.23
571.759	6.27
572.099	6.29
572.439	6.28
572.779	6.29
573.119	6.33
573.459	6.35
573.799	6.34
574.139	6.33
574.479	6.3
574.819	6.33
575.158	6.32
575.498	6.33
575.838	6.31
576.177	6.31
576.517	6.31
576.856	6.34
577.196	6.34
577.535	6.33
577.875	6.33
578.214	6.3
578.553	6.3
578.893	6.26
579.232	6.25
579.571	6.29
579.91	6.27
580.25	6.23
580.589	6.21
580.928	6.21
581.267	6.21
581.606	6.24
581.945	6.24
582.283	6.25
582.622	6.26
582.961	6.3
583.3	6.33
583.639	6.37
583.977	6.33
584.316	6.31
584.654	6.3
584.993	6.3
585.332	6.35
585.67	6.37
586.008	6.39
586.347	6.38
586.685	6.34
587.024	6.34
587.362	6.39
587.7	6.41
588.038	6.44
588.376	6.45
588.715	6.48
589.053	6.53
589.391	6.53
589.729	6.57
590.067	6.56
590.404	6.52
590.742	6.51
591.08	6.52
591.418	6.51
591.756	6.54
592.093	6.54
592.431	6.55
592.769	6.54
593.106	6.58
593.444	6.58
593.781	6.62
594.119	6.64
594.456	6.63
594.793	6.6
595.131	6.57
595.468	6.57
595.805	6.56
596.143	6.51
596.48	6.52
596.817	6.48
597.154	6.5
597.491	6.53
597.828	6.54
598.165	6.54
598.502	6.55
598.839	6.54
599.176	6.55
599.512	6.54
599.849	6.51
600.186	6.52
600.523	6.55
600.859	6.55
601.196	6.6
601.532	6.59
601.869	6.63
602.205	6.64
602.542	6.64
602.878	6.66
603.215	6.67
603.551	6.68
603.887	6.7
604.223	6.68
604.56	6.72
604.896	6.73
605.232	6.73
605.568	6.78
605.904	6.77
606.24	6.75
606.576	6.75
606.912	6.78
607.248	6.75
607.583	6.73
607.919	6.71
608.255	6.65
608.591	6.63
608.926	6.63
609.262	6.65
609.597	6.64
609.933	6.66
610.268	6.66
610.604	6.66
610.939	6.68
611.275	6.69
611.61	6.61
611.945	6.61
612.281	6.58
612.616	6.56
612.951	6.58
613.286	6.64
613.621	6.68
613.956	6.71
614.291	6.71
614.626	6.76
614.961	6.77
615.296	6.8
615.631	6.84
615.966	6.84
616.3	6.86
616.635	6.86
616.97	6.83
617.304	6.84
617.639	6.84
617.973	6.79
618.308	6.83
618.642	6.86
618.977	6.84
619.311	6.87
619.646	6.88
619.98	6.88
620.314	6.85
620.648	6.83
620.983	6.82
621.317	6.85
621.651	6.84
621.985	6.86
622.319	6.86
622.653	6.89
622.987	6.89
623.321	6.81
623.655	6.85
623.988	6.91
624.322	6.93
624.656	6.93
624.99	6.99
625.323	6.96
625.657	6.98
625.99	6.97
626.324	7.01
626.657	6.99
626.991	7.02
627.324	7.01
627.658	7.01
627.991	6.98
628.324	6.99
628.657	6.96
628.991	6.97
629.324	6.94
629.657	6.91
629.99	6.94
630.323	7.01
630.656	7.02
630.989	6.98
631.322	7.01
631.655	6.99
631.987	6.96
632.32	6.93
632.653	6.93
632.986	6.96
633.318	6.92
633.651	6.92
633.984	6.89
634.316	6.87
634.649	6.88
634.981	6.87
635.313	6.88
635.646	6.89
635.978	6.87
636.31	6.9
636.643	6.9
636.975	6.93
637.307	6.94
637.639	6.96
637.971	6.99
638.303	6.96
638.635	6.95
638.967	7
639.299	7.07
639.631	7.07
639.963	7.07
640.295	7.08
640.626	7.08
640.958	7.16
641.29	7.18
641.621	7.2
641.953	7.22
642.285	7.22
642.616	7.27
642.948	7.27
643.279	7.3
643.61	7.31
643.942	7.23
644.273	7.21
644.604	7.2
644.936	7.11
645.267	7.1
645.598	7.14
645.929	7.14
646.26	7.13
646.591	7.11
646.922	7.03
647.253	7.05
647.584	7.01
647.915	6.97
648.245	7
648.576	6.97
648.907	6.97
649.238	6.92
649.568	6.85
649.899	6.88
650.229	6.93
650.56	6.91
650.89	6.98
651.221	7
651.551	6.98
651.882	6.97
652.212	6.99
652.542	6.97
652.872	6.96
653.203	6.93
653.533	7
653.863	7.09
654.193	7.2
654.523	7.3
654.853	7.28
655.183	7.27
655.513	7.23
655.843	7.21
656.172	7.31
656.502	7.35
656.832	7.38
657.162	7.38
657.491	7.43
657.821	7.4
658.15	7.35
658.48	7.35
658.809	7.4
659.139	7.42
659.468	7.43
659.798	7.4
660.127	7.44
660.456	7.44
660.785	7.48
661.115	7.4
661.444	7.44
661.773	7.46
662.102	7.48
662.431	7.56
662.76	7.61
663.089	7.49
663.418	7.48
663.747	7.39
664.076	7.37
664.404	7.34
664.733	7.35
665.062	7.39
665.39	7.39
665.719	7.37
666.048	7.35
666.376	7.37
666.705	7.37
667.033	7.26
667.362	7.26
667.69	7.24
668.018	7.2
668.347	7.08
668.675	7.05
669.003	7.1
669.331	7.15
669.659	7.18
669.987	7.22
670.315	7.27
670.643	7.32
670.971	7.25
671.299	7.29
671.627	7.33
671.955	7.34
672.283	7.41
672.61	7.39
672.938	7.36
673.266	7.37
673.593	7.51
673.921	7.62
674.249	7.52
674.576	7.42
674.904	7.51
675.231	7.6
675.558	7.64
675.886	7.57
676.213	7.48
676.54	7.45
676.867	7.52
677.195	7.49
677.522	7.55
677.849	7.61
678.176	7.65
678.503	7.6
678.83	7.63
679.157	7.63
679.484	7.64
