Data from BA28300_Reflection_00015.txt Node
Date: Mon Nov 18 15:58:32 EST 2019
User: vgr7
Spectrometer: USB2G7710
Scans to average: 3
Trigger mode: 4
Integration Time (sec): 2.000000E-2
Electric dark correction enabled: true
Boxcar width: 10
XAxis mode: Wavelengths
Number of Pixels in Spectrum: 2048
>>>>>Begin Spectral Data<<<<<
177.721	486.42
178.105	1570.59
178.488	-176.89
178.871	-100.51
179.254	23.88
179.636	74.23
180.019	58.29
180.402	58.33
180.785	133.84
181.168	142.92
181.55	430.83
181.933	199.66
182.316	218.61
182.698	151.26
183.081	155.52
183.463	175.85
183.846	164.67
184.228	173.19
184.611	223.49
184.993	-857.75
185.376	-1076.47
185.758	-180.44
186.14	-225.26
186.522	-70.48
186.904	-166.94
187.287	-100.77
187.669	133.38
188.051	473.83
188.433	-1305.41
188.815	81.6
189.197	128.73
189.579	166.19
189.961	556.59
190.342	619.82
190.724	133.38
191.106	49.13
191.488	81
191.869	64.09
192.251	10.86
192.633	-187.63
193.014	385.71
193.396	276.56
193.777	-590.39
194.159	865.71
194.54	-5311.76
194.922	608.29
195.303	-1135.96
195.684	-1618.31
196.065	-119.03
196.447	-80.35
196.828	-195.82
197.209	-54.99
197.59	-398.53
197.971	-286.81
198.352	-49.55
198.733	-87.11
199.114	-27.23
199.495	-104.08
199.876	-82.83
200.257	-78.97
200.638	-64.58
201.018	-65.43
201.399	-46.14
201.78	-82.29
202.16	-118.42
202.541	-192.74
202.922	-362.23
203.302	-752.25
203.683	-893.32
204.063	-475.37
204.444	-360.15
204.824	-441.46
205.204	-621.02
205.585	-332.31
205.965	-284.66
206.345	-493.91
206.725	-1104.71
207.106	-4202.52
207.486	-1496.54
207.866	-6502.41
208.246	-1073.45
208.626	-616.83
209.006	-291.14
209.386	-333.18
209.766	-406.9
210.145	-227.3
210.525	-180.54
210.905	-136.58
211.285	-122.04
211.664	-88.38
212.044	-115.55
212.424	-128.03
212.803	-105.2
213.183	-95.42
213.562	-101.37
213.942	-96.55
214.321	-79.73
214.701	-71.85
215.08	-60
215.459	-55.78
215.838	-34.4
216.218	-27.86
216.597	-20.92
216.976	-32.1
217.355	-40.19
217.734	-36.64
218.113	-30.37
218.492	-26.64
218.871	-30.33
219.25	-25.87
219.629	-28.23
220.008	-17.96
220.387	-20.22
220.766	-14.13
221.144	-25.83
221.523	-33.01
221.902	-31.54
222.28	-34.57
222.659	-31.82
223.037	-24.66
223.416	-24.78
223.794	-28.33
224.173	-31.97
224.551	-32.12
224.929	-28.29
225.308	-25.21
225.686	-20.45
226.064	-18.31
226.442	-19.66
226.821	-10.65
227.199	-9.72
227.577	-11.57
227.955	-13.34
228.333	-11.2
228.711	-9.86
229.089	-3.27
229.467	-1.92
229.845	-2.36
230.222	-1.76
230.6	-0.1
230.978	0.78
231.356	4.63
231.733	6.84
232.111	7.38
232.488	8.17
232.866	9.17
233.243	10.29
233.621	8.57
233.998	8.84
234.376	11.09
234.753	9.25
235.13	8.76
235.508	10.2
235.885	10.85
236.262	10.41
236.639	11.16
237.016	10.37
237.393	10.74
237.77	9.64
238.147	8.92
238.524	8.46
238.901	8.27
239.278	7.94
239.655	7.44
240.032	6.99
240.409	6.4
240.785	6.35
241.162	6.51
241.539	6.54
241.915	6.37
242.292	5.74
242.668	5.65
243.045	5.8
243.421	5.23
243.798	5.13
244.174	5.2
244.551	5.3
244.927	4.97
245.303	5.15
245.679	5.28
246.056	5.25
246.432	5
246.808	4.9
247.184	4.77
247.56	4.83
247.936	4.91
248.312	5
248.688	5.09
249.064	5.15
249.44	5.32
249.815	5.29
250.191	5.38
250.567	5.35
250.943	5.22
251.318	5.59
251.694	5.63
252.069	5.47
252.445	5.53
252.82	5.81
253.196	5.52
253.571	5.34
253.947	5.59
254.322	5.92
254.697	5.84
255.073	5.49
255.448	5.26
255.823	5.23
256.198	5.41
256.573	5.09
256.948	4.99
257.323	5.06
257.698	4.88
258.073	4.89
258.448	4.92
258.823	4.81
259.198	4.73
259.573	4.86
259.948	4.9
260.322	4.83
260.697	4.65
261.072	4.69
261.446	4.74
261.821	4.72
262.195	4.79
262.57	4.75
262.944	4.78
263.319	4.81
263.693	4.84
264.067	4.78
264.442	4.87
264.816	4.93
265.19	4.7
265.564	4.84
265.938	4.75
266.313	4.63
266.687	4.78
267.061	5
267.435	4.75
267.809	4.62
268.183	4.61
268.556	4.55
268.93	4.53
269.304	4.38
269.678	4.41
270.051	4.35
270.425	4.41
270.799	4.47
271.172	4.59
271.546	4.42
271.919	4.24
272.293	4.34
272.666	4.29
273.04	4.36
273.413	4.25
273.787	4.27
274.16	4.38
274.533	4.45
274.906	4.36
275.279	4.66
275.653	4.7
276.026	4.65
276.399	4.84
276.772	5.04
277.145	5.15
277.518	4.93
277.891	4.9
278.263	4.92
278.636	4.98
279.009	4.92
279.382	5.21
279.755	5.25
280.127	5.43
280.5	5.52
280.872	5.59
281.245	5.67
281.617	5.73
281.99	5.75
282.362	5.69
282.735	5.5
283.107	5.31
283.479	5.41
283.852	5.49
284.224	5.4
284.596	5.26
284.968	5.29
285.34	5.6
285.713	5.52
286.085	5.53
286.457	5.57
286.829	5.59
287.201	5.58
287.572	5.63
287.944	5.45
288.316	5.47
288.688	5.41
289.06	5.42
289.431	5.42
289.803	5.48
290.175	5.52
290.546	5.78
290.918	5.77
291.289	5.73
291.661	5.63
292.032	5.85
292.403	6.01
292.775	6.12
293.146	5.9
293.517	5.98
293.889	6.08
294.26	6.13
294.631	6.2
295.002	6.11
295.373	6.16
295.744	6.17
296.115	6.06
296.486	5.97
296.857	5.95
297.228	5.91
297.599	5.81
297.97	5.8
298.34	5.68
298.711	5.75
299.082	5.77
299.452	5.83
299.823	5.84
300.194	5.83
300.564	5.84
300.935	6.08
301.305	6.2
301.676	6.15
302.046	6.2
302.416	6.25
302.787	6.45
303.157	6.46
303.527	6.57
303.897	6.66
304.267	6.9
304.637	6.97
305.008	7.21
305.378	7.39
305.748	7.47
306.117	7.5
306.487	7.55
306.857	7.62
307.227	7.58
307.597	7.52
307.967	7.56
308.336	7.5
308.706	7.46
309.076	7.5
309.445	7.59
309.815	7.56
310.184	7.47
310.554	7.48
310.923	7.45
311.293	7.45
311.662	7.43
312.031	7.44
312.401	7.48
312.77	7.53
313.139	7.51
313.508	7.52
313.877	7.68
314.246	7.67
314.616	7.63
314.985	7.69
315.353	7.71
315.722	7.7
316.091	7.69
316.46	7.58
316.829	7.52
317.198	7.59
317.567	7.64
317.935	7.75
318.304	7.77
318.672	7.78
319.041	7.94
319.41	7.91
319.778	7.93
320.147	8
320.515	7.82
320.883	7.65
321.252	7.83
321.62	7.8
321.988	7.75
322.357	7.95
322.725	8
323.093	8.12
323.461	8.21
323.829	8.18
324.197	8.27
324.565	8.24
324.933	8.12
325.301	8.17
325.669	8.11
326.037	8.12
326.405	8.2
326.772	8.16
327.14	8.32
327.508	8.49
327.875	8.44
328.243	8.47
328.61	8.6
328.978	8.54
329.346	8.52
329.713	8.65
330.08	8.58
330.448	8.52
330.815	8.38
331.182	8.32
331.55	8.43
331.917	8.51
332.284	8.76
332.651	8.64
333.018	8.65
333.385	8.66
333.752	8.65
334.119	8.65
334.486	8.63
334.853	8.54
335.22	8.36
335.587	8.38
335.954	8.39
336.32	8.43
336.687	8.44
337.054	8.41
337.42	8.33
337.787	8.39
338.153	8.49
338.52	8.57
338.886	8.55
339.253	8.5
339.619	8.47
339.986	8.33
340.352	8.56
340.718	8.59
341.084	8.7
341.451	8.77
341.817	8.98
342.183	9.06
342.549	9.15
342.915	9.22
343.281	9.31
343.647	9.38
344.013	9.47
344.379	9.42
344.745	9.52
345.11	9.59
345.476	9.6
345.842	9.68
346.208	9.7
346.573	9.73
346.939	9.87
347.304	9.84
347.67	9.85
348.035	9.78
348.401	9.78
348.766	9.8
349.132	9.75
349.497	9.65
349.862	9.67
350.228	9.68
350.593	9.62
350.958	9.56
351.323	9.54
351.688	9.48
352.053	9.57
352.418	9.55
352.783	9.63
353.148	9.64
353.513	9.61
353.878	9.64
354.243	9.68
354.608	9.65
354.972	9.7
355.337	9.82
355.702	9.87
356.066	9.84
356.431	9.81
356.795	9.82
357.16	9.75
357.524	9.66
357.889	9.6
358.253	9.68
358.618	9.72
358.982	9.7
359.346	9.65
359.71	9.63
360.075	9.72
360.439	9.7
360.803	9.63
361.167	9.61
361.531	9.57
361.895	9.52
362.259	9.58
362.623	9.52
362.987	9.43
363.351	9.41
363.714	9.44
364.078	9.41
364.442	9.36
364.806	9.35
365.169	9.42
365.533	9.45
365.896	9.37
366.26	9.32
366.623	9.27
366.987	9.31
367.35	9.23
367.714	9.18
368.077	9.08
368.44	9.09
368.803	9.03
369.167	9.03
369.53	8.98
369.893	8.91
370.256	9
370.619	8.98
370.982	8.92
371.345	8.84
371.708	8.87
372.071	8.89
372.434	8.82
372.797	8.73
373.159	8.68
373.522	8.69
373.885	8.76
374.247	8.86
374.61	8.83
374.973	8.82
375.335	8.74
375.698	8.8
376.06	8.84
376.423	8.88
376.785	8.83
377.147	8.85
377.51	8.78
377.872	8.72
378.234	8.72
378.596	8.74
378.958	8.74
379.321	8.71
379.683	8.65
380.045	8.65
380.407	8.63
380.769	8.56
381.13	8.51
381.492	8.46
381.854	8.41
382.216	8.37
382.578	8.37
382.939	8.38
383.301	8.31
383.663	8.23
384.024	8.21
384.386	8.26
384.747	8.23
385.109	8.24
385.47	8.21
385.832	8.13
386.193	8.11
386.554	8.05
386.916	8.01
387.277	8.01
387.638	8.02
387.999	7.97
388.36	8.02
388.721	8.03
389.082	8.01
389.443	7.95
389.804	7.96
390.165	7.84
390.526	7.81
390.887	7.78
391.248	7.75
391.609	7.7
391.969	7.64
392.33	7.6
392.691	7.56
393.051	7.53
393.412	7.56
393.772	7.51
394.133	7.53
394.493	7.49
394.854	7.46
395.214	7.48
395.574	7.48
395.935	7.43
396.295	7.4
396.655	7.33
397.015	7.32
397.376	7.26
397.736	7.33
398.096	7.3
398.456	7.31
398.816	7.27
399.176	7.23
399.535	7.2
399.895	7.21
400.255	7.2
400.615	7.21
400.975	7.16
401.334	7.17
401.694	7.14
402.054	7.13
402.413	7.13
402.773	7.05
403.132	7.05
403.492	7.04
403.851	7.01
404.211	7.02
404.57	7.01
404.929	7
405.288	6.96
405.648	6.95
406.007	6.95
406.366	6.95
406.725	6.98
407.084	7
407.443	6.98
407.802	6.97
408.161	6.94
408.52	6.91
408.879	6.87
409.238	6.86
409.596	6.86
409.955	6.85
410.314	6.88
410.673	6.87
411.031	6.86
411.39	6.84
411.748	6.85
412.107	6.83
412.465	6.8
412.824	6.82
413.182	6.8
413.54	6.75
413.899	6.73
414.257	6.71
414.615	6.69
414.974	6.69
415.332	6.68
415.69	6.66
416.048	6.64
416.406	6.62
416.764	6.6
417.122	6.6
417.48	6.57
417.838	6.54
418.195	6.51
418.553	6.5
418.911	6.49
419.269	6.46
419.626	6.44
419.984	6.42
420.342	6.39
420.699	6.36
421.057	6.37
421.414	6.36
421.772	6.34
422.129	6.33
422.486	6.3
422.844	6.28
423.201	6.27
423.558	6.28
423.915	6.25
424.273	6.23
424.63	6.2
424.987	6.2
425.344	6.2
425.701	6.18
426.058	6.17
426.415	6.16
426.772	6.16
427.128	6.15
427.485	6.14
427.842	6.14
428.199	6.14
428.555	6.12
428.912	6.12
429.269	6.11
429.625	6.1
429.982	6.11
430.338	6.1
430.695	6.08
431.051	6.08
431.407	6.09
431.764	6.09
432.12	6.08
432.476	6.07
432.832	6.07
433.189	6.08
433.545	6.07
433.901	6.06
434.257	6.03
434.613	6.03
434.969	6.04
435.325	6.05
435.681	6.07
436.036	6.07
436.392	6.07
436.748	6.06
437.104	6.05
437.459	6.04
437.815	6.02
438.171	6.02
438.526	6.05
438.882	6.05
439.237	6.06
439.593	6.06
439.948	6.05
440.304	6.03
440.659	6.03
441.014	6.03
441.369	6.04
441.725	6.03
442.08	6.03
442.435	6.02
442.79	6
443.145	5.97
443.5	5.97
443.855	5.96
444.21	5.95
444.565	5.95
444.92	5.95
445.275	5.96
445.629	5.96
445.984	5.92
446.339	5.9
446.693	5.88
447.048	5.9
447.403	5.88
447.757	5.87
448.112	5.86
448.466	5.85
448.82	5.84
449.175	5.85
449.529	5.83
449.883	5.82
450.238	5.82
450.592	5.8
450.946	5.78
451.3	5.76
451.654	5.74
452.008	5.73
452.362	5.72
452.716	5.69
453.07	5.67
453.424	5.67
453.778	5.68
454.132	5.66
454.486	5.61
454.839	5.62
455.193	5.62
455.547	5.62
455.9	5.62
456.254	5.63
456.607	5.64
456.961	5.64
457.314	5.64
457.668	5.64
458.021	5.66
458.375	5.66
458.728	5.67
459.081	5.69
459.434	5.69
459.787	5.7
460.141	5.71
460.494	5.71
460.847	5.72
461.2	5.71
461.553	5.76
461.906	5.8
462.259	5.8
462.611	5.82
462.964	5.82
463.317	5.82
463.67	5.83
464.022	5.81
464.375	5.83
464.728	5.86
465.08	5.89
465.433	5.9
465.785	5.91
466.138	5.91
466.49	5.92
466.843	5.93
467.195	5.97
467.547	5.97
467.899	6
468.252	6.01
468.604	6.02
468.956	5.99
469.308	6
469.66	6.01
470.012	6.03
470.364	6.03
470.716	6.07
471.068	6.06
471.42	6.09
471.772	6.09
472.123	6.11
472.475	6.1
472.827	6.1
473.178	6.13
473.53	6.13
473.882	6.13
474.233	6.16
474.585	6.11
474.936	6.12
475.288	6.12
475.639	6.14
475.99	6.15
476.342	6.16
476.693	6.14
477.044	6.16
477.395	6.15
477.746	6.15
478.097	6.12
478.448	6.1
478.8	6.08
479.15	6.06
479.501	6.04
479.852	6.03
480.203	6.05
480.554	6.04
480.905	6.06
481.255	6.06
481.606	6.05
481.957	6.07
482.307	6.06
482.658	6.07
483.009	6.05
483.359	6.05
483.709	6.06
484.06	6.06
484.41	6.06
484.761	6.07
485.111	6.07
485.461	6.08
485.811	6.08
486.162	6.08
486.512	6.1
486.862	6.11
487.212	6.13
487.562	6.12
487.912	6.13
488.262	6.12
488.612	6.12
488.961	6.12
489.311	6.12
489.661	6.14
490.011	6.14
490.36	6.15
490.71	6.15
491.06	6.16
491.409	6.16
491.759	6.16
492.108	6.17
492.458	6.17
492.807	6.19
493.157	6.21
493.506	6.24
493.855	6.24
494.204	6.26
494.554	6.26
494.903	6.28
495.252	6.3
495.601	6.34
495.95	6.36
496.299	6.39
496.648	6.43
496.997	6.44
497.346	6.48
497.695	6.53
498.043	6.57
498.392	6.6
498.741	6.65
499.09	6.69
499.438	6.73
499.787	6.8
500.135	6.84
500.484	6.85
500.832	6.89
501.181	6.94
501.529	6.97
501.878	7.02
502.226	7.08
502.574	7.15
502.923	7.21
503.271	7.27
503.619	7.34
503.967	7.39
504.315	7.44
504.663	7.47
505.011	7.52
505.359	7.57
505.707	7.61
506.055	7.67
506.403	7.73
506.751	7.78
507.098	7.82
507.446	7.87
507.794	7.96
508.141	8.01
508.489	8.07
508.837	8.12
509.184	8.21
509.531	8.27
509.879	8.32
510.226	8.37
510.574	8.42
510.921	8.46
511.268	8.49
511.616	8.55
511.963	8.62
512.31	8.68
512.657	8.77
513.004	8.86
513.351	8.92
513.698	8.97
514.045	9.04
514.392	9.1
514.739	9.16
515.086	9.22
515.432	9.28
515.779	9.36
516.126	9.44
516.473	9.47
516.819	9.52
517.166	9.57
517.512	9.62
517.859	9.67
518.205	9.72
518.552	9.81
518.898	9.88
519.245	9.96
519.591	10.02
519.937	10.05
520.283	10.1
520.629	10.17
520.976	10.25
521.322	10.33
521.668	10.4
522.014	10.49
522.36	10.59
522.706	10.7
523.052	10.8
523.398	10.91
523.743	11.03
524.089	11.14
524.435	11.25
524.781	11.37
525.126	11.47
525.472	11.58
525.817	11.67
526.163	11.74
526.509	11.81
526.854	11.88
527.199	11.97
527.545	12.05
527.89	12.14
528.235	12.21
528.581	12.31
528.926	12.41
529.271	12.5
529.616	12.59
529.961	12.68
530.306	12.78
530.651	12.87
530.996	12.97
531.341	13.09
531.686	13.22
532.031	13.34
532.376	13.48
532.721	13.61
533.065	13.74
533.41	13.9
533.755	14.04
534.099	14.22
534.444	14.37
534.788	14.54
535.133	14.67
535.477	14.86
535.822	15.03
536.166	15.2
536.51	15.4
536.855	15.6
537.199	15.82
537.543	16.04
537.887	16.28
538.231	16.51
538.576	16.76
538.92	16.99
539.264	17.21
539.608	17.41
539.951	17.63
540.295	17.82
540.639	18.04
540.983	18.26
541.327	18.45
541.671	18.64
542.014	18.82
542.358	19.02
542.701	19.2
543.045	19.4
543.389	19.61
543.732	19.81
544.075	20.04
544.419	20.27
544.762	20.51
545.105	20.77
545.449	21.05
545.792	21.32
546.135	21.6
546.478	21.91
546.821	22.21
547.165	22.51
547.508	22.85
547.851	23.14
548.194	23.46
548.536	23.76
548.879	24.11
549.222	24.45
549.565	24.8
549.908	25.12
550.25	25.5
550.593	25.83
550.936	26.18
551.278	26.5
551.621	26.9
551.963	27.26
552.306	27.57
552.648	27.86
552.991	28.19
553.333	28.51
553.675	28.83
554.017	29.13
554.36	29.42
554.702	29.74
555.044	30.07
555.386	30.36
555.728	30.67
556.07	30.99
556.412	31.3
556.754	31.65
557.096	31.97
557.438	32.25
557.78	32.6
558.121	32.95
558.463	33.33
558.805	33.6
559.147	33.88
559.488	34.23
559.83	34.58
560.171	34.86
560.513	35.14
560.854	35.47
561.196	35.8
561.537	36.12
561.878	36.43
562.22	36.74
562.561	37.06
562.902	37.39
563.243	37.67
563.584	37.96
563.925	38.22
564.266	38.51
564.607	38.79
564.948	39.06
565.289	39.32
565.63	39.49
565.971	39.72
566.312	39.97
566.653	40.16
566.993	40.43
567.334	40.69
567.675	40.95
568.015	41.18
568.356	41.43
568.696	41.67
569.037	41.89
569.377	42.14
569.718	42.36
570.058	42.6
570.398	42.84
570.739	43.02
571.079	43.23
571.419	43.48
571.759	43.68
572.099	43.8
572.439	43.95
572.779	44.18
573.119	44.37
573.459	44.53
573.799	44.74
574.139	44.85
574.479	45.01
574.819	45.16
575.158	45.32
575.498	45.51
575.838	45.72
576.177	45.82
576.517	45.99
576.856	46.15
577.196	46.3
577.535	46.47
577.875	46.69
578.214	46.87
578.553	47.06
578.893	47.25
579.232	47.51
579.571	47.73
579.91	47.87
580.25	48.04
580.589	48.24
580.928	48.4
581.267	48.62
581.606	48.77
581.945	49
582.283	49.11
582.622	49.2
582.961	49.3
583.3	49.6
583.639	49.73
583.977	49.86
584.316	50.08
584.654	50.13
584.993	50.27
585.332	50.44
585.67	50.44
586.008	50.59
586.347	50.71
586.685	50.82
587.024	50.95
587.362	51.07
587.7	51.17
588.038	51.31
588.376	51.36
588.715	51.48
589.053	51.55
589.391	51.67
589.729	51.77
590.067	51.84
590.404	51.86
590.742	51.95
591.08	51.99
591.418	52.04
591.756	52.24
592.093	52.34
592.431	52.41
592.769	52.54
593.106	52.48
593.444	52.55
593.781	52.75
594.119	52.89
594.456	52.98
594.793	53.04
595.131	53.04
595.468	53.19
595.805	53.24
596.143	53.28
596.48	53.32
596.817	53.39
597.154	53.51
597.491	53.54
597.828	53.61
598.165	53.71
598.502	53.73
598.839	53.76
599.176	53.81
599.512	53.9
599.849	54.06
600.186	54.27
600.523	54.36
600.859	54.38
601.196	54.4
601.532	54.51
601.869	54.58
602.205	54.75
602.542	54.81
602.878	54.91
603.215	55.04
603.551	55.19
603.887	55.28
604.223	55.27
604.56	55.43
604.896	55.46
605.232	55.54
605.568	55.67
605.904	55.71
606.24	55.8
606.576	55.86
606.912	55.89
607.248	56.01
607.583	56.06
607.919	56.11
608.255	56.22
608.591	56.3
608.926	56.35
609.262	56.35
609.597	56.4
609.933	56.39
610.268	56.38
610.604	56.35
610.939	56.33
611.275	56.44
611.61	56.4
611.945	56.46
612.281	56.49
612.616	56.56
612.951	56.65
613.286	56.67
613.621	56.7
613.956	56.74
614.291	56.63
614.626	56.64
614.961	56.67
615.296	56.75
615.631	56.76
615.966	56.85
616.3	56.97
616.635	57.01
616.97	57.1
617.304	57.23
617.639	57.33
617.973	57.45
618.308	57.49
618.642	57.59
618.977	57.68
619.311	57.72
619.646	57.66
619.98	57.66
620.314	57.74
620.648	57.82
620.983	57.87
621.317	57.94
621.651	58.03
621.985	58.03
622.319	58.02
622.653	58.1
622.987	58.16
623.321	58.13
623.655	58.1
623.988	58.21
624.322	58.26
624.656	58.3
624.99	58.32
625.323	58.32
625.657	58.2
625.99	58.19
626.324	58.18
626.657	58.17
626.991	58.28
627.324	58.31
627.658	58.3
627.991	58.27
628.324	58.29
628.657	58.26
628.991	58.32
629.324	58.3
629.657	58.18
629.99	58.17
630.323	58.17
630.656	58.27
630.989	58.28
631.322	58.26
631.655	58.32
631.987	58.34
632.32	58.43
632.653	58.65
632.986	58.66
633.318	58.81
633.651	58.89
633.984	58.92
634.316	58.87
634.649	58.89
634.981	58.92
635.313	58.91
635.646	59.01
635.978	59.12
636.31	59.13
636.643	59.35
636.975	59.46
637.307	59.44
637.639	59.36
637.971	59.32
638.303	59.32
638.635	59.33
638.967	59.45
639.299	59.42
639.631	59.45
639.963	59.61
640.295	59.51
640.626	59.53
640.958	59.43
641.29	59.44
641.621	59.45
641.953	59.49
642.285	59.51
642.616	59.54
642.948	59.38
643.279	59.49
643.61	59.44
643.942	59.43
644.273	59.6
644.604	59.63
644.936	59.74
645.267	59.77
645.598	59.82
645.929	59.82
646.26	59.86
646.591	59.84
646.922	59.75
647.253	59.74
647.584	59.92
647.915	60.02
648.245	60.19
648.576	60.18
648.907	60.3
649.238	60.48
649.568	60.52
649.899	60.68
650.229	60.74
650.56	60.74
650.89	60.69
651.221	60.69
651.551	60.71
651.882	60.73
652.212	60.82
652.542	60.73
652.872	60.73
653.203	60.8
653.533	60.83
653.863	60.96
654.193	61.03
654.523	60.9
654.853	60.89
655.183	60.9
655.513	61.07
655.843	61.07
656.172	61.08
656.502	60.95
656.832	61
657.162	61.13
657.491	61.16
657.821	61.22
658.15	61.24
658.48	61.35
658.809	61.4
659.139	61.31
659.468	61.32
659.798	61.4
660.127	61.38
660.456	61.33
660.785	61.35
661.115	61.38
661.444	61.35
661.773	61.26
662.102	61.18
662.431	61.15
662.76	61.16
663.089	61.03
663.418	61.22
663.747	61.05
664.076	60.97
664.404	60.87
664.733	60.91
665.062	61.01
665.39	60.95
665.719	60.87
666.048	61.05
