Data from BA28467_Reflection_00005.txt Node
Date: Mon Nov 18 15:33:02 EST 2019
User: vgr7
Spectrometer: USB2G7710
Scans to average: 3
Trigger mode: 4
Integration Time (sec): 2.000000E-2
Electric dark correction enabled: true
Boxcar width: 10
XAxis mode: Wavelengths
Number of Pixels in Spectrum: 2048
>>>>>Begin Spectral Data<<<<<
177.721	125.11
178.105	160.91
178.488	38.37
178.871	36.44
179.254	295.98
179.636	-18.58
180.019	517.72
180.402	170
180.785	1312.77
181.168	627.03
181.55	372.73
181.933	141.22
182.316	143.58
182.698	102.35
183.081	67.36
183.463	151.63
183.846	304.36
184.228	234.95
184.611	138.3
184.993	-73.75
185.376	-98.24
185.758	-113.39
186.14	-57.11
186.522	12.03
186.904	-23.29
187.287	-609.92
187.669	-82.71
188.051	196.21
188.433	-77.07
188.815	-46.16
189.197	-115.12
189.579	-49.27
189.961	-34.87
190.342	-42.68
190.724	-11.81
191.106	-52.5
191.488	-50.84
191.869	-34.21
192.251	-63.36
192.633	-82.64
193.014	-115.26
193.396	-167.72
193.777	-188.07
194.159	-175.83
194.54	-248.37
194.922	-137.95
195.303	-243.72
195.684	-169.79
196.065	-76.62
196.447	-179.13
196.828	-786.12
197.209	-185.58
197.59	-644.78
197.971	2473.91
198.352	-5580.85
198.733	422.81
199.114	393.9
199.495	392.54
199.876	199.89
200.257	-748.61
200.638	-196.07
201.018	-146.98
201.399	-111.81
201.78	-91.49
202.16	-128.47
202.541	-173.31
202.922	-406.27
203.302	-346.52
203.683	-352.88
204.063	-1052.74
204.444	-908.57
204.824	-381.21
205.204	-674.76
205.585	-307.28
205.965	-180.21
206.345	-285.81
206.725	-282.24
207.106	-497.03
207.486	-547.22
207.866	-440.87
208.246	-1499.22
208.626	1803.52
209.006	885.92
209.386	262.83
209.766	353.01
210.145	4618.99
210.525	-2374.45
210.905	-442.17
211.285	-142.26
211.664	-220.9
212.044	-130.52
212.424	-105.83
212.803	-166.27
213.183	-150.78
213.562	-104.04
213.942	-93.37
214.321	-91.04
214.701	-125.15
215.08	-111.21
215.459	-116.6
215.838	-91.23
216.218	-82.25
216.597	-55.97
216.976	-63.55
217.355	-53.59
217.734	-69.9
218.113	-81.6
218.492	-89.44
218.871	-104.42
219.25	-102.69
219.629	-88.69
220.008	-110.91
220.387	-72.65
220.766	-67.67
221.144	-94.81
221.523	-120.08
221.902	-131.28
222.28	-128.94
222.659	-70.67
223.037	-63.07
223.416	-57.45
223.794	-58.4
224.173	-45.74
224.551	-48.21
224.929	-48.88
225.308	-41.32
225.686	-34.21
226.064	-25.01
226.442	-20.08
226.821	-11.8
227.199	-9.6
227.577	-12.02
227.955	-6.19
228.333	-7.81
228.711	-5
229.089	-3.66
229.467	-5.06
229.845	-2.57
230.222	-4.71
230.6	-4.94
230.978	-5.2
231.356	-2.56
231.733	-4.98
232.111	-4.08
232.488	-2.73
232.866	-2.01
233.243	-1.87
233.621	-2.73
233.998	-3.4
234.376	-6.03
234.753	-8.21
235.13	-7.88
235.508	-5.51
235.885	-4.78
236.262	-5.9
236.639	-4.69
237.016	-3.49
237.393	-0.51
237.77	-0.26
238.147	1.09
238.524	1.29
238.901	1.87
239.278	2.59
239.655	3.4
240.032	3.66
240.409	3.15
240.785	3.56
241.162	4.58
241.539	5.15
241.915	5.6
242.292	5.49
242.668	5.77
243.045	5.4
243.421	5.39
243.798	4.95
244.174	5.15
244.551	4.97
244.927	5.03
245.303	4.79
245.679	4.77
246.056	4.71
246.432	4.76
246.808	4.79
247.184	4.28
247.56	4.08
247.936	3.83
248.312	4
248.688	3.94
249.064	3.56
249.44	3.36
249.815	3.35
250.191	3.66
250.567	3.5
250.943	3.46
251.318	3.55
251.694	3.57
252.069	3.53
252.445	3.55
252.82	3.57
253.196	3.5
253.571	3.28
253.947	3.19
254.322	3.09
254.697	2.99
255.073	3.16
255.448	3.36
255.823	3.43
256.198	3.36
256.573	3.36
256.948	3.64
257.323	3.86
257.698	3.79
258.073	3.86
258.448	3.97
258.823	3.96
259.198	3.84
259.573	3.89
259.948	4
260.322	3.92
260.697	3.96
261.072	3.86
261.446	3.97
261.821	3.85
262.195	3.78
262.57	3.79
262.944	3.91
263.319	3.82
263.693	3.88
264.067	3.89
264.442	4.1
264.816	4.04
265.19	3.79
265.564	3.82
265.938	3.7
266.313	3.55
266.687	3.62
267.061	3.64
267.435	3.67
267.809	3.59
268.183	3.84
268.556	3.52
268.93	3.75
269.304	3.73
269.678	3.87
270.051	3.89
270.425	3.84
270.799	3.78
271.172	3.82
271.546	3.75
271.919	3.74
272.293	3.44
272.666	3.46
273.04	3.64
273.413	3.68
273.787	3.7
274.16	3.82
274.533	3.83
274.906	3.84
275.279	3.72
275.653	3.53
276.026	3.3
276.399	3.45
276.772	3.34
277.145	3.35
277.518	3.27
277.891	3.33
278.263	3.44
278.636	3.47
279.009	3.57
279.382	3.81
279.755	3.91
280.127	4.22
280.5	4.3
280.872	4.29
281.245	4.27
281.617	4.27
281.99	4.25
282.362	4.24
282.735	4.14
283.107	4.27
283.479	4.46
283.852	4.52
284.224	4.49
284.596	4.54
284.968	4.41
285.34	4.58
285.713	4.52
286.085	4.48
286.457	4.51
286.829	4.52
287.201	4.37
287.572	4.29
287.944	4.18
288.316	4.2
288.688	4.12
289.06	4.08
289.431	4.06
289.803	4.06
290.175	4.05
290.546	4.11
290.918	4.16
291.289	4.22
291.661	4.25
292.032	4.4
292.403	4.35
292.775	4.51
293.146	4.39
293.517	4.59
293.889	4.67
294.26	4.66
294.631	4.71
295.002	4.76
295.373	4.77
295.744	4.83
296.115	4.72
296.486	4.7
296.857	4.75
297.228	4.79
297.599	4.75
297.97	4.77
298.34	4.74
298.711	4.7
299.082	4.58
299.452	4.57
299.823	4.55
300.194	4.47
300.564	4.41
300.935	4.48
301.305	4.36
301.676	4.29
302.046	4.24
302.416	4.27
302.787	4.23
303.157	4.22
303.527	4.17
303.897	4.19
304.267	4.33
304.637	4.41
305.008	4.36
305.378	4.5
305.748	4.55
306.117	4.59
306.487	4.54
306.857	4.63
307.227	4.61
307.597	4.54
307.967	4.63
308.336	4.63
308.706	4.51
309.076	4.54
309.445	4.52
309.815	4.62
310.184	4.42
310.554	4.45
310.923	4.48
311.293	4.51
311.662	4.5
312.031	4.35
312.401	4.32
312.77	4.45
313.139	4.43
313.508	4.46
313.877	4.54
314.246	4.55
314.616	4.45
314.985	4.41
315.353	4.45
315.722	4.48
316.091	4.47
316.46	4.55
316.829	4.45
317.198	4.51
317.567	4.41
317.935	4.36
318.304	4.39
318.672	4.52
319.041	4.59
319.41	4.68
319.778	4.87
320.147	4.76
320.515	4.7
320.883	4.69
321.252	4.56
321.62	4.5
321.988	4.57
322.357	4.59
322.725	4.62
323.093	4.73
323.461	4.79
323.829	4.98
324.197	5.08
324.565	5.19
324.933	5.03
325.301	5.11
325.669	5.22
326.037	5.17
326.405	5.12
326.772	5.08
327.14	5.02
327.508	4.96
327.875	4.93
328.243	4.94
328.61	4.94
328.978	4.92
329.346	5
329.713	4.88
330.08	4.96
330.448	4.96
330.815	4.71
331.182	4.6
331.55	4.39
331.917	4.24
332.284	4.19
332.651	4.35
333.018	4.32
333.385	4.23
333.752	4.4
334.119	4.33
334.486	4.34
334.853	4.46
335.22	4.46
335.587	4.56
335.954	4.57
336.32	4.64
336.687	4.79
337.054	4.74
337.42	4.78
337.787	4.79
338.153	4.8
338.52	4.95
338.886	4.95
339.253	4.88
339.619	4.94
339.986	4.88
340.352	4.83
340.718	4.78
341.084	4.82
341.451	4.71
341.817	4.85
342.183	4.78
342.549	4.8
342.915	4.82
343.281	4.78
343.647	4.69
344.013	4.56
344.379	4.44
344.745	4.55
345.11	4.58
345.476	4.59
345.842	4.48
346.208	4.56
346.573	4.61
346.939	4.84
347.304	4.81
347.67	4.82
348.035	4.83
348.401	4.82
348.766	4.92
349.132	4.86
349.497	4.75
349.862	4.84
350.228	4.79
350.593	4.78
350.958	4.8
351.323	4.82
351.688	4.92
352.053	5.02
352.418	4.98
352.783	5.03
353.148	5.04
353.513	5.15
353.878	5.08
354.243	5.15
354.608	5
354.972	5.08
355.337	5.2
355.702	5.21
356.066	5.3
356.431	5.3
356.795	5.35
357.16	5.3
357.524	5.25
357.889	5.25
358.253	5.25
358.618	5.24
358.982	5.24
359.346	5.17
359.71	5.17
360.075	5.18
360.439	5.16
360.803	5.15
361.167	5.1
361.531	5.13
361.895	5.06
362.259	5.11
362.623	5.14
362.987	5.05
363.351	5.05
363.714	4.99
364.078	4.97
364.442	4.94
364.806	4.96
365.169	4.97
365.533	4.91
365.896	4.95
366.26	4.93
366.623	4.91
366.987	4.89
367.35	4.79
367.714	4.77
368.077	4.69
368.44	4.68
368.803	4.73
369.167	4.71
369.53	4.72
369.893	4.76
370.256	4.71
370.619	4.75
370.982	4.72
371.345	4.78
371.708	4.78
372.071	4.81
372.434	4.86
372.797	4.86
373.159	4.91
373.522	4.88
373.885	4.92
374.247	4.98
374.61	5.04
374.973	5.09
375.335	5.06
375.698	5.12
376.06	5.13
376.423	5.11
376.785	5.14
377.147	5.16
377.51	5.1
377.872	5.1
378.234	5.08
378.596	5.15
378.958	5.13
379.321	5.14
379.683	5.17
380.045	5.09
380.407	5.07
380.769	5.07
381.13	5.08
381.492	5.05
381.854	5.01
382.216	5
382.578	5
382.939	5
383.301	4.98
383.663	4.95
384.024	4.94
384.386	4.93
384.747	4.95
385.109	5.01
385.47	5.02
385.832	5.03
386.193	5.02
386.554	5.01
386.916	4.99
387.277	5
387.638	5.07
387.999	5.07
388.36	5.06
388.721	5.05
389.082	5.1
389.443	5.09
389.804	5.07
390.165	5.07
390.526	5.08
390.887	5.08
391.248	5.1
391.609	5.14
391.969	5.11
392.33	5.09
392.691	5.08
393.051	5.08
393.412	5.14
393.772	5.1
394.133	5.13
394.493	5.12
394.854	5.08
395.214	5.06
395.574	5.07
395.935	5.09
396.295	5.08
396.655	5.04
397.015	5.09
397.376	5.11
397.736	5.11
398.096	5.12
398.456	5.16
398.816	5.15
399.176	5.1
399.535	5.09
399.895	5.08
400.255	5.07
400.615	5.08
400.975	5.03
401.334	5.07
401.694	5.05
402.054	5.03
402.413	5.07
402.773	5.06
403.132	5.06
403.492	5.06
403.851	5.07
404.211	5.05
404.57	5
404.929	5.02
405.288	5.03
405.648	5
406.007	4.98
406.366	4.99
406.725	5.03
407.084	5.05
407.443	5.05
407.802	5.05
408.161	5.03
408.52	5.04
408.879	5.02
409.238	5.02
409.596	5.05
409.955	5.02
410.314	5.02
410.673	4.98
411.031	4.98
411.39	4.99
411.748	5.03
412.107	5.07
412.465	5.04
412.824	5.05
413.182	5.03
413.54	5.03
413.899	5.01
414.257	4.99
414.615	4.96
414.974	4.96
415.332	4.97
415.69	4.96
416.048	4.95
416.406	4.97
416.764	4.94
417.122	4.94
417.48	4.92
417.838	4.93
418.195	4.95
418.553	4.94
418.911	4.92
419.269	4.92
419.626	4.91
419.984	4.9
420.342	4.91
420.699	4.91
421.057	4.93
421.414	4.93
421.772	4.93
422.129	4.92
422.486	4.92
422.844	4.93
423.201	4.92
423.558	4.92
423.915	4.91
424.273	4.9
424.63	4.89
424.987	4.91
425.344	4.9
425.701	4.91
426.058	4.91
426.415	4.92
426.772	4.89
427.128	4.88
427.485	4.89
427.842	4.88
428.199	4.88
428.555	4.85
428.912	4.84
429.269	4.84
429.625	4.84
429.982	4.82
430.338	4.8
430.695	4.81
431.051	4.79
431.407	4.8
431.764	4.81
432.12	4.82
432.476	4.82
432.832	4.81
433.189	4.79
433.545	4.77
433.901	4.78
434.257	4.77
434.613	4.78
434.969	4.78
435.325	4.79
435.681	4.79
436.036	4.81
436.392	4.83
436.748	4.82
437.104	4.82
437.459	4.84
437.815	4.83
438.171	4.83
438.526	4.84
438.882	4.84
439.237	4.84
439.593	4.83
439.948	4.84
440.304	4.84
440.659	4.85
441.014	4.85
441.369	4.83
441.725	4.83
442.08	4.84
442.435	4.84
442.79	4.84
443.145	4.85
443.5	4.82
443.855	4.83
444.21	4.83
444.565	4.84
444.92	4.84
445.275	4.83
445.629	4.83
445.984	4.83
446.339	4.81
446.693	4.81
447.048	4.81
447.403	4.8
447.757	4.8
448.112	4.8
448.466	4.8
448.82	4.8
449.175	4.82
449.529	4.8
449.883	4.79
450.238	4.77
450.592	4.78
450.946	4.78
451.3	4.76
451.654	4.76
452.008	4.75
452.362	4.75
452.716	4.74
453.07	4.76
453.424	4.75
453.778	4.76
454.132	4.74
454.486	4.74
454.839	4.73
455.193	4.72
455.547	4.69
455.9	4.69
456.254	4.68
456.607	4.67
456.961	4.69
457.314	4.69
457.668	4.72
458.021	4.69
458.375	4.69
458.728	4.69
459.081	4.69
459.434	4.69
459.787	4.69
460.141	4.71
460.494	4.7
460.847	4.72
461.2	4.71
461.553	4.71
461.906	4.72
462.259	4.72
462.611	4.74
462.964	4.76
463.317	4.77
463.67	4.79
464.022	4.79
464.375	4.79
464.728	4.78
465.08	4.78
465.433	4.78
465.785	4.79
466.138	4.8
466.49	4.81
466.843	4.82
467.195	4.84
467.547	4.85
467.899	4.85
468.252	4.84
468.604	4.86
468.956	4.86
469.308	4.88
469.66	4.88
470.012	4.92
470.364	4.94
470.716	4.95
471.068	4.96
471.42	4.98
471.772	5.02
472.123	5.04
472.475	5.05
472.827	5.06
473.178	5.08
473.53	5.06
473.882	5.05
474.233	5.04
474.585	5.03
474.936	5.01
475.288	5.04
475.639	5.05
475.99	5.05
476.342	5.06
476.693	5.05
477.044	5.06
477.395	5.02
477.746	5
478.097	5
478.448	4.97
478.8	4.97
479.15	4.93
479.501	4.92
479.852	4.91
480.203	4.93
480.554	4.94
480.905	4.95
481.255	4.97
481.606	4.98
481.957	4.98
482.307	4.99
482.658	4.99
483.009	4.99
483.359	5
483.709	5
484.06	4.99
484.41	5
484.761	5.01
485.111	5.01
485.461	5.01
485.811	5.01
486.162	5.01
486.512	5.02
486.862	5.03
487.212	5.03
487.562	5.03
487.912	5.04
488.262	5.05
488.612	5.05
488.961	5.04
489.311	5.03
489.661	5.04
490.011	5.03
490.36	5.03
490.71	5.03
491.06	5.04
491.409	5.03
491.759	5.03
492.108	5.02
492.458	5.03
492.807	5.03
493.157	5.03
493.506	5.04
493.855	5.03
494.204	5.03
494.554	5.04
494.903	5.02
495.252	5.01
495.601	5.02
495.95	5.02
496.299	5.03
496.648	5.03
496.997	5.02
497.346	5.03
497.695	5.04
498.043	5.06
498.392	5.07
498.741	5.09
499.09	5.11
499.438	5.12
499.787	5.15
500.135	5.18
500.484	5.19
500.832	5.23
501.181	5.25
501.529	5.24
501.878	5.26
502.226	5.3
502.574	5.29
502.923	5.31
503.271	5.32
503.619	5.35
503.967	5.36
504.315	5.37
504.663	5.39
505.011	5.4
505.359	5.4
505.707	5.41
506.055	5.41
506.403	5.43
506.751	5.43
507.098	5.43
507.446	5.43
507.794	5.43
508.141	5.44
508.489	5.46
508.837	5.49
509.184	5.48
509.531	5.49
509.879	5.5
510.226	5.5
510.574	5.49
510.921	5.49
511.268	5.5
511.616	5.51
511.963	5.49
512.31	5.51
512.657	5.51
513.004	5.51
513.351	5.51
513.698	5.52
514.045	5.53
514.392	5.55
514.739	5.55
515.086	5.57
515.432	5.56
515.779	5.56
516.126	5.57
516.473	5.58
516.819	5.59
517.166	5.58
517.512	5.6
517.859	5.62
518.205	5.63
518.552	5.63
518.898	5.64
519.245	5.65
519.591	5.64
519.937	5.64
520.283	5.65
520.629	5.65
520.976	5.66
521.322	5.68
521.668	5.68
522.014	5.69
522.36	5.69
522.706	5.69
523.052	5.71
523.398	5.72
523.743	5.73
524.089	5.75
524.435	5.75
524.781	5.75
525.126	5.76
525.472	5.77
525.817	5.78
526.163	5.79
526.509	5.8
526.854	5.82
527.199	5.83
527.545	5.83
527.89	5.84
528.235	5.83
528.581	5.83
528.926	5.83
529.271	5.84
529.616	5.84
529.961	5.85
530.306	5.86
530.651	5.86
530.996	5.87
531.341	5.87
531.686	5.89
532.031	5.9
532.376	5.89
532.721	5.89
533.065	5.9
533.41	5.93
533.755	5.93
534.099	5.94
534.444	5.95
534.788	5.96
535.133	5.96
535.477	5.96
535.822	5.96
536.166	5.96
536.51	5.96
536.855	5.99
537.199	5.99
537.543	5.99
537.887	5.99
538.231	5.98
538.576	5.98
538.92	6
539.264	5.98
539.608	6.01
539.951	6.01
540.295	6
540.639	5.99
540.983	5.99
541.327	5.99
541.671	5.99
542.014	5.98
542.358	5.99
542.701	6.01
543.045	6.04
543.389	6.04
543.732	6.04
544.075	6.04
544.419	6.05
544.762	6.05
545.105	6.05
545.449	6.05
545.792	6.05
546.135	6.06
546.478	6.07
546.821	6.06
547.165	6.07
547.508	6.08
547.851	6.09
548.194	6.07
548.536	6.06
548.879	6.08
549.222	6.1
549.565	6.1
549.908	6.09
550.25	6.08
550.593	6.1
550.936	6.08
551.278	6.09
551.621	6.09
551.963	6.09
552.306	6.1
552.648	6.1
552.991	6.12
553.333	6.1
553.675	6.12
554.017	6.12
554.36	6.08
554.702	6.09
555.044	6.08
555.386	6.06
555.728	6.07
556.07	6.08
556.412	6.07
556.754	6.06
557.096	6.06
557.438	6.07
557.78	6.04
558.121	6.1
558.463	6.08
558.805	6.08
559.147	6.07
559.488	6.04
559.83	6.09
560.171	6.08
560.513	6.09
560.854	6.07
561.196	6.09
561.537	6.11
561.878	6.13
562.22	6.14
562.561	6.15
562.902	6.18
563.243	6.15
563.584	6.15
563.925	6.15
564.266	6.15
564.607	6.15
564.948	6.18
565.289	6.16
565.63	6.19
565.971	6.21
566.312	6.23
566.653	6.26
566.993	6.21
567.334	6.22
567.675	6.22
568.015	6.24
568.356	6.25
568.696	6.28
569.037	6.27
569.377	6.28
569.718	6.32
570.058	6.33
570.398	6.35
570.739	6.37
571.079	6.38
571.419	6.37
571.759	6.41
572.099	6.41
572.439	6.42
572.779	6.37
573.119	6.38
573.459	6.4
573.799	6.4
574.139	6.44
574.479	6.42
574.819	6.42
575.158	6.42
575.498	6.45
575.838	6.44
576.177	6.43
576.517	6.44
576.856	6.41
577.196	6.38
577.535	6.4
577.875	6.41
578.214	6.42
578.553	6.47
578.893	6.43
579.232	6.41
579.571	6.38
579.91	6.42
580.25	6.4
580.589	6.35
580.928	6.37
581.267	6.38
581.606	6.42
581.945	6.43
582.283	6.41
582.622	6.36
582.961	6.38
583.3	6.39
583.639	6.4
583.977	6.44
584.316	6.46
584.654	6.45
584.993	6.42
585.332	6.4
585.67	6.36
586.008	6.34
586.347	6.32
586.685	6.32
587.024	6.3
587.362	6.31
587.7	6.33
588.038	6.33
588.376	6.34
588.715	6.32
589.053	6.33
589.391	6.38
589.729	6.38
590.067	6.37
590.404	6.36
590.742	6.38
591.08	6.34
591.418	6.37
591.756	6.41
592.093	6.42
592.431	6.43
592.769	6.49
593.106	6.55
593.444	6.56
593.781	6.57
594.119	6.61
594.456	6.61
594.793	6.63
595.131	6.62
595.468	6.63
595.805	6.63
596.143	6.64
596.48	6.63
596.817	6.66
597.154	6.67
597.491	6.68
597.828	6.66
598.165	6.71
598.502	6.7
598.839	6.67
599.176	6.67
599.512	6.7
599.849	6.68
600.186	6.64
600.523	6.7
600.859	6.76
601.196	6.73
601.532	6.7
601.869	6.69
602.205	6.7
602.542	6.7
602.878	6.7
603.215	6.66
603.551	6.64
603.887	6.62
604.223	6.65
604.56	6.67
604.896	6.65
605.232	6.62
605.568	6.61
605.904	6.6
606.24	6.61
606.576	6.58
606.912	6.58
607.248	6.59
607.583	6.56
607.919	6.52
608.255	6.52
608.591	6.6
608.926	6.61
609.262	6.61
609.597	6.6
609.933	6.61
610.268	6.62
610.604	6.63
610.939	6.66
611.275	6.62
611.61	6.62
611.945	6.67
612.281	6.71
612.616	6.74
612.951	6.77
613.286	6.77
613.621	6.79
613.956	6.78
614.291	6.8
614.626	6.8
614.961	6.8
615.296	6.82
615.631	6.75
615.966	6.76
616.3	6.79
616.635	6.78
616.97	6.78
617.304	6.82
617.639	6.84
617.973	6.83
618.308	6.86
618.642	6.88
618.977	6.87
619.311	6.82
619.646	6.8
619.98	6.82
620.314	6.82
620.648	6.83
620.983	6.85
621.317	6.83
621.651	6.81
621.985	6.86
622.319	6.87
622.653	6.89
622.987	6.93
623.321	6.91
623.655	6.93
623.988	6.99
624.322	6.96
624.656	6.94
624.99	6.95
625.323	7.01
625.657	6.92
625.99	6.92
626.324	6.97
626.657	6.98
626.991	6.98
627.324	7.01
627.658	6.99
627.991	6.97
628.324	6.99
628.657	7.01
628.991	6.98
629.324	7
629.657	6.99
629.99	6.95
630.323	6.96
630.656	6.95
630.989	6.97
631.322	7.01
631.655	7
631.987	6.99
632.32	6.92
632.653	6.97
632.986	6.96
633.318	6.95
633.651	6.98
633.984	6.98
634.316	6.94
634.649	6.89
634.981	6.9
635.313	6.89
635.646	6.9
635.978	6.92
636.31	6.88
636.643	6.87
636.975	6.88
637.307	6.86
637.639	6.9
637.971	6.82
638.303	6.8
638.635	6.81
638.967	6.77
639.299	6.81
639.631	6.82
639.963	6.82
640.295	6.88
640.626	6.84
640.958	6.89
641.29	6.94
641.621	7
641.953	6.96
642.285	7.01
642.616	7.06
642.948	7.08
643.279	7.07
643.61	7.07
643.942	7.06
644.273	7.11
644.604	7.1
644.936	7.09
645.267	7.06
645.598	7.02
645.929	7.08
646.26	7.06
646.591	7.01
646.922	6.94
647.253	6.88
647.584	6.85
647.915	6.79
648.245	6.74
648.576	6.79
648.907	6.86
649.238	6.84
649.568	6.8
649.899	6.74
650.229	6.81
650.56	6.98
650.89	6.97
651.221	6.93
651.551	6.88
651.882	6.88
652.212	6.94
652.542	6.92
652.872	6.93
653.203	6.92
653.533	7.02
653.863	7.14
654.193	7.13
654.523	7.11
654.853	7.17
655.183	7.18
655.513	7.18
655.843	7.18
656.172	7.21
656.502	7.32
656.832	7.33
657.162	7.35
657.491	7.25
657.821	7.31
658.15	7.33
658.48	7.37
658.809	7.43
659.139	7.44
659.468	7.5
659.798	7.48
660.127	7.52
660.456	7.53
660.785	7.5
661.115	7.53
661.444	7.6
661.773	7.57
662.102	7.68
662.431	7.73
662.76	7.7
663.089	7.67
663.418	7.57
663.747	7.59
664.076	7.54
664.404	7.53
664.733	7.52
665.062	7.46
665.39	7.45
665.719	7.44
666.048	7.48
666.376	7.45
666.705	7.38
667.033	7.33
667.362	7.34
667.69	7.37
668.018	7.38
668.347	7.39
668.675	7.43
669.003	7.43
669.331	7.39
669.659	7.36
669.987	7.37
670.315	7.35
670.643	7.37
670.971	7.37
671.299	7.38
671.627	7.44
671.955	7.45
672.283	7.51
672.61	7.45
672.938	7.35
673.266	7.35
673.593	7.42
673.921	7.47
674.249	7.42
674.576	7.35
674.904	7.34
675.231	7.3
675.558	7.29
675.886	7.26
