Data from BA28415_Reflection_00005.txt Node
Date: Mon Nov 18 16:02:15 EST 2019
User: vgr7
Spectrometer: USB2G7710
Scans to average: 3
Trigger mode: 4
Integration Time (sec): 2.000000E-2
Electric dark correction enabled: true
Boxcar width: 10
XAxis mode: Wavelengths
Number of Pixels in Spectrum: 2048
>>>>>Begin Spectral Data<<<<<
177.721	-52.21
178.105	14.8
178.488	-5.51
178.871	2.82
179.254	81.17
179.636	127.17
180.019	-240.12
180.402	75
180.785	-5.83
181.168	-39.18
181.55	-91.09
181.933	26.52
182.316	35.95
182.698	30.25
183.081	21.17
183.463	16.71
183.846	-15.58
184.228	-42.39
184.611	-4.56
184.993	-24.65
185.376	-16.24
185.758	-12.07
186.14	18.95
186.522	27.35
186.904	45.14
187.287	87.18
187.669	140.12
188.051	303.03
188.433	659.57
188.815	1430.94
189.197	-429.18
189.579	-311.04
189.961	-407.52
190.342	-375.88
190.724	-209.42
191.106	-192.81
191.488	-190.06
191.869	-199.93
192.251	-372.75
192.633	-164.91
193.014	-141.59
193.396	-109.72
193.777	-134.2
194.159	-174.31
194.54	-60.48
194.922	-51.09
195.303	-22.63
195.684	-10.12
196.065	14.21
196.447	7.45
196.828	-26.02
197.209	-25.73
197.59	-1018.81
197.971	-180
198.352	37.16
198.733	-900
199.114	-88.05
199.495	-133.42
199.876	245.23
200.257	179.14
200.638	-267.27
201.018	308.48
201.399	572.39
201.78	-783.87
202.16	462.88
202.541	393.32
202.922	307.29
203.302	256.23
203.683	299.07
204.063	308.77
204.444	470.6
204.824	372.07
205.204	352.86
205.585	1413.9
205.965	276.35
206.345	446.83
206.725	411.63
207.106	410.48
207.486	373.82
207.866	478.13
208.246	956.81
208.626	331.29
209.006	1635.85
209.386	969.47
209.766	836.5
210.145	-5040.85
210.525	-5368.09
210.905	-185.91
211.285	-112.36
211.664	-66.77
212.044	-41.02
212.424	-33.79
212.803	-34.51
213.183	-37.51
213.562	-75.45
213.942	-49.33
214.321	-14.05
214.701	-17.34
215.08	-57.95
215.459	-32.68
215.838	-28.3
216.218	-49.06
216.597	-40.59
216.976	-26.85
217.355	-33.44
217.734	-47.43
218.113	-53.14
218.492	-57.04
218.871	-79.84
219.25	-76.74
219.629	-127.12
220.008	-143.99
220.387	-153.24
220.766	-270.75
221.144	-405.42
221.523	-358.19
221.902	1758.23
222.28	-248.71
222.659	-68.69
223.037	-37.13
223.416	-51.8
223.794	-57.74
224.173	-73.63
224.551	-51.48
224.929	-52.64
225.308	-35.6
225.686	-22.45
226.064	-15.12
226.442	-15.39
226.821	-11.22
227.199	-14.24
227.577	-15.3
227.955	-21.06
228.333	-19.55
228.711	-12.94
229.089	-10.91
229.467	-11.76
229.845	-13.15
230.222	-11.26
230.6	-12.28
230.978	-10.92
231.356	-8.16
231.733	-7.39
232.111	-6.06
232.488	-5.77
232.866	-5.89
233.243	-5.03
233.621	-6.38
233.998	-4.63
234.376	-5.51
234.753	-5.65
235.13	-4.94
235.508	-3.14
235.885	-1.91
236.262	-3.11
236.639	-3.55
237.016	-3.92
237.393	-2.12
237.77	0.69
238.147	0.71
238.524	2.27
238.901	2.1
239.278	3.29
239.655	4.34
240.032	4.17
240.409	4.51
240.785	5.06
241.162	5.38
241.539	5.89
241.915	5.84
242.292	5.71
242.668	5.97
243.045	5.74
243.421	5.71
243.798	5.74
244.174	5.95
244.551	6.21
244.927	6.23
245.303	6.25
245.679	5.97
246.056	6.23
246.432	6
246.808	6.1
247.184	5.75
247.56	5.54
247.936	5.74
248.312	5.86
248.688	5.85
249.064	5.88
249.44	5.79
249.815	5.89
250.191	6.07
250.567	5.8
250.943	5.77
251.318	5.89
251.694	5.96
252.069	6.13
252.445	6.15
252.82	6.14
253.196	6.09
253.571	6.45
253.947	6.42
254.322	6.66
254.697	6.41
255.073	6.45
255.448	6.22
255.823	6.15
256.198	5.69
256.573	5.63
256.948	5.4
257.323	5.65
257.698	5.45
258.073	5.27
258.448	5.25
258.823	5.26
259.198	5.03
259.573	4.96
259.948	4.86
260.322	4.74
260.697	4.76
261.072	4.73
261.446	4.78
261.821	4.69
262.195	4.61
262.57	4.75
262.944	4.65
263.319	4.79
263.693	4.81
264.067	4.88
264.442	4.78
264.816	4.97
265.19	4.47
265.564	4.49
265.938	4.47
266.313	4.58
266.687	4.6
267.061	4.96
267.435	5.12
267.809	5.16
268.183	5.24
268.556	5.3
268.93	5.26
269.304	5.08
269.678	5.11
270.051	5.02
270.425	4.92
270.799	5.07
271.172	5.08
271.546	4.99
271.919	5.02
272.293	5.21
272.666	5.21
273.04	5.38
273.413	5.3
273.787	5.38
274.16	5.24
274.533	5.19
274.906	4.96
275.279	4.84
275.653	4.94
276.026	4.86
276.399	4.87
276.772	4.73
277.145	4.66
277.518	4.75
277.891	4.9
278.263	4.92
278.636	4.94
279.009	4.91
279.382	4.98
279.755	5.04
280.127	5.11
280.5	5.07
280.872	5.16
281.245	5.2
281.617	5.29
281.99	5.5
282.362	5.73
282.735	5.63
283.107	5.5
283.479	5.38
283.852	5.51
284.224	5.4
284.596	5.44
284.968	5.55
285.34	5.54
285.713	5.53
286.085	5.6
286.457	5.61
286.829	5.62
287.201	5.76
287.572	5.65
287.944	5.54
288.316	5.44
288.688	5.36
289.06	5.42
289.431	5.31
289.803	5.15
290.175	5.12
290.546	5.23
290.918	5.37
291.289	5.34
291.661	5.28
292.032	5.4
292.403	5.53
292.775	5.56
293.146	5.49
293.517	5.48
293.889	5.46
294.26	5.51
294.631	5.46
295.002	5.35
295.373	5.52
295.744	5.51
296.115	5.6
296.486	5.67
296.857	5.62
297.228	5.7
297.599	5.71
297.97	5.63
298.34	5.66
298.711	5.84
299.082	5.91
299.452	5.96
299.823	5.97
300.194	6.01
300.564	6
300.935	6.19
301.305	6.08
301.676	6.11
302.046	6.08
302.416	6.22
302.787	6.19
303.157	6.08
303.527	6.17
303.897	6.09
304.267	6.17
304.637	6.29
305.008	6.36
305.378	6.51
305.748	6.57
306.117	6.56
306.487	6.43
306.857	6.41
307.227	6.35
307.597	6.2
307.967	6.12
308.336	6.11
308.706	6
309.076	6.1
309.445	6.09
309.815	6.1
310.184	5.9
310.554	6
310.923	6
311.293	5.91
311.662	5.91
312.031	5.81
312.401	5.79
312.77	5.79
313.139	5.87
313.508	5.91
313.877	5.89
314.246	5.9
314.616	5.87
314.985	5.87
315.353	5.91
315.722	6
316.091	5.97
316.46	5.98
316.829	5.86
317.198	5.94
317.567	5.96
317.935	6.11
318.304	6.11
318.672	6.13
319.041	6.25
319.41	6.29
319.778	6.42
320.147	6.44
320.515	6.36
320.883	6.2
321.252	6.13
321.62	6.16
321.988	6.13
322.357	6.22
322.725	6.28
323.093	6.42
323.461	6.48
323.829	6.51
324.197	6.57
324.565	6.71
324.933	6.59
325.301	6.46
325.669	6.5
326.037	6.45
326.405	6.48
326.772	6.47
327.14	6.53
327.508	6.54
327.875	6.55
328.243	6.58
328.61	6.59
328.978	6.63
329.346	6.8
329.713	6.81
330.08	6.78
330.448	6.72
330.815	6.62
331.182	6.55
331.55	6.44
331.917	6.44
332.284	6.49
332.651	6.49
333.018	6.66
333.385	6.69
333.752	6.83
334.119	6.93
334.486	6.87
334.853	6.86
335.22	6.79
335.587	6.77
335.954	6.82
336.32	6.95
336.687	6.94
337.054	6.82
337.42	6.89
337.787	6.92
338.153	6.88
338.52	6.95
338.886	6.9
339.253	6.86
339.619	6.89
339.986	6.86
340.352	7
340.718	6.86
341.084	6.68
341.451	6.67
341.817	6.63
342.183	6.66
342.549	6.66
342.915	6.61
343.281	6.6
343.647	6.59
344.013	6.5
344.379	6.48
344.745	6.51
345.11	6.47
345.476	6.47
345.842	6.53
346.208	6.47
346.573	6.48
346.939	6.65
347.304	6.56
347.67	6.46
348.035	6.47
348.401	6.56
348.766	6.58
349.132	6.5
349.497	6.46
349.862	6.48
350.228	6.49
350.593	6.51
350.958	6.5
351.323	6.51
351.688	6.56
352.053	6.67
352.418	6.7
352.783	6.67
353.148	6.69
353.513	6.76
353.878	6.83
354.243	6.88
354.608	6.89
354.972	6.89
355.337	7.05
355.702	7.06
356.066	7.01
356.431	7.1
356.795	7.12
357.16	7.11
357.524	7.02
357.889	7
358.253	7.05
358.618	7.1
358.982	7.09
359.346	7.09
359.71	7.02
360.075	7.01
360.439	7.04
360.803	7.04
361.167	6.97
361.531	6.97
361.895	6.91
362.259	6.88
362.623	6.85
362.987	6.75
363.351	6.68
363.714	6.73
364.078	6.7
364.442	6.68
364.806	6.72
365.169	6.78
365.533	6.82
365.896	6.84
366.26	6.84
366.623	6.79
366.987	6.77
367.35	6.78
367.714	6.79
368.077	6.81
368.44	6.79
368.803	6.8
369.167	6.76
369.53	6.79
369.893	6.85
370.256	6.94
370.619	6.99
370.982	7
371.345	6.96
371.708	7.01
372.071	7.03
372.434	6.98
372.797	6.95
373.159	6.95
373.522	6.96
373.885	6.93
374.247	7
374.61	7.07
374.973	7.01
375.335	7.05
375.698	7.05
376.06	7.08
376.423	7.1
376.785	7.18
377.147	7.25
377.51	7.17
377.872	7.17
378.234	7.17
378.596	7.19
378.958	7.14
379.321	7.16
379.683	7.14
380.045	7.17
380.407	7.21
380.769	7.17
381.13	7.17
381.492	7.18
381.854	7.15
382.216	7.12
382.578	7.16
382.939	7.13
383.301	7.1
383.663	7.09
384.024	7.12
384.386	7.13
384.747	7.11
385.109	7.16
385.47	7.16
385.832	7.16
386.193	7.2
386.554	7.27
386.916	7.28
387.277	7.3
387.638	7.31
387.999	7.3
388.36	7.35
388.721	7.37
389.082	7.41
389.443	7.39
389.804	7.35
390.165	7.38
390.526	7.41
390.887	7.41
391.248	7.44
391.609	7.45
391.969	7.45
392.33	7.41
392.691	7.41
393.051	7.4
393.412	7.4
393.772	7.36
394.133	7.34
394.493	7.31
394.854	7.3
395.214	7.3
395.574	7.28
395.935	7.28
396.295	7.28
396.655	7.22
397.015	7.22
397.376	7.24
397.736	7.22
398.096	7.19
398.456	7.25
398.816	7.24
399.176	7.21
399.535	7.16
399.895	7.16
400.255	7.15
400.615	7.14
400.975	7.14
401.334	7.15
401.694	7.15
402.054	7.17
402.413	7.2
402.773	7.16
403.132	7.16
403.492	7.17
403.851	7.14
404.211	7.15
404.57	7.18
404.929	7.17
405.288	7.16
405.648	7.15
406.007	7.09
406.366	7.12
406.725	7.15
407.084	7.18
407.443	7.2
407.802	7.2
408.161	7.22
408.52	7.22
408.879	7.22
409.238	7.24
409.596	7.25
409.955	7.21
410.314	7.25
410.673	7.25
411.031	7.25
411.39	7.24
411.748	7.25
412.107	7.24
412.465	7.25
412.824	7.26
413.182	7.26
413.54	7.28
413.899	7.24
414.257	7.22
414.615	7.2
414.974	7.21
415.332	7.18
415.69	7.18
416.048	7.17
416.406	7.18
416.764	7.17
417.122	7.16
417.48	7.15
417.838	7.15
418.195	7.16
418.553	7.14
418.911	7.17
419.269	7.17
419.626	7.17
419.984	7.18
420.342	7.18
420.699	7.18
421.057	7.18
421.414	7.18
421.772	7.17
422.129	7.15
422.486	7.15
422.844	7.16
423.201	7.13
423.558	7.14
423.915	7.14
424.273	7.14
424.63	7.14
424.987	7.14
425.344	7.15
425.701	7.13
426.058	7.14
426.415	7.11
426.772	7.09
427.128	7.09
427.485	7.07
427.842	7.05
428.199	7.06
428.555	7.03
428.912	7.01
429.269	7.03
429.625	7.05
429.982	7.03
430.338	7.03
430.695	7.04
431.051	7.02
431.407	7.03
431.764	7.02
432.12	6.98
432.476	6.98
432.832	6.96
433.189	6.97
433.545	6.96
433.901	6.96
434.257	6.97
434.613	6.95
434.969	6.96
435.325	6.96
435.681	6.96
436.036	6.99
436.392	7.01
436.748	7
437.104	7.01
437.459	7.02
437.815	7.02
438.171	7.01
438.526	7.04
438.882	7.04
439.237	7.05
439.593	7.09
439.948	7.09
440.304	7.07
440.659	7.07
441.014	7.07
441.369	7.06
441.725	7.06
442.08	7.08
442.435	7.08
442.79	7.08
443.145	7.06
443.5	7.07
443.855	7.07
444.21	7.08
444.565	7.09
444.92	7.09
445.275	7.07
445.629	7.07
445.984	7.06
446.339	7.04
446.693	7.03
447.048	7.01
447.403	7.01
447.757	7.01
448.112	7.02
448.466	7
448.82	7.01
449.175	7.01
449.529	6.99
449.883	6.98
450.238	6.97
450.592	6.99
450.946	6.97
451.3	6.97
451.654	6.95
452.008	6.91
452.362	6.89
452.716	6.91
453.07	6.89
453.424	6.87
453.778	6.86
454.132	6.86
454.486	6.86
454.839	6.84
455.193	6.85
455.547	6.84
455.9	6.88
456.254	6.87
456.607	6.86
456.961	6.86
457.314	6.87
457.668	6.9
458.021	6.88
458.375	6.87
458.728	6.87
459.081	6.87
459.434	6.89
459.787	6.92
460.141	6.9
460.494	6.91
460.847	6.93
461.2	6.94
461.553	6.94
461.906	6.95
462.259	6.98
462.611	6.98
462.964	7
463.317	6.98
463.67	6.97
464.022	7.01
464.375	7.01
464.728	7.02
465.08	7
465.433	7.02
465.785	7.03
466.138	7.02
466.49	7.03
466.843	7.04
467.195	7.04
467.547	7.08
467.899	7.08
468.252	7.08
468.604	7.07
468.956	7.09
469.308	7.09
469.66	7.09
470.012	7.1
470.364	7.11
470.716	7.12
471.068	7.15
471.42	7.14
471.772	7.16
472.123	7.17
472.475	7.2
472.827	7.18
473.178	7.18
473.53	7.19
473.882	7.18
474.233	7.18
474.585	7.13
474.936	7.11
475.288	7.11
475.639	7.12
475.99	7.16
476.342	7.15
476.693	7.14
477.044	7.15
477.395	7.14
477.746	7.13
478.097	7.14
478.448	7.14
478.8	7.14
479.15	7.13
479.501	7.12
479.852	7.13
480.203	7.17
480.554	7.19
480.905	7.21
481.255	7.22
481.606	7.27
481.957	7.3
482.307	7.34
482.658	7.35
483.009	7.35
483.359	7.35
483.709	7.37
484.06	7.38
484.41	7.39
484.761	7.4
485.111	7.4
485.461	7.4
485.811	7.4
486.162	7.39
486.512	7.4
486.862	7.41
487.212	7.41
487.562	7.4
487.912	7.39
488.262	7.39
488.612	7.39
488.961	7.37
489.311	7.36
489.661	7.34
490.011	7.35
490.36	7.35
490.71	7.35
491.06	7.35
491.409	7.35
491.759	7.34
492.108	7.34
492.458	7.36
492.807	7.36
493.157	7.37
493.506	7.4
493.855	7.4
494.204	7.39
494.554	7.41
494.903	7.42
495.252	7.44
495.601	7.46
495.95	7.48
496.299	7.48
496.648	7.5
496.997	7.52
497.346	7.52
497.695	7.52
498.043	7.53
498.392	7.52
498.741	7.54
499.09	7.54
499.438	7.55
499.787	7.52
500.135	7.55
500.484	7.55
500.832	7.55
501.181	7.58
501.529	7.6
501.878	7.59
502.226	7.61
502.574	7.59
502.923	7.58
503.271	7.58
503.619	7.61
503.967	7.62
504.315	7.62
504.663	7.62
505.011	7.65
505.359	7.67
505.707	7.68
506.055	7.68
506.403	7.71
506.751	7.73
507.098	7.76
507.446	7.76
507.794	7.77
508.141	7.79
508.489	7.81
508.837	7.84
509.184	7.85
509.531	7.88
509.879	7.93
510.226	7.95
510.574	7.97
510.921	7.96
511.268	7.95
511.616	7.96
511.963	7.99
512.31	7.97
512.657	7.97
513.004	7.99
513.351	8
513.698	8.03
514.045	8.02
514.392	8.03
514.739	8.05
515.086	8.06
515.432	8.04
515.779	8.03
516.126	8.03
516.473	8.05
516.819	8.05
517.166	8.03
517.512	8.04
517.859	8.06
518.205	8.05
518.552	8.07
518.898	8.06
519.245	8.05
519.591	8.08
519.937	8.09
520.283	8.09
520.629	8.09
520.976	8.09
521.322	8.1
521.668	8.1
522.014	8.12
522.36	8.14
522.706	8.16
523.052	8.18
523.398	8.21
523.743	8.23
524.089	8.25
524.435	8.27
524.781	8.3
525.126	8.32
525.472	8.35
525.817	8.37
526.163	8.39
526.509	8.42
526.854	8.44
527.199	8.46
527.545	8.46
527.89	8.48
528.235	8.5
528.581	8.52
528.926	8.54
529.271	8.55
529.616	8.55
529.961	8.56
530.306	8.57
530.651	8.57
530.996	8.57
531.341	8.58
531.686	8.58
532.031	8.58
532.376	8.58
532.721	8.59
533.065	8.59
533.41	8.6
533.755	8.61
534.099	8.62
534.444	8.61
534.788	8.61
535.133	8.6
535.477	8.59
535.822	8.59
536.166	8.59
536.51	8.59
536.855	8.6
537.199	8.61
537.543	8.6
537.887	8.6
538.231	8.62
538.576	8.61
538.92	8.62
539.264	8.62
539.608	8.62
539.951	8.62
540.295	8.63
540.639	8.64
540.983	8.65
541.327	8.62
541.671	8.63
542.014	8.63
542.358	8.66
542.701	8.66
543.045	8.67
543.389	8.67
543.732	8.67
544.075	8.69
544.419	8.69
544.762	8.69
545.105	8.71
545.449	8.7
545.792	8.72
546.135	8.71
546.478	8.71
546.821	8.71
547.165	8.72
547.508	8.74
547.851	8.74
548.194	8.71
548.536	8.71
548.879	8.71
549.222	8.72
549.565	8.72
549.908	8.73
550.25	8.7
550.593	8.67
550.936	8.67
551.278	8.64
551.621	8.68
551.963	8.69
552.306	8.67
552.648	8.67
552.991	8.66
553.333	8.68
553.675	8.69
554.017	8.7
554.36	8.71
554.702	8.72
555.044	8.7
555.386	8.73
555.728	8.77
556.07	8.79
556.412	8.78
556.754	8.77
557.096	8.78
557.438	8.84
557.78	8.88
558.121	8.87
558.463	8.85
558.805	8.84
559.147	8.83
559.488	8.83
559.83	8.85
560.171	8.84
560.513	8.89
560.854	8.89
561.196	8.88
561.537	8.88
561.878	8.84
562.22	8.86
562.561	8.84
562.902	8.83
563.243	8.82
563.584	8.84
563.925	8.88
564.266	8.88
564.607	8.86
564.948	8.85
565.289	8.88
565.63	8.9
565.971	8.87
566.312	8.85
566.653	8.88
566.993	8.89
567.334	8.92
567.675	8.89
568.015	8.88
568.356	8.92
568.696	8.91
569.037	8.92
569.377	8.91
569.718	8.93
570.058	8.94
570.398	8.95
570.739	8.94
571.079	8.93
571.419	8.93
571.759	8.94
572.099	8.96
572.439	8.96
572.779	8.94
573.119	8.99
573.459	9.03
573.799	9.06
574.139	9.03
574.479	8.99
574.819	8.99
575.158	9
575.498	8.97
575.838	8.97
576.177	8.95
576.517	8.97
576.856	8.98
577.196	8.98
577.535	8.98
577.875	8.96
578.214	8.94
578.553	8.94
578.893	8.93
579.232	8.9
579.571	8.9
579.91	8.94
580.25	8.89
580.589	8.88
580.928	8.83
581.267	8.87
581.606	8.87
581.945	8.87
582.283	8.85
582.622	8.9
582.961	8.89
583.3	8.93
583.639	8.94
583.977	8.94
584.316	8.91
584.654	8.93
584.993	8.95
585.332	8.99
585.67	9.01
586.008	9.01
586.347	9.05
586.685	9.03
587.024	9.02
587.362	9.04
587.7	9.07
588.038	9.07
588.376	9.05
588.715	9.05
589.053	9.08
589.391	9.11
589.729	9.09
590.067	9.13
590.404	9.12
590.742	9.11
591.08	9.09
591.418	9.14
591.756	9.18
592.093	9.2
592.431	9.2
592.769	9.14
593.106	9.14
593.444	9.09
593.781	9.11
594.119	9.14
594.456	9.14
594.793	9.13
595.131	9.15
595.468	9.18
595.805	9.21
596.143	9.19
596.48	9.17
596.817	9.19
597.154	9.21
597.491	9.23
597.828	9.25
598.165	9.26
598.502	9.25
598.839	9.19
599.176	9.18
599.512	9.16
599.849	9.2
600.186	9.26
600.523	9.32
600.859	9.34
601.196	9.33
601.532	9.34
601.869	9.34
602.205	9.38
602.542	9.41
602.878	9.42
603.215	9.42
603.551	9.45
603.887	9.44
604.223	9.44
604.56	9.44
604.896	9.46
605.232	9.46
605.568	9.46
605.904	9.47
606.24	9.5
606.576	9.5
606.912	9.52
607.248	9.5
607.583	9.51
607.919	9.47
608.255	9.47
608.591	9.49
608.926	9.52
609.262	9.53
609.597	9.48
609.933	9.46
610.268	9.48
610.604	9.5
610.939	9.52
611.275	9.54
611.61	9.52
611.945	9.5
612.281	9.51
612.616	9.54
612.951	9.58
613.286	9.57
613.621	9.61
613.956	9.61
614.291	9.61
614.626	9.59
614.961	9.57
615.296	9.58
615.631	9.59
615.966	9.57
616.3	9.52
616.635	9.57
616.97	9.61
617.304	9.57
617.639	9.55
617.973	9.5
618.308	9.49
618.642	9.49
618.977	9.49
619.311	9.52
619.646	9.49
619.98	9.46
620.314	9.45
620.648	9.41
620.983	9.45
621.317	9.48
621.651	9.45
621.985	9.53
622.319	9.53
622.653	9.55
622.987	9.56
623.321	9.61
623.655	9.56
623.988	9.6
624.322	9.62
624.656	9.64
624.99	9.64
625.323	9.69
625.657	9.72
625.99	9.71
626.324	9.67
626.657	9.67
626.991	9.67
627.324	9.69
627.658	9.7
627.991	9.72
628.324	9.72
628.657	9.79
628.991	9.79
629.324	9.78
629.657	9.83
629.99	9.87
630.323	9.9
630.656	9.95
630.989	9.94
631.322	9.95
631.655	9.97
631.987	10.02
632.32	9.98
632.653	9.93
632.986	9.95
633.318	9.95
633.651	9.99
633.984	10.02
634.316	10.02
634.649	10.04
634.981	10
635.313	9.98
635.646	9.97
635.978	9.99
636.31	10
636.643	9.94
636.975	9.92
637.307	9.81
637.639	9.79
637.971	9.79
638.303	9.79
638.635	9.75
638.967	9.77
639.299	9.81
639.631	9.8
639.963	9.75
640.295	9.8
640.626	9.75
640.958	9.76
641.29	9.81
641.621	9.76
641.953	9.76
642.285	9.74
642.616	9.77
642.948	9.69
643.279	9.65
643.61	9.61
643.942	9.58
644.273	9.67
644.604	9.66
644.936	9.64
645.267	9.64
645.598	9.64
645.929	9.65
646.26	9.6
646.591	9.67
646.922	9.66
647.253	9.66
647.584	9.67
647.915	9.68
648.245	9.62
648.576	9.69
648.907	9.68
649.238	9.66
649.568	9.6
649.899	9.68
650.229	9.73
650.56	9.73
650.89	9.75
651.221	9.7
651.551	9.67
651.882	9.7
652.212	9.71
652.542	9.7
652.872	9.68
653.203	9.73
653.533	9.75
653.863	9.76
654.193	9.82
654.523	9.85
654.853	9.83
655.183	9.82
655.513	9.79
655.843	9.8
656.172	9.9
656.502	9.96
656.832	9.88
657.162	9.94
657.491	9.98
657.821	10.03
658.15	10.05
658.48	10.13
658.809	10.12
659.139	10.13
659.468	10.19
659.798	10.19
660.127	10.21
660.456	10.23
660.785	10.26
661.115	10.2
661.444	10.21
661.773	10.21
662.102	10.27
662.431	10.36
662.76	10.41
663.089	10.47
663.418	10.43
663.747	10.46
664.076	10.46
664.404	10.45
664.733	10.44
665.062	10.4
665.39	10.37
665.719	10.38
666.048	10.45
666.376	10.37
666.705	10.41
667.033	10.34
667.362	10.35
667.69	10.37
668.018	10.42
668.347	10.42
668.675	10.45
669.003	10.5
669.331	10.47
669.659	10.41
669.987	10.3
670.315	10.28
670.643	10.36
670.971	10.33
671.299	10.37
671.627	10.41
671.955	10.46
672.283	10.47
672.61	10.53
672.938	10.53
673.266	10.61
673.593	10.73
673.921	10.74
674.249	10.76
674.576	10.74
674.904	10.69
675.231	10.65
