Data from BA28302_Reflection_00010.txt Node
Date: Mon Nov 18 15:48:52 EST 2019
User: vgr7
Spectrometer: USB2G7710
Scans to average: 3
Trigger mode: 4
Integration Time (sec): 2.000000E-2
Electric dark correction enabled: true
Boxcar width: 10
XAxis mode: Wavelengths
Number of Pixels in Spectrum: 2048
>>>>>Begin Spectral Data<<<<<
177.721	-136.93
178.105	21.26
178.488	-190.67
178.871	-138.28
179.254	777.97
179.636	363.16
180.019	-134.31
180.402	147.73
180.785	-148.24
181.168	139.77
181.55	-40.13
181.933	190.21
182.316	146.44
182.698	169.93
183.081	226.94
183.463	422.11
183.846	293.47
184.228	187.46
184.611	128.94
184.993	166.78
185.376	-15900
185.758	793.07
186.14	-1539.34
186.522	281.49
186.904	623.66
187.287	370.65
187.669	244.03
188.051	246.41
188.433	491.93
188.815	402.9
189.197	2206.19
189.579	-9900
189.961	3523.73
190.342	753.99
190.724	-228.36
191.106	911.88
191.488	91.61
191.869	121.72
192.251	302.46
192.633	3367.61
193.014	689.24
193.396	443.21
193.777	9755.17
194.159	-6518.18
194.54	-450.21
194.922	-291.02
195.303	-379.63
195.684	-314.43
196.065	-227.33
196.447	-266.06
196.828	-289.1
197.209	-255.27
197.59	-1531
197.971	-3196.55
198.352	-309.12
198.733	-940.15
199.114	-377.97
199.495	-236.23
199.876	-200.62
200.257	-194.02
200.638	-188.22
201.018	-194.22
201.399	-201.31
201.78	-192.61
202.16	-150.48
202.541	-229.65
202.922	-952.9
203.302	-584.46
203.683	-354.28
204.063	-475.72
204.444	-808.67
204.824	-3042.86
205.204	-756.34
205.585	-196.23
205.965	-125.39
206.345	-227.02
206.725	-264.07
207.106	3114.08
207.486	623.7
207.866	525.89
208.246	1686.21
208.626	2100
209.006	847.25
209.386	1245.21
209.766	-2029.55
210.145	-805.73
210.525	-397.76
210.905	-162.49
211.285	-175.86
211.664	-133.13
212.044	-142.48
212.424	-101.99
212.803	-88.45
213.183	-91.79
213.562	-89.74
213.942	-63.11
214.321	-63.61
214.701	-80.23
215.08	-85.39
215.459	-53.16
215.838	-52.07
216.218	-39.46
216.597	-31.52
216.976	-22.41
217.355	-8.75
217.734	-6.08
218.113	-13.15
218.492	-9.36
218.871	-17.98
219.25	-3.44
219.629	-9.31
220.008	-1.65
220.387	2.73
220.766	-12.1
221.144	-26.34
221.523	-26.6
221.902	-33.77
222.28	-32.05
222.659	-10.16
223.037	-4.99
223.416	-20.21
223.794	-18.09
224.173	-21.45
224.551	-13.75
224.929	-19.71
225.308	-15.24
225.686	-11.21
226.064	-7.16
226.442	-4.09
226.821	-0.36
227.199	-1.86
227.577	-3.71
227.955	-5.96
228.333	-6.32
228.711	-1.52
229.089	-0.47
229.467	-1.19
229.845	-2.83
230.222	-2.07
230.6	-4.38
230.978	-3.24
231.356	-1.05
231.733	0.79
232.111	1.75
232.488	0.75
232.866	3.38
233.243	2.08
233.621	1.95
233.998	2.45
234.376	1.74
234.753	0.95
235.13	1.13
235.508	1.04
235.885	0.18
236.262	0.42
236.639	-0.36
237.016	1.16
237.393	2.27
237.77	3.3
238.147	2.14
238.524	2.02
238.901	2.45
239.278	2.69
239.655	3.27
240.032	2.47
240.409	1.76
240.785	2.09
241.162	2.33
241.539	2.57
241.915	2.7
242.292	2.57
242.668	2.43
243.045	2.51
243.421	2.45
243.798	2.86
244.174	3.1
244.551	3.52
244.927	3.33
245.303	3.33
245.679	3.68
246.056	3.93
246.432	3.84
246.808	3.8
247.184	3.54
247.56	3.32
247.936	3.51
248.312	3.74
248.688	3.63
249.064	3.48
249.44	3.11
249.815	2.99
250.191	3.05
250.567	3.18
250.943	3.11
251.318	3.46
251.694	3.35
252.069	2.87
252.445	2.47
252.82	2.27
253.196	2.17
253.571	1.73
253.947	1.86
254.322	2.15
254.697	1.87
255.073	1.84
255.448	1.96
255.823	1.95
256.198	2.12
256.573	2.38
256.948	2.69
257.323	2.94
257.698	3.06
258.073	3.21
258.448	3.25
258.823	3.35
259.198	3.19
259.573	3.26
259.948	3.43
260.322	3.49
260.697	3.6
261.072	3.61
261.446	3.61
261.821	3.54
262.195	3.54
262.57	3.58
262.944	3.72
263.319	3.75
263.693	3.64
264.067	3.71
264.442	3.59
264.816	3.47
265.19	3.45
265.564	3.29
265.938	3.19
266.313	3.2
266.687	3.35
267.061	3.45
267.435	3.56
267.809	3.79
268.183	3.67
268.556	3.77
268.93	3.64
269.304	3.62
269.678	3.64
270.051	3.62
270.425	3.79
270.799	3.77
271.172	3.66
271.546	3.79
271.919	3.66
272.293	3.81
272.666	4.05
273.04	4.07
273.413	4.04
273.787	4.14
274.16	4.08
274.533	3.92
274.906	3.94
275.279	3.89
275.653	3.69
276.026	3.91
276.399	3.84
276.772	4.02
277.145	4.05
277.518	3.99
277.891	4.03
278.263	3.96
278.636	3.99
279.009	4.05
279.382	4.1
279.755	4.17
280.127	4.2
280.5	4.04
280.872	4.05
281.245	3.94
281.617	4.1
281.99	4.25
282.362	4.37
282.735	4.29
283.107	4.28
283.479	4.31
283.852	4.22
284.224	4.15
284.596	4.2
284.968	4.19
285.34	4.24
285.713	4.08
286.085	4.1
286.457	4.19
286.829	4.21
287.201	4.25
287.572	4.18
287.944	3.99
288.316	3.99
288.688	3.92
289.06	4.09
289.431	3.96
289.803	3.9
290.175	3.87
290.546	4.02
290.918	4.07
291.289	4.08
291.661	4.07
292.032	4.19
292.403	4.16
292.775	4.23
293.146	4.14
293.517	4.21
293.889	4.19
294.26	4.13
294.631	4.17
295.002	4.05
295.373	4.11
295.744	4.18
296.115	4.07
296.486	4.03
296.857	3.97
297.228	3.95
297.599	3.92
297.97	3.89
298.34	3.78
298.711	3.68
299.082	3.61
299.452	3.59
299.823	3.63
300.194	3.59
300.564	3.51
300.935	3.61
301.305	3.57
301.676	3.63
302.046	3.68
302.416	3.75
302.787	3.76
303.157	3.82
303.527	3.9
303.897	4.03
304.267	4.16
304.637	4.27
305.008	4.27
305.378	4.28
305.748	4.3
306.117	4.31
306.487	4.47
306.857	4.5
307.227	4.46
307.597	4.34
307.967	4.32
308.336	4.32
308.706	4.25
309.076	4.48
309.445	4.24
309.815	4.02
310.184	3.92
310.554	4.05
310.923	3.97
311.293	3.93
311.662	3.81
312.031	3.78
312.401	3.77
312.77	3.82
313.139	3.77
313.508	3.73
313.877	3.76
314.246	3.64
314.616	3.63
314.985	3.63
315.353	3.61
315.722	3.59
316.091	3.51
316.46	3.53
316.829	3.31
317.198	3.46
317.567	3.61
317.935	3.53
318.304	3.39
318.672	3.46
319.041	3.52
319.41	3.56
319.778	3.57
320.147	3.49
320.515	3.47
320.883	3.49
321.252	3.55
321.62	3.48
321.988	3.55
322.357	3.74
322.725	3.74
323.093	3.84
323.461	3.88
323.829	4.16
324.197	4.31
324.565	4.36
324.933	4.41
325.301	4.42
325.669	4.46
326.037	4.48
326.405	4.35
326.772	4.41
327.14	4.48
327.508	4.53
327.875	4.52
328.243	4.48
328.61	4.5
328.978	4.46
329.346	4.48
329.713	4.47
330.08	4.37
330.448	4.4
330.815	4.25
331.182	4.16
331.55	3.87
331.917	3.81
332.284	3.94
332.651	3.92
333.018	3.9
333.385	4.06
333.752	4.09
334.119	4.21
334.486	4.05
334.853	4.06
335.22	3.93
335.587	4.01
335.954	3.96
336.32	3.93
336.687	3.97
337.054	3.98
337.42	3.94
337.787	4.03
338.153	3.94
338.52	4.07
338.886	4.08
339.253	4.13
339.619	4.21
339.986	4.07
340.352	4.16
340.718	4.18
341.084	4.12
341.451	4.28
341.817	4.22
342.183	4.18
342.549	4.16
342.915	4.31
343.281	4.35
343.647	4.43
344.013	4.44
344.379	4.46
344.745	4.51
345.11	4.58
345.476	4.5
345.842	4.64
346.208	4.59
346.573	4.67
346.939	4.78
347.304	4.67
347.67	4.76
348.035	4.67
348.401	4.71
348.766	4.74
349.132	4.61
349.497	4.71
349.862	4.89
350.228	4.89
350.593	4.76
350.958	4.72
351.323	4.74
351.688	4.77
352.053	4.77
352.418	4.8
352.783	4.77
353.148	4.78
353.513	4.69
353.878	4.67
354.243	4.7
354.608	4.66
354.972	4.67
355.337	4.64
355.702	4.71
356.066	4.76
356.431	4.67
356.795	4.74
357.16	4.64
357.524	4.51
357.889	4.46
358.253	4.5
358.618	4.52
358.982	4.48
359.346	4.44
359.71	4.38
360.075	4.35
360.439	4.37
360.803	4.36
361.167	4.41
361.531	4.44
361.895	4.38
362.259	4.33
362.623	4.29
362.987	4.28
363.351	4.23
363.714	4.23
364.078	4.25
364.442	4.16
364.806	4.19
365.169	4.22
365.533	4.3
365.896	4.3
366.26	4.24
366.623	4.24
366.987	4.3
367.35	4.33
367.714	4.33
368.077	4.29
368.44	4.33
368.803	4.29
369.167	4.2
369.53	4.24
369.893	4.28
370.256	4.32
370.619	4.35
370.982	4.37
371.345	4.28
371.708	4.32
372.071	4.33
372.434	4.31
372.797	4.29
373.159	4.2
373.522	4.29
373.885	4.31
374.247	4.28
374.61	4.23
374.973	4.21
375.335	4.17
375.698	4.16
376.06	4.13
376.423	4.13
376.785	4.21
377.147	4.15
377.51	4.14
377.872	4.09
378.234	4.07
378.596	4.02
378.958	3.97
379.321	3.92
379.683	3.9
380.045	3.91
380.407	3.93
380.769	3.93
381.13	3.79
381.492	3.79
381.854	3.78
382.216	3.8
382.578	3.81
382.939	3.76
383.301	3.75
383.663	3.71
384.024	3.69
384.386	3.71
384.747	3.73
385.109	3.75
385.47	3.74
385.832	3.76
386.193	3.75
386.554	3.81
386.916	3.81
387.277	3.8
387.638	3.74
387.999	3.71
388.36	3.72
388.721	3.79
389.082	3.79
389.443	3.77
389.804	3.73
390.165	3.7
390.526	3.78
390.887	3.79
391.248	3.8
391.609	3.8
391.969	3.75
392.33	3.74
392.691	3.7
393.051	3.71
393.412	3.69
393.772	3.67
394.133	3.66
394.493	3.65
394.854	3.61
395.214	3.63
395.574	3.64
395.935	3.63
396.295	3.66
396.655	3.65
397.015	3.63
397.376	3.66
397.736	3.67
398.096	3.64
398.456	3.61
398.816	3.62
399.176	3.59
399.535	3.57
399.895	3.55
400.255	3.55
400.615	3.57
400.975	3.55
401.334	3.55
401.694	3.52
402.054	3.51
402.413	3.57
402.773	3.53
403.132	3.49
403.492	3.51
403.851	3.44
404.211	3.44
404.57	3.44
404.929	3.43
405.288	3.4
405.648	3.37
406.007	3.36
406.366	3.33
406.725	3.37
407.084	3.38
407.443	3.39
407.802	3.39
408.161	3.33
408.52	3.31
408.879	3.33
409.238	3.33
409.596	3.34
409.955	3.3
410.314	3.33
410.673	3.31
411.031	3.26
411.39	3.27
411.748	3.24
412.107	3.23
412.465	3.2
412.824	3.21
413.182	3.19
413.54	3.22
413.899	3.24
414.257	3.22
414.615	3.19
414.974	3.18
415.332	3.18
415.69	3.2
416.048	3.2
416.406	3.21
416.764	3.21
417.122	3.2
417.48	3.18
417.838	3.18
418.195	3.2
418.553	3.21
418.911	3.2
419.269	3.21
419.626	3.23
419.984	3.25
420.342	3.23
420.699	3.22
421.057	3.21
421.414	3.19
421.772	3.19
422.129	3.19
422.486	3.18
422.844	3.18
423.201	3.17
423.558	3.18
423.915	3.16
424.273	3.15
424.63	3.14
424.987	3.16
425.344	3.16
425.701	3.15
426.058	3.14
426.415	3.15
426.772	3.13
427.128	3.11
427.485	3.09
427.842	3.09
428.199	3.12
428.555	3.11
428.912	3.12
429.269	3.12
429.625	3.13
429.982	3.12
430.338	3.12
430.695	3.13
431.051	3.12
431.407	3.13
431.764	3.14
432.12	3.16
432.476	3.16
432.832	3.15
433.189	3.16
433.545	3.15
433.901	3.15
434.257	3.15
434.613	3.15
434.969	3.16
435.325	3.16
435.681	3.17
436.036	3.16
436.392	3.14
436.748	3.13
437.104	3.12
437.459	3.12
437.815	3.11
438.171	3.11
438.526	3.12
438.882	3.1
439.237	3.12
439.593	3.11
439.948	3.1
440.304	3.12
440.659	3.1
441.014	3.12
441.369	3.11
441.725	3.11
442.08	3.11
442.435	3.1
442.79	3.1
443.145	3.1
443.5	3.09
443.855	3.12
444.21	3.12
444.565	3.13
444.92	3.15
445.275	3.13
445.629	3.12
445.984	3.11
446.339	3.11
446.693	3.08
447.048	3.08
447.403	3.07
447.757	3.06
448.112	3.07
448.466	3.05
448.82	3.04
449.175	3.05
449.529	3.05
449.883	3.05
450.238	3.04
450.592	3.04
450.946	3.04
451.3	3.01
451.654	3
452.008	3
452.362	2.98
452.716	2.99
453.07	3
453.424	2.99
453.778	2.99
454.132	2.99
454.486	2.98
454.839	2.97
455.193	2.97
455.547	2.98
455.9	2.99
456.254	3.01
456.607	3.02
456.961	3.01
457.314	2.99
457.668	3.01
458.021	3
458.375	3
458.728	3.02
459.081	3.03
459.434	3
459.787	3.02
460.141	3.01
460.494	3.01
460.847	3.02
461.2	3.02
461.553	3.05
461.906	3.05
462.259	3.05
462.611	3.06
462.964	3.05
463.317	3.05
463.67	3.04
464.022	3.03
464.375	3.03
464.728	3.03
465.08	3.03
465.433	3.05
465.785	3.05
466.138	3.06
466.49	3.05
466.843	3.07
467.195	3.07
467.547	3.09
467.899	3.09
468.252	3.07
468.604	3.07
468.956	3.06
469.308	3.07
469.66	3.06
470.012	3.07
470.364	3.07
470.716	3.08
471.068	3.1
471.42	3.1
471.772	3.12
472.123	3.13
472.475	3.15
472.827	3.15
473.178	3.15
473.53	3.16
473.882	3.15
474.233	3.18
474.585	3.16
474.936	3.17
475.288	3.15
475.639	3.17
475.99	3.18
476.342	3.18
476.693	3.18
477.044	3.19
477.395	3.16
477.746	3.16
478.097	3.15
478.448	3.13
478.8	3.13
479.15	3.11
479.501	3.1
479.852	3.09
480.203	3.08
480.554	3.08
480.905	3.07
481.255	3.09
481.606	3.08
481.957	3.1
482.307	3.09
482.658	3.09
483.009	3.08
483.359	3.08
483.709	3.09
484.06	3.1
484.41	3.1
484.761	3.11
485.111	3.1
485.461	3.1
485.811	3.1
486.162	3.1
486.512	3.12
486.862	3.13
487.212	3.13
487.562	3.13
487.912	3.13
488.262	3.13
488.612	3.12
488.961	3.13
489.311	3.13
489.661	3.13
490.011	3.13
490.36	3.14
490.71	3.13
491.06	3.13
491.409	3.13
491.759	3.13
492.108	3.12
492.458	3.14
492.807	3.14
493.157	3.15
493.506	3.16
493.855	3.15
494.204	3.13
494.554	3.13
494.903	3.12
495.252	3.13
495.601	3.14
495.95	3.14
496.299	3.14
496.648	3.14
496.997	3.14
497.346	3.14
497.695	3.14
498.043	3.14
498.392	3.11
498.741	3.09
499.09	3.1
499.438	3.11
499.787	3.11
500.135	3.11
500.484	3.11
500.832	3.12
501.181	3.12
501.529	3.12
501.878	3.14
502.226	3.16
502.574	3.18
502.923	3.19
503.271	3.19
503.619	3.2
503.967	3.2
504.315	3.19
504.663	3.19
505.011	3.21
505.359	3.24
505.707	3.28
506.055	3.31
506.403	3.32
506.751	3.34
507.098	3.34
507.446	3.35
507.794	3.35
508.141	3.36
508.489	3.37
508.837	3.39
509.184	3.39
509.531	3.39
509.879	3.39
510.226	3.39
510.574	3.41
510.921	3.42
511.268	3.41
511.616	3.45
511.963	3.47
512.31	3.48
512.657	3.5
513.004	3.5
513.351	3.5
513.698	3.53
514.045	3.52
514.392	3.54
514.739	3.55
515.086	3.58
515.432	3.58
515.779	3.58
516.126	3.58
516.473	3.6
516.819	3.63
517.166	3.64
517.512	3.65
517.859	3.66
518.205	3.66
518.552	3.7
518.898	3.69
519.245	3.69
519.591	3.69
519.937	3.68
520.283	3.69
520.629	3.73
520.976	3.73
521.322	3.75
521.668	3.76
522.014	3.77
522.36	3.79
522.706	3.83
523.052	3.87
523.398	3.88
523.743	3.89
524.089	3.9
524.435	3.93
524.781	3.95
525.126	3.99
525.472	4.02
525.817	4.04
526.163	4.06
526.509	4.09
526.854	4.11
527.199	4.14
527.545	4.16
527.89	4.17
528.235	4.19
528.581	4.21
528.926	4.23
529.271	4.26
529.616	4.28
529.961	4.28
530.306	4.31
530.651	4.34
530.996	4.36
531.341	4.39
531.686	4.42
532.031	4.45
532.376	4.47
532.721	4.51
533.065	4.53
533.41	4.58
533.755	4.61
534.099	4.65
534.444	4.68
534.788	4.73
535.133	4.77
535.477	4.8
535.822	4.85
536.166	4.92
536.51	4.96
536.855	5.04
537.199	5.11
537.543	5.17
537.887	5.25
538.231	5.33
538.576	5.4
538.92	5.47
539.264	5.53
539.608	5.59
539.951	5.66
540.295	5.74
540.639	5.79
540.983	5.85
541.327	5.93
541.671	6.01
542.014	6.08
542.358	6.16
542.701	6.24
543.045	6.32
543.389	6.39
543.732	6.49
544.075	6.57
544.419	6.66
544.762	6.76
545.105	6.85
545.449	6.97
545.792	7.09
546.135	7.2
546.478	7.33
546.821	7.48
547.165	7.63
547.508	7.79
547.851	7.98
548.194	8.17
548.536	8.34
548.879	8.51
549.222	8.7
549.565	8.89
549.908	9.09
550.25	9.3
550.593	9.52
550.936	9.7
551.278	9.92
551.621	10.15
551.963	10.39
552.306	10.62
552.648	10.83
552.991	11.08
553.333	11.37
553.675	11.63
554.017	11.85
554.36	12.09
554.702	12.35
555.044	12.57
555.386	12.86
555.728	13.11
556.07	13.41
556.412	13.68
556.754	14.01
557.096	14.3
557.438	14.6
557.78	14.87
558.121	15.24
558.463	15.57
558.805	15.89
559.147	16.22
559.488	16.57
559.83	16.9
560.171	17.22
560.513	17.51
560.854	17.81
561.196	18.17
561.537	18.53
561.878	18.84
562.22	19.2
562.561	19.54
562.902	19.91
563.243	20.25
563.584	20.6
563.925	20.85
564.266	21.22
564.607	21.55
564.948	21.94
565.289	22.27
565.63	22.58
565.971	22.89
566.312	23.21
566.653	23.53
566.993	23.86
567.334	24.17
567.675	24.51
568.015	24.86
568.356	25.18
568.696	25.51
569.037	25.86
569.377	26.18
569.718	26.5
570.058	26.82
570.398	27.16
570.739	27.48
571.079	27.84
571.419	28.14
571.759	28.46
572.099	28.71
572.439	28.97
572.779	29.27
573.119	29.58
573.459	29.86
573.799	30.09
574.139	30.39
574.479	30.69
574.819	30.94
575.158	31.19
575.498	31.47
575.838	31.75
576.177	32
576.517	32.25
576.856	32.53
577.196	32.81
577.535	33.06
577.875	33.36
578.214	33.67
578.553	33.99
578.893	34.28
579.232	34.58
579.571	34.86
579.91	35.14
580.25	35.41
580.589	35.69
580.928	36.02
581.267	36.27
581.606	36.59
581.945	36.83
582.283	37.1
582.622	37.36
582.961	37.56
583.3	37.79
583.639	38.09
583.977	38.39
584.316	38.59
584.654	38.84
584.993	39.07
585.332	39.32
585.67	39.51
586.008	39.71
586.347	39.99
586.685	40.25
587.024	40.5
587.362	40.68
587.7	40.88
588.038	41.1
588.376	41.31
588.715	41.5
589.053	41.77
589.391	42
589.729	42.22
590.067	42.46
590.404	42.74
590.742	42.9
591.08	43.01
591.418	43.25
591.756	43.39
592.093	43.61
592.431	43.74
592.769	43.92
593.106	44.13
593.444	44.24
593.781	44.38
594.119	44.52
594.456	44.73
594.793	44.85
595.131	44.98
595.468	45.17
595.805	45.27
596.143	45.42
596.48	45.59
596.817	45.75
597.154	45.9
597.491	46.05
597.828	46.22
598.165	46.34
598.502	46.5
598.839	46.7
599.176	46.8
599.512	47
599.849	47.16
600.186	47.33
600.523	47.52
600.859	47.71
601.196	47.86
601.532	48.1
601.869	48.3
602.205	48.5
602.542	48.64
602.878	48.78
603.215	48.89
603.551	49.06
603.887	49.16
604.223	49.22
604.56	49.28
604.896	49.44
605.232	49.57
605.568	49.67
605.904	49.8
606.24	49.99
606.576	50.11
606.912	50.23
607.248	50.36
607.583	50.5
607.919	50.58
608.255	50.74
608.591	50.75
608.926	50.85
609.262	51.01
609.597	51.09
609.933	51.25
610.268	51.34
610.604	51.4
610.939	51.49
611.275	51.69
611.61	51.89
611.945	51.94
612.281	52.03
612.616	52.15
612.951	52.24
613.286	52.32
613.621	52.45
613.956	52.61
614.291	52.74
614.626	52.84
614.961	53.05
615.296	53.16
615.631	53.36
615.966	53.51
616.3	53.55
616.635	53.61
616.97	53.7
617.304	53.79
617.639	53.92
617.973	53.99
618.308	54
618.642	54
618.977	54.1
619.311	54.25
619.646	54.26
619.98	54.36
620.314	54.32
620.648	54.37
620.983	54.44
621.317	54.45
621.651	54.53
621.985	54.62
622.319	54.72
622.653	54.69
622.987	54.74
623.321	54.78
623.655	54.87
623.988	54.93
624.322	55.06
624.656	55.13
624.99	55.26
625.323	55.43
625.657	55.52
625.99	55.6
626.324	55.64
626.657	55.71
626.991	55.78
627.324	55.86
627.658	55.96
627.991	55.99
628.324	56.11
628.657	56.19
628.991	56.18
629.324	56.23
629.657	56.35
629.99	56.37
630.323	56.45
630.656	56.53
630.989	56.63
631.322	56.67
631.655	56.69
631.987	56.73
632.32	56.67
632.653	56.72
632.986	56.7
633.318	56.79
633.651	56.86
633.984	56.9
634.316	56.96
634.649	56.96
634.981	56.99
635.313	57
635.646	57.07
635.978	57.11
636.31	57.11
636.643	57.17
636.975	57.34
637.307	57.37
637.639	57.33
637.971	57.38
638.303	57.46
638.635	57.6
638.967	57.68
639.299	57.9
639.631	57.89
639.963	57.99
640.295	58.06
640.626	58.21
640.958	58.32
641.29	58.43
641.621	58.5
641.953	58.5
642.285	58.6
642.616	58.66
642.948	58.66
643.279	58.73
643.61	58.77
643.942	58.85
644.273	58.93
644.604	59.14
644.936	59.18
645.267	59.26
645.598	59.17
645.929	59.17
646.26	59.18
646.591	59.27
646.922	59.27
647.253	59.31
647.584	59.35
647.915	59.47
648.245	59.57
648.576	59.69
648.907	59.84
649.238	59.82
649.568	59.86
649.899	59.95
650.229	60.04
650.56	60.15
650.89	60.21
651.221	60.29
651.551	60.34
651.882	60.42
652.212	60.37
652.542	60.45
652.872	60.45
653.203	60.49
653.533	60.49
653.863	60.69
654.193	60.86
654.523	60.88
654.853	60.88
655.183	60.89
655.513	60.86
655.843	60.91
656.172	60.97
656.502	61.11
656.832	61.25
657.162	61.27
657.491	61.33
657.821	61.38
658.15	61.28
658.48	61.26
658.809	61.27
659.139	61.33
659.468	61.52
659.798	61.6
660.127	61.68
660.456	61.69
660.785	61.72
661.115	61.61
661.444	61.62
661.773	61.64
662.102	61.65
662.431	61.75
662.76	61.73
663.089	61.7
663.418	61.7
663.747	61.57
664.076	61.52
664.404	61.49
664.733	61.43
665.062	61.63
665.39	61.82
665.719	61.72
666.048	61.78
666.376	61.67
666.705	61.71
667.033	61.56
667.362	61.65
667.69	61.59
668.018	61.58
