Data from BA28308_Reflection_00008.txt Node
Date: Mon Nov 18 15:38:56 EST 2019
User: vgr7
Spectrometer: USB2G7710
Scans to average: 3
Trigger mode: 4
Integration Time (sec): 2.000000E-2
Electric dark correction enabled: true
Boxcar width: 10
XAxis mode: Wavelengths
Number of Pixels in Spectrum: 2048
>>>>>Begin Spectral Data<<<<<
177.721	-42.17
178.105	-2.17
178.488	-74.73
178.871	-8.64
179.254	44.91
179.636	-74.11
180.019	97.22
180.402	35.29
180.785	-39.38
181.168	14.72
181.55	58.25
181.933	76
182.316	54.21
182.698	42.62
183.081	44.56
183.463	59.56
183.846	82.13
184.228	72.12
184.611	57.63
184.993	136.98
185.376	147.53
185.758	159.13
186.14	307.64
186.522	193.89
186.904	179.05
187.287	170.46
187.669	159.89
188.051	405.48
188.433	-245.84
188.815	-84.98
189.197	-15.05
189.579	-15.46
189.961	-7.91
190.342	-8.7
190.724	24.17
191.106	26.31
191.488	33.73
191.869	47.6
192.251	35.35
192.633	35.24
193.014	52.57
193.396	79.24
193.777	94.12
194.159	102.28
194.54	88.19
194.922	59.58
195.303	42.38
195.684	33.75
196.065	43.13
196.447	30.34
196.828	20.76
197.209	-26.87
197.59	-42.6
197.971	-62.74
198.352	-60.78
198.733	-158.59
199.114	-237.16
199.495	-202.87
199.876	-176.95
200.257	-133.2
200.638	-104.99
201.018	-134.09
201.399	-124.23
201.78	-111.84
202.16	-159.3
202.541	-245.1
202.922	-233.9
203.302	-190.05
203.683	-198.15
204.063	-448.04
204.444	-527.68
204.824	-483.19
205.204	-1061.7
205.585	-28614.29
205.965	2638.46
206.345	226.19
206.725	156.35
207.106	97.93
207.486	98.1
207.866	117.45
208.246	153.78
208.626	161.41
209.006	335.44
209.386	339.1
209.766	378.25
210.145	325.38
210.525	-4197.3
210.905	-220.39
211.285	-635.85
211.664	-668.84
212.044	-413.25
212.424	-149.74
212.803	-116.55
213.183	-62.49
213.562	-58.66
213.942	-31.75
214.321	-26.82
214.701	-27.73
215.08	-21.37
215.459	-13.86
215.838	-6.72
216.218	-9.67
216.597	4.18
216.976	0.16
217.355	15.48
217.734	13.31
218.113	13.56
218.492	1.08
218.871	-2.6
219.25	0.03
219.629	8.01
220.008	47.83
220.387	55.76
220.766	55.55
221.144	76.07
221.523	79.57
221.902	81.65
222.28	128.12
222.659	106.22
223.037	64.95
223.416	35.22
223.794	24.18
224.173	21.78
224.551	24.56
224.929	25.22
225.308	26.74
225.686	28.64
226.064	21.46
226.442	22.36
226.821	19.94
227.199	16.93
227.577	10.05
227.955	1.85
228.333	-1.9
228.711	-0.67
229.089	4.34
229.467	4.28
229.845	1.18
230.222	-2.72
230.6	-1.9
230.978	-1.79
231.356	0.12
231.733	2.56
232.111	3.82
232.488	3.8
232.866	3.06
233.243	0.42
233.621	-0.98
233.998	0.13
234.376	-0.21
234.753	-0.27
235.13	1.37
235.508	3.1
235.885	4.97
236.262	5.14
236.639	5.68
237.016	4.62
237.393	6.31
237.77	7.46
238.147	8.78
238.524	8.65
238.901	8.23
239.278	8.25
239.655	8.07
240.032	7.34
240.409	6.31
240.785	6.84
241.162	7.06
241.539	7.1
241.915	7.31
242.292	6.85
242.668	6.39
243.045	6.19
243.421	6.06
243.798	5.87
244.174	6
244.551	6.1
244.927	5.98
245.303	6
245.679	6.06
246.056	5.84
246.432	5.78
246.808	5.7
247.184	5.6
247.56	5.35
247.936	5.51
248.312	5.53
248.688	5.25
249.064	5.23
249.44	5.14
249.815	4.97
250.191	5.24
250.567	5.51
250.943	5.18
251.318	5.26
251.694	5.24
252.069	5.47
252.445	5.25
252.82	5.21
253.196	5.18
253.571	4.79
253.947	4.65
254.322	4.72
254.697	4.6
255.073	4.32
255.448	4.22
255.823	4.21
256.198	4.19
256.573	4.26
256.948	4.29
257.323	4.19
257.698	4.39
258.073	4.29
258.448	4.1
258.823	4.4
259.198	4.37
259.573	4.37
259.948	4.24
260.322	4.5
260.697	4.57
261.072	4.58
261.446	4.81
261.821	4.77
262.195	4.8
262.57	4.83
262.944	4.92
263.319	5.06
263.693	4.87
264.067	5.09
264.442	5.09
264.816	5.06
265.19	5.24
265.564	5
265.938	4.95
266.313	4.93
266.687	4.7
267.061	4.57
267.435	4.51
267.809	4.35
268.183	4.11
268.556	4.22
268.93	4
269.304	3.96
269.678	4.05
270.051	3.92
270.425	3.99
270.799	4.15
271.172	4.22
271.546	4.39
271.919	4.16
272.293	4.19
272.666	4.45
273.04	4.52
273.413	4.55
273.787	4.51
274.16	4.6
274.533	4.72
274.906	4.76
275.279	4.79
275.653	4.79
276.026	4.72
276.399	4.58
276.772	4.65
277.145	4.49
277.518	4.52
277.891	4.5
278.263	4.39
278.636	4.39
279.009	4.2
279.382	4.3
279.755	4.24
280.127	4.17
280.5	4.04
280.872	4.16
281.245	4.21
281.617	4.36
281.99	4.41
282.362	4.48
282.735	4.49
283.107	4.66
283.479	4.72
283.852	4.76
284.224	4.65
284.596	4.62
284.968	4.72
285.34	4.75
285.713	4.67
286.085	4.82
286.457	4.77
286.829	4.78
287.201	4.68
287.572	4.68
287.944	4.8
288.316	4.78
288.688	4.6
289.06	4.62
289.431	4.57
289.803	4.49
290.175	4.5
290.546	4.63
290.918	4.59
291.289	4.56
291.661	4.59
292.032	4.79
292.403	4.9
292.775	5.04
293.146	4.97
293.517	5.07
293.889	5.01
294.26	5.06
294.631	5.08
295.002	5.12
295.373	5.27
295.744	5.26
296.115	5.35
296.486	5.31
296.857	5.35
297.228	5.42
297.599	5.39
297.97	5.4
298.34	5.29
298.711	5.27
299.082	5.28
299.452	5.25
299.823	5.34
300.194	5.41
300.564	5.39
300.935	5.5
301.305	5.47
301.676	5.57
302.046	5.42
302.416	5.62
302.787	5.65
303.157	5.73
303.527	5.74
303.897	5.52
304.267	5.72
304.637	5.72
305.008	5.78
305.378	5.94
305.748	6.03
306.117	6.03
306.487	6.18
306.857	6.36
307.227	6.57
307.597	6.43
307.967	6.44
308.336	6.43
308.706	6.56
309.076	6.71
309.445	6.57
309.815	6.78
310.184	6.6
310.554	6.56
310.923	6.47
311.293	6.53
311.662	6.86
312.031	6.91
312.401	6.94
312.77	7.05
313.139	7.17
313.508	7.2
313.877	7.27
314.246	7.3
314.616	7.28
314.985	7.13
315.353	7.16
315.722	7.12
316.091	7.06
316.46	6.97
316.829	7.13
317.198	7.28
317.567	7.31
317.935	7.47
318.304	7.68
318.672	7.74
319.041	7.87
319.41	7.62
319.778	7.53
320.147	7.53
320.515	7.46
320.883	7.31
321.252	7.39
321.62	7.54
321.988	7.57
322.357	7.66
322.725	7.74
323.093	7.94
323.461	8.07
323.829	8.16
324.197	8.25
324.565	8.21
324.933	8.25
325.301	8.26
325.669	8.28
326.037	8.26
326.405	8.37
326.772	8.42
327.14	8.57
327.508	8.65
327.875	8.67
328.243	8.72
328.61	8.78
328.978	8.76
329.346	8.81
329.713	8.92
330.08	8.93
330.448	9.06
330.815	8.75
331.182	8.68
331.55	8.74
331.917	8.81
332.284	8.94
332.651	8.99
333.018	9.06
333.385	9.15
333.752	9.24
334.119	9.35
334.486	9.26
334.853	9.25
335.22	9.36
335.587	9.53
335.954	9.51
336.32	9.53
336.687	9.59
337.054	9.58
337.42	9.54
337.787	9.57
338.153	9.63
338.52	9.89
338.886	9.86
339.253	9.9
339.619	9.83
339.986	9.62
340.352	9.71
340.718	9.69
341.084	9.7
341.451	9.76
341.817	9.75
342.183	9.73
342.549	9.74
342.915	9.74
343.281	9.74
343.647	9.76
344.013	9.83
344.379	9.82
344.745	9.9
345.11	9.94
345.476	9.98
345.842	9.99
346.208	9.98
346.573	10.11
346.939	10.22
347.304	10.24
347.67	10.38
348.035	10.32
348.401	10.29
348.766	10.35
349.132	10.38
349.497	10.31
349.862	10.4
350.228	10.41
350.593	10.44
350.958	10.43
351.323	10.47
351.688	10.53
352.053	10.53
352.418	10.52
352.783	10.46
353.148	10.35
353.513	10.33
353.878	10.35
354.243	10.39
354.608	10.39
354.972	10.43
355.337	10.45
355.702	10.51
356.066	10.6
356.431	10.55
356.795	10.48
357.16	10.48
357.524	10.44
357.889	10.44
358.253	10.4
358.618	10.39
358.982	10.37
359.346	10.29
359.71	10.25
360.075	10.22
360.439	10.25
360.803	10.34
361.167	10.25
361.531	10.26
361.895	10.17
362.259	10.11
362.623	10.1
362.987	10.02
363.351	10.01
363.714	10
364.078	9.94
364.442	9.86
364.806	9.82
365.169	9.79
365.533	9.77
365.896	9.77
366.26	9.78
366.623	9.78
366.987	9.73
367.35	9.72
367.714	9.73
368.077	9.69
368.44	9.61
368.803	9.64
369.167	9.58
369.53	9.53
369.893	9.51
370.256	9.46
370.619	9.43
370.982	9.38
371.345	9.3
371.708	9.29
372.071	9.3
372.434	9.28
372.797	9.38
373.159	9.33
373.522	9.34
373.885	9.33
374.247	9.23
374.61	9.27
374.973	9.21
375.335	9.07
375.698	8.99
376.06	8.93
376.423	8.86
376.785	8.81
377.147	8.87
377.51	8.87
377.872	8.79
378.234	8.79
378.596	8.7
378.958	8.58
379.321	8.56
379.683	8.53
380.045	8.49
380.407	8.3
380.769	8.27
381.13	8.16
381.492	8.04
381.854	8
382.216	7.9
382.578	7.89
382.939	7.85
383.301	7.73
383.663	7.66
384.024	7.62
384.386	7.62
384.747	7.51
385.109	7.44
385.47	7.44
385.832	7.38
386.193	7.4
386.554	7.43
386.916	7.38
387.277	7.38
387.638	7.37
387.999	7.38
388.36	7.33
388.721	7.33
389.082	7.3
389.443	7.24
389.804	7.21
390.165	7.16
390.526	7.14
390.887	7.19
391.248	7.18
391.609	7.16
391.969	7.1
392.33	7.09
392.691	7.04
393.051	7
393.412	6.94
393.772	6.86
394.133	6.81
394.493	6.75
394.854	6.68
395.214	6.62
395.574	6.59
395.935	6.52
396.295	6.43
396.655	6.36
397.015	6.33
397.376	6.31
397.736	6.27
398.096	6.24
398.456	6.17
398.816	6.11
399.176	6.05
399.535	6
399.895	5.92
400.255	5.85
400.615	5.79
400.975	5.76
401.334	5.76
401.694	5.73
402.054	5.71
402.413	5.68
402.773	5.61
403.132	5.52
403.492	5.54
403.851	5.51
404.211	5.52
404.57	5.47
404.929	5.43
405.288	5.4
405.648	5.34
406.007	5.31
406.366	5.28
406.725	5.27
407.084	5.23
407.443	5.22
407.802	5.22
408.161	5.18
408.52	5.18
408.879	5.14
409.238	5.14
409.596	5.12
409.955	5.07
410.314	5.08
410.673	5.09
411.031	5.05
411.39	5.03
411.748	5.01
412.107	5.02
412.465	4.99
412.824	4.97
413.182	4.97
413.54	4.93
413.899	4.91
414.257	4.89
414.615	4.87
414.974	4.86
415.332	4.8
415.69	4.78
416.048	4.74
416.406	4.69
416.764	4.64
417.122	4.63
417.48	4.59
417.838	4.58
418.195	4.55
418.553	4.55
418.911	4.52
419.269	4.5
419.626	4.48
419.984	4.45
420.342	4.43
420.699	4.4
421.057	4.4
421.414	4.38
421.772	4.36
422.129	4.35
422.486	4.33
422.844	4.34
423.201	4.31
423.558	4.31
423.915	4.3
424.273	4.29
424.63	4.25
424.987	4.25
425.344	4.24
425.701	4.22
426.058	4.19
426.415	4.18
426.772	4.16
427.128	4.14
427.485	4.14
427.842	4.15
428.199	4.15
428.555	4.14
428.912	4.14
429.269	4.15
429.625	4.12
429.982	4.09
430.338	4.08
430.695	4.1
431.051	4.06
431.407	4.06
431.764	4.04
432.12	4.04
432.476	4.04
432.832	4.01
433.189	4.01
433.545	4.03
433.901	4.04
434.257	4.02
434.613	4.02
434.969	4.01
435.325	3.98
435.681	3.97
436.036	3.97
436.392	3.95
436.748	3.92
437.104	3.94
437.459	3.95
437.815	3.94
438.171	3.93
438.526	3.94
438.882	3.96
439.237	3.98
439.593	3.99
439.948	3.99
440.304	4.01
440.659	4.01
441.014	4
441.369	3.99
441.725	3.99
442.08	3.99
442.435	3.98
442.79	3.97
443.145	3.96
443.5	3.96
443.855	3.96
444.21	3.97
444.565	3.96
444.92	3.95
445.275	3.94
445.629	3.93
445.984	3.92
446.339	3.91
446.693	3.88
447.048	3.87
447.403	3.84
447.757	3.84
448.112	3.83
448.466	3.82
448.82	3.81
449.175	3.79
449.529	3.79
449.883	3.78
450.238	3.77
450.592	3.77
450.946	3.74
451.3	3.73
451.654	3.71
452.008	3.69
452.362	3.67
452.716	3.66
453.07	3.66
453.424	3.66
453.778	3.66
454.132	3.65
454.486	3.64
454.839	3.66
455.193	3.64
455.547	3.64
455.9	3.63
456.254	3.64
456.607	3.65
456.961	3.63
457.314	3.62
457.668	3.65
458.021	3.64
458.375	3.66
458.728	3.66
459.081	3.67
459.434	3.66
459.787	3.68
460.141	3.68
460.494	3.67
460.847	3.69
461.2	3.68
461.553	3.69
461.906	3.7
462.259	3.71
462.611	3.7
462.964	3.71
463.317	3.72
463.67	3.72
464.022	3.73
464.375	3.75
464.728	3.77
465.08	3.76
465.433	3.78
465.785	3.77
466.138	3.79
466.49	3.82
466.843	3.84
467.195	3.84
467.547	3.83
467.899	3.86
468.252	3.85
468.604	3.88
468.956	3.87
469.308	3.87
469.66	3.87
470.012	3.9
470.364	3.9
470.716	3.93
471.068	3.94
471.42	3.95
471.772	3.98
472.123	3.97
472.475	3.97
472.827	3.99
473.178	4
473.53	3.98
473.882	3.96
474.233	3.97
474.585	3.96
474.936	3.98
475.288	3.98
475.639	3.99
475.99	3.98
476.342	3.99
476.693	3.99
477.044	4
477.395	4
477.746	3.99
478.097	3.99
478.448	3.99
478.8	3.99
479.15	3.96
479.501	3.97
479.852	3.97
480.203	3.96
480.554	3.97
480.905	4
481.255	4
481.606	4
481.957	4
482.307	3.99
482.658	3.99
483.009	3.98
483.359	3.98
483.709	3.98
484.06	3.98
484.41	3.99
484.761	3.98
485.111	3.98
485.461	3.98
485.811	3.98
486.162	3.98
486.512	4
486.862	4
487.212	3.99
487.562	3.99
487.912	3.98
488.262	3.98
488.612	3.98
488.961	3.97
489.311	3.98
489.661	3.99
490.011	4
490.36	4
490.71	4.01
491.06	4.02
491.409	4.02
491.759	4.03
492.108	4.05
492.458	4.05
492.807	4.05
493.157	4.06
493.506	4.06
493.855	4.07
494.204	4.09
494.554	4.12
494.903	4.14
495.252	4.17
495.601	4.19
495.95	4.23
496.299	4.27
496.648	4.31
496.997	4.32
497.346	4.35
497.695	4.4
498.043	4.43
498.392	4.46
498.741	4.5
499.09	4.53
499.438	4.54
499.787	4.59
500.135	4.65
500.484	4.7
500.832	4.75
501.181	4.8
501.529	4.86
501.878	4.91
502.226	4.99
502.574	5.03
502.923	5.07
503.271	5.13
503.619	5.18
503.967	5.25
504.315	5.29
504.663	5.37
505.011	5.4
505.359	5.47
505.707	5.53
506.055	5.6
506.403	5.68
506.751	5.76
507.098	5.83
507.446	5.89
507.794	5.94
508.141	6.03
508.489	6.08
508.837	6.17
509.184	6.23
509.531	6.29
509.879	6.38
510.226	6.47
510.574	6.54
510.921	6.61
511.268	6.65
511.616	6.75
511.963	6.8
512.31	6.89
512.657	6.98
513.004	7.1
513.351	7.19
513.698	7.28
514.045	7.37
514.392	7.46
514.739	7.53
515.086	7.66
515.432	7.74
515.779	7.86
516.126	7.94
516.473	8.04
516.819	8.13
517.166	8.21
517.512	8.26
517.859	8.36
518.205	8.47
518.552	8.57
518.898	8.66
519.245	8.75
519.591	8.84
519.937	8.9
520.283	8.99
520.629	9.1
520.976	9.19
521.322	9.33
521.668	9.45
522.014	9.6
522.36	9.72
522.706	9.87
523.052	10.01
523.398	10.19
523.743	10.37
524.089	10.51
524.435	10.68
524.781	10.86
525.126	11.02
525.472	11.16
525.817	11.3
526.163	11.43
526.509	11.54
526.854	11.66
527.199	11.78
527.545	11.87
527.89	11.96
528.235	12.08
528.581	12.18
528.926	12.31
529.271	12.42
529.616	12.54
529.961	12.66
530.306	12.79
530.651	12.91
530.996	13.04
531.341	13.22
531.686	13.39
532.031	13.56
532.376	13.71
532.721	13.87
533.065	14.07
533.41	14.27
533.755	14.48
534.099	14.68
534.444	14.9
534.788	15.13
535.133	15.36
535.477	15.59
535.822	15.81
536.166	16.05
536.51	16.32
536.855	16.6
537.199	16.9
537.543	17.21
537.887	17.54
538.231	17.83
538.576	18.13
538.92	18.42
539.264	18.71
539.608	18.98
539.951	19.25
540.295	19.5
540.639	19.77
540.983	19.97
541.327	20.25
541.671	20.48
542.014	20.74
542.358	20.98
542.701	21.21
543.045	21.48
543.389	21.73
543.732	22.01
544.075	22.31
544.419	22.58
544.762	22.85
545.105	23.13
545.449	23.45
545.792	23.79
546.135	24.1
546.478	24.47
546.821	24.86
547.165	25.23
547.508	25.62
547.851	25.97
548.194	26.38
548.536	26.75
548.879	27.19
549.222	27.61
549.565	28.01
549.908	28.42
550.25	28.83
550.593	29.23
550.936	29.61
551.278	29.95
551.621	30.32
551.963	30.74
552.306	31.13
552.648	31.51
552.991	31.88
553.333	32.27
553.675	32.58
554.017	32.92
554.36	33.28
554.702	33.66
555.044	33.95
555.386	34.32
555.728	34.68
556.07	35
556.412	35.28
556.754	35.65
557.096	36.02
557.438	36.36
557.78	36.72
558.121	37.07
558.463	37.49
558.805	37.93
559.147	38.25
559.488	38.61
559.83	38.95
560.171	39.32
560.513	39.71
560.854	40.01
561.196	40.35
561.537	40.67
561.878	40.98
562.22	41.34
562.561	41.67
562.902	41.98
563.243	42.24
563.584	42.56
563.925	42.82
564.266	43.12
564.607	43.37
564.948	43.63
565.289	43.9
565.63	44.11
565.971	44.33
566.312	44.56
566.653	44.82
566.993	45
567.334	45.22
567.675	45.44
568.015	45.73
568.356	45.93
568.696	46.15
569.037	46.34
569.377	46.57
569.718	46.75
570.058	46.92
570.398	47.19
570.739	47.4
571.079	47.61
571.419	47.81
571.759	48.01
572.099	48.26
572.439	48.46
572.779	48.7
573.119	48.91
573.459	49.18
573.799	49.35
574.139	49.55
574.479	49.74
574.819	49.89
575.158	50.04
575.498	50.32
575.838	50.52
576.177	50.73
576.517	50.92
576.856	51.14
577.196	51.34
577.535	51.49
577.875	51.73
578.214	51.93
578.553	52.09
578.893	52.31
579.232	52.42
579.571	52.62
579.91	52.75
580.25	52.93
580.589	53.01
580.928	53.12
581.267	53.32
581.606	53.44
581.945	53.54
582.283	53.65
582.622	53.68
582.961	53.83
583.3	53.95
583.639	54.08
583.977	54.22
584.316	54.4
584.654	54.52
584.993	54.58
585.332	54.73
585.67	54.88
586.008	54.96
586.347	55.11
586.685	55.18
587.024	55.2
587.362	55.27
587.7	55.4
588.038	55.55
588.376	55.64
588.715	55.73
589.053	55.85
589.391	56.07
589.729	56.13
590.067	56.19
590.404	56.3
590.742	56.41
591.08	56.48
591.418	56.6
591.756	56.72
592.093	56.78
592.431	56.85
592.769	56.9
593.106	57.02
593.444	57.04
593.781	57.15
594.119	57.32
594.456	57.44
594.793	57.54
595.131	57.58
595.468	57.63
595.805	57.71
596.143	57.82
596.48	57.86
596.817	58.03
597.154	58.13
597.491	58.14
597.828	58.21
598.165	58.25
598.502	58.26
598.839	58.37
599.176	58.51
599.512	58.56
599.849	58.6
600.186	58.65
600.523	58.76
600.859	58.87
601.196	58.96
601.532	59.03
601.869	59.03
602.205	59.11
602.542	59.17
602.878	59.24
603.215	59.29
603.551	59.34
603.887	59.35
604.223	59.47
604.56	59.58
604.896	59.6
605.232	59.73
605.568	59.81
605.904	59.85
606.24	59.91
606.576	59.95
606.912	60.09
607.248	60.15
607.583	60.2
607.919	60.12
608.255	60.12
608.591	60.16
608.926	60.28
609.262	60.36
609.597	60.5
609.933	60.6
610.268	60.57
610.604	60.53
610.939	60.56
611.275	60.54
611.61	60.68
611.945	60.71
612.281	60.71
612.616	60.73
612.951	60.67
613.286	60.71
613.621	60.85
613.956	60.83
614.291	60.86
614.626	60.94
614.961	61.19
615.296	61.32
615.631	61.27
615.966	61.29
616.3	61.29
616.635	61.31
616.97	61.4
617.304	61.56
617.639	61.72
617.973	61.78
618.308	61.77
618.642	61.68
618.977	61.75
619.311	61.76
619.646	61.83
619.98	62
620.314	62.01
620.648	62
620.983	62.09
621.317	62.18
621.651	62.23
621.985	62.21
622.319	62.2
622.653	62.28
622.987	62.3
623.321	62.34
623.655	62.31
623.988	62.32
624.322	62.31
624.656	62.29
624.99	62.33
625.323	62.38
625.657	62.49
625.99	62.52
626.324	62.59
626.657	62.58
626.991	62.66
627.324	62.73
627.658	62.72
627.991	62.76
628.324	62.81
628.657	62.78
628.991	62.75
629.324	62.82
629.657	62.86
629.99	62.93
630.323	62.97
630.656	62.96
630.989	62.95
631.322	63.03
631.655	63.12
631.987	63.16
632.32	63.16
632.653	63.15
632.986	63.21
633.318	63.16
633.651	63.14
633.984	62.98
634.316	62.9
634.649	62.92
634.981	62.9
635.313	62.93
635.646	63.01
635.978	62.99
636.31	62.97
636.643	63.1
636.975	63.04
637.307	62.96
637.639	63.07
637.971	63.07
638.303	63.07
638.635	63.02
638.967	63.05
639.299	63.21
639.631	63.2
639.963	63.16
640.295	63.26
640.626	63.38
640.958	63.51
641.29	63.55
641.621	63.66
641.953	63.58
642.285	63.67
642.616	63.64
642.948	63.75
643.279	63.75
643.61	63.57
643.942	63.72
644.273	63.89
644.604	63.86
644.936	63.87
645.267	63.86
645.598	63.91
645.929	63.85
646.26	63.86
646.591	63.9
646.922	63.99
647.253	64.02
647.584	63.94
647.915	63.93
648.245	63.94
648.576	63.97
648.907	64.01
649.238	63.91
649.568	63.97
649.899	64.09
650.229	64.06
650.56	64.03
650.89	64.01
651.221	63.99
651.551	64.04
651.882	64.08
652.212	64.13
652.542	64.12
652.872	64.13
653.203	64.08
653.533	63.99
653.863	63.86
654.193	63.76
654.523	63.85
654.853	63.94
655.183	63.99
655.513	64.05
655.843	64.09
656.172	64.02
656.502	63.98
656.832	63.8
657.162	63.91
657.491	64.03
657.821	64.09
658.15	64.12
658.48	64.04
658.809	64.03
659.139	64
659.468	64.1
659.798	64.14
660.127	64.15
660.456	64.3
660.785	64.37
661.115	64.51
661.444	64.51
661.773	64.43
662.102	64.45
662.431	64.42
662.76	64.4
663.089	64.45
663.418	64.49
663.747	64.49
664.076	64.47
664.404	64.48
664.733	64.36
665.062	64.37
665.39	64.47
665.719	64.45
666.048	64.41
666.376	64.34
666.705	64.32
667.033	64.29
667.362	64.19
667.69	64.22
