Data from BA28305_Reflection_00002.txt Node
Date: Mon Nov 18 15:56:46 EST 2019
User: vgr7
Spectrometer: USB2G7710
Scans to average: 3
Trigger mode: 4
Integration Time (sec): 2.000000E-2
Electric dark correction enabled: true
Boxcar width: 10
XAxis mode: Wavelengths
Number of Pixels in Spectrum: 2048
>>>>>Begin Spectral Data<<<<<
177.721	-12.16
178.105	-303.51
178.488	-819
178.871	183.33
179.254	112.53
179.636	-48.81
180.019	179
180.402	91.3
180.785	-21.42
181.168	-5.35
181.55	-31.55
181.933	45.17
182.316	39.26
182.698	56.64
183.081	38.01
183.463	58.67
183.846	95.71
184.228	112.64
184.611	120.81
184.993	128.41
185.376	185.05
185.758	262.03
186.14	290.38
186.522	496.83
186.904	872.19
187.287	466.42
187.669	1129.72
188.051	719.41
188.433	961.93
188.815	1611.33
189.197	3113.07
189.579	-893.16
189.961	-1271.88
190.342	-1071.32
190.724	-524.48
191.106	-381.09
191.488	-558.07
191.869	-341.71
192.251	-276.57
192.633	-196.57
193.014	-218.26
193.396	-336.65
193.777	-406.93
194.159	-389.61
194.54	-424.84
194.922	-540.6
195.303	-483.66
195.684	-463.3
196.065	-533.2
196.447	-454.88
196.828	-305.89
197.209	-313.03
197.59	-442.48
197.971	-337.19
198.352	-223.93
198.733	-182.95
199.114	-167.82
199.495	-135.9
199.876	-155.57
200.257	-114.83
200.638	-141.72
201.018	-190.11
201.399	-104.78
201.78	-86.86
202.16	-115.88
202.541	-171.34
202.922	-388.69
203.302	-578.25
203.683	-351.89
204.063	-384.22
204.444	-454.92
204.824	-742.48
205.204	-1353.33
205.585	-1277.26
205.965	-747.15
206.345	-3989.43
206.725	1523.19
207.106	512.91
207.486	302.09
207.866	348.9
208.246	308.8
208.626	505.97
209.006	1394.25
209.386	664.02
209.766	1409.05
210.145	-783.86
210.525	-720.27
210.905	-382.26
211.285	-309.18
211.664	-323.29
212.044	-275.35
212.424	-297.88
212.803	-332.33
213.183	-251.18
213.562	-224.55
213.942	-194.19
214.321	-144.26
214.701	-146.75
215.08	-128.14
215.459	-112.66
215.838	-141.66
216.218	-154.13
216.597	-138.29
216.976	-165.62
217.355	-149.25
217.734	-172.39
218.113	-218.73
218.492	-204.59
218.871	-210.82
219.25	-175.56
219.629	-196.15
220.008	-189.73
220.387	-177.43
220.766	-144.37
221.144	-285.66
221.523	-338.05
221.902	-688.33
222.28	-1959.43
222.659	-934.81
223.037	-819.82
223.416	-2079.06
223.794	-880.61
224.173	-582.95
224.551	-348.35
224.929	-198.04
225.308	-159.2
225.686	-126.75
226.064	-79.14
226.442	-75.88
226.821	-58.22
227.199	-50.33
227.577	-51.61
227.955	-44.3
228.333	-38.02
228.711	-39.65
229.089	-25.63
229.467	-23.85
229.845	-23.84
230.222	-23.17
230.6	-22.49
230.978	-21.27
231.356	-15.28
231.733	-14.6
232.111	-14.04
232.488	-14.77
232.866	-13.43
233.243	-12.83
233.621	-11.75
233.998	-12.81
234.376	-11.55
234.753	-13.09
235.13	-13.87
235.508	-12.31
235.885	-12.98
236.262	-15.2
236.639	-15.15
237.016	-16.12
237.393	-13.73
237.77	-9.49
238.147	-6.17
238.524	-5.44
238.901	-4.19
239.278	-3.78
239.655	-2.84
240.032	-1.85
240.409	-1.76
240.785	-0.98
241.162	-0.56
241.539	-0.88
241.915	-0.2
242.292	0.18
242.668	0.66
243.045	0.86
243.421	0.48
243.798	0.74
244.174	1.52
244.551	1.87
244.927	1.97
245.303	2.44
245.679	2.08
246.056	1.93
246.432	1.87
246.808	1.87
247.184	1.48
247.56	1.24
247.936	1.1
248.312	1.16
248.688	1.14
249.064	1.19
249.44	1.36
249.815	1.35
250.191	1.37
250.567	1.19
250.943	1.24
251.318	1.81
251.694	1.93
252.069	1.95
252.445	1.99
252.82	1.93
253.196	1.72
253.571	1.67
253.947	1.61
254.322	1.88
254.697	1.92
255.073	2.27
255.448	2.53
255.823	2.54
256.198	2.75
256.573	2.78
256.948	2.72
257.323	3.01
257.698	2.91
258.073	2.96
258.448	2.84
258.823	2.79
259.198	2.7
259.573	2.59
259.948	2.49
260.322	2.47
260.697	2.5
261.072	2.35
261.446	2.43
261.821	2.44
262.195	2.48
262.57	2.42
262.944	2.36
263.319	2.37
263.693	2.36
264.067	2.35
264.442	2.38
264.816	2.32
265.19	2.03
265.564	2.05
265.938	1.85
266.313	1.83
266.687	1.91
267.061	1.89
267.435	2.03
267.809	2.16
268.183	2.13
268.556	2.06
268.93	2.11
269.304	2.28
269.678	2.41
270.051	2.23
270.425	2.36
270.799	2.39
271.172	2.49
271.546	2.57
271.919	2.42
272.293	2.36
272.666	2.42
273.04	2.56
273.413	2.4
273.787	2.5
274.16	2.63
274.533	2.58
274.906	2.51
275.279	2.38
275.653	2.44
276.026	2.5
276.399	2.5
276.772	2.62
277.145	2.4
277.518	2.4
277.891	2.4
278.263	2.3
278.636	2.47
279.009	2.14
279.382	2.14
279.755	2.22
280.127	2.39
280.5	2.47
280.872	2.56
281.245	2.66
281.617	2.83
281.99	2.94
282.362	2.86
282.735	2.74
283.107	2.84
283.479	2.86
283.852	2.76
284.224	2.95
284.596	2.96
284.968	2.95
285.34	2.95
285.713	2.97
286.085	2.98
286.457	2.84
286.829	2.93
287.201	2.93
287.572	2.79
287.944	2.73
288.316	2.74
288.688	2.57
289.06	2.49
289.431	2.37
289.803	2.4
290.175	2.45
290.546	2.7
290.918	2.55
291.289	2.34
291.661	2.5
292.032	2.43
292.403	2.43
292.775	2.56
293.146	2.45
293.517	2.5
293.889	2.69
294.26	2.8
294.631	2.96
295.002	2.89
295.373	3.06
295.744	2.99
296.115	3
296.486	2.95
296.857	3.01
297.228	3.04
297.599	2.89
297.97	2.87
298.34	2.72
298.711	2.87
299.082	2.88
299.452	2.79
299.823	2.91
300.194	2.81
300.564	2.75
300.935	2.8
301.305	2.76
301.676	2.64
302.046	2.54
302.416	2.53
302.787	2.54
303.157	2.51
303.527	2.56
303.897	2.59
304.267	2.71
304.637	2.69
305.008	2.67
305.378	2.74
305.748	2.84
306.117	2.86
306.487	2.88
306.857	2.94
307.227	3.08
307.597	2.97
307.967	2.93
308.336	2.88
308.706	2.98
309.076	3.02
309.445	3
309.815	2.94
310.184	2.77
310.554	2.8
310.923	2.75
311.293	2.7
311.662	2.63
312.031	2.64
312.401	2.61
312.77	2.71
313.139	2.69
313.508	2.6
313.877	2.62
314.246	2.62
314.616	2.69
314.985	2.48
315.353	2.31
315.722	2.49
316.091	2.35
316.46	2.2
316.829	2.23
317.198	2.24
317.567	2.21
317.935	2.28
318.304	2.23
318.672	2.26
319.041	2.4
319.41	2.26
319.778	2.3
320.147	2.36
320.515	2.18
320.883	2.18
321.252	2.3
321.62	2.27
321.988	2.16
322.357	2.03
322.725	2.15
323.093	2.22
323.461	2.07
323.829	2.21
324.197	2.17
324.565	2.14
324.933	2.21
325.301	2.32
325.669	2.35
326.037	2.42
326.405	2.42
326.772	2.33
327.14	2.48
327.508	2.4
327.875	2.26
328.243	2.29
328.61	2.34
328.978	2.24
329.346	2.33
329.713	2.24
330.08	2.29
330.448	2.25
330.815	2.06
331.182	2.25
331.55	2.3
331.917	2.36
332.284	2.49
332.651	2.46
333.018	2.42
333.385	2.44
333.752	2.46
334.119	2.52
334.486	2.52
334.853	2.41
335.22	2.42
335.587	2.56
335.954	2.59
336.32	2.57
336.687	2.7
337.054	2.77
337.42	2.89
337.787	2.89
338.153	2.88
338.52	3.01
338.886	2.84
339.253	2.73
339.619	2.72
339.986	2.56
340.352	2.67
340.718	2.69
341.084	2.7
341.451	2.71
341.817	2.68
342.183	2.72
342.549	2.73
342.915	2.74
343.281	2.68
343.647	2.75
344.013	2.72
344.379	2.7
344.745	2.6
345.11	2.6
345.476	2.71
345.842	2.76
346.208	2.78
346.573	2.9
346.939	3.07
347.304	3.11
347.67	3.11
348.035	3.04
348.401	3
348.766	2.92
349.132	2.83
349.497	2.79
349.862	2.81
350.228	2.88
350.593	2.81
350.958	2.88
351.323	2.8
351.688	2.79
352.053	2.9
352.418	2.93
352.783	2.91
353.148	2.83
353.513	2.82
353.878	2.79
354.243	2.81
354.608	2.79
354.972	2.77
355.337	2.81
355.702	2.84
356.066	2.95
356.431	3.01
356.795	3.04
357.16	3.07
357.524	3
357.889	2.98
358.253	3.12
358.618	3.19
358.982	3.16
359.346	3.22
359.71	3.11
360.075	3.11
360.439	3.13
360.803	3.16
361.167	3.07
361.531	3.1
361.895	3.07
362.259	3.03
362.623	3.06
362.987	3.08
363.351	3.07
363.714	3.06
364.078	3.07
364.442	3.06
364.806	3.08
365.169	3.17
365.533	3.17
365.896	3.12
366.26	3.11
366.623	3.12
366.987	3.1
367.35	3.14
367.714	3.16
368.077	3.1
368.44	3.07
368.803	3.13
369.167	3.17
369.53	3.15
369.893	3.21
370.256	3.21
370.619	3.15
370.982	3.08
371.345	3.05
371.708	3.02
372.071	3.02
372.434	2.99
372.797	2.93
373.159	2.9
373.522	2.93
373.885	2.9
374.247	2.88
374.61	2.9
374.973	2.84
375.335	2.8
375.698	2.83
376.06	2.86
376.423	2.93
376.785	2.96
377.147	3.02
377.51	3
377.872	3.02
378.234	3.08
378.596	3.15
378.958	3.13
379.321	3.13
379.683	3.14
380.045	3.18
380.407	3.21
380.769	3.23
381.13	3.17
381.492	3.16
381.854	3.23
382.216	3.21
382.578	3.26
382.939	3.31
383.301	3.34
383.663	3.31
384.024	3.24
384.386	3.26
384.747	3.25
385.109	3.21
385.47	3.18
385.832	3.16
386.193	3.16
386.554	3.14
386.916	3.14
387.277	3.15
387.638	3.15
387.999	3.13
388.36	3.18
388.721	3.21
389.082	3.19
389.443	3.12
389.804	3.12
390.165	3.12
390.526	3.13
390.887	3.1
391.248	3.16
391.609	3.22
391.969	3.21
392.33	3.18
392.691	3.2
393.051	3.19
393.412	3.23
393.772	3.24
394.133	3.29
394.493	3.3
394.854	3.31
395.214	3.3
395.574	3.29
395.935	3.26
396.295	3.29
396.655	3.32
397.015	3.36
397.376	3.38
397.736	3.38
398.096	3.37
398.456	3.38
398.816	3.33
399.176	3.32
399.535	3.32
399.895	3.31
400.255	3.32
400.615	3.37
400.975	3.32
401.334	3.32
401.694	3.32
402.054	3.33
402.413	3.36
402.773	3.33
403.132	3.34
403.492	3.33
403.851	3.28
404.211	3.28
404.57	3.26
404.929	3.27
405.288	3.29
405.648	3.28
406.007	3.28
406.366	3.3
406.725	3.29
407.084	3.31
407.443	3.32
407.802	3.33
408.161	3.33
408.52	3.34
408.879	3.31
409.238	3.3
409.596	3.29
409.955	3.27
410.314	3.31
410.673	3.27
411.031	3.27
411.39	3.33
411.748	3.34
412.107	3.34
412.465	3.35
412.824	3.34
413.182	3.33
413.54	3.36
413.899	3.36
414.257	3.37
414.615	3.36
414.974	3.37
415.332	3.35
415.69	3.34
416.048	3.34
416.406	3.36
416.764	3.34
417.122	3.39
417.48	3.37
417.838	3.38
418.195	3.41
418.553	3.4
418.911	3.38
419.269	3.38
419.626	3.41
419.984	3.4
420.342	3.39
420.699	3.39
421.057	3.4
421.414	3.39
421.772	3.38
422.129	3.38
422.486	3.36
422.844	3.37
423.201	3.36
423.558	3.37
423.915	3.38
424.273	3.4
424.63	3.36
424.987	3.36
425.344	3.37
425.701	3.37
426.058	3.39
426.415	3.38
426.772	3.38
427.128	3.34
427.485	3.35
427.842	3.36
428.199	3.39
428.555	3.39
428.912	3.41
429.269	3.43
429.625	3.42
429.982	3.43
430.338	3.44
430.695	3.44
431.051	3.42
431.407	3.4
431.764	3.38
432.12	3.4
432.476	3.4
432.832	3.37
433.189	3.38
433.545	3.4
433.901	3.4
434.257	3.39
434.613	3.42
434.969	3.42
435.325	3.41
435.681	3.39
436.036	3.4
436.392	3.39
436.748	3.4
437.104	3.41
437.459	3.41
437.815	3.42
438.171	3.42
438.526	3.44
438.882	3.45
439.237	3.47
439.593	3.46
439.948	3.47
440.304	3.47
440.659	3.47
441.014	3.45
441.369	3.45
441.725	3.46
442.08	3.45
442.435	3.46
442.79	3.46
443.145	3.46
443.5	3.45
443.855	3.44
444.21	3.42
444.565	3.41
444.92	3.44
445.275	3.43
445.629	3.43
445.984	3.44
446.339	3.44
446.693	3.41
447.048	3.42
447.403	3.41
447.757	3.42
448.112	3.4
448.466	3.41
448.82	3.41
449.175	3.43
449.529	3.42
449.883	3.4
450.238	3.41
450.592	3.41
450.946	3.38
451.3	3.38
451.654	3.4
452.008	3.41
452.362	3.38
452.716	3.4
453.07	3.4
453.424	3.39
453.778	3.39
454.132	3.4
454.486	3.41
454.839	3.42
455.193	3.41
455.547	3.43
455.9	3.43
456.254	3.43
456.607	3.44
456.961	3.44
457.314	3.45
457.668	3.44
458.021	3.43
458.375	3.45
458.728	3.46
459.081	3.47
459.434	3.47
459.787	3.47
460.141	3.46
460.494	3.45
460.847	3.46
461.2	3.45
461.553	3.46
461.906	3.47
462.259	3.49
462.611	3.51
462.964	3.5
463.317	3.48
463.67	3.48
464.022	3.46
464.375	3.45
464.728	3.45
465.08	3.46
465.433	3.44
465.785	3.44
466.138	3.44
466.49	3.42
466.843	3.4
467.195	3.41
467.547	3.41
467.899	3.41
468.252	3.39
468.604	3.38
468.956	3.38
469.308	3.37
469.66	3.34
470.012	3.34
470.364	3.35
470.716	3.35
471.068	3.35
471.42	3.34
471.772	3.38
472.123	3.38
472.475	3.39
472.827	3.42
473.178	3.45
473.53	3.45
473.882	3.45
474.233	3.48
474.585	3.49
474.936	3.51
475.288	3.52
475.639	3.56
475.99	3.57
476.342	3.58
476.693	3.58
477.044	3.6
477.395	3.6
477.746	3.61
478.097	3.63
478.448	3.64
478.8	3.65
479.15	3.63
479.501	3.63
479.852	3.62
480.203	3.62
480.554	3.61
480.905	3.63
481.255	3.63
481.606	3.64
481.957	3.64
482.307	3.64
482.658	3.65
483.009	3.65
483.359	3.65
483.709	3.66
484.06	3.66
484.41	3.67
484.761	3.67
485.111	3.68
485.461	3.68
485.811	3.68
486.162	3.68
486.512	3.69
486.862	3.69
487.212	3.69
487.562	3.7
487.912	3.7
488.262	3.7
488.612	3.7
488.961	3.69
489.311	3.7
489.661	3.7
490.011	3.7
490.36	3.68
490.71	3.68
491.06	3.67
491.409	3.67
491.759	3.66
492.108	3.65
492.458	3.64
492.807	3.62
493.157	3.62
493.506	3.62
493.855	3.6
494.204	3.6
494.554	3.6
494.903	3.59
495.252	3.59
495.601	3.61
495.95	3.61
496.299	3.61
496.648	3.59
496.997	3.59
497.346	3.57
497.695	3.6
498.043	3.59
498.392	3.6
498.741	3.61
499.09	3.61
499.438	3.63
499.787	3.64
500.135	3.65
500.484	3.68
500.832	3.68
501.181	3.7
501.529	3.69
501.878	3.71
502.226	3.7
502.574	3.71
502.923	3.69
503.271	3.66
503.619	3.66
503.967	3.67
504.315	3.66
504.663	3.7
505.011	3.69
505.359	3.69
505.707	3.71
506.055	3.71
506.403	3.72
506.751	3.71
507.098	3.71
507.446	3.73
507.794	3.71
508.141	3.73
508.489	3.73
508.837	3.74
509.184	3.74
509.531	3.75
509.879	3.74
510.226	3.74
510.574	3.77
510.921	3.78
511.268	3.79
511.616	3.8
511.963	3.8
512.31	3.81
512.657	3.83
513.004	3.82
513.351	3.83
513.698	3.83
514.045	3.82
514.392	3.82
514.739	3.82
515.086	3.84
515.432	3.82
515.779	3.8
516.126	3.82
516.473	3.81
516.819	3.82
517.166	3.82
517.512	3.83
517.859	3.82
518.205	3.81
518.552	3.82
518.898	3.82
519.245	3.83
519.591	3.82
519.937	3.8
520.283	3.81
520.629	3.82
520.976	3.82
521.322	3.82
521.668	3.83
522.014	3.82
522.36	3.82
522.706	3.81
523.052	3.83
523.398	3.84
523.743	3.85
524.089	3.85
524.435	3.85
524.781	3.86
525.126	3.88
525.472	3.89
525.817	3.9
526.163	3.91
526.509	3.9
526.854	3.9
527.199	3.93
527.545	3.92
527.89	3.92
528.235	3.92
528.581	3.93
528.926	3.92
529.271	3.94
529.616	3.94
529.961	3.95
530.306	3.96
530.651	3.95
530.996	3.96
531.341	3.97
531.686	3.97
532.031	3.96
532.376	3.95
532.721	3.96
533.065	3.95
533.41	3.95
533.755	3.94
534.099	3.93
534.444	3.93
534.788	3.94
535.133	3.93
535.477	3.93
535.822	3.94
536.166	3.94
536.51	3.93
536.855	3.93
537.199	3.95
537.543	3.94
537.887	3.95
538.231	3.94
538.576	3.94
538.92	3.96
539.264	3.97
539.608	3.99
539.951	3.98
540.295	3.98
540.639	4
540.983	4.01
541.327	4.02
541.671	4
542.014	3.99
542.358	3.99
542.701	4.01
543.045	4
543.389	4.01
543.732	4.01
544.075	4.02
544.419	4.02
544.762	4.04
545.105	4.04
545.449	4.04
545.792	4.04
546.135	4.02
546.478	4.03
546.821	4.02
547.165	4.02
547.508	4.04
547.851	4.01
548.194	4
548.536	3.99
548.879	4.02
549.222	4.02
549.565	4.03
549.908	4.03
550.25	4.05
550.593	4.04
550.936	4.05
551.278	4.06
551.621	4.05
551.963	4.03
552.306	4.02
552.648	4.03
552.991	4.06
553.333	4.06
553.675	4.04
554.017	4.06
554.36	4.06
554.702	4.03
555.044	4.07
555.386	4.07
555.728	4.08
556.07	4.1
556.412	4.07
556.754	4.08
557.096	4.08
557.438	4.07
557.78	4.06
558.121	4.06
558.463	4.07
558.805	4.1
559.147	4.09
559.488	4.11
559.83	4.11
560.171	4.1
560.513	4.11
560.854	4.12
561.196	4.1
561.537	4.1
561.878	4.14
562.22	4.14
562.561	4.14
562.902	4.15
563.243	4.15
563.584	4.18
563.925	4.17
564.266	4.17
564.607	4.17
564.948	4.18
565.289	4.19
565.63	4.17
565.971	4.14
566.312	4.14
566.653	4.15
566.993	4.15
567.334	4.16
567.675	4.17
568.015	4.18
568.356	4.19
568.696	4.19
569.037	4.17
569.377	4.15
569.718	4.18
570.058	4.16
570.398	4.16
570.739	4.16
571.079	4.17
571.419	4.17
571.759	4.16
572.099	4.16
572.439	4.15
572.779	4.15
573.119	4.16
573.459	4.16
573.799	4.14
574.139	4.13
574.479	4.12
574.819	4.13
575.158	4.11
575.498	4.06
575.838	4.06
576.177	4.05
576.517	4.08
576.856	4.06
577.196	4.04
577.535	4.04
577.875	4.04
578.214	4.05
578.553	4.07
578.893	4.06
579.232	4.07
579.571	4.08
579.91	4.1
580.25	4.09
580.589	4.11
580.928	4.1
581.267	4.12
581.606	4.16
581.945	4.11
582.283	4.11
582.622	4.16
582.961	4.17
583.3	4.21
583.639	4.22
583.977	4.23
584.316	4.26
584.654	4.25
584.993	4.22
585.332	4.23
585.67	4.2
586.008	4.23
586.347	4.19
586.685	4.16
587.024	4.17
587.362	4.18
587.7	4.19
588.038	4.21
588.376	4.24
588.715	4.19
589.053	4.28
589.391	4.3
589.729	4.3
590.067	4.26
590.404	4.28
590.742	4.3
591.08	4.3
591.418	4.32
591.756	4.38
592.093	4.44
592.431	4.44
592.769	4.44
593.106	4.41
593.444	4.45
593.781	4.46
594.119	4.47
594.456	4.44
594.793	4.45
595.131	4.43
595.468	4.42
595.805	4.42
596.143	4.37
596.48	4.41
596.817	4.4
597.154	4.42
597.491	4.41
597.828	4.38
598.165	4.35
598.502	4.33
598.839	4.27
599.176	4.21
599.512	4.21
599.849	4.23
600.186	4.26
600.523	4.27
600.859	4.32
601.196	4.29
601.532	4.32
601.869	4.27
602.205	4.28
602.542	4.3
602.878	4.32
603.215	4.34
603.551	4.29
603.887	4.31
604.223	4.34
604.56	4.35
604.896	4.37
605.232	4.41
605.568	4.41
605.904	4.45
606.24	4.46
606.576	4.47
606.912	4.46
607.248	4.47
607.583	4.47
607.919	4.42
608.255	4.41
608.591	4.44
608.926	4.49
609.262	4.51
609.597	4.5
609.933	4.49
610.268	4.47
610.604	4.51
610.939	4.47
611.275	4.44
611.61	4.4
611.945	4.38
612.281	4.36
612.616	4.39
612.951	4.36
613.286	4.36
613.621	4.37
613.956	4.39
614.291	4.35
614.626	4.32
614.961	4.29
615.296	4.33
615.631	4.32
615.966	4.36
616.3	4.38
616.635	4.34
616.97	4.35
617.304	4.37
617.639	4.37
617.973	4.39
618.308	4.41
618.642	4.43
618.977	4.44
619.311	4.43
619.646	4.39
619.98	4.46
620.314	4.49
620.648	4.5
620.983	4.51
621.317	4.56
621.651	4.56
621.985	4.6
622.319	4.59
622.653	4.58
622.987	4.56
623.321	4.56
623.655	4.63
623.988	4.67
624.322	4.68
624.656	4.7
624.99	4.73
625.323	4.7
625.657	4.74
625.99	4.75
626.324	4.74
626.657	4.76
626.991	4.77
627.324	4.75
627.658	4.74
627.991	4.77
628.324	4.75
628.657	4.73
628.991	4.76
629.324	4.78
629.657	4.78
629.99	4.79
630.323	4.77
630.656	4.74
630.989	4.73
631.322	4.75
631.655	4.67
631.987	4.67
632.32	4.71
632.653	4.67
632.986	4.67
633.318	4.68
633.651	4.69
633.984	4.63
634.316	4.61
634.649	4.6
634.981	4.58
635.313	4.59
635.646	4.62
635.978	4.6
636.31	4.61
636.643	4.62
636.975	4.6
637.307	4.6
637.639	4.61
637.971	4.6
638.303	4.51
638.635	4.53
638.967	4.53
639.299	4.53
639.631	4.53
639.963	4.51
640.295	4.55
640.626	4.57
640.958	4.6
641.29	4.62
641.621	4.63
641.953	4.59
642.285	4.58
642.616	4.62
642.948	4.62
643.279	4.61
643.61	4.56
643.942	4.54
644.273	4.52
644.604	4.52
644.936	4.51
645.267	4.55
645.598	4.61
645.929	4.64
646.26	4.65
646.591	4.67
646.922	4.64
647.253	4.66
647.584	4.63
647.915	4.61
648.245	4.66
648.576	4.69
648.907	4.74
649.238	4.75
649.568	4.78
649.899	4.79
650.229	4.77
650.56	4.85
650.89	4.85
651.221	4.91
651.551	4.86
651.882	4.83
652.212	4.84
652.542	4.79
652.872	4.69
653.203	4.65
653.533	4.65
653.863	4.68
654.193	4.67
654.523	4.65
654.853	4.65
655.183	4.63
655.513	4.59
655.843	4.56
656.172	4.58
656.502	4.55
656.832	4.52
657.162	4.56
657.491	4.56
657.821	4.59
658.15	4.59
658.48	4.61
658.809	4.61
659.139	4.65
659.468	4.63
659.798	4.65
660.127	4.69
660.456	4.65
660.785	4.71
661.115	4.74
661.444	4.78
661.773	4.8
662.102	4.79
662.431	4.8
662.76	4.82
663.089	4.82
663.418	4.78
663.747	4.78
664.076	4.75
664.404	4.66
664.733	4.69
665.062	4.68
665.39	4.64
665.719	4.64
666.048	4.64
666.376	4.69
666.705	4.76
667.033	4.76
667.362	4.9
667.69	4.79
668.018	4.74
668.347	4.71
668.675	4.79
669.003	4.88
669.331	4.96
669.659	4.95
669.987	4.96
670.315	4.99
670.643	5.01
670.971	5.05
671.299	5.13
671.627	5.07
671.955	5.04
672.283	5.08
672.61	5.11
672.938	5.13
673.266	5.12
673.593	5.1
673.921	5.16
