Data from BA28305_Reflection_00015.txt Node
Date: Mon Nov 18 15:57:20 EST 2019
User: vgr7
Spectrometer: USB2G7710
Scans to average: 3
Trigger mode: 4
Integration Time (sec): 2.000000E-2
Electric dark correction enabled: true
Boxcar width: 10
XAxis mode: Wavelengths
Number of Pixels in Spectrum: 2048
>>>>>Begin Spectral Data<<<<<
177.721	-198.58
178.105	-268.42
178.488	-96.26
178.871	100
179.254	77.44
179.636	153.57
180.019	-56.07
180.402	56.52
180.785	23.43
181.168	142.45
181.55	96.17
181.933	103.55
182.316	109.78
182.698	91.22
183.081	83.86
183.463	90.19
183.846	100.99
184.228	88.08
184.611	84.13
184.993	77.19
185.376	142.79
185.758	196.36
186.14	168.23
186.522	192.44
186.904	336.18
187.287	196.77
187.669	310.19
188.051	180.46
188.433	224.26
188.815	206.8
189.197	119.61
189.579	-28.21
189.961	-274.15
190.342	-17.32
190.724	-31.51
191.106	-58.81
191.488	-120.63
191.869	-75.8
192.251	-82.5
192.633	-79.22
193.014	-77.61
193.396	-152.85
193.777	-208.53
194.159	-250.54
194.54	-292.95
194.922	-455.56
195.303	-496.84
195.684	-440.07
196.065	-498.39
196.447	-428.7
196.828	-374.33
197.209	-334.54
197.59	-468.63
197.971	-260
198.352	-189.14
198.733	-173.95
199.114	-119.12
199.495	-93.19
199.876	-120.84
200.257	-75.93
200.638	-110.88
201.018	-204.52
201.399	-94.07
201.78	-68.47
202.16	-71.32
202.541	-113.16
202.922	-256.93
203.302	-320.85
203.683	-234.87
204.063	-248.73
204.444	-298.28
204.824	-376.79
205.204	-692
205.585	-651.94
205.965	-382.93
206.345	-2070.73
206.725	926.09
207.106	309.55
207.486	149.93
207.866	185.07
208.246	162.8
208.626	223.49
209.006	451.72
209.386	236.51
209.766	450.99
210.145	-217.07
210.525	-210.34
210.905	-69.42
211.285	-23.35
211.664	-19.8
212.044	-10.3
212.424	-20.33
212.803	-34.28
213.183	-24.56
213.562	-28.43
213.942	-14.53
214.321	2.02
214.701	8.37
215.08	2.42
215.459	-0.06
215.838	10.01
216.218	7.84
216.597	11.58
216.976	15.61
217.355	25.44
217.734	35.04
218.113	48.91
218.492	56.89
218.871	33.66
219.25	28.16
219.629	17.01
220.008	1.31
220.387	28.76
220.766	37.55
221.144	60.75
221.523	48.68
221.902	49.55
222.28	-93.8
222.659	-48.59
223.037	-82.13
223.416	-321.49
223.794	-187.27
224.173	-164.78
224.551	-112.73
224.929	-89.61
225.308	-67.57
225.686	-67.4
226.064	-51.17
226.442	-43.68
226.821	-27.81
227.199	-30.82
227.577	-26.88
227.955	-23.23
228.333	-28.87
228.711	-23.32
229.089	-16.2
229.467	-16.16
229.845	-15.98
230.222	-8.35
230.6	-9.18
230.978	-6.12
231.356	-3.41
231.733	-2.74
232.111	-0.25
232.488	0.91
232.866	4.19
233.243	2.52
233.621	3.18
233.998	4.33
234.376	3.62
234.753	2.46
235.13	5.05
235.508	6.8
235.885	7.83
236.262	8.46
236.639	8.66
237.016	6.39
237.393	6.91
237.77	8.82
238.147	6.97
238.524	8.38
238.901	8.42
239.278	7.79
239.655	7.64
240.032	6.97
240.409	6.38
240.785	6.25
241.162	6.24
241.539	6.12
241.915	6.04
242.292	5.49
242.668	5.36
243.045	5.16
243.421	4.8
243.798	3.99
244.174	3.83
244.551	3.47
244.927	3.51
245.303	3.65
245.679	3.36
246.056	3.07
246.432	2.81
246.808	2.55
247.184	2.3
247.56	2.3
247.936	2.17
248.312	2.17
248.688	2.22
249.064	2.22
249.44	2.22
249.815	2.17
250.191	2.39
250.567	2.44
250.943	2.47
251.318	2.53
251.694	2.47
252.069	2.29
252.445	2.15
252.82	2.38
253.196	2.19
253.571	2.03
253.947	2.36
254.322	2.7
254.697	2.79
255.073	3.1
255.448	2.9
255.823	3.13
256.198	3.1
256.573	2.91
256.948	3.04
257.323	3.04
257.698	3.28
258.073	3.33
258.448	3.32
258.823	3.13
259.198	2.99
259.573	3.2
259.948	3.38
260.322	3.7
260.697	3.59
261.072	3.54
261.446	3.6
261.821	3.57
262.195	3.66
262.57	3.61
262.944	3.53
263.319	3.46
263.693	3.34
264.067	3.5
264.442	3.67
264.816	3.45
265.19	3.34
265.564	3.1
265.938	3
266.313	3.01
266.687	3.13
267.061	3.3
267.435	3.28
267.809	3.03
268.183	2.75
268.556	2.67
268.93	2.72
269.304	2.69
269.678	2.88
270.051	2.69
270.425	2.79
270.799	2.95
271.172	2.96
271.546	2.97
271.919	2.91
272.293	2.75
272.666	2.82
273.04	2.92
273.413	2.76
273.787	2.81
274.16	2.66
274.533	2.75
274.906	2.7
275.279	2.83
275.653	3.05
276.026	3.15
276.399	3.28
276.772	3.39
277.145	3.39
277.518	3.33
277.891	3.38
278.263	3.19
278.636	3.19
279.009	3.34
279.382	3.55
279.755	3.34
280.127	3.55
280.5	3.61
280.872	3.65
281.245	3.73
281.617	3.69
281.99	3.78
282.362	3.7
282.735	3.51
283.107	3.38
283.479	3.29
283.852	3.17
284.224	3.03
284.596	2.98
284.968	2.98
285.34	2.96
285.713	2.93
286.085	3.06
286.457	3
286.829	3.04
287.201	2.87
287.572	3.05
287.944	2.82
288.316	2.77
288.688	2.77
289.06	2.8
289.431	2.85
289.803	2.86
290.175	2.84
290.546	3.08
290.918	3.06
291.289	3.15
291.661	3.25
292.032	3.42
292.403	3.46
292.775	3.47
293.146	3.35
293.517	3.29
293.889	3.44
294.26	3.42
294.631	3.45
295.002	3.43
295.373	3.42
295.744	3.44
296.115	3.52
296.486	3.59
296.857	3.64
297.228	3.59
297.599	3.58
297.97	3.66
298.34	3.76
298.711	3.81
299.082	3.79
299.452	3.88
299.823	3.96
300.194	3.87
300.564	3.86
300.935	3.96
301.305	4.02
301.676	4.08
302.046	4.19
302.416	4.31
302.787	4.53
303.157	4.64
303.527	4.84
303.897	4.86
304.267	4.92
304.637	4.89
305.008	5.11
305.378	5.2
305.748	5.14
306.117	4.93
306.487	5.13
306.857	5.14
307.227	5.18
307.597	5.13
307.967	5.27
308.336	5.29
308.706	5.34
309.076	5.44
309.445	5.32
309.815	5.25
310.184	5.19
310.554	5.2
310.923	5.19
311.293	5.17
311.662	5.27
312.031	5.28
312.401	5.42
312.77	5.46
313.139	5.55
313.508	5.69
313.877	5.89
314.246	5.82
314.616	5.93
314.985	5.83
315.353	5.81
315.722	5.92
316.091	5.94
316.46	5.9
316.829	5.86
317.198	6.06
317.567	6.16
317.935	6.26
318.304	6.28
318.672	6.44
319.041	6.62
319.41	6.55
319.778	6.66
320.147	6.79
320.515	6.71
320.883	6.71
321.252	6.65
321.62	6.65
321.988	6.62
322.357	6.63
322.725	6.81
323.093	6.91
323.461	6.95
323.829	7.13
324.197	7.28
324.565	7.37
324.933	7.24
325.301	7.31
325.669	7.34
326.037	7.25
326.405	7.3
326.772	7.34
327.14	7.56
327.508	7.6
327.875	7.46
328.243	7.75
328.61	7.69
328.978	7.84
329.346	7.97
329.713	8.02
330.08	7.95
330.448	7.92
330.815	7.86
331.182	7.91
331.55	7.91
331.917	7.99
332.284	8.16
332.651	8.15
333.018	8.14
333.385	8.12
333.752	8.31
334.119	8.17
334.486	8.16
334.853	8.17
335.22	8.2
335.587	8.23
335.954	8.04
336.32	8.1
336.687	8.1
337.054	8.07
337.42	8.21
337.787	8.41
338.153	8.62
338.52	8.82
338.886	8.71
339.253	8.65
339.619	8.63
339.986	8.57
340.352	8.7
340.718	8.76
341.084	8.79
341.451	8.77
341.817	8.91
342.183	8.94
342.549	8.85
342.915	8.82
343.281	8.8
343.647	8.79
344.013	8.8
344.379	8.8
344.745	8.87
345.11	8.82
345.476	8.73
345.842	8.65
346.208	8.55
346.573	8.65
346.939	8.81
347.304	8.83
347.67	8.73
348.035	8.78
348.401	8.77
348.766	8.84
349.132	8.88
349.497	8.86
349.862	8.94
350.228	9.07
350.593	9.1
350.958	9.14
351.323	9.13
351.688	9.2
352.053	9.25
352.418	9.31
352.783	9.26
353.148	9.37
353.513	9.34
353.878	9.29
354.243	9.33
354.608	9.24
354.972	9.36
355.337	9.46
355.702	9.53
356.066	9.56
356.431	9.52
356.795	9.46
357.16	9.43
357.524	9.33
357.889	9.29
358.253	9.31
358.618	9.32
358.982	9.35
359.346	9.29
359.71	9.28
360.075	9.18
360.439	9.26
360.803	9.13
361.167	9.07
361.531	9.04
361.895	8.98
362.259	8.96
362.623	8.9
362.987	8.83
363.351	8.79
363.714	8.76
364.078	8.75
364.442	8.75
364.806	8.75
365.169	8.72
365.533	8.65
365.896	8.59
366.26	8.62
366.623	8.5
366.987	8.52
367.35	8.45
367.714	8.43
368.077	8.3
368.44	8.3
368.803	8.34
369.167	8.35
369.53	8.33
369.893	8.27
370.256	8.15
370.619	8.13
370.982	8.01
371.345	7.91
371.708	7.82
372.071	7.73
372.434	7.69
372.797	7.6
373.159	7.55
373.522	7.49
373.885	7.41
374.247	7.42
374.61	7.39
374.973	7.3
375.335	7.15
375.698	7.19
376.06	7.11
376.423	7.02
376.785	6.99
377.147	6.94
377.51	6.94
377.872	6.94
378.234	6.89
378.596	6.83
378.958	6.83
379.321	6.82
379.683	6.82
380.045	6.72
380.407	6.7
380.769	6.63
381.13	6.58
381.492	6.53
381.854	6.53
382.216	6.46
382.578	6.49
382.939	6.47
383.301	6.39
383.663	6.34
384.024	6.32
384.386	6.29
384.747	6.3
385.109	6.27
385.47	6.2
385.832	6.2
386.193	6.15
386.554	6.07
386.916	6
387.277	5.93
387.638	5.97
387.999	5.92
388.36	5.88
388.721	5.86
389.082	5.78
389.443	5.71
389.804	5.68
390.165	5.59
390.526	5.56
390.887	5.51
391.248	5.5
391.609	5.43
391.969	5.36
392.33	5.27
392.691	5.2
393.051	5.16
393.412	5.11
393.772	5.07
394.133	5.07
394.493	5.04
394.854	5.02
395.214	4.94
395.574	4.9
395.935	4.87
396.295	4.83
396.655	4.77
397.015	4.76
397.376	4.68
397.736	4.64
398.096	4.61
398.456	4.54
398.816	4.5
399.176	4.47
399.535	4.43
399.895	4.41
400.255	4.4
400.615	4.39
400.975	4.35
401.334	4.31
401.694	4.28
402.054	4.26
402.413	4.25
402.773	4.19
403.132	4.16
403.492	4.15
403.851	4.12
404.211	4.14
404.57	4.11
404.929	4.12
405.288	4.09
405.648	4.07
406.007	4.08
406.366	4.08
406.725	4.1
407.084	4.11
407.443	4.09
407.802	4.08
408.161	4.05
408.52	4.03
408.879	3.99
409.238	4
409.596	3.99
409.955	3.94
410.314	3.95
410.673	3.95
411.031	3.94
411.39	3.95
411.748	3.92
412.107	3.9
412.465	3.88
412.824	3.87
413.182	3.82
413.54	3.79
413.899	3.75
414.257	3.72
414.615	3.71
414.974	3.67
415.332	3.65
415.69	3.64
416.048	3.6
416.406	3.6
416.764	3.58
417.122	3.57
417.48	3.54
417.838	3.55
418.195	3.51
418.553	3.48
418.911	3.45
419.269	3.45
419.626	3.43
419.984	3.39
420.342	3.38
420.699	3.38
421.057	3.38
421.414	3.38
421.772	3.37
422.129	3.37
422.486	3.36
422.844	3.35
423.201	3.34
423.558	3.34
423.915	3.33
424.273	3.32
424.63	3.28
424.987	3.28
425.344	3.25
425.701	3.27
426.058	3.26
426.415	3.26
426.772	3.23
427.128	3.23
427.485	3.25
427.842	3.24
428.199	3.21
428.555	3.21
428.912	3.2
429.269	3.18
429.625	3.13
429.982	3.12
430.338	3.13
430.695	3.13
431.051	3.11
431.407	3.09
431.764	3.08
432.12	3.09
432.476	3.08
432.832	3.08
433.189	3.06
433.545	3.06
433.901	3.06
434.257	3.07
434.613	3.08
434.969	3.08
435.325	3.08
435.681	3.09
436.036	3.08
436.392	3.08
436.748	3.08
437.104	3.08
437.459	3.08
437.815	3.06
438.171	3.07
438.526	3.08
438.882	3.09
439.237	3.08
439.593	3.12
439.948	3.13
440.304	3.13
440.659	3.13
441.014	3.13
441.369	3.11
441.725	3.09
442.08	3.07
442.435	3.07
442.79	3.07
443.145	3.06
443.5	3.05
443.855	3.04
444.21	3.04
444.565	3.03
444.92	3.04
445.275	3.03
445.629	3.01
445.984	2.99
446.339	2.97
446.693	2.96
447.048	2.93
447.403	2.91
447.757	2.9
448.112	2.88
448.466	2.87
448.82	2.86
449.175	2.87
449.529	2.84
449.883	2.81
450.238	2.8
450.592	2.8
450.946	2.79
451.3	2.78
451.654	2.77
452.008	2.77
452.362	2.75
452.716	2.76
453.07	2.77
453.424	2.78
453.778	2.78
454.132	2.77
454.486	2.76
454.839	2.75
455.193	2.74
455.547	2.76
455.9	2.76
456.254	2.77
456.607	2.77
456.961	2.79
457.314	2.82
457.668	2.84
458.021	2.82
458.375	2.83
458.728	2.85
459.081	2.87
459.434	2.87
459.787	2.87
460.141	2.87
460.494	2.87
460.847	2.87
461.2	2.89
461.553	2.91
461.906	2.92
462.259	2.93
462.611	2.96
462.964	2.96
463.317	2.98
463.67	2.99
464.022	3.02
464.375	3.02
464.728	3.03
465.08	3.04
465.433	3.07
465.785	3.09
466.138	3.1
466.49	3.09
466.843	3.1
467.195	3.13
467.547	3.15
467.899	3.16
468.252	3.18
468.604	3.18
468.956	3.19
469.308	3.2
469.66	3.21
470.012	3.2
470.364	3.22
470.716	3.23
471.068	3.24
471.42	3.25
471.772	3.26
472.123	3.27
472.475	3.29
472.827	3.28
473.178	3.29
473.53	3.26
473.882	3.27
474.233	3.28
474.585	3.25
474.936	3.23
475.288	3.22
475.639	3.2
475.99	3.2
476.342	3.17
476.693	3.16
477.044	3.17
477.395	3.18
477.746	3.16
478.097	3.15
478.448	3.13
478.8	3.11
479.15	3.1
479.501	3.07
479.852	3.05
480.203	3.05
480.554	3.06
480.905	3.07
481.255	3.06
481.606	3.06
481.957	3.07
482.307	3.07
482.658	3.07
483.009	3.07
483.359	3.08
483.709	3.08
484.06	3.07
484.41	3.08
484.761	3.08
485.111	3.09
485.461	3.1
485.811	3.1
486.162	3.11
486.512	3.12
486.862	3.13
487.212	3.14
487.562	3.15
487.912	3.16
488.262	3.17
488.612	3.18
488.961	3.19
489.311	3.2
489.661	3.22
490.011	3.23
490.36	3.25
490.71	3.27
491.06	3.29
491.409	3.31
491.759	3.33
492.108	3.34
492.458	3.36
492.807	3.37
493.157	3.41
493.506	3.43
493.855	3.46
494.204	3.49
494.554	3.52
494.903	3.54
495.252	3.57
495.601	3.61
495.95	3.65
496.299	3.67
496.648	3.7
496.997	3.74
497.346	3.8
497.695	3.84
498.043	3.88
498.392	3.9
498.741	3.97
499.09	4
499.438	4.05
499.787	4.1
500.135	4.16
500.484	4.2
500.832	4.25
501.181	4.31
501.529	4.35
501.878	4.41
502.226	4.46
502.574	4.51
502.923	4.58
503.271	4.63
503.619	4.72
503.967	4.8
504.315	4.89
504.663	4.94
505.011	5.03
505.359	5.1
505.707	5.2
506.055	5.28
506.403	5.36
506.751	5.45
507.098	5.53
507.446	5.63
507.794	5.72
508.141	5.82
508.489	5.92
508.837	6.01
509.184	6.11
509.531	6.22
509.879	6.33
510.226	6.43
510.574	6.52
510.921	6.61
511.268	6.7
511.616	6.78
511.963	6.91
512.31	7.02
512.657	7.15
513.004	7.26
513.351	7.39
513.698	7.5
514.045	7.62
514.392	7.77
514.739	7.89
515.086	8.05
515.432	8.18
515.779	8.31
516.126	8.46
516.473	8.6
516.819	8.73
517.166	8.88
517.512	9.02
517.859	9.18
518.205	9.31
518.552	9.44
518.898	9.59
519.245	9.72
519.591	9.86
519.937	9.97
520.283	10.14
520.629	10.32
520.976	10.51
521.322	10.69
521.668	10.89
522.014	11.08
522.36	11.27
522.706	11.49
523.052	11.73
523.398	11.98
523.743	12.23
524.089	12.49
524.435	12.72
524.781	12.96
525.126	13.19
525.472	13.4
525.817	13.61
526.163	13.79
526.509	13.97
526.854	14.13
527.199	14.31
527.545	14.44
527.89	14.58
528.235	14.74
528.581	14.91
528.926	15.08
529.271	15.26
529.616	15.43
529.961	15.62
530.306	15.79
530.651	15.97
530.996	16.17
531.341	16.38
531.686	16.6
532.031	16.81
532.376	17.02
532.721	17.26
533.065	17.5
533.41	17.77
533.755	18.03
534.099	18.32
534.444	18.59
534.788	18.87
535.133	19.15
535.477	19.42
535.822	19.72
536.166	20.01
536.51	20.34
536.855	20.68
537.199	21.01
537.543	21.39
537.887	21.75
538.231	22.11
538.576	22.48
538.92	22.85
539.264	23.22
539.608	23.54
539.951	23.87
540.295	24.17
540.639	24.45
540.983	24.73
541.327	24.98
541.671	25.26
542.014	25.54
542.358	25.79
542.701	26.06
543.045	26.31
543.389	26.59
543.732	26.85
544.075	27.14
544.419	27.42
544.762	27.7
545.105	27.99
545.449	28.32
545.792	28.64
546.135	28.96
546.478	29.3
546.821	29.68
547.165	30.05
547.508	30.43
547.851	30.76
548.194	31.17
548.536	31.57
548.879	31.95
549.222	32.33
549.565	32.77
549.908	33.15
550.25	33.56
550.593	33.99
550.936	34.37
551.278	34.73
551.621	35.12
551.963	35.52
552.306	35.94
552.648	36.3
552.991	36.7
553.333	37.06
553.675	37.4
554.017	37.73
554.36	38
554.702	38.36
555.044	38.76
555.386	39.07
555.728	39.46
556.07	39.86
556.412	40.13
556.754	40.44
557.096	40.83
557.438	41.14
557.78	41.47
558.121	41.81
558.463	42.2
558.805	42.55
559.147	42.85
559.488	43.19
559.83	43.54
560.171	43.83
560.513	44.15
560.854	44.5
561.196	44.76
561.537	45.05
561.878	45.28
562.22	45.54
562.561	45.77
562.902	46.02
563.243	46.28
563.584	46.59
563.925	46.83
564.266	47.01
564.607	47.26
564.948	47.48
565.289	47.75
565.63	48.02
565.971	48.22
566.312	48.51
566.653	48.73
566.993	48.95
567.334	49.15
567.675	49.34
568.015	49.5
568.356	49.74
568.696	49.97
569.037	50.16
569.377	50.38
569.718	50.64
570.058	50.87
570.398	51.06
570.739	51.24
571.079	51.49
571.419	51.66
571.759	51.82
572.099	51.97
572.439	52.12
572.779	52.27
573.119	52.43
573.459	52.55
573.799	52.68
574.139	52.83
574.479	52.98
574.819	53.17
575.158	53.32
575.498	53.45
575.838	53.63
576.177	53.82
576.517	53.95
576.856	54.07
577.196	54.18
577.535	54.31
577.875	54.53
578.214	54.63
578.553	54.88
578.893	55.05
579.232	55.3
579.571	55.46
579.91	55.6
580.25	55.73
580.589	55.89
580.928	56.07
581.267	56.15
581.606	56.31
581.945	56.46
582.283	56.62
582.622	56.76
582.961	56.91
583.3	57.07
583.639	57.25
583.977	57.35
584.316	57.42
584.654	57.53
584.993	57.62
585.332	57.81
585.67	57.91
586.008	58.04
586.347	58.1
586.685	58.2
587.024	58.28
587.362	58.41
587.7	58.5
588.038	58.59
588.376	58.79
588.715	58.87
589.053	58.96
589.391	59.07
589.729	59.19
590.067	59.25
590.404	59.24
590.742	59.29
591.08	59.44
591.418	59.6
591.756	59.7
592.093	59.75
592.431	59.81
592.769	59.85
593.106	59.94
593.444	59.96
593.781	60.03
594.119	60.14
594.456	60.23
594.793	60.4
595.131	60.5
595.468	60.51
595.805	60.58
596.143	60.59
596.48	60.64
596.817	60.73
597.154	60.82
597.491	61
597.828	61.11
598.165	61.13
598.502	61.17
598.839	61.14
599.176	61.24
599.512	61.26
599.849	61.36
600.186	61.42
600.523	61.54
600.859	61.66
601.196	61.75
601.532	61.85
601.869	61.84
602.205	61.86
602.542	62.03
602.878	62.12
603.215	62.25
603.551	62.32
603.887	62.34
604.223	62.34
604.56	62.27
604.896	62.34
605.232	62.37
605.568	62.42
605.904	62.53
606.24	62.62
606.576	62.73
606.912	62.75
607.248	62.8
607.583	62.85
607.919	62.83
608.255	62.9
608.591	62.91
608.926	62.89
609.262	63.06
609.597	63.02
609.933	63.05
610.268	63.05
610.604	63.18
610.939	63.21
611.275	63.29
611.61	63.46
611.945	63.48
612.281	63.54
612.616	63.64
612.951	63.76
613.286	63.82
613.621	63.8
613.956	63.86
614.291	63.93
614.626	64.01
614.961	64.08
615.296	63.98
615.631	64
615.966	64.2
616.3	64.05
616.635	64.07
616.97	64.15
617.304	64.17
617.639	64.12
617.973	64.07
618.308	64.1
618.642	64.11
618.977	64.17
619.311	64.14
619.646	64.13
619.98	64.06
620.314	63.95
620.648	63.98
620.983	64.09
621.317	64.12
621.651	64.18
621.985	64.27
622.319	64.33
622.653	64.37
622.987	64.33
623.321	64.41
623.655	64.5
623.988	64.62
624.322	64.63
624.656	64.66
624.99	64.79
625.323	64.89
625.657	64.95
625.99	64.91
626.324	65.03
626.657	65.04
626.991	65.14
627.324	65.27
627.658	65.33
627.991	65.37
628.324	65.44
628.657	65.33
628.991	65.34
629.324	65.51
629.657	65.54
629.99	65.63
630.323	65.66
630.656	65.65
630.989	65.53
631.322	65.62
631.655	65.67
631.987	65.71
632.32	65.7
632.653	65.68
632.986	65.68
633.318	65.6
633.651	65.66
633.984	65.6
634.316	65.58
634.649	65.71
634.981	65.71
635.313	65.63
635.646	65.74
635.978	65.69
636.31	65.58
636.643	65.59
636.975	65.55
637.307	65.63
637.639	65.7
637.971	65.72
638.303	65.68
638.635	65.66
638.967	65.62
639.299	65.65
639.631	65.62
639.963	65.64
640.295	65.79
640.626	65.81
640.958	65.83
641.29	65.91
641.621	65.89
641.953	65.76
642.285	65.8
642.616	65.79
642.948	65.88
643.279	65.89
643.61	66.05
643.942	66.01
644.273	66
644.604	65.89
644.936	66.05
645.267	65.98
645.598	65.99
645.929	66.19
646.26	66.14
646.591	66.24
646.922	66.25
647.253	66.26
647.584	66.2
647.915	66.36
648.245	66.27
648.576	66.22
648.907	66.27
649.238	66.35
649.568	66.38
649.899	66.4
650.229	66.51
650.56	66.45
650.89	66.5
651.221	66.43
651.551	66.54
651.882	66.3
652.212	66.39
652.542	66.44
652.872	66.39
653.203	66.46
653.533	66.47
653.863	66.4
654.193	66.47
654.523	66.55
654.853	66.38
655.183	66.37
655.513	66.5
655.843	66.58
656.172	66.52
656.502	66.66
656.832	66.67
657.162	66.67
657.491	66.63
657.821	66.78
658.15	66.95
658.48	66.93
658.809	67.03
659.139	67.16
659.468	67.19
659.798	67.16
660.127	67.05
660.456	67.11
660.785	67.3
661.115	67.29
661.444	67.38
661.773	67.51
662.102	67.56
662.431	67.45
662.76	67.4
663.089	67.43
663.418	67.37
663.747	67.48
664.076	67.58
664.404	67.65
664.733	67.45
665.062	67.49
665.39	67.47
665.719	67.48
666.048	67.43
666.376	67.38
666.705	67.4
