Data from BA28472_Reflection_00008.txt Node
Date: Mon Nov 18 15:24:31 EST 2019
User: vgr7
Spectrometer: USB2G7710
Scans to average: 3
Trigger mode: 4
Integration Time (sec): 2.000000E-2
Electric dark correction enabled: true
Boxcar width: 10
XAxis mode: Wavelengths
Number of Pixels in Spectrum: 2048
>>>>>Begin Spectral Data<<<<<
177.721	37.38
178.105	0.96
178.488	4.51
178.871	32.89
179.254	56.97
179.636	-128.97
180.019	-4445.45
180.402	107.69
180.785	-46.79
181.168	-104.08
181.55	123.95
181.933	69.73
182.316	64.51
182.698	43.51
183.081	40.5
183.463	-22.43
183.846	-9.5
184.228	-9.82
184.611	7.44
184.993	-6.36
185.376	-26.25
185.758	-25.05
186.14	-42.06
186.522	-51.69
186.904	-67.71
187.287	-39.66
187.669	-119.56
188.051	-152.3
188.433	-158.86
188.815	-198.83
189.197	-168.25
189.579	-159.24
189.961	-187.24
190.342	-187.68
190.724	-606.86
191.106	-514.9
191.488	-684.12
191.869	527.29
192.251	220.48
192.633	126.28
193.014	263.77
193.396	268.11
193.777	259.84
194.159	385.71
194.54	281.03
194.922	152.81
195.303	147.44
195.684	54.63
196.065	102.75
196.447	83.53
196.828	42.21
197.209	62.83
197.59	54.48
197.971	61.26
198.352	47.43
198.733	57.25
199.114	45.97
199.495	11.47
199.876	16.04
200.257	39.34
200.638	52.12
201.018	23.53
201.399	40.97
201.78	34.43
202.16	14.78
202.541	9.92
202.922	-19.28
203.302	-28.68
203.683	-16.12
204.063	-34.1
204.444	-45.05
204.824	-27.63
205.204	-27.96
205.585	-19.34
205.965	-4.62
206.345	-25.92
206.725	-61.33
207.106	-102.04
207.486	-56.17
207.866	-44.45
208.246	21.99
208.626	28.23
209.006	75.36
209.386	41.97
209.766	96.76
210.145	151.45
210.525	154.05
210.905	288.68
211.285	594.55
211.664	480.46
212.044	-938.3
212.424	1847.9
212.803	279.97
213.183	309.34
213.562	1331.53
213.942	-3406.85
214.321	793.67
214.701	738.81
215.08	801.37
215.459	527.29
215.838	406.65
216.218	176.48
216.597	154.14
216.976	142.53
217.355	121.8
217.734	78.55
218.113	140.53
218.492	144.98
218.871	148.43
219.25	115.04
219.629	114.32
220.008	96.18
220.387	101.89
220.766	104.35
221.144	101.82
221.523	59.24
221.902	29.88
222.28	-0.14
222.659	34.46
223.037	37.31
223.416	5.44
223.794	-3.68
224.173	10.69
224.551	-1.09
224.929	0.55
225.308	12.3
225.686	14.07
226.064	-0.44
226.442	0.36
226.821	2.62
227.199	4.73
227.577	9.47
227.955	10.56
228.333	9.59
228.711	11.56
229.089	13.06
229.467	12.31
229.845	13.75
230.222	13.83
230.6	9.29
230.978	9.19
231.356	13.18
231.733	13.38
232.111	12.83
232.488	13.49
232.866	12.7
233.243	9.95
233.621	10.19
233.998	11.72
234.376	9.34
234.753	4.84
235.13	5.03
235.508	3.32
235.885	2.34
236.262	1.84
236.639	0.72
237.016	0.4
237.393	0.45
237.77	1.61
238.147	2.78
238.524	3.79
238.901	4.16
239.278	3.88
239.655	4.6
240.032	4.51
240.409	4.35
240.785	4.28
241.162	5.06
241.539	5
241.915	5.06
242.292	5.26
242.668	6.14
243.045	5.88
243.421	5.94
243.798	5.87
244.174	5.72
244.551	5.86
244.927	5.76
245.303	5.84
245.679	5.91
246.056	5.91
246.432	5.71
246.808	5.45
247.184	5.27
247.56	5.11
247.936	5.01
248.312	4.77
248.688	4.93
249.064	4.64
249.44	4.57
249.815	4.56
250.191	4.72
250.567	4.71
250.943	4.62
251.318	4.77
251.694	4.98
252.069	5.16
252.445	5.11
252.82	5.17
253.196	5.08
253.571	4.94
253.947	4.86
254.322	4.92
254.697	4.98
255.073	5.08
255.448	4.82
255.823	4.86
256.198	5.11
256.573	5.1
256.948	5.17
257.323	5.21
257.698	5.21
258.073	5.11
258.448	4.97
258.823	5.04
259.198	4.78
259.573	4.62
259.948	4.62
260.322	4.44
260.697	4.21
261.072	4.19
261.446	4.1
261.821	3.86
262.195	3.97
262.57	3.96
262.944	3.97
263.319	3.89
263.693	4.03
264.067	3.97
264.442	3.99
264.816	3.79
265.19	3.81
265.564	3.74
265.938	3.63
266.313	3.38
266.687	3.47
267.061	3.61
267.435	3.61
267.809	3.34
268.183	3.47
268.556	3.59
268.93	3.5
269.304	3.72
269.678	4.05
270.051	3.95
270.425	4.02
270.799	4.07
271.172	4.24
271.546	4.09
271.919	3.96
272.293	3.76
272.666	4.02
273.04	3.98
273.413	4.05
273.787	4.13
274.16	4.38
274.533	4.33
274.906	4.28
275.279	4.27
275.653	4.44
276.026	4.47
276.399	4.44
276.772	4.49
277.145	4.34
277.518	4.31
277.891	4.26
278.263	4.16
278.636	4.05
279.009	3.96
279.382	4.03
279.755	4.1
280.127	4.29
280.5	4.33
280.872	4.46
281.245	4.22
281.617	4.28
281.99	4.23
282.362	4.32
282.735	4.19
283.107	4.14
283.479	4.02
283.852	4
284.224	4.05
284.596	4.12
284.968	4.26
285.34	4.3
285.713	4.32
286.085	4.43
286.457	4.53
286.829	4.54
287.201	4.48
287.572	4.31
287.944	4.18
288.316	3.99
288.688	3.75
289.06	3.91
289.431	3.86
289.803	3.88
290.175	3.86
290.546	4.01
290.918	4.06
291.289	4.19
291.661	4.29
292.032	4.38
292.403	4.39
292.775	4.37
293.146	4.28
293.517	4.38
293.889	4.4
294.26	4.42
294.631	4.62
295.002	4.71
295.373	4.99
295.744	5.07
296.115	5.25
296.486	5.37
296.857	5.41
297.228	5.46
297.599	5.36
297.97	5.35
298.34	5.45
298.711	5.39
299.082	5.37
299.452	5.3
299.823	5.36
300.194	5.4
300.564	5.39
300.935	5.41
301.305	5.49
301.676	5.61
302.046	5.56
302.416	5.57
302.787	5.6
303.157	5.58
303.527	5.62
303.897	5.59
304.267	5.78
304.637	5.68
305.008	5.79
305.378	6.04
305.748	6.15
306.117	6.08
306.487	6.24
306.857	6.38
307.227	6.54
307.597	6.44
307.967	6.41
308.336	6.41
308.706	6.57
309.076	6.57
309.445	6.42
309.815	6.55
310.184	6.54
310.554	6.44
310.923	6.4
311.293	6.56
311.662	6.68
312.031	6.67
312.401	6.86
312.77	6.92
313.139	6.89
313.508	6.87
313.877	6.98
314.246	7.15
314.616	7.08
314.985	7.14
315.353	7.22
315.722	7.45
316.091	7.53
316.46	7.42
316.829	7.48
317.198	7.79
317.567	7.76
317.935	7.68
318.304	7.95
318.672	8.15
319.041	8.32
319.41	8.27
319.778	8.2
320.147	8.05
320.515	8.15
320.883	8.08
321.252	8.06
321.62	8.14
321.988	8.08
322.357	8.35
322.725	8.35
323.093	8.47
323.461	8.47
323.829	8.54
324.197	8.6
324.565	8.67
324.933	8.56
325.301	8.58
325.669	8.66
326.037	8.66
326.405	8.72
326.772	8.64
327.14	8.76
327.508	8.79
327.875	8.94
328.243	8.93
328.61	9.04
328.978	9.12
329.346	9.07
329.713	9.03
330.08	8.92
330.448	8.84
330.815	8.72
331.182	8.73
331.55	8.81
331.917	8.85
332.284	8.97
332.651	8.95
333.018	9.18
333.385	9.2
333.752	9.24
334.119	9.26
334.486	9.1
334.853	8.99
335.22	9.03
335.587	9.07
335.954	8.93
336.32	8.94
336.687	9.07
337.054	9.14
337.42	9.19
337.787	9.21
338.153	9.19
338.52	9.3
338.886	9.34
339.253	9.22
339.619	9.21
339.986	9.14
340.352	9.19
340.718	9.14
341.084	9.2
341.451	9.17
341.817	9.17
342.183	9.33
342.549	9.38
342.915	9.49
343.281	9.49
343.647	9.55
344.013	9.59
344.379	9.54
344.745	9.52
345.11	9.63
345.476	9.63
345.842	9.68
346.208	9.67
346.573	9.67
346.939	9.84
347.304	9.92
347.67	9.83
348.035	9.79
348.401	9.77
348.766	9.92
349.132	9.93
349.497	9.91
349.862	9.9
350.228	9.89
350.593	9.82
350.958	9.84
351.323	9.88
351.688	9.91
352.053	9.87
352.418	9.91
352.783	9.82
353.148	9.8
353.513	9.89
353.878	9.91
354.243	9.89
354.608	9.88
354.972	9.87
355.337	9.87
355.702	9.89
356.066	9.97
356.431	9.8
356.795	9.82
357.16	9.69
357.524	9.63
357.889	9.63
358.253	9.67
358.618	9.66
358.982	9.56
359.346	9.45
359.71	9.36
360.075	9.4
360.439	9.36
360.803	9.32
361.167	9.21
361.531	9.24
361.895	9.18
362.259	9.1
362.623	9.07
362.987	9.01
363.351	8.99
363.714	8.88
364.078	8.88
364.442	8.74
364.806	8.78
365.169	8.75
365.533	8.73
365.896	8.6
366.26	8.5
366.623	8.51
366.987	8.59
367.35	8.63
367.714	8.52
368.077	8.45
368.44	8.42
368.803	8.48
369.167	8.29
369.53	8.25
369.893	8.2
370.256	8.11
370.619	8.14
370.982	8.11
371.345	8.1
371.708	8.03
372.071	8.09
372.434	7.98
372.797	7.95
373.159	7.89
373.522	7.81
373.885	7.81
374.247	7.77
374.61	7.69
374.973	7.63
375.335	7.59
375.698	7.57
376.06	7.57
376.423	7.44
376.785	7.47
377.147	7.47
377.51	7.39
377.872	7.41
378.234	7.37
378.596	7.31
378.958	7.22
379.321	7.15
379.683	7.12
380.045	7.07
380.407	7
380.769	6.93
381.13	6.91
381.492	6.84
381.854	6.79
382.216	6.73
382.578	6.66
382.939	6.59
383.301	6.49
383.663	6.43
384.024	6.39
384.386	6.37
384.747	6.31
385.109	6.29
385.47	6.2
385.832	6.19
386.193	6.18
386.554	6.12
386.916	6.1
387.277	6.03
387.638	6.05
387.999	6.02
388.36	6.02
388.721	6.02
389.082	6.02
389.443	5.97
389.804	5.9
390.165	5.86
390.526	5.83
390.887	5.82
391.248	5.78
391.609	5.77
391.969	5.72
392.33	5.72
392.691	5.72
393.051	5.66
393.412	5.64
393.772	5.55
394.133	5.55
394.493	5.53
394.854	5.51
395.214	5.43
395.574	5.41
395.935	5.33
396.295	5.3
396.655	5.22
397.015	5.18
397.376	5.15
397.736	5.14
398.096	5.1
398.456	5.09
398.816	5.06
399.176	4.99
399.535	4.97
399.895	4.91
400.255	4.87
400.615	4.89
400.975	4.83
401.334	4.8
401.694	4.75
402.054	4.72
402.413	4.69
402.773	4.68
403.132	4.67
403.492	4.66
403.851	4.61
404.211	4.58
404.57	4.55
404.929	4.55
405.288	4.52
405.648	4.5
406.007	4.51
406.366	4.47
406.725	4.48
407.084	4.46
407.443	4.44
407.802	4.42
408.161	4.36
408.52	4.32
408.879	4.33
409.238	4.35
409.596	4.33
409.955	4.29
410.314	4.29
410.673	4.26
411.031	4.23
411.39	4.22
411.748	4.21
412.107	4.22
412.465	4.19
412.824	4.17
413.182	4.17
413.54	4.14
413.899	4.14
414.257	4.12
414.615	4.08
414.974	4.07
415.332	4.04
415.69	4.07
416.048	4.04
416.406	4.02
416.764	3.98
417.122	3.98
417.48	3.96
417.838	3.96
418.195	3.95
418.553	3.93
418.911	3.9
419.269	3.9
419.626	3.87
419.984	3.87
420.342	3.85
420.699	3.82
421.057	3.8
421.414	3.77
421.772	3.74
422.129	3.74
422.486	3.72
422.844	3.71
423.201	3.67
423.558	3.67
423.915	3.66
424.273	3.65
424.63	3.62
424.987	3.62
425.344	3.59
425.701	3.57
426.058	3.57
426.415	3.58
426.772	3.57
427.128	3.57
427.485	3.55
427.842	3.54
428.199	3.54
428.555	3.54
428.912	3.55
429.269	3.56
429.625	3.54
429.982	3.54
430.338	3.53
430.695	3.54
431.051	3.52
431.407	3.51
431.764	3.52
432.12	3.51
432.476	3.5
432.832	3.47
433.189	3.48
433.545	3.48
433.901	3.46
434.257	3.47
434.613	3.46
434.969	3.47
435.325	3.47
435.681	3.48
436.036	3.48
436.392	3.48
436.748	3.46
437.104	3.48
437.459	3.48
437.815	3.46
438.171	3.46
438.526	3.46
438.882	3.47
439.237	3.46
439.593	3.47
439.948	3.48
440.304	3.49
440.659	3.48
441.014	3.49
441.369	3.47
441.725	3.45
442.08	3.46
442.435	3.44
442.79	3.43
443.145	3.43
443.5	3.41
443.855	3.41
444.21	3.42
444.565	3.41
444.92	3.4
445.275	3.4
445.629	3.39
445.984	3.4
446.339	3.39
446.693	3.38
447.048	3.35
447.403	3.34
447.757	3.33
448.112	3.32
448.466	3.31
448.82	3.3
449.175	3.31
449.529	3.3
449.883	3.3
450.238	3.28
450.592	3.28
450.946	3.28
451.3	3.26
451.654	3.26
452.008	3.26
452.362	3.25
452.716	3.25
453.07	3.24
453.424	3.22
453.778	3.21
454.132	3.21
454.486	3.23
454.839	3.24
455.193	3.22
455.547	3.22
455.9	3.24
456.254	3.26
456.607	3.26
456.961	3.25
457.314	3.25
457.668	3.25
458.021	3.25
458.375	3.24
458.728	3.25
459.081	3.24
459.434	3.24
459.787	3.24
460.141	3.24
460.494	3.26
460.847	3.26
461.2	3.26
461.553	3.26
461.906	3.27
462.259	3.28
462.611	3.29
462.964	3.3
463.317	3.28
463.67	3.29
464.022	3.29
464.375	3.31
464.728	3.32
465.08	3.34
465.433	3.36
465.785	3.36
466.138	3.37
466.49	3.39
466.843	3.4
467.195	3.42
467.547	3.43
467.899	3.43
468.252	3.44
468.604	3.46
468.956	3.46
469.308	3.45
469.66	3.45
470.012	3.45
470.364	3.48
470.716	3.48
471.068	3.49
471.42	3.49
471.772	3.49
472.123	3.49
472.475	3.48
472.827	3.5
473.178	3.54
473.53	3.53
473.882	3.53
474.233	3.52
474.585	3.52
474.936	3.53
475.288	3.54
475.639	3.55
475.99	3.57
476.342	3.57
476.693	3.57
477.044	3.58
477.395	3.58
477.746	3.56
478.097	3.57
478.448	3.57
478.8	3.54
479.15	3.53
479.501	3.52
479.852	3.52
480.203	3.51
480.554	3.49
480.905	3.49
481.255	3.47
481.606	3.49
481.957	3.49
482.307	3.49
482.658	3.48
483.009	3.46
483.359	3.46
483.709	3.46
484.06	3.46
484.41	3.46
484.761	3.46
485.111	3.46
485.461	3.46
485.811	3.45
486.162	3.45
486.512	3.46
486.862	3.46
487.212	3.45
487.562	3.44
487.912	3.44
488.262	3.44
488.612	3.43
488.961	3.42
489.311	3.41
489.661	3.43
490.011	3.43
490.36	3.42
490.71	3.42
491.06	3.41
491.409	3.42
491.759	3.41
492.108	3.43
492.458	3.43
492.807	3.42
493.157	3.43
493.506	3.45
493.855	3.45
494.204	3.45
494.554	3.47
494.903	3.48
495.252	3.51
495.601	3.54
495.95	3.58
496.299	3.61
496.648	3.62
496.997	3.64
497.346	3.67
497.695	3.71
498.043	3.73
498.392	3.77
498.741	3.81
499.09	3.84
499.438	3.86
499.787	3.9
500.135	3.95
500.484	4
500.832	4.04
501.181	4.08
501.529	4.14
501.878	4.21
502.226	4.26
502.574	4.3
502.923	4.36
503.271	4.43
503.619	4.49
503.967	4.55
504.315	4.61
504.663	4.69
505.011	4.76
505.359	4.84
505.707	4.92
506.055	4.99
506.403	5.08
506.751	5.16
507.098	5.24
507.446	5.33
507.794	5.41
508.141	5.51
508.489	5.61
508.837	5.69
509.184	5.77
509.531	5.86
509.879	5.97
510.226	6.07
510.574	6.15
510.921	6.22
511.268	6.32
511.616	6.41
511.963	6.49
512.31	6.6
512.657	6.71
513.004	6.82
513.351	6.93
513.698	7.03
514.045	7.14
514.392	7.27
514.739	7.4
515.086	7.54
515.432	7.66
515.779	7.78
516.126	7.9
516.473	8.01
516.819	8.14
517.166	8.25
517.512	8.36
517.859	8.47
518.205	8.56
518.552	8.7
518.898	8.82
519.245	8.92
519.591	9.04
519.937	9.12
520.283	9.24
520.629	9.39
520.976	9.52
521.322	9.67
521.668	9.79
522.014	9.93
522.36	10.07
522.706	10.24
523.052	10.42
523.398	10.62
523.743	10.83
524.089	10.99
524.435	11.16
524.781	11.35
525.126	11.53
525.472	11.69
525.817	11.81
526.163	11.93
526.509	12.09
526.854	12.2
527.199	12.35
527.545	12.47
527.89	12.57
528.235	12.7
528.581	12.84
528.926	12.97
529.271	13.11
529.616	13.24
529.961	13.38
530.306	13.51
530.651	13.65
530.996	13.81
531.341	13.99
531.686	14.15
532.031	14.33
532.376	14.5
532.721	14.69
533.065	14.89
533.41	15.09
533.755	15.3
534.099	15.51
534.444	15.73
534.788	15.96
535.133	16.18
535.477	16.4
535.822	16.59
536.166	16.84
536.51	17.09
536.855	17.38
537.199	17.66
537.543	17.99
537.887	18.29
538.231	18.62
538.576	18.92
538.92	19.21
539.264	19.53
539.608	19.82
539.951	20.09
540.295	20.35
540.639	20.63
540.983	20.88
541.327	21.12
541.671	21.33
542.014	21.58
542.358	21.82
542.701	22.08
543.045	22.34
543.389	22.58
543.732	22.83
544.075	23.1
544.419	23.36
544.762	23.62
545.105	23.92
545.449	24.17
545.792	24.46
546.135	24.8
546.478	25.09
546.821	25.4
547.165	25.75
547.508	26.08
547.851	26.42
548.194	26.79
548.536	27.14
548.879	27.53
549.222	27.87
549.565	28.21
549.908	28.52
550.25	28.91
550.593	29.27
550.936	29.62
551.278	29.98
551.621	30.35
551.963	30.73
552.306	31.07
552.648	31.44
552.991	31.75
553.333	32.06
553.675	32.45
554.017	32.81
554.36	33.13
554.702	33.5
555.044	33.81
555.386	34.09
555.728	34.36
556.07	34.7
556.412	35.02
556.754	35.36
557.096	35.68
557.438	35.94
557.78	36.27
558.121	36.66
558.463	36.96
558.805	37.26
559.147	37.53
559.488	37.81
559.83	38.09
560.171	38.46
560.513	38.77
560.854	38.98
561.196	39.26
561.537	39.56
561.878	39.81
562.22	40.1
562.561	40.38
562.902	40.73
563.243	40.96
563.584	41.22
563.925	41.48
564.266	41.75
564.607	42.06
564.948	42.28
565.289	42.49
565.63	42.74
565.971	42.95
566.312	43.16
566.653	43.36
566.993	43.59
567.334	43.82
567.675	44.04
568.015	44.27
568.356	44.45
568.696	44.72
569.037	44.94
569.377	45.13
569.718	45.3
570.058	45.42
570.398	45.64
570.739	45.82
571.079	46.04
571.419	46.22
571.759	46.44
572.099	46.62
572.439	46.79
572.779	46.93
573.119	47.1
573.459	47.24
573.799	47.46
574.139	47.64
574.479	47.75
574.819	47.88
575.158	48.04
575.498	48.29
575.838	48.44
576.177	48.61
576.517	48.84
576.856	49.06
577.196	49.27
577.535	49.43
577.875	49.61
578.214	49.74
578.553	49.88
578.893	49.98
579.232	50.17
579.571	50.32
579.91	50.46
580.25	50.62
580.589	50.83
580.928	50.94
581.267	50.99
581.606	51.11
581.945	51.3
582.283	51.46
582.622	51.53
582.961	51.68
583.3	51.76
583.639	51.81
583.977	51.91
584.316	52.12
584.654	52.19
584.993	52.31
585.332	52.49
585.67	52.67
586.008	52.79
586.347	52.87
586.685	53.03
587.024	53.19
587.362	53.32
587.7	53.42
588.038	53.52
588.376	53.68
588.715	53.75
589.053	53.77
589.391	53.82
589.729	53.86
590.067	53.92
590.404	54.05
590.742	54.12
591.08	54.17
591.418	54.27
591.756	54.46
592.093	54.64
592.431	54.67
592.769	54.72
593.106	54.74
593.444	54.86
593.781	54.91
594.119	55.04
594.456	55.14
594.793	55.23
595.131	55.26
595.468	55.29
595.805	55.41
596.143	55.54
596.48	55.64
596.817	55.73
597.154	55.79
597.491	55.85
597.828	55.93
598.165	56.03
598.502	56.06
598.839	56.12
599.176	56.1
599.512	56.14
599.849	56.2
600.186	56.33
600.523	56.45
600.859	56.52
601.196	56.51
601.532	56.57
601.869	56.6
602.205	56.72
602.542	56.82
602.878	56.84
603.215	56.87
603.551	56.88
603.887	56.89
604.223	56.88
604.56	56.9
604.896	56.91
605.232	56.98
605.568	57.05
605.904	57.08
606.24	57.22
606.576	57.37
606.912	57.43
607.248	57.4
607.583	57.38
607.919	57.4
608.255	57.47
608.591	57.56
608.926	57.61
609.262	57.66
609.597	57.7
609.933	57.8
610.268	57.9
610.604	57.98
610.939	58.09
611.275	58.22
611.61	58.24
611.945	58.35
612.281	58.37
612.616	58.41
612.951	58.52
613.286	58.5
613.621	58.44
613.956	58.56
614.291	58.72
614.626	58.79
614.961	58.89
615.296	58.98
615.631	59
615.966	59.15
616.3	59.21
616.635	59.3
616.97	59.39
617.304	59.44
617.639	59.6
617.973	59.65
618.308	59.72
618.642	59.78
618.977	59.81
619.311	59.84
619.646	59.82
619.98	59.8
620.314	59.81
620.648	59.83
620.983	59.82
621.317	59.87
621.651	59.93
621.985	59.93
622.319	59.85
622.653	59.87
622.987	59.84
623.321	59.8
623.655	59.88
623.988	59.83
624.322	59.85
624.656	59.82
624.99	59.88
625.323	59.86
625.657	59.97
625.99	60
626.324	60.08
626.657	60.19
626.991	60.2
627.324	60.11
627.658	60.22
627.991	60.39
628.324	60.42
628.657	60.45
628.991	60.44
629.324	60.5
629.657	60.43
629.99	60.42
630.323	60.51
630.656	60.55
630.989	60.61
631.322	60.63
631.655	60.54
631.987	60.57
632.32	60.54
632.653	60.47
632.986	60.46
633.318	60.45
633.651	60.26
633.984	60.27
634.316	60.37
634.649	60.32
634.981	60.15
635.313	60.14
635.646	60.13
635.978	60.21
636.31	60.12
636.643	60.18
636.975	60.21
637.307	60.21
637.639	60.14
637.971	60.14
638.303	60.12
638.635	60.27
638.967	60.27
639.299	60.38
639.631	60.47
639.963	60.54
640.295	60.5
640.626	60.67
640.958	60.68
641.29	60.65
641.621	60.7
641.953	60.69
642.285	60.72
642.616	60.83
642.948	60.73
643.279	60.9
643.61	60.87
643.942	60.95
644.273	61.02
644.604	61.06
644.936	61.09
645.267	61.17
645.598	61.16
645.929	61.13
646.26	61.03
646.591	60.98
646.922	61.02
647.253	61.14
647.584	61.12
647.915	61.13
648.245	61.16
648.576	61.23
648.907	61.27
649.238	61.21
649.568	61.17
649.899	61.29
650.229	61.4
650.56	61.51
650.89	61.46
651.221	61.44
651.551	61.46
651.882	61.56
652.212	61.52
652.542	61.52
652.872	61.52
653.203	61.59
653.533	61.67
653.863	61.57
654.193	61.58
654.523	61.75
654.853	61.81
655.183	61.85
655.513	61.9
655.843	62.04
656.172	62.13
656.502	62.08
656.832	62.12
657.162	62.04
657.491	62
657.821	62.11
658.15	62.08
658.48	62.11
658.809	61.96
659.139	61.99
659.468	62.06
659.798	62.14
660.127	62.17
660.456	62.22
660.785	62.34
661.115	62.33
661.444	62.25
661.773	62.29
662.102	62.42
662.431	62.36
662.76	62.4
663.089	62.35
663.418	62.46
663.747	62.5
664.076	62.45
664.404	62.53
664.733	62.41
665.062	62.43
665.39	62.33
665.719	62.48
666.048	62.57
666.376	62.55
666.705	62.45
667.033	62.49
667.362	62.43
