Data from BA28305_Reflection_00011.txt Node
Date: Mon Nov 18 15:57:09 EST 2019
User: vgr7
Spectrometer: USB2G7710
Scans to average: 3
Trigger mode: 4
Integration Time (sec): 2.000000E-2
Electric dark correction enabled: true
Boxcar width: 10
XAxis mode: Wavelengths
Number of Pixels in Spectrum: 2048
>>>>>Begin Spectral Data<<<<<
177.721	169.51
178.105	-285.96
178.488	-410.9
178.871	135.09
179.254	34.84
179.636	-72.62
180.019	38.34
180.402	52.17
180.785	75.25
181.168	106.29
181.55	20.82
181.933	87.38
182.316	78.07
182.698	56.37
183.081	63.04
183.463	45.88
183.846	35.91
184.228	16.94
184.611	8.29
184.993	-25.65
185.376	-53.2
185.758	-64.17
186.14	-18.26
186.522	-36.32
186.904	-134.51
187.287	-55.5
187.669	-82.59
188.051	-32.82
188.433	-34.12
188.815	-236.57
189.197	-462.09
189.579	52.14
189.961	63.72
190.342	47.86
190.724	27.21
191.106	31.36
191.488	-29.89
191.869	-38.63
192.251	-46.81
192.633	-52
193.014	-71.51
193.396	-137.09
193.777	-204.89
194.159	-199.64
194.54	-261.34
194.922	-440.47
195.303	-442.82
195.684	-350.64
196.065	-266.8
196.447	-175.93
196.828	-173.79
197.209	-137.82
197.59	-195.05
197.971	-134.39
198.352	-73.95
198.733	-90.73
199.114	-98.32
199.495	-45.48
199.876	-46.47
200.257	-43.42
200.638	-29.71
201.018	-63.72
201.399	-40.09
201.78	-15.6
202.16	-30.42
202.541	-56.41
202.922	-151.72
203.302	-152.25
203.683	-101.69
204.063	-152.5
204.444	-150.24
204.824	-141.91
205.204	-310.67
205.585	-406.46
205.965	-218.7
206.345	-1298.37
206.725	355.07
207.106	135.37
207.486	73.37
207.866	87.4
208.246	63.5
208.626	88.7
209.006	67.82
209.386	66.14
209.766	241.28
210.145	-134.61
210.525	14.32
210.905	32.03
211.285	26.55
211.664	15.09
212.044	3.84
212.424	-18.03
212.803	-69.56
213.183	-41.25
213.562	-22.21
213.942	-22.55
214.321	-1.48
214.701	3.32
215.08	13.26
215.459	12.47
215.838	6.89
216.218	-1.55
216.597	-2.35
216.976	-8.54
217.355	-4.07
217.734	18.74
218.113	36.04
218.492	3.96
218.871	-0.52
219.25	-10.98
219.629	-10.66
220.008	-3.84
220.387	10.43
220.766	32.14
221.144	25.69
221.523	26.39
221.902	30.76
222.28	-34.37
222.659	-41.9
223.037	-55.78
223.416	-357.3
223.794	-173.94
224.173	-129.65
224.551	-76.44
224.929	-59.13
225.308	-40.03
225.686	-38.77
226.064	-31.3
226.442	-25.8
226.821	-21.21
227.199	-15.11
227.577	-11.14
227.955	-7.87
228.333	-10.51
228.711	-7.21
229.089	-3.37
229.467	-6
229.845	-4.23
230.222	-2.63
230.6	-6.2
230.978	-4.31
231.356	0.65
231.733	1.85
232.111	3.85
232.488	3.65
232.866	2.69
233.243	1.08
233.621	0.37
233.998	3.31
234.376	1.88
234.753	4.53
235.13	4.65
235.508	4.62
235.885	4.2
236.262	2.32
236.639	0.93
237.016	1.16
237.393	3.61
237.77	4.73
238.147	4.83
238.524	5.28
238.901	5.91
239.278	4.97
239.655	5.4
240.032	5.01
240.409	4.88
240.785	5.36
241.162	5.93
241.539	5.77
241.915	4.77
242.292	4.7
242.668	4.09
243.045	4.36
243.421	4.68
243.798	4.62
244.174	4.95
244.551	4.9
244.927	4.83
245.303	4.77
245.679	4.73
246.056	4.63
246.432	4.79
246.808	4.72
247.184	4.57
247.56	4.35
247.936	4.51
248.312	4.58
248.688	4.65
249.064	4.38
249.44	4.57
249.815	4.65
250.191	4.82
250.567	4.93
250.943	4.5
251.318	4.32
251.694	4.24
252.069	4.22
252.445	4.24
252.82	4.27
253.196	4.21
253.571	4.28
253.947	4.42
254.322	4.5
254.697	4.32
255.073	4.28
255.448	4.09
255.823	4
256.198	3.87
256.573	3.96
256.948	4.3
257.323	4.61
257.698	4.59
258.073	4.44
258.448	4.29
258.823	4.43
259.198	4.41
259.573	4.37
259.948	4.22
260.322	4.19
260.697	4.07
261.072	4.01
261.446	3.92
261.821	3.91
262.195	3.93
262.57	4.06
262.944	4.19
263.319	4.27
263.693	4.33
264.067	4.41
264.442	4.4
264.816	4.1
265.19	3.8
265.564	3.93
265.938	4
266.313	4.05
266.687	4.22
267.061	4.36
267.435	4.54
267.809	4.46
268.183	4.68
268.556	4.73
268.93	4.76
269.304	4.66
269.678	4.66
270.051	4.63
270.425	4.48
270.799	4.47
271.172	4.51
271.546	4.34
271.919	4.32
272.293	4.26
272.666	4.47
273.04	4.5
273.413	4.53
273.787	4.52
274.16	4.37
274.533	4.2
274.906	4.06
275.279	3.94
275.653	4.28
276.026	4.26
276.399	4.4
276.772	4.55
277.145	4.62
277.518	4.53
277.891	4.62
278.263	4.61
278.636	4.38
279.009	4.47
279.382	4.56
279.755	4.49
280.127	4.61
280.5	4.75
280.872	4.66
281.245	4.42
281.617	4.45
281.99	4.63
282.362	4.66
282.735	4.53
283.107	4.57
283.479	4.54
283.852	4.48
284.224	4.37
284.596	4.16
284.968	4.11
285.34	4.2
285.713	4.1
286.085	4.18
286.457	4.36
286.829	4.38
287.201	4.44
287.572	4.51
287.944	4.45
288.316	4.31
288.688	4.42
289.06	4.46
289.431	4.47
289.803	4.55
290.175	4.57
290.546	4.86
290.918	4.79
291.289	4.75
291.661	4.77
292.032	4.85
292.403	5.06
292.775	5.16
293.146	5.05
293.517	5.06
293.889	5.06
294.26	5.16
294.631	5.16
295.002	5.08
295.373	4.96
295.744	5.01
296.115	5.05
296.486	4.98
296.857	5.1
297.228	5.16
297.599	5.14
297.97	5.28
298.34	5.15
298.711	5.23
299.082	5.28
299.452	5.46
299.823	5.66
300.194	5.56
300.564	5.5
300.935	5.75
301.305	5.82
301.676	5.94
302.046	5.97
302.416	6.14
302.787	6.16
303.157	6.34
303.527	6.4
303.897	6.47
304.267	6.61
304.637	6.58
305.008	6.63
305.378	6.77
305.748	6.69
306.117	6.81
306.487	6.87
306.857	6.86
307.227	6.77
307.597	6.8
307.967	6.92
308.336	7.18
308.706	7.22
309.076	7.31
309.445	7.21
309.815	7.21
310.184	7.11
310.554	7.29
310.923	7.33
311.293	7.35
311.662	7.41
312.031	7.45
312.401	7.48
312.77	7.63
313.139	7.58
313.508	7.71
313.877	7.81
314.246	7.97
314.616	8.04
314.985	8.12
315.353	7.97
315.722	8.1
316.091	7.88
316.46	7.73
316.829	7.8
317.198	7.98
317.567	8.09
317.935	8.14
318.304	8.06
318.672	7.97
319.041	8.01
319.41	8
319.778	7.98
320.147	8.06
320.515	7.95
320.883	7.97
321.252	8.13
321.62	8.17
321.988	8.14
322.357	8.33
322.725	8.44
323.093	8.64
323.461	8.69
323.829	8.88
324.197	9.04
324.565	9.05
324.933	9.09
325.301	9.09
325.669	9.24
326.037	9.36
326.405	9.49
326.772	9.69
327.14	9.76
327.508	9.84
327.875	9.86
328.243	9.98
328.61	10.15
328.978	10.2
329.346	10.35
329.713	10.41
330.08	10.33
330.448	10.38
330.815	10.32
331.182	10.37
331.55	10.39
331.917	10.56
332.284	10.6
332.651	10.6
333.018	10.7
333.385	10.71
333.752	10.77
334.119	10.95
334.486	10.85
334.853	10.87
335.22	10.94
335.587	11.04
335.954	10.99
336.32	10.97
336.687	10.83
337.054	10.77
337.42	10.84
337.787	10.87
338.153	10.82
338.52	10.84
338.886	10.76
339.253	10.74
339.619	10.78
339.986	10.8
340.352	10.85
340.718	10.86
341.084	10.86
341.451	10.83
341.817	10.83
342.183	10.94
342.549	10.97
342.915	11.1
343.281	11.11
343.647	11.16
344.013	11.19
344.379	11.21
344.745	11.24
345.11	11.17
345.476	11.19
345.842	11.24
346.208	11.32
346.573	11.41
346.939	11.53
347.304	11.4
347.67	11.37
348.035	11.34
348.401	11.36
348.766	11.36
349.132	11.45
349.497	11.42
349.862	11.42
350.228	11.43
350.593	11.33
350.958	11.38
351.323	11.43
351.688	11.49
352.053	11.54
352.418	11.48
352.783	11.51
353.148	11.47
353.513	11.45
353.878	11.44
354.243	11.41
354.608	11.34
354.972	11.38
355.337	11.42
355.702	11.4
356.066	11.37
356.431	11.38
356.795	11.36
357.16	11.28
357.524	11.22
357.889	11.27
358.253	11.25
358.618	11.22
358.982	11.25
359.346	11.13
359.71	11.13
360.075	11.15
360.439	11.15
360.803	11.2
361.167	11.14
361.531	11.16
361.895	11.16
362.259	11.19
362.623	11.19
362.987	11.18
363.351	11.17
363.714	11.16
364.078	11.16
364.442	11.09
364.806	11.1
365.169	11.07
365.533	10.95
365.896	10.94
366.26	10.85
366.623	10.73
366.987	10.76
367.35	10.67
367.714	10.64
368.077	10.61
368.44	10.48
368.803	10.46
369.167	10.26
369.53	10.13
369.893	10.1
370.256	9.98
370.619	9.83
370.982	9.79
371.345	9.66
371.708	9.57
372.071	9.51
372.434	9.42
372.797	9.39
373.159	9.34
373.522	9.28
373.885	9.24
374.247	9.13
374.61	9.04
374.973	8.99
375.335	8.87
375.698	8.79
376.06	8.79
376.423	8.73
376.785	8.75
377.147	8.75
377.51	8.62
377.872	8.61
378.234	8.52
378.596	8.47
378.958	8.43
379.321	8.33
379.683	8.27
380.045	8.21
380.407	8.11
380.769	8.04
381.13	7.93
381.492	7.87
381.854	7.87
382.216	7.85
382.578	7.85
382.939	7.77
383.301	7.7
383.663	7.61
384.024	7.56
384.386	7.5
384.747	7.47
385.109	7.45
385.47	7.39
385.832	7.36
386.193	7.29
386.554	7.26
386.916	7.26
387.277	7.18
387.638	7.2
387.999	7.1
388.36	7.07
388.721	7.06
389.082	7.02
389.443	6.91
389.804	6.78
390.165	6.68
390.526	6.67
390.887	6.6
391.248	6.56
391.609	6.5
391.969	6.47
392.33	6.38
392.691	6.32
393.051	6.27
393.412	6.25
393.772	6.2
394.133	6.17
394.493	6.1
394.854	6.07
395.214	5.98
395.574	5.99
395.935	5.93
396.295	5.92
396.655	5.84
397.015	5.83
397.376	5.8
397.736	5.74
398.096	5.69
398.456	5.66
398.816	5.62
399.176	5.59
399.535	5.56
399.895	5.54
400.255	5.51
400.615	5.46
400.975	5.44
401.334	5.39
401.694	5.34
402.054	5.31
402.413	5.32
402.773	5.3
403.132	5.25
403.492	5.19
403.851	5.12
404.211	5.09
404.57	5.05
404.929	5.07
405.288	5.02
405.648	4.99
406.007	4.95
406.366	4.9
406.725	4.92
407.084	4.91
407.443	4.87
407.802	4.85
408.161	4.84
408.52	4.77
408.879	4.77
409.238	4.76
409.596	4.75
409.955	4.69
410.314	4.67
410.673	4.64
411.031	4.63
411.39	4.63
411.748	4.63
412.107	4.64
412.465	4.61
412.824	4.61
413.182	4.57
413.54	4.55
413.899	4.54
414.257	4.52
414.615	4.44
414.974	4.43
415.332	4.4
415.69	4.34
416.048	4.3
416.406	4.29
416.764	4.24
417.122	4.22
417.48	4.18
417.838	4.15
418.195	4.13
418.553	4.11
418.911	4.09
419.269	4.06
419.626	4.04
419.984	4.02
420.342	4.02
420.699	4
421.057	4.01
421.414	3.98
421.772	3.96
422.129	3.97
422.486	3.95
422.844	3.92
423.201	3.93
423.558	3.93
423.915	3.9
424.273	3.88
424.63	3.87
424.987	3.87
425.344	3.87
425.701	3.83
426.058	3.81
426.415	3.8
426.772	3.79
427.128	3.76
427.485	3.75
427.842	3.74
428.199	3.73
428.555	3.72
428.912	3.73
429.269	3.71
429.625	3.68
429.982	3.67
430.338	3.7
430.695	3.68
431.051	3.67
431.407	3.67
431.764	3.68
432.12	3.66
432.476	3.66
432.832	3.64
433.189	3.67
433.545	3.67
433.901	3.66
434.257	3.66
434.613	3.67
434.969	3.66
435.325	3.65
435.681	3.65
436.036	3.65
436.392	3.64
436.748	3.62
437.104	3.6
437.459	3.59
437.815	3.58
438.171	3.58
438.526	3.59
438.882	3.6
439.237	3.6
439.593	3.6
439.948	3.58
440.304	3.59
440.659	3.59
441.014	3.59
441.369	3.58
441.725	3.57
442.08	3.58
442.435	3.56
442.79	3.56
443.145	3.55
443.5	3.52
443.855	3.52
444.21	3.52
444.565	3.53
444.92	3.53
445.275	3.51
445.629	3.51
445.984	3.49
446.339	3.46
446.693	3.44
447.048	3.43
447.403	3.41
447.757	3.4
448.112	3.39
448.466	3.38
448.82	3.38
449.175	3.38
449.529	3.35
449.883	3.33
450.238	3.31
450.592	3.31
450.946	3.31
451.3	3.3
451.654	3.3
452.008	3.29
452.362	3.28
452.716	3.27
453.07	3.27
453.424	3.27
453.778	3.29
454.132	3.31
454.486	3.3
454.839	3.3
455.193	3.3
455.547	3.3
455.9	3.31
456.254	3.3
456.607	3.3
456.961	3.32
457.314	3.33
457.668	3.34
458.021	3.33
458.375	3.33
458.728	3.34
459.081	3.34
459.434	3.34
459.787	3.36
460.141	3.35
460.494	3.36
460.847	3.37
461.2	3.37
461.553	3.36
461.906	3.39
462.259	3.39
462.611	3.41
462.964	3.43
463.317	3.44
463.67	3.45
464.022	3.45
464.375	3.45
464.728	3.48
465.08	3.5
465.433	3.53
465.785	3.54
466.138	3.54
466.49	3.53
466.843	3.55
467.195	3.55
467.547	3.58
467.899	3.57
468.252	3.57
468.604	3.57
468.956	3.58
469.308	3.59
469.66	3.57
470.012	3.59
470.364	3.6
470.716	3.59
471.068	3.58
471.42	3.57
471.772	3.58
472.123	3.59
472.475	3.59
472.827	3.58
473.178	3.62
473.53	3.62
473.882	3.62
474.233	3.6
474.585	3.59
474.936	3.59
475.288	3.62
475.639	3.62
475.99	3.63
476.342	3.64
476.693	3.64
477.044	3.66
477.395	3.65
477.746	3.64
478.097	3.65
478.448	3.65
478.8	3.65
479.15	3.6
479.501	3.6
479.852	3.58
480.203	3.59
480.554	3.57
480.905	3.57
481.255	3.57
481.606	3.58
481.957	3.59
482.307	3.59
482.658	3.58
483.009	3.59
483.359	3.59
483.709	3.59
484.06	3.59
484.41	3.6
484.761	3.61
485.111	3.61
485.461	3.61
485.811	3.61
486.162	3.64
486.512	3.67
486.862	3.67
487.212	3.69
487.562	3.69
487.912	3.7
488.262	3.71
488.612	3.72
488.961	3.72
489.311	3.74
489.661	3.77
490.011	3.79
490.36	3.79
490.71	3.81
491.06	3.82
491.409	3.85
491.759	3.86
492.108	3.88
492.458	3.91
492.807	3.93
493.157	3.96
493.506	3.96
493.855	3.99
494.204	4.03
494.554	4.08
494.903	4.11
495.252	4.14
495.601	4.17
495.95	4.23
496.299	4.28
496.648	4.32
496.997	4.36
497.346	4.41
497.695	4.47
498.043	4.52
498.392	4.56
498.741	4.58
499.09	4.63
499.438	4.68
499.787	4.72
500.135	4.79
500.484	4.83
500.832	4.91
501.181	4.95
501.529	4.99
501.878	5.05
502.226	5.1
502.574	5.17
502.923	5.24
503.271	5.29
503.619	5.37
503.967	5.44
504.315	5.49
504.663	5.56
505.011	5.64
505.359	5.7
505.707	5.8
506.055	5.92
506.403	6.02
506.751	6.11
507.098	6.21
507.446	6.32
507.794	6.43
508.141	6.51
508.489	6.64
508.837	6.74
509.184	6.84
509.531	6.98
509.879	7.1
510.226	7.23
510.574	7.33
510.921	7.44
511.268	7.55
511.616	7.69
511.963	7.82
512.31	7.93
512.657	8.05
513.004	8.19
513.351	8.3
513.698	8.45
514.045	8.6
514.392	8.75
514.739	8.89
515.086	9.06
515.432	9.2
515.779	9.35
516.126	9.51
516.473	9.68
516.819	9.81
517.166	9.96
517.512	10.11
517.859	10.27
518.205	10.42
518.552	10.6
518.898	10.75
519.245	10.91
519.591	11.05
519.937	11.23
520.283	11.41
520.629	11.6
520.976	11.83
521.322	12.03
521.668	12.26
522.014	12.46
522.36	12.71
522.706	12.96
523.052	13.21
523.398	13.51
523.743	13.78
524.089	14.07
524.435	14.33
524.781	14.6
525.126	14.85
525.472	15.08
525.817	15.28
526.163	15.49
526.509	15.7
526.854	15.88
527.199	16.04
527.545	16.2
527.89	16.37
528.235	16.53
528.581	16.7
528.926	16.88
529.271	17.08
529.616	17.25
529.961	17.44
530.306	17.65
530.651	17.84
530.996	18.06
531.341	18.29
531.686	18.52
532.031	18.73
532.376	18.97
532.721	19.21
533.065	19.47
533.41	19.72
533.755	19.98
534.099	20.24
534.444	20.52
534.788	20.79
535.133	21.06
535.477	21.36
535.822	21.64
536.166	21.93
536.51	22.24
536.855	22.57
537.199	22.92
537.543	23.25
537.887	23.58
538.231	23.93
538.576	24.29
538.92	24.64
539.264	25.01
539.608	25.35
539.951	25.65
540.295	25.93
540.639	26.22
540.983	26.51
541.327	26.79
541.671	27.07
542.014	27.36
542.358	27.63
542.701	27.87
543.045	28.13
543.389	28.4
543.732	28.65
544.075	28.94
544.419	29.23
544.762	29.53
545.105	29.86
545.449	30.17
545.792	30.49
546.135	30.85
546.478	31.22
546.821	31.58
547.165	31.95
547.508	32.38
547.851	32.72
548.194	33.08
548.536	33.49
548.879	33.89
549.222	34.27
549.565	34.66
549.908	35.05
550.25	35.49
550.593	35.9
550.936	36.33
551.278	36.74
551.621	37.09
551.963	37.5
552.306	37.92
552.648	38.31
552.991	38.69
553.333	39.03
553.675	39.34
554.017	39.67
554.36	40
554.702	40.28
555.044	40.61
555.386	40.97
555.728	41.32
556.07	41.74
556.412	42.03
556.754	42.37
557.096	42.73
557.438	43.01
557.78	43.3
558.121	43.63
558.463	43.97
558.805	44.34
559.147	44.61
559.488	44.93
559.83	45.24
560.171	45.46
560.513	45.78
560.854	46.11
561.196	46.43
561.537	46.76
561.878	47.06
562.22	47.37
562.561	47.62
562.902	47.86
563.243	48.1
563.584	48.37
563.925	48.61
564.266	48.85
564.607	49.17
564.948	49.42
565.289	49.75
565.63	50.01
565.971	50.2
566.312	50.46
566.653	50.64
566.993	50.87
567.334	51.12
567.675	51.36
568.015	51.52
568.356	51.75
568.696	51.97
569.037	52.13
569.377	52.33
569.718	52.59
570.058	52.83
570.398	53.04
570.739	53.32
571.079	53.54
571.419	53.73
571.759	53.88
572.099	54.11
572.439	54.19
572.779	54.36
573.119	54.56
573.459	54.77
573.799	54.97
574.139	55.1
574.479	55.34
574.819	55.48
575.158	55.65
575.498	55.8
575.838	56
576.177	56.21
576.517	56.38
576.856	56.51
577.196	56.69
577.535	56.88
577.875	57.02
578.214	57.23
578.553	57.46
578.893	57.63
579.232	57.84
579.571	58.1
579.91	58.25
580.25	58.35
580.589	58.46
580.928	58.61
581.267	58.82
581.606	58.91
581.945	59.11
582.283	59.36
582.622	59.46
582.961	59.52
583.3	59.7
583.639	59.91
583.977	60.08
584.316	60.22
584.654	60.29
584.993	60.35
585.332	60.47
585.67	60.56
586.008	60.73
586.347	60.75
586.685	60.85
587.024	61.02
587.362	61.24
587.7	61.34
588.038	61.43
588.376	61.55
588.715	61.69
589.053	61.75
589.391	61.85
589.729	61.98
590.067	62.08
590.404	62.08
590.742	62.15
591.08	62.25
591.418	62.44
591.756	62.61
592.093	62.77
592.431	62.8
592.769	62.88
593.106	62.94
593.444	63.07
593.781	63.11
594.119	63.15
594.456	63.19
594.793	63.37
595.131	63.49
595.468	63.48
595.805	63.55
596.143	63.61
596.48	63.64
596.817	63.73
597.154	63.82
597.491	63.97
597.828	64.05
598.165	64.08
598.502	63.99
598.839	64
599.176	64.1
599.512	64.2
599.849	64.24
600.186	64.33
600.523	64.41
600.859	64.47
601.196	64.58
601.532	64.67
601.869	64.66
602.205	64.67
602.542	64.86
602.878	64.88
603.215	64.97
603.551	65
603.887	65.03
604.223	65.08
604.56	65.08
604.896	65.11
605.232	65.15
605.568	65.26
605.904	65.31
606.24	65.32
606.576	65.44
606.912	65.5
607.248	65.51
607.583	65.55
607.919	65.63
608.255	65.67
608.591	65.72
608.926	65.72
609.262	65.77
609.597	65.78
609.933	65.86
610.268	65.92
610.604	66
610.939	66.01
611.275	66.12
611.61	66.2
611.945	66.24
612.281	66.36
612.616	66.46
612.951	66.56
613.286	66.72
613.621	66.67
613.956	66.79
614.291	66.99
614.626	67.04
614.961	67.02
615.296	67.01
615.631	67.09
615.966	67.28
616.3	67.26
616.635	67.29
616.97	67.3
617.304	67.31
617.639	67.34
617.973	67.41
618.308	67.37
618.642	67.37
618.977	67.45
619.311	67.34
619.646	67.32
619.98	67.23
620.314	67.15
620.648	67.21
620.983	67.19
621.317	67.13
621.651	67.23
621.985	67.34
622.319	67.43
622.653	67.42
622.987	67.4
623.321	67.57
623.655	67.57
623.988	67.75
624.322	67.78
624.656	67.85
624.99	67.84
625.323	67.88
625.657	68.01
625.99	68.03
626.324	68.16
626.657	68.19
626.991	68.21
627.324	68.26
627.658	68.32
627.991	68.36
628.324	68.46
628.657	68.48
628.991	68.41
629.324	68.42
629.657	68.49
629.99	68.51
630.323	68.42
630.656	68.43
630.989	68.41
631.322	68.45
631.655	68.48
631.987	68.53
632.32	68.56
632.653	68.44
632.986	68.5
633.318	68.45
633.651	68.5
633.984	68.53
634.316	68.53
634.649	68.57
634.981	68.69
635.313	68.6
635.646	68.6
635.978	68.66
636.31	68.66
636.643	68.62
636.975	68.62
637.307	68.74
637.639	68.84
637.971	68.77
638.303	68.72
638.635	68.77
638.967	68.9
639.299	68.97
639.631	69
639.963	68.97
640.295	69.14
640.626	69.09
640.958	69.16
641.29	69.21
641.621	69.17
641.953	68.97
642.285	69.02
642.616	69.05
642.948	69.14
643.279	69.19
643.61	69.18
643.942	69.33
644.273	69.22
644.604	69.16
644.936	69.18
645.267	69.25
645.598	69.18
645.929	69.14
646.26	69.07
646.591	69.25
646.922	69.35
647.253	69.28
647.584	69.35
647.915	69.46
648.245	69.5
648.576	69.56
648.907	69.63
649.238	69.58
649.568	69.57
649.899	69.51
650.229	69.57
650.56	69.54
650.89	69.51
651.221	69.63
651.551	69.69
651.882	69.63
652.212	69.71
652.542	69.63
652.872	69.71
653.203	69.78
653.533	69.72
653.863	69.66
654.193	69.7
654.523	69.65
654.853	69.49
655.183	69.46
655.513	69.43
655.843	69.49
656.172	69.56
656.502	69.69
656.832	69.78
657.162	69.79
657.491	69.85
657.821	69.88
658.15	69.93
658.48	69.81
658.809	69.97
659.139	69.97
659.468	70.09
659.798	70.03
660.127	69.89
660.456	69.9
660.785	69.95
661.115	69.96
661.444	70.11
661.773	70.24
662.102	70.22
662.431	70.26
662.76	70.27
663.089	70.24
663.418	70.12
663.747	70.16
664.076	70.17
664.404	70.24
664.733	70.15
