Data from BA28305_Reflection_00001.txt Node
Date: Mon Nov 18 15:56:44 EST 2019
User: vgr7
Spectrometer: USB2G7710
Scans to average: 3
Trigger mode: 4
Integration Time (sec): 2.000000E-2
Electric dark correction enabled: true
Boxcar width: 10
XAxis mode: Wavelengths
Number of Pixels in Spectrum: 2048
>>>>>Begin Spectral Data<<<<<
177.721	-187.52
178.105	-619.3
178.488	-529.28
178.871	91.23
179.254	105.01
179.636	-4.17
180.019	80.73
180.402	165.22
180.785	-33.02
181.168	13.52
181.55	-20.05
181.933	58.19
182.316	75.7
182.698	47.86
183.081	34.5
183.463	55.99
183.846	78.86
184.228	74.72
184.611	96.47
184.993	115.21
185.376	161.28
185.758	251.32
186.14	261.14
186.522	337.16
186.904	465.16
187.287	245.57
187.669	473.67
188.051	278.8
188.433	435.31
188.815	747.25
189.197	1760.13
189.579	-549.57
189.961	-775.28
190.342	-585.29
190.724	-258.97
191.106	-169.92
191.488	-211.37
191.869	-128.1
192.251	-88.03
192.633	-66.14
193.014	-53.57
193.396	-109.9
193.777	-120.28
194.159	-112.19
194.54	-145.71
194.922	-231.96
195.303	-210.94
195.684	-236.82
196.065	-248.06
196.447	-204.13
196.828	-160.1
197.209	-136.56
197.59	-204.39
197.971	-145.61
198.352	-41.98
198.733	-57.44
199.114	-31.03
199.495	-14.78
199.876	6.38
200.257	8.23
200.638	55.56
201.018	55.47
201.399	42.32
201.78	28.41
202.16	33.58
202.541	16.07
202.922	15.44
203.302	-41.57
203.683	-7.78
204.063	-63.2
204.444	0.67
204.824	63.43
205.204	206.67
205.585	156.85
205.965	145.53
206.345	34.96
206.725	123.19
207.106	85.85
207.486	72.42
207.866	97.48
208.246	123.62
208.626	208.15
209.006	518.39
209.386	305.29
209.766	753.42
210.145	-438.91
210.525	-359.77
210.905	-173.86
211.285	-137.92
211.664	-163.14
212.044	-123.84
212.424	-166.48
212.803	-217.01
213.183	-166.2
213.562	-140.03
213.942	-122.01
214.321	-101.35
214.701	-106.11
215.08	-92.85
215.459	-94.18
215.838	-104.94
216.218	-103.1
216.597	-82.77
216.976	-82.72
217.355	-69.11
217.734	-67.33
218.113	-67.54
218.492	-54.22
218.871	-69.68
219.25	-64.96
219.629	-45.12
220.008	-52.99
220.387	-34.05
220.766	-20.33
221.144	-48.61
221.523	-31.67
221.902	-127.5
222.28	-354.78
222.659	-103.48
223.037	-122.22
223.416	-318.73
223.794	-200.61
224.173	-138.22
224.551	-115.52
224.929	-64.26
225.308	-42.6
225.686	-25.81
226.064	-23.35
226.442	-27.17
226.821	-24.34
227.199	-19.6
227.577	-19.69
227.955	-17.67
228.333	-15.55
228.711	-14.73
229.089	-7.91
229.467	-12.15
229.845	-9.4
230.222	-7.73
230.6	-7.21
230.978	-5.55
231.356	-1.2
231.733	0.54
232.111	1.09
232.488	2.87
232.866	1.09
233.243	1.55
233.621	-1.34
233.998	0.83
234.376	1.38
234.753	2.11
235.13	2.84
235.508	2.52
235.885	2.88
236.262	0.4
236.639	0.35
237.016	0.61
237.393	2.98
237.77	2.79
238.147	2.96
238.524	3.25
238.901	3.9
239.278	4.66
239.655	4.58
240.032	5.25
240.409	4.16
240.785	4.24
241.162	4.46
241.539	5.18
241.915	4.27
242.292	4.18
242.668	4.42
243.045	4.17
243.421	4.35
243.798	4.03
244.174	4.27
244.551	4.39
244.927	4.23
245.303	4.15
245.679	4.28
246.056	4.23
246.432	4.09
246.808	4.07
247.184	3.57
247.56	3.61
247.936	3.32
248.312	3.49
248.688	3.67
249.064	3.59
249.44	3.53
249.815	3.69
250.191	3.83
250.567	3.65
250.943	3.67
251.318	3.53
251.694	3.62
252.069	3.47
252.445	3.54
252.82	3.52
253.196	3.26
253.571	3.32
253.947	3.09
254.322	3.22
254.697	3.07
255.073	3.27
255.448	3.1
255.823	3.06
256.198	3.03
256.573	2.89
256.948	3.11
257.323	3.21
257.698	3.06
258.073	2.8
258.448	2.85
258.823	2.8
259.198	2.84
259.573	2.86
259.948	2.95
260.322	2.88
260.697	2.98
261.072	3
261.446	2.85
261.821	2.95
262.195	3
262.57	2.91
262.944	2.72
263.319	2.75
263.693	2.78
264.067	2.91
264.442	2.88
264.816	2.69
265.19	2.46
265.564	2.55
265.938	2.65
266.313	2.59
266.687	2.8
267.061	2.63
267.435	2.75
267.809	2.8
268.183	2.9
268.556	2.73
268.93	2.87
269.304	3.02
269.678	3.05
270.051	2.92
270.425	3.01
270.799	3.18
271.172	3.24
271.546	3.25
271.919	3.05
272.293	3.05
272.666	2.9
273.04	3.14
273.413	3.28
273.787	3.31
274.16	3.33
274.533	3.22
274.906	3.27
275.279	3.15
275.653	3.13
276.026	2.91
276.399	2.88
276.772	2.91
277.145	2.8
277.518	2.82
277.891	2.84
278.263	2.71
278.636	2.71
279.009	2.55
279.382	2.73
279.755	2.72
280.127	2.9
280.5	3.07
280.872	3
281.245	2.92
281.617	2.89
281.99	3.08
282.362	3.07
282.735	2.88
283.107	2.88
283.479	2.97
283.852	3
284.224	3.09
284.596	3.01
284.968	3.05
285.34	3.11
285.713	3.14
286.085	3.26
286.457	3.37
286.829	3.59
287.201	3.65
287.572	3.77
287.944	3.61
288.316	3.57
288.688	3.64
289.06	3.68
289.431	3.73
289.803	3.79
290.175	3.91
290.546	4.18
290.918	4.19
291.289	4.21
291.661	4.3
292.032	4.28
292.403	4.3
292.775	4.38
293.146	4.27
293.517	4.2
293.889	4.22
294.26	4.15
294.631	3.92
295.002	3.8
295.373	3.83
295.744	4.01
296.115	4.06
296.486	3.93
296.857	3.92
297.228	3.99
297.599	3.75
297.97	3.75
298.34	3.61
298.711	3.7
299.082	3.64
299.452	3.69
299.823	3.73
300.194	3.8
300.564	3.69
300.935	3.74
301.305	3.77
301.676	3.75
302.046	3.69
302.416	3.93
302.787	3.96
303.157	3.77
303.527	3.62
303.897	3.63
304.267	3.73
304.637	3.78
305.008	3.61
305.378	3.8
305.748	3.83
306.117	3.94
306.487	3.87
306.857	3.94
307.227	3.9
307.597	3.89
307.967	3.86
308.336	3.92
308.706	3.85
309.076	4.01
309.445	3.96
309.815	4.09
310.184	3.92
310.554	3.92
310.923	3.99
311.293	4.14
311.662	4.18
312.031	4.09
312.401	4
312.77	4.09
313.139	4.02
313.508	3.91
313.877	3.74
314.246	3.75
314.616	3.63
314.985	3.6
315.353	3.45
315.722	3.53
316.091	3.51
316.46	3.54
316.829	3.48
317.198	3.61
317.567	3.48
317.935	3.5
318.304	3.32
318.672	3.38
319.041	3.28
319.41	3.27
319.778	3.37
320.147	3.4
320.515	3.32
320.883	3.3
321.252	3.39
321.62	3.51
321.988	3.38
322.357	3.45
322.725	3.36
323.093	3.45
323.461	3.28
323.829	3.43
324.197	3.54
324.565	3.43
324.933	3.26
325.301	3.29
325.669	3.33
326.037	3.4
326.405	3.38
326.772	3.34
327.14	3.24
327.508	3.23
327.875	3.15
328.243	3.18
328.61	3.17
328.978	3.21
329.346	3.23
329.713	3.29
330.08	3.3
330.448	3.38
330.815	3.33
331.182	3.38
331.55	3.31
331.917	3.23
332.284	3.3
332.651	3.31
333.018	3.26
333.385	3.29
333.752	3.35
334.119	3.38
334.486	3.28
334.853	3.33
335.22	3.3
335.587	3.36
335.954	3.37
336.32	3.39
336.687	3.31
337.054	3.39
337.42	3.33
337.787	3.28
338.153	3.17
338.52	3.33
338.886	3.28
339.253	3.18
339.619	3.14
339.986	3.09
340.352	3.21
340.718	3.26
341.084	3.1
341.451	3.13
341.817	3.16
342.183	3.29
342.549	3.3
342.915	3.31
343.281	3.31
343.647	3.25
344.013	3.26
344.379	3.21
344.745	3.07
345.11	3.12
345.476	3.28
345.842	3.31
346.208	3.23
346.573	3.24
346.939	3.31
347.304	3.38
347.67	3.35
348.035	3.26
348.401	3.25
348.766	3.39
349.132	3.35
349.497	3.31
349.862	3.33
350.228	3.25
350.593	3.21
350.958	3.18
351.323	3.24
351.688	3.19
352.053	3.22
352.418	3.37
352.783	3.36
353.148	3.25
353.513	3.35
353.878	3.44
354.243	3.56
354.608	3.53
354.972	3.44
355.337	3.53
355.702	3.64
356.066	3.67
356.431	3.56
356.795	3.61
357.16	3.6
357.524	3.49
357.889	3.56
358.253	3.56
358.618	3.59
358.982	3.55
359.346	3.53
359.71	3.52
360.075	3.45
360.439	3.51
360.803	3.54
361.167	3.47
361.531	3.45
361.895	3.4
362.259	3.37
362.623	3.43
362.987	3.42
363.351	3.36
363.714	3.3
364.078	3.31
364.442	3.27
364.806	3.25
365.169	3.3
365.533	3.28
365.896	3.28
366.26	3.3
366.623	3.24
366.987	3.25
367.35	3.29
367.714	3.33
368.077	3.3
368.44	3.23
368.803	3.25
369.167	3.17
369.53	3.14
369.893	3.21
370.256	3.18
370.619	3.16
370.982	3.15
371.345	3.13
371.708	3.15
372.071	3.12
372.434	3.09
372.797	3.05
373.159	3.02
373.522	3.01
373.885	3.03
374.247	3.1
374.61	3.09
374.973	3.04
375.335	3
375.698	3.04
376.06	3.07
376.423	3.09
376.785	3.12
377.147	3.14
377.51	3.16
377.872	3.14
378.234	3.13
378.596	3.17
378.958	3.22
379.321	3.22
379.683	3.24
380.045	3.29
380.407	3.35
380.769	3.4
381.13	3.41
381.492	3.39
381.854	3.41
382.216	3.47
382.578	3.55
382.939	3.52
383.301	3.5
383.663	3.49
384.024	3.48
384.386	3.54
384.747	3.58
385.109	3.55
385.47	3.57
385.832	3.59
386.193	3.63
386.554	3.62
386.916	3.63
387.277	3.65
387.638	3.66
387.999	3.63
388.36	3.65
388.721	3.66
389.082	3.63
389.443	3.61
389.804	3.59
390.165	3.55
390.526	3.61
390.887	3.61
391.248	3.63
391.609	3.65
391.969	3.61
392.33	3.61
392.691	3.6
393.051	3.58
393.412	3.57
393.772	3.55
394.133	3.52
394.493	3.51
394.854	3.53
395.214	3.49
395.574	3.49
395.935	3.46
396.295	3.48
396.655	3.52
397.015	3.5
397.376	3.51
397.736	3.54
398.096	3.57
398.456	3.55
398.816	3.54
399.176	3.52
399.535	3.53
399.895	3.51
400.255	3.51
400.615	3.49
400.975	3.49
401.334	3.48
401.694	3.53
402.054	3.52
402.413	3.47
402.773	3.51
403.132	3.49
403.492	3.49
403.851	3.49
404.211	3.47
404.57	3.44
404.929	3.44
405.288	3.41
405.648	3.36
406.007	3.36
406.366	3.38
406.725	3.4
407.084	3.37
407.443	3.35
407.802	3.36
408.161	3.4
408.52	3.38
408.879	3.37
409.238	3.37
409.596	3.38
409.955	3.39
410.314	3.36
410.673	3.37
411.031	3.38
411.39	3.35
411.748	3.36
412.107	3.4
412.465	3.4
412.824	3.41
413.182	3.4
413.54	3.43
413.899	3.45
414.257	3.46
414.615	3.47
414.974	3.49
415.332	3.48
415.69	3.47
416.048	3.48
416.406	3.47
416.764	3.44
417.122	3.46
417.48	3.47
417.838	3.5
418.195	3.52
418.553	3.52
418.911	3.53
419.269	3.54
419.626	3.54
419.984	3.55
420.342	3.54
420.699	3.54
421.057	3.54
421.414	3.52
421.772	3.52
422.129	3.51
422.486	3.51
422.844	3.51
423.201	3.53
423.558	3.54
423.915	3.55
424.273	3.56
424.63	3.56
424.987	3.57
425.344	3.56
425.701	3.55
426.058	3.56
426.415	3.55
426.772	3.55
427.128	3.55
427.485	3.54
427.842	3.55
428.199	3.56
428.555	3.57
428.912	3.57
429.269	3.58
429.625	3.57
429.982	3.57
430.338	3.57
430.695	3.59
431.051	3.58
431.407	3.57
431.764	3.56
432.12	3.56
432.476	3.54
432.832	3.52
433.189	3.52
433.545	3.52
433.901	3.53
434.257	3.5
434.613	3.51
434.969	3.5
435.325	3.5
435.681	3.5
436.036	3.51
436.392	3.51
436.748	3.49
437.104	3.49
437.459	3.49
437.815	3.5
438.171	3.49
438.526	3.51
438.882	3.52
439.237	3.51
439.593	3.51
439.948	3.51
440.304	3.52
440.659	3.51
441.014	3.52
441.369	3.5
441.725	3.51
442.08	3.51
442.435	3.53
442.79	3.54
443.145	3.53
443.5	3.49
443.855	3.51
444.21	3.51
444.565	3.53
444.92	3.53
445.275	3.52
445.629	3.51
445.984	3.49
446.339	3.48
446.693	3.48
447.048	3.49
447.403	3.49
447.757	3.49
448.112	3.51
448.466	3.49
448.82	3.51
449.175	3.5
449.529	3.51
449.883	3.5
450.238	3.5
450.592	3.52
450.946	3.52
451.3	3.5
451.654	3.51
452.008	3.53
452.362	3.52
452.716	3.53
453.07	3.54
453.424	3.55
453.778	3.57
454.132	3.57
454.486	3.55
454.839	3.55
455.193	3.54
455.547	3.53
455.9	3.54
456.254	3.55
456.607	3.57
456.961	3.56
457.314	3.54
457.668	3.54
458.021	3.53
458.375	3.54
458.728	3.55
459.081	3.56
459.434	3.54
459.787	3.54
460.141	3.54
460.494	3.54
460.847	3.56
461.2	3.56
461.553	3.57
461.906	3.6
462.259	3.62
462.611	3.64
462.964	3.66
463.317	3.66
463.67	3.65
464.022	3.66
464.375	3.64
464.728	3.65
465.08	3.63
465.433	3.65
465.785	3.63
466.138	3.65
466.49	3.64
466.843	3.65
467.195	3.66
467.547	3.67
467.899	3.65
468.252	3.64
468.604	3.62
468.956	3.63
469.308	3.62
469.66	3.6
470.012	3.59
470.364	3.58
470.716	3.57
471.068	3.56
471.42	3.54
471.772	3.57
472.123	3.6
472.475	3.61
472.827	3.62
473.178	3.64
473.53	3.64
473.882	3.62
474.233	3.63
474.585	3.59
474.936	3.59
475.288	3.57
475.639	3.58
475.99	3.59
476.342	3.59
476.693	3.59
477.044	3.6
477.395	3.59
477.746	3.6
478.097	3.6
478.448	3.63
478.8	3.63
479.15	3.64
479.501	3.64
479.852	3.65
480.203	3.65
480.554	3.66
480.905	3.68
481.255	3.69
481.606	3.69
481.957	3.7
482.307	3.69
482.658	3.7
483.009	3.7
483.359	3.7
483.709	3.71
484.06	3.71
484.41	3.73
484.761	3.73
485.111	3.74
485.461	3.74
485.811	3.73
486.162	3.74
486.512	3.73
486.862	3.73
487.212	3.73
487.562	3.74
487.912	3.74
488.262	3.73
488.612	3.74
488.961	3.74
489.311	3.74
489.661	3.74
490.011	3.74
490.36	3.75
490.71	3.74
491.06	3.73
491.409	3.73
491.759	3.7
492.108	3.69
492.458	3.68
492.807	3.68
493.157	3.69
493.506	3.68
493.855	3.68
494.204	3.67
494.554	3.66
494.903	3.65
495.252	3.65
495.601	3.66
495.95	3.63
496.299	3.63
496.648	3.64
496.997	3.65
497.346	3.66
497.695	3.66
498.043	3.65
498.392	3.66
498.741	3.66
499.09	3.68
499.438	3.71
499.787	3.71
500.135	3.74
500.484	3.75
500.832	3.74
501.181	3.75
501.529	3.76
501.878	3.78
502.226	3.79
502.574	3.79
502.923	3.77
503.271	3.77
503.619	3.76
503.967	3.76
504.315	3.77
504.663	3.75
505.011	3.74
505.359	3.76
505.707	3.77
506.055	3.76
506.403	3.77
506.751	3.77
507.098	3.77
507.446	3.75
507.794	3.75
508.141	3.76
508.489	3.78
508.837	3.78
509.184	3.77
509.531	3.75
509.879	3.78
510.226	3.82
510.574	3.86
510.921	3.88
511.268	3.87
511.616	3.88
511.963	3.88
512.31	3.88
512.657	3.88
513.004	3.9
513.351	3.93
513.698	3.93
514.045	3.92
514.392	3.95
514.739	3.95
515.086	3.97
515.432	3.97
515.779	3.96
516.126	3.97
516.473	3.98
516.819	4
517.166	3.99
517.512	3.98
517.859	3.97
518.205	3.97
518.552	3.98
518.898	3.97
519.245	3.99
519.591	4
519.937	3.98
520.283	3.96
520.629	3.97
520.976	3.98
521.322	3.99
521.668	3.97
522.014	3.98
522.36	3.97
522.706	3.98
523.052	4
523.398	4
523.743	3.99
524.089	4
524.435	3.99
524.781	3.99
525.126	3.98
525.472	4
525.817	4.01
526.163	4.02
526.509	4.03
526.854	4.04
527.199	4.05
527.545	4.06
527.89	4.05
528.235	4.05
528.581	4.05
528.926	4.05
529.271	4.06
529.616	4.05
529.961	4.05
530.306	4.03
530.651	4.03
530.996	4.05
531.341	4.04
531.686	4.05
532.031	4.06
532.376	4.06
532.721	4.05
533.065	4.05
533.41	4.05
533.755	4.04
534.099	4.04
534.444	4.03
534.788	4.03
535.133	4.03
535.477	4.05
535.822	4.03
536.166	4.04
536.51	4.04
536.855	4.05
537.199	4.05
537.543	4.07
537.887	4.07
538.231	4.06
538.576	4.05
538.92	4.04
539.264	4.03
539.608	4.04
539.951	4.03
540.295	4.02
540.639	4.02
540.983	4.03
541.327	4.03
541.671	4.03
542.014	4.03
542.358	4.03
542.701	4.02
543.045	4.02
543.389	4.02
543.732	4.02
544.075	4.01
544.419	4.02
544.762	4.02
545.105	4.04
545.449	4.04
545.792	4.06
546.135	4.07
546.478	4.09
546.821	4.08
547.165	4.11
547.508	4.12
547.851	4.11
548.194	4.09
548.536	4.08
548.879	4.09
549.222	4.11
549.565	4.12
549.908	4.12
550.25	4.13
550.593	4.13
550.936	4.15
551.278	4.17
551.621	4.17
551.963	4.21
552.306	4.18
552.648	4.18
552.991	4.19
553.333	4.18
553.675	4.17
554.017	4.18
554.36	4.16
554.702	4.15
555.044	4.15
555.386	4.18
555.728	4.21
556.07	4.22
556.412	4.19
556.754	4.16
557.096	4.16
557.438	4.16
557.78	4.17
558.121	4.16
558.463	4.16
558.805	4.16
559.147	4.12
559.488	4.14
559.83	4.16
560.171	4.15
560.513	4.17
560.854	4.18
561.196	4.16
561.537	4.16
561.878	4.17
562.22	4.16
562.561	4.15
562.902	4.17
563.243	4.17
563.584	4.21
563.925	4.25
564.266	4.24
564.607	4.26
564.948	4.27
565.289	4.28
565.63	4.29
565.971	4.3
566.312	4.32
566.653	4.3
566.993	4.28
567.334	4.27
567.675	4.26
568.015	4.26
568.356	4.27
568.696	4.3
569.037	4.31
569.377	4.33
569.718	4.34
570.058	4.32
570.398	4.28
570.739	4.26
571.079	4.24
571.419	4.25
571.759	4.25
572.099	4.24
572.439	4.24
572.779	4.23
573.119	4.23
573.459	4.24
573.799	4.24
574.139	4.25
574.479	4.24
574.819	4.25
575.158	4.26
575.498	4.25
575.838	4.23
576.177	4.23
576.517	4.21
576.856	4.24
577.196	4.25
577.535	4.27
577.875	4.27
578.214	4.26
578.553	4.27
578.893	4.25
579.232	4.24
579.571	4.24
579.91	4.2
580.25	4.18
580.589	4.18
580.928	4.19
581.267	4.21
581.606	4.21
581.945	4.2
582.283	4.14
582.622	4.13
582.961	4.12
583.3	4.12
583.639	4.14
583.977	4.1
584.316	4.11
584.654	4.16
584.993	4.19
585.332	4.22
585.67	4.22
586.008	4.27
586.347	4.26
586.685	4.24
587.024	4.27
587.362	4.26
587.7	4.3
588.038	4.3
588.376	4.32
588.715	4.33
589.053	4.36
589.391	4.43
589.729	4.46
590.067	4.43
590.404	4.42
590.742	4.42
591.08	4.41
591.418	4.41
591.756	4.38
592.093	4.39
592.431	4.39
592.769	4.38
593.106	4.34
593.444	4.36
593.781	4.35
594.119	4.35
594.456	4.34
594.793	4.32
595.131	4.32
595.468	4.3
595.805	4.31
596.143	4.31
596.48	4.28
596.817	4.27
597.154	4.28
597.491	4.3
597.828	4.31
598.165	4.31
598.502	4.32
598.839	4.33
599.176	4.3
599.512	4.27
599.849	4.3
600.186	4.34
600.523	4.35
600.859	4.39
601.196	4.44
601.532	4.46
601.869	4.47
602.205	4.47
602.542	4.5
602.878	4.51
603.215	4.47
603.551	4.5
603.887	4.51
604.223	4.52
604.56	4.55
604.896	4.54
605.232	4.57
605.568	4.57
605.904	4.59
606.24	4.64
606.576	4.63
606.912	4.64
607.248	4.62
607.583	4.64
607.919	4.61
608.255	4.6
608.591	4.57
608.926	4.57
609.262	4.61
609.597	4.59
609.933	4.58
610.268	4.62
610.604	4.63
610.939	4.62
611.275	4.63
611.61	4.63
611.945	4.63
612.281	4.61
612.616	4.63
612.951	4.62
613.286	4.6
613.621	4.63
613.956	4.58
614.291	4.58
614.626	4.54
614.961	4.57
615.296	4.55
615.631	4.59
615.966	4.61
616.3	4.55
616.635	4.54
616.97	4.56
617.304	4.56
617.639	4.54
617.973	4.55
618.308	4.57
618.642	4.53
618.977	4.54
619.311	4.53
619.646	4.53
619.98	4.5
620.314	4.48
620.648	4.48
620.983	4.54
621.317	4.55
621.651	4.6
621.985	4.6
622.319	4.65
622.653	4.64
622.987	4.61
623.321	4.63
623.655	4.65
623.988	4.66
624.322	4.66
624.656	4.69
624.99	4.68
625.323	4.7
625.657	4.73
625.99	4.72
626.324	4.74
626.657	4.73
626.991	4.74
627.324	4.72
627.658	4.74
627.991	4.77
628.324	4.79
628.657	4.78
628.991	4.72
629.324	4.74
629.657	4.77
629.99	4.77
630.323	4.72
630.656	4.71
630.989	4.73
631.322	4.72
631.655	4.71
631.987	4.69
632.32	4.66
632.653	4.61
632.986	4.64
633.318	4.6
633.651	4.63
633.984	4.65
634.316	4.67
634.649	4.71
634.981	4.65
635.313	4.65
635.646	4.63
635.978	4.67
636.31	4.58
636.643	4.57
636.975	4.58
637.307	4.62
637.639	4.67
637.971	4.63
638.303	4.61
638.635	4.6
638.967	4.6
639.299	4.63
639.631	4.63
639.963	4.58
640.295	4.64
640.626	4.63
640.958	4.63
641.29	4.63
641.621	4.61
641.953	4.65
642.285	4.68
642.616	4.72
642.948	4.69
643.279	4.7
643.61	4.68
643.942	4.75
644.273	4.75
644.604	4.77
644.936	4.73
645.267	4.8
645.598	4.83
645.929	4.9
646.26	4.92
646.591	4.95
646.922	4.95
647.253	4.93
647.584	4.93
647.915	4.87
648.245	4.87
648.576	4.86
648.907	4.8
649.238	4.68
649.568	4.62
649.899	4.62
650.229	4.68
650.56	4.72
650.89	4.66
651.221	4.68
651.551	4.66
651.882	4.7
652.212	4.7
652.542	4.65
652.872	4.58
653.203	4.55
653.533	4.65
653.863	4.64
654.193	4.61
654.523	4.58
654.853	4.63
655.183	4.68
655.513	4.68
655.843	4.7
656.172	4.79
656.502	4.81
656.832	4.83
657.162	4.86
657.491	4.8
657.821	4.79
658.15	4.82
658.48	4.82
658.809	4.82
659.139	4.8
659.468	4.84
659.798	4.9
660.127	4.88
660.456	4.85
660.785	4.89
661.115	4.93
661.444	4.98
661.773	4.97
662.102	4.92
662.431	4.91
662.76	4.92
663.089	4.89
663.418	4.89
663.747	4.92
664.076	4.91
664.404	4.94
664.733	5.07
665.062	5.03
665.39	5.04
665.719	5.08
666.048	5.04
666.376	5.06
666.705	5
667.033	5
667.362	4.94
667.69	4.98
668.018	5
668.347	4.96
668.675	4.98
669.003	5.06
669.331	5.13
669.659	5.14
669.987	5.12
670.315	5.14
670.643	5.12
670.971	5.17
671.299	5.18
671.627	5.1
671.955	5.1
672.283	5.01
672.61	4.97
672.938	5.04
673.266	5.03
673.593	5.18
673.921	5.22
674.249	5.22
674.576	5.17
674.904	5.07
675.231	5.06
675.558	5.04
675.886	4.99
676.213	4.89
676.54	4.93
676.867	4.9
