Data from BA28524_Reflection_00009.txt Node
Date: Tue Nov 19 11:49:50 EST 2019
User: vgr7
Spectrometer: USB2G7710
Scans to average: 3
Trigger mode: 4
Integration Time (sec): 2.000000E-2
Electric dark correction enabled: true
Boxcar width: 10
XAxis mode: Wavelengths
Number of Pixels in Spectrum: 2048
>>>>>Begin Spectral Data<<<<<
177.721	-378.87
178.105	544.44
178.488	-491.84
178.871	2900
179.254	-100
179.636	1528.57
180.019	33.88
180.402	58.82
180.785	68
181.168	271.05
181.55	85.92
181.933	65.03
182.316	5.21
182.698	-18.11
183.081	-15.83
183.463	-45.04
183.846	-46.5
184.228	-146.58
184.611	-141.76
184.993	-588.89
185.376	-459.32
185.758	-900
186.14	-2500
186.522	-4233.33
186.904	2500
187.287	118.87
187.669	252.38
188.051	63.19
188.433	130.08
188.815	90.34
189.197	133.06
189.579	149.5
189.961	111.7
190.342	52.79
190.724	-22.17
191.106	-15.73
191.488	-17.37
191.869	34.16
192.251	11.95
192.633	4.52
193.014	11.88
193.396	10.45
193.777	50.41
194.159	32.2
194.54	92.91
194.922	100
195.303	151.43
195.684	100
196.065	167.23
196.447	286.05
196.828	355.81
197.209	222.3
197.59	262.6
197.971	444.26
198.352	289.19
198.733	697.4
199.114	1100
199.495	594.51
199.876	811.86
200.257	719.72
200.638	1433.33
201.018	-2488.24
201.399	494.37
201.78	277.91
202.16	313.79
202.541	219.17
202.922	727.91
203.302	-534.15
203.683	1633.33
204.063	-1700
204.444	352.87
204.824	592.31
205.204	792.31
205.585	176.5
205.965	160.11
206.345	89.42
206.725	35.48
207.106	23.95
207.486	33.33
207.866	27.04
208.246	64.66
208.626	77.86
209.006	107.22
209.386	167.63
209.766	140.82
210.145	134.48
210.525	216.13
210.905	139.87
211.285	92.87
211.664	104.82
212.044	100
212.424	127.55
212.803	118.81
213.183	119.72
213.562	155.38
213.942	169.64
214.321	235.23
214.701	246.44
215.08	369.94
215.459	273.29
215.838	319.12
216.218	288.19
216.597	162.36
216.976	141.39
217.355	128.7
217.734	119.83
218.113	122.08
218.492	71.9
218.871	74.68
219.25	70.15
219.629	64.06
220.008	62.23
220.387	44.14
220.766	44.37
221.144	28.88
221.523	9.99
221.902	-4.8
222.28	16.98
222.659	25.99
223.037	28.12
223.416	9.54
223.794	1.87
224.173	-3.48
224.551	1.11
224.929	-6.87
225.308	-2.88
225.686	-5.08
226.064	-0.95
226.442	3.7
226.821	4.49
227.199	1.88
227.577	-0.05
227.955	1.55
228.333	-6.79
228.711	-11.77
229.089	-5.97
229.467	-7.76
229.845	-6.95
230.222	-6.98
230.6	-9.33
230.978	-8.38
231.356	-7.06
231.733	-3.66
232.111	-1.6
232.488	-0.86
232.866	2.06
233.243	1.72
233.621	5.22
233.998	4.46
234.376	2.97
234.753	2.97
235.13	3.56
235.508	5.78
235.885	7.3
236.262	10.15
236.639	12.08
237.016	11.46
237.393	12.38
237.77	14.21
238.147	13.06
238.524	11.75
238.901	11.11
239.278	10.71
239.655	9.89
240.032	9.18
240.409	9.27
240.785	9.14
241.162	9.14
241.539	9.06
241.915	8.87
242.292	9.12
242.668	8.74
243.045	8.79
243.421	8.21
243.798	7.72
244.174	7.35
244.551	7.11
244.927	6.75
245.303	6.59
245.679	5.98
246.056	5.76
246.432	6.01
246.808	5.92
247.184	6.15
247.56	5.72
247.936	5.57
248.312	5.37
248.688	5.45
249.064	5.39
249.44	5.6
249.815	5.67
250.191	5.7
250.567	5.53
250.943	5.45
251.318	5.47
251.694	5.25
252.069	5.44
252.445	5.49
252.82	5.88
253.196	6.03
253.571	6.41
253.947	6.65
254.322	6.24
254.697	6.61
255.073	6.56
255.448	6.89
255.823	7.16
256.198	6.79
256.573	6.71
256.948	6.8
257.323	6.67
257.698	6.58
258.073	6.29
258.448	6.34
258.823	6.25
259.198	6.22
259.573	6.06
259.948	6.28
260.322	6.09
260.697	6.07
261.072	6.24
261.446	6.04
261.821	6
262.195	6.06
262.57	5.81
262.944	5.79
263.319	5.74
263.693	5.68
264.067	5.78
264.442	5.95
264.816	5.83
265.19	5.69
265.564	5.67
265.938	5.86
266.313	5.63
266.687	5.49
267.061	5.3
267.435	5.61
267.809	5.3
268.183	5.26
268.556	4.91
268.93	4.98
269.304	4.97
269.678	5.03
270.051	5.08
270.425	5.4
270.799	5.12
271.172	5.24
271.546	5.19
271.919	5.07
272.293	4.81
272.666	4.83
273.04	4.86
273.413	4.91
273.787	4.75
274.16	4.9
274.533	5.06
274.906	5.19
275.279	5.06
275.653	5.1
276.026	5.09
276.399	5.25
276.772	5.02
277.145	5.11
277.518	4.88
277.891	4.93
278.263	4.89
278.636	5.1
279.009	5.17
279.382	5.13
279.755	5.19
280.127	5.25
280.5	5.12
280.872	5.06
281.245	5.03
281.617	5.1
281.99	4.99
282.362	5.13
282.735	5.14
283.107	5.1
283.479	5.1
283.852	5.22
284.224	5.25
284.596	5.19
284.968	5.11
285.34	5.25
285.713	5.37
286.085	5.1
286.457	5.1
286.829	4.99
287.201	5.07
287.572	5.26
287.944	5.37
288.316	5.4
288.688	5.37
289.06	5.38
289.431	5.58
289.803	5.83
290.175	5.79
290.546	5.78
290.918	5.85
291.289	5.83
291.661	5.83
292.032	5.92
292.403	6.03
292.775	6.09
293.146	6.2
293.517	6.02
293.889	6.17
294.26	6.33
294.631	6.47
295.002	6.45
295.373	6.38
295.744	6.25
296.115	6.4
296.486	6.48
296.857	6.61
297.228	6.54
297.599	6.48
297.97	6.58
298.34	6.62
298.711	6.78
299.082	6.86
299.452	6.79
299.823	6.72
300.194	6.7
300.564	6.72
300.935	6.82
301.305	6.99
301.676	7.06
302.046	7
302.416	7.02
302.787	7.21
303.157	7.26
303.527	7.59
303.897	7.61
304.267	7.78
304.637	7.68
305.008	7.72
305.378	7.82
305.748	7.75
306.117	7.85
306.487	7.94
306.857	8.05
307.227	8.28
307.597	8.26
307.967	8.36
308.336	8.42
308.706	8.32
309.076	8.42
309.445	8.48
309.815	8.59
310.184	8.49
310.554	8.49
310.923	8.63
311.293	8.53
311.662	8.68
312.031	8.75
312.401	8.86
312.77	8.8
313.139	8.66
313.508	8.66
313.877	8.69
314.246	8.47
314.616	8.65
314.985	8.6
315.353	8.76
315.722	8.99
316.091	9.11
316.46	9.21
316.829	9.19
317.198	9.16
317.567	9.26
317.935	9.29
318.304	9.39
318.672	9.36
319.041	9.35
319.41	9.15
319.778	8.98
320.147	8.89
320.515	9.03
320.883	9.26
321.252	9.44
321.62	9.52
321.988	9.7
322.357	9.53
322.725	9.55
323.093	9.47
323.461	9.39
323.829	9.38
324.197	9.21
324.565	9.2
324.933	9.09
325.301	8.99
325.669	8.97
326.037	8.83
326.405	8.72
326.772	8.88
327.14	8.89
327.508	8.84
327.875	9
328.243	8.97
328.61	8.84
328.978	8.77
329.346	8.81
329.713	8.9
330.08	8.89
330.448	9.03
330.815	9.09
331.182	8.97
331.55	8.76
331.917	8.83
332.284	8.86
332.651	8.96
333.018	8.98
333.385	9.26
333.752	9.29
334.119	9.41
334.486	9.2
334.853	9.28
335.22	9.21
335.587	9.05
335.954	9.08
336.32	9.08
336.687	9.08
337.054	8.93
337.42	9
337.787	9.07
338.153	9
338.52	8.95
338.886	9.01
339.253	9.06
339.619	9.09
339.986	9.01
340.352	9.18
340.718	9.18
341.084	9.06
341.451	9.07
341.817	9.02
342.183	9.07
342.549	9.07
342.915	9.21
343.281	9.24
343.647	9.18
344.013	9.34
344.379	9.32
344.745	9.41
345.11	9.23
345.476	9.2
345.842	9.22
346.208	9.2
346.573	9.19
346.939	9.35
347.304	9.39
347.67	9.43
348.035	9.21
348.401	9.15
348.766	9.14
349.132	9.1
349.497	9.09
349.862	9.05
350.228	8.99
350.593	8.89
350.958	8.86
351.323	8.89
351.688	8.86
352.053	8.75
352.418	8.75
352.783	8.74
353.148	8.65
353.513	8.61
353.878	8.59
354.243	8.45
354.608	8.46
354.972	8.49
355.337	8.42
355.702	8.46
356.066	8.47
356.431	8.43
356.795	8.39
357.16	8.36
357.524	8.44
357.889	8.41
358.253	8.43
358.618	8.53
358.982	8.46
359.346	8.4
359.71	8.37
360.075	8.34
360.439	8.35
360.803	8.33
361.167	8.3
361.531	8.23
361.895	8.2
362.259	8.21
362.623	8.06
362.987	8.15
363.351	8.11
363.714	8.02
364.078	8.03
364.442	8.08
364.806	8.05
365.169	7.96
365.533	7.95
365.896	8
366.26	7.86
366.623	7.77
366.987	7.68
367.35	7.72
367.714	7.65
368.077	7.65
368.44	7.65
368.803	7.55
369.167	7.56
369.53	7.62
369.893	7.48
370.256	7.54
370.619	7.38
370.982	7.39
371.345	7.39
371.708	7.31
372.071	7.19
372.434	7.18
372.797	7.18
373.159	7.19
373.522	7.09
373.885	7.13
374.247	7.14
374.61	7.14
374.973	7.06
375.335	6.97
375.698	6.85
376.06	6.76
376.423	6.79
376.785	6.78
377.147	6.66
377.51	6.58
377.872	6.61
378.234	6.7
378.596	6.65
378.958	6.63
379.321	6.58
379.683	6.62
380.045	6.57
380.407	6.51
380.769	6.4
381.13	6.38
381.492	6.38
381.854	6.35
382.216	6.3
382.578	6.28
382.939	6.27
383.301	6.36
383.663	6.36
384.024	6.34
384.386	6.33
384.747	6.36
385.109	6.38
385.47	6.3
385.832	6.2
386.193	6.19
386.554	6.16
386.916	6.14
387.277	6.08
387.638	6.09
387.999	6.05
388.36	6.08
388.721	6.06
389.082	5.98
389.443	5.98
389.804	5.97
390.165	5.95
390.526	5.9
390.887	5.75
391.248	5.75
391.609	5.73
391.969	5.66
392.33	5.58
392.691	5.56
393.051	5.49
393.412	5.42
393.772	5.4
394.133	5.37
394.493	5.36
394.854	5.33
395.214	5.27
395.574	5.26
395.935	5.18
396.295	5.13
396.655	5.1
397.015	5.04
397.376	5.03
397.736	5
398.096	5.02
398.456	5.02
398.816	5
399.176	4.91
399.535	4.89
399.895	4.9
400.255	4.88
400.615	4.85
400.975	4.89
401.334	4.86
401.694	4.83
402.054	4.8
402.413	4.76
402.773	4.73
403.132	4.74
403.492	4.78
403.851	4.75
404.211	4.78
404.57	4.8
404.929	4.76
405.288	4.77
405.648	4.75
406.007	4.77
406.366	4.73
406.725	4.75
407.084	4.78
407.443	4.8
407.802	4.78
408.161	4.79
408.52	4.77
408.879	4.78
409.238	4.8
409.596	4.79
409.955	4.81
410.314	4.82
410.673	4.76
411.031	4.7
411.39	4.71
411.748	4.68
412.107	4.67
412.465	4.7
412.824	4.68
413.182	4.68
413.54	4.67
413.899	4.68
414.257	4.68
414.615	4.66
414.974	4.64
415.332	4.62
415.69	4.6
416.048	4.59
416.406	4.53
416.764	4.52
417.122	4.51
417.48	4.5
417.838	4.5
418.195	4.5
418.553	4.51
418.911	4.49
419.269	4.48
419.626	4.47
419.984	4.46
420.342	4.45
420.699	4.43
421.057	4.43
421.414	4.42
421.772	4.39
422.129	4.37
422.486	4.36
422.844	4.35
423.201	4.35
423.558	4.33
423.915	4.34
424.273	4.32
424.63	4.32
424.987	4.31
425.344	4.3
425.701	4.3
426.058	4.28
426.415	4.28
426.772	4.26
427.128	4.24
427.485	4.22
427.842	4.2
428.199	4.19
428.555	4.16
428.912	4.15
429.269	4.15
429.625	4.16
429.982	4.14
430.338	4.14
430.695	4.13
431.051	4.14
431.407	4.13
431.764	4.14
432.12	4.12
432.476	4.14
432.832	4.14
433.189	4.13
433.545	4.15
433.901	4.14
434.257	4.13
434.613	4.14
434.969	4.14
435.325	4.16
435.681	4.15
436.036	4.16
436.392	4.16
436.748	4.16
437.104	4.14
437.459	4.19
437.815	4.19
438.171	4.18
438.526	4.17
438.882	4.17
439.237	4.14
439.593	4.17
439.948	4.14
440.304	4.12
440.659	4.13
441.014	4.12
441.369	4.13
441.725	4.11
442.08	4.12
442.435	4.11
442.79	4.08
443.145	4.09
443.5	4.1
443.855	4.1
444.21	4.1
444.565	4.1
444.92	4.08
445.275	4.07
445.629	4.07
445.984	4.07
446.339	4.07
446.693	4.08
447.048	4.04
447.403	4.05
447.757	4.05
448.112	4.05
448.466	4.05
448.82	4.02
449.175	4.02
449.529	4.02
449.883	4.03
450.238	4.04
450.592	4.04
450.946	4.01
451.3	4.01
451.654	3.98
452.008	3.99
452.362	3.97
452.716	3.98
453.07	3.95
453.424	3.96
453.778	3.99
454.132	3.99
454.486	4.01
454.839	4.01
455.193	4.01
455.547	4
455.9	4
456.254	4.01
456.607	4.02
456.961	4
457.314	3.98
457.668	3.98
458.021	3.96
458.375	3.94
458.728	3.93
459.081	3.94
459.434	3.94
459.787	3.94
460.141	3.94
460.494	3.97
460.847	3.95
461.2	3.93
461.553	3.94
461.906	3.95
462.259	3.95
462.611	3.95
462.964	3.94
463.317	3.97
463.67	4
464.022	4.02
464.375	4.03
464.728	4.06
465.08	4.05
465.433	4.08
465.785	4.13
466.138	4.16
466.49	4.16
466.843	4.16
467.195	4.19
467.547	4.19
467.899	4.2
468.252	4.2
468.604	4.23
468.956	4.25
469.308	4.2
469.66	4.22
470.012	4.22
470.364	4.25
470.716	4.24
471.068	4.25
471.42	4.24
471.772	4.24
472.123	4.25
472.475	4.28
472.827	4.29
473.178	4.29
473.53	4.28
473.882	4.3
474.233	4.29
474.585	4.29
474.936	4.28
475.288	4.26
475.639	4.27
475.99	4.24
476.342	4.23
476.693	4.27
477.044	4.26
477.395	4.24
477.746	4.24
478.097	4.23
478.448	4.18
478.8	4.14
479.15	4.13
479.501	4.11
479.852	4.11
480.203	4.09
480.554	4.09
480.905	4.08
481.255	4.09
481.606	4.1
481.957	4.1
482.307	4.1
482.658	4.1
483.009	4.11
483.359	4.1
483.709	4.1
484.06	4.09
484.41	4.09
484.761	4.11
485.111	4.11
485.461	4.11
485.811	4.12
486.162	4.13
486.512	4.14
486.862	4.15
487.212	4.15
487.562	4.16
487.912	4.17
488.262	4.19
488.612	4.19
488.961	4.18
489.311	4.18
489.661	4.19
490.011	4.19
490.36	4.2
490.71	4.21
491.06	4.22
491.409	4.24
491.759	4.26
492.108	4.25
492.458	4.25
492.807	4.25
493.157	4.27
493.506	4.28
493.855	4.29
494.204	4.31
494.554	4.3
494.903	4.32
495.252	4.32
495.601	4.34
495.95	4.34
496.299	4.37
496.648	4.39
496.997	4.41
497.346	4.44
497.695	4.46
498.043	4.48
498.392	4.52
498.741	4.56
499.09	4.58
499.438	4.63
499.787	4.68
500.135	4.72
500.484	4.75
500.832	4.8
501.181	4.84
501.529	4.87
501.878	4.92
502.226	4.99
502.574	5.02
502.923	5.06
503.271	5.1
503.619	5.15
503.967	5.22
504.315	5.26
504.663	5.29
505.011	5.33
505.359	5.38
505.707	5.42
506.055	5.43
506.403	5.46
506.751	5.49
507.098	5.54
507.446	5.61
507.794	5.67
508.141	5.7
508.489	5.76
508.837	5.8
509.184	5.84
509.531	5.85
509.879	5.92
510.226	5.95
510.574	6
510.921	6.04
511.268	6.08
511.616	6.15
511.963	6.22
512.31	6.28
512.657	6.31
513.004	6.35
513.351	6.42
513.698	6.48
514.045	6.53
514.392	6.61
514.739	6.66
515.086	6.7
515.432	6.76
515.779	6.82
516.126	6.89
516.473	6.96
516.819	7.04
517.166	7.1
517.512	7.15
517.859	7.2
518.205	7.25
518.552	7.29
518.898	7.34
519.245	7.39
519.591	7.46
519.937	7.52
520.283	7.59
520.629	7.66
520.976	7.75
521.322	7.84
521.668	7.89
522.014	7.99
522.36	8.09
522.706	8.19
523.052	8.31
523.398	8.41
523.743	8.51
524.089	8.65
524.435	8.75
524.781	8.88
525.126	8.98
525.472	9.08
525.817	9.18
526.163	9.26
526.509	9.35
526.854	9.44
527.199	9.52
527.545	9.59
527.89	9.68
528.235	9.76
528.581	9.83
528.926	9.93
529.271	10
529.616	10.07
529.961	10.16
530.306	10.23
530.651	10.34
530.996	10.45
531.341	10.55
531.686	10.66
532.031	10.77
532.376	10.89
532.721	11.01
533.065	11.14
533.41	11.26
533.755	11.39
534.099	11.49
534.444	11.63
534.788	11.76
535.133	11.88
535.477	12.03
535.822	12.17
536.166	12.3
536.51	12.47
536.855	12.67
537.199	12.84
537.543	13.02
537.887	13.21
538.231	13.41
538.576	13.58
538.92	13.75
539.264	13.94
539.608	14.13
539.951	14.3
540.295	14.48
540.639	14.65
540.983	14.83
541.327	15
541.671	15.19
542.014	15.36
542.358	15.54
542.701	15.69
543.045	15.86
543.389	16.05
543.732	16.22
544.075	16.38
544.419	16.57
544.762	16.76
545.105	16.96
545.449	17.16
545.792	17.41
546.135	17.63
546.478	17.88
546.821	18.12
547.165	18.39
547.508	18.64
547.851	18.91
548.194	19.18
548.536	19.44
548.879	19.68
549.222	19.92
549.565	20.17
549.908	20.46
550.25	20.73
550.593	21.01
550.936	21.29
551.278	21.58
551.621	21.87
551.963	22.18
552.306	22.44
552.648	22.69
552.991	22.89
553.333	23.18
553.675	23.45
554.017	23.69
554.36	23.92
554.702	24.13
555.044	24.36
555.386	24.65
555.728	24.94
556.07	25.18
556.412	25.49
556.754	25.74
557.096	26.01
557.438	26.26
557.78	26.44
558.121	26.7
558.463	26.97
558.805	27.24
559.147	27.5
559.488	27.73
559.83	28.01
560.171	28.31
560.513	28.57
560.854	28.89
561.196	29.18
561.537	29.45
561.878	29.71
562.22	29.96
562.561	30.16
562.902	30.37
563.243	30.67
563.584	30.89
563.925	31.11
564.266	31.29
564.607	31.57
564.948	31.81
565.289	32
565.63	32.16
565.971	32.33
566.312	32.52
566.653	32.73
566.993	32.93
567.334	33.09
567.675	33.28
568.015	33.37
568.356	33.53
568.696	33.67
569.037	33.88
569.377	34.06
569.718	34.21
570.058	34.37
570.398	34.51
570.739	34.68
571.079	34.89
571.419	35.07
571.759	35.14
572.099	35.34
572.439	35.48
572.779	35.67
573.119	35.85
573.459	36.03
573.799	36.18
574.139	36.29
574.479	36.46
574.819	36.56
575.158	36.73
575.498	36.92
575.838	37.1
576.177	37.24
576.517	37.38
576.856	37.55
577.196	37.72
577.535	37.84
577.875	37.98
578.214	38.11
578.553	38.26
578.893	38.49
579.232	38.63
579.571	38.87
579.91	38.99
580.25	39.06
580.589	39.16
580.928	39.38
581.267	39.57
581.606	39.7
581.945	39.84
582.283	39.94
582.622	40
582.961	40.11
583.3	40.17
583.639	40.29
583.977	40.42
584.316	40.52
584.654	40.68
584.993	40.76
585.332	40.89
585.67	41.01
586.008	41.11
586.347	41.2
586.685	41.19
587.024	41.32
587.362	41.5
587.7	41.55
588.038	41.6
588.376	41.62
588.715	41.77
589.053	41.87
589.391	42.02
589.729	42.09
590.067	42.21
590.404	42.34
590.742	42.42
591.08	42.5
591.418	42.67
591.756	42.75
592.093	42.91
592.431	42.92
592.769	43.03
593.106	43.12
593.444	43.28
593.781	43.43
594.119	43.49
594.456	43.58
594.793	43.69
595.131	43.81
595.468	43.98
595.805	44.03
596.143	44.13
596.48	44.17
596.817	44.26
597.154	44.33
597.491	44.47
597.828	44.54
598.165	44.54
598.502	44.59
598.839	44.66
599.176	44.77
599.512	44.91
599.849	44.94
600.186	45.01
600.523	45.01
600.859	45.08
601.196	45.16
601.532	45.22
601.869	45.37
602.205	45.35
602.542	45.4
602.878	45.49
603.215	45.56
603.551	45.6
603.887	45.63
604.223	45.69
604.56	45.72
604.896	45.8
605.232	45.92
605.568	46
605.904	46.03
606.24	46.04
606.576	46.18
606.912	46.26
607.248	46.31
607.583	46.31
607.919	46.37
608.255	46.47
608.591	46.46
608.926	46.46
609.262	46.52
609.597	46.55
609.933	46.59
610.268	46.6
610.604	46.61
610.939	46.71
611.275	46.78
611.61	46.75
611.945	46.74
612.281	46.79
612.616	46.81
612.951	46.88
613.286	46.9
613.621	46.81
613.956	46.86
614.291	46.93
614.626	47.08
614.961	47.09
615.296	47.06
615.631	47.1
615.966	47.1
616.3	47.21
616.635	47.2
616.97	47.22
617.304	47.27
617.639	47.35
617.973	47.34
618.308	47.26
618.642	47.33
618.977	47.32
619.311	47.38
619.646	47.37
619.98	47.46
620.314	47.56
620.648	47.71
620.983	47.69
621.317	47.67
621.651	47.67
621.985	47.72
622.319	47.8
622.653	47.92
622.987	47.89
623.321	47.83
623.655	47.98
623.988	47.96
624.322	48.04
624.656	48.04
624.99	48.07
625.323	48.24
625.657	48.33
625.99	48.41
626.324	48.46
626.657	48.46
626.991	48.49
627.324	48.48
627.658	48.46
627.991	48.48
628.324	48.5
628.657	48.48
628.991	48.55
629.324	48.51
629.657	48.53
629.99	48.68
630.323	48.71
630.656	48.62
630.989	48.64
631.322	48.63
631.655	48.68
631.987	48.7
632.32	48.63
632.653	48.55
632.986	48.59
633.318	48.58
633.651	48.68
633.984	48.6
634.316	48.58
634.649	48.54
634.981	48.56
635.313	48.66
635.646	48.74
635.978	48.8
636.31	48.79
636.643	48.75
636.975	48.72
637.307	48.81
637.639	48.9
637.971	48.93
638.303	48.83
638.635	48.83
638.967	48.9
639.299	48.99
639.631	49.04
639.963	49.08
640.295	49.12
640.626	49.18
640.958	49.23
641.29	49.26
641.621	49.37
641.953	49.33
642.285	49.23
642.616	49.22
642.948	49.14
643.279	49.31
643.61	49.3
643.942	49.35
644.273	49.45
644.604	49.55
644.936	49.53
645.267	49.65
645.598	49.69
645.929	49.65
646.26	49.63
646.591	49.64
646.922	49.71
647.253	49.68
647.584	49.6
647.915	49.62
648.245	49.63
648.576	49.56
648.907	49.69
649.238	49.74
649.568	49.81
649.899	49.75
650.229	49.62
650.56	49.72
650.89	49.64
651.221	49.5
651.551	49.42
651.882	49.5
652.212	49.58
652.542	49.65
652.872	49.71
653.203	49.62
653.533	49.64
653.863	49.64
654.193	49.73
654.523	49.65
654.853	49.64
655.183	49.76
655.513	49.73
655.843	49.68
656.172	49.81
656.502	49.81
656.832	49.98
657.162	50.08
657.491	50.13
657.821	50.21
658.15	50.22
658.48	50.21
658.809	50.19
659.139	50.21
659.468	50.13
659.798	50.07
660.127	50.1
660.456	50.14
660.785	50.12
661.115	49.99
661.444	50.09
661.773	50.17
662.102	50.01
662.431	50.11
662.76	50.17
663.089	50.15
663.418	50.09
663.747	50.09
664.076	50.07
664.404	50.13
664.733	50.14
665.062	50.18
665.39	50.3
665.719	50.41
666.048	50.35
666.376	50.41
666.705	50.46
667.033	50.54
667.362	50.42
667.69	50.44
668.018	50.55
668.347	50.55
668.675	50.58
669.003	50.69
669.331	50.8
