Data from BA28305_Reflection_00006.txt Node
Date: Mon Nov 18 15:56:54 EST 2019
User: vgr7
Spectrometer: USB2G7710
Scans to average: 3
Trigger mode: 4
Integration Time (sec): 2.000000E-2
Electric dark correction enabled: true
Boxcar width: 10
XAxis mode: Wavelengths
Number of Pixels in Spectrum: 2048
>>>>>Begin Spectral Data<<<<<
177.721	371.72
178.105	749.12
178.488	218.38
178.871	-14.04
179.254	44.86
179.636	138.69
180.019	-150.48
180.402	91.3
180.785	-0.54
181.168	-175.16
181.55	-35.38
181.933	58.19
182.316	34.81
182.698	28.7
183.081	26.08
183.463	16.74
183.846	-0.43
184.228	-5.45
184.611	-9.35
184.993	11.96
185.376	-13.05
185.758	-18.49
186.14	7.73
186.522	96.27
186.904	213.9
187.287	151.28
187.669	320.81
188.051	194.51
188.433	328.8
188.815	494.82
189.197	1564.05
189.579	-313.68
189.961	-353.51
190.342	-339.48
190.724	-100.17
191.106	-54.74
191.488	-68.1
191.869	-78.95
192.251	-69.93
192.633	-66.14
193.014	-66.49
193.396	-149.05
193.777	-194.68
194.159	-185.3
194.54	-183.65
194.922	-281.34
195.303	-218.84
195.684	-160.16
196.065	-167.74
196.447	-137.66
196.828	-123.13
197.209	-91.02
197.59	-153.97
197.971	-154.04
198.352	-104.04
198.733	-111.43
199.114	-100.09
199.495	-88.86
199.876	-81.96
200.257	-66.51
200.638	-72.34
201.018	-113.49
201.399	-78.82
201.78	-48.44
202.16	-46.62
202.541	-95.52
202.922	-196.95
203.302	-288.67
203.683	-183.29
204.063	-206.39
204.444	-280.13
204.824	-392.26
205.204	-865.33
205.585	-819.9
205.965	-430.08
206.345	-2062.6
206.725	1027.54
207.106	356.41
207.486	200.81
207.866	275.17
208.246	220.24
208.626	353.43
209.006	973.56
209.386	400.53
209.766	925.61
210.145	-543.44
210.525	-466.35
210.905	-212.84
211.285	-169.06
211.664	-188.36
212.044	-160.2
212.424	-149.88
212.803	-163.3
213.183	-101.01
213.562	-109.29
213.942	-89.28
214.321	-78.68
214.701	-64.67
215.08	-40.25
215.459	-36.82
215.838	-44.47
216.218	-48.26
216.597	-27.94
216.976	-36.42
217.355	-37.05
217.734	-49.69
218.113	-42.51
218.492	-39.5
218.871	-67.27
219.25	-37.59
219.629	-23.36
220.008	-45.86
220.387	-46.68
220.766	-63.1
221.144	-142.8
221.523	-137.43
221.902	-287.73
222.28	-835.4
222.659	-408.7
223.037	-424.63
223.416	-979.89
223.794	-469.7
224.173	-349.01
224.551	-229.42
224.929	-129.71
225.308	-87.39
225.686	-57.16
226.064	-51.96
226.442	-38.63
226.821	-26.36
227.199	-33.06
227.577	-35.52
227.955	-29.12
228.333	-26.9
228.711	-18.99
229.089	-10.77
229.467	-8.2
229.845	-9.71
230.222	-7.15
230.6	-9.41
230.978	-8.19
231.356	-7.7
231.733	-4.55
232.111	-5.22
232.488	-7.39
232.866	-6.01
233.243	-6.49
233.621	-7.69
233.998	-5.65
234.376	-5.23
234.753	-5.35
235.13	-3.13
235.508	-2.33
235.885	-3.12
236.262	-3.07
236.639	-3.9
237.016	-4
237.393	-2.21
237.77	-0.91
238.147	-0.4
238.524	1.09
238.901	1.59
239.278	2.2
239.655	1.82
240.032	2.58
240.409	3.35
240.785	3.29
241.162	3.21
241.539	3.28
241.915	3.22
242.292	3
242.668	2.8
243.045	2.8
243.421	2.94
243.798	3.1
244.174	2.75
244.551	3.11
244.927	2.88
245.303	2.59
245.679	2.64
246.056	2.47
246.432	2.5
246.808	2.48
247.184	2.35
247.56	2.4
247.936	2.26
248.312	2.2
248.688	2.38
249.064	2.41
249.44	2.52
249.815	2.6
250.191	2.68
250.567	2.81
250.943	2.84
251.318	3.06
251.694	3.04
252.069	3.27
252.445	3.28
252.82	3.2
253.196	3.29
253.571	3.5
253.947	3.92
254.322	3.82
254.697	3.88
255.073	3.65
255.448	3.74
255.823	4.03
256.198	4.28
256.573	4.39
256.948	4.73
257.323	4.74
257.698	4.86
258.073	4.86
258.448	4.91
258.823	4.73
259.198	4.45
259.573	4.46
259.948	4.4
260.322	4.37
260.697	4.37
261.072	4.35
261.446	4.29
261.821	4.18
262.195	4.25
262.57	4
262.944	4.1
263.319	4.01
263.693	3.84
264.067	3.74
264.442	3.66
264.816	3.44
265.19	3.36
265.564	3.17
265.938	2.99
266.313	2.83
266.687	2.93
267.061	3.04
267.435	2.99
267.809	3.16
268.183	3.06
268.556	3.08
268.93	3.22
269.304	3.25
269.678	3.39
270.051	3.34
270.425	3.68
270.799	3.82
271.172	3.82
271.546	3.88
271.919	3.72
272.293	3.64
272.666	3.63
273.04	3.69
273.413	3.57
273.787	3.66
274.16	3.81
274.533	3.64
274.906	3.53
275.279	3.61
275.653	3.46
276.026	3.54
276.399	3.55
276.772	3.58
277.145	3.5
277.518	3.34
277.891	3.48
278.263	3.31
278.636	3.34
279.009	3.46
279.382	3.79
279.755	3.87
280.127	4.09
280.5	4.36
280.872	4.42
281.245	4.5
281.617	4.6
281.99	4.4
282.362	4.62
282.735	4.73
283.107	4.59
283.479	4.63
283.852	4.61
284.224	4.62
284.596	4.34
284.968	4.42
285.34	4.56
285.713	4.54
286.085	4.62
286.457	4.64
286.829	4.57
287.201	4.37
287.572	4.37
287.944	4.22
288.316	3.99
288.688	3.92
289.06	3.87
289.431	3.86
289.803	3.84
290.175	3.85
290.546	3.97
290.918	4.02
291.289	3.96
291.661	3.99
292.032	4
292.403	4.24
292.775	4.22
293.146	4.05
293.517	3.98
293.889	3.92
294.26	3.88
294.631	3.91
295.002	3.91
295.373	4.04
295.744	4.14
296.115	4.24
296.486	4.16
296.857	4.29
297.228	4.23
297.599	4.26
297.97	4.14
298.34	4.09
298.711	4.21
299.082	4.22
299.452	4.29
299.823	4.46
300.194	4.43
300.564	4.38
300.935	4.51
301.305	4.48
301.676	4.52
302.046	4.43
302.416	4.52
302.787	4.58
303.157	4.5
303.527	4.38
303.897	4.37
304.267	4.49
304.637	4.57
305.008	4.59
305.378	4.66
305.748	4.65
306.117	4.51
306.487	4.48
306.857	4.43
307.227	4.39
307.597	4.38
307.967	4.42
308.336	4.41
308.706	4.3
309.076	4.52
309.445	4.52
309.815	4.5
310.184	4.41
310.554	4.37
310.923	4.29
311.293	4.38
311.662	4.27
312.031	4.22
312.401	4.17
312.77	4.18
313.139	4.22
313.508	4.26
313.877	4.31
314.246	4.21
314.616	4.28
314.985	4.24
315.353	4.08
315.722	3.99
316.091	4
316.46	4
316.829	3.8
317.198	3.86
317.567	3.87
317.935	3.88
318.304	3.85
318.672	3.92
319.041	3.9
319.41	3.97
319.778	3.91
320.147	3.87
320.515	3.82
320.883	3.77
321.252	3.73
321.62	3.7
321.988	3.84
322.357	3.7
322.725	3.61
323.093	3.75
323.461	3.78
323.829	3.84
324.197	3.94
324.565	3.83
324.933	3.88
325.301	3.88
325.669	3.8
326.037	3.85
326.405	3.78
326.772	3.84
327.14	3.97
327.508	3.98
327.875	3.97
328.243	3.96
328.61	3.91
328.978	4.06
329.346	4.13
329.713	4.03
330.08	4.18
330.448	4.1
330.815	3.97
331.182	3.89
331.55	3.93
331.917	3.86
332.284	4.08
332.651	3.95
333.018	4.06
333.385	4.1
333.752	4.08
334.119	4.13
334.486	3.97
334.853	3.85
335.22	3.92
335.587	3.86
335.954	3.85
336.32	3.9
336.687	3.82
337.054	3.82
337.42	3.94
337.787	3.92
338.153	4.05
338.52	4.07
338.886	4.13
339.253	3.99
339.619	4.06
339.986	4.03
340.352	4.17
340.718	4.12
341.084	4.25
341.451	4.24
341.817	4.24
342.183	4.28
342.549	4.3
342.915	4.3
343.281	4.31
343.647	4.25
344.013	4.26
344.379	4.17
344.745	4.17
345.11	4.09
345.476	4.1
345.842	4.07
346.208	4.08
346.573	4.14
346.939	4.21
347.304	4.1
347.67	4.06
348.035	3.95
348.401	3.91
348.766	3.85
349.132	3.85
349.497	3.9
349.862	3.92
350.228	3.88
350.593	3.89
350.958	3.91
351.323	4.04
351.688	4.07
352.053	4.15
352.418	4.23
352.783	4.21
353.148	4.18
353.513	4.2
353.878	4.16
354.243	4.2
354.608	4.2
354.972	4.22
355.337	4.21
355.702	4.3
356.066	4.35
356.431	4.39
356.795	4.43
357.16	4.36
357.524	4.33
357.889	4.28
358.253	4.32
358.618	4.31
358.982	4.27
359.346	4.24
359.71	4.25
360.075	4.24
360.439	4.26
360.803	4.29
361.167	4.29
361.531	4.36
361.895	4.27
362.259	4.22
362.623	4.32
362.987	4.31
363.351	4.27
363.714	4.32
364.078	4.25
364.442	4.25
364.806	4.29
365.169	4.27
365.533	4.3
365.896	4.29
366.26	4.26
366.623	4.25
366.987	4.26
367.35	4.24
367.714	4.25
368.077	4.26
368.44	4.24
368.803	4.25
369.167	4.14
369.53	4.11
369.893	4.12
370.256	4.08
370.619	4.08
370.982	4.01
371.345	3.96
371.708	4.03
372.071	4
372.434	4.03
372.797	4.09
373.159	4.1
373.522	4.11
373.885	4.19
374.247	4.19
374.61	4.17
374.973	4.18
375.335	4.12
375.698	4.09
376.06	4.13
376.423	4.12
376.785	4.2
377.147	4.24
377.51	4.31
377.872	4.3
378.234	4.26
378.596	4.38
378.958	4.34
379.321	4.32
379.683	4.28
380.045	4.23
380.407	4.27
380.769	4.26
381.13	4.22
381.492	4.22
381.854	4.23
382.216	4.26
382.578	4.26
382.939	4.23
383.301	4.25
383.663	4.2
384.024	4.2
384.386	4.22
384.747	4.29
385.109	4.27
385.47	4.23
385.832	4.3
386.193	4.25
386.554	4.28
386.916	4.27
387.277	4.33
387.638	4.38
387.999	4.31
388.36	4.33
388.721	4.36
389.082	4.34
389.443	4.32
389.804	4.28
390.165	4.28
390.526	4.29
390.887	4.26
391.248	4.32
391.609	4.34
391.969	4.37
392.33	4.32
392.691	4.32
393.051	4.34
393.412	4.38
393.772	4.34
394.133	4.39
394.493	4.39
394.854	4.38
395.214	4.36
395.574	4.39
395.935	4.38
396.295	4.42
396.655	4.38
397.015	4.44
397.376	4.45
397.736	4.49
398.096	4.53
398.456	4.55
398.816	4.51
399.176	4.5
399.535	4.41
399.895	4.42
400.255	4.38
400.615	4.38
400.975	4.35
401.334	4.35
401.694	4.31
402.054	4.28
402.413	4.29
402.773	4.25
403.132	4.24
403.492	4.25
403.851	4.21
404.211	4.2
404.57	4.16
404.929	4.21
405.288	4.16
405.648	4.14
406.007	4.18
406.366	4.16
406.725	4.17
407.084	4.21
407.443	4.23
407.802	4.27
408.161	4.28
408.52	4.24
408.879	4.24
409.238	4.25
409.596	4.27
409.955	4.26
410.314	4.29
410.673	4.3
411.031	4.27
411.39	4.33
411.748	4.4
412.107	4.4
412.465	4.34
412.824	4.39
413.182	4.39
413.54	4.35
413.899	4.37
414.257	4.39
414.615	4.39
414.974	4.39
415.332	4.37
415.69	4.37
416.048	4.39
416.406	4.42
416.764	4.39
417.122	4.4
417.48	4.4
417.838	4.38
418.195	4.39
418.553	4.42
418.911	4.38
419.269	4.35
419.626	4.37
419.984	4.36
420.342	4.34
420.699	4.34
421.057	4.34
421.414	4.34
421.772	4.32
422.129	4.31
422.486	4.32
422.844	4.32
423.201	4.3
423.558	4.31
423.915	4.31
424.273	4.32
424.63	4.29
424.987	4.3
425.344	4.32
425.701	4.29
426.058	4.27
426.415	4.29
426.772	4.29
427.128	4.27
427.485	4.26
427.842	4.27
428.199	4.28
428.555	4.28
428.912	4.3
429.269	4.29
429.625	4.28
429.982	4.25
430.338	4.26
430.695	4.28
431.051	4.24
431.407	4.23
431.764	4.22
432.12	4.23
432.476	4.22
432.832	4.19
433.189	4.22
433.545	4.21
433.901	4.2
434.257	4.19
434.613	4.19
434.969	4.19
435.325	4.19
435.681	4.19
436.036	4.19
436.392	4.18
436.748	4.18
437.104	4.19
437.459	4.19
437.815	4.2
438.171	4.2
438.526	4.22
438.882	4.22
439.237	4.24
439.593	4.26
439.948	4.24
440.304	4.24
440.659	4.26
441.014	4.26
441.369	4.24
441.725	4.24
442.08	4.25
442.435	4.27
442.79	4.27
443.145	4.25
443.5	4.25
443.855	4.25
444.21	4.26
444.565	4.26
444.92	4.28
445.275	4.26
445.629	4.26
445.984	4.25
446.339	4.24
446.693	4.22
447.048	4.21
447.403	4.22
447.757	4.22
448.112	4.2
448.466	4.21
448.82	4.24
449.175	4.24
449.529	4.24
449.883	4.22
450.238	4.21
450.592	4.22
450.946	4.23
451.3	4.23
451.654	4.22
452.008	4.22
452.362	4.18
452.716	4.2
453.07	4.2
453.424	4.2
453.778	4.21
454.132	4.22
454.486	4.23
454.839	4.23
455.193	4.21
455.547	4.21
455.9	4.21
456.254	4.19
456.607	4.2
456.961	4.19
457.314	4.2
457.668	4.2
458.021	4.18
458.375	4.18
458.728	4.17
459.081	4.15
459.434	4.13
459.787	4.13
460.141	4.11
460.494	4.11
460.847	4.1
461.2	4.1
461.553	4.11
461.906	4.1
462.259	4.1
462.611	4.12
462.964	4.13
463.317	4.12
463.67	4.12
464.022	4.13
464.375	4.1
464.728	4.11
465.08	4.1
465.433	4.12
465.785	4.11
466.138	4.13
466.49	4.16
466.843	4.17
467.195	4.17
467.547	4.21
467.899	4.21
468.252	4.21
468.604	4.22
468.956	4.23
469.308	4.23
469.66	4.2
470.012	4.21
470.364	4.2
470.716	4.2
471.068	4.21
471.42	4.21
471.772	4.23
472.123	4.24
472.475	4.25
472.827	4.25
473.178	4.26
473.53	4.24
473.882	4.26
474.233	4.27
474.585	4.25
474.936	4.23
475.288	4.22
475.639	4.24
475.99	4.23
476.342	4.23
476.693	4.22
477.044	4.26
477.395	4.24
477.746	4.25
478.097	4.25
478.448	4.24
478.8	4.24
479.15	4.25
479.501	4.27
479.852	4.26
480.203	4.28
480.554	4.3
480.905	4.31
481.255	4.3
481.606	4.33
481.957	4.34
482.307	4.35
482.658	4.37
483.009	4.38
483.359	4.39
483.709	4.39
484.06	4.41
484.41	4.41
484.761	4.41
485.111	4.4
485.461	4.4
485.811	4.4
486.162	4.4
486.512	4.4
486.862	4.39
487.212	4.4
487.562	4.4
487.912	4.4
488.262	4.39
488.612	4.39
488.961	4.39
489.311	4.39
489.661	4.39
490.011	4.37
490.36	4.37
490.71	4.36
491.06	4.37
491.409	4.35
491.759	4.35
492.108	4.36
492.458	4.37
492.807	4.36
493.157	4.37
493.506	4.38
493.855	4.37
494.204	4.37
494.554	4.37
494.903	4.36
495.252	4.35
495.601	4.34
495.95	4.34
496.299	4.32
496.648	4.33
496.997	4.33
497.346	4.31
497.695	4.32
498.043	4.32
498.392	4.32
498.741	4.34
499.09	4.34
499.438	4.33
499.787	4.35
500.135	4.39
500.484	4.39
500.832	4.38
501.181	4.41
501.529	4.45
501.878	4.48
502.226	4.5
502.574	4.53
502.923	4.54
503.271	4.54
503.619	4.55
503.967	4.55
504.315	4.55
504.663	4.59
505.011	4.59
505.359	4.59
505.707	4.6
506.055	4.57
506.403	4.58
506.751	4.58
507.098	4.57
507.446	4.59
507.794	4.58
508.141	4.59
508.489	4.6
508.837	4.58
509.184	4.58
509.531	4.56
509.879	4.56
510.226	4.61
510.574	4.63
510.921	4.65
511.268	4.65
511.616	4.66
511.963	4.67
512.31	4.67
512.657	4.67
513.004	4.66
513.351	4.69
513.698	4.71
514.045	4.72
514.392	4.73
514.739	4.73
515.086	4.77
515.432	4.76
515.779	4.75
516.126	4.77
516.473	4.8
516.819	4.82
517.166	4.82
517.512	4.8
517.859	4.79
518.205	4.81
518.552	4.83
518.898	4.84
519.245	4.85
519.591	4.86
519.937	4.86
520.283	4.88
520.629	4.89
520.976	4.89
521.322	4.88
521.668	4.88
522.014	4.89
522.36	4.87
522.706	4.89
523.052	4.89
523.398	4.89
523.743	4.88
524.089	4.88
524.435	4.89
524.781	4.91
525.126	4.93
525.472	4.94
525.817	4.94
526.163	4.93
526.509	4.93
526.854	4.94
527.199	4.95
527.545	4.95
527.89	4.94
528.235	4.95
528.581	4.96
528.926	4.96
529.271	4.95
529.616	4.96
529.961	4.95
530.306	4.95
530.651	4.95
530.996	4.96
531.341	4.95
531.686	4.94
532.031	4.94
532.376	4.94
532.721	4.93
533.065	4.93
533.41	4.93
533.755	4.93
534.099	4.92
534.444	4.92
534.788	4.93
535.133	4.93
535.477	4.94
535.822	4.95
536.166	4.95
536.51	4.95
536.855	4.95
537.199	4.97
537.543	4.99
537.887	5.02
538.231	5.02
538.576	5.03
538.92	5.04
539.264	5.04
539.608	5.04
539.951	5.05
540.295	5.05
540.639	5.07
540.983	5.07
541.327	5.07
541.671	5.06
542.014	5.07
542.358	5.08
542.701	5.07
543.045	5.07
543.389	5.08
543.732	5.09
544.075	5.1
544.419	5.1
544.762	5.08
545.105	5.05
545.449	5.05
545.792	5.05
546.135	5.04
546.478	5.04
546.821	5.03
547.165	5.03
547.508	5.04
547.851	5.03
548.194	5.04
548.536	5.03
548.879	5.04
549.222	5.03
549.565	5.02
549.908	5.03
550.25	5.04
550.593	5.02
550.936	4.99
551.278	5
551.621	5.01
551.963	5.03
552.306	5.07
552.648	5.07
552.991	5.1
553.333	5.1
553.675	5.07
554.017	5.1
554.36	5.1
554.702	5.09
555.044	5.09
555.386	5.1
555.728	5.11
556.07	5.11
556.412	5.1
556.754	5.1
557.096	5.09
557.438	5.06
557.78	5.09
558.121	5.11
558.463	5.11
558.805	5.09
559.147	5.07
559.488	5.04
559.83	5.01
560.171	5
560.513	4.99
560.854	5.03
561.196	5.01
561.537	5.02
561.878	5
562.22	4.99
562.561	5.01
562.902	4.99
563.243	4.99
563.584	4.99
563.925	5.03
564.266	5.04
564.607	5.06
564.948	5.03
565.289	5.05
565.63	5.04
565.971	5.02
566.312	5.03
566.653	5.04
566.993	5.06
567.334	5.06
567.675	5.09
568.015	5.1
568.356	5.11
568.696	5.15
569.037	5.17
569.377	5.19
569.718	5.19
570.058	5.21
570.398	5.2
570.739	5.22
571.079	5.21
571.419	5.21
571.759	5.22
572.099	5.23
572.439	5.2
572.779	5.22
573.119	5.25
573.459	5.28
573.799	5.28
574.139	5.25
574.479	5.27
574.819	5.28
575.158	5.28
575.498	5.29
575.838	5.26
576.177	5.26
576.517	5.26
576.856	5.25
577.196	5.24
577.535	5.26
577.875	5.22
578.214	5.2
578.553	5.19
578.893	5.15
579.232	5.14
579.571	5.17
579.91	5.14
580.25	5.12
580.589	5.08
580.928	5.11
581.267	5.12
581.606	5.1
581.945	5.09
582.283	5.06
582.622	5.02
582.961	5
583.3	5
583.639	4.99
583.977	4.97
584.316	4.95
584.654	4.95
584.993	4.97
585.332	4.98
585.67	4.99
586.008	5.01
586.347	5.03
586.685	5.03
587.024	5.05
587.362	5.07
587.7	5.09
588.038	5.08
588.376	5.11
588.715	5.13
589.053	5.14
589.391	5.18
589.729	5.19
590.067	5.16
590.404	5.17
590.742	5.15
591.08	5.15
591.418	5.16
591.756	5.16
592.093	5.18
592.431	5.24
592.769	5.25
593.106	5.23
593.444	5.2
593.781	5.17
594.119	5.19
594.456	5.16
594.793	5.16
595.131	5.17
595.468	5.18
595.805	5.16
596.143	5.13
596.48	5.11
596.817	5.11
597.154	5.16
597.491	5.16
597.828	5.2
598.165	5.19
598.502	5.18
598.839	5.15
599.176	5.13
599.512	5.06
599.849	5.07
600.186	5.05
600.523	5.07
600.859	5.14
601.196	5.14
601.532	5.17
601.869	5.16
602.205	5.16
602.542	5.18
602.878	5.16
603.215	5.18
603.551	5.19
603.887	5.22
604.223	5.18
604.56	5.19
604.896	5.16
605.232	5.21
605.568	5.23
605.904	5.26
606.24	5.31
606.576	5.35
606.912	5.38
607.248	5.43
607.583	5.44
607.919	5.4
608.255	5.37
608.591	5.4
608.926	5.44
609.262	5.46
609.597	5.47
609.933	5.5
610.268	5.52
610.604	5.55
610.939	5.54
611.275	5.56
611.61	5.53
611.945	5.56
612.281	5.51
612.616	5.52
612.951	5.54
613.286	5.53
613.621	5.52
613.956	5.49
614.291	5.49
614.626	5.52
614.961	5.5
615.296	5.48
615.631	5.44
615.966	5.42
616.3	5.38
616.635	5.34
616.97	5.33
617.304	5.34
617.639	5.34
617.973	5.34
618.308	5.33
618.642	5.38
618.977	5.37
619.311	5.4
619.646	5.4
619.98	5.38
620.314	5.37
620.648	5.4
620.983	5.42
621.317	5.42
621.651	5.38
621.985	5.41
622.319	5.48
622.653	5.53
622.987	5.57
623.321	5.57
623.655	5.57
623.988	5.56
624.322	5.53
624.656	5.5
624.99	5.52
625.323	5.48
625.657	5.47
625.99	5.49
626.324	5.47
626.657	5.47
626.991	5.45
627.324	5.42
627.658	5.42
627.991	5.41
628.324	5.41
628.657	5.41
628.991	5.43
629.324	5.43
629.657	5.4
629.99	5.39
630.323	5.39
630.656	5.42
630.989	5.45
631.322	5.46
631.655	5.47
631.987	5.48
632.32	5.5
632.653	5.48
632.986	5.5
633.318	5.5
633.651	5.51
633.984	5.52
634.316	5.52
634.649	5.52
634.981	5.52
635.313	5.48
635.646	5.51
635.978	5.44
636.31	5.41
636.643	5.41
636.975	5.35
637.307	5.33
637.639	5.33
637.971	5.29
638.303	5.29
638.635	5.25
638.967	5.27
639.299	5.3
639.631	5.31
639.963	5.28
640.295	5.36
640.626	5.32
640.958	5.34
641.29	5.39
641.621	5.39
641.953	5.34
642.285	5.31
642.616	5.37
642.948	5.46
643.279	5.44
643.61	5.43
643.942	5.45
644.273	5.5
644.604	5.5
644.936	5.49
645.267	5.43
645.598	5.51
645.929	5.51
646.26	5.54
646.591	5.57
646.922	5.59
647.253	5.58
647.584	5.59
647.915	5.59
648.245	5.5
648.576	5.52
648.907	5.57
649.238	5.6
649.568	5.6
649.899	5.55
650.229	5.65
650.56	5.66
650.89	5.66
651.221	5.66
651.551	5.62
651.882	5.65
652.212	5.72
652.542	5.65
652.872	5.61
653.203	5.57
653.533	5.6
653.863	5.51
654.193	5.46
654.523	5.47
654.853	5.55
655.183	5.52
655.513	5.51
655.843	5.51
656.172	5.49
656.502	5.51
656.832	5.54
657.162	5.53
657.491	5.55
657.821	5.56
658.15	5.52
658.48	5.55
658.809	5.53
659.139	5.56
659.468	5.61
659.798	5.66
660.127	5.69
660.456	5.69
660.785	5.76
661.115	5.86
661.444	5.87
661.773	5.82
662.102	5.91
662.431	5.88
662.76	5.9
663.089	5.98
663.418	5.89
663.747	5.87
664.076	5.87
664.404	5.87
664.733	5.84
665.062	5.9
665.39	5.94
665.719	5.99
666.048	6.02
666.376	6.06
666.705	6.02
667.033	5.97
667.362	6.02
667.69	6
668.018	5.87
668.347	5.94
668.675	5.95
669.003	5.87
669.331	5.97
669.659	6.02
669.987	5.99
670.315	6.08
670.643	6.13
670.971	6.09
671.299	6.13
671.627	6.16
671.955	6.11
672.283	6.09
672.61	6.07
672.938	6.03
673.266	6.01
673.593	6.12
673.921	6.2
674.249	6.09
674.576	6.14
674.904	6.15
675.231	6.12
675.558	6.14
675.886	6.22
676.213	6.23
676.54	6.18
