Data from BA28308_Reflection_00007.txt Node
Date: Mon Nov 18 15:38:53 EST 2019
User: vgr7
Spectrometer: USB2G7710
Scans to average: 3
Trigger mode: 4
Integration Time (sec): 2.000000E-2
Electric dark correction enabled: true
Boxcar width: 10
XAxis mode: Wavelengths
Number of Pixels in Spectrum: 2048
>>>>>Begin Spectral Data<<<<<
177.721	-31.97
178.105	-23.84
178.488	-9.93
178.871	-32.31
179.254	-6.84
179.636	-212.5
180.019	-115.01
180.402	252.94
180.785	32.98
181.168	18.9
181.55	151.69
181.933	93.26
182.316	89.04
182.698	121.58
183.081	98.36
183.463	112.98
183.846	156.31
184.228	179.83
184.611	174.72
184.993	249.38
185.376	230.48
185.758	410.12
186.14	820.76
186.522	496.42
186.904	418.7
187.287	458.47
187.669	604.54
188.051	810.18
188.433	-1047.45
188.815	-250.11
189.197	-248.03
189.579	-234.38
189.961	-134.76
190.342	-133.84
190.724	-101.5
191.106	-99.47
191.488	-105.07
191.869	-98.5
192.251	-116.79
192.633	-99.45
193.014	-127
193.396	-226.77
193.777	-269.69
194.159	-275.67
194.54	-147.49
194.922	-148.26
195.303	-152.79
195.684	-133.24
196.065	-110.18
196.447	-95.36
196.828	-103.17
197.209	-87.95
197.59	-98.13
197.971	-150.96
198.352	-105.23
198.733	-181.27
199.114	-196.96
199.495	-144.66
199.876	-102.71
200.257	-87.03
200.638	-59.6
201.018	-87.05
201.399	-32.88
201.78	-37.84
202.16	-61.34
202.541	-134.3
202.922	-171.88
203.302	-142.77
203.683	-127.55
204.063	-308.66
204.444	-446.95
204.824	-554.99
205.204	-1465.96
205.585	-45614.29
205.965	4376.92
206.345	355.09
206.725	307.73
207.106	237.84
207.486	241.5
207.866	233.16
208.246	302.65
208.626	306.22
209.006	803.8
209.386	635.34
209.766	538.45
210.145	614.19
210.525	-8872.97
210.905	-410.4
211.285	-1039.62
211.664	-1447.74
212.044	-656.63
212.424	-224.55
212.803	-225.31
213.183	-64.77
213.562	-54.17
213.942	-33.08
214.321	-28.06
214.701	-45.45
215.08	-48.57
215.459	-48.98
215.838	-61.43
216.218	-52.5
216.597	-39.83
216.976	-54.06
217.355	-33.47
217.734	-33.31
218.113	-25.08
218.492	-30.38
218.871	-47.47
219.25	-39.7
219.629	-56.85
220.008	-63.77
220.387	-70.07
220.766	-82.87
221.144	-143.08
221.523	-190.2
221.902	-248.06
222.28	-290.77
222.659	-249.69
223.037	-99.77
223.416	-84.34
223.794	-78.47
224.173	-82.27
224.551	-66.02
224.929	-52
225.308	-45.89
225.686	-40.6
226.064	-28.27
226.442	-28.16
226.821	-19.66
227.199	-20.31
227.577	-19.93
227.955	-19.08
228.333	-19.86
228.711	-14.15
229.089	-8.56
229.467	-7.98
229.845	-8
230.222	-7.7
230.6	-7.56
230.978	-7
231.356	-2.15
231.733	-0.87
232.111	3.85
232.488	3.84
232.866	4.06
233.243	4.04
233.621	3.7
233.998	2.89
234.376	4.11
234.753	4.59
235.13	5.46
235.508	6.47
235.885	5.95
236.262	5.01
236.639	3.65
237.016	2.85
237.393	4.33
237.77	5.19
238.147	5.69
238.524	6.65
238.901	6.93
239.278	6.41
239.655	6.75
240.032	5.77
240.409	4.97
240.785	4.56
241.162	4.26
241.539	4.11
241.915	4.5
242.292	4.19
242.668	4.26
243.045	4.04
243.421	4.14
243.798	4.55
244.174	4.77
244.551	4.84
244.927	4.74
245.303	4.56
245.679	4.51
246.056	4.34
246.432	4.19
246.808	4.11
247.184	3.81
247.56	3.45
247.936	3.44
248.312	3.73
248.688	3.78
249.064	3.73
249.44	3.74
249.815	3.55
250.191	3.65
250.567	3.6
250.943	3.73
251.318	3.69
251.694	3.46
252.069	3.27
252.445	3.22
252.82	3.24
253.196	3.42
253.571	3.22
253.947	3.03
254.322	3.17
254.697	2.9
255.073	2.84
255.448	3.31
255.823	3.19
256.198	3.28
256.573	3.26
256.948	3.56
257.323	3.69
257.698	3.75
258.073	3.72
258.448	3.75
258.823	3.66
259.198	3.7
259.573	3.78
259.948	3.72
260.322	3.8
260.697	3.77
261.072	3.67
261.446	3.6
261.821	3.71
262.195	3.61
262.57	3.68
262.944	3.68
263.319	3.51
263.693	3.62
264.067	3.48
264.442	3.58
264.816	3.42
265.19	3.25
265.564	3.35
265.938	3.33
266.313	3.32
266.687	3.42
267.061	3.47
267.435	3.46
267.809	3.53
268.183	3.62
268.556	3.58
268.93	3.53
269.304	3.65
269.678	3.83
270.051	3.81
270.425	3.69
270.799	3.81
271.172	3.88
271.546	3.77
271.919	3.7
272.293	3.6
272.666	3.67
273.04	3.55
273.413	3.33
273.787	3.34
274.16	3.23
274.533	3.2
274.906	3.11
275.279	3
275.653	3.1
276.026	2.91
276.399	2.96
276.772	3.05
277.145	2.94
277.518	2.87
277.891	2.96
278.263	3.02
278.636	3.13
279.009	3.26
279.382	3.41
279.755	3.57
280.127	3.81
280.5	3.8
280.872	4.13
281.245	4.18
281.617	4.29
281.99	4.42
282.362	4.29
282.735	4.28
283.107	4.35
283.479	4.43
283.852	4.44
284.224	4.33
284.596	4.39
284.968	4.44
285.34	4.4
285.713	4.31
286.085	4.4
286.457	4.35
286.829	4.37
287.201	4.35
287.572	4.1
287.944	3.91
288.316	3.98
288.688	3.87
289.06	3.97
289.431	3.93
289.803	3.94
290.175	4.06
290.546	4.21
290.918	4.23
291.289	4.26
291.661	4.36
292.032	4.44
292.403	4.36
292.775	4.46
293.146	4.41
293.517	4.46
293.889	4.52
294.26	4.54
294.631	4.42
295.002	4.4
295.373	4.62
295.744	4.77
296.115	4.65
296.486	4.58
296.857	4.56
297.228	4.47
297.599	4.35
297.97	4.42
298.34	4.38
298.711	4.43
299.082	4.33
299.452	4.29
299.823	4.41
300.194	4.48
300.564	4.52
300.935	4.7
301.305	4.78
301.676	4.78
302.046	4.87
302.416	5.02
302.787	5.11
303.157	5.17
303.527	5.19
303.897	5.24
304.267	5.51
304.637	5.68
305.008	5.92
305.378	6.12
305.748	6.09
306.117	6.09
306.487	6.12
306.857	6.21
307.227	6.28
307.597	6.26
307.967	6.34
308.336	6.3
308.706	6.29
309.076	6.34
309.445	6.34
309.815	6.35
310.184	6.3
310.554	6.35
310.923	6.3
311.293	6.38
311.662	6.46
312.031	6.3
312.401	6.28
312.77	6.33
313.139	6.3
313.508	6.3
313.877	6.31
314.246	6.35
314.616	6.32
314.985	6.43
315.353	6.43
315.722	6.5
316.091	6.51
316.46	6.54
316.829	6.56
317.198	6.77
317.567	6.78
317.935	6.75
318.304	6.7
318.672	6.79
319.041	6.75
319.41	6.87
319.778	6.99
320.147	7
320.515	6.88
320.883	6.86
321.252	7.03
321.62	7.12
321.988	7.16
322.357	7.42
322.725	7.34
323.093	7.45
323.461	7.45
323.829	7.57
324.197	7.6
324.565	7.6
324.933	7.65
325.301	7.72
325.669	7.95
326.037	8.11
326.405	8.14
326.772	8.26
327.14	8.29
327.508	8.39
327.875	8.3
328.243	8.45
328.61	8.67
328.978	8.67
329.346	8.77
329.713	8.72
330.08	8.68
330.448	8.82
330.815	8.77
331.182	8.76
331.55	8.73
331.917	8.79
332.284	8.85
332.651	8.69
333.018	8.69
333.385	8.62
333.752	8.62
334.119	8.8
334.486	8.64
334.853	8.71
335.22	8.67
335.587	8.88
335.954	8.82
336.32	8.7
336.687	8.78
337.054	8.68
337.42	8.82
337.787	8.89
338.153	8.87
338.52	8.89
338.886	8.82
339.253	8.86
339.619	8.85
339.986	8.86
340.352	8.93
340.718	8.99
341.084	8.87
341.451	8.95
341.817	8.96
342.183	9.19
342.549	9.16
342.915	9.25
343.281	9.27
343.647	9.29
344.013	9.36
344.379	9.31
344.745	9.51
345.11	9.53
345.476	9.48
345.842	9.57
346.208	9.63
346.573	9.81
346.939	9.98
347.304	10
347.67	9.99
348.035	9.99
348.401	10.06
348.766	10.27
349.132	10.24
349.497	10.16
349.862	10.14
350.228	10.15
350.593	10.1
350.958	10.05
351.323	10.09
351.688	10.16
352.053	10.2
352.418	10.21
352.783	10.25
353.148	10.26
353.513	10.23
353.878	10.27
354.243	10.33
354.608	10.29
354.972	10.32
355.337	10.44
355.702	10.54
356.066	10.52
356.431	10.51
356.795	10.53
357.16	10.49
357.524	10.46
357.889	10.42
358.253	10.5
358.618	10.5
358.982	10.49
359.346	10.47
359.71	10.42
360.075	10.35
360.439	10.3
360.803	10.28
361.167	10.27
361.531	10.27
361.895	10.19
362.259	10.15
362.623	10.13
362.987	10.09
363.351	10.03
363.714	10.01
364.078	9.93
364.442	9.9
364.806	9.9
365.169	9.87
365.533	9.88
365.896	9.8
366.26	9.78
366.623	9.8
366.987	9.76
367.35	9.82
367.714	9.81
368.077	9.78
368.44	9.73
368.803	9.71
369.167	9.58
369.53	9.53
369.893	9.54
370.256	9.52
370.619	9.5
370.982	9.44
371.345	9.37
371.708	9.35
372.071	9.23
372.434	9.18
372.797	9.21
373.159	9.14
373.522	9.13
373.885	9.15
374.247	9.09
374.61	9.04
374.973	8.96
375.335	8.89
375.698	8.93
376.06	8.89
376.423	8.74
376.785	8.78
377.147	8.78
377.51	8.66
377.872	8.66
378.234	8.6
378.596	8.6
378.958	8.56
379.321	8.53
379.683	8.55
380.045	8.54
380.407	8.39
380.769	8.38
381.13	8.27
381.492	8.13
381.854	8.07
382.216	8
382.578	7.93
382.939	7.88
383.301	7.76
383.663	7.67
384.024	7.64
384.386	7.56
384.747	7.51
385.109	7.47
385.47	7.38
385.832	7.33
386.193	7.25
386.554	7.18
386.916	7.12
387.277	7.09
387.638	7.04
387.999	7
388.36	6.97
388.721	6.98
389.082	6.98
389.443	6.93
389.804	6.9
390.165	6.84
390.526	6.83
390.887	6.81
391.248	6.84
391.609	6.81
391.969	6.78
392.33	6.74
392.691	6.7
393.051	6.65
393.412	6.66
393.772	6.62
394.133	6.63
394.493	6.59
394.854	6.54
395.214	6.48
395.574	6.46
395.935	6.43
396.295	6.4
396.655	6.34
397.015	6.32
397.376	6.25
397.736	6.25
398.096	6.17
398.456	6.1
398.816	6.05
399.176	6.02
399.535	5.98
399.895	5.89
400.255	5.87
400.615	5.82
400.975	5.72
401.334	5.68
401.694	5.6
402.054	5.56
402.413	5.51
402.773	5.44
403.132	5.41
403.492	5.36
403.851	5.33
404.211	5.3
404.57	5.22
404.929	5.23
405.288	5.19
405.648	5.16
406.007	5.14
406.366	5.12
406.725	5.12
407.084	5.07
407.443	5.05
407.802	5.02
408.161	4.98
408.52	4.96
408.879	4.95
409.238	4.93
409.596	4.91
409.955	4.92
410.314	4.95
410.673	4.9
411.031	4.87
411.39	4.85
411.748	4.82
412.107	4.85
412.465	4.84
412.824	4.81
413.182	4.78
413.54	4.73
413.899	4.7
414.257	4.67
414.615	4.65
414.974	4.66
415.332	4.63
415.69	4.61
416.048	4.57
416.406	4.56
416.764	4.53
417.122	4.51
417.48	4.46
417.838	4.45
418.195	4.43
418.553	4.41
418.911	4.38
419.269	4.38
419.626	4.35
419.984	4.33
420.342	4.33
420.699	4.32
421.057	4.32
421.414	4.29
421.772	4.28
422.129	4.28
422.486	4.25
422.844	4.25
423.201	4.25
423.558	4.23
423.915	4.21
424.273	4.23
424.63	4.21
424.987	4.19
425.344	4.18
425.701	4.16
426.058	4.15
426.415	4.13
426.772	4.12
427.128	4.11
427.485	4.08
427.842	4.06
428.199	4.05
428.555	4.05
428.912	4.05
429.269	4.03
429.625	4.02
429.982	4
430.338	3.97
430.695	3.94
431.051	3.95
431.407	3.94
431.764	3.91
432.12	3.9
432.476	3.9
432.832	3.88
433.189	3.88
433.545	3.87
433.901	3.88
434.257	3.87
434.613	3.87
434.969	3.88
435.325	3.88
435.681	3.88
436.036	3.89
436.392	3.9
436.748	3.89
437.104	3.9
437.459	3.89
437.815	3.9
438.171	3.91
438.526	3.91
438.882	3.9
439.237	3.91
439.593	3.92
439.948	3.91
440.304	3.9
440.659	3.91
441.014	3.91
441.369	3.9
441.725	3.9
442.08	3.9
442.435	3.9
442.79	3.87
443.145	3.88
443.5	3.85
443.855	3.82
444.21	3.82
444.565	3.81
444.92	3.82
445.275	3.79
445.629	3.78
445.984	3.77
446.339	3.75
446.693	3.72
447.048	3.71
447.403	3.71
447.757	3.69
448.112	3.68
448.466	3.67
448.82	3.66
449.175	3.66
449.529	3.62
449.883	3.6
450.238	3.59
450.592	3.57
450.946	3.54
451.3	3.53
451.654	3.51
452.008	3.51
452.362	3.49
452.716	3.49
453.07	3.49
453.424	3.48
453.778	3.48
454.132	3.5
454.486	3.51
454.839	3.5
455.193	3.5
455.547	3.5
455.9	3.51
456.254	3.51
456.607	3.5
456.961	3.52
457.314	3.54
457.668	3.55
458.021	3.54
458.375	3.55
458.728	3.56
459.081	3.56
459.434	3.57
459.787	3.6
460.141	3.61
460.494	3.62
460.847	3.64
461.2	3.63
461.553	3.63
461.906	3.64
462.259	3.65
462.611	3.67
462.964	3.68
463.317	3.68
463.67	3.69
464.022	3.68
464.375	3.67
464.728	3.68
465.08	3.7
465.433	3.71
465.785	3.73
466.138	3.74
466.49	3.77
466.843	3.75
467.195	3.75
467.547	3.76
467.899	3.75
468.252	3.76
468.604	3.8
468.956	3.82
469.308	3.83
469.66	3.83
470.012	3.81
470.364	3.83
470.716	3.85
471.068	3.85
471.42	3.88
471.772	3.92
472.123	3.91
472.475	3.92
472.827	3.92
473.178	3.93
473.53	3.94
473.882	3.93
474.233	3.96
474.585	3.96
474.936	3.95
475.288	3.95
475.639	3.94
475.99	3.93
476.342	3.92
476.693	3.91
477.044	3.92
477.395	3.94
477.746	3.92
478.097	3.91
478.448	3.91
478.8	3.9
479.15	3.87
479.501	3.87
479.852	3.85
480.203	3.85
480.554	3.86
480.905	3.86
481.255	3.85
481.606	3.86
481.957	3.87
482.307	3.87
482.658	3.87
483.009	3.87
483.359	3.87
483.709	3.88
484.06	3.87
484.41	3.88
484.761	3.87
485.111	3.88
485.461	3.89
485.811	3.89
486.162	3.89
486.512	3.9
486.862	3.9
487.212	3.91
487.562	3.91
487.912	3.91
488.262	3.91
488.612	3.91
488.961	3.91
489.311	3.91
489.661	3.92
490.011	3.93
490.36	3.94
490.71	3.95
491.06	3.95
491.409	3.97
491.759	3.98
492.108	3.99
492.458	4
492.807	4
493.157	4.03
493.506	4.06
493.855	4.07
494.204	4.09
494.554	4.12
494.903	4.15
495.252	4.16
495.601	4.19
495.95	4.23
496.299	4.26
496.648	4.29
496.997	4.31
497.346	4.33
497.695	4.36
498.043	4.4
498.392	4.42
498.741	4.46
499.09	4.47
499.438	4.51
499.787	4.56
500.135	4.58
500.484	4.6
500.832	4.63
501.181	4.7
501.529	4.76
501.878	4.81
502.226	4.86
502.574	4.91
502.923	4.95
503.271	4.98
503.619	5.04
503.967	5.1
504.315	5.14
504.663	5.2
505.011	5.27
505.359	5.32
505.707	5.43
506.055	5.48
506.403	5.57
506.751	5.62
507.098	5.67
507.446	5.77
507.794	5.85
508.141	5.93
508.489	5.99
508.837	6.07
509.184	6.13
509.531	6.21
509.879	6.29
510.226	6.37
510.574	6.46
510.921	6.52
511.268	6.6
511.616	6.68
511.963	6.75
512.31	6.84
512.657	6.93
513.004	6.98
513.351	7.08
513.698	7.16
514.045	7.27
514.392	7.36
514.739	7.44
515.086	7.53
515.432	7.61
515.779	7.68
516.126	7.76
516.473	7.86
516.819	7.96
517.166	8.04
517.512	8.14
517.859	8.24
518.205	8.34
518.552	8.41
518.898	8.51
519.245	8.63
519.591	8.7
519.937	8.77
520.283	8.87
520.629	8.99
520.976	9.13
521.322	9.24
521.668	9.36
522.014	9.49
522.36	9.62
522.706	9.78
523.052	9.95
523.398	10.13
523.743	10.29
524.089	10.47
524.435	10.63
524.781	10.82
525.126	10.97
525.472	11.14
525.817	11.25
526.163	11.37
526.509	11.49
526.854	11.62
527.199	11.75
527.545	11.86
527.89	11.95
528.235	12.06
528.581	12.18
528.926	12.31
529.271	12.46
529.616	12.59
529.961	12.71
530.306	12.84
530.651	12.96
530.996	13.11
531.341	13.25
531.686	13.42
532.031	13.58
532.376	13.75
532.721	13.91
533.065	14.12
533.41	14.32
533.755	14.52
534.099	14.72
534.444	14.92
534.788	15.14
535.133	15.36
535.477	15.57
535.822	15.79
536.166	16.05
536.51	16.31
536.855	16.61
537.199	16.91
537.543	17.23
537.887	17.56
538.231	17.86
538.576	18.2
538.92	18.5
539.264	18.79
539.608	19.08
539.951	19.37
540.295	19.63
540.639	19.89
540.983	20.16
541.327	20.41
541.671	20.66
542.014	20.92
542.358	21.18
542.701	21.42
543.045	21.68
543.389	21.91
543.732	22.17
544.075	22.42
544.419	22.71
544.762	22.99
545.105	23.27
545.449	23.59
545.792	23.89
546.135	24.2
546.478	24.56
546.821	24.93
547.165	25.28
547.508	25.69
547.851	26.08
548.194	26.46
548.536	26.85
548.879	27.24
549.222	27.63
549.565	28
549.908	28.46
550.25	28.89
550.593	29.32
550.936	29.72
551.278	30.07
551.621	30.43
551.963	30.8
552.306	31.19
552.648	31.55
552.991	31.93
553.333	32.27
553.675	32.66
554.017	32.99
554.36	33.33
554.702	33.65
555.044	33.98
555.386	34.32
555.728	34.67
556.07	34.99
556.412	35.32
556.754	35.71
557.096	36.03
557.438	36.33
557.78	36.71
558.121	37.11
558.463	37.53
558.805	37.89
559.147	38.22
559.488	38.51
559.83	38.86
560.171	39.15
560.513	39.61
560.854	39.85
561.196	40.22
561.537	40.59
561.878	40.88
562.22	41.14
562.561	41.45
562.902	41.76
563.243	42.04
563.584	42.33
563.925	42.57
564.266	42.81
564.607	43.07
564.948	43.29
565.289	43.48
565.63	43.69
565.971	43.88
566.312	44.17
566.653	44.45
566.993	44.65
567.334	44.91
567.675	45.07
568.015	45.33
568.356	45.55
568.696	45.71
569.037	45.92
569.377	46.19
569.718	46.42
570.058	46.61
570.398	46.82
570.739	47.03
571.079	47.27
571.419	47.55
571.759	47.8
572.099	47.99
572.439	48.2
572.779	48.4
573.119	48.65
573.459	48.81
573.799	49.03
574.139	49.22
574.479	49.41
574.819	49.58
575.158	49.71
575.498	49.88
575.838	50.08
576.177	50.22
576.517	50.4
576.856	50.57
577.196	50.73
577.535	50.9
577.875	51.1
578.214	51.25
578.553	51.39
578.893	51.54
579.232	51.71
579.571	51.85
579.91	52.01
580.25	52.18
580.589	52.31
580.928	52.42
581.267	52.66
581.606	52.79
581.945	52.92
582.283	53.12
582.622	53.22
582.961	53.35
583.3	53.48
583.639	53.6
583.977	53.71
584.316	53.84
584.654	54
584.993	54.07
585.332	54.18
585.67	54.29
586.008	54.4
586.347	54.5
586.685	54.59
587.024	54.65
587.362	54.69
587.7	54.82
588.038	54.95
588.376	55.01
588.715	55.1
589.053	55.17
589.391	55.27
589.729	55.38
590.067	55.46
590.404	55.63
590.742	55.69
591.08	55.74
591.418	55.89
591.756	56.03
592.093	56.11
592.431	56.1
592.769	56.17
593.106	56.31
593.444	56.34
593.781	56.49
594.119	56.57
594.456	56.72
594.793	56.77
595.131	56.84
595.468	56.89
595.805	56.91
596.143	57.04
596.48	57.06
596.817	57.08
597.154	57.18
597.491	57.2
597.828	57.26
598.165	57.31
598.502	57.34
598.839	57.43
599.176	57.54
599.512	57.66
599.849	57.64
600.186	57.69
600.523	57.78
600.859	57.83
601.196	57.95
601.532	57.95
601.869	58
602.205	58.03
602.542	58.07
602.878	58.15
603.215	58.18
603.551	58.29
603.887	58.38
604.223	58.49
604.56	58.61
604.896	58.68
605.232	58.75
605.568	58.78
605.904	58.83
606.24	58.89
606.576	58.94
606.912	59.05
607.248	59.08
607.583	59.13
607.919	59.17
608.255	59.16
608.591	59.2
608.926	59.3
609.262	59.37
609.597	59.43
609.933	59.52
610.268	59.51
610.604	59.53
610.939	59.52
611.275	59.45
611.61	59.48
611.945	59.55
612.281	59.57
612.616	59.67
612.951	59.65
613.286	59.62
613.621	59.71
613.956	59.75
614.291	59.71
614.626	59.83
614.961	59.85
615.296	59.86
615.631	59.92
615.966	59.91
616.3	60
616.635	60.08
616.97	60.14
617.304	60.24
617.639	60.23
617.973	60.38
618.308	60.46
618.642	60.4
618.977	60.39
619.311	60.4
619.646	60.45
619.98	60.56
620.314	60.63
620.648	60.6
620.983	60.66
621.317	60.78
621.651	60.85
621.985	60.89
622.319	60.94
622.653	61.08
622.987	61.2
623.321	61.15
623.655	61.2
623.988	61.26
624.322	61.29
624.656	61.39
624.99	61.35
625.323	61.37
625.657	61.44
625.99	61.47
626.324	61.56
626.657	61.54
626.991	61.46
627.324	61.48
627.658	61.48
627.991	61.5
628.324	61.58
628.657	61.42
628.991	61.45
629.324	61.5
629.657	61.38
629.99	61.38
630.323	61.46
630.656	61.38
630.989	61.33
631.322	61.41
631.655	61.4
631.987	61.48
632.32	61.5
632.653	61.51
632.986	61.51
633.318	61.51
633.651	61.47
633.984	61.52
634.316	61.52
634.649	61.57
634.981	61.65
635.313	61.64
635.646	61.75
635.978	61.73
636.31	61.8
636.643	61.93
636.975	61.9
637.307	61.84
637.639	61.91
637.971	61.95
638.303	61.85
638.635	61.8
638.967	61.8
639.299	61.89
639.631	61.87
639.963	61.94
640.295	61.95
640.626	62.09
640.958	62.05
641.29	62.18
641.621	62.29
641.953	62.19
642.285	62.2
642.616	62.28
642.948	62.28
643.279	62.27
643.61	62.3
643.942	62.42
644.273	62.51
644.604	62.46
644.936	62.46
645.267	62.58
645.598	62.72
645.929	62.72
646.26	62.71
646.591	62.73
646.922	62.78
647.253	62.8
647.584	62.68
647.915	62.8
648.245	62.66
648.576	62.68
648.907	62.74
649.238	62.68
649.568	62.59
649.899	62.67
650.229	62.61
650.56	62.64
650.89	62.63
651.221	62.69
651.551	62.78
651.882	62.79
652.212	62.8
652.542	62.75
652.872	62.83
653.203	62.77
653.533	62.85
653.863	62.78
654.193	62.82
654.523	62.96
654.853	62.99
655.183	63.14
655.513	63.11
655.843	63.12
656.172	63.13
656.502	63.18
656.832	63.19
657.162	63.26
657.491	63.27
657.821	63.27
658.15	63.19
658.48	63.15
658.809	63.17
659.139	63.14
659.468	63.25
659.798	63.13
660.127	63.17
660.456	63.1
660.785	63.15
661.115	63.14
661.444	63.02
661.773	63.02
662.102	62.98
662.431	63.01
662.76	63.02
663.089	63.02
663.418	63.04
663.747	62.9
664.076	62.97
664.404	62.94
664.733	62.93
665.062	62.99
665.39	63.02
