Data from BA28308_Reflection_00014.txt Node
Date: Mon Nov 18 15:39:12 EST 2019
User: vgr7
Spectrometer: USB2G7710
Scans to average: 3
Trigger mode: 4
Integration Time (sec): 2.000000E-2
Electric dark correction enabled: true
Boxcar width: 10
XAxis mode: Wavelengths
Number of Pixels in Spectrum: 2048
>>>>>Begin Spectral Data<<<<<
177.721	38.21
178.105	50.46
178.488	12.22
178.871	-44.85
179.254	-21.87
179.636	-51.79
180.019	126.88
180.402	135.29
180.785	12.41
181.168	26.42
181.55	38.37
181.933	74.32
182.316	71.43
182.698	70.08
183.081	74.95
183.463	90.51
183.846	109.2
184.228	102.73
184.611	105.01
184.993	164.54
185.376	227.68
185.758	287.91
186.14	598.81
186.522	393.59
186.904	309.54
187.287	328.68
187.669	511.98
188.051	959.01
188.433	-765.95
188.815	-179.94
189.197	-167.32
189.579	-205.99
189.961	-115.45
190.342	-121.52
190.724	-106.84
191.106	-84.37
191.488	-71.53
191.869	-77.71
192.251	-108.11
192.633	-91.24
193.014	-111.19
193.396	-145.34
193.777	-158
194.159	-182.13
194.54	-88.46
194.922	-58.84
195.303	-63.02
195.684	-55.37
196.065	-37.35
196.447	-61.08
196.828	-94.64
197.209	-73.86
197.59	-104.8
197.971	-142.74
198.352	-74.08
198.733	-152.11
199.114	-164.97
199.495	-151.29
199.876	-124.02
200.257	-67.74
200.638	-46.13
201.018	-72.11
201.399	-57.79
201.78	-64.48
202.16	-103.77
202.541	-157.59
202.922	-235.6
203.302	-233.8
203.683	-224.19
204.063	-410.15
204.444	-481.55
204.824	-434.15
205.204	-1172.34
205.585	-23757.14
205.965	1930.77
206.345	228.9
206.725	158.56
207.106	165.47
207.486	152.43
207.866	165.29
208.246	211.46
208.626	208.42
209.006	553.16
209.386	387.22
209.766	442.33
210.145	378.8
210.525	-5710.81
210.905	-214.84
211.285	-258.49
211.664	-136.18
212.044	-85.54
212.424	-6.43
212.803	-60.73
213.183	-0.59
213.562	-24.09
213.942	-14.72
214.321	-11
214.701	-15.77
215.08	-2.63
215.459	-9.4
215.838	6.59
216.218	12.76
216.597	11.77
216.976	3.89
217.355	16.28
217.734	28.07
218.113	23.83
218.492	21.72
218.871	8.06
219.25	-2.11
219.629	-16.96
220.008	-21.09
220.387	-44.65
220.766	-23.24
221.144	-26.23
221.523	-6.34
221.902	-58.4
222.28	-85.29
222.659	-48.58
223.037	-30.8
223.416	-23.43
223.794	-41.97
224.173	-35.34
224.551	-24.92
224.929	-26.37
225.308	-29.13
225.686	-21.86
226.064	-11.56
226.442	-3.42
226.821	-1
227.199	-1.44
227.577	0.86
227.955	2.83
228.333	6.46
228.711	6.63
229.089	9.06
229.467	6.83
229.845	9.19
230.222	8.3
230.6	6.43
230.978	6.25
231.356	9.28
231.733	8.54
232.111	6.22
232.488	6.95
232.866	8.24
233.243	9.23
233.621	9.56
233.998	9.16
234.376	7.6
234.753	7.37
235.13	8.38
235.508	8.39
235.885	8.09
236.262	8.42
236.639	7.68
237.016	4.3
237.393	6.15
237.77	7.08
238.147	6.57
238.524	6.7
238.901	7.06
239.278	6.69
239.655	8.42
240.032	8.91
240.409	8.42
240.785	8.81
241.162	7.88
241.539	7.18
241.915	7.29
242.292	7.07
242.668	7.1
243.045	7.08
243.421	7.03
243.798	6.67
244.174	6.46
244.551	6.45
244.927	6.69
245.303	6.44
245.679	6.28
246.056	6.68
246.432	6.5
246.808	6.48
247.184	6.28
247.56	5.76
247.936	5.66
248.312	5.59
248.688	5.49
249.064	5.55
249.44	5.35
249.815	5.49
250.191	5.62
250.567	5.59
250.943	5.38
251.318	5.27
251.694	5.35
252.069	5.34
252.445	5.36
252.82	5.39
253.196	5.58
253.571	5.54
253.947	5.39
254.322	5.73
254.697	5.75
255.073	5.83
255.448	5.96
255.823	5.81
256.198	5.92
256.573	5.8
256.948	5.92
257.323	5.98
257.698	5.8
258.073	5.77
258.448	5.59
258.823	5.6
259.198	5.63
259.573	5.56
259.948	5.53
260.322	5.42
260.697	5.3
261.072	5.23
261.446	5.21
261.821	5.17
262.195	5
262.57	4.8
262.944	4.75
263.319	4.63
263.693	4.59
264.067	4.63
264.442	4.68
264.816	4.56
265.19	4.53
265.564	4.5
265.938	4.33
266.313	4.42
266.687	4.42
267.061	4.27
267.435	4.23
267.809	4.27
268.183	4.32
268.556	4.42
268.93	4.38
269.304	4.3
269.678	4.47
270.051	4.67
270.425	4.89
270.799	4.96
271.172	4.94
271.546	4.83
271.919	4.64
272.293	4.57
272.666	4.59
273.04	4.85
273.413	4.91
273.787	5.1
274.16	5.06
274.533	5.08
274.906	5.2
275.279	5.31
275.653	5.34
276.026	5.39
276.399	5.4
276.772	5.44
277.145	5.43
277.518	5.36
277.891	5.26
278.263	5.23
278.636	5.16
279.009	5.4
279.382	5.65
279.755	5.69
280.127	5.86
280.5	5.87
280.872	5.7
281.245	5.65
281.617	5.66
281.99	5.79
282.362	5.75
282.735	5.53
283.107	5.5
283.479	5.43
283.852	5.3
284.224	5.14
284.596	5.1
284.968	5.26
285.34	5.17
285.713	5.14
286.085	5.12
286.457	5.22
286.829	5.16
287.201	5.03
287.572	5.08
287.944	4.83
288.316	4.87
288.688	4.89
289.06	4.84
289.431	4.82
289.803	4.94
290.175	4.97
290.546	5.2
290.918	5.15
291.289	5.35
291.661	5.49
292.032	5.74
292.403	5.84
292.775	5.74
293.146	5.62
293.517	5.68
293.889	5.65
294.26	5.58
294.631	5.59
295.002	5.73
295.373	5.71
295.744	5.84
296.115	5.82
296.486	5.7
296.857	5.82
297.228	5.73
297.599	5.48
297.97	5.51
298.34	5.55
298.711	5.66
299.082	5.59
299.452	5.55
299.823	5.52
300.194	5.52
300.564	5.61
300.935	5.82
301.305	5.81
301.676	5.93
302.046	6.1
302.416	6.21
302.787	6.16
303.157	6.24
303.527	6.27
303.897	6.36
304.267	6.69
304.637	6.69
305.008	6.77
305.378	6.9
305.748	6.93
306.117	6.89
306.487	6.83
306.857	6.87
307.227	7.01
307.597	7.1
307.967	7.14
308.336	7.25
308.706	7.21
309.076	7.24
309.445	7.29
309.815	7.34
310.184	7.2
310.554	7.4
310.923	7.36
311.293	7.31
311.662	7.33
312.031	7.15
312.401	7.2
312.77	7.46
313.139	7.6
313.508	7.62
313.877	7.58
314.246	7.71
314.616	7.67
314.985	7.64
315.353	7.66
315.722	7.65
316.091	7.5
316.46	7.56
316.829	7.68
317.198	7.72
317.567	7.65
317.935	7.85
318.304	7.68
318.672	7.81
319.041	7.97
319.41	7.92
319.778	8.13
320.147	8.19
320.515	8.1
320.883	7.95
321.252	8.07
321.62	8.13
321.988	8.18
322.357	8.2
322.725	8.23
323.093	8.24
323.461	8.37
323.829	8.59
324.197	8.66
324.565	8.66
324.933	8.7
325.301	8.68
325.669	8.63
326.037	8.65
326.405	8.77
326.772	8.79
327.14	9.03
327.508	8.87
327.875	8.85
328.243	8.87
328.61	8.93
328.978	8.92
329.346	8.95
329.713	9.01
330.08	9.2
330.448	9.17
330.815	9.05
331.182	8.91
331.55	8.78
331.917	8.87
332.284	9
332.651	8.98
333.018	9
333.385	9.06
333.752	9.14
334.119	9.09
334.486	9.12
334.853	9.07
335.22	9.11
335.587	9.07
335.954	9.11
336.32	9.18
336.687	9.17
337.054	9.2
337.42	9.09
337.787	9.04
338.153	9.22
338.52	9.42
338.886	9.56
339.253	9.7
339.619	9.63
339.986	9.59
340.352	9.63
340.718	9.62
341.084	9.7
341.451	9.89
341.817	9.79
342.183	9.73
342.549	9.66
342.915	9.76
343.281	9.84
343.647	9.72
344.013	9.7
344.379	9.82
344.745	9.87
345.11	10
345.476	10
345.842	9.9
346.208	9.88
346.573	9.95
346.939	9.97
347.304	9.99
347.67	9.98
348.035	9.99
348.401	10
348.766	9.93
349.132	9.83
349.497	9.93
349.862	10.04
350.228	10.13
350.593	10.08
350.958	10.08
351.323	10.15
351.688	10.2
352.053	10.15
352.418	10.07
352.783	10.04
353.148	10.06
353.513	10.1
353.878	10.09
354.243	10.03
354.608	10
354.972	10.01
355.337	10.06
355.702	10.05
356.066	10.12
356.431	10.08
356.795	10.02
357.16	9.95
357.524	9.93
357.889	9.87
358.253	9.88
358.618	9.93
358.982	9.89
359.346	9.82
359.71	9.78
360.075	9.84
360.439	9.8
360.803	9.77
361.167	9.77
361.531	9.67
361.895	9.69
362.259	9.63
362.623	9.6
362.987	9.54
363.351	9.56
363.714	9.52
364.078	9.52
364.442	9.52
364.806	9.52
365.169	9.47
365.533	9.47
365.896	9.43
366.26	9.34
366.623	9.3
366.987	9.33
367.35	9.32
367.714	9.28
368.077	9.26
368.44	9.29
368.803	9.19
369.167	9.26
369.53	9.2
369.893	9.22
370.256	9.18
370.619	9.15
370.982	9.09
371.345	9.02
371.708	8.98
372.071	8.89
372.434	8.86
372.797	8.88
373.159	8.84
373.522	8.87
373.885	8.86
374.247	8.83
374.61	8.76
374.973	8.69
375.335	8.69
375.698	8.67
376.06	8.52
376.423	8.54
376.785	8.48
377.147	8.44
377.51	8.39
377.872	8.39
378.234	8.32
378.596	8.28
378.958	8.21
379.321	8.22
379.683	8.28
380.045	8.25
380.407	8.17
380.769	8.07
381.13	7.98
381.492	7.93
381.854	7.92
382.216	7.89
382.578	7.85
382.939	7.78
383.301	7.72
383.663	7.68
384.024	7.65
384.386	7.65
384.747	7.62
385.109	7.59
385.47	7.49
385.832	7.45
386.193	7.44
386.554	7.46
386.916	7.42
387.277	7.36
387.638	7.35
387.999	7.29
388.36	7.25
388.721	7.25
389.082	7.21
389.443	7.13
389.804	7.08
390.165	7.07
390.526	7.02
390.887	6.98
391.248	7.02
391.609	6.93
391.969	6.89
392.33	6.84
392.691	6.78
393.051	6.76
393.412	6.71
393.772	6.64
394.133	6.59
394.493	6.53
394.854	6.5
395.214	6.45
395.574	6.42
395.935	6.42
396.295	6.4
396.655	6.33
397.015	6.32
397.376	6.26
397.736	6.2
398.096	6.18
398.456	6.13
398.816	6.05
399.176	6.01
399.535	5.98
399.895	5.98
400.255	5.96
400.615	5.93
400.975	5.91
401.334	5.88
401.694	5.85
402.054	5.83
402.413	5.79
402.773	5.71
403.132	5.68
403.492	5.66
403.851	5.6
404.211	5.59
404.57	5.56
404.929	5.61
405.288	5.57
405.648	5.51
406.007	5.52
406.366	5.51
406.725	5.53
407.084	5.51
407.443	5.48
407.802	5.48
408.161	5.48
408.52	5.47
408.879	5.43
409.238	5.4
409.596	5.39
409.955	5.37
410.314	5.43
410.673	5.39
411.031	5.38
411.39	5.38
411.748	5.38
412.107	5.38
412.465	5.33
412.824	5.34
413.182	5.36
413.54	5.3
413.899	5.32
414.257	5.3
414.615	5.28
414.974	5.27
415.332	5.23
415.69	5.22
416.048	5.18
416.406	5.16
416.764	5.17
417.122	5.15
417.48	5.12
417.838	5.09
418.195	5.08
418.553	5.07
418.911	5.02
419.269	5.02
419.626	5.02
419.984	5.01
420.342	4.99
420.699	4.96
421.057	4.96
421.414	4.93
421.772	4.91
422.129	4.89
422.486	4.87
422.844	4.87
423.201	4.85
423.558	4.85
423.915	4.84
424.273	4.83
424.63	4.8
424.987	4.81
425.344	4.81
425.701	4.81
426.058	4.81
426.415	4.81
426.772	4.79
427.128	4.75
427.485	4.74
427.842	4.71
428.199	4.72
428.555	4.7
428.912	4.69
429.269	4.67
429.625	4.67
429.982	4.66
430.338	4.65
430.695	4.65
431.051	4.63
431.407	4.62
431.764	4.63
432.12	4.64
432.476	4.59
432.832	4.56
433.189	4.55
433.545	4.51
433.901	4.53
434.257	4.52
434.613	4.53
434.969	4.52
435.325	4.53
435.681	4.52
436.036	4.53
436.392	4.52
436.748	4.53
437.104	4.5
437.459	4.49
437.815	4.5
438.171	4.48
438.526	4.49
438.882	4.49
439.237	4.49
439.593	4.5
439.948	4.49
440.304	4.5
440.659	4.5
441.014	4.51
441.369	4.5
441.725	4.49
442.08	4.49
442.435	4.49
442.79	4.49
443.145	4.47
443.5	4.46
443.855	4.44
444.21	4.43
444.565	4.44
444.92	4.45
445.275	4.41
445.629	4.41
445.984	4.4
446.339	4.4
446.693	4.39
447.048	4.38
447.403	4.38
447.757	4.37
448.112	4.36
448.466	4.36
448.82	4.35
449.175	4.34
449.529	4.34
449.883	4.32
450.238	4.29
450.592	4.3
450.946	4.29
451.3	4.29
451.654	4.31
452.008	4.3
452.362	4.29
452.716	4.28
453.07	4.29
453.424	4.28
453.778	4.28
454.132	4.27
454.486	4.25
454.839	4.26
455.193	4.25
455.547	4.25
455.9	4.24
456.254	4.24
456.607	4.26
456.961	4.27
457.314	4.3
457.668	4.33
458.021	4.32
458.375	4.33
458.728	4.32
459.081	4.33
459.434	4.31
459.787	4.32
460.141	4.32
460.494	4.32
460.847	4.33
461.2	4.33
461.553	4.34
461.906	4.35
462.259	4.36
462.611	4.38
462.964	4.4
463.317	4.41
463.67	4.42
464.022	4.41
464.375	4.4
464.728	4.39
465.08	4.4
465.433	4.4
465.785	4.41
466.138	4.43
466.49	4.44
466.843	4.46
467.195	4.48
467.547	4.51
467.899	4.52
468.252	4.52
468.604	4.53
468.956	4.54
469.308	4.54
469.66	4.53
470.012	4.54
470.364	4.52
470.716	4.54
471.068	4.55
471.42	4.56
471.772	4.57
472.123	4.57
472.475	4.57
472.827	4.58
473.178	4.56
473.53	4.54
473.882	4.52
474.233	4.52
474.585	4.5
474.936	4.48
475.288	4.47
475.639	4.47
475.99	4.47
476.342	4.46
476.693	4.48
477.044	4.49
477.395	4.48
477.746	4.48
478.097	4.47
478.448	4.45
478.8	4.43
479.15	4.42
479.501	4.43
479.852	4.43
480.203	4.43
480.554	4.44
480.905	4.46
481.255	4.45
481.606	4.45
481.957	4.46
482.307	4.46
482.658	4.46
483.009	4.47
483.359	4.47
483.709	4.47
484.06	4.47
484.41	4.48
484.761	4.49
485.111	4.48
485.461	4.49
485.811	4.5
486.162	4.51
486.512	4.52
486.862	4.52
487.212	4.52
487.562	4.52
487.912	4.52
488.262	4.52
488.612	4.53
488.961	4.54
489.311	4.55
489.661	4.56
490.011	4.56
490.36	4.56
490.71	4.57
491.06	4.59
491.409	4.58
491.759	4.57
492.108	4.57
492.458	4.57
492.807	4.57
493.157	4.57
493.506	4.6
493.855	4.6
494.204	4.61
494.554	4.64
494.903	4.65
495.252	4.66
495.601	4.7
495.95	4.72
496.299	4.74
496.648	4.76
496.997	4.76
497.346	4.8
497.695	4.83
498.043	4.84
498.392	4.85
498.741	4.92
499.09	4.95
499.438	5.01
499.787	5.07
500.135	5.11
500.484	5.14
500.832	5.16
501.181	5.2
501.529	5.23
501.878	5.27
502.226	5.32
502.574	5.37
502.923	5.4
503.271	5.43
503.619	5.48
503.967	5.5
504.315	5.57
504.663	5.61
505.011	5.66
505.359	5.7
505.707	5.76
506.055	5.79
506.403	5.84
506.751	5.89
507.098	5.92
507.446	5.99
507.794	6.04
508.141	6.1
508.489	6.15
508.837	6.21
509.184	6.24
509.531	6.29
509.879	6.35
510.226	6.41
510.574	6.47
510.921	6.53
511.268	6.59
511.616	6.63
511.963	6.69
512.31	6.73
512.657	6.81
513.004	6.84
513.351	6.92
513.698	6.97
514.045	7.03
514.392	7.1
514.739	7.17
515.086	7.22
515.432	7.31
515.779	7.4
516.126	7.5
516.473	7.59
516.819	7.68
517.166	7.75
517.512	7.82
517.859	7.87
518.205	7.95
518.552	8.03
518.898	8.11
519.245	8.16
519.591	8.26
519.937	8.3
520.283	8.4
520.629	8.46
520.976	8.57
521.322	8.67
521.668	8.77
522.014	8.88
522.36	9.03
522.706	9.12
523.052	9.22
523.398	9.34
523.743	9.48
524.089	9.61
524.435	9.73
524.781	9.88
525.126	10.03
525.472	10.13
525.817	10.22
526.163	10.34
526.509	10.45
526.854	10.53
527.199	10.64
527.545	10.73
527.89	10.85
528.235	10.93
528.581	11.03
528.926	11.13
529.271	11.23
529.616	11.33
529.961	11.44
530.306	11.55
530.651	11.67
530.996	11.8
531.341	11.93
531.686	12.09
532.031	12.21
532.376	12.36
532.721	12.53
533.065	12.71
533.41	12.86
533.755	13.03
534.099	13.22
534.444	13.41
534.788	13.61
535.133	13.76
535.477	13.97
535.822	14.17
536.166	14.37
536.51	14.6
536.855	14.86
537.199	15.12
537.543	15.39
537.887	15.66
538.231	15.93
538.576	16.2
538.92	16.46
539.264	16.73
539.608	16.96
539.951	17.21
540.295	17.44
540.639	17.7
540.983	17.96
541.327	18.2
541.671	18.43
542.014	18.65
542.358	18.86
542.701	19.07
543.045	19.31
543.389	19.55
543.732	19.79
544.075	20.03
544.419	20.3
544.762	20.58
545.105	20.86
545.449	21.16
545.792	21.49
546.135	21.8
546.478	22.13
546.821	22.52
547.165	22.86
547.508	23.23
547.851	23.55
548.194	23.88
548.536	24.23
548.879	24.63
549.222	25.02
549.565	25.44
549.908	25.83
550.25	26.22
550.593	26.63
550.936	27.06
551.278	27.4
551.621	27.75
551.963	28.15
552.306	28.54
552.648	28.94
552.991	29.26
553.333	29.65
553.675	29.99
554.017	30.33
554.36	30.7
554.702	31.04
555.044	31.36
555.386	31.69
555.728	32.03
556.07	32.37
556.412	32.69
556.754	33.07
557.096	33.5
557.438	33.85
557.78	34.23
558.121	34.59
558.463	35.03
558.805	35.41
559.147	35.73
559.488	36.09
559.83	36.43
560.171	36.76
560.513	37.15
560.854	37.48
561.196	37.8
561.537	38.18
561.878	38.5
562.22	38.8
562.561	39.16
562.902	39.49
563.243	39.76
563.584	40.07
563.925	40.34
564.266	40.58
564.607	40.92
564.948	41.15
565.289	41.41
565.63	41.69
565.971	41.97
566.312	42.3
566.653	42.49
566.993	42.7
567.334	42.99
567.675	43.21
568.015	43.54
568.356	43.81
568.696	43.99
569.037	44.25
569.377	44.58
569.718	44.84
570.058	45.08
570.398	45.3
570.739	45.55
571.079	45.78
571.419	46.03
571.759	46.23
572.099	46.46
572.439	46.69
572.779	46.86
573.119	47.07
573.459	47.2
573.799	47.49
574.139	47.68
574.479	47.87
574.819	48.04
575.158	48.2
575.498	48.39
575.838	48.66
576.177	48.83
576.517	49
576.856	49.16
577.196	49.37
577.535	49.62
577.875	49.8
578.214	50
578.553	50.17
578.893	50.4
579.232	50.61
579.571	50.79
579.91	50.98
580.25	51.16
580.589	51.38
580.928	51.49
581.267	51.72
581.606	51.91
581.945	52.02
582.283	52.14
582.622	52.27
582.961	52.36
583.3	52.57
583.639	52.82
583.977	53.01
584.316	53.15
584.654	53.24
584.993	53.4
585.332	53.46
585.67	53.59
586.008	53.69
586.347	53.86
586.685	53.93
587.024	54.07
587.362	54.16
587.7	54.28
588.038	54.42
588.376	54.5
588.715	54.58
589.053	54.64
589.391	54.87
589.729	55.02
590.067	55.13
590.404	55.23
590.742	55.27
591.08	55.32
591.418	55.42
591.756	55.59
592.093	55.72
592.431	55.81
592.769	55.92
593.106	56.01
593.444	56.02
593.781	56.14
594.119	56.26
594.456	56.37
594.793	56.44
595.131	56.56
595.468	56.7
595.805	56.79
596.143	56.96
596.48	56.96
596.817	57
597.154	57.09
597.491	57.12
597.828	57.22
598.165	57.35
598.502	57.37
598.839	57.42
599.176	57.5
599.512	57.6
599.849	57.66
600.186	57.78
600.523	57.88
600.859	57.98
601.196	58.02
601.532	58.11
601.869	58.12
602.205	58.09
602.542	58.15
602.878	58.24
603.215	58.34
603.551	58.4
603.887	58.47
604.223	58.59
604.56	58.71
604.896	58.7
605.232	58.74
605.568	58.78
605.904	58.81
606.24	58.86
606.576	58.94
606.912	59.04
607.248	59.02
607.583	59.11
607.919	59.08
608.255	59.12
608.591	59.19
608.926	59.31
609.262	59.37
609.597	59.41
609.933	59.46
610.268	59.37
610.604	59.4
610.939	59.43
611.275	59.4
611.61	59.38
611.945	59.49
612.281	59.57
612.616	59.72
612.951	59.78
613.286	59.74
613.621	59.81
613.956	59.86
614.291	59.89
614.626	59.92
614.961	60.12
615.296	60.2
615.631	60.2
615.966	60.21
616.3	60.28
616.635	60.31
616.97	60.46
617.304	60.64
617.639	60.68
617.973	60.74
618.308	60.86
618.642	60.83
618.977	60.84
619.311	60.8
619.646	60.79
619.98	60.9
620.314	61.04
620.648	61.1
620.983	61.2
621.317	61.3
621.651	61.42
621.985	61.43
622.319	61.38
622.653	61.47
622.987	61.52
623.321	61.51
623.655	61.54
623.988	61.53
624.322	61.56
624.656	61.58
624.99	61.6
625.323	61.48
625.657	61.5
625.99	61.5
626.324	61.54
626.657	61.6
626.991	61.61
627.324	61.65
627.658	61.57
627.991	61.5
628.324	61.51
628.657	61.44
628.991	61.43
629.324	61.48
629.657	61.46
629.99	61.48
630.323	61.6
630.656	61.56
630.989	61.5
631.322	61.47
631.655	61.46
631.987	61.57
632.32	61.74
632.653	61.9
632.986	61.88
633.318	61.98
633.651	61.95
633.984	61.88
634.316	61.87
634.649	62.01
634.981	62.11
635.313	62.16
635.646	62.2
635.978	62.23
636.31	62.3
636.643	62.43
636.975	62.46
637.307	62.46
637.639	62.57
637.971	62.52
638.303	62.52
638.635	62.6
638.967	62.58
639.299	62.63
639.631	62.63
639.963	62.72
640.295	62.58
640.626	62.55
640.958	62.58
641.29	62.57
641.621	62.6
641.953	62.52
642.285	62.57
642.616	62.61
642.948	62.7
643.279	62.72
643.61	62.56
643.942	62.62
644.273	62.6
644.604	62.55
644.936	62.7
645.267	62.7
645.598	62.75
645.929	62.72
646.26	62.79
646.591	62.86
646.922	62.84
647.253	62.89
647.584	62.97
647.915	63.05
648.245	63.07
648.576	63.06
648.907	63.18
649.238	63.15
649.568	63.31
649.899	63.27
650.229	63.26
650.56	63.22
650.89	63.21
651.221	63.29
651.551	63.28
651.882	63.26
652.212	63.32
652.542	63.32
652.872	63.34
653.203	63.29
653.533	63.2
653.863	63.31
654.193	63.4
654.523	63.44
654.853	63.4
655.183	63.42
655.513	63.4
655.843	63.3
656.172	63.34
656.502	63.18
656.832	63.15
657.162	63.19
657.491	63.32
657.821	63.42
658.15	63.42
658.48	63.5
658.809	63.49
659.139	63.58
659.468	63.64
659.798	63.6
660.127	63.59
660.456	63.7
660.785	63.67
661.115	63.69
661.444	63.64
661.773	63.71
662.102	63.75
662.431	63.75
662.76	63.95
663.089	63.9
663.418	63.95
663.747	64.01
664.076	64.12
664.404	64.15
664.733	64.08
665.062	64.08
665.39	64.02
665.719	64.01
666.048	63.9
666.376	63.79
666.705	63.88
667.033	63.83
667.362	63.77
667.69	63.86
