Data from BA28301_Reflection_00007.txt Node
Date: Mon Nov 18 15:45:12 EST 2019
User: vgr7
Spectrometer: USB2G7710
Scans to average: 3
Trigger mode: 4
Integration Time (sec): 2.000000E-2
Electric dark correction enabled: true
Boxcar width: 10
XAxis mode: Wavelengths
Number of Pixels in Spectrum: 2048
>>>>>Begin Spectral Data<<<<<
177.721	308.48
178.105	-900
178.488	59.49
178.871	33.51
179.254	-153.59
179.636	453.15
180.019	350.76
180.402	166.67
180.785	-284.03
181.168	-61.02
181.55	0.85
181.933	110.53
182.316	96.81
182.698	56.47
183.081	25.64
183.463	53.97
183.846	40.95
184.228	58.32
184.611	66.27
184.993	76.17
185.376	75.05
185.758	35.24
186.14	207.21
186.522	147.98
186.904	-143.97
187.287	360.5
187.669	-52.62
188.051	-267.68
188.433	-183.07
188.815	-179.11
189.197	-402.3
189.579	-149.03
189.961	-31.69
190.342	-62.22
190.724	-78.2
191.106	-30.03
191.488	-77.48
191.869	-1.86
192.251	38.32
192.633	117.18
193.014	150.18
193.396	145.51
193.777	116.61
194.159	370.59
194.54	-7.22
194.922	-19.86
195.303	-48.79
195.684	-170.52
196.065	412.91
196.447	-10076.47
196.828	151.36
197.209	-44.22
197.59	240.5
197.971	190.91
198.352	-24.02
198.733	0.25
199.114	-15.31
199.495	-0.18
199.876	-53.4
200.257	-31.33
200.638	-31.48
201.018	-28.13
201.399	-32.66
201.78	-33.24
202.16	-46.61
202.541	-87.05
202.922	-115.85
203.302	-138.89
203.683	-136
204.063	-226.02
204.444	-197.77
204.824	-231.2
205.204	-174.16
205.585	-197.33
205.965	-150.36
206.345	-276.75
206.725	-1176.92
207.106	9929.27
207.486	477.38
207.866	272
208.246	339.19
208.626	430.46
209.006	525.56
209.386	238.01
209.766	135.58
210.145	115.91
210.525	138.38
210.905	162.41
211.285	13500
211.664	-184.4
212.044	16.36
212.424	-56.7
212.803	11.61
213.183	55.53
213.562	47.19
213.942	56.44
214.321	28.7
214.701	27.5
215.08	5.03
215.459	21
215.838	13.11
216.218	12.67
216.597	20.68
216.976	28.77
217.355	28.12
217.734	24.56
218.113	26.34
218.492	28.18
218.871	22.95
219.25	18.83
219.629	15.86
220.008	6.43
220.387	10.41
220.766	9.36
221.144	-4.02
221.523	-17.62
221.902	-30.22
222.28	-22.4
222.659	-29.87
223.037	-9.88
223.416	-16
223.794	-23.36
224.173	-21.69
224.551	-23.71
224.929	-28.3
225.308	-21.59
225.686	-18.27
226.064	-13.96
226.442	-9.41
226.821	-7.25
227.199	-8
227.577	-10.98
227.955	-10.14
228.333	-8.65
228.711	-5.54
229.089	-0.18
229.467	0.78
229.845	1.74
230.222	1.94
230.6	2.17
230.978	3.09
231.356	3.54
231.733	5.92
232.111	5.71
232.488	5.53
232.866	7.46
233.243	5.75
233.621	4.16
233.998	5.61
234.376	4.6
234.753	3.94
235.13	5.68
235.508	7.34
235.885	6.46
236.262	6.32
236.639	4.51
237.016	4.17
237.393	5.8
237.77	5.59
238.147	5.6
238.524	5.08
238.901	4.32
239.278	4.45
239.655	4.69
240.032	4.2
240.409	4.62
240.785	3.57
241.162	3.17
241.539	3.67
241.915	3.27
242.292	2.93
242.668	3.27
243.045	3.36
243.421	3.04
243.798	3.43
244.174	3.4
244.551	3.75
244.927	3.53
245.303	3.46
245.679	3.82
246.056	3.67
246.432	3.68
246.808	3.54
247.184	3.1
247.56	2.73
247.936	2.79
248.312	2.72
248.688	2.79
249.064	2.93
249.44	2.84
249.815	2.75
250.191	2.9
250.567	2.77
250.943	2.67
251.318	2.89
251.694	2.77
252.069	2.8
252.445	2.82
252.82	2.98
253.196	2.75
253.571	2.19
253.947	2.23
254.322	2.5
254.697	2.8
255.073	2.65
255.448	2.77
255.823	2.87
256.198	2.92
256.573	2.98
256.948	3.11
257.323	3.33
257.698	3.41
258.073	3.36
258.448	3.29
258.823	3.16
259.198	3.16
259.573	3.17
259.948	3.1
260.322	3.03
260.697	2.93
261.072	2.88
261.446	2.93
261.821	2.97
262.195	2.9
262.57	2.76
262.944	2.94
263.319	3
263.693	2.89
264.067	2.81
264.442	2.9
264.816	2.71
265.19	2.62
265.564	2.59
265.938	2.46
266.313	2.56
266.687	2.64
267.061	2.8
267.435	2.86
267.809	2.85
268.183	2.87
268.556	2.77
268.93	2.91
269.304	2.94
269.678	3.1
270.051	3.18
270.425	3.3
270.799	3.47
271.172	3.45
271.546	3.58
271.919	3.46
272.293	3.36
272.666	3.46
273.04	3.43
273.413	3.42
273.787	3.5
274.16	3.43
274.533	3.33
274.906	3.12
275.279	3.15
275.653	3.25
276.026	3.29
276.399	3.33
276.772	3.33
277.145	3.39
277.518	3.31
277.891	3.32
278.263	3.33
278.636	3.08
279.009	3.06
279.382	3.16
279.755	3.28
280.127	3.36
280.5	3.27
280.872	3.25
281.245	3.29
281.617	3.45
281.99	3.48
282.362	3.6
282.735	3.46
283.107	3.37
283.479	3.26
283.852	3.11
284.224	3.06
284.596	3.13
284.968	3.09
285.34	3.01
285.713	2.99
286.085	2.99
286.457	3.14
286.829	3.09
287.201	3.05
287.572	3.06
287.944	3.03
288.316	3.08
288.688	3.04
289.06	3.01
289.431	2.88
289.803	2.91
290.175	2.82
290.546	2.96
290.918	3.04
291.289	3.11
291.661	3.28
292.032	3.44
292.403	3.44
292.775	3.49
293.146	3.49
293.517	3.58
293.889	3.58
294.26	3.65
294.631	3.7
295.002	3.7
295.373	3.76
295.744	3.84
296.115	3.94
296.486	3.84
296.857	3.85
297.228	3.97
297.599	3.94
297.97	4
298.34	4.03
298.711	4.1
299.082	4.04
299.452	4.01
299.823	4.17
300.194	4.16
300.564	4.14
300.935	4.21
301.305	4.14
301.676	4.23
302.046	4.26
302.416	4.35
302.787	4.42
303.157	4.43
303.527	4.36
303.897	4.3
304.267	4.6
304.637	4.7
305.008	4.69
305.378	4.75
305.748	4.83
306.117	4.79
306.487	4.72
306.857	4.89
307.227	4.97
307.597	4.84
307.967	4.94
308.336	4.87
308.706	4.88
309.076	4.89
309.445	4.8
309.815	4.81
310.184	4.75
310.554	4.74
310.923	4.81
311.293	4.84
311.662	4.93
312.031	4.85
312.401	4.81
312.77	4.83
313.139	4.91
313.508	4.91
313.877	4.99
314.246	5.12
314.616	5.05
314.985	5
315.353	4.94
315.722	4.94
316.091	5.09
316.46	5.13
316.829	5.1
317.198	5.26
317.567	5.17
317.935	5.3
318.304	5.38
318.672	5.47
319.041	5.77
319.41	5.67
319.778	5.6
320.147	5.77
320.515	5.82
320.883	5.8
321.252	5.9
321.62	5.93
321.988	5.97
322.357	6.09
322.725	6.27
323.093	6.51
323.461	6.54
323.829	6.66
324.197	6.73
324.565	6.81
324.933	6.73
325.301	6.9
325.669	6.94
326.037	6.98
326.405	6.89
326.772	6.88
327.14	7.03
327.508	7.19
327.875	7.09
328.243	7.15
328.61	7.21
328.978	7.17
329.346	7.29
329.713	7.25
330.08	7.35
330.448	7.34
330.815	7.27
331.182	7.27
331.55	7.3
331.917	7.29
332.284	7.52
332.651	7.6
333.018	7.56
333.385	7.63
333.752	7.6
334.119	7.58
334.486	7.46
334.853	7.38
335.22	7.43
335.587	7.51
335.954	7.56
336.32	7.47
336.687	7.56
337.054	7.49
337.42	7.55
337.787	7.59
338.153	7.61
338.52	7.62
338.886	7.49
339.253	7.4
339.619	7.47
339.986	7.33
340.352	7.43
340.718	7.38
341.084	7.42
341.451	7.54
341.817	7.72
342.183	7.66
342.549	7.73
342.915	7.79
343.281	7.78
343.647	7.77
344.013	7.87
344.379	7.78
344.745	7.79
345.11	7.74
345.476	7.78
345.842	7.77
346.208	7.88
346.573	7.99
346.939	8.1
347.304	8.08
347.67	8.05
348.035	7.93
348.401	7.99
348.766	7.99
349.132	7.96
349.497	7.88
349.862	8.03
350.228	8.09
350.593	8.01
350.958	8.07
351.323	8.08
351.688	8.1
352.053	8.26
352.418	8.35
352.783	8.38
353.148	8.33
353.513	8.31
353.878	8.27
354.243	8.29
354.608	8.34
354.972	8.3
355.337	8.38
355.702	8.55
356.066	8.57
356.431	8.5
356.795	8.55
357.16	8.54
357.524	8.47
357.889	8.38
358.253	8.42
358.618	8.46
358.982	8.43
359.346	8.41
359.71	8.34
360.075	8.32
360.439	8.31
360.803	8.28
361.167	8.32
361.531	8.29
361.895	8.25
362.259	8.12
362.623	8.14
362.987	8.05
363.351	7.98
363.714	7.94
364.078	7.95
364.442	7.84
364.806	7.8
365.169	7.82
365.533	7.8
365.896	7.8
366.26	7.71
366.623	7.71
366.987	7.63
367.35	7.69
367.714	7.69
368.077	7.69
368.44	7.64
368.803	7.5
369.167	7.41
369.53	7.36
369.893	7.39
370.256	7.38
370.619	7.38
370.982	7.29
371.345	7.23
371.708	7.23
372.071	7.16
372.434	7.14
372.797	7.02
373.159	6.97
373.522	6.88
373.885	6.88
374.247	6.85
374.61	6.82
374.973	6.65
375.335	6.57
375.698	6.5
376.06	6.46
376.423	6.44
376.785	6.46
377.147	6.47
377.51	6.41
377.872	6.34
378.234	6.25
378.596	6.28
378.958	6.22
379.321	6.15
379.683	6.22
380.045	6.17
380.407	6.17
380.769	6.11
381.13	6.07
381.492	5.98
381.854	5.93
382.216	5.89
382.578	5.9
382.939	5.83
383.301	5.73
383.663	5.67
384.024	5.7
384.386	5.65
384.747	5.57
385.109	5.53
385.47	5.49
385.832	5.5
386.193	5.45
386.554	5.45
386.916	5.43
387.277	5.3
387.638	5.3
387.999	5.29
388.36	5.26
388.721	5.28
389.082	5.29
389.443	5.21
389.804	5.12
390.165	5.08
390.526	5.05
390.887	5.07
391.248	5.06
391.609	5.01
391.969	4.99
392.33	4.99
392.691	4.96
393.051	4.93
393.412	4.9
393.772	4.81
394.133	4.8
394.493	4.75
394.854	4.76
395.214	4.69
395.574	4.62
395.935	4.59
396.295	4.51
396.655	4.45
397.015	4.47
397.376	4.48
397.736	4.46
398.096	4.48
398.456	4.43
398.816	4.4
399.176	4.34
399.535	4.27
399.895	4.22
400.255	4.2
400.615	4.2
400.975	4.2
401.334	4.24
401.694	4.21
402.054	4.14
402.413	4.11
402.773	4.1
403.132	4.1
403.492	4.11
403.851	4.12
404.211	4.1
404.57	4.07
404.929	4.09
405.288	4.04
405.648	4
406.007	3.99
406.366	3.96
406.725	3.96
407.084	4.01
407.443	4.01
407.802	4.03
408.161	3.99
408.52	3.95
408.879	3.93
409.238	3.94
409.596	3.96
409.955	3.96
410.314	3.95
410.673	3.92
411.031	3.9
411.39	3.88
411.748	3.88
412.107	3.86
412.465	3.81
412.824	3.81
413.182	3.76
413.54	3.78
413.899	3.79
414.257	3.79
414.615	3.75
414.974	3.72
415.332	3.67
415.69	3.68
416.048	3.65
416.406	3.63
416.764	3.59
417.122	3.58
417.48	3.56
417.838	3.54
418.195	3.53
418.553	3.52
418.911	3.52
419.269	3.5
419.626	3.5
419.984	3.49
420.342	3.49
420.699	3.48
421.057	3.47
421.414	3.45
421.772	3.42
422.129	3.4
422.486	3.4
422.844	3.4
423.201	3.36
423.558	3.37
423.915	3.37
424.273	3.36
424.63	3.35
424.987	3.35
425.344	3.34
425.701	3.34
426.058	3.34
426.415	3.33
426.772	3.32
427.128	3.3
427.485	3.3
427.842	3.27
428.199	3.27
428.555	3.25
428.912	3.27
429.269	3.27
429.625	3.27
429.982	3.26
430.338	3.24
430.695	3.26
431.051	3.24
431.407	3.24
431.764	3.24
432.12	3.25
432.476	3.23
432.832	3.22
433.189	3.21
433.545	3.19
433.901	3.19
434.257	3.18
434.613	3.19
434.969	3.2
435.325	3.21
435.681	3.21
436.036	3.23
436.392	3.2
436.748	3.19
437.104	3.2
437.459	3.19
437.815	3.2
438.171	3.2
438.526	3.2
438.882	3.19
439.237	3.21
439.593	3.22
439.948	3.22
440.304	3.24
440.659	3.24
441.014	3.23
441.369	3.22
441.725	3.21
442.08	3.2
442.435	3.2
442.79	3.21
443.145	3.19
443.5	3.19
443.855	3.19
444.21	3.19
444.565	3.19
444.92	3.2
445.275	3.18
445.629	3.17
445.984	3.17
446.339	3.16
446.693	3.13
447.048	3.12
447.403	3.1
447.757	3.08
448.112	3.08
448.466	3.09
448.82	3.09
449.175	3.09
449.529	3.08
449.883	3.06
450.238	3.04
450.592	3.05
450.946	3.03
451.3	3.03
451.654	3.02
452.008	3.01
452.362	3.01
452.716	3.03
453.07	3.04
453.424	3.04
453.778	3.04
454.132	3.04
454.486	3.02
454.839	3.02
455.193	3
455.547	2.98
455.9	2.98
456.254	2.97
456.607	2.99
456.961	2.99
457.314	3
457.668	2.99
458.021	2.98
458.375	2.98
458.728	3.01
459.081	3
459.434	2.99
459.787	3
460.141	3.02
460.494	3.01
460.847	3.01
461.2	2.99
461.553	3
461.906	3.01
462.259	3.03
462.611	3.07
462.964	3.08
463.317	3.09
463.67	3.1
464.022	3.1
464.375	3.08
464.728	3.11
465.08	3.13
465.433	3.14
465.785	3.16
466.138	3.16
466.49	3.18
466.843	3.19
467.195	3.18
467.547	3.18
467.899	3.21
468.252	3.21
468.604	3.23
468.956	3.2
469.308	3.2
469.66	3.2
470.012	3.19
470.364	3.19
470.716	3.21
471.068	3.21
471.42	3.22
471.772	3.26
472.123	3.24
472.475	3.22
472.827	3.24
473.178	3.23
473.53	3.23
473.882	3.23
474.233	3.24
474.585	3.24
474.936	3.2
475.288	3.19
475.639	3.21
475.99	3.22
476.342	3.26
476.693	3.27
477.044	3.28
477.395	3.28
477.746	3.26
478.097	3.23
478.448	3.2
478.8	3.19
479.15	3.16
479.501	3.16
479.852	3.16
480.203	3.14
480.554	3.14
480.905	3.13
481.255	3.14
481.606	3.14
481.957	3.15
482.307	3.17
482.658	3.16
483.009	3.14
483.359	3.14
483.709	3.15
484.06	3.14
484.41	3.14
484.761	3.15
485.111	3.16
485.461	3.17
485.811	3.18
486.162	3.18
486.512	3.19
486.862	3.2
487.212	3.2
487.562	3.21
487.912	3.22
488.262	3.23
488.612	3.23
488.961	3.23
489.311	3.23
489.661	3.23
490.011	3.23
490.36	3.24
490.71	3.26
491.06	3.26
491.409	3.27
491.759	3.27
492.108	3.28
492.458	3.29
492.807	3.3
493.157	3.32
493.506	3.34
493.855	3.35
494.204	3.35
494.554	3.36
494.903	3.38
495.252	3.4
495.601	3.42
495.95	3.44
496.299	3.46
496.648	3.49
496.997	3.5
497.346	3.54
497.695	3.56
498.043	3.58
498.392	3.6
498.741	3.62
499.09	3.64
499.438	3.67
499.787	3.69
500.135	3.75
500.484	3.79
500.832	3.84
501.181	3.88
501.529	3.94
501.878	3.99
502.226	4.03
502.574	4.06
502.923	4.09
503.271	4.1
503.619	4.17
503.967	4.22
504.315	4.26
504.663	4.31
505.011	4.37
505.359	4.4
505.707	4.43
506.055	4.48
506.403	4.53
506.751	4.58
507.098	4.62
507.446	4.64
507.794	4.66
508.141	4.69
508.489	4.73
508.837	4.78
509.184	4.84
509.531	4.88
509.879	4.94
510.226	5.01
510.574	5.06
510.921	5.08
511.268	5.13
511.616	5.18
511.963	5.25
512.31	5.31
512.657	5.38
513.004	5.43
513.351	5.52
513.698	5.59
514.045	5.65
514.392	5.74
514.739	5.8
515.086	5.88
515.432	5.96
515.779	6.04
516.126	6.12
516.473	6.21
516.819	6.3
517.166	6.36
517.512	6.43
517.859	6.51
518.205	6.6
518.552	6.68
518.898	6.75
519.245	6.81
519.591	6.87
519.937	6.96
520.283	7.07
520.629	7.14
520.976	7.23
521.322	7.34
521.668	7.42
522.014	7.54
522.36	7.63
522.706	7.74
523.052	7.84
523.398	7.97
523.743	8.09
524.089	8.21
524.435	8.34
524.781	8.45
525.126	8.56
525.472	8.68
525.817	8.79
526.163	8.89
526.509	8.99
526.854	9.08
527.199	9.16
527.545	9.26
527.89	9.35
528.235	9.45
528.581	9.54
528.926	9.62
529.271	9.72
529.616	9.82
529.961	9.92
530.306	10.03
530.651	10.16
530.996	10.28
531.341	10.4
531.686	10.53
532.031	10.67
532.376	10.83
532.721	10.97
533.065	11.11
533.41	11.26
533.755	11.43
534.099	11.6
534.444	11.76
534.788	11.92
535.133	12.08
535.477	12.26
535.822	12.44
536.166	12.67
536.51	12.88
536.855	13.12
537.199	13.36
537.543	13.6
537.887	13.82
538.231	14.08
538.576	14.34
538.92	14.6
539.264	14.82
539.608	15.05
539.951	15.27
540.295	15.49
540.639	15.7
540.983	15.91
541.327	16.12
541.671	16.33
542.014	16.54
542.358	16.75
542.701	16.97
543.045	17.18
543.389	17.39
543.732	17.61
544.075	17.83
544.419	18.05
544.762	18.32
545.105	18.56
545.449	18.8
545.792	19.09
546.135	19.36
546.478	19.65
546.821	19.97
547.165	20.28
547.508	20.62
547.851	20.95
548.194	21.27
548.536	21.58
548.879	21.95
549.222	22.28
549.565	22.64
549.908	22.97
550.25	23.31
550.593	23.65
550.936	24
551.278	24.34
551.621	24.68
551.963	24.99
552.306	25.34
552.648	25.67
552.991	26
553.333	26.34
553.675	26.72
554.017	27.06
554.36	27.42
554.702	27.74
555.044	28.07
555.386	28.34
555.728	28.68
556.07	29
556.412	29.3
556.754	29.61
557.096	29.95
557.438	30.3
557.78	30.7
558.121	31.01
558.463	31.41
558.805	31.77
559.147	32.1
559.488	32.44
559.83	32.82
560.171	33.11
560.513	33.46
560.854	33.75
561.196	34.04
561.537	34.28
561.878	34.54
562.22	34.84
562.561	35.18
562.902	35.45
563.243	35.74
563.584	36.05
563.925	36.31
564.266	36.6
564.607	36.87
564.948	37.08
565.289	37.36
565.63	37.59
565.971	37.78
566.312	37.98
566.653	38.22
566.993	38.48
567.334	38.7
567.675	38.9
568.015	39.12
568.356	39.33
568.696	39.6
569.037	39.91
569.377	40.11
569.718	40.35
570.058	40.56
570.398	40.73
570.739	40.97
571.079	41.22
571.419	41.45
571.759	41.69
572.099	41.89
572.439	42.08
572.779	42.26
573.119	42.52
573.459	42.78
573.799	42.97
574.139	43.11
574.479	43.32
574.819	43.51
575.158	43.71
575.498	43.93
575.838	44.12
576.177	44.25
576.517	44.44
576.856	44.64
577.196	44.83
577.535	45.06
577.875	45.23
578.214	45.36
578.553	45.46
578.893	45.61
579.232	45.84
579.571	46.04
579.91	46.19
580.25	46.36
580.589	46.48
580.928	46.72
581.267	46.87
581.606	47.01
581.945	47.22
582.283	47.37
582.622	47.52
582.961	47.68
583.3	47.85
583.639	48.01
583.977	48.11
584.316	48.26
584.654	48.4
584.993	48.59
585.332	48.77
585.67	48.96
586.008	49.04
586.347	49.12
586.685	49.27
587.024	49.41
587.362	49.61
587.7	49.76
588.038	49.9
588.376	50.1
588.715	50.26
589.053	50.39
589.391	50.5
589.729	50.61
590.067	50.74
590.404	50.8
590.742	50.91
591.08	51.05
591.418	51.23
591.756	51.39
592.093	51.49
592.431	51.58
592.769	51.71
593.106	51.87
593.444	51.96
593.781	51.99
594.119	52.15
594.456	52.17
594.793	52.28
595.131	52.28
595.468	52.37
595.805	52.46
596.143	52.48
596.48	52.58
596.817	52.66
597.154	52.71
597.491	52.83
597.828	52.94
598.165	53.03
598.502	53.04
598.839	53.1
599.176	53.14
599.512	53.23
599.849	53.28
600.186	53.33
600.523	53.51
600.859	53.61
601.196	53.74
601.532	53.72
601.869	53.83
602.205	53.87
602.542	53.92
602.878	53.97
603.215	54.09
603.551	54.13
603.887	54.21
604.223	54.27
604.56	54.31
604.896	54.35
605.232	54.42
605.568	54.55
605.904	54.58
606.24	54.68
606.576	54.75
606.912	54.83
607.248	54.9
607.583	54.9
607.919	54.96
608.255	54.92
608.591	55.07
608.926	55.12
609.262	55.23
609.597	55.32
609.933	55.38
610.268	55.39
610.604	55.47
610.939	55.47
611.275	55.52
611.61	55.6
611.945	55.65
612.281	55.66
612.616	55.68
612.951	55.76
613.286	55.78
613.621	55.82
613.956	55.87
614.291	55.95
614.626	56
614.961	55.99
615.296	56.04
615.631	56.07
615.966	56.1
616.3	56.11
616.635	56.08
616.97	56.06
617.304	56.15
617.639	56.2
617.973	56.25
618.308	56.3
618.642	56.22
618.977	56.18
619.311	56.31
619.646	56.35
619.98	56.42
620.314	56.45
620.648	56.44
620.983	56.51
621.317	56.43
621.651	56.43
621.985	56.56
622.319	56.65
622.653	56.66
622.987	56.7
623.321	56.74
623.655	56.83
623.988	56.97
624.322	56.99
624.656	57.06
624.99	57.11
625.323	57.17
625.657	57.25
625.99	57.33
626.324	57.29
626.657	57.26
626.991	57.17
627.324	57.21
627.658	57.23
627.991	57.18
628.324	57.2
628.657	57.29
628.991	57.3
629.324	57.3
629.657	57.32
629.99	57.28
630.323	57.35
630.656	57.32
630.989	57.29
631.322	57.32
631.655	57.34
631.987	57.41
632.32	57.48
632.653	57.57
632.986	57.66
633.318	57.66
633.651	57.73
633.984	57.84
634.316	57.8
634.649	57.82
634.981	58.06
635.313	58.18
635.646	58.24
635.978	58.31
636.31	58.41
636.643	58.41
636.975	58.64
637.307	58.6
637.639	58.63
637.971	58.64
638.303	58.61
638.635	58.57
638.967	58.56
639.299	58.55
639.631	58.54
639.963	58.49
640.295	58.49
640.626	58.66
640.958	58.65
641.29	58.8
641.621	58.92
641.953	58.82
642.285	58.82
642.616	58.86
642.948	58.83
643.279	58.83
643.61	58.94
643.942	58.74
644.273	58.79
644.604	58.88
644.936	58.87
645.267	58.95
645.598	58.98
645.929	59.06
646.26	59.15
646.591	59.11
646.922	59.19
647.253	59.19
647.584	59.01
647.915	59.1
648.245	59.03
648.576	59.11
648.907	59.12
649.238	59.15
649.568	59.05
649.899	59.08
650.229	59.04
650.56	59.01
650.89	59.08
651.221	59.12
651.551	59.05
651.882	59.05
652.212	59.05
652.542	59.1
652.872	59.04
653.203	58.96
653.533	59.07
653.863	59.13
654.193	59.27
654.523	59.38
654.853	59.32
655.183	59.45
655.513	59.4
655.843	59.33
656.172	59.44
656.502	59.55
656.832	59.63
657.162	59.59
657.491	59.59
657.821	59.68
658.15	59.66
658.48	59.78
658.809	59.92
659.139	59.79
659.468	59.74
659.798	59.73
660.127	59.69
660.456	59.69
660.785	59.7
661.115	59.64
661.444	59.65
661.773	59.75
662.102	59.7
662.431	59.76
662.76	59.85
663.089	59.77
663.418	59.7
663.747	59.67
664.076	59.77
664.404	59.78
664.733	59.69
665.062	59.62
665.39	59.52
665.719	59.47
666.048	59.61
666.376	59.61
666.705	59.53
667.033	59.57
667.362	59.51
667.69	59.52
668.018	59.6
668.347	59.58
668.675	59.58
669.003	59.58
669.331	59.47
