Data from BA28473_Reflection_00001.txt Node
Date: Mon Nov 18 15:28:04 EST 2019
User: vgr7
Spectrometer: USB2G7710
Scans to average: 3
Trigger mode: 4
Integration Time (sec): 2.000000E-2
Electric dark correction enabled: true
Boxcar width: 10
XAxis mode: Wavelengths
Number of Pixels in Spectrum: 2048
>>>>>Begin Spectral Data<<<<<
177.721	91.79
178.105	-49.83
178.488	-167.19
178.871	-155.66
179.254	-173.31
179.636	-20.79
180.019	-777.86
180.402	250
180.785	9.09
181.168	-140.38
181.55	-36.56
181.933	85.41
182.316	30.21
182.698	16.25
183.081	8.65
183.463	-51.49
183.846	-18.42
184.228	-14.78
184.611	-37.53
184.993	-71.48
185.376	-64.37
185.758	-16.92
186.14	65.52
186.522	82.11
186.904	73.99
187.287	83.51
187.669	54.89
188.051	112.08
188.433	120.28
188.815	143.07
189.197	137.67
189.579	206.04
189.961	439.85
190.342	587.3
190.724	-347.65
191.106	-543.65
191.488	-698.41
191.869	-240.03
192.251	-638.16
192.633	-592.82
193.014	274.58
193.396	570.33
193.777	957.52
194.159	1534.04
194.54	-722.94
194.922	-316.18
195.303	-636.09
195.684	-855.19
196.065	-300.18
196.447	-858.22
196.828	7344.9
197.209	2236.09
197.59	-1723.53
197.971	-600.79
198.352	-213.12
198.733	-284.62
199.114	-126.15
199.495	-124.33
199.876	-112
200.257	-112.44
200.638	-71.47
201.018	-62.25
201.399	-57.38
201.78	-43.29
202.16	-53.04
202.541	-68.08
202.922	-87.94
203.302	-92.73
203.683	-98.28
204.063	-109.23
204.444	-89.67
204.824	-60.66
205.204	-48.71
205.585	-37.15
205.965	-29.07
206.345	-52.49
206.725	-51.26
207.106	-146.04
207.486	-209.18
207.866	-327.15
208.246	-258.49
208.626	-234.22
209.006	-150.59
209.386	-199.76
209.766	-235.05
210.145	-237.67
210.525	-229.6
210.905	-168.4
211.285	-109.69
211.664	-118.98
212.044	-159.33
212.424	-192.04
212.803	-321.73
213.183	-220.94
213.562	-212.8
213.942	-168.75
214.321	-119.24
214.701	-140.34
215.08	-129.36
215.459	-130.88
215.838	-130.88
216.218	-140.01
216.597	-107.86
216.976	-131.79
217.355	-123.33
217.734	-106.34
218.113	-108.88
218.492	-83.58
218.871	-93.1
219.25	-103.77
219.629	-81.34
220.008	-70.82
220.387	-63.28
220.766	-74.08
221.144	-103.7
221.523	-108.57
221.902	-116.02
222.28	-106.07
222.659	-61.68
223.037	-26.12
223.416	-30.88
223.794	-17.4
224.173	-15.59
224.551	-12.83
224.929	-13.29
225.308	-14.42
225.686	-15.45
226.064	-11.48
226.442	-11.68
226.821	-6.74
227.199	-5.97
227.577	-11.33
227.955	-9.89
228.333	-12.85
228.711	-8.37
229.089	-6.47
229.467	-6.32
229.845	-6.19
230.222	-6.77
230.6	-8.08
230.978	-11.07
231.356	-6.37
231.733	-9.32
232.111	-5.43
232.488	-4.54
232.866	-2.89
233.243	-1.39
233.621	0.26
233.998	3.08
234.376	3.6
234.753	3.66
235.13	3.45
235.508	6.36
235.885	7.23
236.262	7
236.639	5.12
237.016	4.21
237.393	3.5
237.77	3.93
238.147	4.3
238.524	3.96
238.901	4.78
239.278	5.13
239.655	5.65
240.032	5.24
240.409	4.68
240.785	5.41
241.162	5.53
241.539	5.29
241.915	4.76
242.292	4.68
242.668	5.06
243.045	5.38
243.421	5.15
243.798	5.01
244.174	5.55
244.551	5.9
244.927	6.06
245.303	6.47
245.679	6.35
246.056	6.39
246.432	6.54
246.808	6.26
247.184	5.99
247.56	5.93
247.936	5.96
248.312	6.05
248.688	5.94
249.064	5.8
249.44	6.01
249.815	6.02
250.191	5.86
250.567	5.63
250.943	5.56
251.318	5.81
251.694	5.56
252.069	5.3
252.445	5.09
252.82	4.9
253.196	4.94
253.571	4.84
253.947	4.94
254.322	5.16
254.697	5.33
255.073	5.34
255.448	5.23
255.823	5.25
256.198	5.31
256.573	5.38
256.948	5.58
257.323	5.33
257.698	5.45
258.073	5.44
258.448	5.6
258.823	5.68
259.198	5.42
259.573	5.57
259.948	5.53
260.322	5.62
260.697	5.64
261.072	5.41
261.446	5.53
261.821	5.51
262.195	5.41
262.57	5.52
262.944	5.37
263.319	5.3
263.693	5.18
264.067	5.31
264.442	5.21
264.816	5.23
265.19	5.31
265.564	5.1
265.938	5.17
266.313	5.05
266.687	5.11
267.061	5.21
267.435	5.31
267.809	5.47
268.183	5.43
268.556	5.44
268.93	5.74
269.304	5.78
269.678	5.82
270.051	5.72
270.425	5.55
270.799	5.65
271.172	5.87
271.546	6.14
271.919	5.96
272.293	5.79
272.666	5.71
273.04	5.73
273.413	5.84
273.787	5.8
274.16	5.86
274.533	5.69
274.906	5.65
275.279	5.55
275.653	5.66
276.026	5.58
276.399	5.59
276.772	5.47
277.145	5.21
277.518	5.24
277.891	5.37
278.263	5.36
278.636	5.44
279.009	5.37
279.382	5.27
279.755	5.32
280.127	5.66
280.5	5.76
280.872	5.92
281.245	5.99
281.617	6.13
281.99	6.34
282.362	6.4
282.735	6.4
283.107	6.35
283.479	6.29
283.852	6.35
284.224	6.35
284.596	6.26
284.968	6.43
285.34	6.41
285.713	6.48
286.085	6.61
286.457	6.73
286.829	6.82
287.201	6.81
287.572	6.75
287.944	6.53
288.316	6.45
288.688	6.42
289.06	6.41
289.431	6.4
289.803	6.24
290.175	6.18
290.546	6.44
290.918	6.44
291.289	6.37
291.661	6.52
292.032	6.48
292.403	6.63
292.775	6.65
293.146	6.76
293.517	6.62
293.889	6.6
294.26	6.56
294.631	6.63
295.002	6.63
295.373	6.6
295.744	6.76
296.115	6.84
296.486	6.64
296.857	6.64
297.228	6.59
297.599	6.55
297.97	6.63
298.34	6.51
298.711	6.63
299.082	6.56
299.452	6.57
299.823	6.76
300.194	6.66
300.564	6.59
300.935	6.6
301.305	6.61
301.676	6.62
302.046	6.6
302.416	6.6
302.787	6.58
303.157	6.71
303.527	6.75
303.897	6.74
304.267	7
304.637	7.02
305.008	7
305.378	7.1
305.748	7.22
306.117	7.11
306.487	6.95
306.857	7.1
307.227	7.15
307.597	7.06
307.967	7.29
308.336	7.41
308.706	7.3
309.076	7.36
309.445	7.33
309.815	7.24
310.184	7.05
310.554	7.04
310.923	7.05
311.293	6.97
311.662	7.01
312.031	6.96
312.401	7
312.77	7.12
313.139	7.21
313.508	7.13
313.877	7.23
314.246	7.34
314.616	7.36
314.985	7.26
315.353	7.32
315.722	7.29
316.091	7.16
316.46	7.16
316.829	7.18
317.198	7.33
317.567	7.31
317.935	7.35
318.304	7.36
318.672	7.44
319.041	7.54
319.41	7.6
319.778	7.44
320.147	7.38
320.515	7.25
320.883	7.08
321.252	7.14
321.62	7.12
321.988	7.2
322.357	7.08
322.725	7.04
323.093	6.84
323.461	6.68
323.829	6.84
324.197	6.98
324.565	6.98
324.933	6.85
325.301	6.94
325.669	6.99
326.037	7.02
326.405	6.93
326.772	6.91
327.14	7.03
327.508	7.19
327.875	7.21
328.243	7.23
328.61	7.22
328.978	7.16
329.346	7.28
329.713	7.21
330.08	7.44
330.448	7.32
330.815	7.31
331.182	7.51
331.55	7.44
331.917	7.31
332.284	7.32
332.651	7.27
333.018	7.37
333.385	7.36
333.752	7.4
334.119	7.45
334.486	7.43
334.853	7.24
335.22	7.21
335.587	7.21
335.954	7.2
336.32	7.15
336.687	7.1
337.054	7
337.42	6.99
337.787	6.84
338.153	6.94
338.52	7.15
338.886	6.99
339.253	6.92
339.619	7.02
339.986	6.96
340.352	6.9
340.718	6.82
341.084	6.81
341.451	6.88
341.817	6.91
342.183	6.87
342.549	6.86
342.915	6.9
343.281	6.88
343.647	6.85
344.013	6.95
344.379	6.86
344.745	6.85
345.11	6.82
345.476	6.86
345.842	6.95
346.208	6.91
346.573	7.02
346.939	7.07
347.304	7.02
347.67	6.95
348.035	7.06
348.401	7.11
348.766	7.09
349.132	7.01
349.497	6.98
349.862	7.06
350.228	7.12
350.593	7.1
350.958	7.2
351.323	7.32
351.688	7.31
352.053	7.44
352.418	7.58
352.783	7.62
353.148	7.54
353.513	7.43
353.878	7.4
354.243	7.36
354.608	7.38
354.972	7.37
355.337	7.55
355.702	7.61
356.066	7.63
356.431	7.69
356.795	7.66
357.16	7.67
357.524	7.59
357.889	7.61
358.253	7.56
358.618	7.51
358.982	7.49
359.346	7.46
359.71	7.46
360.075	7.47
360.439	7.52
360.803	7.58
361.167	7.6
361.531	7.59
361.895	7.57
362.259	7.54
362.623	7.59
362.987	7.53
363.351	7.53
363.714	7.52
364.078	7.48
364.442	7.47
364.806	7.46
365.169	7.54
365.533	7.47
365.896	7.5
366.26	7.58
366.623	7.63
366.987	7.67
367.35	7.72
367.714	7.61
368.077	7.58
368.44	7.54
368.803	7.56
369.167	7.57
369.53	7.54
369.893	7.65
370.256	7.64
370.619	7.61
370.982	7.58
371.345	7.58
371.708	7.6
372.071	7.69
372.434	7.7
372.797	7.69
373.159	7.73
373.522	7.71
373.885	7.66
374.247	7.62
374.61	7.62
374.973	7.56
375.335	7.58
375.698	7.64
376.06	7.68
376.423	7.72
376.785	7.78
377.147	7.81
377.51	7.72
377.872	7.71
378.234	7.73
378.596	7.72
378.958	7.68
379.321	7.71
379.683	7.74
380.045	7.7
380.407	7.69
380.769	7.71
381.13	7.79
381.492	7.8
381.854	7.79
382.216	7.8
382.578	7.85
382.939	7.86
383.301	7.83
383.663	7.8
384.024	7.79
384.386	7.79
384.747	7.82
385.109	7.87
385.47	7.9
385.832	7.86
386.193	7.88
386.554	7.9
386.916	7.85
387.277	7.81
387.638	7.89
387.999	7.9
388.36	7.86
388.721	7.84
389.082	7.84
389.443	7.84
389.804	7.81
390.165	7.8
390.526	7.82
390.887	7.78
391.248	7.84
391.609	7.84
391.969	7.84
392.33	7.83
392.691	7.82
393.051	7.78
393.412	7.83
393.772	7.87
394.133	7.9
394.493	7.98
394.854	8
395.214	7.96
395.574	7.98
395.935	8.03
396.295	8.04
396.655	8.05
397.015	8.09
397.376	8.14
397.736	8.17
398.096	8.12
398.456	8.14
398.816	8.12
399.176	8.1
399.535	8.08
399.895	8.05
400.255	8.02
400.615	8.03
400.975	7.99
401.334	7.95
401.694	7.89
402.054	7.86
402.413	7.86
402.773	7.84
403.132	7.85
403.492	7.82
403.851	7.81
404.211	7.8
404.57	7.76
404.929	7.77
405.288	7.74
405.648	7.74
406.007	7.79
406.366	7.78
406.725	7.8
407.084	7.83
407.443	7.89
407.802	7.9
408.161	7.92
408.52	7.96
408.879	7.96
409.238	7.99
409.596	8
409.955	7.99
410.314	8.04
410.673	8.03
411.031	8.06
411.39	8.09
411.748	8.08
412.107	8.11
412.465	8.08
412.824	8.11
413.182	8.13
413.54	8.08
413.899	8.09
414.257	8.08
414.615	8.03
414.974	8
415.332	7.99
415.69	7.99
416.048	7.96
416.406	7.98
416.764	7.99
417.122	7.99
417.48	7.99
417.838	7.97
418.195	7.98
418.553	7.94
418.911	7.92
419.269	7.94
419.626	7.95
419.984	7.96
420.342	7.96
420.699	7.96
421.057	7.97
421.414	7.97
421.772	7.98
422.129	7.99
422.486	7.99
422.844	8
423.201	7.97
423.558	8
423.915	7.99
424.273	8
424.63	7.99
424.987	7.99
425.344	8
425.701	7.99
426.058	8.02
426.415	8.03
426.772	8.01
427.128	7.99
427.485	7.98
427.842	7.97
428.199	8
428.555	7.99
428.912	8
429.269	8.01
429.625	8
429.982	8
430.338	8
430.695	8.02
431.051	7.98
431.407	8.01
431.764	7.97
432.12	8
432.476	7.99
432.832	7.96
433.189	7.96
433.545	7.94
433.901	7.92
434.257	7.94
434.613	7.96
434.969	7.95
435.325	7.97
435.681	7.96
436.036	7.96
436.392	7.95
436.748	7.94
437.104	7.95
437.459	7.95
437.815	7.96
438.171	7.97
438.526	8
438.882	7.98
439.237	8
439.593	8
439.948	7.99
440.304	7.99
440.659	8.01
441.014	8.04
441.369	8.05
441.725	8.04
442.08	8.05
442.435	8.06
442.79	8.06
443.145	8.04
443.5	8.04
443.855	8.05
444.21	8.06
444.565	8.07
444.92	8.05
445.275	8.02
445.629	8.02
445.984	8.03
446.339	8.03
446.693	8.03
447.048	8.02
447.403	8.05
447.757	8.07
448.112	8.05
448.466	8.03
448.82	8.03
449.175	8.04
449.529	8.02
449.883	8
450.238	8
450.592	8.01
450.946	7.97
451.3	7.97
451.654	7.98
452.008	7.99
452.362	8
452.716	8.03
453.07	8.03
453.424	8
453.778	8.01
454.132	8.01
454.486	8.01
454.839	8
455.193	8
455.547	8.01
455.9	8.01
456.254	8.03
456.607	8.04
456.961	8.06
457.314	8.08
457.668	8.08
458.021	8.07
458.375	8.13
458.728	8.13
459.081	8.11
459.434	8.1
459.787	8.12
460.141	8.13
460.494	8.14
460.847	8.16
461.2	8.13
461.553	8.14
461.906	8.14
462.259	8.15
462.611	8.15
462.964	8.17
463.317	8.18
463.67	8.16
464.022	8.15
464.375	8.14
464.728	8.16
465.08	8.16
465.433	8.17
465.785	8.14
466.138	8.14
466.49	8.17
466.843	8.16
467.195	8.13
467.547	8.13
467.899	8.12
468.252	8.14
468.604	8.14
468.956	8.16
469.308	8.17
469.66	8.13
470.012	8.13
470.364	8.13
470.716	8.14
471.068	8.14
471.42	8.13
471.772	8.17
472.123	8.16
472.475	8.17
472.827	8.18
473.178	8.2
473.53	8.22
473.882	8.2
474.233	8.22
474.585	8.22
474.936	8.23
475.288	8.23
475.639	8.21
475.99	8.24
476.342	8.22
476.693	8.23
477.044	8.27
477.395	8.27
477.746	8.27
478.097	8.27
478.448	8.28
478.8	8.27
479.15	8.23
479.501	8.22
479.852	8.22
480.203	8.22
480.554	8.24
480.905	8.25
481.255	8.26
481.606	8.26
481.957	8.27
482.307	8.28
482.658	8.28
483.009	8.29
483.359	8.29
483.709	8.29
484.06	8.3
484.41	8.3
484.761	8.3
485.111	8.31
485.461	8.3
485.811	8.3
486.162	8.3
486.512	8.31
486.862	8.32
487.212	8.31
487.562	8.32
487.912	8.31
488.262	8.3
488.612	8.3
488.961	8.32
489.311	8.33
489.661	8.33
490.011	8.34
490.36	8.33
490.71	8.32
491.06	8.32
491.409	8.32
491.759	8.3
492.108	8.31
492.458	8.29
492.807	8.3
493.157	8.3
493.506	8.32
493.855	8.32
494.204	8.32
494.554	8.33
494.903	8.32
495.252	8.32
495.601	8.32
495.95	8.32
496.299	8.29
496.648	8.3
496.997	8.28
497.346	8.28
497.695	8.3
498.043	8.32
498.392	8.34
498.741	8.34
499.09	8.34
499.438	8.35
499.787	8.37
500.135	8.38
500.484	8.41
500.832	8.42
501.181	8.44
501.529	8.45
501.878	8.48
502.226	8.49
502.574	8.5
502.923	8.51
503.271	8.49
503.619	8.5
503.967	8.49
504.315	8.51
504.663	8.49
505.011	8.5
505.359	8.46
505.707	8.47
506.055	8.46
506.403	8.48
506.751	8.49
507.098	8.48
507.446	8.47
507.794	8.45
508.141	8.44
508.489	8.46
508.837	8.47
509.184	8.47
509.531	8.47
509.879	8.5
510.226	8.51
510.574	8.52
510.921	8.53
511.268	8.54
511.616	8.54
511.963	8.54
512.31	8.55
512.657	8.59
513.004	8.59
513.351	8.59
513.698	8.59
514.045	8.6
514.392	8.63
514.739	8.63
515.086	8.64
515.432	8.64
515.779	8.62
516.126	8.62
516.473	8.63
516.819	8.62
517.166	8.6
517.512	8.59
517.859	8.59
518.205	8.6
518.552	8.59
518.898	8.61
519.245	8.62
519.591	8.63
519.937	8.62
520.283	8.64
520.629	8.66
520.976	8.68
521.322	8.67
521.668	8.67
522.014	8.68
522.36	8.69
522.706	8.71
523.052	8.72
523.398	8.7
523.743	8.7
524.089	8.71
524.435	8.71
524.781	8.73
525.126	8.75
525.472	8.76
525.817	8.77
526.163	8.75
526.509	8.77
526.854	8.77
527.199	8.78
527.545	8.78
527.89	8.77
528.235	8.76
528.581	8.78
528.926	8.77
529.271	8.77
529.616	8.77
529.961	8.77
530.306	8.78
530.651	8.79
530.996	8.8
531.341	8.81
531.686	8.81
532.031	8.83
532.376	8.83
532.721	8.82
533.065	8.83
533.41	8.84
533.755	8.82
534.099	8.83
534.444	8.83
534.788	8.84
535.133	8.86
535.477	8.85
535.822	8.83
536.166	8.84
536.51	8.84
536.855	8.84
537.199	8.85
537.543	8.86
537.887	8.88
538.231	8.87
538.576	8.87
538.92	8.88
539.264	8.87
539.608	8.86
539.951	8.87
540.295	8.87
540.639	8.89
540.983	8.9
541.327	8.9
541.671	8.9
542.014	8.89
542.358	8.91
542.701	8.91
543.045	8.93
543.389	8.96
543.732	8.98
544.075	8.98
544.419	8.97
544.762	8.96
545.105	8.97
545.449	8.99
545.792	9
546.135	9.01
546.478	9.01
546.821	9.03
547.165	9.03
547.508	9.03
547.851	9.03
548.194	9.03
548.536	9.02
548.879	9.03
549.222	9.04
549.565	9.02
549.908	9.03
550.25	9.04
550.593	9
550.936	8.94
551.278	8.94
551.621	8.94
551.963	8.94
552.306	8.94
552.648	8.93
552.991	8.94
553.333	8.94
553.675	8.94
554.017	8.92
554.36	8.94
554.702	8.95
555.044	8.94
555.386	8.94
555.728	8.97
556.07	8.97
556.412	8.97
556.754	8.97
557.096	8.95
557.438	8.93
557.78	8.95
558.121	9.01
558.463	9.03
558.805	9.05
559.147	9.04
559.488	9.03
559.83	9.05
560.171	9.06
560.513	9.08
560.854	9.09
561.196	9.1
561.537	9.13
561.878	9.12
562.22	9.13
562.561	9.09
562.902	9.08
563.243	9.1
563.584	9.1
563.925	9.11
564.266	9.11
564.607	9.12
564.948	9.15
565.289	9.12
565.63	9.14
565.971	9.14
566.312	9.15
566.653	9.16
566.993	9.14
567.334	9.1
567.675	9.09
568.015	9.07
568.356	9.06
568.696	9.03
569.037	9.05
569.377	9.05
569.718	9.04
570.058	9.06
570.398	9.02
570.739	9.03
571.079	9.04
571.419	9.07
571.759	9.08
572.099	9.09
572.439	9.1
572.779	9.1
573.119	9.1
573.459	9.12
573.799	9.15
574.139	9.13
574.479	9.17
574.819	9.17
575.158	9.17
575.498	9.18
575.838	9.19
576.177	9.21
576.517	9.23
576.856	9.26
577.196	9.26
577.535	9.26
577.875	9.29
578.214	9.26
578.553	9.26
578.893	9.26
579.232	9.22
579.571	9.21
579.91	9.19
580.25	9.2
580.589	9.21
580.928	9.17
581.267	9.17
581.606	9.16
581.945	9.14
582.283	9.17
582.622	9.15
582.961	9.15
583.3	9.12
583.639	9.16
583.977	9.18
584.316	9.17
584.654	9.19
584.993	9.18
585.332	9.16
585.67	9.18
586.008	9.17
586.347	9.19
586.685	9.15
587.024	9.2
587.362	9.22
587.7	9.19
588.038	9.18
588.376	9.18
588.715	9.21
589.053	9.23
589.391	9.21
589.729	9.21
590.067	9.2
590.404	9.2
590.742	9.16
591.08	9.18
591.418	9.2
591.756	9.2
592.093	9.2
592.431	9.23
592.769	9.24
593.106	9.27
593.444	9.28
593.781	9.3
594.119	9.28
594.456	9.27
594.793	9.29
595.131	9.29
595.468	9.3
595.805	9.28
596.143	9.29
596.48	9.3
596.817	9.31
597.154	9.34
597.491	9.36
597.828	9.34
598.165	9.35
598.502	9.35
598.839	9.37
599.176	9.36
599.512	9.39
599.849	9.38
600.186	9.37
600.523	9.37
600.859	9.42
601.196	9.42
601.532	9.41
601.869	9.4
602.205	9.39
602.542	9.45
602.878	9.44
603.215	9.42
603.551	9.43
603.887	9.43
604.223	9.44
604.56	9.45
604.896	9.48
605.232	9.49
605.568	9.49
605.904	9.47
606.24	9.5
606.576	9.48
606.912	9.49
607.248	9.47
607.583	9.45
607.919	9.44
608.255	9.44
608.591	9.46
608.926	9.48
609.262	9.49
609.597	9.45
609.933	9.45
610.268	9.49
610.604	9.51
610.939	9.56
611.275	9.52
611.61	9.52
611.945	9.55
612.281	9.52
612.616	9.52
612.951	9.54
613.286	9.55
613.621	9.56
613.956	9.55
614.291	9.54
614.626	9.57
614.961	9.56
615.296	9.54
615.631	9.55
615.966	9.52
616.3	9.54
616.635	9.56
616.97	9.55
617.304	9.49
617.639	9.45
617.973	9.4
618.308	9.43
618.642	9.46
618.977	9.43
619.311	9.44
619.646	9.48
619.98	9.46
620.314	9.48
620.648	9.49
620.983	9.54
621.317	9.62
621.651	9.61
621.985	9.61
622.319	9.65
622.653	9.63
622.987	9.69
623.321	9.69
623.655	9.7
623.988	9.76
624.322	9.77
624.656	9.8
624.99	9.85
625.323	9.87
625.657	9.84
625.99	9.85
626.324	9.82
626.657	9.77
626.991	9.8
627.324	9.77
627.658	9.79
627.991	9.78
628.324	9.73
628.657	9.74
628.991	9.77
629.324	9.76
629.657	9.81
629.99	9.79
630.323	9.78
630.656	9.77
630.989	9.77
631.322	9.78
631.655	9.73
631.987	9.72
632.32	9.7
632.653	9.73
632.986	9.73
633.318	9.76
633.651	9.75
633.984	9.74
634.316	9.7
634.649	9.68
634.981	9.67
635.313	9.68
635.646	9.7
635.978	9.71
636.31	9.71
636.643	9.66
636.975	9.68
637.307	9.72
637.639	9.72
637.971	9.73
638.303	9.77
638.635	9.86
638.967	9.82
639.299	9.8
639.631	9.75
639.963	9.7
640.295	9.72
640.626	9.76
640.958	9.79
641.29	9.85
641.621	9.84
641.953	9.81
642.285	9.78
642.616	9.8
642.948	9.79
643.279	9.85
643.61	9.85
643.942	9.78
644.273	9.78
644.604	9.78
644.936	9.77
645.267	9.79
645.598	9.8
645.929	9.84
646.26	9.85
646.591	9.88
646.922	9.97
647.253	9.98
647.584	9.95
647.915	9.94
648.245	9.93
648.576	9.95
648.907	9.96
649.238	9.97
649.568	10
649.899	9.97
650.229	9.92
650.56	9.95
650.89	9.98
651.221	9.98
651.551	9.91
651.882	9.92
652.212	9.94
652.542	9.92
652.872	9.89
653.203	9.93
653.533	9.9
653.863	9.92
654.193	9.93
654.523	9.96
654.853	9.94
655.183	9.94
655.513	9.9
655.843	9.93
656.172	9.98
656.502	9.97
656.832	10.03
657.162	10.08
657.491	10.03
657.821	10.06
658.15	10.07
658.48	10.17
658.809	10.12
659.139	10.06
659.468	10.11
659.798	10.17
660.127	10.18
660.456	10.18
660.785	10.18
661.115	10.15
661.444	10.19
661.773	10.22
662.102	10.23
662.431	10.32
662.76	10.28
663.089	10.28
663.418	10.27
663.747	10.2
664.076	10.12
664.404	10.17
664.733	10.24
665.062	10.27
665.39	10.19
665.719	10.21
666.048	10.27
666.376	10.26
666.705	10.23
667.033	10.15
667.362	10.21
667.69	10.17
668.018	10.23
668.347	10.24
668.675	10.31
669.003	10.33
669.331	10.37
669.659	10.37
669.987	10.41
670.315	10.42
670.643	10.48
670.971	10.61
671.299	10.68
671.627	10.59
671.955	10.58
672.283	10.62
672.61	10.69
672.938	10.62
673.266	10.61
673.593	10.72
673.921	10.79
674.249	10.79
674.576	10.78
674.904	10.78
675.231	10.69
675.558	10.58
675.886	10.61
