Data from BA28420_Reflection_00003.txt Node
Date: Mon Nov 18 16:08:17 EST 2019
User: vgr7
Spectrometer: USB2G7710
Scans to average: 3
Trigger mode: 4
Integration Time (sec): 2.000000E-2
Electric dark correction enabled: true
Boxcar width: 10
XAxis mode: Wavelengths
Number of Pixels in Spectrum: 2048
>>>>>Begin Spectral Data<<<<<
177.721	-108.22
178.105	449.21
178.488	-1420.47
178.871	-48.78
179.254	-86.84
179.636	-8.95
180.019	-99.81
180.402	300
180.785	46.13
181.168	147.01
181.55	398.85
181.933	80.06
182.316	91.88
182.698	154.72
183.081	241.29
183.463	130.94
183.846	95.05
184.228	51.55
184.611	98.6
184.993	120.2
185.376	89.78
185.758	-5677.78
186.14	384.79
186.522	836.32
186.904	-442.12
187.287	955.35
187.669	-546.46
188.051	148.87
188.433	107.45
188.815	104.55
189.197	91.69
189.579	117.09
189.961	31.41
190.342	49.69
190.724	30.09
191.106	56.48
191.488	97.23
191.869	194.56
192.251	736.02
192.633	363.81
193.014	140.19
193.396	179.29
193.777	174.17
194.159	139.92
194.54	143.8
194.922	188.61
195.303	174.31
195.684	263.16
196.065	512.17
196.447	313.87
196.828	296.86
197.209	351.61
197.59	383.29
197.971	545.2
198.352	-846
198.733	-816.27
199.114	-872.09
199.495	-378.63
199.876	-264.07
200.257	-215.73
200.638	-172.93
201.018	-162.32
201.399	-166.96
201.78	-107.82
202.16	-117.14
202.541	-141.66
202.922	-193.53
203.302	-209.93
203.683	-184.16
204.063	-206.68
204.444	-164.56
204.824	-131.31
205.204	-135.57
205.585	-144.11
205.965	-141.05
206.345	-204.07
206.725	-245.92
207.106	-238.48
207.486	-631.26
207.866	-540.81
208.246	-629.23
208.626	-691.18
209.006	-407
209.386	-417.41
209.766	-443.36
210.145	-889.38
210.525	-309.13
210.905	-143.85
211.285	-118.55
211.664	-145.2
212.044	-236.72
212.424	-252.35
212.803	-464.66
213.183	-214.08
213.562	-147.92
213.942	-129.36
214.321	-94.13
214.701	-100.57
215.08	-76.08
215.459	-76.89
215.838	-65.97
216.218	-76.76
216.597	-62.08
216.976	-73.66
217.355	-60.13
217.734	-67.77
218.113	-40.05
218.492	-40.3
218.871	-50.42
219.25	-45.26
219.629	-50.5
220.008	-43.3
220.387	-29.02
220.766	-24.97
221.144	-43.61
221.523	-54.3
221.902	-68.07
222.28	-53.11
222.659	-46
223.037	-44.99
223.416	-36.73
223.794	-41.84
224.173	-28.14
224.551	-30.6
224.929	-22.12
225.308	-23.58
225.686	-28.05
226.064	-21.56
226.442	-25.23
226.821	-19.57
227.199	-18.35
227.577	-23
227.955	-21.11
228.333	-21.8
228.711	-20.43
229.089	-15.7
229.467	-16.04
229.845	-14.73
230.222	-12.83
230.6	-14.85
230.978	-13.69
231.356	-12.06
231.733	-11.5
232.111	-10.6
232.488	-7.91
232.866	-10.18
233.243	-11.65
233.621	-10.25
233.998	-8.82
234.376	-8.19
234.753	-8.14
235.13	-9.76
235.508	-6.29
235.885	-7.14
236.262	-7.67
236.639	-6.73
237.016	-5.58
237.393	-3.6
237.77	-2.54
238.147	-2.5
238.524	-0.99
238.901	-0.49
239.278	0.32
239.655	1.43
240.032	1.55
240.409	1.18
240.785	1.84
241.162	3.07
241.539	2.92
241.915	2.3
242.292	1.75
242.668	2.02
243.045	2.58
243.421	2.3
243.798	2.51
244.174	2.62
244.551	2.62
244.927	2.15
245.303	2.24
245.679	2.51
246.056	2.47
246.432	2.51
246.808	2.63
247.184	2.23
247.56	1.99
247.936	2.13
248.312	2.15
248.688	2.25
249.064	1.98
249.44	1.98
249.815	2.12
250.191	2.24
250.567	2.12
250.943	2
251.318	2.33
251.694	2.25
252.069	2.14
252.445	1.91
252.82	1.99
253.196	2.01
253.571	1.63
253.947	1.65
254.322	1.97
254.697	1.81
255.073	2.07
255.448	1.99
255.823	1.85
256.198	1.88
256.573	1.92
256.948	2.11
257.323	2.31
257.698	2.4
258.073	2.56
258.448	2.67
258.823	2.86
259.198	2.77
259.573	2.9
259.948	3
260.322	3.16
260.697	3.36
261.072	3.29
261.446	3.27
261.821	3.25
262.195	3.05
262.57	3.05
262.944	3
263.319	3.06
263.693	3.01
264.067	3.08
264.442	3.12
264.816	3.01
265.19	2.91
265.564	2.69
265.938	2.45
266.313	2.3
266.687	2.35
267.061	2.53
267.435	2.58
267.809	2.68
268.183	2.74
268.556	2.52
268.93	2.66
269.304	2.67
269.678	2.64
270.051	2.68
270.425	2.62
270.799	2.71
271.172	2.75
271.546	2.89
271.919	2.88
272.293	2.77
272.666	2.85
273.04	2.89
273.413	3.03
273.787	3.25
274.16	3.32
274.533	3.18
274.906	3.09
275.279	3.06
275.653	2.89
276.026	3
276.399	3.11
276.772	3.07
277.145	3.07
277.518	3.01
277.891	2.94
278.263	2.95
278.636	2.87
279.009	2.72
279.382	2.83
279.755	2.67
280.127	2.91
280.5	3.12
280.872	3.24
281.245	3.13
281.617	3.16
281.99	3.03
282.362	3.08
282.735	2.89
283.107	2.75
283.479	2.78
283.852	2.67
284.224	2.6
284.596	2.52
284.968	2.59
285.34	2.67
285.713	2.64
286.085	2.56
286.457	2.74
286.829	2.93
287.201	2.82
287.572	2.83
287.944	2.69
288.316	2.61
288.688	2.52
289.06	2.61
289.431	2.56
289.803	2.63
290.175	2.61
290.546	2.79
290.918	2.84
291.289	2.82
291.661	2.73
292.032	2.75
292.403	2.74
292.775	2.72
293.146	2.75
293.517	2.86
293.889	3.06
294.26	2.89
294.631	2.71
295.002	2.55
295.373	2.59
295.744	2.62
296.115	2.62
296.486	2.52
296.857	2.5
297.228	2.46
297.599	2.59
297.97	2.66
298.34	2.77
298.711	2.79
299.082	2.74
299.452	2.85
299.823	2.92
300.194	2.92
300.564	2.92
300.935	2.87
301.305	2.8
301.676	2.79
302.046	2.87
302.416	3.14
302.787	3.28
303.157	3.39
303.527	3.23
303.897	3.31
304.267	3.54
304.637	3.62
305.008	3.69
305.378	3.68
305.748	3.54
306.117	3.27
306.487	3.35
306.857	3.46
307.227	3.51
307.597	3.45
307.967	3.53
308.336	3.61
308.706	3.62
309.076	3.7
309.445	3.57
309.815	3.54
310.184	3.37
310.554	3.34
310.923	3.25
311.293	3.34
311.662	3.13
312.031	3.06
312.401	2.98
312.77	3.02
313.139	2.99
313.508	3.01
313.877	3.11
314.246	3.11
314.616	3.09
314.985	3.06
315.353	3.05
315.722	3.05
316.091	2.82
316.46	2.76
316.829	2.67
317.198	2.9
317.567	2.79
317.935	2.75
318.304	2.8
318.672	2.83
319.041	3.05
319.41	3.15
319.778	3.08
320.147	3.12
320.515	3.14
320.883	2.89
321.252	2.98
321.62	2.98
321.988	2.89
322.357	2.9
322.725	2.76
323.093	2.76
323.461	2.74
323.829	2.9
324.197	2.96
324.565	2.92
324.933	2.71
325.301	2.74
325.669	2.71
326.037	2.65
326.405	2.8
326.772	2.81
327.14	2.73
327.508	2.79
327.875	2.65
328.243	2.55
328.61	2.68
328.978	2.67
329.346	2.81
329.713	2.75
330.08	2.73
330.448	2.79
330.815	2.67
331.182	2.73
331.55	2.71
331.917	2.7
332.284	2.75
332.651	2.69
333.018	2.83
333.385	2.89
333.752	2.95
334.119	2.78
334.486	2.72
334.853	2.81
335.22	2.88
335.587	3.04
335.954	3.15
336.32	3.14
336.687	3.03
337.054	2.94
337.42	3.01
337.787	3.1
338.153	3.11
338.52	3.21
338.886	2.96
339.253	2.97
339.619	3.02
339.986	2.97
340.352	3.06
340.718	3.03
341.084	2.95
341.451	3.07
341.817	3.1
342.183	3.08
342.549	3.1
342.915	3.12
343.281	3.06
343.647	2.88
344.013	2.91
344.379	2.95
344.745	2.88
345.11	2.9
345.476	2.82
345.842	2.83
346.208	2.87
346.573	3.01
346.939	3.12
347.304	3.15
347.67	3.21
348.035	3.25
348.401	3.22
348.766	3.37
349.132	3.29
349.497	3.37
349.862	3.47
350.228	3.44
350.593	3.31
350.958	3.34
351.323	3.45
351.688	3.44
352.053	3.58
352.418	3.65
352.783	3.69
353.148	3.66
353.513	3.58
353.878	3.55
354.243	3.62
354.608	3.54
354.972	3.6
355.337	3.61
355.702	3.64
356.066	3.72
356.431	3.64
356.795	3.6
357.16	3.55
357.524	3.45
357.889	3.52
358.253	3.6
358.618	3.64
358.982	3.64
359.346	3.61
359.71	3.49
360.075	3.46
360.439	3.45
360.803	3.51
361.167	3.57
361.531	3.55
361.895	3.55
362.259	3.56
362.623	3.5
362.987	3.49
363.351	3.45
363.714	3.44
364.078	3.42
364.442	3.42
364.806	3.39
365.169	3.41
365.533	3.38
365.896	3.3
366.26	3.23
366.623	3.17
366.987	3.11
367.35	3.14
367.714	3.09
368.077	3.09
368.44	3.08
368.803	3.1
369.167	3.09
369.53	2.98
369.893	3.03
370.256	3.07
370.619	3.07
370.982	3.05
371.345	3.01
371.708	2.99
372.071	3.06
372.434	3.12
372.797	3.12
373.159	3.08
373.522	3.19
373.885	3.28
374.247	3.32
374.61	3.38
374.973	3.39
375.335	3.48
375.698	3.44
376.06	3.4
376.423	3.38
376.785	3.41
377.147	3.47
377.51	3.48
377.872	3.46
378.234	3.49
378.596	3.52
378.958	3.49
379.321	3.56
379.683	3.5
380.045	3.49
380.407	3.47
380.769	3.48
381.13	3.42
381.492	3.39
381.854	3.4
382.216	3.42
382.578	3.47
382.939	3.43
383.301	3.47
383.663	3.49
384.024	3.45
384.386	3.45
384.747	3.5
385.109	3.45
385.47	3.42
385.832	3.39
386.193	3.45
386.554	3.46
386.916	3.48
387.277	3.55
387.638	3.55
387.999	3.55
388.36	3.57
388.721	3.58
389.082	3.56
389.443	3.56
389.804	3.56
390.165	3.52
390.526	3.54
390.887	3.53
391.248	3.54
391.609	3.62
391.969	3.65
392.33	3.64
392.691	3.67
393.051	3.69
393.412	3.7
393.772	3.64
394.133	3.68
394.493	3.66
394.854	3.63
395.214	3.62
395.574	3.63
395.935	3.65
396.295	3.68
396.655	3.66
397.015	3.66
397.376	3.69
397.736	3.72
398.096	3.74
398.456	3.79
398.816	3.79
399.176	3.77
399.535	3.74
399.895	3.72
400.255	3.72
400.615	3.7
400.975	3.69
401.334	3.73
401.694	3.74
402.054	3.75
402.413	3.78
402.773	3.77
403.132	3.78
403.492	3.78
403.851	3.79
404.211	3.8
404.57	3.83
404.929	3.8
405.288	3.82
405.648	3.81
406.007	3.77
406.366	3.78
406.725	3.81
407.084	3.83
407.443	3.85
407.802	3.88
408.161	3.91
408.52	3.91
408.879	3.89
409.238	3.87
409.596	3.86
409.955	3.86
410.314	3.9
410.673	3.87
411.031	3.83
411.39	3.83
411.748	3.85
412.107	3.86
412.465	3.86
412.824	3.84
413.182	3.84
413.54	3.86
413.899	3.88
414.257	3.84
414.615	3.84
414.974	3.84
415.332	3.82
415.69	3.83
416.048	3.83
416.406	3.83
416.764	3.84
417.122	3.85
417.48	3.83
417.838	3.84
418.195	3.85
418.553	3.88
418.911	3.88
419.269	3.9
419.626	3.9
419.984	3.92
420.342	3.92
420.699	3.91
421.057	3.91
421.414	3.88
421.772	3.89
422.129	3.89
422.486	3.89
422.844	3.9
423.201	3.88
423.558	3.88
423.915	3.89
424.273	3.88
424.63	3.88
424.987	3.88
425.344	3.89
425.701	3.89
426.058	3.89
426.415	3.9
426.772	3.9
427.128	3.88
427.485	3.88
427.842	3.87
428.199	3.89
428.555	3.91
428.912	3.92
429.269	3.94
429.625	3.94
429.982	3.94
430.338	3.93
430.695	3.96
431.051	3.97
431.407	3.97
431.764	3.97
432.12	3.97
432.476	3.97
432.832	3.94
433.189	3.95
433.545	3.94
433.901	3.93
434.257	3.92
434.613	3.92
434.969	3.91
435.325	3.93
435.681	3.91
436.036	3.91
436.392	3.92
436.748	3.91
437.104	3.91
437.459	3.92
437.815	3.93
438.171	3.95
438.526	3.94
438.882	3.96
439.237	3.96
439.593	3.98
439.948	3.99
440.304	4.01
440.659	4
441.014	4.02
441.369	4.01
441.725	4
442.08	4.02
442.435	4.03
442.79	4.02
443.145	4.04
443.5	4.04
443.855	4.03
444.21	4.04
444.565	4.05
444.92	4.04
445.275	4.03
445.629	4.01
445.984	4.02
446.339	4.01
446.693	4.01
447.048	4
447.403	3.99
447.757	4
448.112	3.98
448.466	3.97
448.82	3.98
449.175	3.98
449.529	3.96
449.883	3.94
450.238	3.93
450.592	3.92
450.946	3.91
451.3	3.91
451.654	3.91
452.008	3.92
452.362	3.92
452.716	3.93
453.07	3.93
453.424	3.94
453.778	3.95
454.132	3.97
454.486	3.97
454.839	3.99
455.193	3.98
455.547	4
455.9	4.02
456.254	4.02
456.607	4.04
456.961	4.04
457.314	4.05
457.668	4.07
458.021	4.08
458.375	4.08
458.728	4.07
459.081	4.05
459.434	4.05
459.787	4.05
460.141	4.04
460.494	4.04
460.847	4.02
461.2	4
461.553	3.98
461.906	3.98
462.259	3.99
462.611	3.98
462.964	3.98
463.317	3.98
463.67	3.95
464.022	3.96
464.375	3.98
464.728	3.99
465.08	3.98
465.433	3.97
465.785	3.96
466.138	3.96
466.49	3.97
466.843	3.95
467.195	3.98
467.547	4
467.899	3.99
468.252	4
468.604	4.02
468.956	4.03
469.308	4.04
469.66	4.03
470.012	4.07
470.364	4.08
470.716	4.07
471.068	4.11
471.42	4.11
471.772	4.13
472.123	4.13
472.475	4.13
472.827	4.14
473.178	4.17
473.53	4.18
473.882	4.18
474.233	4.19
474.585	4.17
474.936	4.17
475.288	4.17
475.639	4.21
475.99	4.23
476.342	4.26
476.693	4.26
477.044	4.25
477.395	4.24
477.746	4.26
478.097	4.26
478.448	4.23
478.8	4.23
479.15	4.2
479.501	4.21
479.852	4.21
480.203	4.22
480.554	4.22
480.905	4.22
481.255	4.24
481.606	4.25
481.957	4.27
482.307	4.28
482.658	4.28
483.009	4.27
483.359	4.27
483.709	4.28
484.06	4.28
484.41	4.29
484.761	4.29
485.111	4.29
485.461	4.28
485.811	4.29
486.162	4.3
486.512	4.31
486.862	4.31
487.212	4.32
487.562	4.32
487.912	4.33
488.262	4.33
488.612	4.33
488.961	4.32
489.311	4.32
489.661	4.31
490.011	4.32
490.36	4.32
490.71	4.32
491.06	4.31
491.409	4.3
491.759	4.31
492.108	4.3
492.458	4.29
492.807	4.31
493.157	4.31
493.506	4.32
493.855	4.32
494.204	4.33
494.554	4.32
494.903	4.31
495.252	4.31
495.601	4.33
495.95	4.34
496.299	4.33
496.648	4.32
496.997	4.33
497.346	4.34
497.695	4.34
498.043	4.35
498.392	4.33
498.741	4.36
499.09	4.34
499.438	4.34
499.787	4.37
500.135	4.36
500.484	4.36
500.832	4.36
501.181	4.35
501.529	4.36
501.878	4.37
502.226	4.39
502.574	4.36
502.923	4.33
503.271	4.32
503.619	4.36
503.967	4.38
504.315	4.38
504.663	4.37
505.011	4.37
505.359	4.37
505.707	4.4
506.055	4.4
506.403	4.42
506.751	4.43
507.098	4.42
507.446	4.43
507.794	4.41
508.141	4.41
508.489	4.39
508.837	4.38
509.184	4.38
509.531	4.39
509.879	4.43
510.226	4.44
510.574	4.46
510.921	4.43
511.268	4.42
511.616	4.42
511.963	4.43
512.31	4.43
512.657	4.43
513.004	4.45
513.351	4.46
513.698	4.47
514.045	4.46
514.392	4.48
514.739	4.49
515.086	4.5
515.432	4.51
515.779	4.53
516.126	4.54
516.473	4.55
516.819	4.54
517.166	4.53
517.512	4.53
517.859	4.53
518.205	4.54
518.552	4.56
518.898	4.56
519.245	4.57
519.591	4.58
519.937	4.57
520.283	4.57
520.629	4.57
520.976	4.56
521.322	4.57
521.668	4.57
522.014	4.58
522.36	4.58
522.706	4.57
523.052	4.57
523.398	4.6
523.743	4.61
524.089	4.63
524.435	4.63
524.781	4.65
525.126	4.67
525.472	4.66
525.817	4.66
526.163	4.67
526.509	4.67
526.854	4.67
527.199	4.68
527.545	4.68
527.89	4.69
528.235	4.69
528.581	4.71
528.926	4.71
529.271	4.72
529.616	4.73
529.961	4.73
530.306	4.75
530.651	4.73
530.996	4.73
531.341	4.73
531.686	4.74
532.031	4.74
532.376	4.74
532.721	4.76
533.065	4.77
533.41	4.78
533.755	4.78
534.099	4.79
534.444	4.8
534.788	4.81
535.133	4.79
535.477	4.8
535.822	4.78
536.166	4.78
536.51	4.78
536.855	4.76
537.199	4.77
537.543	4.76
537.887	4.78
538.231	4.78
538.576	4.79
538.92	4.78
539.264	4.78
539.608	4.79
539.951	4.79
540.295	4.78
540.639	4.78
540.983	4.78
541.327	4.78
541.671	4.77
542.014	4.76
542.358	4.77
542.701	4.77
543.045	4.77
543.389	4.76
543.732	4.77
544.075	4.79
544.419	4.79
544.762	4.79
545.105	4.78
545.449	4.79
545.792	4.78
546.135	4.79
546.478	4.81
546.821	4.79
547.165	4.78
547.508	4.78
547.851	4.77
548.194	4.76
548.536	4.76
548.879	4.77
549.222	4.79
549.565	4.79
549.908	4.8
550.25	4.82
550.593	4.83
550.936	4.8
551.278	4.8
551.621	4.81
551.963	4.85
552.306	4.83
552.648	4.82
552.991	4.82
553.333	4.83
553.675	4.82
554.017	4.83
554.36	4.83
554.702	4.86
555.044	4.88
555.386	4.89
555.728	4.9
556.07	4.9
556.412	4.93
556.754	4.93
557.096	4.91
557.438	4.91
557.78	4.93
558.121	4.98
558.463	4.98
558.805	4.97
559.147	4.96
559.488	5.01
559.83	5.01
560.171	5.01
560.513	5.01
560.854	5
561.196	5.01
561.537	5.02
561.878	4.98
562.22	4.98
562.561	4.98
562.902	4.98
563.243	4.95
563.584	4.94
563.925	4.94
564.266	4.98
564.607	4.97
564.948	4.98
565.289	4.98
565.63	4.97
565.971	4.97
566.312	4.96
566.653	4.93
566.993	4.94
567.334	4.95
567.675	4.94
568.015	4.94
568.356	4.93
568.696	4.96
569.037	4.99
569.377	5
569.718	5.01
570.058	5.02
570.398	5.06
570.739	5.06
571.079	5.06
571.419	5.07
571.759	5.1
572.099	5.09
572.439	5.09
572.779	5.1
573.119	5.14
573.459	5.16
573.799	5.19
574.139	5.19
574.479	5.18
574.819	5.21
575.158	5.18
575.498	5.2
575.838	5.18
576.177	5.16
576.517	5.18
576.856	5.17
577.196	5.17
577.535	5.16
577.875	5.14
578.214	5.13
578.553	5.11
578.893	5.09
579.232	5.09
579.571	5.11
579.91	5.1
580.25	5.08
580.589	5.1
580.928	5.09
581.267	5.08
581.606	5.09
581.945	5.09
582.283	5.14
582.622	5.13
582.961	5.15
583.3	5.16
583.639	5.18
583.977	5.2
584.316	5.19
584.654	5.15
584.993	5.17
585.332	5.2
585.67	5.21
586.008	5.2
586.347	5.18
586.685	5.14
587.024	5.15
587.362	5.12
587.7	5.11
588.038	5.12
588.376	5.13
588.715	5.13
589.053	5.14
589.391	5.18
589.729	5.2
590.067	5.17
590.404	5.21
590.742	5.16
591.08	5.14
591.418	5.15
591.756	5.19
592.093	5.2
592.431	5.22
592.769	5.25
593.106	5.27
593.444	5.26
593.781	5.28
594.119	5.28
594.456	5.28
594.793	5.26
595.131	5.25
595.468	5.26
595.805	5.26
596.143	5.23
596.48	5.17
596.817	5.15
597.154	5.19
597.491	5.18
597.828	5.17
598.165	5.2
598.502	5.2
598.839	5.22
599.176	5.21
599.512	5.2
599.849	5.17
600.186	5.14
600.523	5.21
600.859	5.21
601.196	5.22
601.532	5.22
601.869	5.2
602.205	5.22
602.542	5.22
602.878	5.23
603.215	5.27
603.551	5.29
603.887	5.29
604.223	5.26
604.56	5.25
604.896	5.26
605.232	5.27
605.568	5.31
605.904	5.27
606.24	5.29
606.576	5.3
606.912	5.31
607.248	5.36
607.583	5.37
607.919	5.37
608.255	5.36
608.591	5.38
608.926	5.4
609.262	5.41
609.597	5.44
609.933	5.49
610.268	5.47
610.604	5.48
610.939	5.48
611.275	5.51
611.61	5.52
611.945	5.55
612.281	5.58
612.616	5.55
612.951	5.59
613.286	5.62
613.621	5.65
613.956	5.62
614.291	5.61
614.626	5.58
614.961	5.61
615.296	5.63
615.631	5.63
615.966	5.68
616.3	5.66
616.635	5.62
616.97	5.61
617.304	5.58
617.639	5.57
617.973	5.63
618.308	5.61
618.642	5.62
618.977	5.6
619.311	5.57
619.646	5.61
619.98	5.63
620.314	5.6
620.648	5.56
620.983	5.6
621.317	5.57
621.651	5.61
621.985	5.63
622.319	5.65
622.653	5.68
622.987	5.66
623.321	5.71
623.655	5.77
623.988	5.77
624.322	5.86
624.656	5.88
624.99	5.89
625.323	5.88
625.657	5.87
625.99	5.87
626.324	5.84
626.657	5.79
626.991	5.77
627.324	5.76
627.658	5.78
627.991	5.84
628.324	5.87
628.657	5.83
628.991	5.81
629.324	5.84
629.657	5.84
629.99	5.81
630.323	5.74
630.656	5.69
630.989	5.67
631.322	5.67
631.655	5.67
631.987	5.65
632.32	5.65
632.653	5.68
632.986	5.69
633.318	5.7
633.651	5.73
633.984	5.74
634.316	5.75
634.649	5.82
634.981	5.7
635.313	5.65
635.646	5.65
635.978	5.65
636.31	5.63
636.643	5.62
636.975	5.65
637.307	5.7
637.639	5.72
637.971	5.73
638.303	5.67
638.635	5.65
638.967	5.69
639.299	5.73
639.631	5.7
639.963	5.62
640.295	5.67
640.626	5.75
640.958	5.79
641.29	5.85
641.621	5.78
641.953	5.83
642.285	5.85
642.616	5.92
642.948	5.91
643.279	5.85
643.61	5.86
643.942	5.88
644.273	5.84
644.604	5.85
644.936	5.85
645.267	5.87
645.598	5.88
645.929	5.82
646.26	5.79
646.591	5.81
646.922	5.88
647.253	5.82
647.584	5.82
647.915	5.79
648.245	5.76
648.576	5.82
648.907	5.86
649.238	5.88
649.568	5.82
649.899	5.83
650.229	5.88
650.56	5.89
650.89	5.87
651.221	5.9
651.551	5.86
651.882	5.86
652.212	5.82
652.542	5.89
652.872	5.91
653.203	5.91
653.533	5.96
653.863	5.93
654.193	5.95
654.523	5.85
654.853	5.87
655.183	5.91
655.513	5.91
655.843	5.91
656.172	5.88
656.502	5.95
656.832	5.93
657.162	6
657.491	5.96
657.821	6.02
658.15	6.01
658.48	6.05
658.809	6.06
659.139	6.12
659.468	6.1
659.798	6.11
660.127	6.17
660.456	6.15
660.785	6.19
661.115	6.24
661.444	6.26
661.773	6.26
662.102	6.21
662.431	6.17
662.76	6.2
663.089	6.31
663.418	6.23
663.747	6.23
664.076	6.24
664.404	6.31
664.733	6.28
665.062	6.32
665.39	6.33
665.719	6.32
666.048	6.33
666.376	6.26
666.705	6.25
667.033	6.23
667.362	6.23
667.69	6.2
668.018	6.21
668.347	6.16
668.675	6.15
669.003	6.19
669.331	6.19
669.659	6.16
669.987	6.15
670.315	6.18
670.643	6.24
670.971	6.18
671.299	6.18
671.627	6.13
671.955	6.21
672.283	6.17
672.61	6.19
672.938	6.19
673.266	6.24
673.593	6.28
673.921	6.23
674.249	6.3
674.576	6.37
674.904	6.36
675.231	6.43
675.558	6.42
