Data from BA28415_Reflection_00006.txt Node
Date: Mon Nov 18 16:02:17 EST 2019
User: vgr7
Spectrometer: USB2G7710
Scans to average: 3
Trigger mode: 4
Integration Time (sec): 2.000000E-2
Electric dark correction enabled: true
Boxcar width: 10
XAxis mode: Wavelengths
Number of Pixels in Spectrum: 2048
>>>>>Begin Spectral Data<<<<<
177.721	129.75
178.105	167.26
178.488	242.95
178.871	104.7
179.254	70.27
179.636	34.78
180.019	51.12
180.402	67.86
180.785	-120.3
181.168	8.97
181.55	-26.61
181.933	62.28
182.316	66.99
182.698	33.04
183.081	42.17
183.463	42.02
183.846	43.85
184.228	40.63
184.611	29.72
184.993	16.15
185.376	-15.82
185.758	-24.62
186.14	-34.15
186.522	5.6
186.904	-38.9
187.287	-31.46
187.669	-77.14
188.051	-58.89
188.433	-333.21
188.815	-676.98
189.197	196.58
189.579	48.47
189.961	67.17
190.342	68.71
190.724	-20.1
191.106	-24.54
191.488	-57.76
191.869	-16.68
192.251	-93.55
192.633	-38.55
193.014	-75.02
193.396	-103.5
193.777	-145.64
194.159	-217.79
194.54	-95.8
194.922	-136.48
195.303	-124.73
195.684	-136.79
196.065	-56.49
196.447	-225.06
196.828	-174.96
197.209	-90.36
197.59	-434.65
197.971	-87.83
198.352	-50.81
198.733	46.9
199.114	-58.17
199.495	-135.87
199.876	498.34
200.257	272.66
200.638	-205.45
201.018	248.41
201.399	210.43
201.78	-170.97
202.16	50.14
202.541	116.37
202.922	47.96
203.302	100
203.683	62.82
204.063	100
204.444	231.23
204.824	187.35
205.204	168.72
205.585	799.55
205.965	170.94
206.345	182.8
206.725	228.37
207.106	282.17
207.486	221.53
207.866	322.67
208.246	668.13
208.626	221.11
209.006	756.6
209.386	630.53
209.766	527.65
210.145	-3787.32
210.525	-3985.11
210.905	-261.15
211.285	-131.66
211.664	-147.42
212.044	-118.77
212.424	-63.48
212.803	-68.6
213.183	-68.29
213.562	-89.65
213.942	-57.53
214.321	-60.9
214.701	-66.02
215.08	-84.84
215.459	-48.68
215.838	-9.97
216.218	-30.17
216.597	-10.95
216.976	1.31
217.355	17.56
217.734	5.67
218.113	18.53
218.492	2.59
218.871	0.59
219.25	26.4
219.629	47.12
220.008	38.82
220.387	11.84
220.766	55.69
221.144	-69.2
221.523	-0.33
221.902	100
222.28	43.01
222.659	38.75
223.037	46.55
223.416	21.26
223.794	37.48
224.173	56.51
224.551	39.65
224.929	12.4
225.308	17.2
225.686	18.91
226.064	21.85
226.442	21.82
226.821	27.17
227.199	22.1
227.577	19.66
227.955	14.73
228.333	14.91
228.711	16.47
229.089	19.36
229.467	14.5
229.845	12.84
230.222	13.81
230.6	13.72
230.978	11.89
231.356	14.04
231.733	11.42
232.111	10.12
232.488	10.07
232.866	10.84
233.243	10.66
233.621	10.3
233.998	11.24
234.376	10.23
234.753	8.89
235.13	8.53
235.508	8.46
235.885	9.34
236.262	8.24
236.639	7.31
237.016	6.9
237.393	8.32
237.77	8.81
238.147	8.57
238.524	8.05
238.901	9.26
239.278	8.79
239.655	9.25
240.032	9.19
240.409	8.59
240.785	8.58
241.162	8.6
241.539	8.94
241.915	8.38
242.292	8.09
242.668	7.84
243.045	7.45
243.421	7.88
243.798	7.62
244.174	7.42
244.551	7.46
244.927	6.99
245.303	7.21
245.679	7.26
246.056	6.94
246.432	6.92
246.808	6.79
247.184	6.55
247.56	6.22
247.936	6.14
248.312	6.26
248.688	6.29
249.064	5.99
249.44	5.65
249.815	5.71
250.191	5.89
250.567	6.05
250.943	6.01
251.318	5.77
251.694	5.98
252.069	6.25
252.445	6.27
252.82	6.65
253.196	6.33
253.571	6.16
253.947	6.65
254.322	6.91
254.697	6.31
255.073	6.14
255.448	6.19
255.823	6.02
256.198	5.91
256.573	5.72
256.948	5.8
257.323	5.93
257.698	5.97
258.073	5.82
258.448	5.76
258.823	5.78
259.198	5.67
259.573	5.47
259.948	5.35
260.322	5.37
260.697	5.27
261.072	5.09
261.446	5.08
261.821	4.85
262.195	4.72
262.57	4.91
262.944	4.85
263.319	4.86
263.693	4.77
264.067	4.88
264.442	4.87
264.816	4.87
265.19	4.85
265.564	4.72
265.938	4.8
266.313	4.73
266.687	4.8
267.061	4.83
267.435	4.93
267.809	4.96
268.183	4.94
268.556	4.73
268.93	4.91
269.304	5
269.678	5.12
270.051	5.06
270.425	4.99
270.799	5.27
271.172	5.21
271.546	5.24
271.919	5.09
272.293	5.24
272.666	5.21
273.04	5.22
273.413	5.14
273.787	5.05
274.16	4.83
274.533	4.73
274.906	4.73
275.279	4.64
275.653	4.82
276.026	4.7
276.399	4.93
276.772	4.98
277.145	4.86
277.518	4.87
277.891	4.88
278.263	4.87
278.636	4.82
279.009	4.91
279.382	4.92
279.755	4.97
280.127	5.11
280.5	5.29
280.872	5.29
281.245	5.3
281.617	5.27
281.99	5.54
282.362	5.65
282.735	5.56
283.107	5.74
283.479	5.63
283.852	5.6
284.224	5.56
284.596	5.53
284.968	5.6
285.34	5.6
285.713	5.66
286.085	5.79
286.457	5.91
286.829	5.94
287.201	6.01
287.572	6.05
287.944	5.86
288.316	5.85
288.688	5.84
289.06	5.82
289.431	5.83
289.803	5.74
290.175	5.78
290.546	5.89
290.918	5.78
291.289	5.79
291.661	5.79
292.032	5.86
292.403	5.95
292.775	6.09
293.146	6.11
293.517	6.09
293.889	6.03
294.26	6.06
294.631	6.05
295.002	6.13
295.373	6.23
295.744	6.23
296.115	6.24
296.486	6.29
296.857	6.35
297.228	6.46
297.599	6.48
297.97	6.51
298.34	6.6
298.711	6.63
299.082	6.63
299.452	6.78
299.823	6.85
300.194	6.87
300.564	6.73
300.935	6.81
301.305	6.81
301.676	7
302.046	6.95
302.416	6.98
302.787	6.91
303.157	6.76
303.527	6.86
303.897	6.83
304.267	6.86
304.637	6.94
305.008	7.04
305.378	7.12
305.748	7.11
306.117	7.07
306.487	7.14
306.857	7.07
307.227	6.97
307.597	6.93
307.967	6.82
308.336	6.85
308.706	6.9
309.076	6.95
309.445	6.76
309.815	6.79
310.184	6.68
310.554	6.72
310.923	6.71
311.293	6.66
311.662	6.66
312.031	6.61
312.401	6.53
312.77	6.51
313.139	6.54
313.508	6.53
313.877	6.51
314.246	6.43
314.616	6.49
314.985	6.56
315.353	6.61
315.722	6.81
316.091	6.82
316.46	6.67
316.829	6.64
317.198	6.79
317.567	6.69
317.935	6.69
318.304	6.68
318.672	6.8
319.041	6.84
319.41	6.89
319.778	6.97
320.147	7
320.515	6.9
320.883	6.75
321.252	6.79
321.62	6.71
321.988	6.75
322.357	6.84
322.725	6.83
323.093	6.73
323.461	6.52
323.829	6.49
324.197	6.56
324.565	6.61
324.933	6.53
325.301	6.54
325.669	6.7
326.037	6.58
326.405	6.48
326.772	6.61
327.14	6.52
327.508	6.41
327.875	6.33
328.243	6.46
328.61	6.62
328.978	6.55
329.346	6.7
329.713	6.6
330.08	6.55
330.448	6.42
330.815	6.48
331.182	6.53
331.55	6.63
331.917	6.5
332.284	6.58
332.651	6.43
333.018	6.49
333.385	6.47
333.752	6.62
334.119	6.7
334.486	6.52
334.853	6.59
335.22	6.64
335.587	6.75
335.954	6.66
336.32	6.57
336.687	6.62
337.054	6.63
337.42	6.7
337.787	6.77
338.153	6.8
338.52	6.81
338.886	6.83
339.253	6.77
339.619	6.8
339.986	6.73
340.352	6.94
340.718	6.83
341.084	6.8
341.451	6.82
341.817	6.86
342.183	6.84
342.549	6.86
342.915	6.86
343.281	6.87
343.647	6.89
344.013	6.9
344.379	6.93
344.745	6.9
345.11	6.94
345.476	6.81
345.842	6.88
346.208	6.81
346.573	6.83
346.939	6.96
347.304	6.93
347.67	6.9
348.035	6.75
348.401	6.84
348.766	6.95
349.132	6.93
349.497	6.9
349.862	7.03
350.228	7.01
350.593	6.97
350.958	7.06
351.323	7.03
351.688	7.06
352.053	7.1
352.418	7.05
352.783	7.09
353.148	7.17
353.513	7.22
353.878	7.29
354.243	7.31
354.608	7.24
354.972	7.36
355.337	7.37
355.702	7.46
356.066	7.48
356.431	7.42
356.795	7.38
357.16	7.32
357.524	7.25
357.889	7.21
358.253	7.24
358.618	7.17
358.982	7.2
359.346	7.15
359.71	7.16
360.075	7.17
360.439	7.14
360.803	7.08
361.167	7.03
361.531	6.98
361.895	6.92
362.259	6.93
362.623	6.89
362.987	6.88
363.351	6.89
363.714	6.92
364.078	6.89
364.442	6.87
364.806	6.88
365.169	6.9
365.533	6.96
365.896	6.99
366.26	7
366.623	6.98
366.987	6.97
367.35	6.91
367.714	6.94
368.077	6.91
368.44	6.91
368.803	6.88
369.167	6.87
369.53	6.84
369.893	6.8
370.256	6.83
370.619	6.84
370.982	6.83
371.345	6.78
371.708	6.82
372.071	6.85
372.434	6.85
372.797	6.85
373.159	6.84
373.522	6.88
373.885	6.84
374.247	6.9
374.61	6.96
374.973	6.87
375.335	6.88
375.698	6.98
376.06	7.06
376.423	7.1
376.785	7.13
377.147	7.24
377.51	7.28
377.872	7.3
378.234	7.31
378.596	7.29
378.958	7.27
379.321	7.23
379.683	7.27
380.045	7.29
380.407	7.3
380.769	7.31
381.13	7.3
381.492	7.29
381.854	7.23
382.216	7.17
382.578	7.26
382.939	7.23
383.301	7.16
383.663	7.12
384.024	7.12
384.386	7.15
384.747	7.1
385.109	7.05
385.47	7.01
385.832	7.02
386.193	7.02
386.554	7.02
386.916	7.02
387.277	6.98
387.638	6.99
387.999	6.95
388.36	6.94
388.721	6.9
389.082	6.95
389.443	6.93
389.804	6.94
390.165	6.91
390.526	6.93
390.887	6.96
391.248	7.01
391.609	7.01
391.969	7.02
392.33	7.01
392.691	7.05
393.051	7.06
393.412	7.08
393.772	7.1
394.133	7.11
394.493	7.12
394.854	7.12
395.214	7.07
395.574	7.07
395.935	7.07
396.295	7.07
396.655	7.04
397.015	7.08
397.376	7.12
397.736	7.12
398.096	7.12
398.456	7.08
398.816	7.04
399.176	7.02
399.535	7
399.895	6.97
400.255	6.92
400.615	6.94
400.975	6.9
401.334	6.87
401.694	6.86
402.054	6.86
402.413	6.89
402.773	6.91
403.132	6.93
403.492	6.89
403.851	6.87
404.211	6.9
404.57	6.86
404.929	6.84
405.288	6.8
405.648	6.81
406.007	6.85
406.366	6.81
406.725	6.83
407.084	6.84
407.443	6.88
407.802	6.94
408.161	6.92
408.52	6.91
408.879	6.93
409.238	6.95
409.596	6.97
409.955	6.96
410.314	6.97
410.673	6.94
411.031	6.94
411.39	6.96
411.748	6.95
412.107	6.96
412.465	7
412.824	7.03
413.182	7.02
413.54	7.02
413.899	7.05
414.257	7.02
414.615	7
414.974	6.99
415.332	6.93
415.69	6.94
416.048	6.95
416.406	6.95
416.764	6.93
417.122	6.95
417.48	6.94
417.838	6.93
418.195	6.93
418.553	6.94
418.911	6.94
419.269	6.93
419.626	6.93
419.984	6.92
420.342	6.9
420.699	6.91
421.057	6.89
421.414	6.9
421.772	6.9
422.129	6.91
422.486	6.9
422.844	6.89
423.201	6.88
423.558	6.88
423.915	6.89
424.273	6.88
424.63	6.87
424.987	6.86
425.344	6.86
425.701	6.88
426.058	6.89
426.415	6.88
426.772	6.86
427.128	6.84
427.485	6.83
427.842	6.85
428.199	6.84
428.555	6.82
428.912	6.81
429.269	6.83
429.625	6.81
429.982	6.81
430.338	6.83
430.695	6.85
431.051	6.82
431.407	6.81
431.764	6.8
432.12	6.76
432.476	6.75
432.832	6.72
433.189	6.71
433.545	6.7
433.901	6.71
434.257	6.73
434.613	6.75
434.969	6.74
435.325	6.72
435.681	6.73
436.036	6.75
436.392	6.74
436.748	6.72
437.104	6.73
437.459	6.72
437.815	6.71
438.171	6.7
438.526	6.73
438.882	6.72
439.237	6.74
439.593	6.76
439.948	6.78
440.304	6.79
440.659	6.78
441.014	6.76
441.369	6.76
441.725	6.74
442.08	6.73
442.435	6.75
442.79	6.76
443.145	6.76
443.5	6.77
443.855	6.76
444.21	6.77
444.565	6.78
444.92	6.79
445.275	6.78
445.629	6.77
445.984	6.76
446.339	6.76
446.693	6.73
447.048	6.72
447.403	6.71
447.757	6.69
448.112	6.7
448.466	6.71
448.82	6.71
449.175	6.7
449.529	6.69
449.883	6.69
450.238	6.67
450.592	6.65
450.946	6.63
451.3	6.62
451.654	6.6
452.008	6.6
452.362	6.59
452.716	6.58
453.07	6.58
453.424	6.57
453.778	6.56
454.132	6.57
454.486	6.58
454.839	6.57
455.193	6.58
455.547	6.56
455.9	6.58
456.254	6.59
456.607	6.61
456.961	6.62
457.314	6.62
457.668	6.63
458.021	6.62
458.375	6.64
458.728	6.66
459.081	6.67
459.434	6.65
459.787	6.65
460.141	6.67
460.494	6.66
460.847	6.69
461.2	6.71
461.553	6.71
461.906	6.71
462.259	6.73
462.611	6.74
462.964	6.79
463.317	6.77
463.67	6.77
464.022	6.76
464.375	6.77
464.728	6.77
465.08	6.77
465.433	6.8
465.785	6.79
466.138	6.8
466.49	6.81
466.843	6.82
467.195	6.82
467.547	6.81
467.899	6.85
468.252	6.83
468.604	6.84
468.956	6.84
469.308	6.85
469.66	6.84
470.012	6.86
470.364	6.84
470.716	6.84
471.068	6.85
471.42	6.88
471.772	6.9
472.123	6.89
472.475	6.91
472.827	6.91
473.178	6.92
473.53	6.91
473.882	6.91
474.233	6.93
474.585	6.93
474.936	6.95
475.288	6.93
475.639	6.95
475.99	6.97
476.342	6.98
476.693	6.97
477.044	6.98
477.395	6.98
477.746	6.95
478.097	6.95
478.448	6.97
478.8	6.97
479.15	6.98
479.501	6.99
479.852	6.99
480.203	6.99
480.554	7.01
480.905	7.02
481.255	7.02
481.606	7.03
481.957	7.03
482.307	7.04
482.658	7.06
483.009	7.05
483.359	7.03
483.709	7.04
484.06	7.04
484.41	7.05
484.761	7.05
485.111	7.05
485.461	7.06
485.811	7.05
486.162	7.05
486.512	7.05
486.862	7.05
487.212	7.04
487.562	7.05
487.912	7.04
488.262	7.04
488.612	7.04
488.961	7.03
489.311	7.04
489.661	7.03
490.011	7.01
490.36	7
490.71	7.01
491.06	7.01
491.409	7.01
491.759	7.01
492.108	7.01
492.458	7.02
492.807	7.03
493.157	7.03
493.506	7.05
493.855	7.04
494.204	7.03
494.554	7.04
494.903	7.03
495.252	7.03
495.601	7.04
495.95	7.05
496.299	7.05
496.648	7.04
496.997	7.07
497.346	7.11
497.695	7.15
498.043	7.15
498.392	7.16
498.741	7.17
499.09	7.17
499.438	7.17
499.787	7.18
500.135	7.19
500.484	7.21
500.832	7.22
501.181	7.25
501.529	7.29
501.878	7.3
502.226	7.33
502.574	7.33
502.923	7.36
503.271	7.36
503.619	7.38
503.967	7.39
504.315	7.38
504.663	7.39
505.011	7.4
505.359	7.42
505.707	7.43
506.055	7.46
506.403	7.49
506.751	7.52
507.098	7.55
507.446	7.57
507.794	7.59
508.141	7.58
508.489	7.58
508.837	7.6
509.184	7.61
509.531	7.6
509.879	7.62
510.226	7.62
510.574	7.65
510.921	7.64
511.268	7.64
511.616	7.65
511.963	7.66
512.31	7.66
512.657	7.65
513.004	7.67
513.351	7.67
513.698	7.68
514.045	7.67
514.392	7.68
514.739	7.68
515.086	7.69
515.432	7.7
515.779	7.71
516.126	7.72
516.473	7.71
516.819	7.74
517.166	7.75
517.512	7.76
517.859	7.76
518.205	7.76
518.552	7.8
518.898	7.82
519.245	7.82
519.591	7.82
519.937	7.8
520.283	7.8
520.629	7.82
520.976	7.8
521.322	7.82
521.668	7.81
522.014	7.81
522.36	7.82
522.706	7.82
523.052	7.82
523.398	7.85
523.743	7.87
524.089	7.91
524.435	7.93
524.781	7.92
525.126	7.92
525.472	7.96
525.817	7.96
526.163	7.95
526.509	7.95
526.854	7.97
527.199	7.99
527.545	7.99
527.89	7.99
528.235	8.01
528.581	8.01
528.926	8.02
529.271	8.04
529.616	8.03
529.961	8.05
530.306	8.06
530.651	8.04
530.996	8.05
531.341	8.04
531.686	8.03
532.031	8.05
532.376	8.06
532.721	8.06
533.065	8.06
533.41	8.08
533.755	8.08
534.099	8.07
534.444	8.09
534.788	8.11
535.133	8.1
535.477	8.1
535.822	8.09
536.166	8.09
536.51	8.11
536.855	8.11
537.199	8.11
537.543	8.1
537.887	8.14
538.231	8.15
538.576	8.16
538.92	8.19
539.264	8.21
539.608	8.21
539.951	8.22
540.295	8.21
540.639	8.21
540.983	8.22
541.327	8.24
541.671	8.23
542.014	8.22
542.358	8.23
542.701	8.24
543.045	8.25
543.389	8.27
543.732	8.25
544.075	8.26
544.419	8.26
544.762	8.28
545.105	8.26
545.449	8.27
545.792	8.26
546.135	8.24
546.478	8.22
546.821	8.21
547.165	8.21
547.508	8.25
547.851	8.23
548.194	8.23
548.536	8.2
548.879	8.23
549.222	8.26
549.565	8.28
549.908	8.28
550.25	8.29
550.593	8.27
550.936	8.26
551.278	8.27
551.621	8.26
551.963	8.28
552.306	8.28
552.648	8.26
552.991	8.26
553.333	8.26
553.675	8.28
554.017	8.29
554.36	8.3
554.702	8.3
555.044	8.32
555.386	8.32
555.728	8.36
556.07	8.33
556.412	8.31
556.754	8.31
557.096	8.32
557.438	8.33
557.78	8.34
558.121	8.39
558.463	8.38
558.805	8.42
559.147	8.41
559.488	8.43
559.83	8.46
560.171	8.45
560.513	8.49
560.854	8.53
561.196	8.51
561.537	8.5
561.878	8.48
562.22	8.51
562.561	8.52
562.902	8.52
563.243	8.53
563.584	8.58
563.925	8.59
564.266	8.57
564.607	8.56
564.948	8.58
565.289	8.58
565.63	8.6
565.971	8.59
566.312	8.57
566.653	8.58
566.993	8.57
567.334	8.57
567.675	8.55
568.015	8.54
568.356	8.56
568.696	8.55
569.037	8.58
569.377	8.59
569.718	8.61
570.058	8.59
570.398	8.6
570.739	8.55
571.079	8.54
571.419	8.53
571.759	8.58
572.099	8.59
572.439	8.53
572.779	8.52
573.119	8.52
573.459	8.53
573.799	8.53
574.139	8.52
574.479	8.54
574.819	8.55
575.158	8.55
575.498	8.55
575.838	8.58
576.177	8.55
576.517	8.5
576.856	8.5
577.196	8.51
577.535	8.52
577.875	8.55
578.214	8.56
578.553	8.61
578.893	8.59
579.232	8.57
579.571	8.62
579.91	8.63
580.25	8.63
580.589	8.64
580.928	8.63
581.267	8.64
581.606	8.63
581.945	8.6
582.283	8.57
582.622	8.56
582.961	8.56
583.3	8.59
583.639	8.65
583.977	8.67
584.316	8.64
584.654	8.6
584.993	8.58
585.332	8.59
585.67	8.59
586.008	8.58
586.347	8.63
586.685	8.63
587.024	8.65
587.362	8.67
587.7	8.64
588.038	8.68
588.376	8.7
588.715	8.67
589.053	8.72
589.391	8.74
589.729	8.79
590.067	8.78
590.404	8.77
590.742	8.76
591.08	8.74
591.418	8.82
591.756	8.85
592.093	8.87
592.431	8.88
592.769	8.89
593.106	8.89
593.444	8.84
593.781	8.83
594.119	8.84
594.456	8.86
594.793	8.87
595.131	8.85
595.468	8.84
595.805	8.87
596.143	8.85
596.48	8.85
596.817	8.79
597.154	8.82
597.491	8.83
597.828	8.83
598.165	8.84
598.502	8.8
598.839	8.8
599.176	8.8
599.512	8.79
599.849	8.8
600.186	8.81
600.523	8.87
600.859	8.93
601.196	8.92
601.532	8.91
601.869	8.95
602.205	8.96
602.542	8.96
602.878	8.96
603.215	8.96
603.551	9
603.887	9.06
604.223	9.04
604.56	9.04
604.896	9.04
605.232	9.03
605.568	9.03
605.904	9.02
606.24	9.06
606.576	9.09
606.912	9.1
607.248	9.08
607.583	9.09
607.919	9.06
608.255	9.06
608.591	9.06
608.926	9.04
609.262	9.05
609.597	9.09
609.933	9.07
610.268	9.07
610.604	9.04
610.939	9.02
611.275	9.07
611.61	9.06
611.945	9.05
612.281	9.06
612.616	9.07
612.951	9.07
613.286	9.05
613.621	8.99
613.956	8.94
614.291	8.98
614.626	8.94
614.961	8.92
615.296	8.93
615.631	8.95
615.966	8.95
616.3	8.97
616.635	8.99
616.97	9.02
617.304	9.03
617.639	9.08
617.973	9.11
618.308	9.04
618.642	9.08
618.977	9.14
619.311	9.1
619.646	9.1
619.98	9.11
620.314	9.12
620.648	9.13
620.983	9.16
621.317	9.17
621.651	9.17
621.985	9.21
622.319	9.23
622.653	9.27
622.987	9.28
623.321	9.25
623.655	9.26
623.988	9.24
624.322	9.26
624.656	9.29
624.99	9.27
625.323	9.29
625.657	9.26
625.99	9.26
626.324	9.3
626.657	9.35
626.991	9.39
627.324	9.37
627.658	9.45
627.991	9.44
628.324	9.44
628.657	9.44
628.991	9.4
629.324	9.38
629.657	9.3
629.99	9.34
630.323	9.36
630.656	9.33
630.989	9.33
631.322	9.34
631.655	9.31
631.987	9.32
632.32	9.32
632.653	9.33
632.986	9.34
633.318	9.35
633.651	9.32
633.984	9.3
634.316	9.29
634.649	9.22
634.981	9.19
635.313	9.15
635.646	9.18
635.978	9.18
636.31	9.19
636.643	9.24
636.975	9.23
637.307	9.25
637.639	9.18
637.971	9.22
638.303	9.25
638.635	9.17
638.967	9.25
639.299	9.29
639.631	9.27
639.963	9.27
640.295	9.27
640.626	9.29
640.958	9.3
641.29	9.33
641.621	9.34
641.953	9.38
642.285	9.41
642.616	9.38
642.948	9.4
643.279	9.4
643.61	9.42
643.942	9.45
644.273	9.41
644.604	9.55
644.936	9.49
645.267	9.45
645.598	9.48
645.929	9.41
646.26	9.4
646.591	9.42
646.922	9.41
647.253	9.43
647.584	9.47
647.915	9.46
648.245	9.41
648.576	9.44
648.907	9.45
649.238	9.37
649.568	9.39
649.899	9.42
650.229	9.45
650.56	9.45
650.89	9.43
651.221	9.48
651.551	9.46
651.882	9.55
652.212	9.58
652.542	9.58
652.872	9.6
653.203	9.57
653.533	9.59
653.863	9.58
654.193	9.55
654.523	9.5
654.853	9.57
655.183	9.66
655.513	9.65
655.843	9.61
656.172	9.7
656.502	9.71
656.832	9.7
657.162	9.7
657.491	9.62
657.821	9.61
658.15	9.55
658.48	9.52
658.809	9.46
659.139	9.44
659.468	9.47
659.798	9.43
660.127	9.48
660.456	9.5
660.785	9.54
661.115	9.51
661.444	9.52
661.773	9.44
662.102	9.42
662.431	9.44
662.76	9.51
663.089	9.54
663.418	9.49
663.747	9.51
664.076	9.57
664.404	9.62
664.733	9.65
665.062	9.71
665.39	9.71
665.719	9.7
666.048	9.76
666.376	9.68
666.705	9.7
667.033	9.69
667.362	9.65
667.69	9.69
668.018	9.83
668.347	9.78
668.675	9.84
669.003	9.88
669.331	9.89
669.659	9.85
669.987	9.84
670.315	9.89
670.643	9.9
670.971	9.91
671.299	9.98
671.627	9.96
671.955	10.02
672.283	10.07
672.61	10.1
672.938	10.11
673.266	10.19
673.593	10.28
673.921	10.25
674.249	10.24
674.576	10.17
674.904	10.13
675.231	10.15
675.558	10.16
675.886	10.24
676.213	10.27
676.54	10.35
676.867	10.36
677.195	10.35
677.522	10.32
