Data from BA28467_Reflection_00003.txt Node
Date: Mon Nov 18 15:32:57 EST 2019
User: vgr7
Spectrometer: USB2G7710
Scans to average: 3
Trigger mode: 4
Integration Time (sec): 2.000000E-2
Electric dark correction enabled: true
Boxcar width: 10
XAxis mode: Wavelengths
Number of Pixels in Spectrum: 2048
>>>>>Begin Spectral Data<<<<<
177.721	-162.07
178.105	-184.26
178.488	-167.07
178.871	-429.66
179.254	697.99
179.636	-58.1
180.019	1226.58
180.402	173.33
180.785	4717.02
181.168	113.51
181.55	-432.47
181.933	217.56
182.316	186.03
182.698	117.98
183.081	74.06
183.463	247.23
183.846	587.74
184.228	719.38
184.611	912.77
184.993	976.45
185.376	-1270.04
185.758	-1351.88
186.14	-720.45
186.522	-299.39
186.904	-429.27
187.287	-2640.46
187.669	-487.43
188.051	901.75
188.433	-454.81
188.815	-295.54
189.197	-469.75
189.579	-332.2
189.961	-360.54
190.342	-260.81
190.724	-160.89
191.106	-182.64
191.488	-211.56
191.869	-135.28
192.251	-173.11
192.633	-207.57
193.014	-240.66
193.396	-299.5
193.777	-306.4
194.159	-365.4
194.54	-419.73
194.922	-250.63
195.303	-386.1
195.684	-254.34
196.065	-90.37
196.447	-180.8
196.828	-686.48
197.209	-142.22
197.59	-398.84
197.971	1343.48
198.352	-2687.23
198.733	150.22
199.114	131.42
199.495	-51.05
199.876	47.37
200.257	-87.25
200.638	-30.13
201.018	-34.77
201.399	-19.27
201.78	-27.27
202.16	-21.95
202.541	-62.49
202.922	-113.11
203.302	-132.61
203.683	-104.34
204.063	-413.13
204.444	-424.63
204.824	-190.56
205.204	-340.78
205.585	-149.33
205.965	-79.95
206.345	-109.66
206.725	-135.52
207.106	-225.09
207.486	-338.26
207.866	-248.26
208.246	-1086.77
208.626	1542.21
209.006	857.75
209.386	282.16
209.766	381.49
210.145	4036.71
210.525	-2301.46
210.905	-559.21
211.285	-211.7
211.664	-317.08
212.044	-164.31
212.424	-113.49
212.803	-160.89
213.183	-127.54
213.562	-104.82
213.942	-109.22
214.321	-85.92
214.701	-104.06
215.08	-95.1
215.459	-92.19
215.838	-77.96
216.218	-67.56
216.597	-49.13
216.976	-34.05
217.355	-8.7
217.734	-22.57
218.113	-37.64
218.492	-29.97
218.871	-45.79
219.25	-37.1
219.629	-43.43
220.008	-58.66
220.387	-50.33
220.766	-32.3
221.144	-33.8
221.523	-30.22
221.902	-32.42
222.28	-45.13
222.659	-38.42
223.037	-36.35
223.416	-32.75
223.794	-53.28
224.173	-52.64
224.551	-41.65
224.929	-51.71
225.308	-40.68
225.686	-32
226.064	-27.31
226.442	-24.82
226.821	-18.38
227.199	-17.72
227.577	-16.81
227.955	-18.02
228.333	-13.78
228.711	-10.72
229.089	-9.13
229.467	-11.6
229.845	-10.89
230.222	-11.43
230.6	-8.81
230.978	-6.68
231.356	-4.99
231.733	-4.82
232.111	-3.47
232.488	-1.49
232.866	1.68
233.243	2.36
233.621	2.21
233.998	3.48
234.376	5.41
234.753	4
235.13	2.66
235.508	3.84
235.885	3.92
236.262	3.26
236.639	2.53
237.016	2.25
237.393	3.8
237.77	4.67
238.147	3.84
238.524	3.31
238.901	3.01
239.278	3.47
239.655	5.12
240.032	4.82
240.409	3.56
240.785	2.74
241.162	2.52
241.539	2.45
241.915	2.69
242.292	2.01
242.668	2.36
243.045	2.79
243.421	3.01
243.798	3.29
244.174	2.98
244.551	2.9
244.927	2.81
245.303	3.17
245.679	3.17
246.056	3.43
246.432	3.6
246.808	3.58
247.184	3.26
247.56	2.89
247.936	3.17
248.312	3.41
248.688	3.77
249.064	3.87
249.44	4.03
249.815	4.06
250.191	4.1
250.567	4.17
250.943	4.06
251.318	4.04
251.694	4.15
252.069	4.41
252.445	4.44
252.82	4.45
253.196	4.07
253.571	4.14
253.947	4.1
254.322	4.18
254.697	4.41
255.073	4.54
255.448	4.63
255.823	4.29
256.198	4.27
256.573	3.8
256.948	3.71
257.323	3.66
257.698	3.5
258.073	3.62
258.448	3.52
258.823	3.69
259.198	3.51
259.573	3.26
259.948	3.29
260.322	3.46
260.697	3.62
261.072	3.69
261.446	3.6
261.821	3.65
262.195	3.64
262.57	3.5
262.944	3.4
263.319	3.41
263.693	3.34
264.067	3.41
264.442	3.48
264.816	3.58
265.19	3.52
265.564	3.65
265.938	3.48
266.313	3.53
266.687	3.42
267.061	3.63
267.435	3.7
267.809	3.61
268.183	3.43
268.556	3.25
268.93	3.18
269.304	3.27
269.678	3.17
270.051	3.14
270.425	3.05
270.799	3.16
271.172	3.17
271.546	3.23
271.919	3.13
272.293	3.09
272.666	3.07
273.04	3.18
273.413	3.23
273.787	3.39
274.16	3.33
274.533	3.34
274.906	3.2
275.279	3.38
275.653	3.3
276.026	3.21
276.399	3.27
276.772	3.32
277.145	3.19
277.518	3.32
277.891	3.21
278.263	3.36
278.636	3.32
279.009	3.26
279.382	3.46
279.755	3.55
280.127	3.76
280.5	3.68
280.872	3.75
281.245	3.69
281.617	3.68
281.99	3.94
282.362	4.04
282.735	4.12
283.107	3.96
283.479	4.02
283.852	4
284.224	3.99
284.596	4.01
284.968	3.99
285.34	3.95
285.713	3.93
286.085	3.96
286.457	4.09
286.829	4.13
287.201	4.01
287.572	3.9
287.944	3.8
288.316	3.79
288.688	3.65
289.06	3.54
289.431	3.49
289.803	3.34
290.175	3.2
290.546	3.22
290.918	3.28
291.289	3.31
291.661	3.41
292.032	3.54
292.403	3.55
292.775	3.67
293.146	3.58
293.517	3.65
293.889	3.68
294.26	3.68
294.631	3.71
295.002	3.73
295.373	3.75
295.744	3.89
296.115	3.86
296.486	3.8
296.857	3.92
297.228	3.91
297.599	4.01
297.97	4.12
298.34	4.13
298.711	4.1
299.082	4.12
299.452	4.12
299.823	4.23
300.194	4.15
300.564	4.18
300.935	4.25
301.305	4.22
301.676	4.27
302.046	4.16
302.416	4.3
302.787	4.26
303.157	4.25
303.527	4.13
303.897	4.12
304.267	4.33
304.637	4.15
305.008	4.22
305.378	4.17
305.748	4.17
306.117	4.12
306.487	4.24
306.857	4.25
307.227	4.31
307.597	4.04
307.967	4.03
308.336	4.04
308.706	4.09
309.076	4.1
309.445	4
309.815	4.1
310.184	3.99
310.554	4.07
310.923	4.15
311.293	4.14
311.662	4.13
312.031	4.05
312.401	4.11
312.77	4.07
313.139	4.08
313.508	3.96
313.877	3.91
314.246	3.74
314.616	3.76
314.985	3.7
315.353	3.66
315.722	3.7
316.091	3.61
316.46	3.5
316.829	3.55
317.198	3.6
317.567	3.42
317.935	3.41
318.304	3.46
318.672	3.42
319.041	3.54
319.41	3.77
319.778	3.74
320.147	3.84
320.515	3.89
320.883	3.68
321.252	3.77
321.62	3.84
321.988	3.97
322.357	3.89
322.725	3.8
323.093	3.93
323.461	3.98
323.829	4.12
324.197	4.23
324.565	4.2
324.933	4.23
325.301	4.34
325.669	4.29
326.037	4.2
326.405	4.17
326.772	4.06
327.14	3.95
327.508	4.03
327.875	3.99
328.243	4.08
328.61	4.17
328.978	4.26
329.346	4.21
329.713	4.1
330.08	4.17
330.448	4.18
330.815	4.15
331.182	4.11
331.55	3.95
331.917	3.92
332.284	4.02
332.651	3.88
333.018	3.98
333.385	3.99
333.752	4.19
334.119	4.3
334.486	4.31
334.853	4.3
335.22	4.36
335.587	4.35
335.954	4.25
336.32	4.21
336.687	4.17
337.054	4.24
337.42	4.28
337.787	4.33
338.153	4.4
338.52	4.53
338.886	4.39
339.253	4.3
339.619	4.35
339.986	4.25
340.352	4.31
340.718	4.25
341.084	4.33
341.451	4.24
341.817	4.2
342.183	4.17
342.549	4.19
342.915	4.16
343.281	4.2
343.647	4.19
344.013	4.32
344.379	4.29
344.745	4.27
345.11	4.33
345.476	4.25
345.842	4.28
346.208	4.13
346.573	4.23
346.939	4.36
347.304	4.33
347.67	4.36
348.035	4.32
348.401	4.25
348.766	4.11
349.132	4.11
349.497	4.07
349.862	4.18
350.228	4.18
350.593	4.25
350.958	4.18
351.323	4.26
351.688	4.17
352.053	4.22
352.418	4.29
352.783	4.33
353.148	4.33
353.513	4.28
353.878	4.28
354.243	4.32
354.608	4.35
354.972	4.28
355.337	4.25
355.702	4.36
356.066	4.42
356.431	4.54
356.795	4.51
357.16	4.48
357.524	4.4
357.889	4.39
358.253	4.32
358.618	4.4
358.982	4.31
359.346	4.35
359.71	4.35
360.075	4.33
360.439	4.27
360.803	4.26
361.167	4.28
361.531	4.3
361.895	4.3
362.259	4.23
362.623	4.31
362.987	4.35
363.351	4.35
363.714	4.37
364.078	4.29
364.442	4.23
364.806	4.29
365.169	4.3
365.533	4.27
365.896	4.3
366.26	4.25
366.623	4.33
366.987	4.35
367.35	4.38
367.714	4.34
368.077	4.33
368.44	4.34
368.803	4.3
369.167	4.3
369.53	4.3
369.893	4.43
370.256	4.37
370.619	4.4
370.982	4.4
371.345	4.38
371.708	4.44
372.071	4.48
372.434	4.48
372.797	4.47
373.159	4.47
373.522	4.44
373.885	4.47
374.247	4.44
374.61	4.41
374.973	4.36
375.335	4.38
375.698	4.41
376.06	4.42
376.423	4.43
376.785	4.44
377.147	4.43
377.51	4.37
377.872	4.41
378.234	4.34
378.596	4.26
378.958	4.29
379.321	4.26
379.683	4.35
380.045	4.34
380.407	4.35
380.769	4.35
381.13	4.37
381.492	4.33
381.854	4.4
382.216	4.41
382.578	4.43
382.939	4.4
383.301	4.38
383.663	4.39
384.024	4.4
384.386	4.4
384.747	4.45
385.109	4.45
385.47	4.41
385.832	4.45
386.193	4.51
386.554	4.44
386.916	4.44
387.277	4.42
387.638	4.41
387.999	4.42
388.36	4.42
388.721	4.41
389.082	4.44
389.443	4.36
389.804	4.35
390.165	4.31
390.526	4.34
390.887	4.37
391.248	4.38
391.609	4.39
391.969	4.42
392.33	4.41
392.691	4.43
393.051	4.45
393.412	4.45
393.772	4.41
394.133	4.45
394.493	4.44
394.854	4.41
395.214	4.41
395.574	4.43
395.935	4.51
396.295	4.56
396.655	4.52
397.015	4.54
397.376	4.56
397.736	4.61
398.096	4.63
398.456	4.65
398.816	4.67
399.176	4.64
399.535	4.61
399.895	4.57
400.255	4.55
400.615	4.57
400.975	4.56
401.334	4.58
401.694	4.6
402.054	4.6
402.413	4.6
402.773	4.6
403.132	4.6
403.492	4.56
403.851	4.52
404.211	4.55
404.57	4.54
404.929	4.53
405.288	4.51
405.648	4.48
406.007	4.49
406.366	4.45
406.725	4.46
407.084	4.49
407.443	4.48
407.802	4.51
408.161	4.5
408.52	4.47
408.879	4.47
409.238	4.46
409.596	4.52
409.955	4.51
410.314	4.57
410.673	4.56
411.031	4.55
411.39	4.58
411.748	4.58
412.107	4.62
412.465	4.63
412.824	4.64
413.182	4.63
413.54	4.61
413.899	4.6
414.257	4.62
414.615	4.61
414.974	4.66
415.332	4.63
415.69	4.63
416.048	4.64
416.406	4.67
416.764	4.66
417.122	4.64
417.48	4.64
417.838	4.6
418.195	4.59
418.553	4.61
418.911	4.61
419.269	4.6
419.626	4.57
419.984	4.56
420.342	4.57
420.699	4.58
421.057	4.57
421.414	4.58
421.772	4.56
422.129	4.57
422.486	4.56
422.844	4.58
423.201	4.56
423.558	4.57
423.915	4.54
424.273	4.55
424.63	4.55
424.987	4.55
425.344	4.57
425.701	4.59
426.058	4.56
426.415	4.55
426.772	4.57
427.128	4.56
427.485	4.57
427.842	4.57
428.199	4.58
428.555	4.58
428.912	4.6
429.269	4.62
429.625	4.61
429.982	4.62
430.338	4.6
430.695	4.62
431.051	4.61
431.407	4.64
431.764	4.64
432.12	4.63
432.476	4.62
432.832	4.59
433.189	4.58
433.545	4.58
433.901	4.6
434.257	4.58
434.613	4.62
434.969	4.63
435.325	4.63
435.681	4.62
436.036	4.64
436.392	4.63
436.748	4.63
437.104	4.63
437.459	4.6
437.815	4.62
438.171	4.63
438.526	4.64
438.882	4.64
439.237	4.64
439.593	4.65
439.948	4.66
440.304	4.67
440.659	4.68
441.014	4.68
441.369	4.66
441.725	4.66
442.08	4.66
442.435	4.66
442.79	4.66
443.145	4.65
443.5	4.63
443.855	4.63
444.21	4.64
444.565	4.64
444.92	4.67
445.275	4.64
445.629	4.65
445.984	4.65
446.339	4.63
446.693	4.63
447.048	4.62
447.403	4.62
447.757	4.62
448.112	4.62
448.466	4.63
448.82	4.63
449.175	4.65
449.529	4.64
449.883	4.65
450.238	4.66
450.592	4.67
450.946	4.67
451.3	4.68
451.654	4.68
452.008	4.67
452.362	4.67
452.716	4.68
453.07	4.67
453.424	4.65
453.778	4.65
454.132	4.65
454.486	4.65
454.839	4.65
455.193	4.64
455.547	4.66
455.9	4.68
456.254	4.68
456.607	4.66
456.961	4.67
457.314	4.67
457.668	4.66
458.021	4.66
458.375	4.68
458.728	4.67
459.081	4.66
459.434	4.68
459.787	4.69
460.141	4.69
460.494	4.7
460.847	4.73
461.2	4.73
461.553	4.75
461.906	4.77
462.259	4.78
462.611	4.82
462.964	4.81
463.317	4.82
463.67	4.84
464.022	4.84
464.375	4.84
464.728	4.84
465.08	4.86
465.433	4.86
465.785	4.87
466.138	4.89
466.49	4.89
466.843	4.9
467.195	4.88
467.547	4.87
467.899	4.87
468.252	4.86
468.604	4.86
468.956	4.84
469.308	4.84
469.66	4.83
470.012	4.8
470.364	4.79
470.716	4.78
471.068	4.77
471.42	4.78
471.772	4.8
472.123	4.82
472.475	4.82
472.827	4.82
473.178	4.81
473.53	4.77
473.882	4.77
474.233	4.77
474.585	4.78
474.936	4.77
475.288	4.79
475.639	4.8
475.99	4.82
476.342	4.82
476.693	4.8
477.044	4.82
477.395	4.81
477.746	4.83
478.097	4.83
478.448	4.82
478.8	4.82
479.15	4.81
479.501	4.8
479.852	4.79
480.203	4.8
480.554	4.82
480.905	4.85
481.255	4.86
481.606	4.87
481.957	4.87
482.307	4.88
482.658	4.87
483.009	4.87
483.359	4.89
483.709	4.9
484.06	4.92
484.41	4.92
484.761	4.93
485.111	4.93
485.461	4.94
485.811	4.96
486.162	4.96
486.512	4.97
486.862	4.98
487.212	4.98
487.562	4.98
487.912	4.99
488.262	4.99
488.612	5.01
488.961	5.01
489.311	5.02
489.661	5.02
490.011	5.04
490.36	5.04
490.71	5.04
491.06	5.04
491.409	5.05
491.759	5.03
492.108	5.04
492.458	5.04
492.807	5.04
493.157	5.03
493.506	5.05
493.855	5.05
494.204	5.03
494.554	5.05
494.903	5.06
495.252	5.03
495.601	5.03
495.95	5.02
496.299	5.01
496.648	4.99
496.997	5.01
497.346	5.01
497.695	5.03
498.043	5.03
498.392	5.04
498.741	5.04
499.09	5.05
499.438	5.06
499.787	5.07
500.135	5.09
500.484	5.11
500.832	5.11
501.181	5.12
501.529	5.13
501.878	5.13
502.226	5.14
502.574	5.17
502.923	5.18
503.271	5.16
503.619	5.17
503.967	5.18
504.315	5.16
504.663	5.16
505.011	5.15
505.359	5.15
505.707	5.14
506.055	5.14
506.403	5.13
506.751	5.14
507.098	5.12
507.446	5.11
507.794	5.1
508.141	5.11
508.489	5.12
508.837	5.14
509.184	5.15
509.531	5.15
509.879	5.16
510.226	5.17
510.574	5.2
510.921	5.22
511.268	5.24
511.616	5.25
511.963	5.26
512.31	5.26
512.657	5.27
513.004	5.3
513.351	5.33
513.698	5.35
514.045	5.33
514.392	5.35
514.739	5.35
515.086	5.36
515.432	5.34
515.779	5.33
516.126	5.34
516.473	5.34
516.819	5.37
517.166	5.38
517.512	5.39
517.859	5.39
518.205	5.41
518.552	5.42
518.898	5.41
519.245	5.4
519.591	5.41
519.937	5.4
520.283	5.39
520.629	5.38
520.976	5.37
521.322	5.38
521.668	5.38
522.014	5.4
522.36	5.41
522.706	5.4
523.052	5.41
523.398	5.4
523.743	5.42
524.089	5.4
524.435	5.39
524.781	5.38
525.126	5.38
525.472	5.37
525.817	5.36
526.163	5.37
526.509	5.39
526.854	5.38
527.199	5.38
527.545	5.37
527.89	5.39
528.235	5.39
528.581	5.4
528.926	5.41
529.271	5.4
529.616	5.4
529.961	5.41
530.306	5.41
530.651	5.42
530.996	5.42
531.341	5.42
531.686	5.43
532.031	5.44
532.376	5.44
532.721	5.44
533.065	5.44
533.41	5.46
533.755	5.45
534.099	5.47
534.444	5.48
534.788	5.52
535.133	5.51
535.477	5.52
535.822	5.52
536.166	5.53
536.51	5.54
536.855	5.53
537.199	5.53
537.543	5.53
537.887	5.53
538.231	5.54
538.576	5.55
538.92	5.54
539.264	5.55
539.608	5.55
539.951	5.57
540.295	5.56
540.639	5.56
540.983	5.56
541.327	5.56
541.671	5.54
542.014	5.54
542.358	5.53
542.701	5.53
543.045	5.54
543.389	5.55
543.732	5.56
544.075	5.59
544.419	5.59
544.762	5.6
545.105	5.59
545.449	5.59
545.792	5.6
546.135	5.62
546.478	5.62
546.821	5.62
547.165	5.62
547.508	5.63
547.851	5.65
548.194	5.67
548.536	5.68
548.879	5.71
549.222	5.73
549.565	5.74
549.908	5.76
550.25	5.76
550.593	5.74
550.936	5.7
551.278	5.71
551.621	5.72
551.963	5.72
552.306	5.73
552.648	5.74
552.991	5.74
553.333	5.73
553.675	5.72
554.017	5.72
554.36	5.72
554.702	5.74
555.044	5.75
555.386	5.73
555.728	5.75
556.07	5.73
556.412	5.73
556.754	5.72
557.096	5.72
557.438	5.7
557.78	5.72
558.121	5.75
558.463	5.73
558.805	5.73
559.147	5.73
559.488	5.74
559.83	5.74
560.171	5.73
560.513	5.77
560.854	5.78
561.196	5.8
561.537	5.84
561.878	5.81
562.22	5.79
562.561	5.79
562.902	5.8
563.243	5.81
563.584	5.8
563.925	5.81
564.266	5.81
564.607	5.84
564.948	5.85
565.289	5.84
565.63	5.85
565.971	5.86
566.312	5.89
566.653	5.9
566.993	5.89
567.334	5.9
567.675	5.88
568.015	5.87
568.356	5.84
568.696	5.85
569.037	5.86
569.377	5.89
569.718	5.89
570.058	5.89
570.398	5.9
570.739	5.93
571.079	5.91
571.419	5.93
571.759	5.93
572.099	5.9
572.439	5.91
572.779	5.93
573.119	5.93
573.459	5.93
573.799	5.94
574.139	5.92
574.479	5.92
574.819	5.9
575.158	5.94
575.498	5.95
575.838	5.95
576.177	5.93
576.517	5.94
576.856	5.93
577.196	5.94
577.535	5.93
577.875	5.9
578.214	5.96
578.553	5.96
578.893	5.93
579.232	5.95
579.571	5.97
579.91	5.97
580.25	5.99
580.589	5.98
580.928	5.97
581.267	6
581.606	6
581.945	6.04
582.283	6.02
582.622	6.07
582.961	6.06
583.3	6.09
583.639	6.09
583.977	6.11
584.316	6.16
584.654	6.14
584.993	6.14
585.332	6.12
585.67	6.13
586.008	6.17
586.347	6.16
586.685	6.16
587.024	6.13
587.362	6.14
587.7	6.12
588.038	6.12
588.376	6.14
588.715	6.12
589.053	6.11
589.391	6.11
589.729	6.11
590.067	6.06
590.404	6.08
590.742	6.09
591.08	6.03
591.418	6.02
591.756	6.06
592.093	6.08
592.431	6.07
592.769	6.03
593.106	6.02
593.444	6.04
593.781	6.05
594.119	6.08
594.456	6.08
594.793	6.1
595.131	6.12
595.468	6.13
595.805	6.18
596.143	6.21
596.48	6.19
596.817	6.15
597.154	6.2
597.491	6.17
597.828	6.14
598.165	6.21
598.502	6.19
598.839	6.18
599.176	6.17
599.512	6.17
599.849	6.23
600.186	6.25
600.523	6.27
600.859	6.29
601.196	6.3
601.532	6.27
601.869	6.26
602.205	6.23
602.542	6.22
602.878	6.2
603.215	6.19
603.551	6.24
603.887	6.28
604.223	6.27
604.56	6.31
604.896	6.35
605.232	6.35
605.568	6.36
605.904	6.35
606.24	6.39
606.576	6.42
606.912	6.42
607.248	6.4
607.583	6.4
607.919	6.4
608.255	6.38
608.591	6.42
608.926	6.43
609.262	6.5
609.597	6.52
609.933	6.5
610.268	6.5
610.604	6.49
610.939	6.47
611.275	6.49
611.61	6.49
611.945	6.47
612.281	6.46
612.616	6.45
612.951	6.48
613.286	6.46
613.621	6.46
613.956	6.42
614.291	6.42
614.626	6.39
614.961	6.38
615.296	6.34
615.631	6.34
615.966	6.36
616.3	6.36
616.635	6.39
616.97	6.43
617.304	6.38
617.639	6.41
617.973	6.45
618.308	6.48
618.642	6.49
618.977	6.48
619.311	6.44
619.646	6.45
619.98	6.41
620.314	6.42
620.648	6.4
620.983	6.41
621.317	6.45
621.651	6.46
621.985	6.46
622.319	6.52
622.653	6.5
622.987	6.48
623.321	6.4
623.655	6.34
623.988	6.36
624.322	6.39
624.656	6.37
624.99	6.34
625.323	6.3
625.657	6.32
625.99	6.36
626.324	6.4
626.657	6.41
626.991	6.45
627.324	6.48
627.658	6.48
627.991	6.51
628.324	6.47
628.657	6.51
628.991	6.49
629.324	6.54
629.657	6.55
629.99	6.6
630.323	6.64
630.656	6.67
630.989	6.62
631.322	6.61
631.655	6.62
631.987	6.63
632.32	6.65
632.653	6.62
632.986	6.62
633.318	6.65
633.651	6.67
633.984	6.61
634.316	6.6
634.649	6.58
634.981	6.54
635.313	6.55
635.646	6.52
635.978	6.54
636.31	6.45
636.643	6.45
636.975	6.43
637.307	6.45
637.639	6.44
637.971	6.48
638.303	6.51
638.635	6.49
638.967	6.49
639.299	6.47
639.631	6.45
639.963	6.43
640.295	6.44
640.626	6.45
640.958	6.55
641.29	6.56
641.621	6.59
641.953	6.62
642.285	6.65
642.616	6.71
642.948	6.69
643.279	6.71
643.61	6.78
643.942	6.77
644.273	6.77
644.604	6.79
644.936	6.76
645.267	6.76
645.598	6.83
645.929	6.86
646.26	6.84
646.591	6.9
646.922	6.93
647.253	6.9
647.584	6.85
647.915	6.78
648.245	6.78
648.576	6.83
648.907	6.86
649.238	6.88
649.568	6.83
649.899	6.87
650.229	6.9
650.56	6.86
650.89	6.93
651.221	6.9
651.551	6.88
651.882	6.96
652.212	6.95
652.542	6.86
652.872	6.81
653.203	6.73
653.533	6.73
653.863	6.69
654.193	6.7
654.523	6.74
654.853	6.75
655.183	6.71
655.513	6.69
655.843	6.68
656.172	6.7
656.502	6.71
656.832	6.69
657.162	6.67
657.491	6.68
657.821	6.62
658.15	6.7
658.48	6.73
658.809	6.7
659.139	6.75
659.468	6.79
659.798	6.82
660.127	6.95
660.456	6.95
660.785	7.06
661.115	7.07
661.444	7.05
661.773	7.11
662.102	7.12
662.431	7.11
662.76	7.16
663.089	7.11
663.418	7.07
663.747	7.06
664.076	7.09
664.404	7.12
664.733	7.15
665.062	7.03
665.39	7
665.719	6.95
666.048	6.92
666.376	6.98
666.705	6.97
667.033	6.92
667.362	6.95
667.69	6.85
668.018	6.87
668.347	6.9
668.675	6.93
669.003	6.97
669.331	7.05
669.659	7.05
669.987	6.98
670.315	6.98
670.643	7.02
670.971	7.04
671.299	7.09
671.627	7.09
671.955	7.2
672.283	7.22
672.61	7.17
672.938	7.21
673.266	7.2
673.593	7.22
673.921	7.23
674.249	7.2
674.576	7.12
674.904	7.07
675.231	7.13
675.558	7.06
