Data from BA28471_Reflection_00013.txt Node
Date: Mon Nov 18 15:21:35 EST 2019
User: vgr7
Spectrometer: USB2G7710
Scans to average: 3
Trigger mode: 4
Integration Time (sec): 2.000000E-2
Electric dark correction enabled: true
Boxcar width: 10
XAxis mode: Wavelengths
Number of Pixels in Spectrum: 2048
>>>>>Begin Spectral Data<<<<<
177.721	225.27
178.105	-27.17
178.488	-50.47
178.871	-64.93
179.254	-16.34
179.636	-175.24
180.019	12.6
180.402	56.41
180.785	1642.17
181.168	102.31
181.55	116.91
181.933	89.78
182.316	66.79
182.698	87.59
183.081	37.54
183.463	58.03
183.846	112.97
184.228	192.76
184.611	500
184.993	375.86
185.376	-102.76
185.758	-66.38
186.14	-390.07
186.522	-2215.79
186.904	53.89
187.287	125.97
187.669	78.89
188.051	-44.04
188.433	-2.49
188.815	29.93
189.197	23.04
189.579	43.74
189.961	38.06
190.342	19.91
190.724	20.66
191.106	-8.55
191.488	-4.12
191.869	3.41
192.251	9.53
192.633	44.73
193.014	12.09
193.396	-28.54
193.777	-41.37
194.159	1.54
194.54	53.04
194.922	71.62
195.303	97.18
195.684	-6.04
196.065	13.9
196.447	-9.67
196.828	-74.33
197.209	5.5
197.59	-35.06
197.971	-70.93
198.352	-41.45
198.733	-66.22
199.114	-32.2
199.495	27.95
199.876	19.61
200.257	19.09
200.638	-2.9
201.018	-22.27
201.399	-25.51
201.78	-16.14
202.16	-26.17
202.541	-45.67
202.922	-56.29
203.302	-45.57
203.683	-36.76
204.063	-42.6
204.444	-31.18
204.824	-11.69
205.204	-41.94
205.585	-64.34
205.965	-35.38
206.345	-32.46
206.725	-41.55
207.106	-42.69
207.486	-57.96
207.866	-50.33
208.246	-46.96
208.626	-47.83
209.006	-28.79
209.386	-51.4
209.766	-65.71
210.145	-59.8
210.525	-37.09
210.905	-59.11
211.285	-37.82
211.664	-19.4
212.044	-20.04
212.424	-22.99
212.803	-31.65
213.183	-13.23
213.562	2.17
213.942	1.47
214.321	3.11
214.701	14.35
215.08	24.95
215.459	26.93
215.838	19.09
216.218	8.18
216.597	18.23
216.976	10.09
217.355	20.23
217.734	25.06
218.113	42.54
218.492	38.88
218.871	37.87
219.25	35.48
219.629	29.6
220.008	32.02
220.387	24.13
220.766	18.64
221.144	18.65
221.523	21.17
221.902	15.78
222.28	15.45
222.659	29.72
223.037	21.93
223.416	35.35
223.794	38.35
224.173	42.29
224.551	30.94
224.929	29.32
225.308	28.05
225.686	27.41
226.064	20.07
226.442	14.35
226.821	20.92
227.199	18.11
227.577	3.92
227.955	5.72
228.333	8.33
228.711	10.78
229.089	14.38
229.467	12.45
229.845	9.08
230.222	10.21
230.6	6.3
230.978	6.48
231.356	5.72
231.733	4.45
232.111	5.79
232.488	5.35
232.866	7.38
233.243	4.74
233.621	3.24
233.998	4.87
234.376	4.27
234.753	4.24
235.13	4.16
235.508	8.51
235.885	7.31
236.262	5.02
236.639	3.35
237.016	2.32
237.393	3.33
237.77	5.8
238.147	5.4
238.524	6.02
238.901	6.72
239.278	6.47
239.655	7.39
240.032	7.33
240.409	7.39
240.785	7.43
241.162	8.08
241.539	7.97
241.915	7.62
242.292	7.99
242.668	7.53
243.045	7.43
243.421	7.26
243.798	7.25
244.174	7.83
244.551	8.02
244.927	8.19
245.303	8.29
245.679	7.88
246.056	8.05
246.432	7.95
246.808	7.9
247.184	7.95
247.56	8.05
247.936	7.77
248.312	7.68
248.688	7.64
249.064	7.49
249.44	7.67
249.815	7.67
250.191	7.75
250.567	7.84
250.943	7.86
251.318	7.81
251.694	7.98
252.069	7.89
252.445	7.77
252.82	7.68
253.196	7.67
253.571	8.01
253.947	7.52
254.322	7.91
254.697	7.59
255.073	7.51
255.448	7.27
255.823	7.4
256.198	7.66
256.573	7.44
256.948	7.19
257.323	7.22
257.698	7.07
258.073	7.13
258.448	7.04
258.823	6.99
259.198	6.83
259.573	6.61
259.948	6.57
260.322	6.73
260.697	6.59
261.072	6.52
261.446	6.4
261.821	6.47
262.195	6.24
262.57	6.37
262.944	6.32
263.319	6.25
263.693	6.34
264.067	6.24
264.442	6.25
264.816	6.46
265.19	6.4
265.564	6.47
265.938	6.22
266.313	6.34
266.687	6.16
267.061	6.29
267.435	6.3
267.809	6.28
268.183	6.28
268.556	6.18
268.93	6.08
269.304	6.1
269.678	6.31
270.051	6.39
270.425	6.38
270.799	6.49
271.172	6.41
271.546	6.26
271.919	6.3
272.293	6.42
272.666	6.43
273.04	6.38
273.413	6.52
273.787	6.53
274.16	6.4
274.533	6.57
274.906	6.59
275.279	6.56
275.653	6.57
276.026	6.58
276.399	6.88
276.772	7.08
277.145	7.11
277.518	7.01
277.891	6.95
278.263	6.87
278.636	6.79
279.009	6.92
279.382	7.13
279.755	6.96
280.127	7.04
280.5	7.09
280.872	7.18
281.245	7.01
281.617	6.99
281.99	7.08
282.362	6.9
282.735	6.87
283.107	6.98
283.479	6.99
283.852	6.92
284.224	6.76
284.596	6.77
284.968	6.81
285.34	6.75
285.713	6.83
286.085	6.95
286.457	6.94
286.829	6.96
287.201	6.87
287.572	6.89
287.944	6.89
288.316	6.85
288.688	6.8
289.06	6.76
289.431	6.81
289.803	6.89
290.175	7.09
290.546	7.28
290.918	7.32
291.289	7.24
291.661	7.18
292.032	7.18
292.403	7.14
292.775	7.26
293.146	7.36
293.517	7.37
293.889	7.43
294.26	7.45
294.631	7.46
295.002	7.47
295.373	7.56
295.744	7.53
296.115	7.58
296.486	7.56
296.857	7.66
297.228	7.79
297.599	7.7
297.97	7.68
298.34	7.64
298.711	7.73
299.082	7.85
299.452	8
299.823	8.1
300.194	8.17
300.564	8.15
300.935	8.28
301.305	8.38
301.676	8.45
302.046	8.64
302.416	8.72
302.787	8.79
303.157	8.76
303.527	8.69
303.897	8.76
304.267	8.95
304.637	9.06
305.008	9.12
305.378	9.24
305.748	9.4
306.117	9.57
306.487	9.56
306.857	9.7
307.227	9.81
307.597	9.93
307.967	10.09
308.336	10.18
308.706	10.13
309.076	10.1
309.445	10.07
309.815	10.08
310.184	10.16
310.554	10.23
310.923	10.41
311.293	10.65
311.662	10.57
312.031	10.61
312.401	10.64
312.77	10.73
313.139	10.99
313.508	10.96
313.877	10.94
314.246	11.03
314.616	11
314.985	11.01
315.353	10.9
315.722	11.05
316.091	11.09
316.46	11.14
316.829	11.17
317.198	11.27
317.567	11.38
317.935	11.38
318.304	11.45
318.672	11.5
319.041	11.64
319.41	11.88
319.778	11.98
320.147	12.03
320.515	12.14
320.883	11.87
321.252	12.11
321.62	12.1
321.988	12.32
322.357	12.57
322.725	12.56
323.093	13.02
323.461	12.87
323.829	13.17
324.197	13.31
324.565	13.47
324.933	13.64
325.301	13.67
325.669	13.76
326.037	13.85
326.405	14
326.772	13.88
327.14	13.99
327.508	14.09
327.875	14.14
328.243	14.06
328.61	14.17
328.978	14.18
329.346	14.28
329.713	14.3
330.08	14.28
330.448	14.4
330.815	14.25
331.182	14.28
331.55	14.2
331.917	14.1
332.284	14.29
332.651	14.21
333.018	14.27
333.385	14.38
333.752	14.41
334.119	14.32
334.486	14.37
334.853	14.28
335.22	14.17
335.587	14.3
335.954	14.35
336.32	14.44
336.687	14.56
337.054	14.68
337.42	14.7
337.787	14.71
338.153	14.82
338.52	14.91
338.886	14.96
339.253	14.87
339.619	14.99
339.986	14.96
340.352	15.06
340.718	15.18
341.084	15.13
341.451	15.16
341.817	15.34
342.183	15.29
342.549	15.44
342.915	15.56
343.281	15.56
343.647	15.64
344.013	15.73
344.379	15.61
344.745	15.62
345.11	15.6
345.476	15.69
345.842	15.65
346.208	15.64
346.573	15.72
346.939	15.82
347.304	15.96
347.67	15.91
348.035	15.96
348.401	15.91
348.766	16.01
349.132	16.14
349.497	15.98
349.862	16.13
350.228	16.06
350.593	16.02
350.958	16.13
351.323	16.21
351.688	16.31
352.053	16.42
352.418	16.36
352.783	16.34
353.148	16.18
353.513	16.22
353.878	16.28
354.243	16.28
354.608	16.27
354.972	16.25
355.337	16.37
355.702	16.35
356.066	16.32
356.431	16.29
356.795	16.2
357.16	16.26
357.524	16.28
357.889	16.24
358.253	16.27
358.618	16.28
358.982	16.29
359.346	16.18
359.71	16.14
360.075	16.13
360.439	16.11
360.803	16.18
361.167	16.19
361.531	16.15
361.895	16.12
362.259	16.05
362.623	15.97
362.987	15.91
363.351	15.83
363.714	15.8
364.078	15.84
364.442	15.82
364.806	15.77
365.169	15.7
365.533	15.7
365.896	15.68
366.26	15.54
366.623	15.43
366.987	15.42
367.35	15.36
367.714	15.34
368.077	15.26
368.44	15.21
368.803	15.21
369.167	15.17
369.53	15.17
369.893	15.22
370.256	15.17
370.619	15.13
370.982	15.13
371.345	15.08
371.708	15
372.071	14.94
372.434	14.86
372.797	14.91
373.159	14.89
373.522	14.85
373.885	14.83
374.247	14.78
374.61	14.72
374.973	14.7
375.335	14.66
375.698	14.67
376.06	14.61
376.423	14.48
376.785	14.49
377.147	14.48
377.51	14.41
377.872	14.4
378.234	14.31
378.596	14.27
378.958	14.28
379.321	14.2
379.683	14.17
380.045	14.17
380.407	14
380.769	13.94
381.13	13.88
381.492	13.81
381.854	13.77
382.216	13.68
382.578	13.63
382.939	13.6
383.301	13.55
383.663	13.46
384.024	13.4
384.386	13.31
384.747	13.17
385.109	13.1
385.47	13.04
385.832	12.99
386.193	12.94
386.554	12.87
386.916	12.82
387.277	12.79
387.638	12.77
387.999	12.79
388.36	12.76
388.721	12.68
389.082	12.69
389.443	12.65
389.804	12.61
390.165	12.59
390.526	12.55
390.887	12.53
391.248	12.5
391.609	12.51
391.969	12.44
392.33	12.4
392.691	12.36
393.051	12.35
393.412	12.31
393.772	12.27
394.133	12.23
394.493	12.22
394.854	12.15
395.214	12.07
395.574	11.98
395.935	11.9
396.295	11.88
396.655	11.74
397.015	11.68
397.376	11.62
397.736	11.58
398.096	11.54
398.456	11.46
398.816	11.45
399.176	11.34
399.535	11.27
399.895	11.25
400.255	11.19
400.615	11.12
400.975	11.09
401.334	11.08
401.694	11.03
402.054	10.94
402.413	10.94
402.773	10.91
403.132	10.87
403.492	10.83
403.851	10.78
404.211	10.8
404.57	10.79
404.929	10.79
405.288	10.71
405.648	10.63
406.007	10.58
406.366	10.54
406.725	10.54
407.084	10.51
407.443	10.5
407.802	10.51
408.161	10.47
408.52	10.42
408.879	10.37
409.238	10.37
409.596	10.37
409.955	10.32
410.314	10.29
410.673	10.29
411.031	10.28
411.39	10.29
411.748	10.23
412.107	10.19
412.465	10.13
412.824	10.12
413.182	10.13
413.54	10.16
413.899	10.15
414.257	10.12
414.615	10.11
414.974	10.08
415.332	10.02
415.69	9.98
416.048	9.95
416.406	9.9
416.764	9.84
417.122	9.84
417.48	9.8
417.838	9.78
418.195	9.74
418.553	9.69
418.911	9.65
419.269	9.66
419.626	9.61
419.984	9.58
420.342	9.55
420.699	9.52
421.057	9.47
421.414	9.44
421.772	9.41
422.129	9.38
422.486	9.34
422.844	9.33
423.201	9.3
423.558	9.27
423.915	9.24
424.273	9.23
424.63	9.17
424.987	9.15
425.344	9.12
425.701	9.09
426.058	9.08
426.415	9.04
426.772	9
427.128	8.98
427.485	8.97
427.842	8.95
428.199	8.93
428.555	8.91
428.912	8.89
429.269	8.86
429.625	8.84
429.982	8.82
430.338	8.81
430.695	8.84
431.051	8.83
431.407	8.82
431.764	8.84
432.12	8.85
432.476	8.84
432.832	8.81
433.189	8.82
433.545	8.82
433.901	8.83
434.257	8.82
434.613	8.82
434.969	8.82
435.325	8.82
435.681	8.83
436.036	8.82
436.392	8.83
436.748	8.85
437.104	8.83
437.459	8.83
437.815	8.84
438.171	8.84
438.526	8.86
438.882	8.86
439.237	8.84
439.593	8.85
439.948	8.86
440.304	8.89
440.659	8.88
441.014	8.86
441.369	8.83
441.725	8.82
442.08	8.82
442.435	8.81
442.79	8.8
443.145	8.77
443.5	8.77
443.855	8.78
444.21	8.77
444.565	8.76
444.92	8.76
445.275	8.73
445.629	8.69
445.984	8.68
446.339	8.67
446.693	8.63
447.048	8.57
447.403	8.56
447.757	8.51
448.112	8.5
448.466	8.49
448.82	8.48
449.175	8.47
449.529	8.46
449.883	8.43
450.238	8.39
450.592	8.39
450.946	8.34
451.3	8.3
451.654	8.27
452.008	8.24
452.362	8.23
452.716	8.22
453.07	8.21
453.424	8.19
453.778	8.15
454.132	8.16
454.486	8.17
454.839	8.16
455.193	8.18
455.547	8.19
455.9	8.18
456.254	8.18
456.607	8.17
456.961	8.19
457.314	8.19
457.668	8.21
458.021	8.21
458.375	8.21
458.728	8.22
459.081	8.21
459.434	8.22
459.787	8.23
460.141	8.23
460.494	8.24
460.847	8.26
461.2	8.29
461.553	8.31
461.906	8.33
462.259	8.35
462.611	8.38
462.964	8.41
463.317	8.45
463.67	8.48
464.022	8.51
464.375	8.51
464.728	8.56
465.08	8.56
465.433	8.6
465.785	8.65
466.138	8.68
466.49	8.73
466.843	8.75
467.195	8.8
467.547	8.82
467.899	8.86
468.252	8.86
468.604	8.88
468.956	8.87
469.308	8.88
469.66	8.89
470.012	8.9
470.364	8.9
470.716	8.93
471.068	8.94
471.42	8.95
471.772	8.99
472.123	9.02
472.475	9.05
472.827	9.04
473.178	9.06
473.53	9.07
473.882	9.07
474.233	9.1
474.585	9.04
474.936	9.04
475.288	9.03
475.639	9.03
475.99	9.03
476.342	9.04
476.693	9.05
477.044	9.03
477.395	9.03
477.746	9.02
478.097	8.97
478.448	8.97
478.8	8.96
479.15	8.94
479.501	8.91
479.852	8.89
480.203	8.91
480.554	8.91
480.905	8.91
481.255	8.9
481.606	8.89
481.957	8.91
482.307	8.92
482.658	8.93
483.009	8.93
483.359	8.95
483.709	8.96
484.06	8.95
484.41	8.97
484.761	8.98
485.111	8.97
485.461	8.98
485.811	8.98
486.162	8.98
486.512	8.99
486.862	9.01
487.212	9.02
487.562	9.02
487.912	9.03
488.262	9.03
488.612	9.05
488.961	9.06
489.311	9.07
489.661	9.07
490.011	9.08
490.36	9.09
490.71	9.1
491.06	9.12
491.409	9.14
491.759	9.16
492.108	9.18
492.458	9.21
492.807	9.23
493.157	9.27
493.506	9.33
493.855	9.36
494.204	9.39
494.554	9.43
494.903	9.49
495.252	9.54
495.601	9.6
495.95	9.66
496.299	9.73
496.648	9.8
496.997	9.86
497.346	9.92
497.695	10.01
498.043	10.07
498.392	10.14
498.741	10.22
499.09	10.28
499.438	10.36
499.787	10.45
500.135	10.56
500.484	10.64
500.832	10.72
501.181	10.81
501.529	10.91
501.878	11.03
502.226	11.12
502.574	11.2
502.923	11.3
503.271	11.4
503.619	11.51
503.967	11.62
504.315	11.77
504.663	11.87
505.011	12
505.359	12.15
505.707	12.26
506.055	12.39
506.403	12.51
506.751	12.6
507.098	12.72
507.446	12.87
507.794	13.01
508.141	13.13
508.489	13.26
508.837	13.4
509.184	13.51
509.531	13.64
509.879	13.79
510.226	13.92
510.574	14.04
510.921	14.17
511.268	14.29
511.616	14.4
511.963	14.54
512.31	14.69
512.657	14.82
513.004	14.96
513.351	15.12
513.698	15.28
514.045	15.47
514.392	15.63
514.739	15.77
515.086	15.91
515.432	16.07
515.779	16.21
516.126	16.35
516.473	16.5
516.819	16.63
517.166	16.73
517.512	16.88
517.859	17.05
518.205	17.21
518.552	17.38
518.898	17.5
519.245	17.65
519.591	17.77
519.937	17.93
520.283	18.09
520.629	18.22
520.976	18.39
521.322	18.57
521.668	18.73
522.014	18.92
522.36	19.1
522.706	19.3
523.052	19.53
523.398	19.77
523.743	20
524.089	20.24
524.435	20.48
524.781	20.72
525.126	20.91
525.472	21.11
525.817	21.25
526.163	21.43
526.509	21.56
526.854	21.67
527.199	21.8
527.545	21.92
527.89	22.04
528.235	22.17
528.581	22.29
528.926	22.43
529.271	22.58
529.616	22.71
529.961	22.83
530.306	22.99
530.651	23.11
530.996	23.28
531.341	23.44
531.686	23.6
532.031	23.76
532.376	23.89
532.721	24.05
533.065	24.23
533.41	24.39
533.755	24.6
534.099	24.84
534.444	25.03
534.788	25.24
535.133	25.48
535.477	25.68
535.822	25.89
536.166	26.14
536.51	26.35
536.855	26.67
537.199	26.97
537.543	27.24
537.887	27.54
538.231	27.82
538.576	28.12
538.92	28.41
539.264	28.67
539.608	28.98
539.951	29.23
540.295	29.45
540.639	29.73
540.983	29.95
541.327	30.16
541.671	30.39
542.014	30.56
542.358	30.73
542.701	30.92
543.045	31.1
543.389	31.29
543.732	31.52
544.075	31.68
544.419	31.89
544.762	32.11
545.105	32.36
545.449	32.58
545.792	32.81
546.135	33.06
546.478	33.32
546.821	33.54
547.165	33.84
547.508	34.14
547.851	34.38
548.194	34.64
548.536	34.92
548.879	35.18
549.222	35.51
549.565	35.83
549.908	36.13
550.25	36.49
550.593	36.74
550.936	37.02
551.278	37.35
551.621	37.66
551.963	37.93
552.306	38.19
552.648	38.5
552.991	38.73
553.333	39
553.675	39.23
554.017	39.52
554.36	39.75
554.702	40
555.044	40.26
555.386	40.46
555.728	40.73
556.07	41.01
556.412	41.31
556.754	41.6
557.096	41.87
557.438	42.09
557.78	42.46
558.121	42.69
558.463	42.96
558.805	43.22
559.147	43.51
559.488	43.72
559.83	43.91
560.171	44.2
560.513	44.42
560.854	44.68
561.196	44.88
561.537	45.09
561.878	45.33
562.22	45.58
562.561	45.84
562.902	46.06
563.243	46.25
563.584	46.44
563.925	46.65
564.266	46.85
564.607	47.05
564.948	47.18
565.289	47.32
565.63	47.49
565.971	47.62
566.312	47.75
566.653	47.87
566.993	48.06
567.334	48.24
567.675	48.42
568.015	48.65
568.356	48.8
568.696	49
569.037	49.15
569.377	49.28
569.718	49.42
570.058	49.55
570.398	49.66
570.739	49.78
571.079	49.92
571.419	50.07
571.759	50.17
572.099	50.35
572.439	50.52
572.779	50.64
573.119	50.81
573.459	50.97
573.799	51.17
574.139	51.26
574.479	51.35
574.819	51.47
575.158	51.53
575.498	51.62
575.838	51.69
576.177	51.82
576.517	51.97
576.856	52.11
577.196	52.26
577.535	52.41
577.875	52.54
578.214	52.62
578.553	52.75
578.893	52.87
579.232	52.96
579.571	53.11
579.91	53.21
580.25	53.3
580.589	53.34
580.928	53.46
581.267	53.65
581.606	53.73
581.945	53.85
582.283	53.89
582.622	54.06
582.961	54.17
583.3	54.22
583.639	54.22
583.977	54.31
584.316	54.34
584.654	54.42
584.993	54.51
585.332	54.62
585.67	54.75
586.008	54.87
586.347	54.94
586.685	55.03
587.024	55.2
587.362	55.26
587.7	55.42
588.038	55.42
588.376	55.48
588.715	55.61
589.053	55.65
589.391	55.77
589.729	55.81
590.067	55.87
590.404	56
590.742	56.05
591.08	56.13
591.418	56.22
591.756	56.3
592.093	56.35
592.431	56.37
592.769	56.36
593.106	56.42
593.444	56.47
593.781	56.49
594.119	56.54
594.456	56.57
594.793	56.59
595.131	56.67
595.468	56.69
595.805	56.76
596.143	56.86
596.48	56.91
596.817	57
597.154	57.05
597.491	57
597.828	57.12
598.165	57.15
598.502	57.24
598.839	57.35
599.176	57.44
599.512	57.52
599.849	57.65
600.186	57.72
600.523	57.72
600.859	57.8
601.196	57.83
601.532	57.88
601.869	57.99
602.205	58.07
602.542	58.17
602.878	58.15
603.215	58.22
603.551	58.23
603.887	58.27
604.223	58.33
604.56	58.45
604.896	58.46
605.232	58.48
605.568	58.44
605.904	58.41
606.24	58.43
606.576	58.42
606.912	58.4
607.248	58.44
607.583	58.45
607.919	58.45
608.255	58.46
608.591	58.54
608.926	58.57
609.262	58.61
609.597	58.55
609.933	58.61
610.268	58.49
610.604	58.63
610.939	58.6
611.275	58.58
611.61	58.65
611.945	58.71
612.281	58.76
612.616	58.85
612.951	58.94
613.286	58.97
613.621	59.13
613.956	59.19
614.291	59.22
614.626	59.34
614.961	59.38
615.296	59.45
615.631	59.5
615.966	59.55
616.3	59.56
616.635	59.75
616.97	59.77
617.304	59.96
617.639	59.99
617.973	60.01
618.308	60.06
618.642	60.04
618.977	60.11
619.311	60.17
619.646	60.24
619.98	60.28
620.314	60.32
620.648	60.24
620.983	60.2
621.317	60.17
621.651	60.21
621.985	60.41
622.319	60.44
622.653	60.45
622.987	60.44
623.321	60.37
623.655	60.34
623.988	60.33
624.322	60.28
624.656	60.3
624.99	60.45
625.323	60.54
625.657	60.54
625.99	60.49
626.324	60.5
626.657	60.52
626.991	60.52
627.324	60.56
627.658	60.6
627.991	60.68
628.324	60.69
628.657	60.7
628.991	60.59
629.324	60.56
629.657	60.51
629.99	60.47
630.323	60.59
630.656	60.55
630.989	60.61
631.322	60.64
631.655	60.58
631.987	60.52
632.32	60.45
632.653	60.42
632.986	60.48
633.318	60.52
633.651	60.46
633.984	60.42
634.316	60.39
634.649	60.44
634.981	60.38
635.313	60.44
635.646	60.44
635.978	60.44
636.31	60.48
636.643	60.53
636.975	60.55
637.307	60.56
637.639	60.61
637.971	60.66
638.303	60.66
638.635	60.73
638.967	60.76
639.299	60.8
639.631	60.84
639.963	60.77
640.295	60.74
640.626	60.77
640.958	60.81
641.29	60.82
641.621	60.8
641.953	60.94
642.285	60.97
642.616	61.07
642.948	61.14
643.279	61.1
643.61	61.16
643.942	61.08
644.273	61.08
644.604	61.05
644.936	61.06
645.267	61.05
645.598	61.03
645.929	61.02
646.26	61
646.591	61.16
646.922	61.19
647.253	61.3
647.584	61.39
647.915	61.38
648.245	61.54
648.576	61.48
648.907	61.43
649.238	61.4
649.568	61.33
649.899	61.31
650.229	61.28
650.56	61.25
650.89	61.39
651.221	61.33
651.551	61.31
651.882	61.22
652.212	61.28
652.542	61.32
652.872	61.22
653.203	61.28
653.533	61.24
653.863	61.21
654.193	61.05
654.523	61
654.853	60.96
655.183	60.87
655.513	60.89
655.843	60.97
656.172	61
656.502	61.07
656.832	61.17
657.162	61.34
657.491	61.31
657.821	61.26
658.15	61.37
658.48	61.35
658.809	61.39
659.139	61.33
659.468	61.28
659.798	61.41
660.127	61.44
660.456	61.39
660.785	61.5
