Data from BA28306_Reflection_00007.txt Node
Date: Mon Nov 18 15:53:44 EST 2019
User: vgr7
Spectrometer: USB2G7710
Scans to average: 3
Trigger mode: 4
Integration Time (sec): 2.000000E-2
Electric dark correction enabled: true
Boxcar width: 10
XAxis mode: Wavelengths
Number of Pixels in Spectrum: 2048
>>>>>Begin Spectral Data<<<<<
177.721	1352.43
178.105	100
178.488	124.55
178.871	-41.51
179.254	-658.24
179.636	69.39
180.019	-158.35
180.402	131.82
180.785	-85.43
181.168	-139.46
181.55	-126.96
181.933	219.13
182.316	218.62
182.698	276.72
183.081	251.87
183.463	443.34
183.846	1211.68
184.228	-1441.44
184.611	-1595.65
184.993	-252.01
185.376	-76.09
185.758	-230.07
186.14	-138.78
186.522	-110.78
186.904	-129.43
187.287	-213.6
187.669	-128.88
188.051	-145.63
188.433	-96.51
188.815	-117.32
189.197	-101.04
189.579	-60.16
189.961	-40.72
190.342	-10.87
190.724	10.81
191.106	-52.79
191.488	-97.52
191.869	-43.03
192.251	-114.84
192.633	-126.29
193.014	-176.34
193.396	-192.14
193.777	-118.47
194.159	-97.06
194.54	-108.68
194.922	-85.51
195.303	-84.97
195.684	-88.53
196.065	-72.47
196.447	-92.61
196.828	-94.98
197.209	-71.09
197.59	-105.43
197.971	-94.43
198.352	-93.49
198.733	-111.34
199.114	-20.43
199.495	9.74
199.876	-10.13
200.257	6.29
200.638	-16.86
201.018	18.19
201.399	41.13
201.78	57.87
202.16	23.63
202.541	9.49
202.922	-24.52
203.302	-1.91
203.683	-22.5
204.063	-126.1
204.444	-74.57
204.824	-58.25
205.204	-67.11
205.585	-59.15
205.965	-32.37
206.345	-38.13
206.725	-59.59
207.106	-85.87
207.486	-184.04
207.866	-163.88
208.246	-152.43
208.626	-127.14
209.006	-99.14
209.386	-107.13
209.766	-127.74
210.145	-89.34
210.525	-76.03
210.905	-94.88
211.285	-74.85
211.664	-57.24
212.044	-39.44
212.424	-36.44
212.803	-46.06
213.183	-49.77
213.562	-59.94
213.942	-76.7
214.321	-83.32
214.701	-92.69
215.08	-92.03
215.459	-73.22
215.838	-81.18
216.218	-87.14
216.597	-84.17
216.976	-99.01
217.355	-91.75
217.734	-99.38
218.113	-106.57
218.492	-110.8
218.871	-108.07
219.25	-100.59
219.629	-107.85
220.008	-114.52
220.387	-116.25
220.766	-102.56
221.144	-121.72
221.523	-117.22
221.902	-107.43
222.28	-103.69
222.659	-82.55
223.037	-78.58
223.416	-92.14
223.794	-89.83
224.173	-89.14
224.551	-74.74
224.929	-66.64
225.308	-66
225.686	-55.7
226.064	-50.33
226.442	-44
226.821	-29.86
227.199	-29.5
227.577	-27.68
227.955	-26.47
228.333	-25.79
228.711	-22.32
229.089	-13.52
229.467	-14.95
229.845	-15.62
230.222	-13.56
230.6	-14.09
230.978	-12.48
231.356	-8.16
231.733	-8.63
232.111	-4.59
232.488	-1.94
232.866	-2.11
233.243	-0.62
233.621	0.42
233.998	2.03
234.376	1.29
234.753	0.71
235.13	1.07
235.508	1.97
235.885	1.43
236.262	2.43
236.639	1.68
237.016	0.72
237.393	2.17
237.77	2.81
238.147	3.18
238.524	3.21
238.901	2.98
239.278	3.03
239.655	3.96
240.032	2.89
240.409	2.36
240.785	2.18
241.162	2.37
241.539	2.96
241.915	3.19
242.292	3.3
242.668	3.38
243.045	3.52
243.421	3.73
243.798	4.05
244.174	4.13
244.551	4.07
244.927	4.22
245.303	4.48
245.679	4.68
246.056	4.46
246.432	4.59
246.808	4.82
247.184	4.61
247.56	4.59
247.936	4.68
248.312	4.7
248.688	4.9
249.064	4.88
249.44	4.77
249.815	4.94
250.191	5.07
250.567	5.09
250.943	4.91
251.318	4.94
251.694	5.16
252.069	5.03
252.445	5.33
252.82	5.23
253.196	5.01
253.571	4.92
253.947	5.27
254.322	5.17
254.697	5.06
255.073	5.2
255.448	4.91
255.823	4.82
256.198	5.03
256.573	5.01
256.948	4.86
257.323	4.88
257.698	4.74
258.073	4.75
258.448	4.76
258.823	4.74
259.198	4.62
259.573	4.52
259.948	4.53
260.322	4.5
260.697	4.69
261.072	4.76
261.446	4.78
261.821	4.65
262.195	4.56
262.57	4.44
262.944	4.42
263.319	4.42
263.693	4.35
264.067	4.2
264.442	4.16
264.816	4.28
265.19	4.23
265.564	4.04
265.938	4.09
266.313	4.13
266.687	4.32
267.061	4.54
267.435	4.56
267.809	4.42
268.183	4.34
268.556	4.15
268.93	4.19
269.304	4.07
269.678	4.28
270.051	4.45
270.425	4.49
270.799	4.43
271.172	4.5
271.546	4.54
271.919	4.46
272.293	4.35
272.666	4.36
273.04	4.47
273.413	4.55
273.787	4.56
274.16	4.55
274.533	4.42
274.906	4.14
275.279	4.01
275.653	4.25
276.026	4.27
276.399	4.27
276.772	4.26
277.145	4.43
277.518	4.4
277.891	4.44
278.263	4.46
278.636	4.44
279.009	4.48
279.382	4.81
279.755	4.82
280.127	4.91
280.5	4.99
280.872	4.93
281.245	4.88
281.617	4.87
281.99	4.82
282.362	4.94
282.735	5.03
283.107	5.08
283.479	5.08
283.852	5.13
284.224	5.2
284.596	5.17
284.968	5.21
285.34	5.23
285.713	5.06
286.085	5.03
286.457	5.2
286.829	5.14
287.201	5.04
287.572	5.03
287.944	5.07
288.316	5.08
288.688	5.09
289.06	5.11
289.431	5.13
289.803	5.24
290.175	5.29
290.546	5.43
290.918	5.53
291.289	5.59
291.661	5.67
292.032	5.68
292.403	5.71
292.775	5.66
293.146	5.6
293.517	5.8
293.889	5.9
294.26	5.9
294.631	5.96
295.002	5.97
295.373	6.03
295.744	6
296.115	5.92
296.486	5.76
296.857	5.92
297.228	5.84
297.599	5.7
297.97	5.73
298.34	5.7
298.711	5.67
299.082	5.62
299.452	5.53
299.823	5.69
300.194	5.72
300.564	5.71
300.935	5.75
301.305	5.59
301.676	5.76
302.046	5.71
302.416	5.82
302.787	5.87
303.157	5.85
303.527	5.84
303.897	5.83
304.267	6.12
304.637	6.08
305.008	6.18
305.378	6.36
305.748	6.36
306.117	6.35
306.487	6.57
306.857	6.58
307.227	6.58
307.597	6.45
307.967	6.53
308.336	6.66
308.706	6.69
309.076	6.91
309.445	6.83
309.815	6.85
310.184	6.79
310.554	6.87
310.923	7
311.293	7.2
311.662	7.35
312.031	7.32
312.401	7.38
312.77	7.63
313.139	7.69
313.508	7.86
313.877	7.98
314.246	7.99
314.616	8.14
314.985	8.28
315.353	8.42
315.722	8.52
316.091	8.47
316.46	8.6
316.829	8.63
317.198	8.71
317.567	8.92
317.935	9
318.304	8.94
318.672	8.96
319.041	9.01
319.41	8.86
319.778	8.88
320.147	8.96
320.515	8.84
320.883	8.74
321.252	8.63
321.62	8.54
321.988	8.45
322.357	8.45
322.725	8.49
323.093	8.4
323.461	8.17
323.829	8.36
324.197	8.39
324.565	8.49
324.933	8.57
325.301	8.41
325.669	8.54
326.037	8.59
326.405	8.67
326.772	8.73
327.14	8.92
327.508	8.89
327.875	8.81
328.243	8.85
328.61	9.06
328.978	9.09
329.346	9.26
329.713	9.24
330.08	9.17
330.448	9.18
330.815	9.19
331.182	9.39
331.55	9.29
331.917	9.32
332.284	9.29
332.651	9.15
333.018	9.18
333.385	9.1
333.752	9.1
334.119	9.15
334.486	8.96
334.853	8.86
335.22	8.89
335.587	8.93
335.954	8.94
336.32	8.92
336.687	8.92
337.054	8.87
337.42	8.92
337.787	8.96
338.153	9.06
338.52	9.1
338.886	9.07
339.253	9.12
339.619	9.09
339.986	9.09
340.352	9.18
340.718	9.18
341.084	9.2
341.451	9.39
341.817	9.34
342.183	9.35
342.549	9.33
342.915	9.47
343.281	9.56
343.647	9.58
344.013	9.54
344.379	9.5
344.745	9.59
345.11	9.64
345.476	9.69
345.842	9.63
346.208	9.63
346.573	9.66
346.939	9.64
347.304	9.62
347.67	9.53
348.035	9.43
348.401	9.49
348.766	9.49
349.132	9.39
349.497	9.46
349.862	9.48
350.228	9.49
350.593	9.43
350.958	9.37
351.323	9.4
351.688	9.4
352.053	9.54
352.418	9.46
352.783	9.53
353.148	9.43
353.513	9.44
353.878	9.49
354.243	9.45
354.608	9.41
354.972	9.46
355.337	9.51
355.702	9.56
356.066	9.61
356.431	9.55
356.795	9.56
357.16	9.48
357.524	9.43
357.889	9.46
358.253	9.45
358.618	9.43
358.982	9.34
359.346	9.26
359.71	9.1
360.075	9.07
360.439	8.99
360.803	9
361.167	9.03
361.531	9.01
361.895	8.96
362.259	8.95
362.623	8.88
362.987	8.83
363.351	8.87
363.714	8.84
364.078	8.79
364.442	8.72
364.806	8.68
365.169	8.67
365.533	8.65
365.896	8.55
366.26	8.48
366.623	8.41
366.987	8.38
367.35	8.4
367.714	8.34
368.077	8.31
368.44	8.29
368.803	8.25
369.167	8.18
369.53	8.2
369.893	8.19
370.256	8.2
370.619	8.19
370.982	8.08
371.345	7.97
371.708	8.02
372.071	7.93
372.434	7.87
372.797	7.92
373.159	7.81
373.522	7.82
373.885	7.83
374.247	7.82
374.61	7.82
374.973	7.74
375.335	7.73
375.698	7.68
376.06	7.61
376.423	7.5
376.785	7.43
377.147	7.41
377.51	7.35
377.872	7.29
378.234	7.2
378.596	7.19
378.958	7.13
379.321	7.06
379.683	7.1
380.045	7.08
380.407	6.99
380.769	6.95
381.13	6.88
381.492	6.85
381.854	6.86
382.216	6.82
382.578	6.8
382.939	6.76
383.301	6.74
383.663	6.71
384.024	6.68
384.386	6.7
384.747	6.65
385.109	6.64
385.47	6.6
385.832	6.58
386.193	6.57
386.554	6.55
386.916	6.5
387.277	6.48
387.638	6.48
387.999	6.42
388.36	6.45
388.721	6.45
389.082	6.42
389.443	6.35
389.804	6.28
390.165	6.25
390.526	6.19
390.887	6.13
391.248	6.13
391.609	6.13
391.969	6.11
392.33	6.08
392.691	6.03
393.051	5.98
393.412	5.96
393.772	5.89
394.133	5.88
394.493	5.86
394.854	5.79
395.214	5.7
395.574	5.66
395.935	5.56
396.295	5.55
396.655	5.5
397.015	5.47
397.376	5.45
397.736	5.41
398.096	5.43
398.456	5.44
398.816	5.39
399.176	5.32
399.535	5.27
399.895	5.24
400.255	5.19
400.615	5.18
400.975	5.18
401.334	5.16
401.694	5.13
402.054	5.1
402.413	5.11
402.773	5.07
403.132	5.08
403.492	5.07
403.851	5.04
404.211	5
404.57	4.93
404.929	4.95
405.288	4.95
405.648	4.91
406.007	4.85
406.366	4.84
406.725	4.84
407.084	4.82
407.443	4.82
407.802	4.84
408.161	4.81
408.52	4.78
408.879	4.78
409.238	4.77
409.596	4.76
409.955	4.71
410.314	4.73
410.673	4.74
411.031	4.71
411.39	4.7
411.748	4.72
412.107	4.75
412.465	4.72
412.824	4.71
413.182	4.68
413.54	4.67
413.899	4.63
414.257	4.61
414.615	4.6
414.974	4.56
415.332	4.5
415.69	4.51
416.048	4.49
416.406	4.48
416.764	4.48
417.122	4.47
417.48	4.46
417.838	4.44
418.195	4.43
418.553	4.43
418.911	4.41
419.269	4.39
419.626	4.38
419.984	4.37
420.342	4.38
420.699	4.36
421.057	4.36
421.414	4.36
421.772	4.35
422.129	4.33
422.486	4.33
422.844	4.34
423.201	4.32
423.558	4.33
423.915	4.31
424.273	4.31
424.63	4.29
424.987	4.28
425.344	4.27
425.701	4.26
426.058	4.25
426.415	4.24
426.772	4.23
427.128	4.22
427.485	4.21
427.842	4.18
428.199	4.19
428.555	4.17
428.912	4.18
429.269	4.19
429.625	4.18
429.982	4.17
430.338	4.17
430.695	4.17
431.051	4.16
431.407	4.17
431.764	4.15
432.12	4.13
432.476	4.13
432.832	4.14
433.189	4.13
433.545	4.12
433.901	4.12
434.257	4.12
434.613	4.13
434.969	4.14
435.325	4.15
435.681	4.15
436.036	4.18
436.392	4.17
436.748	4.16
437.104	4.16
437.459	4.16
437.815	4.15
438.171	4.16
438.526	4.15
438.882	4.14
439.237	4.15
439.593	4.17
439.948	4.17
440.304	4.16
440.659	4.16
441.014	4.17
441.369	4.16
441.725	4.15
442.08	4.15
442.435	4.14
442.79	4.13
443.145	4.12
443.5	4.09
443.855	4.09
444.21	4.08
444.565	4.1
444.92	4.1
445.275	4.09
445.629	4.07
445.984	4.07
446.339	4.05
446.693	4.03
447.048	4
447.403	4
447.757	3.99
448.112	3.97
448.466	3.96
448.82	3.97
449.175	3.97
449.529	3.95
449.883	3.94
450.238	3.92
450.592	3.92
450.946	3.92
451.3	3.9
451.654	3.89
452.008	3.87
452.362	3.85
452.716	3.84
453.07	3.85
453.424	3.85
453.778	3.87
454.132	3.86
454.486	3.89
454.839	3.89
455.193	3.9
455.547	3.9
455.9	3.93
456.254	3.94
456.607	3.94
456.961	3.94
457.314	3.93
457.668	3.95
458.021	3.94
458.375	3.95
458.728	3.96
459.081	3.96
459.434	3.98
459.787	3.99
460.141	3.99
460.494	3.98
460.847	3.96
461.2	3.95
461.553	3.97
461.906	3.98
462.259	3.97
462.611	3.99
462.964	4.01
463.317	4.01
463.67	4.01
464.022	3.99
464.375	3.99
464.728	4.01
465.08	4.02
465.433	4.04
465.785	4.03
466.138	4.04
466.49	4.05
466.843	4.06
467.195	4.07
467.547	4.09
467.899	4.11
468.252	4.15
468.604	4.18
468.956	4.18
469.308	4.17
469.66	4.19
470.012	4.17
470.364	4.19
470.716	4.19
471.068	4.18
471.42	4.2
471.772	4.22
472.123	4.21
472.475	4.2
472.827	4.2
473.178	4.22
473.53	4.22
473.882	4.21
474.233	4.2
474.585	4.18
474.936	4.15
475.288	4.15
475.639	4.12
475.99	4.1
476.342	4.1
476.693	4.11
477.044	4.11
477.395	4.1
477.746	4.08
478.097	4.07
478.448	4.07
478.8	4.06
479.15	4.04
479.501	4.04
479.852	4.04
480.203	4.05
480.554	4.05
480.905	4.05
481.255	4.07
481.606	4.07
481.957	4.09
482.307	4.1
482.658	4.12
483.009	4.12
483.359	4.11
483.709	4.11
484.06	4.11
484.41	4.12
484.761	4.13
485.111	4.14
485.461	4.14
485.811	4.14
486.162	4.15
486.512	4.16
486.862	4.16
487.212	4.16
487.562	4.17
487.912	4.17
488.262	4.18
488.612	4.18
488.961	4.18
489.311	4.18
489.661	4.18
490.011	4.17
490.36	4.18
490.71	4.2
491.06	4.2
491.409	4.2
491.759	4.2
492.108	4.2
492.458	4.19
492.807	4.19
493.157	4.2
493.506	4.24
493.855	4.26
494.204	4.28
494.554	4.29
494.903	4.29
495.252	4.31
495.601	4.34
495.95	4.34
496.299	4.37
496.648	4.39
496.997	4.4
497.346	4.44
497.695	4.46
498.043	4.47
498.392	4.51
498.741	4.54
499.09	4.55
499.438	4.59
499.787	4.61
500.135	4.64
500.484	4.66
500.832	4.68
501.181	4.69
501.529	4.73
501.878	4.79
502.226	4.82
502.574	4.86
502.923	4.87
503.271	4.92
503.619	4.95
503.967	5
504.315	5.03
504.663	5.08
505.011	5.13
505.359	5.17
505.707	5.22
506.055	5.26
506.403	5.31
506.751	5.36
507.098	5.42
507.446	5.47
507.794	5.52
508.141	5.56
508.489	5.61
508.837	5.65
509.184	5.7
509.531	5.76
509.879	5.8
510.226	5.87
510.574	5.92
510.921	5.99
511.268	6.03
511.616	6.09
511.963	6.15
512.31	6.2
512.657	6.28
513.004	6.34
513.351	6.43
513.698	6.5
514.045	6.55
514.392	6.62
514.739	6.69
515.086	6.77
515.432	6.83
515.779	6.92
516.126	6.99
516.473	7.05
516.819	7.11
517.166	7.17
517.512	7.22
517.859	7.27
518.205	7.3
518.552	7.39
518.898	7.45
519.245	7.51
519.591	7.57
519.937	7.63
520.283	7.69
520.629	7.76
520.976	7.83
521.322	7.93
521.668	8.02
522.014	8.11
522.36	8.21
522.706	8.31
523.052	8.42
523.398	8.54
523.743	8.66
524.089	8.79
524.435	8.92
524.781	9.04
525.126	9.17
525.472	9.28
525.817	9.36
526.163	9.46
526.509	9.54
526.854	9.63
527.199	9.71
527.545	9.8
527.89	9.88
528.235	9.98
528.581	10.07
528.926	10.16
529.271	10.25
529.616	10.35
529.961	10.45
530.306	10.56
530.651	10.66
530.996	10.76
531.341	10.89
531.686	10.99
532.031	11.12
532.376	11.24
532.721	11.37
533.065	11.52
533.41	11.67
533.755	11.82
534.099	11.97
534.444	12.13
534.788	12.3
535.133	12.47
535.477	12.62
535.822	12.78
536.166	12.98
536.51	13.2
536.855	13.39
537.199	13.61
537.543	13.82
537.887	14.07
538.231	14.33
538.576	14.56
538.92	14.82
539.264	15.07
539.608	15.3
539.951	15.52
540.295	15.72
540.639	15.92
540.983	16.15
541.327	16.36
541.671	16.55
542.014	16.73
542.358	16.93
542.701	17.13
543.045	17.37
543.389	17.6
543.732	17.81
544.075	18.06
544.419	18.29
544.762	18.53
545.105	18.77
545.449	19.02
545.792	19.31
546.135	19.6
546.478	19.91
546.821	20.23
547.165	20.59
547.508	20.93
547.851	21.28
548.194	21.59
548.536	21.92
548.879	22.31
549.222	22.68
549.565	23.05
549.908	23.4
550.25	23.73
550.593	24.06
550.936	24.42
551.278	24.8
551.621	25.18
551.963	25.59
552.306	25.99
552.648	26.35
552.991	26.7
553.333	27.04
553.675	27.38
554.017	27.75
554.36	28.05
554.702	28.38
555.044	28.74
555.386	29.13
555.728	29.45
556.07	29.83
556.412	30.16
556.754	30.5
557.096	30.94
557.438	31.31
557.78	31.71
558.121	32.11
558.463	32.49
558.805	32.82
559.147	33.15
559.488	33.49
559.83	33.95
560.171	34.31
560.513	34.75
560.854	35.1
561.196	35.45
561.537	35.81
561.878	36.18
562.22	36.49
562.561	36.82
562.902	37.21
563.243	37.55
563.584	37.93
563.925	38.22
564.266	38.47
564.607	38.78
564.948	39.09
565.289	39.43
565.63	39.69
565.971	39.95
566.312	40.26
566.653	40.53
566.993	40.75
567.334	41.02
567.675	41.21
568.015	41.56
568.356	41.85
568.696	42.11
569.037	42.39
569.377	42.68
569.718	42.96
570.058	43.19
570.398	43.45
570.739	43.7
571.079	44.01
571.419	44.28
571.759	44.54
572.099	44.81
572.439	45.03
572.779	45.29
573.119	45.56
573.459	45.79
573.799	46.04
574.139	46.24
574.479	46.46
574.819	46.72
575.158	46.89
575.498	47.09
575.838	47.3
576.177	47.53
576.517	47.75
576.856	47.93
577.196	48.22
577.535	48.49
577.875	48.75
578.214	48.97
578.553	49.26
578.893	49.49
579.232	49.66
579.571	49.8
579.91	49.99
580.25	50.25
580.589	50.45
580.928	50.66
581.267	50.86
581.606	51.09
581.945	51.3
582.283	51.46
582.622	51.65
582.961	51.88
583.3	52.06
583.639	52.27
583.977	52.51
584.316	52.66
584.654	52.7
584.993	52.89
585.332	53.07
585.67	53.17
586.008	53.33
586.347	53.48
586.685	53.7
587.024	53.89
587.362	53.96
587.7	54.09
588.038	54.2
588.376	54.36
588.715	54.52
589.053	54.65
589.391	54.81
589.729	54.95
590.067	55.04
590.404	55.13
590.742	55.29
591.08	55.32
591.418	55.45
591.756	55.64
592.093	55.7
592.431	55.8
592.769	55.94
593.106	56.07
593.444	56.2
593.781	56.28
594.119	56.4
594.456	56.45
594.793	56.56
595.131	56.72
595.468	56.8
595.805	56.83
596.143	56.93
596.48	57
596.817	57.11
597.154	57.24
597.491	57.34
597.828	57.35
598.165	57.45
598.502	57.51
598.839	57.59
599.176	57.7
599.512	57.8
599.849	57.96
600.186	58.03
600.523	58.23
600.859	58.37
601.196	58.49
601.532	58.73
601.869	58.77
602.205	58.83
602.542	58.92
602.878	58.99
603.215	59.1
603.551	59.13
603.887	59.23
604.223	59.3
604.56	59.39
604.896	59.49
605.232	59.6
605.568	59.66
605.904	59.76
606.24	59.83
606.576	59.87
606.912	59.9
607.248	59.96
607.583	60
607.919	60.05
608.255	60.12
608.591	60.15
608.926	60.32
609.262	60.39
609.597	60.44
609.933	60.57
610.268	60.63
610.604	60.79
610.939	60.84
611.275	60.89
611.61	60.89
611.945	60.96
612.281	61.05
612.616	61.16
612.951	61.19
613.286	61.29
613.621	61.42
613.956	61.46
614.291	61.53
614.626	61.66
614.961	61.7
615.296	61.75
615.631	61.8
615.966	61.78
616.3	61.83
616.635	61.95
616.97	62
617.304	62.07
617.639	62.06
617.973	62.04
618.308	62.1
618.642	62.26
618.977	62.32
619.311	62.35
619.646	62.45
619.98	62.51
620.314	62.58
620.648	62.57
620.983	62.66
621.317	62.66
621.651	62.61
621.985	62.65
622.319	62.66
622.653	62.68
622.987	62.79
623.321	62.88
623.655	62.88
623.988	62.92
624.322	62.94
624.656	62.99
624.99	63.05
625.323	63.04
625.657	63.06
625.99	62.97
626.324	62.98
626.657	63
626.991	63.06
627.324	63.09
627.658	63.08
627.991	63.19
628.324	63.31
628.657	63.26
628.991	63.25
629.324	63.37
629.657	63.33
629.99	63.4
630.323	63.5
630.656	63.53
630.989	63.52
631.322	63.55
631.655	63.57
631.987	63.58
632.32	63.65
632.653	63.64
632.986	63.76
633.318	63.87
633.651	63.88
633.984	63.84
634.316	63.87
634.649	63.96
634.981	63.98
635.313	64.01
635.646	64.09
635.978	64.28
636.31	64.26
636.643	64.34
636.975	64.28
637.307	64.29
637.639	64.33
637.971	64.37
638.303	64.37
638.635	64.42
638.967	64.44
639.299	64.48
639.631	64.55
639.963	64.53
640.295	64.5
640.626	64.53
640.958	64.63
641.29	64.6
641.621	64.61
641.953	64.68
642.285	64.67
642.616	64.81
642.948	64.67
643.279	64.75
643.61	64.79
643.942	64.92
644.273	64.87
644.604	64.86
644.936	64.96
645.267	65.05
645.598	65.03
645.929	65.13
646.26	65.09
646.591	65.13
646.922	65.2
647.253	65.23
647.584	65.25
647.915	65.22
648.245	65.22
648.576	65.29
648.907	65.26
649.238	65.3
649.568	65.28
649.899	65.39
650.229	65.32
650.56	65.51
650.89	65.41
651.221	65.48
651.551	65.5
651.882	65.47
652.212	65.3
652.542	65.31
652.872	65.24
653.203	65.39
653.533	65.37
653.863	65.46
654.193	65.41
654.523	65.48
654.853	65.39
655.183	65.38
655.513	65.29
655.843	65.28
656.172	65.43
656.502	65.46
656.832	65.43
657.162	65.5
657.491	65.28
657.821	65.41
658.15	65.39
658.48	65.48
658.809	65.44
659.139	65.5
659.468	65.63
659.798	65.76
660.127	65.74
660.456	65.72
660.785	65.69
661.115	65.74
661.444	65.72
661.773	65.89
662.102	66.02
662.431	66.11
662.76	66.06
663.089	65.88
663.418	65.79
663.747	65.82
664.076	65.81
664.404	65.94
664.733	65.78
665.062	65.84
665.39	65.86
665.719	65.94
666.048	66.07
666.376	66.06
