Data from BA28469_Reflection_00003.txt Node
Date: Mon Nov 18 15:17:46 EST 2019
User: vgr7
Spectrometer: USB2G7710
Scans to average: 3
Trigger mode: 4
Integration Time (sec): 2.000000E-2
Electric dark correction enabled: true
Boxcar width: 10
XAxis mode: Wavelengths
Number of Pixels in Spectrum: 2048
>>>>>Begin Spectral Data<<<<<
177.721	100.83
178.105	-3233.33
178.488	5.77
178.871	46.46
179.254	19.69
179.636	8266.67
180.019	-73.82
180.402	157.89
180.785	-42.46
181.168	41.54
181.55	236.15
181.933	81.68
182.316	46.8
182.698	63.88
183.081	51.63
183.463	-26.69
183.846	-8.14
184.228	-150.74
184.611	-32.12
184.993	-3344.44
185.376	2.95
185.758	-9.56
186.14	18.59
186.522	-120.13
186.904	-56.73
187.287	132.45
187.669	18.83
188.051	-31.99
188.433	-42.44
188.815	-19.44
189.197	11.14
189.579	34.07
189.961	15.46
190.342	-5.6
190.724	16.97
191.106	2.26
191.488	-7.88
191.869	-5.98
192.251	-4.85
192.633	-17.43
193.014	-16.11
193.396	-35.36
193.777	-21.83
194.159	-38
194.54	-30.29
194.922	-35.31
195.303	-27.28
195.684	-26.7
196.065	-12.18
196.447	-7.03
196.828	-22.75
197.209	-38.87
197.59	-57.93
197.971	-47.97
198.352	-25.73
198.733	-51.52
199.114	-40.05
199.495	-33.13
199.876	-16.82
200.257	-36.92
200.638	-27.91
201.018	-58.33
201.399	-35.66
201.78	-10.69
202.16	-21.74
202.541	-62.92
202.922	-108.24
203.302	-126.43
203.683	-98.22
204.063	-137.42
204.444	-96.44
204.824	-93.17
205.204	-73.33
205.585	-79.29
205.965	-86.43
206.345	-86.24
206.725	-76.86
207.106	-123.45
207.486	-113.98
207.866	-123.57
208.246	-102.37
208.626	-118.12
209.006	-77.62
209.386	-115.35
209.766	-137.1
210.145	-88.53
210.525	-69.22
210.905	-42.1
211.285	-36.66
211.664	-37.5
212.044	-22.79
212.424	-20.98
212.803	-23.73
213.183	-20.1
213.562	-3.94
213.942	5.48
214.321	5.57
214.701	1.4
215.08	10.25
215.459	5.94
215.838	5.67
216.218	4.07
216.597	12.14
216.976	14.63
217.355	19.19
217.734	29.32
218.113	28.87
218.492	32.26
218.871	15.5
219.25	19.26
219.629	21.11
220.008	18.67
220.387	21.49
220.766	24.86
221.144	24.16
221.523	11.55
221.902	-7.31
222.28	0.19
222.659	-1.45
223.037	6.2
223.416	9.39
223.794	10.49
224.173	18.62
224.551	16.99
224.929	9.39
225.308	10.16
225.686	2.98
226.064	-0.88
226.442	2.91
226.821	7.88
227.199	8.26
227.577	8.78
227.955	8.49
228.333	7.09
228.711	9.53
229.089	12.68
229.467	12.47
229.845	13.16
230.222	12.36
230.6	11.06
230.978	9.49
231.356	10.84
231.733	11.27
232.111	10.58
232.488	9.76
232.866	10.61
233.243	11.56
233.621	12.15
233.998	14.21
234.376	12.03
234.753	12.81
235.13	12.31
235.508	12.57
235.885	11.34
236.262	10.39
236.639	7.54
237.016	7.14
237.393	7.92
237.77	8.01
238.147	7.53
238.524	7.68
238.901	7.71
239.278	7.52
239.655	7.5
240.032	7.57
240.409	7.05
240.785	7.39
241.162	6.92
241.539	6.25
241.915	5.91
242.292	5.72
242.668	5.53
243.045	5.49
243.421	5.32
243.798	5.49
244.174	5.38
244.551	5.53
244.927	5.35
245.303	5.01
245.679	4.91
246.056	4.86
246.432	4.83
246.808	4.72
247.184	4.28
247.56	3.87
247.936	3.69
248.312	3.75
248.688	3.52
249.064	3.36
249.44	3.47
249.815	3.39
250.191	3.52
250.567	3.4
250.943	3.35
251.318	3.34
251.694	3.27
252.069	3.07
252.445	3.19
252.82	3.21
253.196	3.38
253.571	3.13
253.947	3.25
254.322	3.17
254.697	3.15
255.073	3.27
255.448	3.23
255.823	3.18
256.198	3.37
256.573	3.38
256.948	3.66
257.323	3.83
257.698	3.9
258.073	3.79
258.448	3.8
258.823	3.72
259.198	3.61
259.573	3.57
259.948	3.66
260.322	3.51
260.697	3.41
261.072	3.22
261.446	3.33
261.821	3.29
262.195	3.28
262.57	3.29
262.944	3.35
263.319	3.41
263.693	3.48
264.067	3.46
264.442	3.58
264.816	3.45
265.19	3.22
265.564	3.24
265.938	3.22
266.313	3.15
266.687	3.15
267.061	3.26
267.435	3.18
267.809	3.1
268.183	3.23
268.556	3.2
268.93	3.29
269.304	3.38
269.678	3.44
270.051	3.5
270.425	3.52
270.799	3.56
271.172	3.57
271.546	3.52
271.919	3.49
272.293	3.44
272.666	3.46
273.04	3.53
273.413	3.44
273.787	3.39
274.16	3.4
274.533	3.45
274.906	3.41
275.279	3.22
275.653	3.21
276.026	3.22
276.399	3.33
276.772	3.44
277.145	3.44
277.518	3.29
277.891	3.33
278.263	3.25
278.636	3.16
279.009	3.18
279.382	3.33
279.755	3.27
280.127	3.2
280.5	3.31
280.872	3.37
281.245	3.22
281.617	3.34
281.99	3.33
282.362	3.34
282.735	3.24
283.107	3.45
283.479	3.48
283.852	3.58
284.224	3.5
284.596	3.41
284.968	3.32
285.34	3.48
285.713	3.46
286.085	3.6
286.457	3.8
286.829	3.82
287.201	3.78
287.572	3.7
287.944	3.71
288.316	3.69
288.688	3.58
289.06	3.69
289.431	3.72
289.803	3.8
290.175	3.82
290.546	3.94
290.918	4.06
291.289	4.21
291.661	4.14
292.032	4.26
292.403	4.33
292.775	4.35
293.146	4.17
293.517	4.14
293.889	4.23
294.26	4.06
294.631	4.14
295.002	4.03
295.373	4.16
295.744	4.12
296.115	4.01
296.486	3.98
296.857	4.05
297.228	4.1
297.599	4.07
297.97	4.01
298.34	4
298.711	3.9
299.082	3.77
299.452	3.76
299.823	3.66
300.194	3.59
300.564	3.58
300.935	3.66
301.305	3.67
301.676	3.61
302.046	3.61
302.416	3.67
302.787	3.73
303.157	3.78
303.527	3.85
303.897	3.96
304.267	4.03
304.637	3.97
305.008	3.97
305.378	4
305.748	4.01
306.117	3.94
306.487	3.93
306.857	3.89
307.227	3.85
307.597	3.87
307.967	3.91
308.336	3.85
308.706	3.8
309.076	3.88
309.445	3.78
309.815	3.78
310.184	3.78
310.554	3.91
310.923	3.79
311.293	3.77
311.662	3.68
312.031	3.63
312.401	3.59
312.77	3.59
313.139	3.53
313.508	3.51
313.877	3.46
314.246	3.5
314.616	3.44
314.985	3.52
315.353	3.4
315.722	3.43
316.091	3.4
316.46	3.33
316.829	3.21
317.198	3.15
317.567	3.13
317.935	2.88
318.304	2.68
318.672	2.64
319.041	2.52
319.41	2.5
319.778	2.64
320.147	2.58
320.515	2.46
320.883	2.46
321.252	2.38
321.62	2.29
321.988	2.3
322.357	2.47
322.725	2.57
323.093	2.8
323.461	2.7
323.829	2.86
324.197	2.95
324.565	2.97
324.933	2.99
325.301	3.07
325.669	3.12
326.037	3.18
326.405	3.2
326.772	3.33
327.14	3.52
327.508	3.54
327.875	3.63
328.243	3.78
328.61	3.84
328.978	4.04
329.346	4.28
329.713	4.23
330.08	4.28
330.448	4.02
330.815	3.93
331.182	4.09
331.55	4.07
331.917	4.11
332.284	4.13
332.651	4.13
333.018	4.14
333.385	4.18
333.752	4.27
334.119	4.31
334.486	4.31
334.853	4.22
335.22	4.17
335.587	4.27
335.954	4.16
336.32	4.15
336.687	4.05
337.054	3.96
337.42	3.99
337.787	3.98
338.153	4.06
338.52	4.1
338.886	3.95
339.253	3.87
339.619	3.83
339.986	3.77
340.352	3.83
340.718	3.77
341.084	3.73
341.451	3.72
341.817	3.69
342.183	3.69
342.549	3.65
342.915	3.6
343.281	3.41
343.647	3.4
344.013	3.38
344.379	3.41
344.745	3.41
345.11	3.38
345.476	3.38
345.842	3.43
346.208	3.4
346.573	3.48
346.939	3.47
347.304	3.55
347.67	3.55
348.035	3.6
348.401	3.56
348.766	3.57
349.132	3.53
349.497	3.49
349.862	3.59
350.228	3.61
350.593	3.6
350.958	3.69
351.323	3.72
351.688	3.72
352.053	3.73
352.418	3.77
352.783	3.82
353.148	3.77
353.513	3.7
353.878	3.68
354.243	3.71
354.608	3.8
354.972	3.77
355.337	3.84
355.702	3.83
356.066	3.85
356.431	3.82
356.795	3.74
357.16	3.72
357.524	3.56
357.889	3.52
358.253	3.59
358.618	3.59
358.982	3.55
359.346	3.51
359.71	3.51
360.075	3.46
360.439	3.43
360.803	3.47
361.167	3.47
361.531	3.39
361.895	3.39
362.259	3.3
362.623	3.31
362.987	3.31
363.351	3.27
363.714	3.27
364.078	3.33
364.442	3.33
364.806	3.36
365.169	3.41
365.533	3.41
365.896	3.38
366.26	3.44
366.623	3.48
366.987	3.51
367.35	3.52
367.714	3.57
368.077	3.54
368.44	3.49
368.803	3.51
369.167	3.55
369.53	3.51
369.893	3.62
370.256	3.63
370.619	3.63
370.982	3.62
371.345	3.59
371.708	3.58
372.071	3.6
372.434	3.6
372.797	3.61
373.159	3.64
373.522	3.64
373.885	3.61
374.247	3.65
374.61	3.63
374.973	3.64
375.335	3.6
375.698	3.63
376.06	3.58
376.423	3.59
376.785	3.64
377.147	3.64
377.51	3.59
377.872	3.58
378.234	3.56
378.596	3.57
378.958	3.58
379.321	3.56
379.683	3.57
380.045	3.54
380.407	3.5
380.769	3.54
381.13	3.53
381.492	3.5
381.854	3.5
382.216	3.51
382.578	3.51
382.939	3.5
383.301	3.52
383.663	3.54
384.024	3.53
384.386	3.51
384.747	3.53
385.109	3.56
385.47	3.51
385.832	3.52
386.193	3.53
386.554	3.5
386.916	3.52
387.277	3.55
387.638	3.57
387.999	3.59
388.36	3.56
388.721	3.6
389.082	3.59
389.443	3.55
389.804	3.53
390.165	3.51
390.526	3.51
390.887	3.52
391.248	3.54
391.609	3.53
391.969	3.49
392.33	3.48
392.691	3.49
393.051	3.5
393.412	3.51
393.772	3.5
394.133	3.55
394.493	3.53
394.854	3.48
395.214	3.48
395.574	3.5
395.935	3.47
396.295	3.48
396.655	3.48
397.015	3.47
397.376	3.48
397.736	3.47
398.096	3.52
398.456	3.5
398.816	3.5
399.176	3.48
399.535	3.53
399.895	3.49
400.255	3.47
400.615	3.48
400.975	3.46
401.334	3.45
401.694	3.46
402.054	3.45
402.413	3.49
402.773	3.45
403.132	3.42
403.492	3.43
403.851	3.41
404.211	3.43
404.57	3.43
404.929	3.44
405.288	3.44
405.648	3.39
406.007	3.38
406.366	3.36
406.725	3.4
407.084	3.42
407.443	3.47
407.802	3.46
408.161	3.45
408.52	3.45
408.879	3.44
409.238	3.41
409.596	3.42
409.955	3.43
410.314	3.46
410.673	3.46
411.031	3.47
411.39	3.48
411.748	3.47
412.107	3.48
412.465	3.49
412.824	3.5
413.182	3.5
413.54	3.53
413.899	3.52
414.257	3.5
414.615	3.47
414.974	3.46
415.332	3.47
415.69	3.45
416.048	3.44
416.406	3.47
416.764	3.49
417.122	3.47
417.48	3.45
417.838	3.46
418.195	3.45
418.553	3.44
418.911	3.45
419.269	3.43
419.626	3.44
419.984	3.42
420.342	3.41
420.699	3.41
421.057	3.42
421.414	3.42
421.772	3.42
422.129	3.42
422.486	3.42
422.844	3.42
423.201	3.43
423.558	3.43
423.915	3.41
424.273	3.41
424.63	3.41
424.987	3.41
425.344	3.41
425.701	3.42
426.058	3.41
426.415	3.39
426.772	3.41
427.128	3.41
427.485	3.42
427.842	3.41
428.199	3.43
428.555	3.41
428.912	3.42
429.269	3.43
429.625	3.44
429.982	3.43
430.338	3.42
430.695	3.42
431.051	3.42
431.407	3.45
431.764	3.45
432.12	3.44
432.476	3.44
432.832	3.42
433.189	3.42
433.545	3.42
433.901	3.45
434.257	3.42
434.613	3.44
434.969	3.43
435.325	3.43
435.681	3.43
436.036	3.43
436.392	3.44
436.748	3.43
437.104	3.41
437.459	3.43
437.815	3.44
438.171	3.45
438.526	3.46
438.882	3.46
439.237	3.47
439.593	3.48
439.948	3.47
440.304	3.47
440.659	3.48
441.014	3.47
441.369	3.46
441.725	3.46
442.08	3.45
442.435	3.45
442.79	3.47
443.145	3.47
443.5	3.47
443.855	3.48
444.21	3.46
444.565	3.48
444.92	3.47
445.275	3.46
445.629	3.47
445.984	3.45
446.339	3.44
446.693	3.42
447.048	3.4
447.403	3.4
447.757	3.41
448.112	3.41
448.466	3.41
448.82	3.41
449.175	3.43
449.529	3.42
449.883	3.43
450.238	3.41
450.592	3.41
450.946	3.4
451.3	3.38
451.654	3.39
452.008	3.39
452.362	3.4
452.716	3.4
453.07	3.39
453.424	3.41
453.778	3.41
454.132	3.42
454.486	3.44
454.839	3.44
455.193	3.45
455.547	3.44
455.9	3.45
456.254	3.47
456.607	3.45
456.961	3.47
457.314	3.44
457.668	3.42
458.021	3.42
458.375	3.41
458.728	3.42
459.081	3.44
459.434	3.43
459.787	3.43
460.141	3.42
460.494	3.42
460.847	3.42
461.2	3.41
461.553	3.41
461.906	3.42
462.259	3.43
462.611	3.43
462.964	3.44
463.317	3.43
463.67	3.41
464.022	3.43
464.375	3.41
464.728	3.43
465.08	3.45
465.433	3.45
465.785	3.43
466.138	3.42
466.49	3.42
466.843	3.42
467.195	3.43
467.547	3.45
467.899	3.46
468.252	3.45
468.604	3.47
468.956	3.46
469.308	3.44
469.66	3.42
470.012	3.44
470.364	3.43
470.716	3.44
471.068	3.43
471.42	3.43
471.772	3.46
472.123	3.46
472.475	3.48
472.827	3.48
473.178	3.52
473.53	3.53
473.882	3.53
474.233	3.55
474.585	3.54
474.936	3.53
475.288	3.52
475.639	3.53
475.99	3.53
476.342	3.51
476.693	3.53
477.044	3.55
477.395	3.55
477.746	3.56
478.097	3.56
478.448	3.56
478.8	3.55
479.15	3.53
479.501	3.54
479.852	3.55
480.203	3.56
480.554	3.55
480.905	3.56
481.255	3.56
481.606	3.56
481.957	3.56
482.307	3.56
482.658	3.56
483.009	3.56
483.359	3.56
483.709	3.58
484.06	3.58
484.41	3.59
484.761	3.58
485.111	3.58
485.461	3.58
485.811	3.59
486.162	3.6
486.512	3.61
486.862	3.62
487.212	3.61
487.562	3.6
487.912	3.6
488.262	3.61
488.612	3.6
488.961	3.59
489.311	3.6
489.661	3.59
490.011	3.58
490.36	3.58
490.71	3.58
491.06	3.58
491.409	3.57
491.759	3.56
492.108	3.56
492.458	3.56
492.807	3.55
493.157	3.56
493.506	3.55
493.855	3.53
494.204	3.53
494.554	3.52
494.903	3.53
495.252	3.53
495.601	3.51
495.95	3.51
496.299	3.51
496.648	3.51
496.997	3.51
497.346	3.53
497.695	3.55
498.043	3.55
498.392	3.54
498.741	3.56
499.09	3.56
499.438	3.58
499.787	3.59
500.135	3.6
500.484	3.6
500.832	3.61
501.181	3.63
501.529	3.63
501.878	3.66
502.226	3.66
502.574	3.67
502.923	3.69
503.271	3.71
503.619	3.73
503.967	3.72
504.315	3.71
504.663	3.72
505.011	3.72
505.359	3.73
505.707	3.74
506.055	3.73
506.403	3.75
506.751	3.74
507.098	3.76
507.446	3.77
507.794	3.75
508.141	3.75
508.489	3.73
508.837	3.73
509.184	3.74
509.531	3.74
509.879	3.77
510.226	3.78
510.574	3.78
510.921	3.79
511.268	3.8
511.616	3.8
511.963	3.81
512.31	3.81
512.657	3.83
513.004	3.82
513.351	3.84
513.698	3.84
514.045	3.82
514.392	3.82
514.739	3.82
515.086	3.83
515.432	3.83
515.779	3.81
516.126	3.81
516.473	3.81
516.819	3.81
517.166	3.8
517.512	3.79
517.859	3.79
518.205	3.78
518.552	3.79
518.898	3.81
519.245	3.8
519.591	3.8
519.937	3.78
520.283	3.79
520.629	3.78
520.976	3.78
521.322	3.8
521.668	3.79
522.014	3.8
522.36	3.81
522.706	3.83
523.052	3.85
523.398	3.88
523.743	3.88
524.089	3.88
524.435	3.87
524.781	3.87
525.126	3.88
525.472	3.89
525.817	3.9
526.163	3.89
526.509	3.9
526.854	3.9
527.199	3.92
527.545	3.92
527.89	3.93
528.235	3.93
528.581	3.93
528.926	3.94
529.271	3.94
529.616	3.93
529.961	3.92
530.306	3.93
530.651	3.92
530.996	3.92
531.341	3.92
531.686	3.94
532.031	3.94
532.376	3.93
532.721	3.93
533.065	3.93
533.41	3.93
533.755	3.92
534.099	3.94
534.444	3.94
534.788	3.94
535.133	3.94
535.477	3.95
535.822	3.95
536.166	3.93
536.51	3.92
536.855	3.92
537.199	3.94
537.543	3.95
537.887	3.94
538.231	3.95
538.576	3.95
538.92	3.95
539.264	3.96
539.608	3.97
539.951	3.96
540.295	3.98
540.639	3.99
540.983	3.99
541.327	3.98
541.671	3.98
542.014	3.97
542.358	3.96
542.701	3.97
543.045	3.97
543.389	3.99
543.732	3.99
544.075	4
544.419	3.99
544.762	3.99
545.105	4
545.449	3.99
545.792	4
546.135	4.02
546.478	4.01
546.821	4.01
547.165	4
547.508	4
547.851	3.98
548.194	3.98
548.536	3.99
548.879	3.99
549.222	3.99
549.565	4
549.908	4.03
550.25	4.05
550.593	4.07
550.936	4.07
551.278	4.08
551.621	4.11
551.963	4.12
552.306	4.11
552.648	4.12
552.991	4.14
553.333	4.14
553.675	4.17
554.017	4.19
554.36	4.21
554.702	4.23
555.044	4.25
555.386	4.28
555.728	4.28
556.07	4.3
556.412	4.3
556.754	4.28
557.096	4.26
557.438	4.28
557.78	4.25
558.121	4.27
558.463	4.28
558.805	4.24
559.147	4.24
559.488	4.23
559.83	4.23
560.171	4.19
560.513	4.2
560.854	4.18
561.196	4.15
561.537	4.17
561.878	4.17
562.22	4.17
562.561	4.14
562.902	4.16
563.243	4.13
563.584	4.15
563.925	4.2
564.266	4.18
564.607	4.14
564.948	4.17
565.289	4.19
565.63	4.17
565.971	4.17
566.312	4.16
566.653	4.16
566.993	4.18
567.334	4.19
567.675	4.19
568.015	4.16
568.356	4.18
568.696	4.17
569.037	4.15
569.377	4.14
569.718	4.16
570.058	4.15
570.398	4.14
570.739	4.13
571.079	4.11
571.419	4.15
571.759	4.17
572.099	4.17
572.439	4.16
572.779	4.18
573.119	4.19
573.459	4.23
573.799	4.22
574.139	4.23
574.479	4.22
574.819	4.22
575.158	4.26
575.498	4.27
575.838	4.26
576.177	4.27
576.517	4.26
576.856	4.29
577.196	4.28
577.535	4.28
577.875	4.29
578.214	4.26
578.553	4.27
578.893	4.28
579.232	4.29
579.571	4.26
579.91	4.25
580.25	4.25
580.589	4.23
580.928	4.23
581.267	4.23
581.606	4.24
581.945	4.23
582.283	4.21
582.622	4.2
582.961	4.22
583.3	4.23
583.639	4.29
583.977	4.27
584.316	4.27
584.654	4.29
584.993	4.3
585.332	4.32
585.67	4.31
586.008	4.31
586.347	4.27
586.685	4.28
587.024	4.27
587.362	4.29
587.7	4.29
588.038	4.32
588.376	4.32
588.715	4.32
589.053	4.32
589.391	4.32
589.729	4.34
590.067	4.34
590.404	4.34
590.742	4.3
591.08	4.29
591.418	4.34
591.756	4.36
592.093	4.33
592.431	4.33
592.769	4.32
593.106	4.3
593.444	4.33
593.781	4.32
594.119	4.35
594.456	4.35
594.793	4.37
595.131	4.34
595.468	4.34
595.805	4.34
596.143	4.34
596.48	4.36
596.817	4.34
597.154	4.34
597.491	4.36
597.828	4.36
598.165	4.36
598.502	4.33
598.839	4.29
599.176	4.34
599.512	4.33
599.849	4.34
600.186	4.36
600.523	4.36
600.859	4.42
601.196	4.41
601.532	4.39
601.869	4.39
602.205	4.39
602.542	4.39
602.878	4.38
603.215	4.37
603.551	4.38
603.887	4.4
604.223	4.41
604.56	4.39
604.896	4.4
605.232	4.41
605.568	4.43
605.904	4.46
606.24	4.47
606.576	4.49
606.912	4.48
607.248	4.48
607.583	4.48
607.919	4.45
608.255	4.43
608.591	4.46
608.926	4.45
609.262	4.5
609.597	4.5
609.933	4.53
610.268	4.56
610.604	4.59
610.939	4.64
611.275	4.65
611.61	4.66
611.945	4.67
612.281	4.65
612.616	4.63
612.951	4.64
613.286	4.6
613.621	4.61
613.956	4.64
614.291	4.67
614.626	4.67
614.961	4.71
615.296	4.7
615.631	4.71
615.966	4.74
616.3	4.66
616.635	4.69
616.97	4.67
617.304	4.65
617.639	4.65
617.973	4.54
618.308	4.49
618.642	4.51
618.977	4.48
619.311	4.51
619.646	4.53
619.98	4.5
620.314	4.5
620.648	4.5
620.983	4.52
621.317	4.52
621.651	4.49
621.985	4.44
622.319	4.47
622.653	4.45
622.987	4.46
623.321	4.5
623.655	4.47
623.988	4.51
624.322	4.54
624.656	4.48
624.99	4.53
625.323	4.54
625.657	4.56
625.99	4.61
626.324	4.59
626.657	4.58
626.991	4.57
627.324	4.59
627.658	4.61
627.991	4.59
628.324	4.57
628.657	4.61
628.991	4.64
629.324	4.64
629.657	4.66
629.99	4.63
630.323	4.58
630.656	4.6
630.989	4.62
631.322	4.62
631.655	4.66
631.987	4.63
632.32	4.63
632.653	4.56
632.986	4.54
633.318	4.58
633.651	4.6
633.984	4.6
634.316	4.62
634.649	4.58
634.981	4.57
635.313	4.52
635.646	4.47
635.978	4.52
636.31	4.49
636.643	4.49
636.975	4.53
637.307	4.61
637.639	4.66
637.971	4.61
638.303	4.63
638.635	4.61
638.967	4.66
639.299	4.72
639.631	4.78
639.963	4.77
640.295	4.75
640.626	4.78
640.958	4.79
641.29	4.75
641.621	4.84
641.953	4.82
642.285	4.88
642.616	4.95
642.948	4.9
643.279	4.93
643.61	4.89
643.942	4.88
644.273	4.84
644.604	4.77
644.936	4.75
645.267	4.75
645.598	4.78
645.929	4.79
646.26	4.78
646.591	4.76
646.922	4.74
647.253	4.82
647.584	4.82
647.915	4.86
648.245	4.89
648.576	4.83
648.907	4.8
649.238	4.77
649.568	4.71
649.899	4.73
650.229	4.75
650.56	4.81
650.89	4.75
651.221	4.76
651.551	4.76
651.882	4.85
652.212	4.9
652.542	4.94
652.872	4.89
653.203	4.88
653.533	4.95
653.863	4.93
654.193	4.9
654.523	4.89
654.853	4.87
655.183	4.83
655.513	4.84
655.843	4.87
656.172	4.95
656.502	4.97
656.832	4.91
657.162	4.97
657.491	4.95
657.821	5.03
658.15	5.06
658.48	5.06
658.809	5.07
659.139	4.99
659.468	4.91
659.798	4.96
660.127	4.98
660.456	5
660.785	5.09
661.115	5.09
661.444	5.07
661.773	5.09
662.102	5.05
662.431	5.12
662.76	5.12
663.089	5.11
663.418	5.08
663.747	5.15
664.076	5.09
664.404	5.06
664.733	5.07
665.062	5.01
665.39	5.05
665.719	4.93
666.048	5.02
666.376	5.08
666.705	5.12
667.033	5.07
667.362	5.05
667.69	4.99
668.018	4.97
668.347	5.03
668.675	5.07
669.003	5.24
669.331	5.21
669.659	5.26
669.987	5.22
670.315	5.22
670.643	5.13
670.971	5.15
671.299	5.26
671.627	5.21
671.955	5.26
672.283	5.23
672.61	5.26
672.938	5.19
673.266	5.19
673.593	5.2
673.921	5.2
674.249	5.17
674.576	5.17
674.904	5.19
675.231	5.11
675.558	5.13
675.886	5.05
676.213	5.08
676.54	5.1
676.867	5.17
677.195	5.19
677.522	5.22
677.849	5.27
678.176	5.21
