Data from BA28474_Reflection_00015.txt Node
Date: Mon Nov 18 15:31:05 EST 2019
User: vgr7
Spectrometer: USB2G7710
Scans to average: 3
Trigger mode: 4
Integration Time (sec): 2.000000E-2
Electric dark correction enabled: true
Boxcar width: 10
XAxis mode: Wavelengths
Number of Pixels in Spectrum: 2048
>>>>>Begin Spectral Data<<<<<
177.721	-72.55
178.105	-101.12
178.488	-185.53
178.871	-213.95
179.254	-810.45
179.636	-106.11
180.019	835.85
180.402	86.67
180.785	40.24
181.168	-123.88
181.55	-126.13
181.933	289.19
182.316	133.6
182.698	154.1
183.081	201.12
183.463	303.32
183.846	259.85
184.228	27766.67
184.611	-641.94
184.993	-389.88
185.376	-120.85
185.758	-155.12
186.14	-161.46
186.522	-171.65
186.904	-208.8
187.287	-286.93
187.669	-208.93
188.051	-271.87
188.433	-215.37
188.815	-197.15
189.197	-251.55
189.579	-260
189.961	-209.49
190.342	-140.79
190.724	-124.85
191.106	-169.67
191.488	-189.56
191.869	-151.64
192.251	-166.87
192.633	-217.72
193.014	-169.73
193.396	-306.63
193.777	-189.01
194.159	-175.74
194.54	-159.42
194.922	-119.6
195.303	-128.04
195.684	-106.51
196.065	-104.45
196.447	-93.4
196.828	-106.87
197.209	-112.51
197.59	-101.21
197.971	-74.53
198.352	-68.74
198.733	-68.91
199.114	-50.04
199.495	-53.4
199.876	-36.26
200.257	-34.93
200.638	-23.43
201.018	-23.8
201.399	-19.23
201.78	-17.41
202.16	-26.1
202.541	-51.37
202.922	-114.43
203.302	-108.68
203.683	-133.27
204.063	-139.77
204.444	-149.54
204.824	-88.91
205.204	-48.99
205.585	-64.69
205.965	-104.3
206.345	-79.3
206.725	-111.88
207.106	-200.29
207.486	-183.21
207.866	-701.8
208.246	-297.68
208.626	-318.5
209.006	-121.62
209.386	-147.71
209.766	-164.12
210.145	-102.09
210.525	-67.88
210.905	-29.3
211.285	-17.87
211.664	-12.33
212.044	6.67
212.424	19.24
212.803	13.33
213.183	16.6
213.562	23.32
213.942	36.52
214.321	33.33
214.701	33.86
215.08	30.96
215.459	38.12
215.838	37.38
216.218	26.8
216.597	32.65
216.976	30.41
217.355	34.28
217.734	19.69
218.113	32.56
218.492	44.67
218.871	32.94
219.25	11.17
219.629	-1.21
220.008	-38.41
220.387	-50.51
220.766	-55.76
221.144	-68.54
221.523	-71.11
221.902	-81.29
222.28	-81.9
222.659	-66.32
223.037	-58.29
223.416	-46.62
223.794	-51.52
224.173	-52.27
224.551	-49.22
224.929	-42.62
225.308	-36.19
225.686	-25.51
226.064	-35.03
226.442	-32.36
226.821	-26.48
227.199	-20.69
227.577	-17.45
227.955	-10.16
228.333	-8.7
228.711	-3.77
229.089	-2.4
229.467	-1.16
229.845	-5.89
230.222	-5.68
230.6	-5.61
230.978	-3.44
231.356	-5.42
231.733	-7.8
232.111	-5.56
232.488	-4.34
232.866	-2.9
233.243	-1.96
233.621	-2.26
233.998	3.07
234.376	4.75
234.753	3.42
235.13	2.9
235.508	4.29
235.885	3.59
236.262	1.85
236.639	2.2
237.016	3.05
237.393	1.96
237.77	4.1
238.147	4.37
238.524	4.96
238.901	4.96
239.278	6.25
239.655	7.36
240.032	6.37
240.409	5.81
240.785	5.7
241.162	5.5
241.539	4.82
241.915	4.78
242.292	4.5
242.668	4.81
243.045	4.83
243.421	4.25
243.798	4.36
244.174	4.68
244.551	4.52
244.927	4.33
245.303	4.31
245.679	4.52
246.056	4.53
246.432	4.56
246.808	4.62
247.184	4.17
247.56	3.73
247.936	3.77
248.312	3.69
248.688	3.52
249.064	3.77
249.44	3.97
249.815	3.87
250.191	3.9
250.567	3.93
250.943	3.74
251.318	3.88
251.694	3.83
252.069	3.75
252.445	3.81
252.82	3.65
253.196	3.59
253.571	3.27
253.947	3.06
254.322	3.03
254.697	2.7
255.073	2.64
255.448	2.74
255.823	3.03
256.198	3.03
256.573	3.21
256.948	3.13
257.323	3.21
257.698	3.23
258.073	3.26
258.448	3.06
258.823	3.18
259.198	3.16
259.573	3.03
259.948	3.06
260.322	3.07
260.697	3.04
261.072	3.02
261.446	3.11
261.821	3.15
262.195	3.16
262.57	3.16
262.944	3.32
263.319	3.44
263.693	3.23
264.067	3.46
264.442	3.64
264.816	3.56
265.19	3.42
265.564	3.34
265.938	3.15
266.313	3.44
266.687	3.45
267.061	3.4
267.435	3.65
267.809	3.61
268.183	3.43
268.556	3.42
268.93	3.4
269.304	3.27
269.678	3.35
270.051	3.25
270.425	3.27
270.799	3.23
271.172	3.22
271.546	3.37
271.919	3.18
272.293	3.08
272.666	3.16
273.04	3.2
273.413	3.28
273.787	3.32
274.16	3.07
274.533	3.02
274.906	2.98
275.279	2.87
275.653	2.82
276.026	2.92
276.399	3.03
276.772	3.23
277.145	3.23
277.518	3.23
277.891	3.17
278.263	3.24
278.636	3.33
279.009	3.25
279.382	3.26
279.755	3.27
280.127	3.3
280.5	3.32
280.872	3.28
281.245	3.14
281.617	3.29
281.99	3.55
282.362	3.48
282.735	3.58
283.107	3.53
283.479	3.46
283.852	3.43
284.224	3.43
284.596	3.41
284.968	3.57
285.34	3.51
285.713	3.64
286.085	3.61
286.457	3.56
286.829	3.77
287.201	3.78
287.572	3.73
287.944	3.69
288.316	3.75
288.688	3.71
289.06	3.74
289.431	3.76
289.803	3.7
290.175	3.9
290.546	3.97
290.918	4.12
291.289	4.24
291.661	4.26
292.032	4.36
292.403	4.34
292.775	4.39
293.146	4.42
293.517	4.4
293.889	4.53
294.26	4.61
294.631	4.66
295.002	4.66
295.373	4.81
295.744	4.86
296.115	4.82
296.486	4.83
296.857	4.92
297.228	5.02
297.599	5.1
297.97	5.01
298.34	5.01
298.711	5.06
299.082	5.09
299.452	5.07
299.823	5.24
300.194	5.44
300.564	5.36
300.935	5.5
301.305	5.62
301.676	5.67
302.046	5.71
302.416	5.72
302.787	5.71
303.157	5.77
303.527	5.78
303.897	5.84
304.267	6.16
304.637	6.28
305.008	6.22
305.378	6.24
305.748	6.33
306.117	6.3
306.487	6.18
306.857	6.33
307.227	6.54
307.597	6.31
307.967	6.08
308.336	6.27
308.706	6.23
309.076	6.29
309.445	6.27
309.815	6.3
310.184	6.36
310.554	6.51
310.923	6.55
311.293	6.58
311.662	6.74
312.031	6.65
312.401	6.62
312.77	6.71
313.139	6.8
313.508	6.86
313.877	6.89
314.246	7.08
314.616	7.14
314.985	7.1
315.353	7.26
315.722	7.63
316.091	7.62
316.46	7.76
316.829	7.77
317.198	7.87
317.567	7.8
317.935	7.76
318.304	7.86
318.672	7.87
319.041	8.06
319.41	8.05
319.778	8.18
320.147	8.28
320.515	8.34
320.883	8.3
321.252	8.42
321.62	8.53
321.988	8.63
322.357	8.63
322.725	8.65
323.093	8.76
323.461	8.69
323.829	8.73
324.197	8.8
324.565	8.87
324.933	8.92
325.301	8.94
325.669	9.03
326.037	9.06
326.405	9.1
326.772	9.23
327.14	9.39
327.508	9.35
327.875	9.38
328.243	9.4
328.61	9.43
328.978	9.42
329.346	9.53
329.713	9.49
330.08	9.47
330.448	9.58
330.815	9.56
331.182	9.59
331.55	9.71
331.917	9.77
332.284	9.91
332.651	9.87
333.018	10.06
333.385	10.17
333.752	10.16
334.119	10.22
334.486	10.03
334.853	9.85
335.22	9.93
335.587	9.93
335.954	9.98
336.32	10.04
336.687	10.26
337.054	10.31
337.42	10.34
337.787	10.54
338.153	10.51
338.52	10.58
338.886	10.53
339.253	10.46
339.619	10.37
339.986	10.32
340.352	10.44
340.718	10.45
341.084	10.45
341.451	10.56
341.817	10.68
342.183	10.76
342.549	10.8
342.915	10.9
343.281	10.97
343.647	10.91
344.013	11.05
344.379	10.91
344.745	10.96
345.11	11
345.476	10.94
345.842	10.97
346.208	11.08
346.573	11.14
346.939	11.32
347.304	11.39
347.67	11.38
348.035	11.4
348.401	11.41
348.766	11.43
349.132	11.34
349.497	11.21
349.862	11.28
350.228	11.27
350.593	11.17
350.958	11.1
351.323	11.21
351.688	11.13
352.053	11.12
352.418	11.19
352.783	11.27
353.148	11.26
353.513	11.22
353.878	11.1
354.243	11.09
354.608	11.04
354.972	11.03
355.337	11.04
355.702	11.13
356.066	11.23
356.431	11.12
356.795	11.19
357.16	11.18
357.524	11.1
357.889	11.13
358.253	11.14
358.618	11.26
358.982	11.13
359.346	11.07
359.71	11.12
360.075	10.98
360.439	10.9
360.803	10.83
361.167	10.78
361.531	10.83
361.895	10.76
362.259	10.64
362.623	10.64
362.987	10.6
363.351	10.48
363.714	10.4
364.078	10.37
364.442	10.3
364.806	10.27
365.169	10.31
365.533	10.28
365.896	10.22
366.26	10.09
366.623	10.06
366.987	10.05
367.35	9.95
367.714	9.88
368.077	9.76
368.44	9.74
368.803	9.8
369.167	9.66
369.53	9.69
369.893	9.71
370.256	9.6
370.619	9.51
370.982	9.49
371.345	9.34
371.708	9.43
372.071	9.38
372.434	9.38
372.797	9.27
373.159	9.23
373.522	9.25
373.885	9.22
374.247	9.19
374.61	9.07
374.973	8.98
375.335	8.96
375.698	8.99
376.06	8.95
376.423	8.8
376.785	8.81
377.147	8.75
377.51	8.66
377.872	8.68
378.234	8.65
378.596	8.64
378.958	8.58
379.321	8.41
379.683	8.4
380.045	8.24
380.407	8.2
380.769	8.11
381.13	7.99
381.492	7.9
381.854	7.84
382.216	7.84
382.578	7.8
382.939	7.72
383.301	7.63
383.663	7.51
384.024	7.54
384.386	7.49
384.747	7.42
385.109	7.4
385.47	7.29
385.832	7.3
386.193	7.2
386.554	7.21
386.916	7.19
387.277	7.15
387.638	7.18
387.999	7.12
388.36	7.06
388.721	7
389.082	6.95
389.443	6.89
389.804	6.85
390.165	6.81
390.526	6.82
390.887	6.8
391.248	6.8
391.609	6.73
391.969	6.64
392.33	6.6
392.691	6.55
393.051	6.56
393.412	6.47
393.772	6.41
394.133	6.35
394.493	6.31
394.854	6.22
395.214	6.18
395.574	6.1
395.935	6.05
396.295	6.04
396.655	6
397.015	5.94
397.376	5.87
397.736	5.82
398.096	5.72
398.456	5.65
398.816	5.59
399.176	5.55
399.535	5.5
399.895	5.43
400.255	5.39
400.615	5.32
400.975	5.25
401.334	5.19
401.694	5.11
402.054	5.09
402.413	5.08
402.773	5.02
403.132	5.02
403.492	4.98
403.851	4.96
404.211	4.93
404.57	4.91
404.929	4.86
405.288	4.84
405.648	4.82
406.007	4.78
406.366	4.73
406.725	4.72
407.084	4.7
407.443	4.69
407.802	4.67
408.161	4.63
408.52	4.63
408.879	4.63
409.238	4.63
409.596	4.6
409.955	4.54
410.314	4.56
410.673	4.51
411.031	4.53
411.39	4.49
411.748	4.47
412.107	4.47
412.465	4.49
412.824	4.5
413.182	4.49
413.54	4.49
413.899	4.51
414.257	4.5
414.615	4.48
414.974	4.48
415.332	4.44
415.69	4.41
416.048	4.38
416.406	4.36
416.764	4.35
417.122	4.35
417.48	4.33
417.838	4.31
418.195	4.33
418.553	4.31
418.911	4.3
419.269	4.29
419.626	4.25
419.984	4.24
420.342	4.23
420.699	4.2
421.057	4.16
421.414	4.14
421.772	4.13
422.129	4.12
422.486	4.09
422.844	4.11
423.201	4.1
423.558	4.1
423.915	4.11
424.273	4.1
424.63	4.08
424.987	4.06
425.344	4.06
425.701	4.03
426.058	4.02
426.415	4
426.772	3.99
427.128	3.99
427.485	3.98
427.842	3.95
428.199	3.97
428.555	3.99
428.912	3.98
429.269	3.96
429.625	3.95
429.982	3.94
430.338	3.91
430.695	3.91
431.051	3.88
431.407	3.86
431.764	3.85
432.12	3.85
432.476	3.86
432.832	3.84
433.189	3.84
433.545	3.82
433.901	3.84
434.257	3.82
434.613	3.82
434.969	3.81
435.325	3.81
435.681	3.79
436.036	3.78
436.392	3.8
436.748	3.79
437.104	3.78
437.459	3.77
437.815	3.78
438.171	3.78
438.526	3.79
438.882	3.79
439.237	3.78
439.593	3.78
439.948	3.78
440.304	3.8
440.659	3.78
441.014	3.79
441.369	3.78
441.725	3.78
442.08	3.79
442.435	3.78
442.79	3.79
443.145	3.8
443.5	3.8
443.855	3.78
444.21	3.77
444.565	3.78
444.92	3.78
445.275	3.76
445.629	3.75
445.984	3.74
446.339	3.72
446.693	3.7
447.048	3.69
447.403	3.67
447.757	3.65
448.112	3.65
448.466	3.64
448.82	3.62
449.175	3.64
449.529	3.62
449.883	3.59
450.238	3.56
450.592	3.55
450.946	3.53
451.3	3.51
451.654	3.51
452.008	3.49
452.362	3.48
452.716	3.51
453.07	3.5
453.424	3.5
453.778	3.49
454.132	3.5
454.486	3.51
454.839	3.51
455.193	3.51
455.547	3.48
455.9	3.48
456.254	3.48
456.607	3.46
456.961	3.46
457.314	3.47
457.668	3.48
458.021	3.46
458.375	3.49
458.728	3.5
459.081	3.51
459.434	3.51
459.787	3.52
460.141	3.51
460.494	3.52
460.847	3.52
461.2	3.51
461.553	3.54
461.906	3.54
462.259	3.54
462.611	3.56
462.964	3.59
463.317	3.59
463.67	3.61
464.022	3.63
464.375	3.64
464.728	3.65
465.08	3.69
465.433	3.71
465.785	3.69
466.138	3.7
466.49	3.7
466.843	3.71
467.195	3.71
467.547	3.72
467.899	3.73
468.252	3.74
468.604	3.78
468.956	3.77
469.308	3.79
469.66	3.8
470.012	3.8
470.364	3.8
470.716	3.82
471.068	3.81
471.42	3.85
471.772	3.86
472.123	3.88
472.475	3.9
472.827	3.92
473.178	3.94
473.53	3.97
473.882	3.98
474.233	4.02
474.585	4.01
474.936	4.02
475.288	4.02
475.639	4.02
475.99	4.01
476.342	4.01
476.693	4.02
477.044	4.02
477.395	4.01
477.746	3.98
478.097	3.97
478.448	3.96
478.8	3.91
479.15	3.89
479.501	3.88
479.852	3.87
480.203	3.87
480.554	3.86
480.905	3.85
481.255	3.85
481.606	3.83
481.957	3.83
482.307	3.83
482.658	3.83
483.009	3.83
483.359	3.83
483.709	3.83
484.06	3.82
484.41	3.82
484.761	3.83
485.111	3.84
485.461	3.84
485.811	3.85
486.162	3.85
486.512	3.87
486.862	3.87
487.212	3.86
487.562	3.87
487.912	3.86
488.262	3.85
488.612	3.86
488.961	3.86
489.311	3.87
489.661	3.86
490.011	3.87
490.36	3.87
490.71	3.87
491.06	3.88
491.409	3.88
491.759	3.88
492.108	3.9
492.458	3.91
492.807	3.91
493.157	3.92
493.506	3.93
493.855	3.94
494.204	3.95
494.554	3.96
494.903	3.97
495.252	3.99
495.601	4.03
495.95	4.07
496.299	4.1
496.648	4.14
496.997	4.18
497.346	4.24
497.695	4.27
498.043	4.31
498.392	4.34
498.741	4.38
499.09	4.44
499.438	4.47
499.787	4.52
500.135	4.58
500.484	4.64
500.832	4.7
501.181	4.78
501.529	4.85
501.878	4.94
502.226	5.01
502.574	5.08
502.923	5.14
503.271	5.2
503.619	5.28
503.967	5.37
504.315	5.44
504.663	5.5
505.011	5.6
505.359	5.72
505.707	5.81
506.055	5.9
506.403	5.99
506.751	6.08
507.098	6.17
507.446	6.27
507.794	6.36
508.141	6.47
508.489	6.57
508.837	6.69
509.184	6.81
509.531	6.89
509.879	7.01
510.226	7.13
510.574	7.23
510.921	7.32
511.268	7.39
511.616	7.52
511.963	7.65
512.31	7.77
512.657	7.91
513.004	8.04
513.351	8.19
513.698	8.34
514.045	8.49
514.392	8.64
514.739	8.8
515.086	8.96
515.432	9.09
515.779	9.22
516.126	9.4
516.473	9.53
516.819	9.69
517.166	9.79
517.512	9.93
517.859	10.08
518.205	10.21
518.552	10.38
518.898	10.51
519.245	10.62
519.591	10.75
519.937	10.85
520.283	11.01
520.629	11.17
520.976	11.32
521.322	11.52
521.668	11.69
522.014	11.86
522.36	12.03
522.706	12.25
523.052	12.49
523.398	12.69
523.743	12.93
524.089	13.19
524.435	13.45
524.781	13.66
525.126	13.88
525.472	14.1
525.817	14.28
526.163	14.43
526.509	14.62
526.854	14.77
527.199	14.95
527.545	15.09
527.89	15.23
528.235	15.39
528.581	15.53
528.926	15.71
529.271	15.89
529.616	16.05
529.961	16.22
530.306	16.4
530.651	16.57
530.996	16.76
531.341	16.95
531.686	17.16
532.031	17.39
532.376	17.61
532.721	17.82
533.065	18.04
533.41	18.31
533.755	18.55
534.099	18.8
534.444	19.05
534.788	19.33
535.133	19.62
535.477	19.87
535.822	20.15
536.166	20.44
536.51	20.75
536.855	21.09
537.199	21.4
537.543	21.74
537.887	22.09
538.231	22.43
538.576	22.78
538.92	23.15
539.264	23.51
539.608	23.83
539.951	24.14
540.295	24.44
540.639	24.72
540.983	25
541.327	25.29
541.671	25.54
542.014	25.8
542.358	26.01
542.701	26.3
543.045	26.54
543.389	26.82
543.732	27.08
544.075	27.34
544.419	27.61
544.762	27.89
545.105	28.22
545.449	28.52
545.792	28.84
546.135	29.13
546.478	29.43
546.821	29.77
547.165	30.11
547.508	30.47
547.851	30.8
548.194	31.2
548.536	31.57
548.879	31.94
549.222	32.28
549.565	32.65
549.908	33
550.25	33.42
550.593	33.76
550.936	34.11
551.278	34.49
551.621	34.87
551.963	35.21
552.306	35.52
552.648	35.86
552.991	36.22
553.333	36.58
553.675	36.91
554.017	37.23
554.36	37.55
554.702	37.88
555.044	38.19
555.386	38.44
555.728	38.75
556.07	39.01
556.412	39.29
556.754	39.62
557.096	39.95
557.438	40.22
557.78	40.51
558.121	40.84
558.463	41.13
558.805	41.42
559.147	41.73
559.488	42.04
559.83	42.32
560.171	42.56
560.513	42.81
560.854	43.1
561.196	43.37
561.537	43.68
561.878	43.87
562.22	44.15
562.561	44.34
562.902	44.53
563.243	44.77
563.584	45.01
563.925	45.24
564.266	45.39
564.607	45.64
564.948	45.77
565.289	45.98
565.63	46.13
565.971	46.31
566.312	46.53
566.653	46.73
566.993	46.9
567.334	47.08
567.675	47.3
568.015	47.43
568.356	47.56
568.696	47.67
569.037	47.86
569.377	47.98
569.718	48.23
570.058	48.4
570.398	48.52
570.739	48.69
571.079	48.75
571.419	48.89
571.759	49.08
572.099	49.35
572.439	49.46
572.779	49.65
573.119	49.77
573.459	49.84
573.799	49.95
574.139	50.13
574.479	50.3
574.819	50.45
575.158	50.6
575.498	50.7
575.838	50.88
576.177	51.04
576.517	51.24
576.856	51.37
577.196	51.56
577.535	51.74
577.875	51.9
578.214	52.1
578.553	52.31
578.893	52.36
579.232	52.44
579.571	52.59
579.91	52.7
580.25	52.9
580.589	53.05
580.928	53.19
581.267	53.28
581.606	53.42
581.945	53.43
582.283	53.53
582.622	53.75
582.961	53.9
583.3	54
583.639	54.1
583.977	54.16
584.316	54.24
584.654	54.36
584.993	54.39
585.332	54.55
585.67	54.58
586.008	54.64
586.347	54.72
586.685	54.83
587.024	54.92
587.362	54.97
587.7	55
588.038	55.09
588.376	55.21
588.715	55.22
589.053	55.32
589.391	55.44
589.729	55.5
590.067	55.52
590.404	55.61
590.742	55.65
591.08	55.72
591.418	55.81
591.756	55.87
592.093	55.95
592.431	55.99
592.769	56.1
593.106	56.26
593.444	56.39
593.781	56.42
594.119	56.47
594.456	56.62
594.793	56.73
595.131	56.78
595.468	56.8
595.805	56.94
596.143	57.02
596.48	57.1
596.817	57.08
597.154	57.18
597.491	57.21
597.828	57.29
598.165	57.39
598.502	57.43
598.839	57.51
599.176	57.66
599.512	57.66
599.849	57.69
600.186	57.71
600.523	57.71
600.859	57.74
601.196	57.83
601.532	57.82
601.869	57.81
602.205	57.8
602.542	57.83
602.878	57.86
603.215	57.88
603.551	57.92
603.887	58.06
604.223	58.02
604.56	58.07
604.896	58.11
605.232	58.11
605.568	58.14
605.904	58.19
606.24	58.2
606.576	58.25
606.912	58.26
607.248	58.31
607.583	58.28
607.919	58.41
608.255	58.41
608.591	58.48
608.926	58.62
609.262	58.78
609.597	58.85
609.933	58.86
610.268	58.87
610.604	58.86
610.939	58.88
611.275	58.96
611.61	59.03
611.945	59.1
612.281	59.16
612.616	59.22
612.951	59.31
613.286	59.39
613.621	59.51
613.956	59.67
614.291	59.73
614.626	59.94
614.961	60.01
615.296	60.09
615.631	60.09
615.966	60.07
616.3	60.01
616.635	60.02
616.97	60.03
617.304	60.11
617.639	60.12
617.973	60.07
618.308	60.05
618.642	59.97
618.977	59.94
619.311	60.01
619.646	60.12
619.98	60.15
620.314	60.14
620.648	60.12
620.983	60.15
621.317	60.12
621.651	60.12
621.985	60.14
622.319	60.13
622.653	60.23
622.987	60.2
623.321	60.23
623.655	60.26
623.988	60.35
624.322	60.4
624.656	60.49
624.99	60.48
625.323	60.5
625.657	60.6
625.99	60.62
626.324	60.58
626.657	60.54
626.991	60.54
627.324	60.6
627.658	60.68
627.991	60.68
628.324	60.69
628.657	60.7
628.991	60.65
629.324	60.69
629.657	60.66
629.99	60.74
630.323	60.69
630.656	60.75
630.989	60.73
631.322	60.73
631.655	60.63
631.987	60.69
632.32	60.77
632.653	60.78
632.986	60.75
633.318	60.8
633.651	60.78
633.984	60.75
634.316	60.65
634.649	60.66
634.981	60.66
635.313	60.74
635.646	60.81
635.978	60.92
636.31	60.88
636.643	60.97
636.975	61.03
637.307	61.2
637.639	61.26
637.971	61.24
638.303	61.26
638.635	61.35
638.967	61.43
639.299	61.41
639.631	61.37
639.963	61.4
640.295	61.33
640.626	61.45
640.958	61.56
641.29	61.58
641.621	61.54
641.953	61.61
642.285	61.59
642.616	61.49
642.948	61.54
643.279	61.62
643.61	61.62
643.942	61.64
644.273	61.51
644.604	61.51
644.936	61.55
645.267	61.55
645.598	61.64
645.929	61.68
646.26	61.72
646.591	61.79
646.922	61.94
647.253	62.04
647.584	61.96
647.915	62.03
648.245	62.08
648.576	62.23
648.907	62.18
649.238	62.18
649.568	62.11
649.899	62.11
650.229	62.1
650.56	62.16
650.89	62.13
651.221	62.33
651.551	62.27
651.882	62.24
652.212	62.34
652.542	62.3
652.872	62.29
653.203	62.33
653.533	62.38
653.863	62.31
654.193	62.29
654.523	62.35
654.853	62.22
655.183	62.26
655.513	62.22
655.843	62.29
656.172	62.39
656.502	62.55
656.832	62.48
657.162	62.6
657.491	62.64
657.821	62.66
658.15	62.63
658.48	62.64
658.809	62.75
659.139	62.78
659.468	62.77
659.798	62.77
660.127	62.77
660.456	62.66
660.785	62.75
661.115	62.83
661.444	62.78
661.773	62.88
662.102	62.84
662.431	62.82
662.76	62.82
663.089	62.79
663.418	62.78
663.747	62.67
664.076	62.59
