Data from BA28473_Reflection_00015.txt Node
Date: Mon Nov 18 15:28:50 EST 2019
User: vgr7
Spectrometer: USB2G7710
Scans to average: 3
Trigger mode: 4
Integration Time (sec): 2.000000E-2
Electric dark correction enabled: true
Boxcar width: 10
XAxis mode: Wavelengths
Number of Pixels in Spectrum: 2048
>>>>>Begin Spectral Data<<<<<
177.721	-9.92
178.105	-67.25
178.488	-95.61
178.871	-157.92
179.254	-189.39
179.636	41.01
180.019	-541.22
180.402	93.75
180.785	645.45
181.168	-275
181.55	-190.75
181.933	151.5
182.316	138.71
182.698	113.58
183.081	104.83
183.463	117.54
183.846	86.55
184.228	116.08
184.611	118.22
184.993	303.74
185.376	220.89
185.758	150.95
186.14	211.02
186.522	148.12
186.904	133.2
187.287	181.86
187.669	162.46
188.051	172.47
188.433	298.51
188.815	372.41
189.197	384.33
189.579	333.56
189.961	452.08
190.342	432.56
190.724	-318.82
191.106	-501.34
191.488	-457.03
191.869	-238.77
192.251	-468.25
192.633	-230.55
193.014	133.79
193.396	247.61
193.777	289.97
194.159	457.45
194.54	-298.39
194.922	-110.18
195.303	-167.09
195.684	-242.16
196.065	-102.37
196.447	-291.64
196.828	1446.94
197.209	135.5
197.59	-470.14
197.971	-259.06
198.352	-97.76
198.733	-128.48
199.114	-58.47
199.495	-73.8
199.876	-48.37
200.257	-71.9
200.638	-62.8
201.018	-62
201.399	-52.45
201.78	-28.89
202.16	-45.87
202.541	-56.29
202.922	-121.06
203.302	-107.34
203.683	-117.28
204.063	-128.66
204.444	-106.57
204.824	-81.35
205.204	-82.23
205.585	-86.67
205.965	-63.57
206.345	-87.44
206.725	-141.39
207.106	-355.38
207.486	-359.98
207.866	-579.95
208.246	-370.71
208.626	-241.5
209.006	-169.79
209.386	-202.14
209.766	-256.22
210.145	-261.92
210.525	-242.47
210.905	-145
211.285	-113.25
211.664	-112.44
212.044	-123.82
212.424	-117.25
212.803	-218.22
213.183	-155.55
213.562	-142.17
213.942	-143.13
214.321	-109.22
214.701	-67.39
215.08	-52.69
215.459	-37.47
215.838	-18.43
216.218	-60.5
216.597	-50.71
216.976	-51.93
217.355	-58.1
217.734	-44.85
218.113	-39.04
218.492	-41.27
218.871	-42.04
219.25	-38.41
219.629	-41.84
220.008	-49.43
220.387	-52.7
220.766	-54.86
221.144	-80.76
221.523	-83.74
221.902	-86.92
222.28	-65.31
222.659	-61.43
223.037	-42.71
223.416	-57.54
223.794	-57.4
224.173	-47.76
224.551	-46.66
224.929	-42.22
225.308	-34.75
225.686	-30.45
226.064	-29.65
226.442	-23.7
226.821	-23.18
227.199	-18.31
227.577	-17.53
227.955	-17.2
228.333	-13.15
228.711	-9.34
229.089	-3.96
229.467	-3.85
229.845	-3.09
230.222	-4.05
230.6	-4.59
230.978	-5.49
231.356	-4.54
231.733	-3.34
232.111	0.75
232.488	1.99
232.866	2.57
233.243	5.08
233.621	2.45
233.998	3.11
234.376	0.29
234.753	0.04
235.13	-0.31
235.508	1.67
235.885	1.55
236.262	0.26
236.639	0.83
237.016	-0.1
237.393	0.78
237.77	1.03
238.147	2.3
238.524	3.39
238.901	4.36
239.278	5.22
239.655	5.08
240.032	4.5
240.409	3.86
240.785	3.94
241.162	3.42
241.539	3.67
241.915	3.67
242.292	4.18
242.668	4.85
243.045	4.82
243.421	4.34
243.798	4.27
244.174	4
244.551	3.68
244.927	3.56
245.303	3.41
245.679	3.6
246.056	3.43
246.432	3.43
246.808	3.61
247.184	2.99
247.56	2.98
247.936	3.07
248.312	3.37
248.688	3.42
249.064	3.5
249.44	3.44
249.815	3.42
250.191	3.61
250.567	3.48
250.943	3.23
251.318	3.36
251.694	3.36
252.069	3.52
252.445	3.6
252.82	3.88
253.196	3.79
253.571	3.81
253.947	3.65
254.322	3.63
254.697	3.25
255.073	3.68
255.448	3.48
255.823	3.37
256.198	3.42
256.573	3.15
256.948	3.18
257.323	3.46
257.698	3.65
258.073	3.49
258.448	3.29
258.823	3.36
259.198	3.25
259.573	3.27
259.948	3.23
260.322	3.35
260.697	3.32
261.072	3.53
261.446	3.56
261.821	3.59
262.195	3.54
262.57	3.4
262.944	3.32
263.319	3.2
263.693	3.31
264.067	3.24
264.442	3.38
264.816	3.44
265.19	3.22
265.564	2.91
265.938	2.83
266.313	3.04
266.687	3.14
267.061	3.34
267.435	3.54
267.809	3.56
268.183	3.54
268.556	3.46
268.93	3.48
269.304	3.28
269.678	3.35
270.051	3.52
270.425	3.74
270.799	3.82
271.172	3.87
271.546	3.8
271.919	3.56
272.293	3.54
272.666	3.39
273.04	3.59
273.413	3.66
273.787	3.84
274.16	3.69
274.533	3.57
274.906	3.4
275.279	3.23
275.653	3.41
276.026	3.26
276.399	3.11
276.772	3.05
277.145	3.08
277.518	2.98
277.891	2.92
278.263	2.75
278.636	2.9
279.009	2.85
279.382	2.85
279.755	2.86
280.127	3.03
280.5	3.22
280.872	3.22
281.245	3.27
281.617	3.28
281.99	3.42
282.362	3.55
282.735	3.55
283.107	3.57
283.479	3.58
283.852	3.62
284.224	3.76
284.596	3.73
284.968	3.88
285.34	4.13
285.713	4.12
286.085	4.15
286.457	4.05
286.829	4.21
287.201	4.26
287.572	4.35
287.944	4.12
288.316	4.08
288.688	4.04
289.06	4
289.431	4
289.803	4.03
290.175	3.91
290.546	4.05
290.918	4.11
291.289	3.94
291.661	4.04
292.032	4.05
292.403	4.19
292.775	4.13
293.146	3.89
293.517	3.92
293.889	3.97
294.26	4.14
294.631	4.16
295.002	4.24
295.373	4.38
295.744	4.56
296.115	4.59
296.486	4.51
296.857	4.58
297.228	4.57
297.599	4.5
297.97	4.62
298.34	4.57
298.711	4.62
299.082	4.76
299.452	4.71
299.823	4.79
300.194	4.73
300.564	4.8
300.935	4.87
301.305	4.88
301.676	5.06
302.046	4.99
302.416	5.15
302.787	5.13
303.157	5.02
303.527	5.2
303.897	5.13
304.267	5.37
304.637	5.41
305.008	5.57
305.378	5.73
305.748	5.88
306.117	6.15
306.487	6.16
306.857	6.19
307.227	6.41
307.597	6.45
307.967	6.58
308.336	6.58
308.706	6.64
309.076	6.65
309.445	6.43
309.815	6.48
310.184	6.43
310.554	6.5
310.923	6.58
311.293	6.43
311.662	6.64
312.031	6.54
312.401	6.58
312.77	6.58
313.139	6.73
313.508	6.62
313.877	6.56
314.246	6.72
314.616	6.66
314.985	6.59
315.353	6.51
315.722	6.55
316.091	6.57
316.46	6.67
316.829	6.69
317.198	6.95
317.567	6.99
317.935	6.94
318.304	7.08
318.672	7
319.041	7.37
319.41	7.36
319.778	7.54
320.147	7.66
320.515	7.52
320.883	7.5
321.252	7.61
321.62	7.69
321.988	7.68
322.357	7.79
322.725	7.83
323.093	7.97
323.461	7.95
323.829	7.97
324.197	8.07
324.565	8.23
324.933	8.22
325.301	8.5
325.669	8.64
326.037	8.44
326.405	8.63
326.772	8.58
327.14	8.77
327.508	8.74
327.875	8.58
328.243	8.83
328.61	8.78
328.978	8.84
329.346	8.86
329.713	8.78
330.08	8.91
330.448	9.04
330.815	9.05
331.182	9.21
331.55	9.27
331.917	9.35
332.284	9.37
332.651	9.44
333.018	9.26
333.385	9.06
333.752	9.36
334.119	9.27
334.486	9.05
334.853	8.98
335.22	8.94
335.587	9.11
335.954	9.06
336.32	9.06
336.687	9.13
337.054	9.07
337.42	9.32
337.787	9.33
338.153	9.31
338.52	9.4
338.886	9.29
339.253	9.29
339.619	9.28
339.986	9.3
340.352	9.34
340.718	9.29
341.084	9.52
341.451	9.51
341.817	9.62
342.183	9.8
342.549	9.75
342.915	9.83
343.281	9.88
343.647	9.84
344.013	9.93
344.379	9.82
344.745	9.95
345.11	9.84
345.476	9.81
345.842	9.82
346.208	9.82
346.573	9.79
346.939	9.85
347.304	9.81
347.67	9.86
348.035	9.76
348.401	9.9
348.766	9.9
349.132	9.78
349.497	9.73
349.862	9.78
350.228	9.84
350.593	9.82
350.958	9.81
351.323	9.84
351.688	9.83
352.053	10.02
352.418	10.06
352.783	10.13
353.148	10.13
353.513	10.09
353.878	10.03
354.243	10.14
354.608	10.22
354.972	10.28
355.337	10.26
355.702	10.39
356.066	10.35
356.431	10.32
356.795	10.31
357.16	10.29
357.524	10.18
357.889	10.08
358.253	10.12
358.618	10.12
358.982	10.12
359.346	10.08
359.71	9.99
360.075	9.94
360.439	9.91
360.803	9.88
361.167	9.84
361.531	9.87
361.895	9.78
362.259	9.73
362.623	9.7
362.987	9.67
363.351	9.61
363.714	9.62
364.078	9.6
364.442	9.62
364.806	9.71
365.169	9.67
365.533	9.65
365.896	9.67
366.26	9.58
366.623	9.54
366.987	9.53
367.35	9.56
367.714	9.52
368.077	9.4
368.44	9.4
368.803	9.4
369.167	9.34
369.53	9.37
369.893	9.29
370.256	9.24
370.619	9.17
370.982	9.01
371.345	8.98
371.708	8.94
372.071	8.83
372.434	8.72
372.797	8.71
373.159	8.68
373.522	8.58
373.885	8.56
374.247	8.57
374.61	8.56
374.973	8.44
375.335	8.39
375.698	8.39
376.06	8.35
376.423	8.28
376.785	8.25
377.147	8.17
377.51	8.14
377.872	8.14
378.234	8.07
378.596	8.17
378.958	8.08
379.321	8.04
379.683	8.04
380.045	7.97
380.407	7.91
380.769	7.86
381.13	7.83
381.492	7.77
381.854	7.72
382.216	7.68
382.578	7.67
382.939	7.59
383.301	7.58
383.663	7.49
384.024	7.45
384.386	7.43
384.747	7.48
385.109	7.42
385.47	7.33
385.832	7.34
386.193	7.33
386.554	7.3
386.916	7.24
387.277	7.23
387.638	7.27
387.999	7.29
388.36	7.28
388.721	7.28
389.082	7.23
389.443	7.18
389.804	7.15
390.165	7.1
390.526	7.12
390.887	7.06
391.248	7.1
391.609	7.11
391.969	7.06
392.33	6.95
392.691	6.96
393.051	6.95
393.412	6.91
393.772	6.84
394.133	6.81
394.493	6.8
394.854	6.75
395.214	6.65
395.574	6.58
395.935	6.52
396.295	6.44
396.655	6.43
397.015	6.41
397.376	6.36
397.736	6.32
398.096	6.25
398.456	6.25
398.816	6.19
399.176	6.09
399.535	6.06
399.895	6.05
400.255	6.02
400.615	5.97
400.975	5.94
401.334	5.88
401.694	5.83
402.054	5.75
402.413	5.73
402.773	5.7
403.132	5.73
403.492	5.75
403.851	5.71
404.211	5.67
404.57	5.63
404.929	5.6
405.288	5.57
405.648	5.56
406.007	5.55
406.366	5.51
406.725	5.53
407.084	5.54
407.443	5.51
407.802	5.5
408.161	5.46
408.52	5.45
408.879	5.44
409.238	5.45
409.596	5.45
409.955	5.47
410.314	5.49
410.673	5.43
411.031	5.38
411.39	5.39
411.748	5.37
412.107	5.37
412.465	5.35
412.824	5.33
413.182	5.31
413.54	5.26
413.899	5.28
414.257	5.27
414.615	5.24
414.974	5.23
415.332	5.19
415.69	5.17
416.048	5.13
416.406	5.1
416.764	5.06
417.122	5.06
417.48	5
417.838	4.97
418.195	4.95
418.553	4.94
418.911	4.91
419.269	4.92
419.626	4.91
419.984	4.88
420.342	4.87
420.699	4.85
421.057	4.82
421.414	4.78
421.772	4.75
422.129	4.73
422.486	4.72
422.844	4.7
423.201	4.68
423.558	4.67
423.915	4.65
424.273	4.64
424.63	4.59
424.987	4.58
425.344	4.56
425.701	4.55
426.058	4.53
426.415	4.51
426.772	4.5
427.128	4.47
427.485	4.45
427.842	4.42
428.199	4.44
428.555	4.44
428.912	4.44
429.269	4.45
429.625	4.42
429.982	4.4
430.338	4.39
430.695	4.38
431.051	4.37
431.407	4.38
431.764	4.38
432.12	4.39
432.476	4.4
432.832	4.39
433.189	4.39
433.545	4.38
433.901	4.38
434.257	4.36
434.613	4.35
434.969	4.36
435.325	4.38
435.681	4.36
436.036	4.38
436.392	4.37
436.748	4.36
437.104	4.36
437.459	4.37
437.815	4.39
438.171	4.4
438.526	4.39
438.882	4.38
439.237	4.38
439.593	4.39
439.948	4.39
440.304	4.39
440.659	4.39
441.014	4.4
441.369	4.4
441.725	4.38
442.08	4.39
442.435	4.39
442.79	4.38
443.145	4.36
443.5	4.34
443.855	4.32
444.21	4.32
444.565	4.33
444.92	4.32
445.275	4.31
445.629	4.3
445.984	4.31
446.339	4.3
446.693	4.27
447.048	4.25
447.403	4.24
447.757	4.24
448.112	4.21
448.466	4.17
448.82	4.17
449.175	4.17
449.529	4.15
449.883	4.11
450.238	4.09
450.592	4.1
450.946	4.07
451.3	4.08
451.654	4.08
452.008	4.08
452.362	4.05
452.716	4.03
453.07	4.04
453.424	4.02
453.778	4.03
454.132	4.04
454.486	4.04
454.839	4.04
455.193	4.04
455.547	4.04
455.9	4.08
456.254	4.06
456.607	4.08
456.961	4.08
457.314	4.1
457.668	4.13
458.021	4.11
458.375	4.12
458.728	4.12
459.081	4.1
459.434	4.08
459.787	4.1
460.141	4.1
460.494	4.11
460.847	4.12
461.2	4.1
461.553	4.1
461.906	4.11
462.259	4.13
462.611	4.16
462.964	4.17
463.317	4.17
463.67	4.2
464.022	4.18
464.375	4.19
464.728	4.2
465.08	4.18
465.433	4.19
465.785	4.19
466.138	4.19
466.49	4.22
466.843	4.23
467.195	4.24
467.547	4.24
467.899	4.25
468.252	4.25
468.604	4.28
468.956	4.29
469.308	4.31
469.66	4.29
470.012	4.3
470.364	4.31
470.716	4.32
471.068	4.34
471.42	4.37
471.772	4.4
472.123	4.43
472.475	4.43
472.827	4.46
473.178	4.47
473.53	4.48
473.882	4.47
474.233	4.49
474.585	4.47
474.936	4.48
475.288	4.49
475.639	4.5
475.99	4.51
476.342	4.52
476.693	4.52
477.044	4.53
477.395	4.52
477.746	4.5
478.097	4.5
478.448	4.49
478.8	4.45
479.15	4.43
479.501	4.41
479.852	4.42
480.203	4.4
480.554	4.42
480.905	4.42
481.255	4.43
481.606	4.43
481.957	4.44
482.307	4.45
482.658	4.45
483.009	4.45
483.359	4.46
483.709	4.45
484.06	4.44
484.41	4.45
484.761	4.45
485.111	4.46
485.461	4.46
485.811	4.47
486.162	4.48
486.512	4.48
486.862	4.49
487.212	4.5
487.562	4.51
487.912	4.51
488.262	4.51
488.612	4.52
488.961	4.54
489.311	4.55
489.661	4.55
490.011	4.55
490.36	4.57
490.71	4.57
491.06	4.59
491.409	4.61
491.759	4.6
492.108	4.62
492.458	4.62
492.807	4.64
493.157	4.66
493.506	4.68
493.855	4.69
494.204	4.71
494.554	4.73
494.903	4.74
495.252	4.77
495.601	4.78
495.95	4.8
496.299	4.81
496.648	4.81
496.997	4.83
497.346	4.88
497.695	4.9
498.043	4.96
498.392	4.99
498.741	5.05
499.09	5.1
499.438	5.13
499.787	5.18
500.135	5.23
500.484	5.28
500.832	5.33
501.181	5.38
501.529	5.44
501.878	5.52
502.226	5.59
502.574	5.65
502.923	5.72
503.271	5.78
503.619	5.85
503.967	5.93
504.315	5.99
504.663	6.03
505.011	6.13
505.359	6.15
505.707	6.18
506.055	6.25
506.403	6.31
506.751	6.4
507.098	6.46
507.446	6.54
507.794	6.58
508.141	6.64
508.489	6.71
508.837	6.77
509.184	6.81
509.531	6.88
509.879	6.97
510.226	7.07
510.574	7.14
510.921	7.21
511.268	7.29
511.616	7.39
511.963	7.45
512.31	7.51
512.657	7.62
513.004	7.76
513.351	7.86
513.698	7.94
514.045	8.02
514.392	8.13
514.739	8.21
515.086	8.34
515.432	8.45
515.779	8.54
516.126	8.66
516.473	8.77
516.819	8.86
517.166	8.94
517.512	9.02
517.859	9.11
518.205	9.16
518.552	9.26
518.898	9.35
519.245	9.45
519.591	9.55
519.937	9.65
520.283	9.73
520.629	9.82
520.976	9.96
521.322	10.09
521.668	10.2
522.014	10.32
522.36	10.44
522.706	10.58
523.052	10.74
523.398	10.9
523.743	11.08
524.089	11.25
524.435	11.43
524.781	11.6
525.126	11.76
525.472	11.92
525.817	12.05
526.163	12.17
526.509	12.31
526.854	12.42
527.199	12.53
527.545	12.65
527.89	12.75
528.235	12.86
528.581	12.98
528.926	13.11
529.271	13.24
529.616	13.37
529.961	13.49
530.306	13.63
530.651	13.77
530.996	13.89
531.341	14.03
531.686	14.17
532.031	14.33
532.376	14.49
532.721	14.67
533.065	14.87
533.41	15.06
533.755	15.23
534.099	15.43
534.444	15.63
534.788	15.81
535.133	16.03
535.477	16.23
535.822	16.43
536.166	16.63
536.51	16.86
536.855	17.1
537.199	17.38
537.543	17.63
537.887	17.89
538.231	18.19
538.576	18.5
538.92	18.75
539.264	19.01
539.608	19.28
539.951	19.51
540.295	19.72
540.639	19.93
540.983	20.16
541.327	20.36
541.671	20.56
542.014	20.77
542.358	20.96
542.701	21.16
543.045	21.37
543.389	21.59
543.732	21.82
544.075	22.05
544.419	22.25
544.762	22.47
545.105	22.71
545.449	22.93
545.792	23.15
546.135	23.45
546.478	23.71
546.821	23.97
547.165	24.24
547.508	24.53
547.851	24.85
548.194	25.15
548.536	25.46
548.879	25.84
549.222	26.15
549.565	26.48
549.908	26.78
550.25	27.1
550.593	27.41
550.936	27.69
551.278	27.98
551.621	28.34
551.963	28.69
552.306	29.01
552.648	29.36
552.991	29.66
553.333	29.94
553.675	30.26
554.017	30.51
554.36	30.81
554.702	31.09
555.044	31.34
555.386	31.56
555.728	31.81
556.07	31.99
556.412	32.24
556.754	32.51
557.096	32.8
557.438	33.07
557.78	33.38
558.121	33.66
558.463	33.95
558.805	34.13
559.147	34.36
559.488	34.62
559.83	34.82
560.171	35.06
560.513	35.32
560.854	35.52
561.196	35.79
561.537	36
561.878	36.19
562.22	36.4
562.561	36.64
562.902	36.82
563.243	37.05
563.584	37.21
563.925	37.43
564.266	37.55
564.607	37.75
564.948	37.89
565.289	38.02
565.63	38.19
565.971	38.38
566.312	38.55
566.653	38.72
566.993	38.89
567.334	39.07
567.675	39.16
568.015	39.36
568.356	39.47
568.696	39.62
569.037	39.8
569.377	39.94
569.718	40.07
570.058	40.22
570.398	40.37
570.739	40.57
571.079	40.69
571.419	40.84
571.759	40.96
572.099	41.11
572.439	41.26
572.779	41.36
573.119	41.54
573.459	41.68
573.799	41.8
574.139	41.9
574.479	42.01
574.819	42.17
575.158	42.23
575.498	42.36
575.838	42.55
576.177	42.62
576.517	42.76
576.856	42.89
577.196	42.97
577.535	43.06
577.875	43.19
578.214	43.27
578.553	43.52
578.893	43.61
579.232	43.7
579.571	43.78
579.91	43.95
580.25	44.09
580.589	44.15
580.928	44.22
581.267	44.37
581.606	44.42
581.945	44.51
582.283	44.66
582.622	44.75
582.961	44.75
583.3	44.83
583.639	44.88
583.977	44.96
584.316	45.11
584.654	45.21
584.993	45.21
585.332	45.31
585.67	45.27
586.008	45.37
586.347	45.51
586.685	45.63
587.024	45.67
587.362	45.65
587.7	45.76
588.038	45.81
588.376	45.8
588.715	45.94
589.053	45.95
589.391	46
589.729	46.07
590.067	46.09
590.404	46.24
590.742	46.3
591.08	46.37
591.418	46.45
591.756	46.57
592.093	46.66
592.431	46.73
592.769	46.76
593.106	46.84
593.444	46.78
593.781	46.83
594.119	46.89
594.456	46.97
594.793	46.95
595.131	47.02
595.468	47.1
595.805	47.11
596.143	47.22
596.48	47.23
596.817	47.3
597.154	47.39
597.491	47.45
597.828	47.5
598.165	47.59
598.502	47.58
598.839	47.57
599.176	47.65
599.512	47.73
599.849	47.79
600.186	47.82
600.523	47.87
600.859	47.97
601.196	48
601.532	48.06
601.869	48.14
602.205	48.17
602.542	48.27
602.878	48.26
603.215	48.28
603.551	48.32
603.887	48.32
604.223	48.39
604.56	48.37
604.896	48.35
605.232	48.35
605.568	48.39
605.904	48.41
606.24	48.43
606.576	48.44
606.912	48.49
607.248	48.45
607.583	48.51
607.919	48.53
608.255	48.57
608.591	48.59
608.926	48.69
609.262	48.76
609.597	48.77
609.933	48.8
610.268	48.87
610.604	48.91
610.939	48.96
611.275	48.96
611.61	49
611.945	49.13
612.281	49.2
612.616	49.25
612.951	49.31
613.286	49.34
613.621	49.41
613.956	49.46
614.291	49.54
614.626	49.57
614.961	49.58
615.296	49.6
615.631	49.58
615.966	49.58
616.3	49.6
616.635	49.58
616.97	49.73
617.304	49.72
617.639	49.82
617.973	49.8
618.308	49.79
618.642	49.84
618.977	49.78
619.311	49.82
619.646	49.84
619.98	49.84
620.314	49.96
620.648	49.97
620.983	49.95
621.317	49.95
621.651	50.02
621.985	50.04
622.319	50.1
622.653	50.14
622.987	50.17
623.321	50.07
623.655	50.03
623.988	50.06
624.322	50.04
624.656	50.07
624.99	50.14
625.323	50.16
625.657	50.11
625.99	50.17
626.324	50.15
626.657	50.18
626.991	50.22
627.324	50.09
627.658	50.09
627.991	50.17
628.324	50.29
628.657	50.33
628.991	50.29
629.324	50.28
629.657	50.3
629.99	50.29
630.323	50.33
630.656	50.42
630.989	50.37
631.322	50.5
631.655	50.47
631.987	50.46
632.32	50.44
632.653	50.46
632.986	50.45
633.318	50.44
633.651	50.41
633.984	50.47
634.316	50.58
634.649	50.55
634.981	50.53
635.313	50.41
635.646	50.36
635.978	50.44
636.31	50.45
636.643	50.43
636.975	50.44
637.307	50.58
637.639	50.64
637.971	50.66
638.303	50.6
638.635	50.69
638.967	50.65
639.299	50.69
639.631	50.66
639.963	50.72
640.295	50.91
640.626	50.97
640.958	50.99
641.29	51.03
641.621	51.15
641.953	51.15
642.285	51.28
642.616	51.29
642.948	51.29
643.279	51.28
643.61	51.28
643.942	51.29
644.273	51.2
644.604	51.16
644.936	51.21
645.267	51.21
645.598	51.17
645.929	51.25
646.26	51.31
646.591	51.42
646.922	51.4
647.253	51.24
647.584	51.28
647.915	51.15
648.245	51.09
648.576	50.89
648.907	50.85
649.238	50.86
649.568	50.9
649.899	50.87
650.229	50.9
650.56	50.91
650.89	50.8
651.221	50.8
651.551	50.69
651.882	50.59
652.212	50.56
652.542	50.5
652.872	50.51
653.203	50.59
653.533	50.58
653.863	50.54
654.193	50.58
654.523	50.6
654.853	50.66
655.183	50.7
655.513	50.84
655.843	50.89
656.172	50.9
656.502	50.83
656.832	50.9
657.162	50.87
657.491	50.94
657.821	51.02
658.15	51.2
658.48	51.36
658.809	51.35
659.139	51.39
659.468	51.38
659.798	51.39
660.127	51.3
660.456	51.35
660.785	51.4
661.115	51.33
661.444	51.32
661.773	51.36
662.102	51.4
662.431	51.38
662.76	51.35
663.089	51.25
663.418	51.34
663.747	51.43
664.076	51.61
664.404	51.61
664.733	51.66
665.062	51.52
665.39	51.43
