Data from BA28305_Reflection_00014.txt Node
Date: Mon Nov 18 15:57:18 EST 2019
User: vgr7
Spectrometer: USB2G7710
Scans to average: 3
Trigger mode: 4
Integration Time (sec): 2.000000E-2
Electric dark correction enabled: true
Boxcar width: 10
XAxis mode: Wavelengths
Number of Pixels in Spectrum: 2048
>>>>>Begin Spectral Data<<<<<
177.721	-24.8
178.105	187.72
178.488	364.8
178.871	-325.44
179.254	-77.94
179.636	445.24
180.019	-314.26
180.402	121.74
180.785	-24.52
181.168	101.57
181.55	16.99
181.933	50.69
182.316	39.85
182.698	61.96
183.081	60.94
183.463	66.4
183.846	70.6
184.228	93.86
184.611	85.54
184.993	90.8
185.376	106.87
185.758	216.35
186.14	170.83
186.522	184.97
186.904	242.38
187.287	125.64
187.669	63.91
188.051	62.96
188.433	78.3
188.815	200.32
189.197	106.54
189.579	-24.79
189.961	-187.98
190.342	-237.06
190.724	-39.78
191.106	-5.29
191.488	-27.03
191.869	-10.27
192.251	-15.13
192.633	-21.24
193.014	-12.31
193.396	-11.47
193.777	108.02
194.159	73.48
194.54	39.48
194.922	-49.52
195.303	-83.14
195.684	-103.25
196.065	-118.21
196.447	-209.16
196.828	-122.45
197.209	-116.95
197.59	-209.06
197.971	-161.75
198.352	-81.01
198.733	-94.78
199.114	-102.3
199.495	-64.5
199.876	-72.52
200.257	-38.86
200.638	-44.67
201.018	-69.61
201.399	-63.58
201.78	-71.76
202.16	-85.1
202.541	-80.73
202.922	-201.87
203.302	-287.39
203.683	-187.14
204.063	-182.53
204.444	-158.83
204.824	-272.71
205.204	-446.67
205.585	-538.24
205.965	-291.87
206.345	-1566.67
206.725	485.51
207.106	148.63
207.486	131.86
207.866	172.46
208.246	119.86
208.626	178.29
209.006	488.51
209.386	208.99
209.766	499.56
210.145	-298.37
210.525	-296.03
210.905	-92.4
211.285	-53.69
211.664	-49.22
212.044	-67.68
212.424	-85.8
212.803	-124.86
213.183	-98.29
213.562	-84.78
213.942	-77.41
214.321	-70.31
214.701	-77.16
215.08	-70.47
215.459	-57
215.838	-68.71
216.218	-92.18
216.597	-79.8
216.976	-88.45
217.355	-85.6
217.734	-83.11
218.113	-83.87
218.492	-112.76
218.871	-139.24
219.25	-130.71
219.629	-175.28
220.008	-157.23
220.387	-118.52
220.766	-93.61
221.144	-205.08
221.523	-202.23
221.902	-346.09
222.28	-832.82
222.659	-343.11
223.037	-320.39
223.416	-861.43
223.794	-279.39
224.173	-178.49
224.551	-98.21
224.929	-56.24
225.308	-29.99
225.686	-21.84
226.064	-16.52
226.442	-0.83
226.821	-6.79
227.199	-11.89
227.577	-15.78
227.955	-18.58
228.333	-18.31
228.711	-15.51
229.089	-10.71
229.467	-8.15
229.845	-9.66
230.222	-8.55
230.6	-10.19
230.978	-9.73
231.356	-5.25
231.733	-8.21
232.111	-8.01
232.488	-9.92
232.866	-7.23
233.243	-6.66
233.621	-8.84
233.998	-9.15
234.376	-9.16
234.753	-9.9
235.13	-9.64
235.508	-7.52
235.885	-4.8
236.262	-6.01
236.639	-7.18
237.016	-5.76
237.393	-5.05
237.77	-4.72
238.147	-3.18
238.524	-2.59
238.901	-0.89
239.278	-0.16
239.655	1.44
240.032	1.01
240.409	1.47
240.785	1.34
241.162	1.26
241.539	2.23
241.915	2.66
242.292	2.72
242.668	3.08
243.045	3.68
243.421	3.71
243.798	3.61
244.174	3.68
244.551	3.7
244.927	3.49
245.303	3.58
245.679	3.71
246.056	3.3
246.432	3.26
246.808	3.04
247.184	2.67
247.56	2.52
247.936	2.83
248.312	2.87
248.688	2.94
249.064	2.87
249.44	2.61
249.815	2.45
250.191	2.48
250.567	2.63
250.943	2.29
251.318	2.44
251.694	2.48
252.069	2.77
252.445	2.81
252.82	2.79
253.196	2.67
253.571	2.86
253.947	3.42
254.322	3.71
254.697	3.76
255.073	3.63
255.448	3.16
255.823	3.11
256.198	3.14
256.573	2.87
256.948	3.11
257.323	3.19
257.698	3.22
258.073	3.14
258.448	2.98
258.823	3.08
259.198	2.93
259.573	2.83
259.948	2.74
260.322	2.85
260.697	2.93
261.072	3.01
261.446	2.9
261.821	2.62
262.195	2.64
262.57	2.58
262.944	2.69
263.319	2.81
263.693	2.74
264.067	2.85
264.442	2.98
264.816	2.78
265.19	2.7
265.564	2.72
265.938	2.67
266.313	3.02
266.687	3.06
267.061	3.05
267.435	3.08
267.809	2.95
268.183	2.94
268.556	2.89
268.93	2.84
269.304	2.8
269.678	3.02
270.051	2.87
270.425	2.94
270.799	2.96
271.172	2.91
271.546	2.9
271.919	2.6
272.293	2.43
272.666	2.64
273.04	2.55
273.413	2.45
273.787	2.41
274.16	2.25
274.533	2.15
274.906	2.03
275.279	1.97
275.653	2.1
276.026	2
276.399	1.9
276.772	1.89
277.145	1.93
277.518	1.87
277.891	1.8
278.263	1.76
278.636	1.66
279.009	1.73
279.382	1.88
279.755	2.09
280.127	2.33
280.5	2.23
280.872	2.43
281.245	2.4
281.617	2.5
281.99	2.55
282.362	2.59
282.735	2.65
283.107	2.89
283.479	2.79
283.852	2.76
284.224	2.91
284.596	2.96
284.968	2.84
285.34	2.77
285.713	2.94
286.085	2.98
286.457	3.06
286.829	3.01
287.201	2.91
287.572	2.87
287.944	2.76
288.316	2.79
288.688	2.68
289.06	2.68
289.431	2.74
289.803	2.7
290.175	2.76
290.546	2.95
290.918	2.92
291.289	3.05
291.661	3.23
292.032	3.3
292.403	3.3
292.775	3.5
293.146	3.57
293.517	3.4
293.889	3.53
294.26	3.53
294.631	3.67
295.002	3.59
295.373	3.6
295.744	3.75
296.115	3.77
296.486	3.74
296.857	3.81
297.228	3.89
297.599	3.92
297.97	3.94
298.34	3.93
298.711	3.9
299.082	3.85
299.452	3.83
299.823	3.91
300.194	3.79
300.564	3.86
300.935	3.88
301.305	4
301.676	4.08
302.046	4.17
302.416	4.24
302.787	4.4
303.157	4.45
303.527	4.34
303.897	4.28
304.267	4.44
304.637	4.53
305.008	4.44
305.378	4.58
305.748	4.66
306.117	4.61
306.487	4.64
306.857	4.67
307.227	4.76
307.597	4.56
307.967	4.76
308.336	4.61
308.706	4.72
309.076	4.78
309.445	4.84
309.815	4.89
310.184	4.8
310.554	4.91
310.923	4.91
311.293	4.93
311.662	4.96
312.031	4.95
312.401	5.08
312.77	5.17
313.139	5.19
313.508	5.16
313.877	5.2
314.246	5.32
314.616	5.45
314.985	5.46
315.353	5.6
315.722	5.59
316.091	5.72
316.46	5.71
316.829	5.8
317.198	5.81
317.567	5.72
317.935	5.82
318.304	5.79
318.672	5.97
319.041	6.17
319.41	6.25
319.778	6.38
320.147	6.3
320.515	6.38
320.883	6.28
321.252	6.61
321.62	6.57
321.988	6.59
322.357	6.54
322.725	6.58
323.093	6.76
323.461	6.72
323.829	6.76
324.197	6.87
324.565	6.96
324.933	6.88
325.301	6.98
325.669	6.99
326.037	6.95
326.405	7
326.772	7.1
327.14	7.32
327.508	7.38
327.875	7.34
328.243	7.3
328.61	7.37
328.978	7.14
329.346	7.26
329.713	7.15
330.08	7.18
330.448	7.09
330.815	6.92
331.182	7.06
331.55	7.14
331.917	7.09
332.284	7.09
332.651	7.11
333.018	7.2
333.385	7.29
333.752	7.44
334.119	7.44
334.486	7.33
334.853	7.21
335.22	7.21
335.587	7.38
335.954	7.44
336.32	7.43
336.687	7.43
337.054	7.44
337.42	7.55
337.787	7.62
338.153	7.7
338.52	7.83
338.886	7.73
339.253	7.72
339.619	7.76
339.986	7.72
340.352	7.83
340.718	7.84
341.084	7.86
341.451	7.89
341.817	7.91
342.183	7.91
342.549	7.88
342.915	7.9
343.281	7.83
343.647	7.84
344.013	7.92
344.379	8.07
344.745	8.1
345.11	8.16
345.476	8.19
345.842	8.17
346.208	8.23
346.573	8.36
346.939	8.42
347.304	8.4
347.67	8.52
348.035	8.49
348.401	8.53
348.766	8.45
349.132	8.44
349.497	8.36
349.862	8.47
350.228	8.54
350.593	8.51
350.958	8.62
351.323	8.54
351.688	8.5
352.053	8.41
352.418	8.41
352.783	8.3
353.148	8.24
353.513	8.24
353.878	8.19
354.243	8.22
354.608	8.13
354.972	8.13
355.337	8.13
355.702	8.23
356.066	8.17
356.431	8.21
356.795	8.18
357.16	8.18
357.524	8.03
357.889	8.06
358.253	8.06
358.618	7.99
358.982	8.02
359.346	7.98
359.71	8.04
360.075	8.07
360.439	8.12
360.803	8.13
361.167	8.17
361.531	8.17
361.895	8.16
362.259	8.19
362.623	8.26
362.987	8.24
363.351	8.16
363.714	8.15
364.078	8.13
364.442	8.13
364.806	8.11
365.169	8.21
365.533	8.15
365.896	8.2
366.26	8.11
366.623	8.05
366.987	8.02
367.35	7.92
367.714	7.85
368.077	7.75
368.44	7.7
368.803	7.59
369.167	7.46
369.53	7.36
369.893	7.33
370.256	7.28
370.619	7.15
370.982	7.07
371.345	7.01
371.708	6.93
372.071	6.8
372.434	6.79
372.797	6.74
373.159	6.64
373.522	6.55
373.885	6.56
374.247	6.56
374.61	6.53
374.973	6.49
375.335	6.42
375.698	6.4
376.06	6.38
376.423	6.41
376.785	6.41
377.147	6.38
377.51	6.3
377.872	6.16
378.234	6.13
378.596	6.12
378.958	6.09
379.321	6.09
379.683	6.09
380.045	6
380.407	5.92
380.769	5.93
381.13	5.89
381.492	5.86
381.854	5.83
382.216	5.85
382.578	5.81
382.939	5.76
383.301	5.75
383.663	5.67
384.024	5.58
384.386	5.58
384.747	5.53
385.109	5.49
385.47	5.48
385.832	5.48
386.193	5.44
386.554	5.39
386.916	5.39
387.277	5.38
387.638	5.41
387.999	5.36
388.36	5.3
388.721	5.26
389.082	5.24
389.443	5.17
389.804	5.11
390.165	5.05
390.526	5.04
390.887	4.99
391.248	5.01
391.609	4.96
391.969	4.9
392.33	4.91
392.691	4.84
393.051	4.82
393.412	4.77
393.772	4.71
394.133	4.7
394.493	4.63
394.854	4.56
395.214	4.48
395.574	4.48
395.935	4.49
396.295	4.46
396.655	4.38
397.015	4.33
397.376	4.3
397.736	4.31
398.096	4.28
398.456	4.24
398.816	4.2
399.176	4.17
399.535	4.14
399.895	4.09
400.255	4.1
400.615	4.04
400.975	4.01
401.334	4.01
401.694	3.96
402.054	3.91
402.413	3.92
402.773	3.91
403.132	3.86
403.492	3.8
403.851	3.81
404.211	3.83
404.57	3.85
404.929	3.81
405.288	3.76
405.648	3.73
406.007	3.74
406.366	3.71
406.725	3.74
407.084	3.72
407.443	3.72
407.802	3.73
408.161	3.74
408.52	3.71
408.879	3.69
409.238	3.7
409.596	3.7
409.955	3.67
410.314	3.67
410.673	3.63
411.031	3.65
411.39	3.63
411.748	3.61
412.107	3.6
412.465	3.57
412.824	3.58
413.182	3.56
413.54	3.53
413.899	3.54
414.257	3.49
414.615	3.46
414.974	3.43
415.332	3.38
415.69	3.37
416.048	3.35
416.406	3.33
416.764	3.3
417.122	3.3
417.48	3.29
417.838	3.29
418.195	3.29
418.553	3.25
418.911	3.23
419.269	3.22
419.626	3.2
419.984	3.21
420.342	3.2
420.699	3.19
421.057	3.19
421.414	3.17
421.772	3.17
422.129	3.16
422.486	3.15
422.844	3.14
423.201	3.11
423.558	3.1
423.915	3.09
424.273	3.09
424.63	3.06
424.987	3.05
425.344	3.02
425.701	3.02
426.058	3.01
426.415	2.99
426.772	2.98
427.128	2.97
427.485	2.94
427.842	2.95
428.199	2.96
428.555	2.94
428.912	2.94
429.269	2.92
429.625	2.91
429.982	2.92
430.338	2.94
430.695	2.98
431.051	2.96
431.407	2.98
431.764	2.99
432.12	3
432.476	2.99
432.832	2.98
433.189	2.97
433.545	2.97
433.901	2.98
434.257	2.97
434.613	2.96
434.969	2.97
435.325	2.95
435.681	2.95
436.036	2.94
436.392	2.95
436.748	2.94
437.104	2.92
437.459	2.92
437.815	2.93
438.171	2.93
438.526	2.93
438.882	2.9
439.237	2.92
439.593	2.91
439.948	2.9
440.304	2.92
440.659	2.93
441.014	2.92
441.369	2.9
441.725	2.89
442.08	2.87
442.435	2.88
442.79	2.87
443.145	2.85
443.5	2.83
443.855	2.82
444.21	2.81
444.565	2.82
444.92	2.81
445.275	2.78
445.629	2.76
445.984	2.76
446.339	2.76
446.693	2.73
447.048	2.73
447.403	2.71
447.757	2.7
448.112	2.67
448.466	2.67
448.82	2.67
449.175	2.67
449.529	2.69
449.883	2.67
450.238	2.67
450.592	2.68
450.946	2.68
451.3	2.67
451.654	2.68
452.008	2.67
452.362	2.65
452.716	2.65
453.07	2.67
453.424	2.66
453.778	2.66
454.132	2.66
454.486	2.65
454.839	2.67
455.193	2.69
455.547	2.7
455.9	2.7
456.254	2.72
456.607	2.72
456.961	2.71
457.314	2.71
457.668	2.72
458.021	2.7
458.375	2.71
458.728	2.72
459.081	2.72
459.434	2.74
459.787	2.76
460.141	2.76
460.494	2.75
460.847	2.75
461.2	2.77
461.553	2.78
461.906	2.8
462.259	2.81
462.611	2.82
462.964	2.82
463.317	2.83
463.67	2.83
464.022	2.84
464.375	2.83
464.728	2.83
465.08	2.83
465.433	2.84
465.785	2.84
466.138	2.86
466.49	2.87
466.843	2.86
467.195	2.81
467.547	2.83
467.899	2.84
468.252	2.86
468.604	2.87
468.956	2.85
469.308	2.84
469.66	2.84
470.012	2.87
470.364	2.88
470.716	2.9
471.068	2.91
471.42	2.91
471.772	2.93
472.123	2.95
472.475	2.98
472.827	3.01
473.178	3.02
473.53	3.01
473.882	3
474.233	3.03
474.585	3.04
474.936	3.04
475.288	3.02
475.639	3.02
475.99	3
476.342	3
476.693	3
477.044	2.99
477.395	2.96
477.746	2.94
478.097	2.91
478.448	2.89
478.8	2.87
479.15	2.86
479.501	2.85
479.852	2.83
480.203	2.82
480.554	2.82
480.905	2.82
481.255	2.82
481.606	2.82
481.957	2.83
482.307	2.83
482.658	2.84
483.009	2.85
483.359	2.85
483.709	2.87
484.06	2.86
484.41	2.87
484.761	2.87
485.111	2.88
485.461	2.9
485.811	2.9
486.162	2.91
486.512	2.93
486.862	2.95
487.212	2.95
487.562	2.95
487.912	2.96
488.262	2.97
488.612	2.98
488.961	2.99
489.311	2.99
489.661	3
490.011	3.01
490.36	3.01
490.71	3.02
491.06	3.03
491.409	3.04
491.759	3.06
492.108	3.07
492.458	3.08
492.807	3.09
493.157	3.12
493.506	3.14
493.855	3.13
494.204	3.14
494.554	3.17
494.903	3.2
495.252	3.23
495.601	3.25
495.95	3.29
496.299	3.31
496.648	3.36
496.997	3.39
497.346	3.43
497.695	3.47
498.043	3.48
498.392	3.51
498.741	3.57
499.09	3.6
499.438	3.64
499.787	3.7
500.135	3.75
500.484	3.79
500.832	3.84
501.181	3.9
501.529	3.94
501.878	4
502.226	4.05
502.574	4.08
502.923	4.14
503.271	4.19
503.619	4.25
503.967	4.32
504.315	4.38
504.663	4.45
505.011	4.51
505.359	4.61
505.707	4.66
506.055	4.75
506.403	4.83
506.751	4.9
507.098	4.95
507.446	5.03
507.794	5.09
508.141	5.16
508.489	5.24
508.837	5.33
509.184	5.4
509.531	5.48
509.879	5.59
510.226	5.66
510.574	5.75
510.921	5.82
511.268	5.89
511.616	5.99
511.963	6.06
512.31	6.16
512.657	6.25
513.004	6.38
513.351	6.45
513.698	6.56
514.045	6.69
514.392	6.81
514.739	6.9
515.086	7.03
515.432	7.17
515.779	7.28
516.126	7.41
516.473	7.55
516.819	7.66
517.166	7.75
517.512	7.86
517.859	7.98
518.205	8.11
518.552	8.23
518.898	8.33
519.245	8.45
519.591	8.55
519.937	8.64
520.283	8.78
520.629	8.93
520.976	9.08
521.322	9.23
521.668	9.39
522.014	9.57
522.36	9.74
522.706	9.91
523.052	10.11
523.398	10.33
523.743	10.53
524.089	10.75
524.435	10.99
524.781	11.19
525.126	11.39
525.472	11.56
525.817	11.73
526.163	11.89
526.509	12.05
526.854	12.2
527.199	12.37
527.545	12.49
527.89	12.64
528.235	12.78
528.581	12.92
528.926	13.07
529.271	13.22
529.616	13.39
529.961	13.53
530.306	13.7
530.651	13.86
530.996	14.06
531.341	14.26
531.686	14.44
532.031	14.64
532.376	14.84
532.721	15.06
533.065	15.29
533.41	15.53
533.755	15.77
534.099	16.03
534.444	16.27
534.788	16.51
535.133	16.75
535.477	17.01
535.822	17.31
536.166	17.6
536.51	17.91
536.855	18.21
537.199	18.52
537.543	18.86
537.887	19.2
538.231	19.51
538.576	19.85
538.92	20.17
539.264	20.51
539.608	20.85
539.951	21.13
540.295	21.41
540.639	21.69
540.983	21.97
541.327	22.21
541.671	22.48
542.014	22.72
542.358	22.97
542.701	23.22
543.045	23.44
543.389	23.71
543.732	23.96
544.075	24.24
544.419	24.54
544.762	24.83
545.105	25.15
545.449	25.49
545.792	25.83
546.135	26.2
546.478	26.56
546.821	26.9
547.165	27.3
547.508	27.67
547.851	28.03
548.194	28.39
548.536	28.8
548.879	29.18
549.222	29.63
549.565	30
549.908	30.39
550.25	30.77
550.593	31.14
550.936	31.55
551.278	31.93
551.621	32.31
551.963	32.65
552.306	33.05
552.648	33.4
552.991	33.74
553.333	34.06
553.675	34.39
554.017	34.74
554.36	35.05
554.702	35.36
555.044	35.7
555.386	36
555.728	36.4
556.07	36.78
556.412	37.08
556.754	37.41
557.096	37.77
557.438	38.13
557.78	38.48
558.121	38.83
558.463	39.21
558.805	39.56
559.147	39.92
559.488	40.18
559.83	40.46
560.171	40.75
560.513	41.05
560.854	41.35
561.196	41.63
561.537	41.96
561.878	42.3
562.22	42.62
562.561	42.9
562.902	43.1
563.243	43.34
563.584	43.62
563.925	43.87
564.266	44.14
564.607	44.44
564.948	44.68
565.289	44.93
565.63	45.19
565.971	45.42
566.312	45.64
566.653	45.86
566.993	46.09
567.334	46.28
567.675	46.5
568.015	46.75
568.356	47.01
568.696	47.23
569.037	47.41
569.377	47.63
569.718	47.87
570.058	48.18
570.398	48.43
570.739	48.68
571.079	48.91
571.419	49.08
571.759	49.25
572.099	49.43
572.439	49.56
572.779	49.77
573.119	49.94
573.459	50.17
573.799	50.38
574.139	50.53
574.479	50.74
574.819	50.92
575.158	51.11
575.498	51.23
575.838	51.41
576.177	51.59
576.517	51.79
576.856	51.98
577.196	52.07
577.535	52.21
577.875	52.37
578.214	52.58
578.553	52.82
578.893	52.96
579.232	53.21
579.571	53.43
579.91	53.57
580.25	53.67
580.589	53.77
580.928	53.93
581.267	54.17
581.606	54.37
581.945	54.56
582.283	54.71
582.622	54.88
582.961	55.03
583.3	55.17
583.639	55.3
583.977	55.43
584.316	55.54
584.654	55.68
584.993	55.75
585.332	55.89
585.67	55.99
586.008	56.13
586.347	56.16
586.685	56.34
587.024	56.44
587.362	56.66
587.7	56.81
588.038	56.89
588.376	57.05
588.715	57.12
589.053	57.28
589.391	57.4
589.729	57.55
590.067	57.6
590.404	57.71
590.742	57.82
591.08	57.84
591.418	58
591.756	58.1
592.093	58.22
592.431	58.26
592.769	58.33
593.106	58.44
593.444	58.52
593.781	58.57
594.119	58.58
594.456	58.61
594.793	58.77
595.131	58.81
595.468	58.86
595.805	58.91
596.143	58.96
596.48	59.01
596.817	59.08
597.154	59.23
597.491	59.33
597.828	59.37
598.165	59.43
598.502	59.48
598.839	59.52
599.176	59.65
599.512	59.75
599.849	59.82
600.186	59.91
600.523	60.02
600.859	60.11
601.196	60.22
601.532	60.29
601.869	60.3
602.205	60.39
602.542	60.48
602.878	60.55
603.215	60.62
603.551	60.67
603.887	60.7
604.223	60.71
604.56	60.69
604.896	60.78
605.232	60.85
605.568	60.88
605.904	60.98
606.24	61
606.576	61.03
606.912	61.05
607.248	61.07
607.583	61.16
607.919	61.15
608.255	61.25
608.591	61.4
608.926	61.44
609.262	61.51
609.597	61.52
609.933	61.59
610.268	61.63
610.604	61.63
610.939	61.6
611.275	61.63
611.61	61.69
611.945	61.73
612.281	61.8
612.616	61.9
612.951	61.98
613.286	62.06
613.621	62.1
613.956	62.21
614.291	62.32
614.626	62.32
614.961	62.43
615.296	62.36
615.631	62.38
615.966	62.43
616.3	62.48
616.635	62.53
616.97	62.68
617.304	62.76
617.639	62.82
617.973	62.92
618.308	62.92
618.642	62.98
618.977	63.07
619.311	63.14
619.646	63.16
619.98	63.2
620.314	63.16
620.648	63.23
620.983	63.24
621.317	63.29
621.651	63.31
621.985	63.32
622.319	63.49
622.653	63.35
622.987	63.44
623.321	63.48
623.655	63.45
623.988	63.49
624.322	63.57
624.656	63.61
624.99	63.63
625.323	63.69
625.657	63.77
625.99	63.79
626.324	63.84
626.657	63.82
626.991	63.78
627.324	63.85
627.658	63.9
627.991	63.99
628.324	64.02
628.657	64.03
628.991	64.1
629.324	64.1
629.657	64.28
629.99	64.21
630.323	64.2
630.656	64.27
630.989	64.18
631.322	64.17
631.655	64.19
631.987	64.25
632.32	64.29
632.653	64.28
632.986	64.31
633.318	64.3
633.651	64.29
633.984	64.32
634.316	64.37
634.649	64.39
634.981	64.42
635.313	64.37
635.646	64.42
635.978	64.39
636.31	64.42
636.643	64.35
636.975	64.4
637.307	64.5
637.639	64.54
637.971	64.59
638.303	64.64
638.635	64.68
638.967	64.68
639.299	64.76
639.631	64.72
639.963	64.68
640.295	64.78
640.626	64.84
640.958	64.92
641.29	65
641.621	65.05
641.953	64.93
642.285	64.95
642.616	65.03
642.948	65
643.279	65.01
643.61	65.05
643.942	65.19
644.273	65.13
644.604	65.11
644.936	65.17
645.267	65.17
645.598	65.17
645.929	65.28
646.26	65.29
646.591	65.35
646.922	65.36
647.253	65.27
647.584	65.25
647.915	65.34
648.245	65.32
648.576	65.38
648.907	65.42
649.238	65.55
649.568	65.47
649.899	65.55
650.229	65.52
650.56	65.52
650.89	65.44
651.221	65.54
651.551	65.53
651.882	65.54
652.212	65.48
652.542	65.48
652.872	65.49
653.203	65.5
653.533	65.47
653.863	65.4
654.193	65.45
654.523	65.54
654.853	65.43
655.183	65.35
655.513	65.27
655.843	65.38
656.172	65.31
656.502	65.39
656.832	65.45
657.162	65.49
657.491	65.48
657.821	65.59
658.15	65.69
658.48	65.74
658.809	65.72
659.139	65.84
659.468	65.96
659.798	65.94
660.127	65.79
660.456	65.81
660.785	65.98
661.115	66.02
661.444	65.96
661.773	66.03
662.102	66.08
662.431	66.11
662.76	66.09
663.089	66.12
663.418	66.07
663.747	65.93
664.076	66.05
664.404	66.05
664.733	65.93
665.062	65.87
665.39	65.93
665.719	65.81
666.048	65.71
666.376	65.61
