Data from BA28473_Reflection_00010.txt Node
Date: Mon Nov 18 15:28:34 EST 2019
User: vgr7
Spectrometer: USB2G7710
Scans to average: 3
Trigger mode: 4
Integration Time (sec): 2.000000E-2
Electric dark correction enabled: true
Boxcar width: 10
XAxis mode: Wavelengths
Number of Pixels in Spectrum: 2048
>>>>>Begin Spectral Data<<<<<
177.721	14.72
178.105	5.92
178.488	-46.7
178.871	-103.62
179.254	-295.5
179.636	-152.81
180.019	-1617.56
180.402	87.5
180.785	-484.42
181.168	-73.08
181.55	60.35
181.933	71.67
182.316	59.53
182.698	33.45
183.081	7.04
183.463	-9.6
183.846	-24.39
184.228	-0.49
184.611	25.81
184.993	-37.52
185.376	-125.87
185.758	-50.88
186.14	-64
186.522	-27.7
186.904	-14.55
187.287	30.07
187.669	6.32
188.051	33.25
188.433	-12.06
188.815	-43.19
189.197	-27.58
189.579	7.38
189.961	-10.02
190.342	-31.64
190.724	95.45
191.106	66.59
191.488	60.21
191.869	118.82
192.251	158.5
192.633	105.01
193.014	5.87
193.396	225.9
193.777	456.2
194.159	700
194.54	-364.79
194.922	-102.67
195.303	-133.7
195.684	-187.17
196.065	-34
196.447	-80.16
196.828	2487.76
197.209	614.79
197.59	-456.56
197.971	-169.29
198.352	-56.23
198.733	-94.21
199.114	-51.54
199.495	-40.01
199.876	-47.54
200.257	-36.24
200.638	-23.36
201.018	-30.05
201.399	2.77
201.78	11.71
202.16	2.06
202.541	10.34
202.922	5.1
203.302	-3.67
203.683	-4.34
204.063	-26.42
204.444	-23.37
204.824	-9.51
205.204	-10.01
205.585	-17.45
205.965	-6.39
206.345	-21.56
206.725	-12.57
207.106	-2.59
207.486	-28.9
207.866	-38.23
208.246	-28.1
208.626	-29.05
209.006	0.23
209.386	-41.09
209.766	-56.43
210.145	-36.61
210.525	-32.62
210.905	-28.88
211.285	-38.61
211.664	-20.66
212.044	-11.91
212.424	-7.19
212.803	56.37
213.183	44.21
213.562	56.98
213.942	42.71
214.321	53.11
214.701	36.47
215.08	16.8
215.459	10.12
215.838	5.89
216.218	-0.04
216.597	4.99
216.976	5.34
217.355	23.54
217.734	30.97
218.113	8.27
218.492	13.14
218.871	-6.53
219.25	-1.71
219.629	-25.97
220.008	-30.97
220.387	-26.11
220.766	-38.27
221.144	-67.41
221.523	-90.88
221.902	-87.95
222.28	-74.59
222.659	-83.3
223.037	-55.31
223.416	-49.6
223.794	-35.63
224.173	-31.6
224.551	-22.22
224.929	-26.55
225.308	-22.3
225.686	-20.48
226.064	-13.45
226.442	-10.8
226.821	-5.95
227.199	-1.69
227.577	1.5
227.955	0.85
228.333	1.35
228.711	4.8
229.089	8.77
229.467	10.83
229.845	9.88
230.222	11.56
230.6	11.31
230.978	10.99
231.356	11.39
231.733	10.63
232.111	13.63
232.488	13.69
232.866	15.12
233.243	16.5
233.621	15.26
233.998	12.72
234.376	9.63
234.753	9.95
235.13	7.74
235.508	7.03
235.885	5.45
236.262	4.64
236.639	3.06
237.016	2.72
237.393	2.8
237.77	3.07
238.147	2.46
238.524	3.25
238.901	2.9
239.278	3.25
239.655	3.15
240.032	2.63
240.409	2.94
240.785	2.72
241.162	2.44
241.539	2.54
241.915	2.95
242.292	3.08
242.668	3.22
243.045	3.36
243.421	3.32
243.798	3.8
244.174	4.11
244.551	4.05
244.927	3.8
245.303	3.95
245.679	3.99
246.056	3.86
246.432	3.65
246.808	3.64
247.184	3.35
247.56	3.33
247.936	3.24
248.312	2.91
248.688	3.03
249.064	2.92
249.44	2.91
249.815	2.89
250.191	3.02
250.567	2.97
250.943	3.15
251.318	3.35
251.694	3.26
252.069	2.98
252.445	3.22
252.82	3.16
253.196	3.27
253.571	3.13
253.947	3.35
254.322	3.53
254.697	3.47
255.073	3.19
255.448	3.01
255.823	3.23
256.198	3.55
256.573	3.69
256.948	4.01
257.323	4
257.698	4.13
258.073	4.09
258.448	4.08
258.823	4.05
259.198	4
259.573	4.19
259.948	4.07
260.322	4.08
260.697	4.38
261.072	4.27
261.446	4.25
261.821	4.24
262.195	4.28
262.57	4.3
262.944	4.52
263.319	4.76
263.693	4.8
264.067	4.75
264.442	4.78
264.816	4.6
265.19	4.6
265.564	4.63
265.938	4.54
266.313	4.58
266.687	4.46
267.061	4.46
267.435	4.31
267.809	4.39
268.183	4.25
268.556	4.04
268.93	4.19
269.304	4.26
269.678	4.31
270.051	4.31
270.425	4.41
270.799	4.38
271.172	4.34
271.546	4.09
271.919	4.03
272.293	3.94
272.666	4.07
273.04	4.06
273.413	3.92
273.787	4.06
274.16	4.02
274.533	4.3
274.906	4.31
275.279	4.27
275.653	4.32
276.026	4.42
276.399	4.33
276.772	4.16
277.145	3.99
277.518	3.92
277.891	3.97
278.263	3.86
278.636	3.84
279.009	3.81
279.382	4.1
279.755	3.94
280.127	4.09
280.5	4.09
280.872	4.27
281.245	4.34
281.617	4.48
281.99	4.58
282.362	4.43
282.735	4.14
283.107	4.17
283.479	4.24
283.852	4.17
284.224	4.22
284.596	4.35
284.968	4.5
285.34	4.59
285.713	4.51
286.085	4.63
286.457	4.79
286.829	4.77
287.201	4.73
287.572	4.8
287.944	4.63
288.316	4.55
288.688	4.42
289.06	4.29
289.431	4.15
289.803	4.16
290.175	4.12
290.546	4.35
290.918	4.35
291.289	4.32
291.661	4.38
292.032	4.5
292.403	4.44
292.775	4.46
293.146	4.37
293.517	4.4
293.889	4.42
294.26	4.32
294.631	4.4
295.002	4.41
295.373	4.43
295.744	4.53
296.115	4.51
296.486	4.4
296.857	4.52
297.228	4.64
297.599	4.47
297.97	4.47
298.34	4.5
298.711	4.5
299.082	4.48
299.452	4.5
299.823	4.51
300.194	4.48
300.564	4.36
300.935	4.4
301.305	4.36
301.676	4.28
302.046	4.35
302.416	4.32
302.787	4.29
303.157	4.36
303.527	4.49
303.897	4.59
304.267	4.91
304.637	4.97
305.008	4.84
305.378	5.04
305.748	5.25
306.117	5.25
306.487	5.26
306.857	5.34
307.227	5.22
307.597	5.04
307.967	5.06
308.336	5.3
308.706	5.28
309.076	5.3
309.445	5.27
309.815	5.16
310.184	4.99
310.554	5
310.923	5
311.293	4.87
311.662	4.83
312.031	4.7
312.401	4.66
312.77	4.67
313.139	4.74
313.508	4.59
313.877	4.61
314.246	4.6
314.616	4.54
314.985	4.57
315.353	4.63
315.722	4.67
316.091	4.57
316.46	4.64
316.829	4.75
317.198	4.88
317.567	4.97
317.935	5.17
318.304	5.28
318.672	5.23
319.041	5.36
319.41	5.36
319.778	5.34
320.147	5.35
320.515	5.46
320.883	5.37
321.252	5.41
321.62	5.46
321.988	5.57
322.357	5.66
322.725	5.64
323.093	5.83
323.461	5.86
323.829	5.81
324.197	5.89
324.565	5.86
324.933	5.85
325.301	5.97
325.669	5.96
326.037	5.98
326.405	6.02
326.772	6
327.14	6.09
327.508	6.17
327.875	6.15
328.243	6.19
328.61	6.31
328.978	6.25
329.346	6.25
329.713	6.07
330.08	6.04
330.448	6.08
330.815	5.87
331.182	5.8
331.55	5.84
331.917	5.74
332.284	5.87
332.651	5.73
333.018	5.64
333.385	5.62
333.752	5.68
334.119	5.77
334.486	5.69
334.853	5.72
335.22	5.65
335.587	5.69
335.954	5.58
336.32	5.48
336.687	5.66
337.054	5.74
337.42	5.85
337.787	5.94
338.153	5.93
338.52	6.08
338.886	6.17
339.253	6.23
339.619	6.16
339.986	6.08
340.352	6.22
340.718	6.17
341.084	6.18
341.451	6.17
341.817	6.19
342.183	6.35
342.549	6.2
342.915	6.26
343.281	6.29
343.647	6.33
344.013	6.39
344.379	6.25
344.745	6.21
345.11	6.21
345.476	6.1
345.842	6.25
346.208	6.25
346.573	6.26
346.939	6.32
347.304	6.45
347.67	6.43
348.035	6.38
348.401	6.45
348.766	6.46
349.132	6.42
349.497	6.34
349.862	6.28
350.228	6.38
350.593	6.38
350.958	6.39
351.323	6.43
351.688	6.39
352.053	6.41
352.418	6.37
352.783	6.49
353.148	6.49
353.513	6.37
353.878	6.32
354.243	6.3
354.608	6.18
354.972	6.15
355.337	6.21
355.702	6.38
356.066	6.38
356.431	6.42
356.795	6.41
357.16	6.47
357.524	6.48
357.889	6.44
358.253	6.41
358.618	6.37
358.982	6.32
359.346	6.24
359.71	6.23
360.075	6.26
360.439	6.22
360.803	6.3
361.167	6.27
361.531	6.3
361.895	6.28
362.259	6.26
362.623	6.25
362.987	6.25
363.351	6.14
363.714	6.13
364.078	6.03
364.442	6.01
364.806	5.9
365.169	5.87
365.533	5.86
365.896	5.89
366.26	5.93
366.623	5.95
366.987	5.94
367.35	5.96
367.714	5.93
368.077	5.86
368.44	5.77
368.803	5.79
369.167	5.78
369.53	5.72
369.893	5.74
370.256	5.74
370.619	5.69
370.982	5.64
371.345	5.59
371.708	5.63
372.071	5.6
372.434	5.67
372.797	5.7
373.159	5.68
373.522	5.66
373.885	5.62
374.247	5.65
374.61	5.7
374.973	5.6
375.335	5.56
375.698	5.57
376.06	5.58
376.423	5.55
376.785	5.57
377.147	5.6
377.51	5.58
377.872	5.61
378.234	5.61
378.596	5.58
378.958	5.58
379.321	5.56
379.683	5.56
380.045	5.54
380.407	5.46
380.769	5.47
381.13	5.45
381.492	5.4
381.854	5.34
382.216	5.3
382.578	5.37
382.939	5.34
383.301	5.28
383.663	5.27
384.024	5.24
384.386	5.22
384.747	5.21
385.109	5.18
385.47	5.09
385.832	5.03
386.193	5.08
386.554	5.07
386.916	5.06
387.277	5.06
387.638	5.02
387.999	5.05
388.36	5.03
388.721	5.01
389.082	4.99
389.443	4.99
389.804	4.92
390.165	4.86
390.526	4.87
390.887	4.87
391.248	4.85
391.609	4.85
391.969	4.82
392.33	4.8
392.691	4.79
393.051	4.8
393.412	4.79
393.772	4.75
394.133	4.74
394.493	4.73
394.854	4.71
395.214	4.71
395.574	4.64
395.935	4.61
396.295	4.65
396.655	4.63
397.015	4.61
397.376	4.66
397.736	4.67
398.096	4.7
398.456	4.66
398.816	4.68
399.176	4.65
399.535	4.65
399.895	4.61
400.255	4.57
400.615	4.56
400.975	4.55
401.334	4.53
401.694	4.48
402.054	4.47
402.413	4.44
402.773	4.38
403.132	4.38
403.492	4.41
403.851	4.35
404.211	4.37
404.57	4.34
404.929	4.34
405.288	4.3
405.648	4.24
406.007	4.24
406.366	4.17
406.725	4.19
407.084	4.15
407.443	4.13
407.802	4.17
408.161	4.13
408.52	4.11
408.879	4.11
409.238	4.15
409.596	4.14
409.955	4.11
410.314	4.14
410.673	4.14
411.031	4.11
411.39	4.09
411.748	4.06
412.107	4.06
412.465	4.03
412.824	4.06
413.182	4.06
413.54	4.06
413.899	4.08
414.257	4.06
414.615	4.07
414.974	4.08
415.332	4.04
415.69	4.07
416.048	4.05
416.406	4.04
416.764	4
417.122	3.99
417.48	3.97
417.838	3.96
418.195	3.94
418.553	3.93
418.911	3.93
419.269	3.93
419.626	3.93
419.984	3.93
420.342	3.92
420.699	3.9
421.057	3.91
421.414	3.89
421.772	3.89
422.129	3.88
422.486	3.85
422.844	3.86
423.201	3.84
423.558	3.83
423.915	3.81
424.273	3.81
424.63	3.8
424.987	3.81
425.344	3.81
425.701	3.82
426.058	3.79
426.415	3.79
426.772	3.79
427.128	3.77
427.485	3.77
427.842	3.75
428.199	3.75
428.555	3.74
428.912	3.74
429.269	3.73
429.625	3.73
429.982	3.74
430.338	3.73
430.695	3.73
431.051	3.72
431.407	3.71
431.764	3.72
432.12	3.74
432.476	3.72
432.832	3.72
433.189	3.71
433.545	3.74
433.901	3.73
434.257	3.73
434.613	3.75
434.969	3.73
435.325	3.74
435.681	3.77
436.036	3.76
436.392	3.76
436.748	3.74
437.104	3.72
437.459	3.72
437.815	3.72
438.171	3.71
438.526	3.74
438.882	3.74
439.237	3.73
439.593	3.72
439.948	3.72
440.304	3.7
440.659	3.7
441.014	3.69
441.369	3.67
441.725	3.66
442.08	3.65
442.435	3.65
442.79	3.65
443.145	3.64
443.5	3.63
443.855	3.63
444.21	3.64
444.565	3.66
444.92	3.67
445.275	3.65
445.629	3.64
445.984	3.62
446.339	3.61
446.693	3.59
447.048	3.58
447.403	3.59
447.757	3.59
448.112	3.59
448.466	3.56
448.82	3.56
449.175	3.56
449.529	3.55
449.883	3.54
450.238	3.52
450.592	3.5
450.946	3.47
451.3	3.47
451.654	3.47
452.008	3.45
452.362	3.42
452.716	3.42
453.07	3.45
453.424	3.45
453.778	3.45
454.132	3.45
454.486	3.42
454.839	3.41
455.193	3.42
455.547	3.42
455.9	3.46
456.254	3.48
456.607	3.48
456.961	3.47
457.314	3.49
457.668	3.48
458.021	3.47
458.375	3.49
458.728	3.49
459.081	3.47
459.434	3.47
459.787	3.48
460.141	3.5
460.494	3.48
460.847	3.5
461.2	3.5
461.553	3.51
461.906	3.54
462.259	3.55
462.611	3.55
462.964	3.57
463.317	3.56
463.67	3.54
464.022	3.54
464.375	3.54
464.728	3.54
465.08	3.55
465.433	3.58
465.785	3.58
466.138	3.6
466.49	3.63
466.843	3.64
467.195	3.64
467.547	3.64
467.899	3.65
468.252	3.63
468.604	3.64
468.956	3.65
469.308	3.66
469.66	3.65
470.012	3.65
470.364	3.65
470.716	3.67
471.068	3.69
471.42	3.71
471.772	3.71
472.123	3.71
472.475	3.71
472.827	3.72
473.178	3.73
473.53	3.72
473.882	3.73
474.233	3.74
474.585	3.73
474.936	3.72
475.288	3.71
475.639	3.73
475.99	3.75
476.342	3.76
476.693	3.76
477.044	3.74
477.395	3.77
477.746	3.76
478.097	3.73
478.448	3.73
478.8	3.71
479.15	3.7
479.501	3.7
479.852	3.69
480.203	3.71
480.554	3.71
480.905	3.71
481.255	3.69
481.606	3.7
481.957	3.71
482.307	3.72
482.658	3.71
483.009	3.71
483.359	3.7
483.709	3.71
484.06	3.71
484.41	3.73
484.761	3.72
485.111	3.72
485.461	3.73
485.811	3.74
486.162	3.75
486.512	3.76
486.862	3.77
487.212	3.76
487.562	3.76
487.912	3.76
488.262	3.77
488.612	3.77
488.961	3.77
489.311	3.78
489.661	3.77
490.011	3.79
490.36	3.78
490.71	3.78
491.06	3.77
491.409	3.75
491.759	3.74
492.108	3.75
492.458	3.75
492.807	3.75
493.157	3.75
493.506	3.75
493.855	3.75
494.204	3.77
494.554	3.79
494.903	3.79
495.252	3.78
495.601	3.8
495.95	3.83
496.299	3.82
496.648	3.83
496.997	3.86
497.346	3.86
497.695	3.88
498.043	3.92
498.392	3.94
498.741	4
499.09	4.01
499.438	4.04
499.787	4.07
500.135	4.11
500.484	4.12
500.832	4.15
501.181	4.17
501.529	4.18
501.878	4.22
502.226	4.27
502.574	4.31
502.923	4.34
503.271	4.36
503.619	4.4
503.967	4.41
504.315	4.41
504.663	4.47
505.011	4.5
505.359	4.52
505.707	4.59
506.055	4.6
506.403	4.66
506.751	4.7
507.098	4.71
507.446	4.72
507.794	4.76
508.141	4.81
508.489	4.86
508.837	4.9
509.184	4.91
509.531	4.93
509.879	4.99
510.226	5.03
510.574	5.05
510.921	5.09
511.268	5.14
511.616	5.19
511.963	5.22
512.31	5.27
512.657	5.31
513.004	5.34
513.351	5.41
513.698	5.45
514.045	5.48
514.392	5.55
514.739	5.61
515.086	5.69
515.432	5.72
515.779	5.76
516.126	5.82
516.473	5.89
516.819	5.94
517.166	5.97
517.512	6.01
517.859	6.05
518.205	6.09
518.552	6.15
518.898	6.19
519.245	6.24
519.591	6.31
519.937	6.35
520.283	6.38
520.629	6.41
520.976	6.47
521.322	6.52
521.668	6.59
522.014	6.66
522.36	6.72
522.706	6.81
523.052	6.88
523.398	6.95
523.743	7.03
524.089	7.11
524.435	7.2
524.781	7.29
525.126	7.4
525.472	7.47
525.817	7.54
526.163	7.6
526.509	7.65
526.854	7.69
527.199	7.75
527.545	7.82
527.89	7.87
528.235	7.93
528.581	8
528.926	8.05
529.271	8.11
529.616	8.18
529.961	8.24
530.306	8.32
530.651	8.4
530.996	8.47
531.341	8.54
531.686	8.63
532.031	8.72
532.376	8.82
532.721	8.92
533.065	9.01
533.41	9.11
533.755	9.23
534.099	9.37
534.444	9.49
534.788	9.6
535.133	9.72
535.477	9.86
535.822	9.98
536.166	10.13
536.51	10.29
536.855	10.47
537.199	10.63
537.543	10.81
537.887	11
538.231	11.18
538.576	11.4
538.92	11.58
539.264	11.77
539.608	11.91
539.951	12.06
540.295	12.23
540.639	12.38
540.983	12.54
541.327	12.67
541.671	12.81
542.014	12.96
542.358	13.11
542.701	13.26
543.045	13.4
543.389	13.57
543.732	13.72
544.075	13.86
544.419	14.02
544.762	14.18
545.105	14.33
545.449	14.5
545.792	14.67
546.135	14.87
546.478	15.07
546.821	15.31
547.165	15.52
547.508	15.75
547.851	16.02
548.194	16.25
548.536	16.49
548.879	16.77
549.222	17
549.565	17.23
549.908	17.46
550.25	17.73
550.593	17.94
550.936	18.19
551.278	18.5
551.621	18.8
551.963	19.09
552.306	19.38
552.648	19.64
552.991	19.94
553.333	20.21
553.675	20.4
554.017	20.62
554.36	20.9
554.702	21.16
555.044	21.39
555.386	21.63
555.728	21.92
556.07	22.17
556.412	22.43
556.754	22.72
557.096	22.98
557.438	23.27
557.78	23.56
558.121	23.86
558.463	24.11
558.805	24.36
559.147	24.58
559.488	24.82
559.83	25.08
560.171	25.29
560.513	25.55
560.854	25.82
561.196	26.06
561.537	26.28
561.878	26.5
562.22	26.72
562.561	26.93
562.902	27.12
563.243	27.37
563.584	27.61
563.925	27.87
564.266	28.09
564.607	28.29
564.948	28.53
565.289	28.71
565.63	28.88
565.971	29.08
566.312	29.27
566.653	29.5
566.993	29.67
567.334	29.88
567.675	30.04
568.015	30.25
568.356	30.43
568.696	30.64
569.037	30.86
569.377	31.02
569.718	31.27
570.058	31.5
570.398	31.64
570.739	31.84
571.079	31.97
571.419	32.17
571.759	32.34
572.099	32.49
572.439	32.68
572.779	32.85
573.119	32.98
573.459	33.17
573.799	33.33
574.139	33.46
574.479	33.63
574.819	33.8
575.158	33.96
575.498	34.14
575.838	34.25
576.177	34.38
576.517	34.59
576.856	34.73
577.196	34.85
577.535	35.01
577.875	35.15
578.214	35.34
578.553	35.49
578.893	35.68
579.232	35.83
579.571	35.92
579.91	36.09
580.25	36.33
580.589	36.48
580.928	36.62
581.267	36.84
581.606	36.96
581.945	37.12
582.283	37.2
582.622	37.33
582.961	37.51
583.3	37.67
583.639	37.76
583.977	37.87
584.316	38.06
584.654	38.21
584.993	38.34
585.332	38.47
585.67	38.62
586.008	38.78
586.347	38.97
586.685	39.13
587.024	39.34
587.362	39.38
587.7	39.42
588.038	39.57
588.376	39.66
588.715	39.83
589.053	39.89
589.391	40.07
589.729	40.21
590.067	40.28
590.404	40.36
590.742	40.55
591.08	40.63
591.418	40.77
591.756	40.85
592.093	40.98
592.431	41.09
592.769	41.2
593.106	41.27
593.444	41.31
593.781	41.42
594.119	41.47
594.456	41.55
594.793	41.7
595.131	41.75
595.468	41.82
595.805	41.81
596.143	41.91
596.48	41.97
596.817	42
597.154	42.12
597.491	42.22
597.828	42.23
598.165	42.36
598.502	42.38
598.839	42.46
599.176	42.58
599.512	42.69
599.849	42.75
600.186	42.79
600.523	42.88
600.859	42.97
601.196	43.04
601.532	43.17
601.869	43.23
602.205	43.32
602.542	43.47
602.878	43.6
603.215	43.64
603.551	43.76
603.887	43.87
604.223	44
604.56	44.09
604.896	44.15
605.232	44.25
605.568	44.32
605.904	44.42
606.24	44.39
606.576	44.46
606.912	44.55
607.248	44.63
607.583	44.7
607.919	44.81
608.255	44.85
608.591	44.92
608.926	45.04
609.262	45.1
609.597	45.11
609.933	45.1
610.268	45.21
610.604	45.27
610.939	45.31
611.275	45.27
611.61	45.22
611.945	45.34
612.281	45.3
612.616	45.35
612.951	45.41
613.286	45.53
613.621	45.55
613.956	45.56
614.291	45.57
614.626	45.61
614.961	45.58
615.296	45.65
615.631	45.63
615.966	45.7
616.3	45.74
616.635	45.79
616.97	46
617.304	46.05
617.639	46.08
617.973	46.12
618.308	46.13
618.642	46.29
618.977	46.26
619.311	46.39
619.646	46.45
619.98	46.48
620.314	46.5
620.648	46.57
620.983	46.62
621.317	46.71
621.651	46.74
621.985	46.83
622.319	46.92
622.653	46.93
622.987	46.93
623.321	47.04
623.655	47.07
623.988	47.09
624.322	47.15
624.656	47.21
624.99	47.27
625.323	47.4
625.657	47.35
625.99	47.39
626.324	47.37
626.657	47.38
626.991	47.34
627.324	47.35
627.658	47.36
627.991	47.42
628.324	47.47
628.657	47.58
628.991	47.64
629.324	47.68
629.657	47.81
629.99	47.9
630.323	47.89
630.656	48.01
630.989	48.02
631.322	48.06
631.655	48.18
631.987	48.22
632.32	48.19
632.653	48.27
632.986	48.33
633.318	48.33
633.651	48.36
633.984	48.45
634.316	48.56
634.649	48.53
634.981	48.57
635.313	48.6
635.646	48.6
635.978	48.61
636.31	48.52
636.643	48.52
636.975	48.49
637.307	48.55
637.639	48.53
637.971	48.49
638.303	48.43
638.635	48.39
638.967	48.46
639.299	48.55
639.631	48.48
639.963	48.5
640.295	48.59
640.626	48.67
640.958	48.73
641.29	48.82
641.621	49
641.953	48.98
642.285	49.02
642.616	49.09
642.948	49.11
643.279	49.17
643.61	49.24
643.942	49.32
644.273	49.35
644.604	49.38
644.936	49.5
645.267	49.63
645.598	49.63
645.929	49.6
646.26	49.6
646.591	49.78
646.922	49.8
647.253	49.77
647.584	49.79
647.915	49.76
648.245	49.71
648.576	49.59
648.907	49.55
649.238	49.6
649.568	49.57
649.899	49.66
650.229	49.71
650.56	49.67
650.89	49.7
651.221	49.62
651.551	49.65
651.882	49.61
652.212	49.57
652.542	49.56
652.872	49.61
653.203	49.66
653.533	49.6
653.863	49.65
654.193	49.74
654.523	49.78
654.853	49.75
655.183	49.79
655.513	49.89
655.843	50.04
656.172	49.98
656.502	49.99
656.832	50.02
657.162	50.13
657.491	50.11
657.821	50.16
658.15	50.26
658.48	50.31
658.809	50.42
659.139	50.51
659.468	50.6
659.798	50.57
660.127	50.57
660.456	50.64
660.785	50.68
661.115	50.69
661.444	50.76
661.773	50.89
662.102	50.88
662.431	50.85
662.76	50.88
663.089	50.94
663.418	51.02
663.747	50.99
664.076	51.02
664.404	51.08
664.733	51.02
665.062	51.04
665.39	51.03
665.719	50.99
666.048	50.93
666.376	50.96
666.705	51.01
667.033	51.11
667.362	51.13
667.69	51.18
668.018	51.16
668.347	51.21
668.675	51.37
669.003	51.52
669.331	51.54
