Data from BA28302_Reflection_00012.txt Node
Date: Mon Nov 18 15:48:57 EST 2019
User: vgr7
Spectrometer: USB2G7710
Scans to average: 3
Trigger mode: 4
Integration Time (sec): 2.000000E-2
Electric dark correction enabled: true
Boxcar width: 10
XAxis mode: Wavelengths
Number of Pixels in Spectrum: 2048
>>>>>Begin Spectral Data<<<<<
177.721	406.62
178.105	-191.34
178.488	-555.1
178.871	-255.47
179.254	1489.83
179.636	-505.26
180.019	66.53
180.402	79.55
180.785	34.43
181.168	668.18
181.55	-766.24
181.933	256.6
182.316	165.44
182.698	173.16
183.081	222.51
183.463	483.6
183.846	351.51
184.228	387.69
184.611	307.66
184.993	737.73
185.376	-64757.14
185.758	4416.83
186.14	-7834.43
186.522	989.29
186.904	1683.6
187.287	1013.88
187.669	882.32
188.051	747.14
188.433	1581.27
188.815	1204.68
189.197	3958.41
189.579	-15660
189.961	6676.27
190.342	1734.98
190.724	-983.16
191.106	5248.51
191.488	532.32
191.869	506.71
192.251	688.24
192.633	6578.87
193.014	1454.11
193.396	901.87
193.777	17824.14
194.159	-9136.36
194.54	-590.51
194.922	-442.56
195.303	-547.26
195.684	-386.59
196.065	-318.17
196.447	-284.92
196.828	-311.81
197.209	-374.23
197.59	-2040.22
197.971	-3403.45
198.352	-309.12
198.733	-836.9
199.114	-292.83
199.495	-165.71
199.876	-194.88
200.257	-228.93
200.638	-247.4
201.018	-211.39
201.399	-222.05
201.78	-262.65
202.16	-231.83
202.541	-367.29
202.922	-1270.28
203.302	-848.19
203.683	-556.4
204.063	-761.08
204.444	-1398.83
204.824	-6537.36
205.204	-1584.51
205.585	-527.41
205.965	-381.73
206.345	-651.74
206.725	-781.44
207.106	9874.65
207.486	1747.86
207.866	1261.84
208.246	3696.06
208.626	4412.85
209.006	1625.27
209.386	2034.25
209.766	-3074.09
210.145	-1404.62
210.525	-687.82
210.905	-359.36
211.285	-370.03
211.664	-317.62
212.044	-314.32
212.424	-233.23
212.803	-199.53
213.183	-224.84
213.562	-196.47
213.942	-220.62
214.321	-166.47
214.701	-196.92
215.08	-183.76
215.459	-162.48
215.838	-135.27
216.218	-127.46
216.597	-110.11
216.976	-108.98
217.355	-110.97
217.734	-121.05
218.113	-136.24
218.492	-119.3
218.871	-138.47
219.25	-101.01
219.629	-128.06
220.008	-119.46
220.387	-134.7
220.766	-132.21
221.144	-125.44
221.523	-146.64
221.902	-116.27
222.28	-149.03
222.659	-93.38
223.037	-74.48
223.416	-59.72
223.794	-48.16
224.173	-47.47
224.551	-41.05
224.929	-38.16
225.308	-31.96
225.686	-30.98
226.064	-25.79
226.442	-23.61
226.821	-14.88
227.199	-13.75
227.577	-12.33
227.955	-10.89
228.333	-7.86
228.711	-4.99
229.089	0.34
229.467	-0.93
229.845	-1.02
230.222	2.58
230.6	-1.68
230.978	-3.48
231.356	-3.32
231.733	-3.99
232.111	-1.18
232.488	0.15
232.866	1.84
233.243	0.76
233.621	0.29
233.998	0.28
234.376	-0.06
234.753	0.24
235.13	-0.42
235.508	0.88
235.885	0.97
236.262	1.8
236.639	0.37
237.016	-0.9
237.393	1.27
237.77	1.93
238.147	2.45
238.524	2.57
238.901	3.77
239.278	4.36
239.655	4.66
240.032	3.76
240.409	2.37
240.785	2.32
241.162	2.71
241.539	3.02
241.915	3.07
242.292	2.88
242.668	2.68
243.045	2.85
243.421	3
243.798	2.66
244.174	2.56
244.551	2.93
244.927	3.12
245.303	3.48
245.679	3.54
246.056	3.54
246.432	3.66
246.808	3.53
247.184	3.32
247.56	3.28
247.936	3.39
248.312	3.63
248.688	3.55
249.064	3.5
249.44	3.37
249.815	3.48
250.191	3.29
250.567	3.33
250.943	3.28
251.318	3.31
251.694	3.55
252.069	3.56
252.445	3.63
252.82	3.45
253.196	2.91
253.571	2.87
253.947	2.52
254.322	2.5
254.697	2.28
255.073	1.97
255.448	1.96
255.823	2.21
256.198	2.44
256.573	2.59
256.948	2.79
257.323	3.13
257.698	3.29
258.073	3.66
258.448	3.65
258.823	3.7
259.198	3.51
259.573	3.46
259.948	3.48
260.322	3.37
260.697	3.25
261.072	3.19
261.446	3.29
261.821	3.24
262.195	3.33
262.57	3.36
262.944	3.39
263.319	3.36
263.693	3.19
264.067	3.22
264.442	3.15
264.816	3.05
265.19	2.98
265.564	2.72
265.938	2.59
266.313	2.53
266.687	2.5
267.061	2.74
267.435	2.83
267.809	2.8
268.183	2.82
268.556	2.96
268.93	3.24
269.304	3.03
269.678	3.23
270.051	3.23
270.425	3.37
270.799	3.57
271.172	3.56
271.546	3.59
271.919	3.5
272.293	3.59
272.666	3.65
273.04	3.62
273.413	3.71
273.787	3.76
274.16	3.89
274.533	3.94
274.906	3.72
275.279	3.71
275.653	3.78
276.026	3.75
276.399	3.75
276.772	3.65
277.145	3.54
277.518	3.55
277.891	3.54
278.263	3.48
278.636	3.42
279.009	3.51
279.382	3.62
279.755	3.69
280.127	3.85
280.5	3.89
280.872	3.85
281.245	3.87
281.617	3.99
281.99	3.89
282.362	3.9
282.735	4.07
283.107	3.96
283.479	3.91
283.852	3.94
284.224	4.04
284.596	4.01
284.968	4.23
285.34	4.22
285.713	4.24
286.085	4.26
286.457	4.33
286.829	4.27
287.201	4.31
287.572	4.28
287.944	4.19
288.316	4
288.688	3.94
289.06	3.9
289.431	3.82
289.803	3.76
290.175	3.68
290.546	3.68
290.918	3.75
291.289	3.73
291.661	3.78
292.032	3.81
292.403	3.92
292.775	3.91
293.146	3.78
293.517	3.73
293.889	3.81
294.26	3.7
294.631	3.76
295.002	3.75
295.373	3.68
295.744	3.66
296.115	3.83
296.486	3.86
296.857	3.8
297.228	3.8
297.599	3.89
297.97	3.98
298.34	3.99
298.711	4.1
299.082	4.03
299.452	4.12
299.823	4.17
300.194	4
300.564	4.02
300.935	4.15
301.305	4.17
301.676	4.08
302.046	4.18
302.416	4.25
302.787	4.23
303.157	4.37
303.527	4.37
303.897	4.31
304.267	4.34
304.637	4.48
305.008	4.41
305.378	4.34
305.748	4.26
306.117	4.17
306.487	4.05
306.857	4.19
307.227	4.05
307.597	3.99
307.967	4.06
308.336	4.01
308.706	4.02
309.076	4.07
309.445	3.99
309.815	4.02
310.184	3.91
310.554	3.94
310.923	3.93
311.293	3.88
311.662	3.87
312.031	3.8
312.401	3.7
312.77	3.79
313.139	3.95
313.508	4.05
313.877	4.06
314.246	4.01
314.616	3.99
314.985	3.98
315.353	3.88
315.722	4.01
316.091	3.86
316.46	3.81
316.829	3.72
317.198	3.86
317.567	3.73
317.935	3.73
318.304	3.8
318.672	3.84
319.041	3.98
319.41	4
319.778	4.13
320.147	4.3
320.515	4.27
320.883	4.18
321.252	4.22
321.62	4.2
321.988	4.36
322.357	4.41
322.725	4.47
323.093	4.58
323.461	4.59
323.829	4.69
324.197	4.6
324.565	4.67
324.933	4.7
325.301	4.77
325.669	4.85
326.037	4.72
326.405	4.67
326.772	4.69
327.14	4.9
327.508	4.87
327.875	4.81
328.243	4.87
328.61	4.85
328.978	4.8
329.346	4.81
329.713	4.81
330.08	4.79
330.448	4.73
330.815	4.56
331.182	4.53
331.55	4.5
331.917	4.69
332.284	4.76
332.651	4.7
333.018	4.78
333.385	4.67
333.752	4.76
334.119	4.77
334.486	4.73
334.853	4.56
335.22	4.61
335.587	4.62
335.954	4.59
336.32	4.5
336.687	4.57
337.054	4.64
337.42	4.68
337.787	4.66
338.153	4.68
338.52	4.91
338.886	4.74
339.253	4.78
339.619	4.74
339.986	4.72
340.352	4.81
340.718	4.74
341.084	4.81
341.451	4.9
341.817	4.94
342.183	4.88
342.549	4.83
342.915	4.92
343.281	4.87
343.647	4.85
344.013	4.94
344.379	4.87
344.745	4.87
345.11	4.77
345.476	4.77
345.842	4.87
346.208	4.76
346.573	4.91
346.939	5
347.304	4.95
347.67	4.93
348.035	4.86
348.401	4.93
348.766	5.01
349.132	4.92
349.497	4.86
349.862	4.92
350.228	5.01
350.593	4.95
350.958	4.92
351.323	5
351.688	4.94
352.053	5.04
352.418	5.13
352.783	5.13
353.148	5.2
353.513	5.12
353.878	5.15
354.243	5.19
354.608	5.14
354.972	5.14
355.337	5.21
355.702	5.27
356.066	5.24
356.431	5.2
356.795	5.18
357.16	5.27
357.524	5.2
357.889	5.21
358.253	5.23
358.618	5.2
358.982	5.2
359.346	5.26
359.71	5.19
360.075	5.1
360.439	5.15
360.803	5.11
361.167	5.05
361.531	5.06
361.895	5.01
362.259	5.01
362.623	5.02
362.987	4.97
363.351	5
363.714	5
364.078	4.97
364.442	4.98
364.806	4.86
365.169	4.92
365.533	4.85
365.896	4.85
366.26	4.94
366.623	4.87
366.987	4.81
367.35	4.78
367.714	4.83
368.077	4.79
368.44	4.8
368.803	4.82
369.167	4.82
369.53	4.85
369.893	4.86
370.256	4.86
370.619	4.88
370.982	4.82
371.345	4.79
371.708	4.77
372.071	4.77
372.434	4.82
372.797	4.79
373.159	4.79
373.522	4.76
373.885	4.71
374.247	4.73
374.61	4.76
374.973	4.74
375.335	4.69
375.698	4.65
376.06	4.63
376.423	4.62
376.785	4.56
377.147	4.55
377.51	4.53
377.872	4.53
378.234	4.45
378.596	4.42
378.958	4.4
379.321	4.43
379.683	4.44
380.045	4.38
380.407	4.33
380.769	4.31
381.13	4.24
381.492	4.22
381.854	4.16
382.216	4.13
382.578	4.14
382.939	4.15
383.301	4.13
383.663	4.08
384.024	4.05
384.386	4.1
384.747	4.06
385.109	4.06
385.47	3.99
385.832	4
386.193	3.99
386.554	3.96
386.916	3.93
387.277	3.95
387.638	3.96
387.999	3.97
388.36	3.95
388.721	3.99
389.082	3.98
389.443	3.99
389.804	3.97
390.165	3.95
390.526	3.91
390.887	3.9
391.248	3.92
391.609	3.92
391.969	3.88
392.33	3.87
392.691	3.86
393.051	3.85
393.412	3.83
393.772	3.82
394.133	3.83
394.493	3.82
394.854	3.78
395.214	3.77
395.574	3.75
395.935	3.76
396.295	3.75
396.655	3.71
397.015	3.7
397.376	3.69
397.736	3.67
398.096	3.67
398.456	3.68
398.816	3.66
399.176	3.62
399.535	3.61
399.895	3.6
400.255	3.6
400.615	3.59
400.975	3.61
401.334	3.58
401.694	3.54
402.054	3.5
402.413	3.5
402.773	3.47
403.132	3.47
403.492	3.47
403.851	3.43
404.211	3.46
404.57	3.46
404.929	3.48
405.288	3.48
405.648	3.49
406.007	3.5
406.366	3.49
406.725	3.54
407.084	3.54
407.443	3.54
407.802	3.56
408.161	3.56
408.52	3.55
408.879	3.54
409.238	3.58
409.596	3.59
409.955	3.57
410.314	3.59
410.673	3.58
411.031	3.58
411.39	3.6
411.748	3.59
412.107	3.6
412.465	3.58
412.824	3.57
413.182	3.53
413.54	3.52
413.899	3.54
414.257	3.49
414.615	3.45
414.974	3.47
415.332	3.42
415.69	3.43
416.048	3.42
416.406	3.43
416.764	3.41
417.122	3.41
417.48	3.4
417.838	3.41
418.195	3.42
418.553	3.41
418.911	3.4
419.269	3.39
419.626	3.37
419.984	3.38
420.342	3.37
420.699	3.36
421.057	3.36
421.414	3.34
421.772	3.34
422.129	3.36
422.486	3.34
422.844	3.35
423.201	3.34
423.558	3.34
423.915	3.34
424.273	3.33
424.63	3.33
424.987	3.32
425.344	3.3
425.701	3.29
426.058	3.29
426.415	3.29
426.772	3.28
427.128	3.27
427.485	3.25
427.842	3.25
428.199	3.28
428.555	3.27
428.912	3.3
429.269	3.3
429.625	3.28
429.982	3.28
430.338	3.25
430.695	3.26
431.051	3.26
431.407	3.25
431.764	3.26
432.12	3.26
432.476	3.25
432.832	3.24
433.189	3.22
433.545	3.21
433.901	3.2
434.257	3.2
434.613	3.22
434.969	3.22
435.325	3.22
435.681	3.19
436.036	3.19
436.392	3.2
436.748	3.19
437.104	3.19
437.459	3.19
437.815	3.21
438.171	3.2
438.526	3.19
438.882	3.21
439.237	3.21
439.593	3.2
439.948	3.21
440.304	3.21
440.659	3.21
441.014	3.23
441.369	3.22
441.725	3.22
442.08	3.23
442.435	3.24
442.79	3.25
443.145	3.26
443.5	3.24
443.855	3.24
444.21	3.24
444.565	3.25
444.92	3.27
445.275	3.26
445.629	3.26
445.984	3.26
446.339	3.24
446.693	3.22
447.048	3.22
447.403	3.21
447.757	3.22
448.112	3.23
448.466	3.22
448.82	3.23
449.175	3.24
449.529	3.23
449.883	3.22
450.238	3.2
450.592	3.18
450.946	3.19
451.3	3.18
451.654	3.16
452.008	3.15
452.362	3.13
452.716	3.13
453.07	3.13
453.424	3.12
453.778	3.12
454.132	3.13
454.486	3.12
454.839	3.14
455.193	3.12
455.547	3.12
455.9	3.11
456.254	3.11
456.607	3.1
456.961	3.1
457.314	3.12
457.668	3.13
458.021	3.15
458.375	3.14
458.728	3.16
459.081	3.18
459.434	3.16
459.787	3.16
460.141	3.16
460.494	3.15
460.847	3.16
461.2	3.17
461.553	3.17
461.906	3.19
462.259	3.17
462.611	3.2
462.964	3.21
463.317	3.21
463.67	3.22
464.022	3.21
464.375	3.22
464.728	3.21
465.08	3.2
465.433	3.21
465.785	3.2
466.138	3.19
466.49	3.18
466.843	3.19
467.195	3.19
467.547	3.2
467.899	3.2
468.252	3.17
468.604	3.19
468.956	3.18
469.308	3.17
469.66	3.18
470.012	3.18
470.364	3.18
470.716	3.17
471.068	3.19
471.42	3.18
471.772	3.2
472.123	3.2
472.475	3.18
472.827	3.18
473.178	3.19
473.53	3.19
473.882	3.18
474.233	3.18
474.585	3.19
474.936	3.16
475.288	3.18
475.639	3.2
475.99	3.19
476.342	3.18
476.693	3.19
477.044	3.2
477.395	3.19
477.746	3.19
478.097	3.2
478.448	3.19
478.8	3.2
479.15	3.18
479.501	3.19
479.852	3.2
480.203	3.2
480.554	3.2
480.905	3.22
481.255	3.23
481.606	3.24
481.957	3.25
482.307	3.25
482.658	3.26
483.009	3.27
483.359	3.27
483.709	3.29
484.06	3.29
484.41	3.29
484.761	3.3
485.111	3.3
485.461	3.3
485.811	3.3
486.162	3.31
486.512	3.32
486.862	3.32
487.212	3.32
487.562	3.32
487.912	3.33
488.262	3.32
488.612	3.32
488.961	3.32
489.311	3.32
489.661	3.33
490.011	3.32
490.36	3.31
490.71	3.31
491.06	3.29
491.409	3.29
491.759	3.28
492.108	3.28
492.458	3.28
492.807	3.27
493.157	3.28
493.506	3.27
493.855	3.26
494.204	3.26
494.554	3.27
494.903	3.26
495.252	3.26
495.601	3.25
495.95	3.27
496.299	3.26
496.648	3.25
496.997	3.24
497.346	3.25
497.695	3.27
498.043	3.27
498.392	3.28
498.741	3.28
499.09	3.28
499.438	3.27
499.787	3.27
500.135	3.28
500.484	3.29
500.832	3.31
501.181	3.31
501.529	3.33
501.878	3.34
502.226	3.35
502.574	3.37
502.923	3.39
503.271	3.38
503.619	3.41
503.967	3.42
504.315	3.45
504.663	3.46
505.011	3.47
505.359	3.46
505.707	3.48
506.055	3.49
506.403	3.48
506.751	3.49
507.098	3.51
507.446	3.54
507.794	3.56
508.141	3.56
508.489	3.58
508.837	3.59
509.184	3.61
509.531	3.62
509.879	3.63
510.226	3.65
510.574	3.67
510.921	3.66
511.268	3.66
511.616	3.67
511.963	3.66
512.31	3.68
512.657	3.7
513.004	3.74
513.351	3.74
513.698	3.77
514.045	3.78
514.392	3.81
514.739	3.81
515.086	3.84
515.432	3.83
515.779	3.83
516.126	3.85
516.473	3.87
516.819	3.88
517.166	3.88
517.512	3.9
517.859	3.91
518.205	3.94
518.552	3.98
518.898	4
519.245	4.02
519.591	4.02
519.937	4.04
520.283	4.03
520.629	4.06
520.976	4.07
521.322	4.09
521.668	4.09
522.014	4.1
522.36	4.11
522.706	4.14
523.052	4.17
523.398	4.18
523.743	4.2
524.089	4.23
524.435	4.27
524.781	4.29
525.126	4.31
525.472	4.34
525.817	4.35
526.163	4.38
526.509	4.41
526.854	4.44
527.199	4.46
527.545	4.48
527.89	4.5
528.235	4.53
528.581	4.56
528.926	4.58
529.271	4.61
529.616	4.63
529.961	4.66
530.306	4.7
530.651	4.73
530.996	4.76
531.341	4.8
531.686	4.83
532.031	4.85
532.376	4.89
532.721	4.92
533.065	4.96
533.41	4.99
533.755	5.03
534.099	5.09
534.444	5.14
534.788	5.18
535.133	5.24
535.477	5.29
535.822	5.34
536.166	5.4
536.51	5.49
536.855	5.55
537.199	5.62
537.543	5.69
537.887	5.77
538.231	5.86
538.576	5.94
538.92	6.01
539.264	6.09
539.608	6.17
539.951	6.27
540.295	6.37
540.639	6.46
540.983	6.55
541.327	6.62
541.671	6.71
542.014	6.8
542.358	6.88
542.701	6.98
543.045	7.08
543.389	7.18
543.732	7.26
544.075	7.38
544.419	7.49
544.762	7.59
545.105	7.72
545.449	7.84
545.792	7.97
546.135	8.13
546.478	8.3
546.821	8.48
547.165	8.64
547.508	8.81
547.851	8.97
548.194	9.14
548.536	9.36
548.879	9.56
549.222	9.78
549.565	10
549.908	10.2
550.25	10.42
550.593	10.67
550.936	10.91
551.278	11.17
551.621	11.45
551.963	11.72
552.306	11.97
552.648	12.22
552.991	12.51
553.333	12.81
553.675	13.05
554.017	13.33
554.36	13.62
554.702	13.89
555.044	14.16
555.386	14.46
555.728	14.72
556.07	15.05
556.412	15.35
556.754	15.71
557.096	16.06
557.438	16.38
557.78	16.74
558.121	17.16
558.463	17.48
558.805	17.83
559.147	18.16
559.488	18.5
559.83	18.89
560.171	19.23
560.513	19.57
560.854	19.94
561.196	20.24
561.537	20.61
561.878	20.94
562.22	21.35
562.561	21.71
562.902	22.08
563.243	22.42
563.584	22.77
563.925	23.1
564.266	23.47
564.607	23.8
564.948	24.13
565.289	24.41
565.63	24.77
565.971	25.14
566.312	25.51
566.653	25.92
566.993	26.2
567.334	26.53
567.675	26.89
568.015	27.22
568.356	27.62
568.696	27.98
569.037	28.35
569.377	28.64
569.718	29
570.058	29.37
570.398	29.71
570.739	29.99
571.079	30.35
571.419	30.65
571.759	31.03
572.099	31.37
572.439	31.69
572.779	32
573.119	32.29
573.459	32.58
573.799	32.83
574.139	33.12
574.479	33.4
574.819	33.67
575.158	33.9
575.498	34.2
575.838	34.49
576.177	34.75
576.517	35.09
576.856	35.37
577.196	35.64
577.535	35.94
577.875	36.31
578.214	36.54
578.553	36.88
578.893	37.12
579.232	37.36
579.571	37.7
579.91	37.96
580.25	38.16
580.589	38.47
580.928	38.76
581.267	39.05
581.606	39.4
581.945	39.66
582.283	40.02
582.622	40.19
582.961	40.4
583.3	40.7
583.639	40.91
583.977	41.16
584.316	41.42
584.654	41.69
584.993	41.91
585.332	42.19
585.67	42.35
586.008	42.63
586.347	42.82
586.685	43.04
587.024	43.22
587.362	43.49
587.7	43.76
588.038	43.95
588.376	44.17
588.715	44.39
589.053	44.65
589.391	44.86
589.729	45.11
590.067	45.37
590.404	45.59
590.742	45.79
591.08	45.95
591.418	46.06
591.756	46.17
592.093	46.45
592.431	46.66
592.769	46.86
593.106	47.08
593.444	47.21
593.781	47.36
594.119	47.59
594.456	47.79
594.793	47.86
595.131	48.05
595.468	48.22
595.805	48.31
596.143	48.4
596.48	48.56
596.817	48.72
597.154	48.84
597.491	48.97
597.828	49.17
598.165	49.34
598.502	49.59
598.839	49.76
599.176	49.83
599.512	50
599.849	50.2
600.186	50.27
600.523	50.44
600.859	50.64
601.196	50.78
601.532	50.98
601.869	51.14
602.205	51.3
602.542	51.41
602.878	51.54
603.215	51.66
603.551	51.77
603.887	51.86
604.223	51.92
604.56	52.04
604.896	52.1
605.232	52.2
605.568	52.3
605.904	52.41
606.24	52.57
606.576	52.7
606.912	52.77
607.248	52.94
607.583	53.08
607.919	53.13
608.255	53.25
608.591	53.26
608.926	53.36
609.262	53.47
609.597	53.6
609.933	53.72
610.268	53.87
610.604	53.95
610.939	54.06
611.275	54.2
611.61	54.35
611.945	54.47
612.281	54.53
612.616	54.65
612.951	54.75
613.286	54.84
613.621	54.93
613.956	55.13
614.291	55.28
614.626	55.44
614.961	55.62
615.296	55.72
615.631	55.87
615.966	55.99
616.3	56.06
616.635	56.15
616.97	56.22
617.304	56.24
617.639	56.26
617.973	56.31
618.308	56.35
618.642	56.4
618.977	56.46
619.311	56.62
619.646	56.62
619.98	56.67
620.314	56.65
620.648	56.74
620.983	56.75
621.317	56.73
621.651	56.81
621.985	56.9
622.319	57.1
622.653	57.12
622.987	57.13
623.321	57.24
623.655	57.36
623.988	57.45
624.322	57.61
624.656	57.76
624.99	57.9
625.323	58.11
625.657	58.19
625.99	58.25
626.324	58.3
626.657	58.43
626.991	58.55
627.324	58.65
627.658	58.63
627.991	58.67
628.324	58.76
628.657	58.88
628.991	58.92
629.324	58.85
629.657	59.05
629.99	59.08
630.323	59.05
630.656	59.1
630.989	59.17
631.322	59.19
631.655	59.07
631.987	59.12
632.32	58.98
632.653	59.04
632.986	59.13
633.318	59.14
633.651	59.13
633.984	59.13
634.316	59.23
634.649	59.34
634.981	59.38
635.313	59.46
635.646	59.44
635.978	59.44
636.31	59.44
636.643	59.42
636.975	59.54
637.307	59.63
637.639	59.59
637.971	59.65
638.303	59.68
638.635	59.88
638.967	60
639.299	60.19
639.631	60.15
639.963	60.18
640.295	60.19
640.626	60.26
640.958	60.41
641.29	60.38
641.621	60.39
641.953	60.45
642.285	60.46
642.616	60.53
642.948	60.62
643.279	60.76
643.61	60.84
643.942	61.01
644.273	60.97
644.604	60.98
644.936	60.98
645.267	61.1
645.598	61.04
645.929	60.95
646.26	60.96
646.591	61.05
646.922	61.04
647.253	61.02
647.584	61.1
647.915	61.11
648.245	61.19
648.576	61.3
648.907	61.32
649.238	61.36
649.568	61.42
649.899	61.37
650.229	61.39
650.56	61.39
650.89	61.37
651.221	61.51
651.551	61.61
651.882	61.59
652.212	61.59
652.542	61.75
652.872	61.94
653.203	62.05
653.533	62.07
653.863	62.15
654.193	62.33
654.523	62.4
654.853	62.42
655.183	62.48
655.513	62.5
655.843	62.62
656.172	62.6
656.502	62.68
656.832	62.84
657.162	62.9
657.491	62.95
657.821	62.96
658.15	62.98
658.48	63.06
658.809	63.22
659.139	63.28
659.468	63.31
659.798	63.27
660.127	63.25
660.456	63.3
660.785	63.31
661.115	63.31
661.444	63.29
661.773	63.39
662.102	63.47
662.431	63.55
662.76	63.53
663.089	63.53
663.418	63.43
663.747	63.4
664.076	63.35
664.404	63.36
664.733	63.43
665.062	63.55
665.39	63.59
665.719	63.58
666.048	63.63
666.376	63.73
666.705	63.64
