Data from BA28308_Reflection_00009.txt Node
Date: Mon Nov 18 15:38:58 EST 2019
User: vgr7
Spectrometer: USB2G7710
Scans to average: 3
Trigger mode: 4
Integration Time (sec): 2.000000E-2
Electric dark correction enabled: true
Boxcar width: 10
XAxis mode: Wavelengths
Number of Pixels in Spectrum: 2048
>>>>>Begin Spectral Data<<<<<
177.721	64.01
178.105	90.71
178.488	134.45
178.871	133.43
179.254	140.07
179.636	354.46
180.019	127.8
180.402	135.29
180.785	40.59
181.168	12.21
181.55	123.86
181.933	67.16
182.316	71.82
182.698	97.06
183.081	87.68
183.463	85.02
183.846	112.99
184.228	109.84
184.611	78.13
184.993	169.62
185.376	278.94
185.758	344.42
186.14	615.51
186.522	314.61
186.904	303.26
187.287	285.41
187.669	404.9
188.051	475.98
188.433	-318.23
188.815	-48.83
189.197	-13.34
189.579	28.08
189.961	-2.23
190.342	17.07
190.724	33.78
191.106	34.3
191.488	42.73
191.869	71.72
192.251	71.05
192.633	61.69
193.014	109.73
193.396	144.7
193.777	135.27
194.159	136.5
194.54	58.02
194.922	73.05
195.303	57.12
195.684	39.56
196.065	38.14
196.447	29.23
196.828	7.35
197.209	-17.9
197.59	-35.94
197.971	-34.79
198.352	-27.13
198.733	-43.88
199.114	-52.58
199.495	-63.6
199.876	-70.43
200.257	-61.31
200.638	-58.6
201.018	-89.26
201.399	-46.56
201.78	-19.24
202.16	-60.29
202.541	-86.31
202.922	-165.08
203.302	-166.76
203.683	-142.63
204.063	-322.19
204.444	-423.89
204.824	-341.33
205.204	-665.96
205.585	-17042.86
205.965	2130.77
206.345	205.83
206.725	219.34
207.106	170.3
207.486	172.02
207.866	154.3
208.246	174.82
208.626	190.98
209.006	464.56
209.386	424.81
209.766	454.13
210.145	480.63
210.525	-7197.3
210.905	-307.77
211.285	-760.38
211.664	-744.22
212.044	-463.86
212.424	-152.9
212.803	-217.61
213.183	-104.82
213.562	-63.84
213.942	-54.91
214.321	-52.78
214.701	-47.76
215.08	-41.26
215.459	-31.52
215.838	-43.54
216.218	-49.36
216.597	-35.36
216.976	-48.01
217.355	-37.86
217.734	-43.01
218.113	-21.96
218.492	-35.92
218.871	-56.26
219.25	-43.96
219.629	-57.94
220.008	-47.96
220.387	-46.85
220.766	-43.12
221.144	-97.09
221.523	-142.01
221.902	-128.42
222.28	-137.92
222.659	-132.2
223.037	-62.83
223.416	-64.36
223.794	-61
224.173	-47.5
224.551	-34.94
224.929	-25.5
225.308	-21.63
225.686	-18.01
226.064	-12.92
226.442	-6.36
226.821	-2.02
227.199	-2.81
227.577	-1.68
227.955	-4.6
228.333	-4.9
228.711	-1.8
229.089	2.69
229.467	-1.14
229.845	-2.6
230.222	-6.55
230.6	-5.49
230.978	-4.53
231.356	-3.23
231.733	-3.39
232.111	-2.26
232.488	-2.33
232.866	-2.29
233.243	-2.51
233.621	-1.08
233.998	-1.23
234.376	-1.55
234.753	-1.61
235.13	-1.38
235.508	-0.67
235.885	0.29
236.262	-0.39
236.639	-1.14
237.016	-0.4
237.393	2.49
237.77	3.28
238.147	4.69
238.524	4.19
238.901	4.15
239.278	3.54
239.655	5.45
240.032	5.17
240.409	4.54
240.785	5.18
241.162	5.57
241.539	5.6
241.915	5.31
242.292	4.89
242.668	4.96
243.045	4.87
243.421	4.59
243.798	4.46
244.174	4.56
244.551	4.7
244.927	4.52
245.303	4.83
245.679	4.77
246.056	4.84
246.432	5.12
246.808	5.13
247.184	5.22
247.56	4.77
247.936	4.78
248.312	4.83
248.688	4.65
249.064	4.56
249.44	4.38
249.815	4.65
250.191	4.92
250.567	4.92
250.943	5.08
251.318	5.18
251.694	5.16
252.069	5.39
252.445	5.44
252.82	5.51
253.196	5.03
253.571	4.83
253.947	5.27
254.322	5.4
254.697	5.31
255.073	5.21
255.448	4.93
255.823	5.17
256.198	5.15
256.573	5.13
256.948	5.05
257.323	4.91
257.698	4.79
258.073	4.52
258.448	4.52
258.823	4.37
259.198	4.33
259.573	4.37
259.948	4.23
260.322	4.21
260.697	4.13
261.072	4.07
261.446	4.09
261.821	3.91
262.195	3.73
262.57	3.68
262.944	3.76
263.319	3.79
263.693	3.65
264.067	3.73
264.442	3.83
264.816	3.7
265.19	3.6
265.564	3.55
265.938	3.55
266.313	3.49
266.687	3.7
267.061	3.71
267.435	3.74
267.809	3.79
268.183	3.73
268.556	3.78
268.93	3.91
269.304	3.92
269.678	4.19
270.051	4.16
270.425	4.2
270.799	4.19
271.172	4.19
271.546	4.16
271.919	3.99
272.293	3.9
272.666	3.96
273.04	4.11
273.413	4.09
273.787	4.24
274.16	4.21
274.533	4.15
274.906	4.17
275.279	4.15
275.653	4.17
276.026	4.21
276.399	4.18
276.772	4.12
277.145	4.19
277.518	3.92
277.891	3.82
278.263	3.84
278.636	3.68
279.009	3.79
279.382	3.78
279.755	3.66
280.127	3.63
280.5	3.79
280.872	3.62
281.245	3.54
281.617	3.67
281.99	3.84
282.362	3.8
282.735	3.69
283.107	3.74
283.479	3.79
283.852	3.7
284.224	3.71
284.596	3.77
284.968	3.76
285.34	3.8
285.713	3.84
286.085	3.86
286.457	3.96
286.829	3.93
287.201	3.91
287.572	3.98
287.944	3.94
288.316	3.94
288.688	4
289.06	4.05
289.431	3.97
289.803	3.93
290.175	3.95
290.546	4.11
290.918	4.17
291.289	4.13
291.661	4.18
292.032	4.28
292.403	4.26
292.775	4.4
293.146	4.24
293.517	4.3
293.889	4.28
294.26	4.3
294.631	4.36
295.002	4.28
295.373	4.32
295.744	4.35
296.115	4.25
296.486	4.22
296.857	4.18
297.228	4.12
297.599	4.03
297.97	4.1
298.34	4.06
298.711	4.02
299.082	4.03
299.452	4.12
299.823	4.13
300.194	4.23
300.564	4.04
300.935	4.22
301.305	4.24
301.676	4.25
302.046	4.28
302.416	4.36
302.787	4.46
303.157	4.45
303.527	4.46
303.897	4.52
304.267	4.68
304.637	4.86
305.008	4.93
305.378	5.09
305.748	5.12
306.117	5.33
306.487	5.4
306.857	5.44
307.227	5.53
307.597	5.44
307.967	5.35
308.336	5.55
308.706	5.56
309.076	5.69
309.445	5.78
309.815	5.8
310.184	5.71
310.554	5.8
310.923	5.88
311.293	5.86
311.662	5.98
312.031	5.99
312.401	5.99
312.77	6.04
313.139	6.11
313.508	6.18
313.877	6.13
314.246	6.12
314.616	6.06
314.985	6.07
315.353	6.31
315.722	6.54
316.091	6.41
316.46	6.53
316.829	6.48
317.198	6.45
317.567	6.51
317.935	6.66
318.304	6.75
318.672	6.76
319.041	7.01
319.41	7.05
319.778	7.1
320.147	7.13
320.515	7.12
320.883	7.17
321.252	7.3
321.62	7.45
321.988	7.51
322.357	7.64
322.725	7.7
323.093	7.77
323.461	7.64
323.829	7.94
324.197	8.02
324.565	8.07
324.933	8.12
325.301	8.17
325.669	8.22
326.037	8.25
326.405	8.28
326.772	8.35
327.14	8.45
327.508	8.52
327.875	8.55
328.243	8.67
328.61	8.75
328.978	8.68
329.346	8.74
329.713	8.79
330.08	8.86
330.448	8.85
330.815	8.7
331.182	8.82
331.55	8.78
331.917	8.85
332.284	9.04
332.651	9.07
333.018	9.02
333.385	9
333.752	8.96
334.119	9.09
334.486	9.07
334.853	8.99
335.22	9.01
335.587	9.08
335.954	9.1
336.32	9.09
336.687	9.06
337.054	9.07
337.42	9.17
337.787	9.31
338.153	9.35
338.52	9.4
338.886	9.42
339.253	9.36
339.619	9.43
339.986	9.45
340.352	9.55
340.718	9.68
341.084	9.72
341.451	9.8
341.817	9.88
342.183	9.93
342.549	9.98
342.915	10.08
343.281	10.06
343.647	10.07
344.013	9.98
344.379	9.97
344.745	9.92
345.11	9.88
345.476	9.8
345.842	9.81
346.208	9.86
346.573	9.9
346.939	10.02
347.304	9.91
347.67	9.75
348.035	9.63
348.401	9.6
348.766	9.63
349.132	9.66
349.497	9.6
349.862	9.57
350.228	9.73
350.593	9.72
350.958	9.73
351.323	9.8
351.688	9.9
352.053	9.98
352.418	10.03
352.783	10.12
353.148	10.1
353.513	10.13
353.878	10.15
354.243	10.23
354.608	10.21
354.972	10.26
355.337	10.37
355.702	10.46
356.066	10.54
356.431	10.51
356.795	10.52
357.16	10.51
357.524	10.5
357.889	10.37
358.253	10.35
358.618	10.34
358.982	10.3
359.346	10.21
359.71	10.18
360.075	10.19
360.439	10.14
360.803	10.17
361.167	10.2
361.531	10.18
361.895	10.07
362.259	10.05
362.623	10
362.987	10.03
363.351	10.03
363.714	10.02
364.078	9.98
364.442	9.91
364.806	9.88
365.169	9.91
365.533	9.87
365.896	9.88
366.26	9.84
366.623	9.85
366.987	9.87
367.35	9.88
367.714	9.81
368.077	9.71
368.44	9.64
368.803	9.5
369.167	9.46
369.53	9.45
369.893	9.44
370.256	9.43
370.619	9.35
370.982	9.27
371.345	9.2
371.708	9.26
372.071	9.27
372.434	9.19
372.797	9.15
373.159	9.08
373.522	9.01
373.885	9.01
374.247	8.96
374.61	8.93
374.973	8.84
375.335	8.78
375.698	8.78
376.06	8.77
376.423	8.75
376.785	8.73
377.147	8.73
377.51	8.65
377.872	8.6
378.234	8.54
378.596	8.53
378.958	8.45
379.321	8.37
379.683	8.27
380.045	8.22
380.407	8.15
380.769	8.15
381.13	8.09
381.492	8.04
381.854	7.96
382.216	7.86
382.578	7.86
382.939	7.8
383.301	7.74
383.663	7.7
384.024	7.65
384.386	7.64
384.747	7.55
385.109	7.56
385.47	7.49
385.832	7.46
386.193	7.45
386.554	7.4
386.916	7.34
387.277	7.33
387.638	7.35
387.999	7.3
388.36	7.27
388.721	7.25
389.082	7.22
389.443	7.14
389.804	7.16
390.165	7.1
390.526	7.07
390.887	7.04
391.248	7.01
391.609	6.99
391.969	6.92
392.33	6.9
392.691	6.84
393.051	6.83
393.412	6.78
393.772	6.67
394.133	6.65
394.493	6.6
394.854	6.57
395.214	6.5
395.574	6.44
395.935	6.39
396.295	6.36
396.655	6.29
397.015	6.26
397.376	6.21
397.736	6.18
398.096	6.12
398.456	6.11
398.816	6.03
399.176	5.95
399.535	5.92
399.895	5.84
400.255	5.79
400.615	5.74
400.975	5.7
401.334	5.66
401.694	5.61
402.054	5.58
402.413	5.52
402.773	5.49
403.132	5.46
403.492	5.43
403.851	5.41
404.211	5.36
404.57	5.32
404.929	5.29
405.288	5.24
405.648	5.2
406.007	5.14
406.366	5.13
406.725	5.12
407.084	5.11
407.443	5.09
407.802	5.12
408.161	5.09
408.52	5.05
408.879	5.05
409.238	5.04
409.596	5
409.955	4.99
410.314	4.99
410.673	4.97
411.031	4.95
411.39	4.89
411.748	4.88
412.107	4.87
412.465	4.84
412.824	4.83
413.182	4.81
413.54	4.83
413.899	4.8
414.257	4.82
414.615	4.78
414.974	4.75
415.332	4.69
415.69	4.66
416.048	4.64
416.406	4.62
416.764	4.59
417.122	4.56
417.48	4.53
417.838	4.5
418.195	4.47
418.553	4.44
418.911	4.42
419.269	4.39
419.626	4.36
419.984	4.35
420.342	4.34
420.699	4.33
421.057	4.28
421.414	4.25
421.772	4.21
422.129	4.19
422.486	4.17
422.844	4.15
423.201	4.12
423.558	4.12
423.915	4.11
424.273	4.11
424.63	4.08
424.987	4.07
425.344	4.07
425.701	4.05
426.058	4.03
426.415	4.02
426.772	4.03
427.128	4.03
427.485	4
427.842	3.98
428.199	3.97
428.555	3.97
428.912	3.98
429.269	3.97
429.625	3.95
429.982	3.95
430.338	3.95
430.695	3.95
431.051	3.93
431.407	3.92
431.764	3.89
432.12	3.9
432.476	3.88
432.832	3.84
433.189	3.85
433.545	3.86
433.901	3.86
434.257	3.82
434.613	3.83
434.969	3.84
435.325	3.83
435.681	3.84
436.036	3.83
436.392	3.83
436.748	3.82
437.104	3.82
437.459	3.81
437.815	3.81
438.171	3.8
438.526	3.8
438.882	3.79
439.237	3.79
439.593	3.81
439.948	3.8
440.304	3.81
440.659	3.79
441.014	3.8
441.369	3.78
441.725	3.79
442.08	3.77
442.435	3.74
442.79	3.74
443.145	3.74
443.5	3.74
443.855	3.72
444.21	3.72
444.565	3.71
444.92	3.71
445.275	3.7
445.629	3.69
445.984	3.68
446.339	3.67
446.693	3.65
447.048	3.62
447.403	3.62
447.757	3.61
448.112	3.59
448.466	3.57
448.82	3.57
449.175	3.57
449.529	3.58
449.883	3.57
450.238	3.56
450.592	3.53
450.946	3.49
451.3	3.49
451.654	3.48
452.008	3.47
452.362	3.46
452.716	3.46
453.07	3.46
453.424	3.46
453.778	3.45
454.132	3.45
454.486	3.46
454.839	3.45
455.193	3.46
455.547	3.49
455.9	3.51
456.254	3.52
456.607	3.51
456.961	3.5
457.314	3.51
457.668	3.51
458.021	3.5
458.375	3.53
458.728	3.52
459.081	3.54
459.434	3.53
459.787	3.54
460.141	3.53
460.494	3.54
460.847	3.54
461.2	3.55
461.553	3.56
461.906	3.56
462.259	3.58
462.611	3.58
462.964	3.58
463.317	3.57
463.67	3.58
464.022	3.59
464.375	3.58
464.728	3.59
465.08	3.61
465.433	3.64
465.785	3.64
466.138	3.66
466.49	3.64
466.843	3.67
467.195	3.69
467.547	3.7
467.899	3.71
468.252	3.7
468.604	3.71
468.956	3.72
469.308	3.74
469.66	3.74
470.012	3.75
470.364	3.77
470.716	3.78
471.068	3.76
471.42	3.78
471.772	3.83
472.123	3.85
472.475	3.86
472.827	3.87
473.178	3.87
473.53	3.88
473.882	3.89
474.233	3.89
474.585	3.88
474.936	3.87
475.288	3.85
475.639	3.87
475.99	3.84
476.342	3.86
476.693	3.85
477.044	3.86
477.395	3.86
477.746	3.83
478.097	3.84
478.448	3.86
478.8	3.84
479.15	3.8
479.501	3.8
479.852	3.8
480.203	3.82
480.554	3.82
480.905	3.81
481.255	3.81
481.606	3.81
481.957	3.83
482.307	3.84
482.658	3.85
483.009	3.85
483.359	3.86
483.709	3.85
484.06	3.85
484.41	3.86
484.761	3.86
485.111	3.86
485.461	3.86
485.811	3.85
486.162	3.85
486.512	3.87
486.862	3.87
487.212	3.86
487.562	3.86
487.912	3.87
488.262	3.88
488.612	3.88
488.961	3.88
489.311	3.87
489.661	3.87
490.011	3.88
490.36	3.88
490.71	3.89
491.06	3.9
491.409	3.9
491.759	3.9
492.108	3.91
492.458	3.93
492.807	3.94
493.157	3.96
493.506	3.99
493.855	3.99
494.204	4
494.554	4.04
494.903	4.05
495.252	4.05
495.601	4.08
495.95	4.11
496.299	4.14
496.648	4.18
496.997	4.22
497.346	4.25
497.695	4.27
498.043	4.29
498.392	4.33
498.741	4.39
499.09	4.44
499.438	4.47
499.787	4.49
500.135	4.56
500.484	4.61
500.832	4.64
501.181	4.69
501.529	4.74
501.878	4.78
502.226	4.84
502.574	4.91
502.923	4.96
503.271	5.03
503.619	5.09
503.967	5.16
504.315	5.21
504.663	5.27
505.011	5.34
505.359	5.42
505.707	5.49
506.055	5.53
506.403	5.61
506.751	5.7
507.098	5.79
507.446	5.87
507.794	5.92
508.141	6
508.489	6.07
508.837	6.16
509.184	6.22
509.531	6.29
509.879	6.37
510.226	6.45
510.574	6.53
510.921	6.6
511.268	6.68
511.616	6.77
511.963	6.87
512.31	6.94
512.657	7.03
513.004	7.12
513.351	7.22
513.698	7.3
514.045	7.37
514.392	7.47
514.739	7.54
515.086	7.64
515.432	7.73
515.779	7.82
516.126	7.92
516.473	8.02
516.819	8.12
517.166	8.21
517.512	8.31
517.859	8.41
518.205	8.49
518.552	8.56
518.898	8.66
519.245	8.74
519.591	8.84
519.937	8.92
520.283	9.01
520.629	9.12
520.976	9.24
521.322	9.36
521.668	9.49
522.014	9.63
522.36	9.77
522.706	9.91
523.052	10.08
523.398	10.26
523.743	10.43
524.089	10.6
524.435	10.76
524.781	10.91
525.126	11.05
525.472	11.2
525.817	11.32
526.163	11.43
526.509	11.57
526.854	11.67
527.199	11.79
527.545	11.9
527.89	12.01
528.235	12.13
528.581	12.25
528.926	12.38
529.271	12.51
529.616	12.64
529.961	12.79
530.306	12.91
530.651	13.04
530.996	13.17
531.341	13.34
531.686	13.52
532.031	13.71
532.376	13.87
532.721	14.05
533.065	14.26
533.41	14.48
533.755	14.66
534.099	14.91
534.444	15.12
534.788	15.35
535.133	15.57
535.477	15.81
535.822	16.04
536.166	16.27
536.51	16.54
536.855	16.83
537.199	17.13
537.543	17.44
537.887	17.76
538.231	18.06
538.576	18.4
538.92	18.67
539.264	18.96
539.608	19.24
539.951	19.52
540.295	19.77
540.639	20.01
540.983	20.27
541.327	20.5
541.671	20.75
542.014	21
542.358	21.24
542.701	21.45
543.045	21.7
543.389	21.93
543.732	22.18
544.075	22.45
544.419	22.69
544.762	22.98
545.105	23.25
545.449	23.58
545.792	23.84
546.135	24.19
546.478	24.53
546.821	24.89
547.165	25.24
547.508	25.63
547.851	25.99
548.194	26.36
548.536	26.73
548.879	27.15
549.222	27.51
549.565	27.9
549.908	28.31
550.25	28.73
550.593	29.17
550.936	29.58
551.278	29.97
551.621	30.36
551.963	30.76
552.306	31.15
552.648	31.52
552.991	31.89
553.333	32.26
553.675	32.6
554.017	32.96
554.36	33.28
554.702	33.66
555.044	33.97
555.386	34.26
555.728	34.57
556.07	34.87
556.412	35.17
556.754	35.53
557.096	35.85
557.438	36.19
557.78	36.54
558.121	36.85
558.463	37.19
558.805	37.52
559.147	37.84
559.488	38.2
559.83	38.52
560.171	38.84
560.513	39.19
560.854	39.45
561.196	39.81
561.537	40.16
561.878	40.41
562.22	40.77
562.561	41.14
562.902	41.43
563.243	41.72
563.584	42.03
563.925	42.34
564.266	42.6
564.607	42.86
564.948	43.07
565.289	43.3
565.63	43.52
565.971	43.77
566.312	43.98
566.653	44.18
566.993	44.41
567.334	44.62
567.675	44.78
568.015	45.04
568.356	45.26
568.696	45.46
569.037	45.65
569.377	45.85
569.718	46.01
570.058	46.24
570.398	46.44
570.739	46.65
571.079	46.77
571.419	47
571.759	47.18
572.099	47.36
572.439	47.55
572.779	47.73
573.119	47.93
573.459	48.11
573.799	48.34
574.139	48.49
574.479	48.73
574.819	48.96
575.158	49.1
575.498	49.28
575.838	49.48
576.177	49.74
576.517	49.89
576.856	50.1
577.196	50.24
577.535	50.4
577.875	50.57
578.214	50.8
578.553	50.92
578.893	51.1
579.232	51.3
579.571	51.43
579.91	51.59
580.25	51.74
580.589	51.9
580.928	51.98
581.267	52.15
581.606	52.21
581.945	52.27
582.283	52.42
582.622	52.53
582.961	52.65
583.3	52.72
583.639	52.93
583.977	52.98
584.316	53.15
584.654	53.31
584.993	53.4
585.332	53.56
585.67	53.66
586.008	53.81
586.347	53.92
586.685	54.06
587.024	54.12
587.362	54.17
587.7	54.25
588.038	54.41
588.376	54.48
588.715	54.56
589.053	54.68
589.391	54.69
589.729	54.78
590.067	54.82
590.404	54.9
590.742	54.89
591.08	55.01
591.418	55.1
591.756	55.23
592.093	55.3
592.431	55.28
592.769	55.37
593.106	55.45
593.444	55.43
593.781	55.57
594.119	55.69
594.456	55.77
594.793	55.82
595.131	55.94
595.468	56.07
595.805	56.19
596.143	56.22
596.48	56.36
596.817	56.35
597.154	56.44
597.491	56.45
597.828	56.59
598.165	56.63
598.502	56.67
598.839	56.69
599.176	56.8
599.512	56.94
599.849	57.01
600.186	57
600.523	57.03
600.859	57.08
601.196	57.15
601.532	57.23
601.869	57.29
602.205	57.23
602.542	57.28
602.878	57.24
603.215	57.33
603.551	57.42
603.887	57.45
604.223	57.52
604.56	57.67
604.896	57.71
605.232	57.89
605.568	57.87
605.904	57.96
606.24	57.98
606.576	58
606.912	58.08
607.248	58.1
607.583	58.21
607.919	58.18
608.255	58.25
608.591	58.32
608.926	58.38
609.262	58.48
609.597	58.54
609.933	58.65
610.268	58.63
610.604	58.59
610.939	58.67
611.275	58.73
611.61	58.69
611.945	58.71
612.281	58.65
612.616	58.71
612.951	58.63
613.286	58.71
613.621	58.76
613.956	58.7
614.291	58.73
614.626	58.9
614.961	58.96
615.296	58.89
615.631	58.92
615.966	59.04
616.3	59.01
616.635	59.01
616.97	59.08
617.304	59.19
617.639	59.3
617.973	59.45
618.308	59.41
618.642	59.39
618.977	59.46
619.311	59.48
619.646	59.58
619.98	59.66
620.314	59.68
620.648	59.72
620.983	59.85
621.317	60.03
621.651	60.05
621.985	60.11
622.319	60.19
622.653	60.23
622.987	60.18
623.321	60.22
623.655	60.31
623.988	60.27
624.322	60.3
624.656	60.27
624.99	60.21
625.323	60.23
625.657	60.28
625.99	60.25
626.324	60.29
626.657	60.35
626.991	60.42
627.324	60.43
627.658	60.37
627.991	60.36
628.324	60.31
628.657	60.24
628.991	60.22
629.324	60.25
629.657	60.18
629.99	60.25
630.323	60.34
630.656	60.27
630.989	60.37
631.322	60.49
631.655	60.57
631.987	60.62
632.32	60.66
632.653	60.77
632.986	60.83
633.318	60.8
633.651	60.74
633.984	60.61
634.316	60.62
634.649	60.73
634.981	60.8
635.313	60.78
635.646	60.85
635.978	60.94
636.31	61.01
636.643	61.18
636.975	61.13
637.307	61.06
637.639	61.07
637.971	61.02
638.303	60.85
638.635	60.77
638.967	60.78
639.299	60.81
639.631	60.71
639.963	60.78
640.295	60.81
640.626	60.86
640.958	60.98
641.29	61.13
641.621	61.3
641.953	61.35
642.285	61.42
642.616	61.46
642.948	61.47
643.279	61.5
643.61	61.51
643.942	61.7
644.273	61.79
644.604	61.86
644.936	61.92
645.267	62
645.598	62.07
645.929	62.07
646.26	62.25
646.591	62.29
646.922	62.27
647.253	62.42
647.584	62.38
647.915	62.33
648.245	62.13
648.576	62.14
648.907	62.1
649.238	62.12
649.568	62.15
649.899	62.19
650.229	62.06
650.56	61.89
650.89	61.89
651.221	61.87
651.551	61.83
651.882	61.89
652.212	61.85
652.542	61.88
652.872	61.93
653.203	61.9
653.533	61.97
653.863	61.86
654.193	61.8
654.523	61.95
654.853	62.06
655.183	62.24
655.513	62.13
655.843	62.13
656.172	62.26
656.502	62.28
656.832	62.33
657.162	62.42
657.491	62.55
657.821	62.51
658.15	62.47
658.48	62.5
658.809	62.48
659.139	62.52
659.468	62.65
659.798	62.55
660.127	62.55
660.456	62.44
660.785	62.51
661.115	62.55
661.444	62.43
661.773	62.39
662.102	62.29
662.431	62.22
662.76	62.28
663.089	62.13
663.418	62.11
663.747	61.98
664.076	62.02
664.404	61.93
664.733	61.91
665.062	61.96
665.39	61.89
665.719	61.81
666.048	61.87
666.376	61.64
