Data from BA28420_Reflection_00006.txt Node
Date: Mon Nov 18 16:08:24 EST 2019
User: vgr7
Spectrometer: USB2G7710
Scans to average: 3
Trigger mode: 4
Integration Time (sec): 2.000000E-2
Electric dark correction enabled: true
Boxcar width: 10
XAxis mode: Wavelengths
Number of Pixels in Spectrum: 2048
>>>>>Begin Spectral Data<<<<<
177.721	-247.33
178.105	592.06
178.488	-1438.01
178.871	-93.97
179.254	-233.33
179.636	-52.24
180.019	-29.79
180.402	308.33
180.785	56.23
181.168	-70.94
181.55	-532.18
181.933	100.62
182.316	93.62
182.698	126.64
183.081	148.76
183.463	77.57
183.846	78.35
184.228	56.29
184.611	79.65
184.993	111.94
185.376	101.28
185.758	-5344.44
186.14	258.58
186.522	433.33
186.904	-431.14
187.287	1351.57
187.669	-1364.65
188.051	185.51
188.433	12.48
188.815	5.57
189.197	-29.8
189.579	-175.21
189.961	-120.85
190.342	-44.65
190.724	-41.07
191.106	6.03
191.488	34.99
191.869	-138.77
192.251	-80.08
192.633	48.31
193.014	21.69
193.396	57.01
193.777	38.34
194.159	0.94
194.54	-4.69
194.922	-38.59
195.303	-84.72
195.684	-75.27
196.065	-180.77
196.447	-14.45
196.828	-23.24
197.209	12.76
197.59	70.31
197.971	162.15
198.352	-136.5
198.733	-138.55
199.114	-128.24
199.495	-87.26
199.876	-77.82
200.257	-57.3
200.638	-42.73
201.018	-49.4
201.399	-9.18
201.78	13.3
202.16	-19.24
202.541	-33.12
202.922	-69.28
203.302	-91.41
203.683	-79.38
204.063	-78.95
204.444	-61.84
204.824	-55.65
205.204	-54.3
205.585	-49.59
205.965	-27.32
206.345	-55.73
206.725	-68.3
207.106	-91.21
207.486	-254.09
207.866	-272.11
208.246	-328.26
208.626	-329.31
209.006	-172.43
209.386	-306.97
209.766	-415.15
210.145	-679.19
210.525	-252.89
210.905	-142.28
211.285	-111.03
211.664	-111.4
212.044	-253.67
212.424	-189.29
212.803	-459.2
213.183	-192.81
213.562	-132.05
213.942	-119.91
214.321	-127.73
214.701	-136.47
215.08	-123.41
215.459	-88.15
215.838	-86.83
216.218	-80.8
216.597	-47.78
216.976	-48.91
217.355	-34.29
217.734	-36.55
218.113	-23.73
218.492	-25.91
218.871	-31.99
219.25	-34.49
219.629	-42.78
220.008	-26.77
220.387	-41.53
220.766	-8.76
221.144	-46.09
221.523	-66.27
221.902	-84
222.28	-61.16
222.659	-59.78
223.037	-58.95
223.416	-47.83
223.794	-43.67
224.173	-39.2
224.551	-37.93
224.929	-50.49
225.308	-36.06
225.686	-22.11
226.064	-26.51
226.442	-20.38
226.821	-14.42
227.199	-15.65
227.577	-13.92
227.955	-12.51
228.333	-4.87
228.711	-10.29
229.089	-0.81
229.467	0.25
229.845	-0.18
230.222	-2.44
230.6	-1.31
230.978	-1.74
231.356	-1.14
231.733	-1.3
232.111	-0.33
232.488	-0.22
232.866	3.54
233.243	3.96
233.621	2.87
233.998	5.51
234.376	2.56
234.753	2.66
235.13	4.14
235.508	4.1
235.885	4.61
236.262	3.32
236.639	4.4
237.016	2.19
237.393	3.66
237.77	4.83
238.147	4.93
238.524	5.45
238.901	6.55
239.278	6.95
239.655	7.6
240.032	6.83
240.409	6.34
240.785	5.35
241.162	5.04
241.539	4.73
241.915	4.33
242.292	4.75
242.668	4.68
243.045	4.52
243.421	4.4
243.798	4.28
244.174	4.23
244.551	4.13
244.927	4.3
245.303	4.31
245.679	4.04
246.056	4.23
246.432	4.2
246.808	4.04
247.184	3.89
247.56	3.74
247.936	3.93
248.312	3.86
248.688	4.15
249.064	3.98
249.44	4.12
249.815	4.11
250.191	4.17
250.567	4.39
250.943	4.21
251.318	4.43
251.694	4.38
252.069	4.27
252.445	4.25
252.82	3.97
253.196	3.88
253.571	3.71
253.947	3.87
254.322	3.9
254.697	3.99
255.073	3.78
255.448	3.5
255.823	3.42
256.198	3.63
256.573	3.58
256.948	3.74
257.323	3.9
257.698	3.91
258.073	3.85
258.448	3.57
258.823	3.66
259.198	3.45
259.573	3.45
259.948	3.56
260.322	3.53
260.697	3.62
261.072	3.57
261.446	3.54
261.821	3.36
262.195	3.4
262.57	3.35
262.944	3.46
263.319	3.51
263.693	3.49
264.067	3.4
264.442	3.48
264.816	3.52
265.19	3.27
265.564	3.28
265.938	3.18
266.313	3.31
266.687	3.43
267.061	3.56
267.435	3.56
267.809	3.39
268.183	3.38
268.556	3.33
268.93	3.6
269.304	3.71
269.678	3.76
270.051	3.6
270.425	3.64
270.799	3.48
271.172	3.49
271.546	3.52
271.919	3.5
272.293	3.39
272.666	3.34
273.04	3.42
273.413	3.41
273.787	3.35
274.16	3.28
274.533	3.3
274.906	3.26
275.279	3.34
275.653	3.43
276.026	3.37
276.399	3.34
276.772	3.22
277.145	3.3
277.518	3.38
277.891	3.73
278.263	3.74
278.636	3.79
279.009	3.94
279.382	4.02
279.755	4.05
280.127	4.14
280.5	4.15
280.872	4.04
281.245	4.08
281.617	4.28
281.99	4.47
282.362	4.43
282.735	4.29
283.107	4.17
283.479	4.13
283.852	4.26
284.224	4.35
284.596	4.37
284.968	4.33
285.34	4.48
285.713	4.26
286.085	4.23
286.457	4.28
286.829	4.25
287.201	4.18
287.572	4.11
287.944	4.13
288.316	4.11
288.688	4.16
289.06	4
289.431	4.01
289.803	3.91
290.175	3.92
290.546	4.03
290.918	4.19
291.289	4.15
291.661	4.23
292.032	4.19
292.403	4.3
292.775	4.38
293.146	4.16
293.517	4.13
293.889	4.1
294.26	4.09
294.631	4.09
295.002	4.09
295.373	4.13
295.744	4.08
296.115	4.02
296.486	4
296.857	4.09
297.228	4.06
297.599	4.02
297.97	3.98
298.34	4
298.711	3.97
299.082	4.05
299.452	4.08
299.823	4.1
300.194	4.04
300.564	3.95
300.935	3.99
301.305	4.02
301.676	4.1
302.046	4.18
302.416	4.13
302.787	4.11
303.157	4.03
303.527	4.07
303.897	4.1
304.267	4.19
304.637	4.18
305.008	4.37
305.378	4.44
305.748	4.47
306.117	4.49
306.487	4.48
306.857	4.44
307.227	4.38
307.597	4.42
307.967	4.35
308.336	4.38
308.706	4.37
309.076	4.39
309.445	4.35
309.815	4.26
310.184	4.22
310.554	4.19
310.923	4.35
311.293	4.29
311.662	4.26
312.031	4.23
312.401	4.24
312.77	4.11
313.139	4.14
313.508	4.1
313.877	4.09
314.246	4.01
314.616	3.97
314.985	3.97
315.353	3.91
315.722	3.9
316.091	3.89
316.46	3.87
316.829	3.89
317.198	3.87
317.567	3.84
317.935	3.92
318.304	4.01
318.672	3.97
319.041	4.08
319.41	4.06
319.778	3.93
320.147	3.83
320.515	3.84
320.883	3.76
321.252	3.81
321.62	3.71
321.988	3.71
322.357	3.71
322.725	3.56
323.093	3.58
323.461	3.54
323.829	3.57
324.197	3.59
324.565	3.63
324.933	3.61
325.301	3.58
325.669	3.4
326.037	3.42
326.405	3.4
326.772	3.41
327.14	3.43
327.508	3.49
327.875	3.54
328.243	3.55
328.61	3.52
328.978	3.65
329.346	3.76
329.713	3.79
330.08	3.86
330.448	3.86
330.815	3.87
331.182	3.92
331.55	3.8
331.917	3.8
332.284	3.8
332.651	3.79
333.018	3.85
333.385	3.96
333.752	3.96
334.119	4.01
334.486	3.87
334.853	3.97
335.22	3.96
335.587	3.97
335.954	3.84
336.32	3.93
336.687	3.83
337.054	3.72
337.42	3.72
337.787	3.73
338.153	3.71
338.52	3.7
338.886	3.63
339.253	3.63
339.619	3.68
339.986	3.61
340.352	3.65
340.718	3.62
341.084	3.62
341.451	3.61
341.817	3.57
342.183	3.65
342.549	3.57
342.915	3.57
343.281	3.54
343.647	3.59
344.013	3.44
344.379	3.4
344.745	3.44
345.11	3.46
345.476	3.45
345.842	3.55
346.208	3.47
346.573	3.54
346.939	3.66
347.304	3.56
347.67	3.55
348.035	3.51
348.401	3.49
348.766	3.51
349.132	3.53
349.497	3.49
349.862	3.4
350.228	3.57
350.593	3.51
350.958	3.49
351.323	3.64
351.688	3.68
352.053	3.69
352.418	3.75
352.783	3.83
353.148	3.79
353.513	3.84
353.878	3.87
354.243	3.86
354.608	3.82
354.972	3.84
355.337	3.87
355.702	3.94
356.066	4
356.431	4
356.795	4.01
357.16	4.05
357.524	4.09
357.889	3.92
358.253	3.97
358.618	4
358.982	3.9
359.346	3.92
359.71	3.88
360.075	3.86
360.439	3.81
360.803	3.8
361.167	3.7
361.531	3.74
361.895	3.71
362.259	3.69
362.623	3.71
362.987	3.65
363.351	3.64
363.714	3.66
364.078	3.67
364.442	3.66
364.806	3.64
365.169	3.57
365.533	3.6
365.896	3.55
366.26	3.61
366.623	3.59
366.987	3.59
367.35	3.65
367.714	3.65
368.077	3.64
368.44	3.64
368.803	3.7
369.167	3.63
369.53	3.61
369.893	3.65
370.256	3.64
370.619	3.75
370.982	3.68
371.345	3.62
371.708	3.56
372.071	3.56
372.434	3.56
372.797	3.63
373.159	3.69
373.522	3.76
373.885	3.78
374.247	3.86
374.61	3.88
374.973	3.88
375.335	3.88
375.698	3.87
376.06	3.86
376.423	3.87
376.785	3.93
377.147	3.99
377.51	3.94
377.872	4.03
378.234	4
378.596	4.04
378.958	4.01
379.321	4.03
379.683	4.02
380.045	4.04
380.407	4.04
380.769	4.01
381.13	4.02
381.492	3.99
381.854	3.95
382.216	3.92
382.578	3.91
382.939	3.91
383.301	3.9
383.663	3.93
384.024	3.94
384.386	3.95
384.747	3.92
385.109	3.98
385.47	3.91
385.832	3.88
386.193	3.9
386.554	3.93
386.916	3.96
387.277	3.97
387.638	3.99
387.999	3.98
388.36	3.98
388.721	3.99
389.082	4
389.443	3.97
389.804	3.99
390.165	4.01
390.526	3.98
390.887	4.01
391.248	4.06
391.609	4.04
391.969	4
392.33	3.99
392.691	3.95
393.051	3.97
393.412	4.02
393.772	3.99
394.133	4.03
394.493	4.03
394.854	4.01
395.214	3.99
395.574	4
395.935	3.99
396.295	3.96
396.655	3.97
397.015	3.97
397.376	4.01
397.736	4
398.096	4.05
398.456	4.02
398.816	4
399.176	3.97
399.535	4.01
399.895	4
400.255	4.04
400.615	3.99
400.975	3.96
401.334	3.94
401.694	3.89
402.054	3.87
402.413	3.89
402.773	3.86
403.132	3.8
403.492	3.82
403.851	3.81
404.211	3.79
404.57	3.79
404.929	3.77
405.288	3.74
405.648	3.71
406.007	3.72
406.366	3.7
406.725	3.72
407.084	3.72
407.443	3.73
407.802	3.73
408.161	3.74
408.52	3.73
408.879	3.74
409.238	3.76
409.596	3.76
409.955	3.76
410.314	3.79
410.673	3.82
411.031	3.81
411.39	3.81
411.748	3.82
412.107	3.83
412.465	3.81
412.824	3.82
413.182	3.84
413.54	3.83
413.899	3.84
414.257	3.85
414.615	3.84
414.974	3.85
415.332	3.83
415.69	3.85
416.048	3.85
416.406	3.86
416.764	3.86
417.122	3.86
417.48	3.87
417.838	3.89
418.195	3.91
418.553	3.92
418.911	3.92
419.269	3.93
419.626	3.92
419.984	3.93
420.342	3.93
420.699	3.93
421.057	3.93
421.414	3.92
421.772	3.92
422.129	3.94
422.486	3.95
422.844	3.95
423.201	3.95
423.558	3.96
423.915	3.96
424.273	3.97
424.63	3.98
424.987	3.96
425.344	3.97
425.701	3.96
426.058	3.94
426.415	3.96
426.772	3.95
427.128	3.96
427.485	3.97
427.842	3.97
428.199	3.97
428.555	3.98
428.912	3.99
429.269	4
429.625	3.98
429.982	3.97
430.338	3.97
430.695	3.96
431.051	3.94
431.407	3.93
431.764	3.91
432.12	3.88
432.476	3.9
432.832	3.88
433.189	3.88
433.545	3.87
433.901	3.85
434.257	3.84
434.613	3.83
434.969	3.84
435.325	3.84
435.681	3.85
436.036	3.84
436.392	3.83
436.748	3.83
437.104	3.84
437.459	3.82
437.815	3.83
438.171	3.85
438.526	3.87
438.882	3.88
439.237	3.9
439.593	3.94
439.948	3.93
440.304	3.93
440.659	3.94
441.014	3.96
441.369	3.96
441.725	3.97
442.08	3.98
442.435	3.98
442.79	3.98
443.145	3.97
443.5	3.98
443.855	3.98
444.21	3.99
444.565	4
444.92	4.01
445.275	4.02
445.629	4.01
445.984	4.01
446.339	4
446.693	4
447.048	3.99
447.403	3.99
447.757	3.99
448.112	3.97
448.466	3.97
448.82	3.97
449.175	3.97
449.529	3.97
449.883	3.96
450.238	3.96
450.592	3.99
450.946	3.96
451.3	3.96
451.654	3.95
452.008	3.94
452.362	3.93
452.716	3.93
453.07	3.94
453.424	3.95
453.778	3.95
454.132	3.95
454.486	3.96
454.839	3.96
455.193	3.96
455.547	3.97
455.9	3.96
456.254	3.99
456.607	4
456.961	4
457.314	4
457.668	3.99
458.021	3.98
458.375	4
458.728	4
459.081	4
459.434	4
459.787	4.01
460.141	4
460.494	3.98
460.847	3.98
461.2	3.97
461.553	3.96
461.906	3.97
462.259	3.98
462.611	4
462.964	4
463.317	4.01
463.67	4.01
464.022	4.01
464.375	4.01
464.728	4.02
465.08	4.02
465.433	4.02
465.785	4.01
466.138	4.04
466.49	4.05
466.843	4.04
467.195	4.04
467.547	4.06
467.899	4.08
468.252	4.08
468.604	4.09
468.956	4.1
469.308	4.1
469.66	4.08
470.012	4.1
470.364	4.11
470.716	4.1
471.068	4.1
471.42	4.09
471.772	4.11
472.123	4.11
472.475	4.11
472.827	4.12
473.178	4.14
473.53	4.12
473.882	4.11
474.233	4.11
474.585	4.12
474.936	4.13
475.288	4.12
475.639	4.12
475.99	4.11
476.342	4.11
476.693	4.11
477.044	4.13
477.395	4.12
477.746	4.11
478.097	4.11
478.448	4.11
478.8	4.1
479.15	4.09
479.501	4.13
479.852	4.14
480.203	4.14
480.554	4.14
480.905	4.14
481.255	4.16
481.606	4.17
481.957	4.16
482.307	4.17
482.658	4.18
483.009	4.18
483.359	4.19
483.709	4.2
484.06	4.2
484.41	4.2
484.761	4.2
485.111	4.21
485.461	4.21
485.811	4.22
486.162	4.22
486.512	4.22
486.862	4.21
487.212	4.22
487.562	4.22
487.912	4.22
488.262	4.23
488.612	4.23
488.961	4.24
489.311	4.24
489.661	4.23
490.011	4.24
490.36	4.24
490.71	4.24
491.06	4.23
491.409	4.24
491.759	4.23
492.108	4.24
492.458	4.23
492.807	4.23
493.157	4.23
493.506	4.24
493.855	4.23
494.204	4.22
494.554	4.21
494.903	4.21
495.252	4.2
495.601	4.21
495.95	4.21
496.299	4.21
496.648	4.2
496.997	4.21
497.346	4.23
497.695	4.23
498.043	4.22
498.392	4.23
498.741	4.23
499.09	4.19
499.438	4.19
499.787	4.21
500.135	4.21
500.484	4.2
500.832	4.21
501.181	4.25
501.529	4.25
501.878	4.27
502.226	4.27
502.574	4.28
502.923	4.27
503.271	4.27
503.619	4.27
503.967	4.29
504.315	4.29
504.663	4.29
505.011	4.31
505.359	4.3
505.707	4.31
506.055	4.32
506.403	4.36
506.751	4.37
507.098	4.37
507.446	4.39
507.794	4.38
508.141	4.39
508.489	4.38
508.837	4.41
509.184	4.41
509.531	4.44
509.879	4.45
510.226	4.47
510.574	4.47
510.921	4.48
511.268	4.48
511.616	4.47
511.963	4.47
512.31	4.46
512.657	4.48
513.004	4.47
513.351	4.48
513.698	4.46
514.045	4.45
514.392	4.47
514.739	4.47
515.086	4.5
515.432	4.49
515.779	4.48
516.126	4.48
516.473	4.49
516.819	4.49
517.166	4.49
517.512	4.48
517.859	4.5
518.205	4.5
518.552	4.5
518.898	4.5
519.245	4.49
519.591	4.5
519.937	4.49
520.283	4.5
520.629	4.5
520.976	4.5
521.322	4.51
521.668	4.49
522.014	4.5
522.36	4.48
522.706	4.48
523.052	4.51
523.398	4.51
523.743	4.52
524.089	4.53
524.435	4.52
524.781	4.53
525.126	4.54
525.472	4.54
525.817	4.54
526.163	4.55
526.509	4.56
526.854	4.57
527.199	4.59
527.545	4.59
527.89	4.6
528.235	4.61
528.581	4.62
528.926	4.62
529.271	4.62
529.616	4.63
529.961	4.63
530.306	4.63
530.651	4.63
530.996	4.63
531.341	4.63
531.686	4.65
532.031	4.66
532.376	4.66
532.721	4.66
533.065	4.67
533.41	4.67
533.755	4.68
534.099	4.68
534.444	4.67
534.788	4.69
535.133	4.69
535.477	4.7
535.822	4.68
536.166	4.67
536.51	4.68
536.855	4.67
537.199	4.7
537.543	4.7
537.887	4.68
538.231	4.67
538.576	4.68
538.92	4.68
539.264	4.67
539.608	4.68
539.951	4.68
540.295	4.67
540.639	4.68
540.983	4.68
541.327	4.67
541.671	4.66
542.014	4.65
542.358	4.67
542.701	4.66
543.045	4.67
543.389	4.68
543.732	4.68
544.075	4.68
544.419	4.68
544.762	4.68
545.105	4.71
545.449	4.69
545.792	4.69
546.135	4.68
546.478	4.68
546.821	4.67
547.165	4.67
547.508	4.68
547.851	4.69
548.194	4.66
548.536	4.66
548.879	4.69
549.222	4.72
549.565	4.69
549.908	4.71
550.25	4.73
550.593	4.72
550.936	4.7
551.278	4.72
551.621	4.71
551.963	4.7
552.306	4.71
552.648	4.74
552.991	4.76
553.333	4.75
553.675	4.75
554.017	4.76
554.36	4.77
554.702	4.78
555.044	4.76
555.386	4.77
555.728	4.77
556.07	4.77
556.412	4.73
556.754	4.74
557.096	4.7
557.438	4.72
557.78	4.75
558.121	4.77
558.463	4.78
558.805	4.78
559.147	4.77
559.488	4.75
559.83	4.73
560.171	4.72
560.513	4.77
560.854	4.77
561.196	4.77
561.537	4.79
561.878	4.78
562.22	4.78
562.561	4.78
562.902	4.83
563.243	4.81
563.584	4.83
563.925	4.83
564.266	4.86
564.607	4.82
564.948	4.8
565.289	4.83
565.63	4.83
565.971	4.8
566.312	4.83
566.653	4.84
566.993	4.85
567.334	4.86
567.675	4.83
568.015	4.83
568.356	4.84
568.696	4.82
569.037	4.85
569.377	4.87
569.718	4.86
570.058	4.85
570.398	4.85
570.739	4.87
571.079	4.88
571.419	4.85
571.759	4.88
572.099	4.88
572.439	4.86
572.779	4.84
573.119	4.87
573.459	4.87
573.799	4.86
574.139	4.86
574.479	4.87
574.819	4.88
575.158	4.89
575.498	4.87
575.838	4.87
576.177	4.85
576.517	4.85
576.856	4.86
577.196	4.83
577.535	4.86
577.875	4.83
578.214	4.81
578.553	4.81
578.893	4.8
579.232	4.83
579.571	4.82
579.91	4.81
580.25	4.79
580.589	4.79
580.928	4.82
581.267	4.81
581.606	4.79
581.945	4.81
582.283	4.78
582.622	4.76
582.961	4.75
583.3	4.79
583.639	4.82
583.977	4.85
584.316	4.88
584.654	4.87
584.993	4.92
585.332	4.95
585.67	4.96
586.008	4.93
586.347	4.89
586.685	4.89
587.024	4.9
587.362	4.93
587.7	4.92
588.038	4.92
588.376	4.95
588.715	4.95
589.053	4.94
589.391	4.96
589.729	4.99
590.067	5
590.404	4.99
590.742	5.01
591.08	4.98
591.418	4.98
591.756	5
592.093	4.99
592.431	5.01
592.769	5.06
593.106	5.11
593.444	5.09
593.781	5.1
594.119	5.13
594.456	5.12
594.793	5.12
595.131	5.08
595.468	5.09
595.805	5.12
596.143	5.09
596.48	5.09
596.817	5.11
597.154	5.14
597.491	5.12
597.828	5.09
598.165	5.09
598.502	5.09
598.839	5.1
599.176	5.09
599.512	5.04
599.849	4.99
600.186	4.98
600.523	5.05
600.859	5.09
601.196	5.11
601.532	5.09
601.869	5.09
602.205	5.12
602.542	5.12
602.878	5.09
603.215	5.1
603.551	5.14
603.887	5.13
604.223	5.11
604.56	5.13
604.896	5.12
605.232	5.14
605.568	5.13
605.904	5.1
606.24	5.11
606.576	5.12
606.912	5.15
607.248	5.14
607.583	5.11
607.919	5.06
608.255	5.02
608.591	5.1
608.926	5.11
609.262	5.14
609.597	5.13
609.933	5.18
610.268	5.19
610.604	5.16
610.939	5.17
611.275	5.16
611.61	5.14
611.945	5.17
612.281	5.18
612.616	5.17
612.951	5.16
613.286	5.14
613.621	5.17
613.956	5.15
614.291	5.17
614.626	5.2
614.961	5.23
615.296	5.26
615.631	5.2
615.966	5.18
616.3	5.18
616.635	5.19
616.97	5.13
617.304	5.12
617.639	5.1
617.973	5.07
618.308	5.05
618.642	5.07
618.977	5.05
619.311	5.05
619.646	5.07
619.98	5.1
620.314	5.12
620.648	5.12
620.983	5.15
621.317	5.2
621.651	5.17
621.985	5.16
622.319	5.12
622.653	5.14
622.987	5.18
623.321	5.18
623.655	5.15
623.988	5.2
624.322	5.22
624.656	5.23
624.99	5.25
625.323	5.31
625.657	5.32
625.99	5.35
626.324	5.3
626.657	5.31
626.991	5.33
627.324	5.34
627.658	5.37
627.991	5.4
628.324	5.37
628.657	5.42
628.991	5.46
629.324	5.52
629.657	5.48
629.99	5.5
630.323	5.5
630.656	5.51
630.989	5.53
631.322	5.54
631.655	5.53
631.987	5.51
632.32	5.52
632.653	5.49
632.986	5.5
633.318	5.57
633.651	5.59
633.984	5.57
634.316	5.57
634.649	5.54
634.981	5.48
635.313	5.54
635.646	5.51
635.978	5.5
636.31	5.42
636.643	5.39
636.975	5.39
637.307	5.35
637.639	5.3
637.971	5.21
638.303	5.17
638.635	5.2
638.967	5.24
639.299	5.24
639.631	5.26
639.963	5.17
640.295	5.14
640.626	5.12
640.958	5.11
641.29	5.07
641.621	5.07
641.953	5.09
642.285	5.05
642.616	5.06
642.948	5.03
643.279	5.09
643.61	5.16
643.942	5.08
644.273	5.14
644.604	5.24
644.936	5.27
645.267	5.37
645.598	5.38
645.929	5.39
646.26	5.36
646.591	5.37
646.922	5.41
647.253	5.38
647.584	5.4
647.915	5.38
648.245	5.39
648.576	5.44
648.907	5.48
649.238	5.44
649.568	5.44
649.899	5.47
650.229	5.52
650.56	5.52
650.89	5.6
651.221	5.56
651.551	5.49
651.882	5.51
652.212	5.45
652.542	5.41
652.872	5.4
653.203	5.36
653.533	5.42
653.863	5.45
654.193	5.51
654.523	5.51
654.853	5.58
655.183	5.62
655.513	5.56
655.843	5.53
656.172	5.52
656.502	5.5
656.832	5.5
657.162	5.46
657.491	5.45
657.821	5.43
658.15	5.43
658.48	5.5
658.809	5.52
659.139	5.53
659.468	5.52
659.798	5.52
660.127	5.61
660.456	5.65
660.785	5.59
661.115	5.52
661.444	5.52
661.773	5.51
662.102	5.51
662.431	5.57
662.76	5.56
663.089	5.53
663.418	5.5
663.747	5.56
664.076	5.58
664.404	5.58
664.733	5.59
665.062	5.59
665.39	5.61
665.719	5.58
666.048	5.6
666.376	5.62
666.705	5.58
667.033	5.49
667.362	5.41
667.69	5.49
668.018	5.51
668.347	5.55
668.675	5.56
669.003	5.58
669.331	5.61
669.659	5.72
669.987	5.84
670.315	5.92
670.643	5.92
670.971	5.9
671.299	5.97
671.627	6
671.955	6
672.283	5.97
672.61	6
672.938	5.98
673.266	6.06
673.593	6.24
673.921	6.27
674.249	6.28
674.576	6.34
674.904	6.37
675.231	6.3
675.558	6.28
675.886	6.27
676.213	6.25
676.54	6.21
676.867	6.17
677.195	6.12
677.522	6.08
677.849	6.16
678.176	6.1
