Data from BA28415_Reflection_00004.txt Node
Date: Mon Nov 18 16:02:12 EST 2019
User: vgr7
Spectrometer: USB2G7710
Scans to average: 3
Trigger mode: 4
Integration Time (sec): 2.000000E-2
Electric dark correction enabled: true
Boxcar width: 10
XAxis mode: Wavelengths
Number of Pixels in Spectrum: 2048
>>>>>Begin Spectral Data<<<<<
177.721	72.24
178.105	117.94
178.488	195.3
178.871	103.13
179.254	62.34
179.636	301.09
180.019	-176.99
180.402	128.57
180.785	277.11
181.168	82.85
181.55	104.69
181.933	101.57
182.316	136.94
182.698	130.29
183.081	119.97
183.463	176.39
183.846	188.91
184.228	263.83
184.611	237.09
184.993	283.34
185.376	220.02
185.758	221.16
186.14	253.16
186.522	240.68
186.904	243.94
187.287	223.19
187.669	416.43
188.051	786
188.433	2063.9
188.815	3625.18
189.197	-958.35
189.579	-589.57
189.961	-677.02
190.342	-632.72
190.724	-453.79
191.106	-418.9
191.488	-440.67
191.869	-374.2
192.251	-545.16
192.633	-260.49
193.014	-338.29
193.396	-244.83
193.777	-256.41
194.159	-382.21
194.54	-202.19
194.922	-205.2
195.303	-194.51
195.684	-265.37
196.065	-203.36
196.447	-586.23
196.828	-535.02
197.209	-327.73
197.59	-2969.31
197.971	-449.57
198.352	-424.24
198.733	-2006.19
199.114	-444.82
199.495	-558.48
199.876	888.38
200.257	1682.73
200.638	-1114.55
201.018	1174.2
201.399	2112.27
201.78	-1822.58
202.16	958.73
202.541	531.11
202.922	394.88
203.302	342.26
203.683	335.48
204.063	400.57
204.444	695.38
204.824	485.81
205.204	515.86
205.585	2566.37
205.965	606.4
206.345	572.86
206.725	572.56
207.106	544.66
207.486	463.09
207.866	579.44
208.246	1300.92
208.626	476.79
209.006	2016.98
209.386	1144.21
209.766	1236.07
210.145	-7900
210.525	-11474.47
210.905	-693.43
211.285	-375.68
211.664	-288.11
212.044	-256.03
212.424	-174.91
212.803	-169.01
213.183	-172.69
213.562	-201.42
213.942	-121.86
214.321	-108.72
214.701	-130.47
215.08	-192.42
215.459	-187.04
215.838	-164.64
216.218	-147.49
216.597	-96.65
216.976	-90.13
217.355	-106.41
217.734	-98.75
218.113	-75.56
218.492	-81.08
218.871	-110.56
219.25	-133.53
219.629	-224.07
220.008	-217.55
220.387	-318.32
220.766	-499.7
221.144	-832.75
221.523	-1257.86
221.902	5087.34
222.28	-516.01
222.659	-170.3
223.037	-130.35
223.416	-135.61
223.794	-142.55
224.173	-176.84
224.551	-120.66
224.929	-119.27
225.308	-75.16
225.686	-63.8
226.064	-50.51
226.442	-46.26
226.821	-30.66
227.199	-28.32
227.577	-22.23
227.955	-21.86
228.333	-15.78
228.711	-12.88
229.089	-7.86
229.467	-9.52
229.845	-10.76
230.222	-11.5
230.6	-12.24
230.978	-10.32
231.356	-8.87
231.733	-4.99
232.111	-2.3
232.488	-5.73
232.866	-3.58
233.243	-5
233.621	-6.55
233.998	-8.76
234.376	-8.67
234.753	-9.31
235.13	-9.05
235.508	-9.35
235.885	-9.61
236.262	-10.46
236.639	-11.07
237.016	-10.21
237.393	-6.9
237.77	-6.03
238.147	-5.47
238.524	-4.73
238.901	-3.1
239.278	-1.52
239.655	-1.7
240.032	-1.23
240.409	-1.11
240.785	-0.67
241.162	0.41
241.539	1.67
241.915	1.58
242.292	2.05
242.668	2.67
243.045	2.81
243.421	3.39
243.798	3.9
244.174	4.12
244.551	4.26
244.927	4.22
245.303	4.3
245.679	4.87
246.056	4.86
246.432	5.07
246.808	5.27
247.184	5.11
247.56	4.95
247.936	4.68
248.312	4.99
248.688	5.12
249.064	4.96
249.44	4.7
249.815	4.9
250.191	4.95
250.567	4.72
250.943	4.71
251.318	4.65
251.694	4.45
252.069	4.51
252.445	4.43
252.82	4.57
253.196	4.13
253.571	3.75
253.947	3.83
254.322	3.74
254.697	3.39
255.073	3.47
255.448	3.72
255.823	4
256.198	3.9
256.573	3.85
256.948	3.82
257.323	3.95
257.698	4.12
258.073	4.17
258.448	4.28
258.823	4.43
259.198	4.45
259.573	4.54
259.948	4.51
260.322	4.63
260.697	4.66
261.072	4.79
261.446	4.79
261.821	4.69
262.195	4.83
262.57	4.84
262.944	4.97
263.319	4.85
263.693	4.69
264.067	4.74
264.442	4.67
264.816	4.65
265.19	4.64
265.564	4.65
265.938	4.55
266.313	4.4
266.687	4.5
267.061	4.47
267.435	4.22
267.809	4.2
268.183	4.19
268.556	4.11
268.93	3.89
269.304	3.88
269.678	3.96
270.051	3.94
270.425	3.89
270.799	3.73
271.172	3.72
271.546	3.72
271.919	3.59
272.293	3.52
272.666	3.68
273.04	3.59
273.413	3.43
273.787	3.39
274.16	3.45
274.533	3.22
274.906	3.03
275.279	3.2
275.653	3.25
276.026	3.2
276.399	3.17
276.772	3.15
277.145	3
277.518	3.23
277.891	3.3
278.263	3.41
278.636	3.44
279.009	3.55
279.382	3.81
279.755	3.74
280.127	4.14
280.5	4.14
280.872	4.29
281.245	4.42
281.617	4.46
281.99	4.59
282.362	4.63
282.735	4.64
283.107	4.59
283.479	4.56
283.852	4.45
284.224	4.39
284.596	4.54
284.968	4.66
285.34	4.43
285.713	4.37
286.085	4.45
286.457	4.5
286.829	4.55
287.201	4.47
287.572	4.55
287.944	4.39
288.316	4.28
288.688	4.19
289.06	4.12
289.431	4.21
289.803	4.14
290.175	4.23
290.546	4.39
290.918	4.42
291.289	4.37
291.661	4.6
292.032	4.74
292.403	4.73
292.775	4.8
293.146	4.83
293.517	4.72
293.889	4.57
294.26	4.63
294.631	4.56
295.002	4.54
295.373	4.62
295.744	4.52
296.115	4.7
296.486	4.72
296.857	4.79
297.228	4.83
297.599	4.77
297.97	4.76
298.34	4.76
298.711	4.79
299.082	4.83
299.452	4.74
299.823	4.68
300.194	4.6
300.564	4.56
300.935	4.71
301.305	4.75
301.676	4.86
302.046	4.89
302.416	5.19
302.787	5.25
303.157	5.24
303.527	5.37
303.897	5.38
304.267	5.52
304.637	5.52
305.008	5.48
305.378	5.58
305.748	5.65
306.117	5.5
306.487	5.56
306.857	5.67
307.227	5.69
307.597	5.72
307.967	5.84
308.336	5.84
308.706	5.8
309.076	5.89
309.445	5.74
309.815	5.67
310.184	5.43
310.554	5.45
310.923	5.45
311.293	5.47
311.662	5.23
312.031	5.17
312.401	5.08
312.77	5.13
313.139	5.13
313.508	5.1
313.877	5.11
314.246	5.09
314.616	5.05
314.985	4.97
315.353	4.91
315.722	4.92
316.091	4.79
316.46	4.65
316.829	4.53
317.198	4.6
317.567	4.65
317.935	4.56
318.304	4.54
318.672	4.52
319.041	4.35
319.41	4.5
319.778	4.41
320.147	4.46
320.515	4.31
320.883	4.26
321.252	4.26
321.62	4.34
321.988	4.32
322.357	4.3
322.725	4.29
323.093	4.4
323.461	4.49
323.829	4.52
324.197	4.77
324.565	4.85
324.933	4.95
325.301	4.87
325.669	5.08
326.037	5.16
326.405	5.14
326.772	5.36
327.14	5.43
327.508	5.45
327.875	5.38
328.243	5.49
328.61	5.48
328.978	5.52
329.346	5.64
329.713	5.56
330.08	5.48
330.448	5.43
330.815	5.44
331.182	5.4
331.55	5.43
331.917	5.34
332.284	5.35
332.651	5.33
333.018	5.46
333.385	5.35
333.752	5.24
334.119	5.34
334.486	5.21
334.853	5.21
335.22	5.23
335.587	5.34
335.954	5.36
336.32	5.29
336.687	5.33
337.054	5.26
337.42	5.33
337.787	5.46
338.153	5.65
338.52	5.66
338.886	5.5
339.253	5.43
339.619	5.31
339.986	5.39
340.352	5.46
340.718	5.41
341.084	5.5
341.451	5.62
341.817	5.78
342.183	5.81
342.549	5.82
342.915	5.87
343.281	5.88
343.647	5.91
344.013	6.08
344.379	6.07
344.745	6.04
345.11	6.09
345.476	6.06
345.842	6.01
346.208	5.97
346.573	6.09
346.939	6.24
347.304	6.27
347.67	6.1
348.035	6.1
348.401	6.1
348.766	6.08
349.132	6.05
349.497	5.89
349.862	6.03
350.228	6.04
350.593	5.93
350.958	5.9
351.323	5.74
351.688	5.74
352.053	5.68
352.418	5.66
352.783	5.59
353.148	5.5
353.513	5.49
353.878	5.51
354.243	5.61
354.608	5.62
354.972	5.71
355.337	5.79
355.702	5.73
356.066	5.81
356.431	5.82
356.795	5.8
357.16	5.76
357.524	5.65
357.889	5.65
358.253	5.8
358.618	5.87
358.982	5.9
359.346	5.89
359.71	5.9
360.075	5.92
360.439	5.97
360.803	6.01
361.167	6.04
361.531	6.05
361.895	5.96
362.259	6
362.623	5.98
362.987	6
363.351	6.08
363.714	6.03
364.078	6.02
364.442	6.02
364.806	6.04
365.169	6.06
365.533	6.1
365.896	6.08
366.26	6.08
366.623	6.11
366.987	6.14
367.35	6.16
367.714	6.15
368.077	6.15
368.44	6.21
368.803	6.11
369.167	6.08
369.53	6.07
369.893	6.03
370.256	6.05
370.619	6.07
370.982	5.97
371.345	5.91
371.708	5.94
372.071	5.96
372.434	5.97
372.797	5.98
373.159	5.91
373.522	5.89
373.885	5.89
374.247	5.88
374.61	5.87
374.973	5.86
375.335	5.83
375.698	5.87
376.06	5.82
376.423	5.87
376.785	5.95
377.147	6.02
377.51	6
377.872	6.03
378.234	6.04
378.596	6.04
378.958	6.12
379.321	6.07
379.683	6.06
380.045	6.06
380.407	6.01
380.769	6.04
381.13	6.05
381.492	6.06
381.854	6.09
382.216	6.07
382.578	6.08
382.939	6.14
383.301	6.11
383.663	6.12
384.024	6.17
384.386	6.18
384.747	6.2
385.109	6.19
385.47	6.16
385.832	6.14
386.193	6.24
386.554	6.24
386.916	6.23
387.277	6.27
387.638	6.3
387.999	6.31
388.36	6.33
388.721	6.35
389.082	6.37
389.443	6.28
389.804	6.3
390.165	6.31
390.526	6.32
390.887	6.32
391.248	6.35
391.609	6.35
391.969	6.34
392.33	6.3
392.691	6.35
393.051	6.34
393.412	6.36
393.772	6.29
394.133	6.29
394.493	6.31
394.854	6.28
395.214	6.26
395.574	6.28
395.935	6.27
396.295	6.28
396.655	6.28
397.015	6.34
397.376	6.35
397.736	6.35
398.096	6.35
398.456	6.4
398.816	6.4
399.176	6.38
399.535	6.39
399.895	6.38
400.255	6.35
400.615	6.36
400.975	6.38
401.334	6.42
401.694	6.43
402.054	6.44
402.413	6.47
402.773	6.46
403.132	6.48
403.492	6.47
403.851	6.44
404.211	6.42
404.57	6.42
404.929	6.45
405.288	6.44
405.648	6.43
406.007	6.4
406.366	6.39
406.725	6.39
407.084	6.35
407.443	6.36
407.802	6.39
408.161	6.4
408.52	6.37
408.879	6.32
409.238	6.31
409.596	6.32
409.955	6.31
410.314	6.32
410.673	6.29
411.031	6.29
411.39	6.31
411.748	6.3
412.107	6.3
412.465	6.25
412.824	6.23
413.182	6.23
413.54	6.25
413.899	6.26
414.257	6.31
414.615	6.31
414.974	6.33
415.332	6.31
415.69	6.31
416.048	6.32
416.406	6.33
416.764	6.31
417.122	6.3
417.48	6.31
417.838	6.31
418.195	6.31
418.553	6.32
418.911	6.3
419.269	6.3
419.626	6.32
419.984	6.31
420.342	6.34
420.699	6.33
421.057	6.33
421.414	6.32
421.772	6.31
422.129	6.31
422.486	6.29
422.844	6.29
423.201	6.27
423.558	6.27
423.915	6.25
424.273	6.26
424.63	6.26
424.987	6.25
425.344	6.24
425.701	6.24
426.058	6.22
426.415	6.21
426.772	6.21
427.128	6.18
427.485	6.18
427.842	6.15
428.199	6.14
428.555	6.12
428.912	6.11
429.269	6.1
429.625	6.09
429.982	6.1
430.338	6.08
430.695	6.09
431.051	6.07
431.407	6.08
431.764	6.05
432.12	6.04
432.476	6.02
432.832	6.01
433.189	6
433.545	6.02
433.901	6.04
434.257	6.05
434.613	6.04
434.969	6.05
435.325	6.05
435.681	6.07
436.036	6.08
436.392	6.09
436.748	6.09
437.104	6.09
437.459	6.09
437.815	6.11
438.171	6.11
438.526	6.13
438.882	6.14
439.237	6.17
439.593	6.17
439.948	6.18
440.304	6.2
440.659	6.19
441.014	6.19
441.369	6.18
441.725	6.17
442.08	6.18
442.435	6.17
442.79	6.19
443.145	6.19
443.5	6.18
443.855	6.19
444.21	6.19
444.565	6.19
444.92	6.2
445.275	6.16
445.629	6.16
445.984	6.16
446.339	6.13
446.693	6.11
447.048	6.1
447.403	6.11
447.757	6.08
448.112	6.07
448.466	6.07
448.82	6.06
449.175	6.05
449.529	6.05
449.883	6.05
450.238	6.03
450.592	6.02
450.946	6
451.3	5.99
451.654	5.99
452.008	5.97
452.362	5.93
452.716	5.95
453.07	5.95
453.424	5.95
453.778	5.96
454.132	5.97
454.486	5.98
454.839	5.97
455.193	5.97
455.547	6
455.9	5.99
456.254	6.01
456.607	6.02
456.961	6.01
457.314	6.01
457.668	6.02
458.021	6
458.375	6.02
458.728	6.01
459.081	6
459.434	6
459.787	6.02
460.141	6.01
460.494	6.01
460.847	6.02
461.2	6.01
461.553	6.02
461.906	6.01
462.259	6.03
462.611	6.03
462.964	6.02
463.317	6.02
463.67	6.02
464.022	6.01
464.375	6.01
464.728	6.03
465.08	6.02
465.433	6.06
465.785	6.06
466.138	6.04
466.49	6.05
466.843	6.07
467.195	6.09
467.547	6.07
467.899	6.07
468.252	6.06
468.604	6.08
468.956	6.08
469.308	6.09
469.66	6.07
470.012	6.1
470.364	6.13
470.716	6.16
471.068	6.16
471.42	6.17
471.772	6.2
472.123	6.18
472.475	6.19
472.827	6.16
473.178	6.19
473.53	6.22
473.882	6.23
474.233	6.23
474.585	6.21
474.936	6.24
475.288	6.26
475.639	6.28
475.99	6.29
476.342	6.28
476.693	6.31
477.044	6.33
477.395	6.31
477.746	6.3
478.097	6.29
478.448	6.3
478.8	6.29
479.15	6.31
479.501	6.33
479.852	6.34
480.203	6.35
480.554	6.36
480.905	6.38
481.255	6.38
481.606	6.4
481.957	6.41
482.307	6.43
482.658	6.43
483.009	6.43
483.359	6.42
483.709	6.43
484.06	6.43
484.41	6.43
484.761	6.43
485.111	6.43
485.461	6.44
485.811	6.44
486.162	6.45
486.512	6.45
486.862	6.46
487.212	6.45
487.562	6.46
487.912	6.46
488.262	6.45
488.612	6.46
488.961	6.46
489.311	6.46
489.661	6.47
490.011	6.47
490.36	6.47
490.71	6.48
491.06	6.47
491.409	6.47
491.759	6.47
492.108	6.47
492.458	6.47
492.807	6.45
493.157	6.45
493.506	6.46
493.855	6.46
494.204	6.44
494.554	6.45
494.903	6.46
495.252	6.45
495.601	6.45
495.95	6.47
496.299	6.46
496.648	6.45
496.997	6.45
497.346	6.47
497.695	6.49
498.043	6.48
498.392	6.51
498.741	6.53
499.09	6.54
499.438	6.54
499.787	6.58
500.135	6.61
500.484	6.62
500.832	6.63
501.181	6.64
501.529	6.67
501.878	6.7
502.226	6.7
502.574	6.72
502.923	6.75
503.271	6.74
503.619	6.76
503.967	6.8
504.315	6.81
504.663	6.83
505.011	6.84
505.359	6.86
505.707	6.88
506.055	6.89
506.403	6.91
506.751	6.95
507.098	6.96
507.446	6.97
507.794	6.99
508.141	6.99
508.489	7
508.837	7.02
509.184	7.03
509.531	7.05
509.879	7.09
510.226	7.09
510.574	7.09
510.921	7.1
511.268	7.1
511.616	7.1
511.963	7.11
512.31	7.11
512.657	7.15
513.004	7.14
513.351	7.19
513.698	7.18
514.045	7.18
514.392	7.19
514.739	7.21
515.086	7.21
515.432	7.24
515.779	7.24
516.126	7.25
516.473	7.24
516.819	7.25
517.166	7.24
517.512	7.24
517.859	7.24
518.205	7.24
518.552	7.25
518.898	7.27
519.245	7.27
519.591	7.26
519.937	7.25
520.283	7.26
520.629	7.25
520.976	7.28
521.322	7.28
521.668	7.31
522.014	7.31
522.36	7.33
522.706	7.34
523.052	7.37
523.398	7.38
523.743	7.41
524.089	7.43
524.435	7.44
524.781	7.47
525.126	7.49
525.472	7.52
525.817	7.52
526.163	7.52
526.509	7.53
526.854	7.55
527.199	7.56
527.545	7.56
527.89	7.56
528.235	7.56
528.581	7.57
528.926	7.56
529.271	7.58
529.616	7.57
529.961	7.57
530.306	7.56
530.651	7.55
530.996	7.57
531.341	7.56
531.686	7.56
532.031	7.56
532.376	7.57
532.721	7.56
533.065	7.56
533.41	7.57
533.755	7.56
534.099	7.56
534.444	7.56
534.788	7.58
535.133	7.56
535.477	7.56
535.822	7.57
536.166	7.57
536.51	7.58
536.855	7.59
537.199	7.61
537.543	7.61
537.887	7.64
538.231	7.63
538.576	7.63
538.92	7.64
539.264	7.64
539.608	7.64
539.951	7.66
540.295	7.65
540.639	7.66
540.983	7.67
541.327	7.68
541.671	7.69
542.014	7.7
542.358	7.71
542.701	7.72
543.045	7.72
543.389	7.73
543.732	7.73
544.075	7.73
544.419	7.73
544.762	7.72
545.105	7.71
545.449	7.71
545.792	7.71
546.135	7.71
546.478	7.72
546.821	7.72
547.165	7.72
547.508	7.74
547.851	7.73
548.194	7.73
548.536	7.74
548.879	7.73
549.222	7.71
549.565	7.71
549.908	7.72
550.25	7.74
550.593	7.77
550.936	7.74
551.278	7.72
551.621	7.74
551.963	7.77
552.306	7.76
552.648	7.74
552.991	7.77
553.333	7.77
553.675	7.74
554.017	7.75
554.36	7.74
554.702	7.74
555.044	7.72
555.386	7.75
555.728	7.72
556.07	7.72
556.412	7.71
556.754	7.73
557.096	7.7
557.438	7.65
557.78	7.66
558.121	7.72
558.463	7.75
558.805	7.76
559.147	7.76
559.488	7.75
559.83	7.74
560.171	7.73
560.513	7.76
560.854	7.78
561.196	7.81
561.537	7.82
561.878	7.8
562.22	7.82
562.561	7.82
562.902	7.84
563.243	7.84
563.584	7.89
563.925	7.9
564.266	7.9
564.607	7.93
564.948	7.89
565.289	7.87
565.63	7.86
565.971	7.85
566.312	7.85
566.653	7.86
566.993	7.91
567.334	7.88
567.675	7.9
568.015	7.9
568.356	7.87
568.696	7.89
569.037	7.92
569.377	7.94
569.718	7.96
570.058	7.95
570.398	7.96
570.739	7.91
571.079	7.9
571.419	7.92
571.759	7.92
572.099	7.94
572.439	7.94
572.779	7.95
573.119	7.97
573.459	7.99
573.799	8.03
574.139	8.02
574.479	8.06
574.819	8.03
575.158	8.04
575.498	8.04
575.838	8.03
576.177	8.01
576.517	7.96
576.856	7.95
577.196	7.95
577.535	7.94
577.875	7.98
578.214	7.97
578.553	8
578.893	7.97
579.232	7.96
579.571	7.97
579.91	7.96
580.25	7.93
580.589	7.95
580.928	7.94
581.267	7.96
581.606	7.95
581.945	7.94
582.283	7.94
582.622	8
582.961	8
583.3	8
583.639	8.07
583.977	8.08
584.316	8.07
584.654	8.12
584.993	8.1
585.332	8.11
585.67	8.09
586.008	8.1
586.347	8.12
586.685	8.06
587.024	8.07
587.362	8.09
587.7	8.07
588.038	8.04
588.376	8.02
588.715	7.98
589.053	8.01
589.391	8.01
589.729	7.99
590.067	7.99
590.404	7.98
590.742	7.92
591.08	7.88
591.418	7.93
591.756	7.9
592.093	7.94
592.431	7.97
592.769	7.97
593.106	8.02
593.444	8.04
593.781	8.05
594.119	8.07
594.456	8.04
594.793	8.03
595.131	8.04
595.468	8.03
595.805	8.07
596.143	8.03
596.48	8.02
596.817	8.03
597.154	8.01
597.491	8.03
597.828	8.05
598.165	8.09
598.502	8.07
598.839	8.07
599.176	8.06
599.512	8.08
599.849	8.12
600.186	8.11
600.523	8.09
600.859	8.16
601.196	8.16
601.532	8.18
601.869	8.17
602.205	8.17
602.542	8.19
602.878	8.2
603.215	8.24
603.551	8.27
603.887	8.29
604.223	8.32
604.56	8.32
604.896	8.34
605.232	8.34
605.568	8.36
605.904	8.37
606.24	8.4
606.576	8.38
606.912	8.34
607.248	8.32
607.583	8.35
607.919	8.32
608.255	8.3
608.591	8.33
608.926	8.33
609.262	8.37
609.597	8.34
609.933	8.35
610.268	8.37
610.604	8.37
610.939	8.37
611.275	8.34
611.61	8.33
611.945	8.36
612.281	8.37
612.616	8.34
612.951	8.36
613.286	8.35
613.621	8.33
613.956	8.35
614.291	8.39
614.626	8.35
614.961	8.33
615.296	8.33
615.631	8.33
615.966	8.34
616.3	8.35
616.635	8.36
616.97	8.35
617.304	8.33
617.639	8.31
617.973	8.32
618.308	8.37
618.642	8.43
618.977	8.4
619.311	8.41
619.646	8.46
619.98	8.41
620.314	8.42
620.648	8.43
620.983	8.45
621.317	8.42
621.651	8.47
621.985	8.54
622.319	8.55
622.653	8.54
622.987	8.55
623.321	8.56
623.655	8.6
623.988	8.62
624.322	8.61
624.656	8.64
624.99	8.62
625.323	8.59
625.657	8.58
625.99	8.64
626.324	8.62
626.657	8.64
626.991	8.71
627.324	8.72
627.658	8.72
627.991	8.69
628.324	8.72
628.657	8.72
628.991	8.72
629.324	8.77
629.657	8.79
629.99	8.78
630.323	8.79
630.656	8.79
630.989	8.85
631.322	8.9
631.655	8.88
631.987	8.88
632.32	8.91
632.653	8.88
632.986	8.85
633.318	8.8
633.651	8.79
633.984	8.74
634.316	8.7
634.649	8.7
634.981	8.75
635.313	8.75
635.646	8.76
635.978	8.75
636.31	8.74
636.643	8.71
636.975	8.76
637.307	8.73
637.639	8.7
637.971	8.62
638.303	8.59
638.635	8.59
638.967	8.6
639.299	8.67
639.631	8.7
639.963	8.57
640.295	8.68
640.626	8.63
640.958	8.66
641.29	8.67
641.621	8.65
641.953	8.6
642.285	8.58
642.616	8.57
642.948	8.53
643.279	8.51
643.61	8.48
643.942	8.46
644.273	8.48
644.604	8.5
644.936	8.46
645.267	8.46
645.598	8.47
645.929	8.53
646.26	8.46
646.591	8.41
646.922	8.46
647.253	8.4
647.584	8.43
647.915	8.48
648.245	8.46
648.576	8.53
648.907	8.59
649.238	8.55
649.568	8.56
649.899	8.61
650.229	8.62
650.56	8.78
650.89	8.78
651.221	8.75
651.551	8.7
651.882	8.74
652.212	8.73
652.542	8.72
652.872	8.68
653.203	8.67
653.533	8.74
653.863	8.82
654.193	8.83
654.523	8.83
654.853	8.82
655.183	8.9
655.513	8.94
655.843	8.94
656.172	9.05
656.502	9.03
656.832	9.03
657.162	9.02
657.491	8.94
657.821	8.97
658.15	8.95
658.48	9.03
658.809	9.01
659.139	9.06
659.468	9.12
659.798	9.17
660.127	9.19
660.456	9.21
660.785	9.15
661.115	9.18
661.444	9.24
661.773	9.18
662.102	9.21
662.431	9.17
662.76	9.18
663.089	9.14
663.418	9.18
663.747	9.19
664.076	9.28
664.404	9.26
664.733	9.3
665.062	9.34
665.39	9.35
665.719	9.38
666.048	9.41
666.376	9.36
666.705	9.39
667.033	9.42
667.362	9.46
667.69	9.49
668.018	9.48
668.347	9.42
668.675	9.5
669.003	9.39
669.331	9.45
669.659	9.49
669.987	9.42
670.315	9.46
670.643	9.5
670.971	9.43
671.299	9.49
671.627	9.41
671.955	9.42
672.283	9.38
672.61	9.44
672.938	9.39
673.266	9.42
673.593	9.48
673.921	9.45
674.249	9.41
674.576	9.39
674.904	9.5
