Data from BA28306_Reflection_00004.txt Node
Date: Mon Nov 18 15:53:33 EST 2019
User: vgr7
Spectrometer: USB2G7710
Scans to average: 3
Trigger mode: 4
Integration Time (sec): 2.000000E-2
Electric dark correction enabled: true
Boxcar width: 10
XAxis mode: Wavelengths
Number of Pixels in Spectrum: 2048
>>>>>Begin Spectral Data<<<<<
177.721	129.13
178.105	157.32
178.488	124.55
178.871	128.3
179.254	1.1
179.636	436.73
180.019	-63.44
180.402	177.27
180.785	-62
181.168	-112.35
181.55	-93.95
181.933	167.15
182.316	125.79
182.698	157.49
183.081	182.16
183.463	342.03
183.846	876.65
184.228	-579.56
184.611	-395.65
184.993	0.18
185.376	-56.88
185.758	-171.39
186.14	-60.64
186.522	-64.58
186.904	-48.11
187.287	-69.29
187.669	-25.51
188.051	-90.43
188.433	-40.36
188.815	2.58
189.197	0.46
189.579	-7.57
189.961	-16.25
190.342	-39.8
190.724	-26
191.106	-63.57
191.488	-73.89
191.869	-100.97
192.251	-202.85
192.633	-206.95
193.014	-220.56
193.396	-167.97
193.777	-121.32
194.159	-103.67
194.54	-121.98
194.922	-120.95
195.303	-114.37
195.684	-123.96
196.065	-91.24
196.447	-105.2
196.828	-170.34
197.209	-182.89
197.59	-223.87
197.971	-244.95
198.352	-187.41
198.733	-276.03
199.114	-175.01
199.495	-130.35
199.876	-94.84
200.257	-76.18
200.638	-54.17
201.018	-64.74
201.399	-105.45
201.78	-90.13
202.16	-118.4
202.541	-134.81
202.922	-173.93
203.302	-334.96
203.683	-344.36
204.063	-504.05
204.444	-407.61
204.824	-268.13
205.204	-245.36
205.585	-213.83
205.965	-180.82
206.345	-249.2
206.725	-205.57
207.106	-231.8
207.486	-387.21
207.866	-384.72
208.246	-372.24
208.626	-370.62
209.006	-240.47
209.386	-219.38
209.766	-179.44
210.145	-152.84
210.525	-115.56
210.905	-109.02
211.285	-63.24
211.664	-42.14
212.044	-33.65
212.424	-34.18
212.803	-35.06
213.183	-40.7
213.562	-37.18
213.942	-34.66
214.321	-28.26
214.701	-33.71
215.08	-39.14
215.459	-34.85
215.838	-27.37
216.218	-38.93
216.597	-45.04
216.976	-51.79
217.355	-45.64
217.734	-56.62
218.113	-50.41
218.492	-46.55
218.871	-64.27
219.25	-66.42
219.629	-70.17
220.008	-93.53
220.387	-85.62
220.766	-66.45
221.144	-75.85
221.523	-74.36
221.902	-71.81
222.28	-70.96
222.659	-59.91
223.037	-56.06
223.416	-51.33
223.794	-56.87
224.173	-42.27
224.551	-24.29
224.929	-27.43
225.308	-27.51
225.686	-20.48
226.064	-16.77
226.442	-15.14
226.821	-10.9
227.199	-12.43
227.577	-10.82
227.955	-7.41
228.333	-5.52
228.711	-6.21
229.089	-0.03
229.467	-2.19
229.845	-3.31
230.222	-5.22
230.6	-5.72
230.978	-8.91
231.356	-7.46
231.733	-7.33
232.111	-5.85
232.488	-6.2
232.866	-6.41
233.243	-5.37
233.621	-6.33
233.998	-7.73
234.376	-7.72
234.753	-7.97
235.13	-7.86
235.508	-6.4
235.885	-4.57
236.262	-5.61
236.639	-4.45
237.016	-3.62
237.393	-1.57
237.77	-0.28
238.147	1.34
238.524	2.81
238.901	3.97
239.278	5.09
239.655	5.47
240.032	5.31
240.409	5.08
240.785	5.38
241.162	5.08
241.539	5.52
241.915	5.84
242.292	5.51
242.668	5.79
243.045	6.19
243.421	5.98
243.798	5.61
244.174	5.64
244.551	5.48
244.927	5.16
245.303	5.03
245.679	5.11
246.056	5.08
246.432	4.79
246.808	5.05
247.184	4.66
247.56	4.68
247.936	4.54
248.312	4.64
248.688	4.73
249.064	4.77
249.44	4.57
249.815	4.42
250.191	4.58
250.567	4.45
250.943	4.32
251.318	4.34
251.694	4.24
252.069	4.2
252.445	3.93
252.82	3.83
253.196	3.63
253.571	3.52
253.947	3.54
254.322	3.74
254.697	3.44
255.073	3.3
255.448	3.19
255.823	3.69
256.198	3.68
256.573	3.41
256.948	3.35
257.323	3.61
257.698	3.91
258.073	3.65
258.448	3.89
258.823	4.02
259.198	3.73
259.573	3.78
259.948	3.7
260.322	3.87
260.697	4.01
261.072	4.1
261.446	3.97
261.821	3.81
262.195	3.81
262.57	3.79
262.944	3.86
263.319	3.88
263.693	3.73
264.067	3.79
264.442	3.96
264.816	4.12
265.19	4.07
265.564	3.95
265.938	4.02
266.313	3.9
266.687	3.84
267.061	4.27
267.435	4.29
267.809	4.26
268.183	4.29
268.556	4.2
268.93	4.32
269.304	4.44
269.678	4.63
270.051	4.51
270.425	4.52
270.799	4.51
271.172	4.49
271.546	4.48
271.919	4.28
272.293	4.22
272.666	4.24
273.04	4.32
273.413	4.27
273.787	4.33
274.16	4.26
274.533	4.12
274.906	4.04
275.279	4.01
275.653	4.09
276.026	3.97
276.399	3.87
276.772	3.82
277.145	3.8
277.518	3.75
277.891	3.82
278.263	3.76
278.636	3.78
279.009	3.8
279.382	3.94
279.755	3.95
280.127	4.08
280.5	4.04
280.872	4.04
281.245	3.89
281.617	3.94
281.99	4.12
282.362	4.25
282.735	4.12
283.107	4.16
283.479	4.28
283.852	4.41
284.224	4.53
284.596	4.54
284.968	4.67
285.34	4.72
285.713	4.56
286.085	4.68
286.457	4.88
286.829	4.8
287.201	4.57
287.572	4.72
287.944	4.69
288.316	4.77
288.688	4.79
289.06	4.95
289.431	5.01
289.803	5.04
290.175	5.03
290.546	5.27
290.918	5.21
291.289	5.18
291.661	5.22
292.032	5.18
292.403	5.23
292.775	5.19
293.146	5.11
293.517	5.14
293.889	5.1
294.26	4.97
294.631	5.02
295.002	5.05
295.373	4.97
295.744	4.83
296.115	4.77
296.486	4.6
296.857	4.6
297.228	4.66
297.599	4.57
297.97	4.59
298.34	4.52
298.711	4.55
299.082	4.53
299.452	4.58
299.823	4.61
300.194	4.47
300.564	4.4
300.935	4.5
301.305	4.61
301.676	4.62
302.046	4.64
302.416	4.73
302.787	4.76
303.157	4.84
303.527	4.96
303.897	4.87
304.267	5.09
304.637	5.1
305.008	4.99
305.378	5
305.748	4.96
306.117	4.78
306.487	4.8
306.857	4.73
307.227	4.63
307.597	4.67
307.967	4.8
308.336	4.72
308.706	4.65
309.076	4.6
309.445	4.49
309.815	4.43
310.184	4.22
310.554	4.34
310.923	4.22
311.293	4.22
311.662	4.22
312.031	4.22
312.401	4.17
312.77	4.3
313.139	4.37
313.508	4.31
313.877	4.44
314.246	4.46
314.616	4.45
314.985	4.44
315.353	4.34
315.722	4.3
316.091	4.33
316.46	4.21
316.829	4.32
317.198	4.48
317.567	4.5
317.935	4.54
318.304	4.45
318.672	4.44
319.041	4.41
319.41	4.39
319.778	4.22
320.147	4.2
320.515	4.02
320.883	3.91
321.252	3.94
321.62	3.73
321.988	3.66
322.357	3.61
322.725	3.63
323.093	3.63
323.461	3.58
323.829	3.62
324.197	3.72
324.565	3.67
324.933	3.59
325.301	3.59
325.669	3.63
326.037	3.67
326.405	3.57
326.772	3.65
327.14	3.82
327.508	3.85
327.875	3.89
328.243	3.91
328.61	3.91
328.978	4.03
329.346	4.26
329.713	4.29
330.08	4.39
330.448	4.3
330.815	4.45
331.182	4.3
331.55	4.28
331.917	4.32
332.284	4.37
332.651	4.46
333.018	4.5
333.385	4.54
333.752	4.51
334.119	4.6
334.486	4.52
334.853	4.38
335.22	4.34
335.587	4.32
335.954	4.25
336.32	4.2
336.687	4.11
337.054	3.99
337.42	3.97
337.787	3.99
338.153	3.92
338.52	3.97
338.886	3.97
339.253	3.9
339.619	3.91
339.986	3.73
340.352	3.61
340.718	3.54
341.084	3.55
341.451	3.53
341.817	3.55
342.183	3.55
342.549	3.44
342.915	3.51
343.281	3.48
343.647	3.53
344.013	3.61
344.379	3.62
344.745	3.69
345.11	3.73
345.476	3.68
345.842	3.6
346.208	3.52
346.573	3.68
346.939	3.84
347.304	3.81
347.67	3.86
348.035	3.89
348.401	3.92
348.766	3.88
349.132	3.9
349.497	3.88
349.862	3.93
350.228	4.08
350.593	4.06
350.958	4.04
351.323	4.1
351.688	4.06
352.053	4.11
352.418	4.13
352.783	4.17
353.148	4.17
353.513	4.37
353.878	4.34
354.243	4.34
354.608	4.32
354.972	4.29
355.337	4.28
355.702	4.32
356.066	4.33
356.431	4.31
356.795	4.36
357.16	4.33
357.524	4.26
357.889	4.19
358.253	4.18
358.618	4.29
358.982	4.21
359.346	4.16
359.71	4.09
360.075	4.05
360.439	4.06
360.803	4.1
361.167	3.99
361.531	3.97
361.895	3.92
362.259	3.88
362.623	3.95
362.987	3.95
363.351	3.94
363.714	3.91
364.078	3.96
364.442	3.88
364.806	3.9
365.169	3.94
365.533	3.98
365.896	4
366.26	3.9
366.623	3.88
366.987	3.86
367.35	3.95
367.714	3.94
368.077	3.87
368.44	3.8
368.803	3.87
369.167	3.92
369.53	3.91
369.893	3.89
370.256	3.8
370.619	3.8
370.982	3.76
371.345	3.69
371.708	3.69
372.071	3.72
372.434	3.71
372.797	3.71
373.159	3.64
373.522	3.66
373.885	3.75
374.247	3.82
374.61	3.9
374.973	3.9
375.335	3.89
375.698	4
376.06	4.01
376.423	3.99
376.785	3.99
377.147	4.04
377.51	4.05
377.872	4.14
378.234	4.15
378.596	4.19
378.958	4.21
379.321	4.22
379.683	4.23
380.045	4.28
380.407	4.26
380.769	4.31
381.13	4.26
381.492	4.19
381.854	4.19
382.216	4.13
382.578	4.11
382.939	4.09
383.301	4.02
383.663	4.02
384.024	4.04
384.386	4.06
384.747	4.05
385.109	4.08
385.47	4.02
385.832	4.05
386.193	4.1
386.554	4.14
386.916	4.11
387.277	4.1
387.638	4.08
387.999	4.08
388.36	4.08
388.721	4.09
389.082	4.12
389.443	4.06
389.804	4.08
390.165	4.07
390.526	4.07
390.887	4.03
391.248	4.03
391.609	4
391.969	3.97
392.33	3.94
392.691	3.91
393.051	3.93
393.412	3.91
393.772	3.86
394.133	3.84
394.493	3.85
394.854	3.84
395.214	3.8
395.574	3.82
395.935	3.83
396.295	3.87
396.655	3.84
397.015	3.84
397.376	3.84
397.736	3.83
398.096	3.82
398.456	3.85
398.816	3.89
399.176	3.89
399.535	3.86
399.895	3.83
400.255	3.85
400.615	3.84
400.975	3.86
401.334	3.84
401.694	3.86
402.054	3.85
402.413	3.86
402.773	3.87
403.132	3.85
403.492	3.8
403.851	3.8
404.211	3.84
404.57	3.85
404.929	3.85
405.288	3.88
405.648	3.9
406.007	3.9
406.366	3.87
406.725	3.88
407.084	3.89
407.443	3.91
407.802	3.92
408.161	3.93
408.52	3.87
408.879	3.89
409.238	3.89
409.596	3.91
409.955	3.93
410.314	3.93
410.673	3.92
411.031	3.95
411.39	3.95
411.748	3.97
412.107	4
412.465	3.99
412.824	3.97
413.182	3.95
413.54	3.95
413.899	3.97
414.257	3.98
414.615	3.99
414.974	3.99
415.332	3.98
415.69	3.98
416.048	3.99
416.406	3.99
416.764	3.99
417.122	3.97
417.48	3.94
417.838	3.95
418.195	3.96
418.553	3.96
418.911	3.95
419.269	3.95
419.626	3.94
419.984	3.94
420.342	3.96
420.699	3.98
421.057	3.98
421.414	3.96
421.772	3.96
422.129	3.96
422.486	3.95
422.844	3.95
423.201	3.94
423.558	3.94
423.915	3.93
424.273	3.93
424.63	3.93
424.987	3.94
425.344	3.94
425.701	3.94
426.058	3.92
426.415	3.91
426.772	3.9
427.128	3.9
427.485	3.9
427.842	3.87
428.199	3.86
428.555	3.85
428.912	3.87
429.269	3.86
429.625	3.86
429.982	3.87
430.338	3.86
430.695	3.89
431.051	3.88
431.407	3.88
431.764	3.88
432.12	3.89
432.476	3.88
432.832	3.86
433.189	3.87
433.545	3.89
433.901	3.88
434.257	3.87
434.613	3.86
434.969	3.86
435.325	3.87
435.681	3.85
436.036	3.85
436.392	3.86
436.748	3.86
437.104	3.85
437.459	3.86
437.815	3.87
438.171	3.86
438.526	3.88
438.882	3.89
439.237	3.89
439.593	3.9
439.948	3.9
440.304	3.91
440.659	3.9
441.014	3.91
441.369	3.92
441.725	3.92
442.08	3.92
442.435	3.93
442.79	3.94
443.145	3.94
443.5	3.94
443.855	3.91
444.21	3.92
444.565	3.92
444.92	3.92
445.275	3.92
445.629	3.93
445.984	3.92
446.339	3.92
446.693	3.89
447.048	3.87
447.403	3.88
447.757	3.87
448.112	3.87
448.466	3.84
448.82	3.83
449.175	3.83
449.529	3.83
449.883	3.81
450.238	3.8
450.592	3.8
450.946	3.81
451.3	3.8
451.654	3.79
452.008	3.8
452.362	3.77
452.716	3.77
453.07	3.77
453.424	3.78
453.778	3.78
454.132	3.8
454.486	3.81
454.839	3.8
455.193	3.79
455.547	3.8
455.9	3.81
456.254	3.83
456.607	3.84
456.961	3.84
457.314	3.85
457.668	3.83
458.021	3.83
458.375	3.82
458.728	3.82
459.081	3.82
459.434	3.82
459.787	3.83
460.141	3.82
460.494	3.81
460.847	3.8
461.2	3.79
461.553	3.81
461.906	3.8
462.259	3.8
462.611	3.81
462.964	3.82
463.317	3.81
463.67	3.8
464.022	3.79
464.375	3.77
464.728	3.77
465.08	3.79
465.433	3.79
465.785	3.82
466.138	3.81
466.49	3.82
466.843	3.82
467.195	3.82
467.547	3.83
467.899	3.84
468.252	3.83
468.604	3.83
468.956	3.81
469.308	3.84
469.66	3.85
470.012	3.85
470.364	3.85
470.716	3.86
471.068	3.85
471.42	3.86
471.772	3.87
472.123	3.88
472.475	3.86
472.827	3.87
473.178	3.86
473.53	3.89
473.882	3.88
474.233	3.89
474.585	3.88
474.936	3.86
475.288	3.86
475.639	3.88
475.99	3.9
476.342	3.9
476.693	3.91
477.044	3.9
477.395	3.9
477.746	3.87
478.097	3.88
478.448	3.88
478.8	3.89
479.15	3.88
479.501	3.9
479.852	3.91
480.203	3.91
480.554	3.92
480.905	3.91
481.255	3.93
481.606	3.94
481.957	3.94
482.307	3.95
482.658	3.95
483.009	3.96
483.359	3.96
483.709	3.96
484.06	3.96
484.41	3.97
484.761	3.98
485.111	3.99
485.461	4
485.811	4
486.162	4.01
486.512	4.03
486.862	4.03
487.212	4.03
487.562	4.02
487.912	4.02
488.262	4.03
488.612	4.03
488.961	4.04
489.311	4.05
489.661	4.06
490.011	4.05
490.36	4.04
490.71	4.04
491.06	4.04
491.409	4.04
491.759	4.03
492.108	4.03
492.458	4.03
492.807	4.02
493.157	4.02
493.506	4.01
493.855	4.01
494.204	4.01
494.554	4.01
494.903	4.02
495.252	4.04
495.601	4.04
495.95	4.05
496.299	4.03
496.648	4.01
496.997	4.02
497.346	4.03
497.695	4.05
498.043	4.07
498.392	4.06
498.741	4.09
499.09	4.09
499.438	4.1
499.787	4.1
500.135	4.09
500.484	4.12
500.832	4.13
501.181	4.13
501.529	4.12
501.878	4.13
502.226	4.15
502.574	4.13
502.923	4.12
503.271	4.11
503.619	4.13
503.967	4.15
504.315	4.15
504.663	4.16
505.011	4.15
505.359	4.16
505.707	4.17
506.055	4.16
506.403	4.15
506.751	4.15
507.098	4.16
507.446	4.18
507.794	4.16
508.141	4.17
508.489	4.17
508.837	4.18
509.184	4.19
509.531	4.19
509.879	4.19
510.226	4.22
510.574	4.23
510.921	4.23
511.268	4.23
511.616	4.23
511.963	4.23
512.31	4.24
512.657	4.24
513.004	4.25
513.351	4.26
513.698	4.26
514.045	4.26
514.392	4.27
514.739	4.28
515.086	4.3
515.432	4.31
515.779	4.32
516.126	4.33
516.473	4.33
516.819	4.34
517.166	4.36
517.512	4.35
517.859	4.35
518.205	4.36
518.552	4.36
518.898	4.38
519.245	4.37
519.591	4.38
519.937	4.36
520.283	4.36
520.629	4.37
520.976	4.39
521.322	4.39
521.668	4.4
522.014	4.41
522.36	4.43
522.706	4.43
523.052	4.42
523.398	4.45
523.743	4.44
524.089	4.44
524.435	4.44
524.781	4.43
525.126	4.43
525.472	4.45
525.817	4.47
526.163	4.46
526.509	4.47
526.854	4.47
527.199	4.5
527.545	4.5
527.89	4.5
528.235	4.5
528.581	4.49
528.926	4.49
529.271	4.48
529.616	4.47
529.961	4.47
530.306	4.49
530.651	4.48
530.996	4.48
531.341	4.48
531.686	4.49
532.031	4.49
532.376	4.48
532.721	4.47
533.065	4.47
533.41	4.48
533.755	4.48
534.099	4.48
534.444	4.48
534.788	4.49
535.133	4.48
535.477	4.5
535.822	4.5
536.166	4.49
536.51	4.5
536.855	4.51
537.199	4.52
537.543	4.52
537.887	4.54
538.231	4.54
538.576	4.54
538.92	4.55
539.264	4.57
539.608	4.58
539.951	4.58
540.295	4.58
540.639	4.58
540.983	4.58
541.327	4.59
541.671	4.58
542.014	4.57
542.358	4.58
542.701	4.57
543.045	4.58
543.389	4.6
543.732	4.6
544.075	4.6
544.419	4.59
544.762	4.59
545.105	4.59
545.449	4.57
545.792	4.58
546.135	4.59
546.478	4.58
546.821	4.58
547.165	4.59
547.508	4.59
547.851	4.59
548.194	4.58
548.536	4.56
548.879	4.57
549.222	4.57
549.565	4.59
549.908	4.58
550.25	4.59
550.593	4.59
550.936	4.58
551.278	4.57
551.621	4.57
551.963	4.56
552.306	4.51
552.648	4.55
552.991	4.56
553.333	4.54
553.675	4.54
554.017	4.53
554.36	4.5
554.702	4.52
555.044	4.51
555.386	4.52
555.728	4.56
556.07	4.59
556.412	4.58
556.754	4.55
557.096	4.58
557.438	4.59
557.78	4.6
558.121	4.62
558.463	4.61
558.805	4.58
559.147	4.6
559.488	4.65
559.83	4.61
560.171	4.61
560.513	4.63
560.854	4.64
561.196	4.63
561.537	4.66
561.878	4.66
562.22	4.66
562.561	4.63
562.902	4.63
563.243	4.59
563.584	4.58
563.925	4.61
564.266	4.6
564.607	4.59
564.948	4.61
565.289	4.58
565.63	4.62
565.971	4.63
566.312	4.63
566.653	4.61
566.993	4.65
567.334	4.65
567.675	4.68
568.015	4.67
568.356	4.7
568.696	4.71
569.037	4.72
569.377	4.75
569.718	4.78
570.058	4.75
570.398	4.77
570.739	4.79
571.079	4.78
571.419	4.79
571.759	4.8
572.099	4.76
572.439	4.78
572.779	4.76
573.119	4.77
573.459	4.8
573.799	4.83
574.139	4.8
574.479	4.79
574.819	4.8
575.158	4.79
575.498	4.77
575.838	4.78
576.177	4.75
576.517	4.75
576.856	4.78
577.196	4.8
577.535	4.78
577.875	4.79
578.214	4.77
578.553	4.76
578.893	4.75
579.232	4.76
579.571	4.76
579.91	4.75
580.25	4.78
580.589	4.74
580.928	4.74
581.267	4.75
581.606	4.76
581.945	4.71
582.283	4.75
582.622	4.77
582.961	4.75
583.3	4.76
583.639	4.77
583.977	4.73
584.316	4.71
584.654	4.74
584.993	4.71
585.332	4.75
585.67	4.77
586.008	4.74
586.347	4.76
586.685	4.73
587.024	4.75
587.362	4.73
587.7	4.73
588.038	4.72
588.376	4.75
588.715	4.74
589.053	4.75
589.391	4.76
589.729	4.76
590.067	4.8
590.404	4.77
590.742	4.79
591.08	4.75
591.418	4.78
591.756	4.78
592.093	4.79
592.431	4.74
592.769	4.73
593.106	4.77
593.444	4.77
593.781	4.74
594.119	4.74
594.456	4.74
594.793	4.74
595.131	4.75
595.468	4.72
595.805	4.73
596.143	4.75
596.48	4.75
596.817	4.72
597.154	4.69
597.491	4.7
597.828	4.66
598.165	4.68
598.502	4.62
598.839	4.59
599.176	4.59
599.512	4.61
599.849	4.64
600.186	4.66
600.523	4.68
600.859	4.76
601.196	4.74
601.532	4.75
601.869	4.74
602.205	4.75
602.542	4.79
602.878	4.76
603.215	4.72
603.551	4.76
603.887	4.77
604.223	4.8
604.56	4.81
604.896	4.82
605.232	4.85
605.568	4.9
605.904	4.93
606.24	4.98
606.576	4.97
606.912	4.94
607.248	4.92
607.583	4.92
607.919	4.9
608.255	4.91
608.591	4.92
608.926	4.91
609.262	4.92
609.597	4.89
609.933	4.92
610.268	5
610.604	4.95
610.939	4.95
611.275	4.96
611.61	4.98
611.945	5
612.281	4.98
612.616	4.95
612.951	4.93
613.286	4.9
613.621	4.95
613.956	4.95
614.291	4.96
614.626	4.94
614.961	4.91
615.296	4.91
615.631	4.93
615.966	4.99
616.3	4.94
616.635	4.94
616.97	4.93
617.304	4.84
617.639	4.87
617.973	4.83
618.308	4.8
618.642	4.82
618.977	4.84
619.311	4.85
619.646	4.91
619.98	4.93
620.314	4.91
620.648	4.89
620.983	4.92
621.317	4.91
621.651	4.91
621.985	4.95
622.319	4.93
622.653	4.91
622.987	4.89
623.321	4.92
623.655	4.95
623.988	5
624.322	4.93
624.656	4.93
624.99	4.94
625.323	4.95
625.657	4.96
625.99	4.98
626.324	4.98
626.657	4.97
626.991	4.94
627.324	4.93
627.658	4.92
627.991	4.95
628.324	4.95
628.657	4.96
628.991	4.98
629.324	5.03
629.657	5.06
629.99	5.06
630.323	5.04
630.656	5.02
630.989	5.02
631.322	5.09
631.655	5.07
631.987	5.1
632.32	5.08
632.653	5.05
632.986	5.04
633.318	5.04
633.651	5.07
633.984	5.08
634.316	5.08
634.649	5.08
634.981	5.04
635.313	5.04
635.646	5.05
635.978	5.08
636.31	5
636.643	5.01
636.975	5.07
637.307	5.1
637.639	5.11
637.971	5.07
638.303	5.1
638.635	5.12
638.967	5.18
639.299	5.23
639.631	5.24
639.963	5.19
640.295	5.16
640.626	5.12
640.958	5.18
641.29	5.2
641.621	5.14
641.953	5.16
642.285	5.17
642.616	5.22
642.948	5.17
643.279	5.22
643.61	5.25
643.942	5.14
644.273	5.15
644.604	5.12
644.936	5.15
645.267	5.18
645.598	5.18
645.929	5.14
646.26	5.08
646.591	5.05
646.922	5.05
647.253	5.04
647.584	5.03
647.915	4.95
648.245	4.92
648.576	5
648.907	5
649.238	4.94
649.568	4.93
649.899	5.01
650.229	5.03
650.56	4.94
650.89	5.02
651.221	4.98
651.551	4.98
651.882	4.99
652.212	4.92
652.542	4.96
652.872	4.97
653.203	4.94
653.533	5.01
653.863	5.07
654.193	5.07
654.523	5.13
654.853	5.16
655.183	5.23
655.513	5.23
655.843	5.26
656.172	5.37
656.502	5.36
656.832	5.25
657.162	5.26
657.491	5.27
657.821	5.24
658.15	5.26
658.48	5.26
658.809	5.28
659.139	5.3
659.468	5.26
659.798	5.24
660.127	5.3
660.456	5.23
660.785	5.23
661.115	5.3
661.444	5.3
661.773	5.32
662.102	5.29
662.431	5.34
662.76	5.33
663.089	5.33
663.418	5.29
663.747	5.33
664.076	5.33
664.404	5.34
664.733	5.46
665.062	5.47
665.39	5.5
665.719	5.44
666.048	5.46
666.376	5.48
666.705	5.48
667.033	5.5
667.362	5.52
667.69	5.45
668.018	5.45
668.347	5.42
668.675	5.54
669.003	5.54
669.331	5.5
669.659	5.47
669.987	5.38
670.315	5.43
670.643	5.42
670.971	5.44
671.299	5.48
671.627	5.49
671.955	5.48
672.283	5.49
672.61	5.59
672.938	5.61
673.266	5.61
673.593	5.67
673.921	5.58
674.249	5.69
674.576	5.73
674.904	5.66
675.231	5.61
675.558	5.52
675.886	5.6
676.213	5.66
