Data from BA28299_Reflection_00006.txt Node
Date: Mon Nov 18 15:42:17 EST 2019
User: vgr7
Spectrometer: USB2G7710
Scans to average: 3
Trigger mode: 4
Integration Time (sec): 2.000000E-2
Electric dark correction enabled: true
Boxcar width: 10
XAxis mode: Wavelengths
Number of Pixels in Spectrum: 2048
>>>>>Begin Spectral Data<<<<<
177.721	267.78
178.105	433.33
178.488	-123.74
178.871	-187.88
179.254	296.35
179.636	38.94
180.019	1
180.402	23.08
180.785	-29.25
181.168	16.67
181.55	40.17
181.933	133.88
182.316	81.33
182.698	76.72
183.081	74.92
183.463	157.11
183.846	138.07
184.228	422.75
184.611	6966.67
184.993	-169.16
185.376	-61.98
185.758	-98.26
186.14	-128.07
186.522	-321.12
186.904	-156.69
187.287	-382.42
187.669	-104.77
188.051	-134.06
188.433	-98.04
188.815	-96.34
189.197	-85.5
189.579	-65.16
189.961	-84.93
190.342	-56.81
190.724	-35.43
191.106	-47.56
191.488	-26.89
191.869	-3.7
192.251	-21.51
192.633	-20.87
193.014	-20.6
193.396	-23.85
193.777	-23.39
194.159	-26.65
194.54	-7.43
194.922	-15.38
195.303	-23.79
195.684	-21.38
196.065	-4.6
196.447	-11
196.828	-20.13
197.209	-22.98
197.59	-31.78
197.971	-36.77
198.352	-27.56
198.733	-33.71
199.114	-28.83
199.495	-25.96
199.876	-35.09
200.257	-29.97
200.638	-26.94
201.018	-27.67
201.399	-32.98
201.78	-28.98
202.16	-40.13
202.541	-58.08
202.922	-69.74
203.302	-58.66
203.683	-70.28
204.063	-84.49
204.444	-96.64
204.824	-104.57
205.204	-103.45
205.585	-106.98
205.965	-89.99
206.345	-107.77
206.725	-127.6
207.106	-195.93
207.486	-251.87
207.866	-264.52
208.246	-216.99
208.626	-189.56
209.006	-166.94
209.386	-202.66
209.766	-196.13
210.145	-171.57
210.525	-103.34
210.905	-106.44
211.285	-92.35
211.664	-61.69
212.044	-62.84
212.424	-62.91
212.803	-66.29
213.183	-76.74
213.562	-59.39
213.942	-63.27
214.321	-61.28
214.701	-65.61
215.08	-47.6
215.459	-33.18
215.838	-39.16
216.218	-40.1
216.597	-28.25
216.976	-31.22
217.355	-14.32
217.734	-15.16
218.113	-26.71
218.492	-46.8
218.871	-32.68
219.25	-26.52
219.629	-29.99
220.008	-39.87
220.387	-31.51
220.766	-38.37
221.144	-40.8
221.523	-62.96
221.902	-46.56
222.28	-58.18
222.659	-40.94
223.037	-35.25
223.416	-53.99
223.794	-41.68
224.173	-42.52
224.551	-36.94
224.929	-33.67
225.308	-32.54
225.686	-24.52
226.064	-21.37
226.442	-18.91
226.821	-16.65
227.199	-18.6
227.577	-17.68
227.955	-11.93
228.333	-14.27
228.711	-9.67
229.089	-2.9
229.467	-2.51
229.845	-1.85
230.222	2.26
230.6	0.63
230.978	-0.17
231.356	1.57
231.733	0.66
232.111	0.75
232.488	1.18
232.866	3.21
233.243	4.2
233.621	3.37
233.998	4.66
234.376	3.8
234.753	3.39
235.13	3.18
235.508	2.57
235.885	1.33
236.262	2.79
236.639	2.06
237.016	1.05
237.393	1.28
237.77	1.36
238.147	1.62
238.524	1.77
238.901	3.28
239.278	3.7
239.655	4.24
240.032	4.62
240.409	4.52
240.785	3.72
241.162	4.04
241.539	4.3
241.915	4.17
242.292	3.99
242.668	4.23
243.045	4.43
243.421	4.35
243.798	4.54
244.174	4.51
244.551	4.56
244.927	4.57
245.303	4.99
245.679	5.08
246.056	5.03
246.432	5.11
246.808	4.98
247.184	4.99
247.56	4.95
247.936	4.91
248.312	4.64
248.688	4.7
249.064	4.56
249.44	4.43
249.815	4.5
250.191	4.67
250.567	4.8
250.943	4.84
251.318	5.18
251.694	5.27
252.069	5.34
252.445	5.21
252.82	5.13
253.196	4.81
253.571	4.76
253.947	4.85
254.322	4.77
254.697	4.58
255.073	4.43
255.448	4.11
255.823	4.12
256.198	4.45
256.573	4.43
256.948	4.5
257.323	4.62
257.698	4.5
258.073	4.44
258.448	4.31
258.823	4.14
259.198	4.06
259.573	4.1
259.948	4.12
260.322	4.33
260.697	4.3
261.072	4.24
261.446	4.26
261.821	4.05
262.195	4.19
262.57	4.13
262.944	4.06
263.319	4.13
263.693	4.05
264.067	4.02
264.442	4.17
264.816	3.96
265.19	3.84
265.564	3.79
265.938	3.68
266.313	3.78
266.687	3.9
267.061	3.83
267.435	3.58
267.809	3.53
268.183	3.45
268.556	3.29
268.93	3.48
269.304	3.32
269.678	3.44
270.051	3.34
270.425	3.46
270.799	3.54
271.172	3.5
271.546	3.54
271.919	3.48
272.293	3.31
272.666	3.43
273.04	3.5
273.413	3.49
273.787	3.51
274.16	3.33
274.533	3.19
274.906	3.19
275.279	3.29
275.653	3.37
276.026	3.14
276.399	3.34
276.772	3.39
277.145	3.39
277.518	3.45
277.891	3.53
278.263	3.45
278.636	3.49
279.009	3.38
279.382	3.52
279.755	3.49
280.127	3.66
280.5	3.81
280.872	3.86
281.245	3.88
281.617	4.03
281.99	4.19
282.362	4.36
282.735	4.42
283.107	4.29
283.479	4.21
283.852	4.33
284.224	4.4
284.596	4.28
284.968	4.39
285.34	4.42
285.713	4.39
286.085	4.5
286.457	4.56
286.829	4.64
287.201	4.58
287.572	4.63
287.944	4.59
288.316	4.58
288.688	4.57
289.06	4.51
289.431	4.62
289.803	4.57
290.175	4.56
290.546	4.47
290.918	4.65
291.289	4.7
291.661	4.89
292.032	4.95
292.403	4.99
292.775	4.98
293.146	4.88
293.517	4.85
293.889	4.86
294.26	4.94
294.631	5.07
295.002	5.07
295.373	5.06
295.744	5.1
296.115	5.09
296.486	5.09
296.857	5.18
297.228	5.06
297.599	5.16
297.97	5.16
298.34	5.22
298.711	5.25
299.082	5.22
299.452	5.16
299.823	5.17
300.194	5.13
300.564	5.2
300.935	5.38
301.305	5.37
301.676	5.44
302.046	5.33
302.416	5.28
302.787	5.35
303.157	5.4
303.527	5.44
303.897	5.44
304.267	5.42
304.637	5.49
305.008	5.65
305.378	5.6
305.748	5.59
306.117	5.61
306.487	5.57
306.857	5.51
307.227	5.44
307.597	5.33
307.967	5.41
308.336	5.36
308.706	5.3
309.076	5.32
309.445	5.21
309.815	5.24
310.184	5.34
310.554	5.31
310.923	5.31
311.293	5.27
311.662	5.3
312.031	5.21
312.401	5.21
312.77	5.18
313.139	5.14
313.508	5.09
313.877	5.03
314.246	5.02
314.616	5.07
314.985	5.04
315.353	4.97
315.722	4.97
316.091	4.77
316.46	4.55
316.829	4.52
317.198	4.58
317.567	4.64
317.935	4.44
318.304	4.37
318.672	4.35
319.041	4.41
319.41	4.41
319.778	4.61
320.147	4.63
320.515	4.43
320.883	4.33
321.252	4.38
321.62	4.44
321.988	4.42
322.357	4.51
322.725	4.55
323.093	4.67
323.461	4.7
323.829	4.88
324.197	5.08
324.565	5.13
324.933	5.12
325.301	5.06
325.669	5.15
326.037	5.19
326.405	5.25
326.772	5.22
327.14	5.16
327.508	5.23
327.875	5.14
328.243	5.23
328.61	5.29
328.978	5.34
329.346	5.29
329.713	5.31
330.08	5.3
330.448	5.4
330.815	5.31
331.182	5.24
331.55	5.31
331.917	5.22
332.284	5.33
332.651	5.36
333.018	5.39
333.385	5.28
333.752	5.3
334.119	5.27
334.486	5.24
334.853	5.15
335.22	5.09
335.587	5.24
335.954	5.23
336.32	5.27
336.687	5.28
337.054	5.37
337.42	5.29
337.787	5.34
338.153	5.24
338.52	5.35
338.886	5.34
339.253	5.33
339.619	5.37
339.986	5.25
340.352	5.33
340.718	5.21
341.084	5.27
341.451	5.3
341.817	5.26
342.183	5.33
342.549	5.37
342.915	5.35
343.281	5.25
343.647	5.24
344.013	5.26
344.379	5.16
344.745	5.08
345.11	5.08
345.476	5.03
345.842	5
346.208	4.95
346.573	4.98
346.939	4.99
347.304	4.98
347.67	4.97
348.035	4.87
348.401	4.9
348.766	4.89
349.132	4.86
349.497	4.84
349.862	4.84
350.228	4.85
350.593	4.79
350.958	4.85
351.323	4.81
351.688	4.81
352.053	4.91
352.418	4.95
352.783	4.99
353.148	5
353.513	5.12
353.878	5.1
354.243	5.13
354.608	5.14
354.972	5.16
355.337	5.25
355.702	5.3
356.066	5.37
356.431	5.38
356.795	5.41
357.16	5.44
357.524	5.35
357.889	5.32
358.253	5.35
358.618	5.31
358.982	5.31
359.346	5.25
359.71	5.22
360.075	5.26
360.439	5.29
360.803	5.31
361.167	5.29
361.531	5.28
361.895	5.2
362.259	5.15
362.623	5.14
362.987	5.16
363.351	5.13
363.714	5.16
364.078	5.17
364.442	5.07
364.806	5.06
365.169	5.11
365.533	5.13
365.896	5.14
366.26	5.15
366.623	5.14
366.987	5.21
367.35	5.23
367.714	5.2
368.077	5.11
368.44	5.08
368.803	5.01
369.167	5.02
369.53	5.11
369.893	5.12
370.256	5.11
370.619	5.02
370.982	4.98
371.345	4.88
371.708	4.88
372.071	4.97
372.434	4.97
372.797	4.97
373.159	4.99
373.522	4.95
373.885	4.95
374.247	5.03
374.61	5.03
374.973	5
375.335	4.99
375.698	5.06
376.06	5.06
376.423	5.08
376.785	5.15
377.147	5.15
377.51	5.21
377.872	5.26
378.234	5.31
378.596	5.36
378.958	5.38
379.321	5.41
379.683	5.39
380.045	5.4
380.407	5.4
380.769	5.46
381.13	5.49
381.492	5.52
381.854	5.46
382.216	5.41
382.578	5.45
382.939	5.42
383.301	5.42
383.663	5.46
384.024	5.49
384.386	5.54
384.747	5.54
385.109	5.55
385.47	5.52
385.832	5.52
386.193	5.51
386.554	5.53
386.916	5.55
387.277	5.6
387.638	5.59
387.999	5.59
388.36	5.59
388.721	5.59
389.082	5.61
389.443	5.62
389.804	5.68
390.165	5.65
390.526	5.67
390.887	5.65
391.248	5.67
391.609	5.67
391.969	5.62
392.33	5.6
392.691	5.58
393.051	5.56
393.412	5.58
393.772	5.6
394.133	5.59
394.493	5.55
394.854	5.51
395.214	5.53
395.574	5.54
395.935	5.47
396.295	5.44
396.655	5.4
397.015	5.4
397.376	5.37
397.736	5.37
398.096	5.4
398.456	5.42
398.816	5.36
399.176	5.3
399.535	5.3
399.895	5.27
400.255	5.26
400.615	5.27
400.975	5.22
401.334	5.2
401.694	5.21
402.054	5.19
402.413	5.2
402.773	5.18
403.132	5.17
403.492	5.19
403.851	5.22
404.211	5.22
404.57	5.21
404.929	5.22
405.288	5.24
405.648	5.22
406.007	5.23
406.366	5.24
406.725	5.3
407.084	5.28
407.443	5.3
407.802	5.32
408.161	5.31
408.52	5.32
408.879	5.32
409.238	5.3
409.596	5.31
409.955	5.33
410.314	5.31
410.673	5.34
411.031	5.36
411.39	5.34
411.748	5.32
412.107	5.33
412.465	5.32
412.824	5.32
413.182	5.33
413.54	5.33
413.899	5.34
414.257	5.32
414.615	5.31
414.974	5.32
415.332	5.3
415.69	5.29
416.048	5.29
416.406	5.31
416.764	5.31
417.122	5.31
417.48	5.28
417.838	5.3
418.195	5.28
418.553	5.28
418.911	5.27
419.269	5.27
419.626	5.27
419.984	5.26
420.342	5.27
420.699	5.25
421.057	5.25
421.414	5.23
421.772	5.22
422.129	5.23
422.486	5.23
422.844	5.23
423.201	5.23
423.558	5.23
423.915	5.23
424.273	5.22
424.63	5.21
424.987	5.23
425.344	5.22
425.701	5.23
426.058	5.21
426.415	5.22
426.772	5.23
427.128	5.23
427.485	5.24
427.842	5.22
428.199	5.23
428.555	5.21
428.912	5.22
429.269	5.24
429.625	5.24
429.982	5.22
430.338	5.22
430.695	5.23
431.051	5.23
431.407	5.21
431.764	5.22
432.12	5.21
432.476	5.2
432.832	5.17
433.189	5.18
433.545	5.19
433.901	5.18
434.257	5.18
434.613	5.17
434.969	5.16
435.325	5.17
435.681	5.18
436.036	5.21
436.392	5.21
436.748	5.19
437.104	5.18
437.459	5.18
437.815	5.17
438.171	5.18
438.526	5.18
438.882	5.19
439.237	5.19
439.593	5.2
439.948	5.21
440.304	5.23
440.659	5.22
441.014	5.22
441.369	5.22
441.725	5.21
442.08	5.2
442.435	5.2
442.79	5.21
443.145	5.18
443.5	5.16
443.855	5.14
444.21	5.16
444.565	5.19
444.92	5.2
445.275	5.19
445.629	5.18
445.984	5.18
446.339	5.17
446.693	5.17
447.048	5.14
447.403	5.12
447.757	5.12
448.112	5.12
448.466	5.11
448.82	5.1
449.175	5.11
449.529	5.11
449.883	5.11
450.238	5.09
450.592	5.11
450.946	5.13
451.3	5.13
451.654	5.11
452.008	5.1
452.362	5.08
452.716	5.07
453.07	5.09
453.424	5.09
453.778	5.12
454.132	5.12
454.486	5.13
454.839	5.13
455.193	5.11
455.547	5.09
455.9	5.1
456.254	5.1
456.607	5.1
456.961	5.11
457.314	5.1
457.668	5.12
458.021	5.12
458.375	5.1
458.728	5.12
459.081	5.14
459.434	5.13
459.787	5.14
460.141	5.14
460.494	5.12
460.847	5.13
461.2	5.12
461.553	5.13
461.906	5.14
462.259	5.15
462.611	5.18
462.964	5.2
463.317	5.21
463.67	5.22
464.022	5.25
464.375	5.25
464.728	5.24
465.08	5.24
465.433	5.24
465.785	5.24
466.138	5.24
466.49	5.23
466.843	5.23
467.195	5.25
467.547	5.27
467.899	5.29
468.252	5.29
468.604	5.31
468.956	5.3
469.308	5.3
469.66	5.31
470.012	5.32
470.364	5.31
470.716	5.3
471.068	5.3
471.42	5.26
471.772	5.3
472.123	5.33
472.475	5.33
472.827	5.33
473.178	5.34
473.53	5.34
473.882	5.35
474.233	5.36
474.585	5.33
474.936	5.35
475.288	5.34
475.639	5.33
475.99	5.31
476.342	5.32
476.693	5.31
477.044	5.32
477.395	5.32
477.746	5.34
478.097	5.33
478.448	5.33
478.8	5.33
479.15	5.32
479.501	5.33
479.852	5.35
480.203	5.36
480.554	5.37
480.905	5.38
481.255	5.4
481.606	5.42
481.957	5.43
482.307	5.43
482.658	5.42
483.009	5.43
483.359	5.43
483.709	5.44
484.06	5.45
484.41	5.45
484.761	5.45
485.111	5.45
485.461	5.46
485.811	5.47
486.162	5.49
486.512	5.49
486.862	5.5
487.212	5.49
487.562	5.49
487.912	5.5
488.262	5.5
488.612	5.49
488.961	5.49
489.311	5.5
489.661	5.5
490.011	5.5
490.36	5.52
490.71	5.53
491.06	5.52
491.409	5.53
491.759	5.53
492.108	5.54
492.458	5.54
492.807	5.53
493.157	5.53
493.506	5.52
493.855	5.53
494.204	5.52
494.554	5.53
494.903	5.53
495.252	5.52
495.601	5.52
495.95	5.53
496.299	5.52
496.648	5.52
496.997	5.53
497.346	5.55
497.695	5.56
498.043	5.56
498.392	5.57
498.741	5.56
499.09	5.55
499.438	5.58
499.787	5.58
500.135	5.61
500.484	5.61
500.832	5.63
501.181	5.65
501.529	5.68
501.878	5.69
502.226	5.69
502.574	5.71
502.923	5.73
503.271	5.73
503.619	5.76
503.967	5.76
504.315	5.76
504.663	5.77
505.011	5.79
505.359	5.79
505.707	5.8
506.055	5.84
506.403	5.85
506.751	5.85
507.098	5.86
507.446	5.87
507.794	5.87
508.141	5.87
508.489	5.89
508.837	5.89
509.184	5.9
509.531	5.92
509.879	5.96
510.226	5.97
510.574	5.97
510.921	5.99
511.268	6
511.616	6
511.963	6.01
512.31	5.99
512.657	6.01
513.004	6.02
513.351	6.02
513.698	6.03
514.045	6.01
514.392	6.03
514.739	6.04
515.086	6.08
515.432	6.08
515.779	6.07
516.126	6.06
516.473	6.07
516.819	6.08
517.166	6.07
517.512	6.07
517.859	6.07
518.205	6.06
518.552	6.08
518.898	6.1
519.245	6.1
519.591	6.11
519.937	6.11
520.283	6.12
520.629	6.13
520.976	6.13
521.322	6.13
521.668	6.14
522.014	6.15
522.36	6.14
522.706	6.16
523.052	6.17
523.398	6.19
523.743	6.19
524.089	6.21
524.435	6.22
524.781	6.23
525.126	6.26
525.472	6.28
525.817	6.29
526.163	6.3
526.509	6.31
526.854	6.33
527.199	6.34
527.545	6.33
527.89	6.34
528.235	6.34
528.581	6.34
528.926	6.35
529.271	6.35
529.616	6.35
529.961	6.35
530.306	6.34
530.651	6.35
530.996	6.35
531.341	6.35
531.686	6.35
532.031	6.37
532.376	6.36
532.721	6.35
533.065	6.34
533.41	6.33
533.755	6.32
534.099	6.32
534.444	6.31
534.788	6.33
535.133	6.34
535.477	6.34
535.822	6.34
536.166	6.34
536.51	6.34
536.855	6.36
537.199	6.36
537.543	6.37
537.887	6.38
538.231	6.37
538.576	6.36
538.92	6.35
539.264	6.36
539.608	6.36
539.951	6.36
540.295	6.38
540.639	6.38
540.983	6.39
541.327	6.4
541.671	6.4
542.014	6.39
542.358	6.39
542.701	6.41
543.045	6.41
543.389	6.42
543.732	6.43
544.075	6.43
544.419	6.44
544.762	6.44
545.105	6.43
545.449	6.46
545.792	6.48
546.135	6.52
546.478	6.53
546.821	6.54
547.165	6.55
547.508	6.53
547.851	6.54
548.194	6.52
548.536	6.51
548.879	6.53
549.222	6.55
549.565	6.56
549.908	6.55
550.25	6.56
550.593	6.57
550.936	6.55
551.278	6.55
551.621	6.54
551.963	6.54
552.306	6.54
552.648	6.53
552.991	6.52
553.333	6.47
553.675	6.48
554.017	6.49
554.36	6.5
554.702	6.52
555.044	6.55
555.386	6.59
555.728	6.61
556.07	6.63
556.412	6.62
556.754	6.63
557.096	6.63
557.438	6.62
557.78	6.62
558.121	6.63
558.463	6.64
558.805	6.65
559.147	6.63
559.488	6.66
559.83	6.67
560.171	6.68
560.513	6.7
560.854	6.65
561.196	6.64
561.537	6.65
561.878	6.66
562.22	6.67
562.561	6.66
562.902	6.66
563.243	6.62
563.584	6.62
563.925	6.62
564.266	6.6
564.607	6.6
564.948	6.6
565.289	6.59
565.63	6.6
565.971	6.58
566.312	6.59
566.653	6.57
566.993	6.57
567.334	6.54
567.675	6.57
568.015	6.57
568.356	6.56
568.696	6.56
569.037	6.56
569.377	6.55
569.718	6.55
570.058	6.54
570.398	6.55
570.739	6.55
571.079	6.55
571.419	6.6
571.759	6.62
572.099	6.6
572.439	6.61
572.779	6.6
573.119	6.64
573.459	6.67
573.799	6.67
574.139	6.67
574.479	6.67
574.819	6.65
575.158	6.67
575.498	6.68
575.838	6.69
576.177	6.67
576.517	6.66
576.856	6.64
577.196	6.64
577.535	6.64
577.875	6.66
578.214	6.65
578.553	6.64
578.893	6.64
579.232	6.67
579.571	6.66
579.91	6.72
580.25	6.71
580.589	6.74
580.928	6.76
581.267	6.76
581.606	6.79
581.945	6.79
582.283	6.79
582.622	6.79
582.961	6.8
583.3	6.79
583.639	6.83
583.977	6.87
584.316	6.89
584.654	6.86
584.993	6.85
585.332	6.86
585.67	6.85
586.008	6.82
586.347	6.82
586.685	6.84
587.024	6.77
587.362	6.76
587.7	6.73
588.038	6.75
588.376	6.77
588.715	6.79
589.053	6.82
589.391	6.88
589.729	6.89
590.067	6.84
590.404	6.87
590.742	6.9
591.08	6.88
591.418	6.88
591.756	6.92
592.093	6.92
592.431	6.93
592.769	6.92
593.106	6.94
593.444	6.91
593.781	6.94
594.119	6.96
594.456	6.93
594.793	6.96
595.131	6.94
595.468	6.96
595.805	6.96
596.143	6.93
596.48	6.88
596.817	6.88
597.154	6.92
597.491	6.91
597.828	6.87
598.165	6.9
598.502	6.89
598.839	6.89
599.176	6.9
599.512	6.9
599.849	6.93
600.186	6.92
600.523	6.94
600.859	6.95
601.196	6.96
601.532	7.02
601.869	6.99
602.205	6.98
602.542	6.96
602.878	6.97
603.215	6.99
603.551	7
603.887	7.01
604.223	7.03
604.56	7.01
604.896	7.04
605.232	7.05
605.568	7.08
605.904	7.09
606.24	7.13
606.576	7.13
606.912	7.14
607.248	7.15
607.583	7.16
607.919	7.16
608.255	7.18
608.591	7.13
608.926	7.13
609.262	7.16
609.597	7.16
609.933	7.16
610.268	7.15
610.604	7.15
610.939	7.16
611.275	7.13
611.61	7.16
611.945	7.13
612.281	7.12
612.616	7.08
612.951	7.08
613.286	7.06
613.621	7.1
613.956	7.06
614.291	7.04
614.626	7.05
614.961	7.02
615.296	6.98
615.631	7.03
615.966	7.03
616.3	7.02
616.635	7.03
616.97	7.03
617.304	7.05
617.639	7.1
617.973	7.07
618.308	7.08
618.642	7.09
618.977	7.11
619.311	7.11
619.646	7.13
619.98	7.11
620.314	7.14
620.648	7.1
620.983	7.16
621.317	7.21
621.651	7.21
621.985	7.25
622.319	7.24
622.653	7.25
622.987	7.28
623.321	7.26
623.655	7.3
623.988	7.3
624.322	7.32
624.656	7.27
624.99	7.31
625.323	7.31
625.657	7.32
625.99	7.29
626.324	7.28
626.657	7.29
626.991	7.31
627.324	7.3
627.658	7.32
627.991	7.3
628.324	7.31
628.657	7.33
628.991	7.3
629.324	7.34
629.657	7.36
629.99	7.36
630.323	7.39
630.656	7.38
630.989	7.42
631.322	7.44
631.655	7.41
631.987	7.37
632.32	7.34
632.653	7.32
632.986	7.38
633.318	7.38
633.651	7.42
633.984	7.44
634.316	7.43
634.649	7.43
634.981	7.42
635.313	7.36
635.646	7.39
635.978	7.42
636.31	7.47
636.643	7.42
636.975	7.42
637.307	7.39
637.639	7.35
637.971	7.33
638.303	7.27
638.635	7.3
638.967	7.34
639.299	7.39
639.631	7.42
639.963	7.34
640.295	7.4
640.626	7.36
640.958	7.33
641.29	7.35
641.621	7.35
641.953	7.33
642.285	7.39
642.616	7.36
642.948	7.33
643.279	7.19
643.61	7.22
643.942	7.22
644.273	7.33
644.604	7.33
644.936	7.25
645.267	7.28
645.598	7.37
645.929	7.36
646.26	7.38
646.591	7.4
646.922	7.42
647.253	7.38
647.584	7.44
647.915	7.42
648.245	7.43
648.576	7.52
648.907	7.59
649.238	7.56
649.568	7.62
649.899	7.75
650.229	7.86
650.56	7.91
650.89	7.9
651.221	7.87
651.551	7.89
651.882	7.95
652.212	7.99
652.542	7.97
652.872	7.91
653.203	7.9
653.533	7.95
653.863	7.98
654.193	7.99
654.523	7.9
654.853	7.92
655.183	7.9
655.513	7.79
655.843	7.71
656.172	7.76
656.502	7.77
656.832	7.68
657.162	7.72
657.491	7.71
657.821	7.75
658.15	7.74
658.48	7.74
658.809	7.77
659.139	7.75
659.468	7.74
659.798	7.82
660.127	7.86
660.456	7.79
660.785	7.8
661.115	7.83
661.444	7.89
661.773	7.91
662.102	7.89
662.431	8.02
662.76	8.12
663.089	8.07
663.418	7.94
663.747	7.97
664.076	7.9
664.404	7.9
664.733	7.9
665.062	7.85
665.39	7.89
665.719	7.83
666.048	7.84
666.376	7.82
666.705	7.79
667.033	7.75
667.362	7.83
667.69	7.77
668.018	7.76
668.347	7.73
668.675	7.75
669.003	7.78
669.331	7.72
669.659	7.67
669.987	7.71
670.315	7.84
670.643	7.89
670.971	7.96
671.299	7.97
671.627	8.01
671.955	8
672.283	7.96
672.61	7.98
672.938	8
673.266	7.97
673.593	8.04
673.921	8.06
674.249	7.99
674.576	8.06
674.904	8.14
675.231	8.15
675.558	8.11
675.886	8.12
676.213	8.13
676.54	8.15
676.867	8.17
