Data from BA28470_Reflection_00010.txt Node
Date: Mon Nov 18 15:10:14 EST 2019
User: vgr7
Spectrometer: USB2G7710
Scans to average: 3
Trigger mode: 4
Integration Time (sec): 2.000000E-2
Electric dark correction enabled: true
Boxcar width: 10
XAxis mode: Wavelengths
Number of Pixels in Spectrum: 2048
>>>>>Begin Spectral Data<<<<<
177.721	-50.49
178.105	-120.47
178.488	279.04
178.871	-304.41
179.254	-257.93
179.636	-143.36
180.019	142.32
180.402	60.61
180.785	-1386.49
181.168	-50.66
181.55	-79.15
181.933	147.13
182.316	78.8
182.698	93.82
183.081	41.54
183.463	84.16
183.846	92.45
184.228	64.12
184.611	34.79
184.993	36.44
185.376	-8.34
185.758	43.91
186.14	101.45
186.522	56.43
186.904	94.36
187.287	101.52
187.669	-7.83
188.051	-3.18
188.433	-59.9
188.815	-135.2
189.197	-31.35
189.579	-51.59
189.961	-182.95
190.342	-1466.04
190.724	350.97
191.106	-1576.06
191.488	-1025.87
191.869	544.2
192.251	91.44
192.633	42.15
193.014	42.04
193.396	16.81
193.777	11.55
194.159	-5.2
194.54	-25.83
194.922	5.39
195.303	-32.21
195.684	-17.27
196.065	9.46
196.447	-7.55
196.828	-26.43
197.209	-5.95
197.59	-6.56
197.971	-18.78
198.352	-5.76
198.733	-19.83
199.114	-17.51
199.495	-17.43
199.876	-16.33
200.257	-0.27
200.638	-3.76
201.018	0.73
201.399	5.6
201.78	8.2
202.16	10.55
202.541	10.99
202.922	-7.22
203.302	6.01
203.683	-4.68
204.063	-88.56
204.444	1.99
204.824	53.24
205.204	104.29
205.585	116.08
205.965	300
206.345	129.49
206.725	-136.36
207.106	179.14
207.486	8.84
207.866	409.64
208.246	639.82
208.626	133.42
209.006	334.29
209.386	4.62
209.766	55.52
210.145	2.8
210.525	-14.52
210.905	63.82
211.285	5.81
211.664	-15.1
212.044	-20.82
212.424	-54.66
212.803	-101.63
213.183	-128.29
213.562	-108.35
213.942	-82.6
214.321	-76.51
214.701	-79.21
215.08	-90.92
215.459	-57.8
215.838	-45.86
216.218	-56.36
216.597	-50.64
216.976	-66.2
217.355	-56.31
217.734	-55.86
218.113	-41.38
218.492	-44.73
218.871	-53.58
219.25	-53.75
219.629	-53.29
220.008	-46.08
220.387	-39.04
220.766	-33.69
221.144	-40.58
221.523	-35.33
221.902	-44.48
222.28	-53.63
222.659	-33.35
223.037	-28.05
223.416	-33.6
223.794	-37.02
224.173	-26.44
224.551	-15.59
224.929	-16.55
225.308	-9.65
225.686	-5.62
226.064	-8.71
226.442	-2.25
226.821	5.66
227.199	7.27
227.577	4.62
227.955	1.5
228.333	1.62
228.711	2.65
229.089	8.32
229.467	8.38
229.845	11.19
230.222	11.06
230.6	8.37
230.978	5.82
231.356	6.05
231.733	8.61
232.111	7.36
232.488	4.31
232.866	4.31
233.243	4.46
233.621	3.26
233.998	5.82
234.376	4.94
234.753	3.26
235.13	3.68
235.508	4.34
235.885	5.38
236.262	4.87
236.639	4.59
237.016	4.29
237.393	5.11
237.77	4.82
238.147	4.09
238.524	5.33
238.901	6.08
239.278	6.43
239.655	6.46
240.032	6.52
240.409	6.88
240.785	6.89
241.162	6.23
241.539	6.24
241.915	6
242.292	5.71
242.668	6.06
243.045	6.09
243.421	5.96
243.798	5.96
244.174	5.74
244.551	5.31
244.927	5.19
245.303	5.03
245.679	5.27
246.056	5.37
246.432	5.18
246.808	5.36
247.184	5.16
247.56	5.07
247.936	4.88
248.312	4.88
248.688	4.88
249.064	4.86
249.44	4.76
249.815	4.75
250.191	4.81
250.567	4.5
250.943	4.34
251.318	4.56
251.694	4.41
252.069	4.54
252.445	4.87
252.82	5.11
253.196	4.93
253.571	4.64
253.947	4.91
254.322	4.69
254.697	4.34
255.073	4.4
255.448	4.27
255.823	4.69
256.198	4.84
256.573	4.83
256.948	5.05
257.323	4.97
257.698	5.05
258.073	4.97
258.448	5.08
258.823	5.11
259.198	4.88
259.573	4.92
259.948	4.82
260.322	4.94
260.697	4.82
261.072	4.83
261.446	4.94
261.821	4.78
262.195	4.98
262.57	4.94
262.944	4.89
263.319	4.85
263.693	4.57
264.067	4.57
264.442	4.49
264.816	4.35
265.19	4.33
265.564	4.16
265.938	4.21
266.313	4.18
266.687	4.23
267.061	4.46
267.435	4.34
267.809	4.37
268.183	4.21
268.556	4.01
268.93	3.99
269.304	3.91
269.678	4.06
270.051	3.9
270.425	3.89
270.799	4.06
271.172	4.13
271.546	4.08
271.919	3.98
272.293	3.93
272.666	4.09
273.04	4.19
273.413	4.16
273.787	4.1
274.16	4.05
274.533	3.99
274.906	3.76
275.279	3.81
275.653	3.87
276.026	3.89
276.399	3.97
276.772	4.06
277.145	3.99
277.518	3.84
277.891	3.88
278.263	3.84
278.636	3.72
279.009	3.74
279.382	3.99
279.755	3.91
280.127	4.17
280.5	4.15
280.872	4.21
281.245	4.17
281.617	4.38
281.99	4.38
282.362	4.41
282.735	4.29
283.107	4.34
283.479	4.37
283.852	4.41
284.224	4.43
284.596	4.39
284.968	4.49
285.34	4.55
285.713	4.56
286.085	4.61
286.457	4.67
286.829	4.69
287.201	4.7
287.572	4.65
287.944	4.56
288.316	4.54
288.688	4.5
289.06	4.53
289.431	4.44
289.803	4.65
290.175	4.81
290.546	5.07
290.918	5.1
291.289	5.07
291.661	5.05
292.032	5.11
292.403	5.18
292.775	5.26
293.146	5.2
293.517	5.2
293.889	5.35
294.26	5.35
294.631	5.35
295.002	5.31
295.373	5.38
295.744	5.37
296.115	5.37
296.486	5.39
296.857	5.41
297.228	5.42
297.599	5.28
297.97	5.1
298.34	5.01
298.711	5.07
299.082	5.12
299.452	5.11
299.823	5.15
300.194	5.17
300.564	5.1
300.935	5.26
301.305	5.35
301.676	5.31
302.046	5.37
302.416	5.37
302.787	5.35
303.157	5.46
303.527	5.51
303.897	5.38
304.267	5.59
304.637	5.69
305.008	5.74
305.378	5.82
305.748	6.03
306.117	6.06
306.487	6.15
306.857	6.09
307.227	6.2
307.597	6.18
307.967	6.31
308.336	6.37
308.706	6.39
309.076	6.34
309.445	6.35
309.815	6.34
310.184	6.53
310.554	6.63
310.923	6.61
311.293	6.59
311.662	6.77
312.031	6.65
312.401	6.83
312.77	6.94
313.139	7.13
313.508	7.18
313.877	7.28
314.246	7.27
314.616	7.5
314.985	7.59
315.353	7.64
315.722	7.63
316.091	7.54
316.46	7.64
316.829	7.81
317.198	7.92
317.567	8.05
317.935	7.91
318.304	8.02
318.672	8.15
319.041	8.27
319.41	8.17
319.778	8.38
320.147	8.31
320.515	8.32
320.883	8.14
321.252	8.03
321.62	8.05
321.988	8.03
322.357	7.97
322.725	8
323.093	8.17
323.461	8.1
323.829	8.31
324.197	8.38
324.565	8.51
324.933	8.62
325.301	8.65
325.669	8.78
326.037	8.87
326.405	8.91
326.772	9.02
327.14	9.22
327.508	9.1
327.875	9.01
328.243	9.03
328.61	9.14
328.978	9.3
329.346	9.39
329.713	9.49
330.08	9.69
330.448	9.7
330.815	9.58
331.182	9.7
331.55	9.66
331.917	9.57
332.284	9.56
332.651	9.54
333.018	9.55
333.385	9.51
333.752	9.54
334.119	9.61
334.486	9.65
334.853	9.59
335.22	9.63
335.587	9.86
335.954	9.97
336.32	9.97
336.687	9.97
337.054	9.93
337.42	9.9
337.787	9.86
338.153	9.81
338.52	9.91
338.886	9.82
339.253	9.83
339.619	9.9
339.986	9.95
340.352	10.03
340.718	10.1
341.084	10.21
341.451	10.21
341.817	10.19
342.183	10.08
342.549	10.12
342.915	10.2
343.281	10.15
343.647	10.08
344.013	10.19
344.379	10.12
344.745	10.2
345.11	10.32
345.476	10.19
345.842	10.19
346.208	10.23
346.573	10.36
346.939	10.46
347.304	10.37
347.67	10.31
348.035	10.25
348.401	10.17
348.766	10.12
349.132	10.07
349.497	10.02
349.862	10.13
350.228	10.23
350.593	10.05
350.958	10.05
351.323	10.08
351.688	10
352.053	10.02
352.418	10
352.783	9.97
353.148	10
353.513	10.18
353.878	10.18
354.243	10.18
354.608	10.14
354.972	10.19
355.337	10.23
355.702	10.23
356.066	10.22
356.431	10.15
356.795	10.15
357.16	10.15
357.524	10.08
357.889	9.97
358.253	10.16
358.618	10.11
358.982	10.03
359.346	9.96
359.71	9.92
360.075	9.95
360.439	9.86
360.803	9.81
361.167	9.68
361.531	9.69
361.895	9.57
362.259	9.52
362.623	9.53
362.987	9.46
363.351	9.38
363.714	9.37
364.078	9.35
364.442	9.29
364.806	9.29
365.169	9.31
365.533	9.29
365.896	9.13
366.26	9.1
366.623	9.02
366.987	9.03
367.35	8.96
367.714	8.86
368.077	8.86
368.44	8.82
368.803	8.76
369.167	8.61
369.53	8.6
369.893	8.54
370.256	8.44
370.619	8.34
370.982	8.3
371.345	8.23
371.708	8.21
372.071	8.11
372.434	8.01
372.797	7.9
373.159	7.79
373.522	7.76
373.885	7.74
374.247	7.79
374.61	7.7
374.973	7.66
375.335	7.54
375.698	7.46
376.06	7.39
376.423	7.33
376.785	7.32
377.147	7.31
377.51	7.26
377.872	7.2
378.234	7.19
378.596	7.13
378.958	7.04
379.321	7.01
379.683	6.99
380.045	6.99
380.407	6.91
380.769	6.9
381.13	6.83
381.492	6.7
381.854	6.63
382.216	6.59
382.578	6.58
382.939	6.55
383.301	6.49
383.663	6.45
384.024	6.46
384.386	6.44
384.747	6.41
385.109	6.46
385.47	6.4
385.832	6.36
386.193	6.37
386.554	6.36
386.916	6.29
387.277	6.28
387.638	6.22
387.999	6.21
388.36	6.18
388.721	6.2
389.082	6.21
389.443	6.13
389.804	6.04
390.165	6
390.526	5.97
390.887	5.93
391.248	5.95
391.609	5.85
391.969	5.81
392.33	5.73
392.691	5.61
393.051	5.51
393.412	5.44
393.772	5.38
394.133	5.35
394.493	5.33
394.854	5.29
395.214	5.24
395.574	5.21
395.935	5.13
396.295	5.04
396.655	5.03
397.015	5.02
397.376	4.99
397.736	4.97
398.096	4.94
398.456	4.89
398.816	4.82
399.176	4.8
399.535	4.72
399.895	4.68
400.255	4.67
400.615	4.7
400.975	4.72
401.334	4.68
401.694	4.65
402.054	4.61
402.413	4.58
402.773	4.51
403.132	4.49
403.492	4.48
403.851	4.5
404.211	4.46
404.57	4.44
404.929	4.44
405.288	4.42
405.648	4.4
406.007	4.39
406.366	4.38
406.725	4.37
407.084	4.4
407.443	4.39
407.802	4.4
408.161	4.38
408.52	4.34
408.879	4.31
409.238	4.28
409.596	4.28
409.955	4.26
410.314	4.31
410.673	4.27
411.031	4.26
411.39	4.23
411.748	4.18
412.107	4.18
412.465	4.17
412.824	4.15
413.182	4.12
413.54	4.12
413.899	4.1
414.257	4.06
414.615	4.04
414.974	4.06
415.332	4.04
415.69	4.02
416.048	4.01
416.406	4.02
416.764	3.99
417.122	3.97
417.48	3.94
417.838	3.94
418.195	3.92
418.553	3.9
418.911	3.88
419.269	3.89
419.626	3.87
419.984	3.86
420.342	3.87
420.699	3.85
421.057	3.83
421.414	3.81
421.772	3.81
422.129	3.8
422.486	3.77
422.844	3.76
423.201	3.75
423.558	3.74
423.915	3.72
424.273	3.73
424.63	3.72
424.987	3.7
425.344	3.69
425.701	3.7
426.058	3.71
426.415	3.7
426.772	3.69
427.128	3.67
427.485	3.66
427.842	3.63
428.199	3.63
428.555	3.63
428.912	3.64
429.269	3.64
429.625	3.63
429.982	3.64
430.338	3.63
430.695	3.62
431.051	3.6
431.407	3.6
431.764	3.59
432.12	3.57
432.476	3.59
432.832	3.56
433.189	3.55
433.545	3.52
433.901	3.5
434.257	3.49
434.613	3.51
434.969	3.51
435.325	3.49
435.681	3.51
436.036	3.52
436.392	3.53
436.748	3.51
437.104	3.49
437.459	3.46
437.815	3.46
438.171	3.47
438.526	3.47
438.882	3.46
439.237	3.47
439.593	3.47
439.948	3.46
440.304	3.48
440.659	3.49
441.014	3.51
441.369	3.51
441.725	3.5
442.08	3.5
442.435	3.49
442.79	3.49
443.145	3.48
443.5	3.48
443.855	3.45
444.21	3.45
444.565	3.47
444.92	3.5
445.275	3.48
445.629	3.48
445.984	3.48
446.339	3.46
446.693	3.44
447.048	3.43
447.403	3.43
447.757	3.41
448.112	3.41
448.466	3.39
448.82	3.4
449.175	3.4
449.529	3.39
449.883	3.39
450.238	3.37
450.592	3.36
450.946	3.34
451.3	3.35
451.654	3.36
452.008	3.35
452.362	3.31
452.716	3.32
453.07	3.32
453.424	3.31
453.778	3.32
454.132	3.33
454.486	3.32
454.839	3.32
455.193	3.31
455.547	3.29
455.9	3.31
456.254	3.29
456.607	3.32
456.961	3.33
457.314	3.32
457.668	3.32
458.021	3.33
458.375	3.34
458.728	3.33
459.081	3.33
459.434	3.33
459.787	3.36
460.141	3.36
460.494	3.37
460.847	3.38
461.2	3.39
461.553	3.38
461.906	3.4
462.259	3.42
462.611	3.43
462.964	3.45
463.317	3.43
463.67	3.46
464.022	3.44
464.375	3.43
464.728	3.45
465.08	3.47
465.433	3.47
465.785	3.49
466.138	3.5
466.49	3.5
466.843	3.5
467.195	3.5
467.547	3.49
467.899	3.51
468.252	3.5
468.604	3.5
468.956	3.51
469.308	3.51
469.66	3.51
470.012	3.53
470.364	3.53
470.716	3.55
471.068	3.55
471.42	3.57
471.772	3.58
472.123	3.6
472.475	3.61
472.827	3.62
473.178	3.6
473.53	3.6
473.882	3.61
474.233	3.62
474.585	3.6
474.936	3.62
475.288	3.59
475.639	3.6
475.99	3.6
476.342	3.6
476.693	3.59
477.044	3.59
477.395	3.59
477.746	3.56
478.097	3.56
478.448	3.55
478.8	3.53
479.15	3.52
479.501	3.5
479.852	3.5
480.203	3.49
480.554	3.5
480.905	3.51
481.255	3.51
481.606	3.51
481.957	3.51
482.307	3.51
482.658	3.52
483.009	3.53
483.359	3.53
483.709	3.54
484.06	3.53
484.41	3.54
484.761	3.55
485.111	3.56
485.461	3.57
485.811	3.57
486.162	3.58
486.512	3.59
486.862	3.59
487.212	3.59
487.562	3.6
487.912	3.6
488.262	3.6
488.612	3.6
488.961	3.61
489.311	3.62
489.661	3.61
490.011	3.62
490.36	3.61
490.71	3.62
491.06	3.62
491.409	3.64
491.759	3.63
492.108	3.63
492.458	3.64
492.807	3.63
493.157	3.64
493.506	3.65
493.855	3.65
494.204	3.66
494.554	3.68
494.903	3.69
495.252	3.73
495.601	3.76
495.95	3.77
496.299	3.78
496.648	3.81
496.997	3.86
497.346	3.88
497.695	3.91
498.043	3.92
498.392	3.95
498.741	3.99
499.09	4.01
499.438	4.03
499.787	4.06
500.135	4.12
500.484	4.15
500.832	4.19
501.181	4.24
501.529	4.29
501.878	4.33
502.226	4.39
502.574	4.41
502.923	4.43
503.271	4.47
503.619	4.53
503.967	4.57
504.315	4.59
504.663	4.66
505.011	4.73
505.359	4.81
505.707	4.88
506.055	4.93
506.403	5
506.751	5.05
507.098	5.1
507.446	5.17
507.794	5.23
508.141	5.28
508.489	5.33
508.837	5.37
509.184	5.42
509.531	5.46
509.879	5.52
510.226	5.6
510.574	5.67
510.921	5.75
511.268	5.82
511.616	5.9
511.963	5.95
512.31	6.02
512.657	6.07
513.004	6.13
513.351	6.22
513.698	6.31
514.045	6.38
514.392	6.48
514.739	6.54
515.086	6.62
515.432	6.73
515.779	6.79
516.126	6.91
516.473	6.99
516.819	7.1
517.166	7.2
517.512	7.27
517.859	7.34
518.205	7.4
518.552	7.48
518.898	7.56
519.245	7.66
519.591	7.75
519.937	7.84
520.283	7.93
520.629	8.01
520.976	8.1
521.322	8.21
521.668	8.31
522.014	8.39
522.36	8.49
522.706	8.59
523.052	8.74
523.398	8.88
523.743	9.02
524.089	9.15
524.435	9.28
524.781	9.43
525.126	9.58
525.472	9.72
525.817	9.82
526.163	9.93
526.509	10.01
526.854	10.09
527.199	10.16
527.545	10.26
527.89	10.36
528.235	10.45
528.581	10.56
528.926	10.67
529.271	10.79
529.616	10.9
529.961	11.01
530.306	11.11
530.651	11.23
530.996	11.37
531.341	11.5
531.686	11.65
532.031	11.76
532.376	11.91
532.721	12.04
533.065	12.22
533.41	12.39
533.755	12.55
534.099	12.74
534.444	12.94
534.788	13.11
535.133	13.27
535.477	13.46
535.822	13.65
536.166	13.85
536.51	14.1
536.855	14.33
537.199	14.59
537.543	14.85
537.887	15.1
538.231	15.34
538.576	15.58
538.92	15.83
539.264	16.08
539.608	16.29
539.951	16.51
540.295	16.72
540.639	16.93
540.983	17.16
541.327	17.35
541.671	17.56
542.014	17.77
542.358	18.01
542.701	18.23
543.045	18.43
543.389	18.65
543.732	18.85
544.075	19.07
544.419	19.27
544.762	19.5
545.105	19.73
545.449	20
545.792	20.3
546.135	20.55
546.478	20.89
546.821	21.22
547.165	21.52
547.508	21.85
547.851	22.14
548.194	22.46
548.536	22.82
548.879	23.17
549.222	23.49
549.565	23.82
549.908	24.13
550.25	24.51
550.593	24.87
550.936	25.2
551.278	25.58
551.621	25.97
551.963	26.36
552.306	26.76
552.648	27.07
552.991	27.44
553.333	27.81
553.675	28.13
554.017	28.49
554.36	28.83
554.702	29.13
555.044	29.48
555.386	29.82
555.728	30.13
556.07	30.5
556.412	30.86
556.754	31.27
557.096	31.66
557.438	32.06
557.78	32.41
558.121	32.82
558.463	33.19
558.805	33.55
559.147	33.94
559.488	34.31
559.83	34.68
560.171	35.02
560.513	35.39
560.854	35.7
561.196	36.05
561.537	36.46
561.878	36.91
562.22	37.32
562.561	37.63
562.902	37.97
563.243	38.31
563.584	38.68
563.925	38.94
564.266	39.26
564.607	39.53
564.948	39.86
565.289	40.17
565.63	40.47
565.971	40.74
566.312	41.04
566.653	41.31
566.993	41.63
567.334	41.91
567.675	42.14
568.015	42.48
568.356	42.77
568.696	43.02
569.037	43.23
569.377	43.49
569.718	43.77
570.058	44.06
570.398	44.32
570.739	44.62
571.079	44.85
571.419	45.05
571.759	45.25
572.099	45.5
572.439	45.71
572.779	45.96
573.119	46.24
573.459	46.44
573.799	46.68
574.139	46.87
574.479	47.06
574.819	47.33
575.158	47.49
575.498	47.71
575.838	47.92
576.177	48.12
576.517	48.36
576.856	48.64
577.196	48.87
577.535	49.08
577.875	49.25
578.214	49.55
578.553	49.88
578.893	50.18
579.232	50.34
579.571	50.57
579.91	50.79
580.25	51.03
580.589	51.2
580.928	51.44
581.267	51.67
581.606	51.88
581.945	52.03
582.283	52.21
582.622	52.4
582.961	52.62
583.3	52.88
583.639	53
583.977	53.11
584.316	53.27
584.654	53.4
584.993	53.55
585.332	53.65
585.67	53.78
586.008	53.88
586.347	54.06
586.685	54.24
587.024	54.36
587.362	54.43
587.7	54.55
588.038	54.71
588.376	54.81
588.715	54.96
589.053	55
589.391	55.11
589.729	55.25
590.067	55.32
590.404	55.4
590.742	55.54
591.08	55.69
591.418	55.82
591.756	55.96
592.093	56.13
592.431	56.28
592.769	56.44
593.106	56.62
593.444	56.74
593.781	56.8
594.119	56.97
594.456	57.06
594.793	57.17
595.131	57.22
595.468	57.32
595.805	57.43
596.143	57.62
596.48	57.73
596.817	57.83
597.154	57.89
597.491	58
597.828	58.13
598.165	58.24
598.502	58.33
598.839	58.35
599.176	58.39
599.512	58.46
599.849	58.54
600.186	58.65
600.523	58.75
600.859	58.89
601.196	58.89
601.532	59
601.869	59.09
602.205	59.11
602.542	59.21
602.878	59.22
603.215	59.31
603.551	59.39
603.887	59.42
604.223	59.41
604.56	59.45
604.896	59.5
605.232	59.58
605.568	59.62
605.904	59.72
606.24	59.78
606.576	59.87
606.912	59.95
607.248	59.94
607.583	60.01
607.919	60.04
608.255	60.15
608.591	60.2
608.926	60.31
609.262	60.47
609.597	60.53
609.933	60.61
610.268	60.7
610.604	60.74
610.939	60.79
611.275	60.99
611.61	61.06
611.945	61.06
612.281	61.08
612.616	61.18
612.951	61.3
613.286	61.44
613.621	61.49
613.956	61.45
614.291	61.59
614.626	61.61
614.961	61.72
615.296	61.76
615.631	61.77
615.966	61.72
616.3	61.74
616.635	61.76
616.97	61.9
617.304	61.83
617.639	61.92
617.973	62.09
618.308	62.18
618.642	62.19
618.977	62.19
619.311	62.24
619.646	62.27
619.98	62.32
620.314	62.31
620.648	62.3
620.983	62.44
621.317	62.38
621.651	62.47
621.985	62.56
622.319	62.58
622.653	62.73
622.987	62.8
623.321	62.78
623.655	62.83
623.988	62.86
624.322	62.96
624.656	62.96
624.99	62.86
625.323	62.76
625.657	62.84
625.99	62.95
626.324	62.98
626.657	63.05
626.991	63.06
627.324	63.1
627.658	63.18
627.991	63.22
628.324	63.27
628.657	63.33
628.991	63.31
629.324	63.32
629.657	63.26
629.99	63.35
630.323	63.42
630.656	63.48
630.989	63.48
631.322	63.5
631.655	63.65
631.987	63.75
632.32	63.91
632.653	63.94
632.986	63.9
633.318	63.94
633.651	63.87
633.984	63.87
634.316	63.84
634.649	63.86
634.981	63.83
635.313	63.87
635.646	63.92
635.978	64
636.31	64.13
636.643	64.3
636.975	64.33
637.307	64.34
637.639	64.37
637.971	64.46
638.303	64.39
638.635	64.3
638.967	64.23
639.299	64.13
639.631	64.06
639.963	64.16
640.295	64.16
640.626	64.25
640.958	64.39
641.29	64.45
641.621	64.59
641.953	64.72
642.285	64.78
642.616	64.7
642.948	64.55
643.279	64.55
643.61	64.43
643.942	64.44
644.273	64.59
644.604	64.66
644.936	64.68
645.267	64.7
645.598	64.73
645.929	64.78
646.26	64.98
646.591	65.09
646.922	65.04
647.253	65.04
647.584	65.12
647.915	65.18
648.245	65.18
648.576	65.17
648.907	65.07
649.238	65.12
649.568	65.12
649.899	65.11
650.229	65.1
650.56	65.17
650.89	65.22
651.221	65.07
651.551	64.98
651.882	64.83
652.212	64.94
652.542	64.97
652.872	65.01
653.203	64.91
653.533	64.94
653.863	64.94
654.193	64.96
654.523	64.84
654.853	64.68
655.183	64.66
655.513	64.57
655.843	64.69
656.172	64.59
656.502	64.66
656.832	64.89
657.162	65.08
657.491	65.05
657.821	64.99
658.15	65.12
658.48	65.32
658.809	65.5
659.139	65.44
659.468	65.44
659.798	65.5
660.127	65.55
660.456	65.51
660.785	65.58
661.115	65.6
661.444	65.65
661.773	65.72
662.102	65.83
662.431	65.86
662.76	65.81
663.089	65.85
663.418	65.83
663.747	65.79
664.076	65.66
664.404	65.77
664.733	65.9
665.062	65.87
665.39	65.67
665.719	65.66
666.048	65.85
666.376	65.91
666.705	65.85
667.033	65.89
667.362	66
667.69	65.99
668.018	66.11
