Data from BA28301_Reflection_00011.txt Node
Date: Mon Nov 18 15:45:22 EST 2019
User: vgr7
Spectrometer: USB2G7710
Scans to average: 3
Trigger mode: 4
Integration Time (sec): 2.000000E-2
Electric dark correction enabled: true
Boxcar width: 10
XAxis mode: Wavelengths
Number of Pixels in Spectrum: 2048
>>>>>Begin Spectral Data<<<<<
177.721	297.88
178.105	2100
178.488	-253.94
178.871	61.44
179.254	61.72
179.636	190.91
180.019	69.79
180.402	400
180.785	411.79
181.168	27.97
181.55	60.34
181.933	92.24
182.316	117.89
182.698	153.14
183.081	124.02
183.463	163.36
183.846	130.23
184.228	107.02
184.611	87.65
184.993	102.72
185.376	128.51
185.758	190.01
186.14	212.48
186.522	176.78
186.904	-103.75
187.287	1242.86
187.669	-155.13
188.051	-316.86
188.433	-153.2
188.815	-29.39
189.197	-250.23
189.579	-129.68
189.961	-166.28
190.342	-253.18
190.724	-91.46
191.106	-77.74
191.488	-44.43
191.869	20.09
192.251	1.89
192.633	7.39
193.014	-15.06
193.396	-6.63
193.777	86.71
194.159	-864.71
194.54	-184.46
194.922	-218.43
195.303	-391.35
195.684	367.48
196.065	-158.21
196.447	10570.59
196.828	-764.05
197.209	-467.35
197.59	-1569.42
197.971	-3681.82
198.352	-235.95
198.733	-86.31
199.114	-77.69
199.495	27.47
199.876	-11.57
200.257	-29.4
200.638	-19.91
201.018	-29.25
201.399	-37.91
201.78	-30.78
202.16	-36.29
202.541	-78.1
202.922	-130.32
203.302	-151.33
203.683	-140.31
204.063	-193.09
204.444	-124.28
204.824	-121.65
205.204	-99.39
205.585	-160.25
205.965	-116.95
206.345	-239.65
206.725	-1149.23
207.106	12636.59
207.486	756.22
207.866	554.62
208.246	543.07
208.626	711.41
209.006	927.07
209.386	483.76
209.766	328.36
210.145	299.08
210.525	374.95
210.905	741.51
211.285	90900
211.664	-3844.95
212.044	1510.91
212.424	-623.75
212.803	-279.84
213.183	-394.31
213.562	-184.39
213.942	-117.33
214.321	-72.52
214.701	-47.2
215.08	-23.99
215.459	-8.69
215.838	-18.56
216.218	-27.9
216.597	-16.54
216.976	-14.94
217.355	-10.41
217.734	-16.02
218.113	-16.42
218.492	-15.38
218.871	-22.61
219.25	-18.66
219.629	-22.11
220.008	-20.32
220.387	-25.12
220.766	-38.57
221.144	-34.88
221.523	-48.47
221.902	-60.74
222.28	-69.38
222.659	-68.22
223.037	-55.76
223.416	-56.54
223.794	-47.76
224.173	-36.51
224.551	-33.78
224.929	-35.86
225.308	-29.63
225.686	-21.12
226.064	-17.43
226.442	-15.22
226.821	-9.36
227.199	-10.7
227.577	-12.77
227.955	-10.9
228.333	-12.31
228.711	-7.23
229.089	-4.65
229.467	-3.19
229.845	-2.26
230.222	-2.22
230.6	-2.99
230.978	-3.81
231.356	-1.31
231.733	-0.85
232.111	-0.2
232.488	0.38
232.866	1.32
233.243	0.25
233.621	-1.4
233.998	-0.15
234.376	-1.03
234.753	-0.17
235.13	-0.57
235.508	0.96
235.885	0.64
236.262	1.75
236.639	1.05
237.016	0.87
237.393	1.35
237.77	2.74
238.147	3.78
238.524	3.52
238.901	3.47
239.278	2.87
239.655	3.77
240.032	3.98
240.409	2.95
240.785	2.18
241.162	2.94
241.539	3.11
241.915	2.79
242.292	2.82
242.668	2.37
243.045	2.86
243.421	2.95
243.798	3.03
244.174	2.94
244.551	2.93
244.927	2.87
245.303	3.08
245.679	2.9
246.056	2.65
246.432	2.54
246.808	2.65
247.184	2.35
247.56	2.17
247.936	2.18
248.312	2.5
248.688	3
249.064	2.88
249.44	2.87
249.815	2.96
250.191	3.09
250.567	3.24
250.943	3.13
251.318	3.19
251.694	3.14
252.069	3.32
252.445	3.58
252.82	3.75
253.196	3.51
253.571	3.42
253.947	3.48
254.322	3.93
254.697	3.8
255.073	3.93
255.448	3.85
255.823	3.81
256.198	3.69
256.573	3.35
256.948	3.4
257.323	3.49
257.698	3.54
258.073	3.55
258.448	3.59
258.823	3.59
259.198	3.54
259.573	3.54
259.948	3.53
260.322	3.43
260.697	3.45
261.072	3.5
261.446	3.64
261.821	3.7
262.195	3.68
262.57	3.62
262.944	3.71
263.319	3.63
263.693	3.52
264.067	3.63
264.442	3.69
264.816	3.83
265.19	3.78
265.564	3.71
265.938	3.53
266.313	3.54
266.687	3.58
267.061	3.78
267.435	3.76
267.809	3.79
268.183	3.78
268.556	3.55
268.93	3.56
269.304	3.6
269.678	3.57
270.051	3.35
270.425	3.43
270.799	3.45
271.172	3.61
271.546	3.65
271.919	3.55
272.293	3.53
272.666	3.46
273.04	3.5
273.413	3.48
273.787	3.58
274.16	3.56
274.533	3.45
274.906	3.26
275.279	3.27
275.653	3.15
276.026	3.12
276.399	3.21
276.772	3.27
277.145	3.21
277.518	3.24
277.891	3.4
278.263	3.45
278.636	3.36
279.009	3.21
279.382	3.36
279.755	3.34
280.127	3.45
280.5	3.41
280.872	3.56
281.245	3.43
281.617	3.59
281.99	3.56
282.362	3.64
282.735	3.54
283.107	3.5
283.479	3.57
283.852	3.55
284.224	3.56
284.596	3.41
284.968	3.29
285.34	3.29
285.713	3.23
286.085	3.1
286.457	3.21
286.829	3.26
287.201	3.22
287.572	3.23
287.944	3.06
288.316	3.03
288.688	2.76
289.06	2.91
289.431	2.78
289.803	2.74
290.175	2.79
290.546	2.97
290.918	3.02
291.289	3.05
291.661	3.1
292.032	3.09
292.403	3.3
292.775	3.44
293.146	3.41
293.517	3.37
293.889	3.48
294.26	3.57
294.631	3.63
295.002	3.5
295.373	3.54
295.744	3.61
296.115	3.61
296.486	3.58
296.857	3.54
297.228	3.61
297.599	3.63
297.97	3.59
298.34	3.54
298.711	3.62
299.082	3.48
299.452	3.5
299.823	3.64
300.194	3.64
300.564	3.46
300.935	3.59
301.305	3.75
301.676	3.81
302.046	3.73
302.416	3.83
302.787	3.89
303.157	3.93
303.527	3.88
303.897	4.05
304.267	4.35
304.637	4.47
305.008	4.45
305.378	4.55
305.748	4.62
306.117	4.61
306.487	4.69
306.857	4.78
307.227	4.72
307.597	4.72
307.967	4.71
308.336	4.87
308.706	4.76
309.076	4.73
309.445	4.63
309.815	4.68
310.184	4.61
310.554	4.71
310.923	4.74
311.293	4.89
311.662	4.83
312.031	4.78
312.401	4.8
312.77	4.94
313.139	4.94
313.508	4.99
313.877	4.88
314.246	4.95
314.616	4.9
314.985	5.01
315.353	4.94
315.722	5.09
316.091	5
316.46	5.06
316.829	5.03
317.198	5.18
317.567	5.11
317.935	5.11
318.304	5.24
318.672	5.15
319.041	5.21
319.41	5.29
319.778	5.32
320.147	5.18
320.515	5.13
320.883	5.13
321.252	5.17
321.62	5.33
321.988	5.23
322.357	5.41
322.725	5.34
323.093	5.5
323.461	5.33
323.829	5.42
324.197	5.57
324.565	5.6
324.933	5.55
325.301	5.62
325.669	5.55
326.037	5.54
326.405	5.51
326.772	5.61
327.14	5.64
327.508	5.68
327.875	5.73
328.243	5.74
328.61	5.62
328.978	5.46
329.346	5.53
329.713	5.52
330.08	5.55
330.448	5.43
330.815	5.27
331.182	5.3
331.55	5.4
331.917	5.35
332.284	5.51
332.651	5.56
333.018	5.75
333.385	5.87
333.752	5.89
334.119	6.08
334.486	6.01
334.853	5.95
335.22	6.06
335.587	6.03
335.954	6
336.32	6.15
336.687	6.2
337.054	6.17
337.42	6.17
337.787	6.04
338.153	6.18
338.52	6.26
338.886	6.24
339.253	6.14
339.619	6.18
339.986	6.09
340.352	6.18
340.718	6.07
341.084	6.14
341.451	6.18
341.817	6.24
342.183	6.14
342.549	6.13
342.915	6.11
343.281	6.19
343.647	6.2
344.013	6.2
344.379	6.23
344.745	6.29
345.11	6.22
345.476	6.33
345.842	6.35
346.208	6.38
346.573	6.42
346.939	6.57
347.304	6.55
347.67	6.5
348.035	6.48
348.401	6.47
348.766	6.38
349.132	6.3
349.497	6.23
349.862	6.34
350.228	6.39
350.593	6.35
350.958	6.35
351.323	6.46
351.688	6.53
352.053	6.64
352.418	6.69
352.783	6.82
353.148	6.84
353.513	6.81
353.878	6.8
354.243	6.81
354.608	6.85
354.972	6.88
355.337	6.91
355.702	6.89
356.066	6.98
356.431	6.97
356.795	6.99
357.16	6.99
357.524	6.93
357.889	6.89
358.253	6.86
358.618	6.83
358.982	6.82
359.346	6.73
359.71	6.7
360.075	6.65
360.439	6.61
360.803	6.58
361.167	6.61
361.531	6.57
361.895	6.58
362.259	6.52
362.623	6.52
362.987	6.52
363.351	6.52
363.714	6.49
364.078	6.52
364.442	6.47
364.806	6.4
365.169	6.42
365.533	6.41
365.896	6.5
366.26	6.46
366.623	6.41
366.987	6.45
367.35	6.41
367.714	6.37
368.077	6.33
368.44	6.32
368.803	6.29
369.167	6.3
369.53	6.28
369.893	6.22
370.256	6.19
370.619	6.11
370.982	6.05
371.345	6
371.708	5.98
372.071	5.98
372.434	5.97
372.797	5.95
373.159	5.94
373.522	5.83
373.885	5.88
374.247	5.81
374.61	5.76
374.973	5.66
375.335	5.59
375.698	5.6
376.06	5.49
376.423	5.44
376.785	5.42
377.147	5.42
377.51	5.42
377.872	5.45
378.234	5.48
378.596	5.44
378.958	5.37
379.321	5.32
379.683	5.33
380.045	5.32
380.407	5.27
380.769	5.23
381.13	5.16
381.492	5.09
381.854	5.12
382.216	5.09
382.578	5.1
382.939	5.07
383.301	4.99
383.663	4.97
384.024	4.92
384.386	4.9
384.747	4.88
385.109	4.86
385.47	4.72
385.832	4.69
386.193	4.71
386.554	4.67
386.916	4.65
387.277	4.59
387.638	4.62
387.999	4.61
388.36	4.58
388.721	4.6
389.082	4.61
389.443	4.54
389.804	4.51
390.165	4.47
390.526	4.5
390.887	4.49
391.248	4.51
391.609	4.52
391.969	4.52
392.33	4.46
392.691	4.4
393.051	4.41
393.412	4.39
393.772	4.32
394.133	4.34
394.493	4.29
394.854	4.31
395.214	4.25
395.574	4.21
395.935	4.19
396.295	4.15
396.655	4.1
397.015	4.09
397.376	4.08
397.736	4.08
398.096	4.04
398.456	4
398.816	3.99
399.176	3.95
399.535	3.87
399.895	3.84
400.255	3.86
400.615	3.86
400.975	3.81
401.334	3.83
401.694	3.78
402.054	3.74
402.413	3.69
402.773	3.66
403.132	3.66
403.492	3.68
403.851	3.66
404.211	3.64
404.57	3.63
404.929	3.61
405.288	3.6
405.648	3.59
406.007	3.58
406.366	3.56
406.725	3.57
407.084	3.6
407.443	3.62
407.802	3.61
408.161	3.6
408.52	3.59
408.879	3.56
409.238	3.56
409.596	3.57
409.955	3.57
410.314	3.57
410.673	3.55
411.031	3.51
411.39	3.48
411.748	3.46
412.107	3.45
412.465	3.42
412.824	3.42
413.182	3.37
413.54	3.39
413.899	3.38
414.257	3.38
414.615	3.35
414.974	3.33
415.332	3.3
415.69	3.27
416.048	3.26
416.406	3.24
416.764	3.23
417.122	3.22
417.48	3.2
417.838	3.21
418.195	3.2
418.553	3.18
418.911	3.19
419.269	3.2
419.626	3.19
419.984	3.17
420.342	3.17
420.699	3.17
421.057	3.16
421.414	3.13
421.772	3.11
422.129	3.1
422.486	3.09
422.844	3.09
423.201	3.07
423.558	3.07
423.915	3.07
424.273	3.07
424.63	3.05
424.987	3.05
425.344	3.02
425.701	3.03
426.058	3.04
426.415	3.03
426.772	3.01
427.128	3
427.485	3
427.842	2.99
428.199	2.98
428.555	2.95
428.912	2.97
429.269	2.99
429.625	2.99
429.982	2.98
430.338	2.97
430.695	3
431.051	2.98
431.407	2.98
431.764	2.98
432.12	2.99
432.476	2.99
432.832	2.99
433.189	3
433.545	2.97
433.901	2.97
434.257	2.98
434.613	3.01
434.969	3.01
435.325	3.02
435.681	3.02
436.036	3.03
436.392	3.01
436.748	3
437.104	3.01
437.459	3.01
437.815	3.02
438.171	3.02
438.526	3.04
438.882	3.03
439.237	3.03
439.593	3.06
439.948	3.05
440.304	3.05
440.659	3.03
441.014	3.05
441.369	3.05
441.725	3.03
442.08	3.03
442.435	3.03
442.79	3.02
443.145	3.02
443.5	3.02
443.855	3.01
444.21	3.02
444.565	3.01
444.92	3.01
445.275	2.99
445.629	2.98
445.984	2.96
446.339	2.96
446.693	2.95
447.048	2.92
447.403	2.92
447.757	2.92
448.112	2.92
448.466	2.89
448.82	2.89
449.175	2.9
449.529	2.88
449.883	2.85
450.238	2.83
450.592	2.81
450.946	2.81
451.3	2.8
451.654	2.78
452.008	2.79
452.362	2.78
452.716	2.79
453.07	2.79
453.424	2.78
453.778	2.79
454.132	2.79
454.486	2.8
454.839	2.78
455.193	2.78
455.547	2.77
455.9	2.79
456.254	2.79
456.607	2.79
456.961	2.81
457.314	2.82
457.668	2.85
458.021	2.85
458.375	2.87
458.728	2.88
459.081	2.89
459.434	2.88
459.787	2.89
460.141	2.88
460.494	2.88
460.847	2.89
461.2	2.88
461.553	2.9
461.906	2.9
462.259	2.9
462.611	2.91
462.964	2.91
463.317	2.9
463.67	2.92
464.022	2.92
464.375	2.91
464.728	2.93
465.08	2.92
465.433	2.94
465.785	2.92
466.138	2.92
466.49	2.92
466.843	2.94
467.195	2.94
467.547	2.97
467.899	2.97
468.252	2.96
468.604	2.96
468.956	2.96
469.308	2.97
469.66	2.98
470.012	3
470.364	3.01
470.716	3.02
471.068	3.01
471.42	3.02
471.772	3.04
472.123	3.05
472.475	3.07
472.827	3.06
473.178	3.08
473.53	3.07
473.882	3.09
474.233	3.09
474.585	3.07
474.936	3.07
475.288	3.08
475.639	3.09
475.99	3.08
476.342	3.08
476.693	3.07
477.044	3.07
477.395	3.06
477.746	3.04
478.097	3.02
478.448	3.03
478.8	3.01
479.15	2.98
479.501	2.96
479.852	2.95
480.203	2.94
480.554	2.95
480.905	2.95
481.255	2.94
481.606	2.95
481.957	2.96
482.307	2.95
482.658	2.96
483.009	2.95
483.359	2.96
483.709	2.95
484.06	2.95
484.41	2.96
484.761	2.96
485.111	2.97
485.461	2.98
485.811	2.98
486.162	2.98
486.512	3
486.862	3
487.212	3
487.562	3.01
487.912	3.02
488.262	3.02
488.612	3.03
488.961	3.03
489.311	3.03
489.661	3.04
490.011	3.05
490.36	3.06
490.71	3.07
491.06	3.08
491.409	3.08
491.759	3.08
492.108	3.09
492.458	3.1
492.807	3.1
493.157	3.11
493.506	3.13
493.855	3.13
494.204	3.15
494.554	3.16
494.903	3.17
495.252	3.18
495.601	3.21
495.95	3.22
496.299	3.24
496.648	3.25
496.997	3.26
497.346	3.27
497.695	3.3
498.043	3.32
498.392	3.34
498.741	3.38
499.09	3.4
499.438	3.44
499.787	3.47
500.135	3.5
500.484	3.52
500.832	3.56
501.181	3.59
501.529	3.59
501.878	3.63
502.226	3.67
502.574	3.7
502.923	3.7
503.271	3.73
503.619	3.76
503.967	3.81
504.315	3.83
504.663	3.88
505.011	3.91
505.359	3.94
505.707	3.99
506.055	4.03
506.403	4.08
506.751	4.12
507.098	4.15
507.446	4.21
507.794	4.24
508.141	4.26
508.489	4.3
508.837	4.36
509.184	4.4
509.531	4.44
509.879	4.51
510.226	4.58
510.574	4.64
510.921	4.68
511.268	4.72
511.616	4.78
511.963	4.82
512.31	4.88
512.657	4.94
513.004	4.99
513.351	5.06
513.698	5.11
514.045	5.17
514.392	5.23
514.739	5.28
515.086	5.35
515.432	5.43
515.779	5.48
516.126	5.55
516.473	5.6
516.819	5.66
517.166	5.7
517.512	5.74
517.859	5.79
518.205	5.86
518.552	5.92
518.898	5.98
519.245	6.03
519.591	6.1
519.937	6.16
520.283	6.23
520.629	6.3
520.976	6.39
521.322	6.47
521.668	6.55
522.014	6.63
522.36	6.71
522.706	6.8
523.052	6.9
523.398	7.02
523.743	7.17
524.089	7.3
524.435	7.4
524.781	7.51
525.126	7.62
525.472	7.71
525.817	7.81
526.163	7.89
526.509	8
526.854	8.07
527.199	8.15
527.545	8.23
527.89	8.3
528.235	8.38
528.581	8.48
528.926	8.57
529.271	8.68
529.616	8.77
529.961	8.88
530.306	9
530.651	9.1
530.996	9.21
531.341	9.31
531.686	9.44
532.031	9.57
532.376	9.71
532.721	9.86
533.065	10.01
533.41	10.18
533.755	10.33
534.099	10.53
534.444	10.69
534.788	10.86
535.133	11.03
535.477	11.21
535.822	11.38
536.166	11.56
536.51	11.77
536.855	11.99
537.199	12.21
537.543	12.43
537.887	12.68
538.231	12.93
538.576	13.2
538.92	13.46
539.264	13.7
539.608	13.92
539.951	14.13
540.295	14.32
540.639	14.51
540.983	14.7
541.327	14.89
541.671	15.06
542.014	15.28
542.358	15.47
542.701	15.67
543.045	15.87
543.389	16.11
543.732	16.34
544.075	16.58
544.419	16.79
544.762	17.07
545.105	17.32
545.449	17.56
545.792	17.8
546.135	18.07
546.478	18.38
546.821	18.71
547.165	19.03
547.508	19.37
547.851	19.67
548.194	19.97
548.536	20.29
548.879	20.67
549.222	20.99
549.565	21.32
549.908	21.66
550.25	22.04
550.593	22.33
550.936	22.65
551.278	22.98
551.621	23.37
551.963	23.64
552.306	23.95
552.648	24.3
552.991	24.7
553.333	25.02
553.675	25.3
554.017	25.61
554.36	25.95
554.702	26.29
555.044	26.67
555.386	27.02
555.728	27.37
556.07	27.72
556.412	28.06
556.754	28.41
557.096	28.75
557.438	29.09
557.78	29.53
558.121	29.88
558.463	30.24
558.805	30.54
559.147	30.93
559.488	31.29
559.83	31.63
560.171	31.9
560.513	32.25
560.854	32.61
561.196	32.93
561.537	33.26
561.878	33.56
562.22	33.86
562.561	34.14
562.902	34.41
563.243	34.71
563.584	35.05
563.925	35.38
564.266	35.66
564.607	35.95
564.948	36.17
565.289	36.45
565.63	36.74
565.971	37
566.312	37.21
566.653	37.49
566.993	37.78
567.334	38.05
567.675	38.27
568.015	38.52
568.356	38.77
568.696	39.03
569.037	39.31
569.377	39.54
569.718	39.85
570.058	40.07
570.398	40.29
570.739	40.53
571.079	40.73
571.419	40.95
571.759	41.16
572.099	41.43
572.439	41.58
572.779	41.73
573.119	41.96
573.459	42.26
573.799	42.44
574.139	42.59
574.479	42.84
574.819	43.02
575.158	43.21
575.498	43.42
575.838	43.66
576.177	43.83
576.517	44.03
576.856	44.23
577.196	44.45
577.535	44.72
577.875	44.92
578.214	45.06
578.553	45.26
578.893	45.45
579.232	45.64
579.571	45.94
579.91	46.21
580.25	46.39
580.589	46.49
580.928	46.68
581.267	46.88
581.606	47
581.945	47.19
582.283	47.39
582.622	47.57
582.961	47.69
583.3	47.93
583.639	48.14
583.977	48.25
584.316	48.42
584.654	48.53
584.993	48.72
585.332	48.91
585.67	49.07
586.008	49.18
586.347	49.24
586.685	49.37
587.024	49.5
587.362	49.63
587.7	49.78
588.038	49.93
588.376	50.06
588.715	50.24
589.053	50.43
589.391	50.52
589.729	50.66
590.067	50.77
590.404	50.8
590.742	50.97
591.08	51.16
591.418	51.33
591.756	51.43
592.093	51.46
592.431	51.6
592.769	51.83
593.106	52.02
593.444	52.17
593.781	52.22
594.119	52.33
594.456	52.39
594.793	52.47
595.131	52.55
595.468	52.67
595.805	52.77
596.143	52.83
596.48	52.89
596.817	52.99
597.154	53.05
597.491	53.21
597.828	53.22
598.165	53.25
598.502	53.29
598.839	53.38
599.176	53.52
599.512	53.65
599.849	53.67
600.186	53.77
600.523	53.91
600.859	54.03
601.196	54.22
601.532	54.38
601.869	54.57
602.205	54.7
602.542	54.77
602.878	54.78
603.215	54.91
603.551	54.93
603.887	54.97
604.223	55.08
604.56	55.13
604.896	55.18
605.232	55.27
605.568	55.35
605.904	55.45
606.24	55.54
606.576	55.61
606.912	55.72
607.248	55.75
607.583	55.72
607.919	55.83
608.255	55.82
608.591	55.88
608.926	55.91
609.262	55.96
609.597	56.12
609.933	56.23
610.268	56.21
610.604	56.37
610.939	56.43
611.275	56.51
611.61	56.59
611.945	56.72
612.281	56.72
612.616	56.78
612.951	56.81
613.286	56.83
613.621	56.89
613.956	56.92
614.291	56.99
614.626	57.12
614.961	57.1
615.296	57.14
615.631	57.16
615.966	57.14
616.3	57.12
616.635	57.05
616.97	57.06
617.304	57.15
617.639	57.27
617.973	57.33
618.308	57.28
618.642	57.26
618.977	57.2
619.311	57.32
619.646	57.4
619.98	57.46
620.314	57.53
620.648	57.57
620.983	57.62
621.317	57.67
621.651	57.69
621.985	57.76
622.319	57.85
622.653	57.97
622.987	57.97
623.321	58.06
623.655	58.18
623.988	58.29
624.322	58.36
624.656	58.32
624.99	58.39
625.323	58.48
625.657	58.54
625.99	58.64
626.324	58.68
626.657	58.64
626.991	58.64
627.324	58.64
627.658	58.64
627.991	58.63
628.324	58.6
628.657	58.71
628.991	58.83
629.324	58.82
629.657	58.83
629.99	58.9
630.323	59.01
630.656	59.01
630.989	58.94
631.322	58.99
631.655	59.11
631.987	59.06
632.32	59.11
632.653	59.15
632.986	59.22
633.318	59.24
633.651	59.29
633.984	59.31
634.316	59.26
634.649	59.3
634.981	59.4
635.313	59.58
635.646	59.5
635.978	59.45
636.31	59.5
636.643	59.54
636.975	59.66
637.307	59.64
637.639	59.64
637.971	59.71
638.303	59.69
638.635	59.63
638.967	59.72
639.299	59.77
639.631	59.76
639.963	59.77
640.295	59.7
640.626	59.8
640.958	59.78
641.29	59.98
641.621	60.06
641.953	59.97
642.285	59.89
642.616	60.02
642.948	60.05
643.279	60.07
643.61	60.14
643.942	60.05
644.273	60.04
644.604	60.04
644.936	60.1
645.267	60.06
645.598	60.17
645.929	60.26
646.26	60.29
646.591	60.32
646.922	60.24
647.253	60.4
647.584	60.39
647.915	60.47
648.245	60.48
648.576	60.57
648.907	60.73
649.238	60.8
649.568	60.77
649.899	60.77
650.229	60.77
650.56	60.77
650.89	60.89
651.221	60.89
651.551	60.95
651.882	60.99
652.212	61.1
652.542	61.09
652.872	61.05
653.203	61.04
653.533	61.08
653.863	61.16
654.193	61.12
654.523	61.2
654.853	61.19
655.183	61.11
655.513	61
655.843	60.87
656.172	60.96
656.502	61.04
656.832	61.19
657.162	61.28
657.491	61.26
657.821	61.22
658.15	61.3
658.48	61.27
658.809	61.3
659.139	61.21
659.468	61.17
659.798	61.19
660.127	61.2
660.456	61.22
660.785	61.22
661.115	61.21
661.444	61.23
661.773	61.3
662.102	61.45
662.431	61.51
662.76	61.6
663.089	61.59
663.418	61.57
663.747	61.54
664.076	61.58
664.404	61.69
664.733	61.74
665.062	61.83
665.39	61.83
665.719	61.9
666.048	61.99
666.376	62.07
666.705	62.07
667.033	62.04
667.362	62.01
