Data from BA28416_Reflection_00006.txt Node
Date: Mon Nov 18 16:05:23 EST 2019
User: vgr7
Spectrometer: USB2G7710
Scans to average: 3
Trigger mode: 4
Integration Time (sec): 2.000000E-2
Electric dark correction enabled: true
Boxcar width: 10
XAxis mode: Wavelengths
Number of Pixels in Spectrum: 2048
>>>>>Begin Spectral Data<<<<<
177.721	91.61
178.105	129.56
178.488	194.67
178.871	1600
179.254	-321.49
179.636	-27.66
180.019	640.98
180.402	68.89
180.785	-22.83
181.168	23.8
181.55	55.59
181.933	73.17
182.316	61.59
182.698	59.83
183.081	58.47
183.463	77.17
183.846	67.42
184.228	58.57
184.611	44.17
184.993	45.52
185.376	-1.1
185.758	7.51
186.14	10.99
186.522	12.11
186.904	19.16
187.287	14.65
187.669	-0.62
188.051	-3.97
188.433	-14.35
188.815	-15.24
189.197	-14.08
189.579	-15.17
189.961	-12.91
190.342	7.71
190.724	-6.52
191.106	17.66
191.488	44.4
191.869	60.38
192.251	75.18
192.633	98.23
193.014	158.27
193.396	225.55
193.777	211.39
194.159	394.67
194.54	449.23
194.922	-379.84
195.303	-849.84
195.684	-888.92
196.065	-378.16
196.447	-448.55
196.828	-281.75
197.209	-181.81
197.59	-196.96
197.971	-276.66
198.352	-203.58
198.733	-269.81
199.114	-214.08
199.495	-170.61
199.876	-165.82
200.257	-123.29
200.638	-81.43
201.018	-94.95
201.399	-106.65
201.78	-99.34
202.16	-122.02
202.541	-186.5
202.922	-470.48
203.302	-380.59
203.683	-1355.58
204.063	-1827.9
204.444	-867.02
204.824	-1503.58
205.204	-2568.09
205.585	-1068.19
205.965	-963.87
206.345	-851.64
206.725	-11190.91
207.106	1596.52
207.486	586.85
207.866	633.27
208.246	390.66
208.626	379.18
209.006	618.3
209.386	655.76
209.766	734.94
210.145	624.14
210.525	409.26
210.905	320.43
211.285	337.06
211.664	606.91
212.044	428.3
212.424	387.89
212.803	239.32
213.183	171.61
213.562	146.12
213.942	191.36
214.321	225.09
214.701	182.22
215.08	133.78
215.459	228.91
215.838	367.58
216.218	1907.45
216.597	403.73
216.976	462.23
217.355	6014.29
217.734	952.84
218.113	-2281.44
218.492	-1002.77
218.871	-234.07
219.25	-193.23
219.629	-202.19
220.008	-249.92
220.387	-207.14
220.766	-132.91
221.144	-332.9
221.523	-331.46
221.902	-495.56
222.28	8986.79
222.659	-903.66
223.037	-416.9
223.416	-409.25
223.794	-328.57
224.173	-307.23
224.551	-184.06
224.929	-167.01
225.308	-111.65
225.686	-78.32
226.064	-60.74
226.442	-44
226.821	-37.71
227.199	-36.22
227.577	-35.2
227.955	-32.99
228.333	-26.7
228.711	-21.43
229.089	-13.11
229.467	-13.09
229.845	-11.5
230.222	-8.85
230.6	-7.37
230.978	-5.86
231.356	-3.8
231.733	-0.27
232.111	-0.93
232.488	-0.22
232.866	-1.62
233.243	0.23
233.621	-1.37
233.998	-0.61
234.376	-0.76
234.753	1.2
235.13	2.33
235.508	3.71
235.885	4.82
236.262	4.89
236.639	3.58
237.016	1.87
237.393	1.92
237.77	1.37
238.147	1.66
238.524	2.42
238.901	2.7
239.278	2.65
239.655	3.57
240.032	3.41
240.409	3.29
240.785	3.84
241.162	4.21
241.539	4.52
241.915	4.86
242.292	4.34
242.668	4.43
243.045	4.31
243.421	4.2
243.798	4.1
244.174	3.94
244.551	4.15
244.927	4.23
245.303	4.42
245.679	4.34
246.056	4.22
246.432	4.32
246.808	4.11
247.184	4.04
247.56	3.57
247.936	3.57
248.312	3.42
248.688	3.27
249.064	2.83
249.44	2.73
249.815	2.55
250.191	2.8
250.567	2.49
250.943	2.5
251.318	2.48
251.694	2.29
252.069	2.09
252.445	1.66
252.82	1.57
253.196	1.5
253.571	1.3
253.947	1.13
254.322	0.96
254.697	1.11
255.073	1.17
255.448	1.4
255.823	1.49
256.198	1.77
256.573	1.89
256.948	2.22
257.323	2.5
257.698	2.55
258.073	2.48
258.448	2.59
258.823	2.58
259.198	2.36
259.573	2.35
259.948	2.28
260.322	2.39
260.697	2.41
261.072	2.28
261.446	2.47
261.821	2.61
262.195	2.55
262.57	2.5
262.944	2.47
263.319	2.48
263.693	2.54
264.067	2.53
264.442	2.52
264.816	2.34
265.19	2.14
265.564	2.01
265.938	1.95
266.313	1.91
266.687	1.84
267.061	2.14
267.435	2.27
267.809	2.46
268.183	2.59
268.556	2.62
268.93	2.77
269.304	2.61
269.678	2.73
270.051	2.7
270.425	2.86
270.799	3
271.172	3.01
271.546	2.94
271.919	2.86
272.293	2.93
272.666	3.07
273.04	3.11
273.413	3.07
273.787	3.09
274.16	3.03
274.533	3.05
274.906	2.99
275.279	3.01
275.653	3.09
276.026	3.01
276.399	2.87
276.772	2.99
277.145	3.17
277.518	3.08
277.891	3.23
278.263	2.94
278.636	2.82
279.009	2.66
279.382	2.88
279.755	2.85
280.127	2.97
280.5	2.9
280.872	2.99
281.245	3.09
281.617	3.16
281.99	3.4
282.362	3.45
282.735	3.3
283.107	3.27
283.479	3.2
283.852	3.19
284.224	3.29
284.596	3.29
284.968	3.21
285.34	3.15
285.713	2.99
286.085	3.06
286.457	3.14
286.829	3.26
287.201	3.19
287.572	3.18
287.944	3.03
288.316	2.98
288.688	2.89
289.06	2.82
289.431	2.86
289.803	2.66
290.175	2.62
290.546	2.69
290.918	2.69
291.289	2.61
291.661	2.63
292.032	2.72
292.403	2.59
292.775	2.68
293.146	2.67
293.517	2.72
293.889	2.87
294.26	2.84
294.631	2.8
295.002	2.63
295.373	2.66
295.744	2.63
296.115	2.7
296.486	2.74
296.857	2.65
297.228	2.66
297.599	2.56
297.97	2.57
298.34	2.56
298.711	2.49
299.082	2.62
299.452	2.71
299.823	2.71
300.194	2.82
300.564	2.76
300.935	2.66
301.305	2.64
301.676	2.56
302.046	2.51
302.416	2.59
302.787	2.66
303.157	2.71
303.527	2.73
303.897	2.79
304.267	2.83
304.637	2.91
305.008	2.8
305.378	2.97
305.748	3.04
306.117	2.88
306.487	2.98
306.857	2.93
307.227	2.86
307.597	2.82
307.967	2.84
308.336	2.83
308.706	2.95
309.076	2.91
309.445	2.88
309.815	2.82
310.184	2.75
310.554	2.77
310.923	2.74
311.293	2.79
311.662	2.73
312.031	2.68
312.401	2.77
312.77	2.79
313.139	2.79
313.508	2.75
313.877	2.84
314.246	2.84
314.616	2.85
314.985	2.8
315.353	2.69
315.722	2.5
316.091	2.45
316.46	2.42
316.829	2.58
317.198	2.66
317.567	2.64
317.935	2.63
318.304	2.52
318.672	2.46
319.041	2.46
319.41	2.5
319.778	2.62
320.147	2.61
320.515	2.63
320.883	2.51
321.252	2.61
321.62	2.66
321.988	2.69
322.357	2.54
322.725	2.6
323.093	2.73
323.461	2.86
323.829	2.85
324.197	2.88
324.565	2.8
324.933	2.65
325.301	2.73
325.669	2.74
326.037	2.74
326.405	2.81
326.772	2.72
327.14	2.68
327.508	2.61
327.875	2.65
328.243	2.77
328.61	2.87
328.978	2.85
329.346	2.9
329.713	2.75
330.08	2.86
330.448	2.67
330.815	2.55
331.182	2.45
331.55	2.42
331.917	2.26
332.284	2.26
332.651	2.29
333.018	2.37
333.385	2.38
333.752	2.5
334.119	2.41
334.486	2.44
334.853	2.44
335.22	2.35
335.587	2.29
335.954	2.14
336.32	2.19
336.687	2.16
337.054	2.16
337.42	2.27
337.787	2.4
338.153	2.51
338.52	2.59
338.886	2.58
339.253	2.54
339.619	2.59
339.986	2.62
340.352	2.6
340.718	2.61
341.084	2.62
341.451	2.57
341.817	2.68
342.183	2.73
342.549	2.73
342.915	2.85
343.281	2.91
343.647	2.9
344.013	2.87
344.379	2.79
344.745	2.83
345.11	2.77
345.476	2.68
345.842	2.62
346.208	2.58
346.573	2.71
346.939	2.79
347.304	2.82
347.67	2.77
348.035	2.77
348.401	2.78
348.766	2.78
349.132	2.82
349.497	2.81
349.862	2.85
350.228	2.92
350.593	2.84
350.958	2.81
351.323	2.92
351.688	2.9
352.053	3.02
352.418	3.04
352.783	3.08
353.148	2.98
353.513	3.08
353.878	3.15
354.243	3.13
354.608	3.2
354.972	3.17
355.337	3.17
355.702	3.25
356.066	3.19
356.431	3.18
356.795	3.16
357.16	3.14
357.524	3.06
357.889	2.99
358.253	3.01
358.618	3.01
358.982	2.93
359.346	2.87
359.71	2.82
360.075	2.76
360.439	2.8
360.803	2.82
361.167	2.78
361.531	2.73
361.895	2.66
362.259	2.58
362.623	2.64
362.987	2.64
363.351	2.6
363.714	2.63
364.078	2.62
364.442	2.55
364.806	2.5
365.169	2.53
365.533	2.59
365.896	2.59
366.26	2.55
366.623	2.58
366.987	2.62
367.35	2.66
367.714	2.68
368.077	2.64
368.44	2.67
368.803	2.69
369.167	2.67
369.53	2.64
369.893	2.67
370.256	2.67
370.619	2.65
370.982	2.62
371.345	2.6
371.708	2.58
372.071	2.62
372.434	2.62
372.797	2.6
373.159	2.49
373.522	2.54
373.885	2.6
374.247	2.6
374.61	2.6
374.973	2.52
375.335	2.5
375.698	2.49
376.06	2.46
376.423	2.44
376.785	2.5
377.147	2.58
377.51	2.57
377.872	2.61
378.234	2.62
378.596	2.66
378.958	2.64
379.321	2.65
379.683	2.74
380.045	2.82
380.407	2.83
380.769	2.91
381.13	2.89
381.492	2.89
381.854	2.92
382.216	2.92
382.578	2.93
382.939	2.92
383.301	2.9
383.663	2.89
384.024	2.93
384.386	2.92
384.747	2.93
385.109	2.96
385.47	2.88
385.832	2.88
386.193	2.91
386.554	2.91
386.916	2.91
387.277	2.89
387.638	2.88
387.999	2.85
388.36	2.85
388.721	2.84
389.082	2.84
389.443	2.82
389.804	2.86
390.165	2.87
390.526	2.9
390.887	2.9
391.248	2.95
391.609	2.95
391.969	2.94
392.33	2.91
392.691	2.89
393.051	2.93
393.412	2.93
393.772	2.91
394.133	2.89
394.493	2.92
394.854	2.91
395.214	2.88
395.574	2.9
395.935	2.87
396.295	2.88
396.655	2.84
397.015	2.85
397.376	2.83
397.736	2.81
398.096	2.82
398.456	2.86
398.816	2.85
399.176	2.83
399.535	2.82
399.895	2.84
400.255	2.84
400.615	2.85
400.975	2.85
401.334	2.87
401.694	2.89
402.054	2.88
402.413	2.88
402.773	2.87
403.132	2.83
403.492	2.86
403.851	2.86
404.211	2.89
404.57	2.85
404.929	2.84
405.288	2.88
405.648	2.88
406.007	2.89
406.366	2.88
406.725	2.93
407.084	2.92
407.443	2.91
407.802	2.92
408.161	2.9
408.52	2.9
408.879	2.91
409.238	2.91
409.596	2.89
409.955	2.9
410.314	2.92
410.673	2.97
411.031	2.98
411.39	2.99
411.748	3
412.107	3.03
412.465	3.05
412.824	3.01
413.182	2.96
413.54	2.95
413.899	2.96
414.257	2.94
414.615	2.95
414.974	2.97
415.332	2.97
415.69	2.97
416.048	2.96
416.406	2.97
416.764	2.96
417.122	2.99
417.48	2.97
417.838	2.99
418.195	2.99
418.553	2.97
418.911	2.95
419.269	2.95
419.626	2.94
419.984	2.93
420.342	2.95
420.699	2.96
421.057	2.96
421.414	2.95
421.772	2.94
422.129	2.96
422.486	2.94
422.844	2.94
423.201	2.94
423.558	2.94
423.915	2.93
424.273	2.94
424.63	2.91
424.987	2.91
425.344	2.9
425.701	2.89
426.058	2.89
426.415	2.88
426.772	2.88
427.128	2.88
427.485	2.9
427.842	2.88
428.199	2.91
428.555	2.9
428.912	2.91
429.269	2.93
429.625	2.9
429.982	2.92
430.338	2.91
430.695	2.91
431.051	2.91
431.407	2.91
431.764	2.9
432.12	2.91
432.476	2.9
432.832	2.89
433.189	2.9
433.545	2.88
433.901	2.89
434.257	2.9
434.613	2.9
434.969	2.9
435.325	2.92
435.681	2.92
436.036	2.92
436.392	2.9
436.748	2.89
437.104	2.9
437.459	2.89
437.815	2.92
438.171	2.92
438.526	2.92
438.882	2.92
439.237	2.94
439.593	2.95
439.948	2.96
440.304	2.97
440.659	2.96
441.014	2.98
441.369	2.98
441.725	2.95
442.08	2.95
442.435	2.95
442.79	2.92
443.145	2.91
443.5	2.93
443.855	2.94
444.21	2.93
444.565	2.95
444.92	2.96
445.275	2.93
445.629	2.94
445.984	2.93
446.339	2.92
446.693	2.9
447.048	2.89
447.403	2.89
447.757	2.9
448.112	2.89
448.466	2.86
448.82	2.86
449.175	2.88
449.529	2.89
449.883	2.87
450.238	2.87
450.592	2.87
450.946	2.85
451.3	2.84
451.654	2.87
452.008	2.86
452.362	2.84
452.716	2.83
453.07	2.84
453.424	2.84
453.778	2.84
454.132	2.85
454.486	2.84
454.839	2.84
455.193	2.83
455.547	2.83
455.9	2.85
456.254	2.87
456.607	2.87
456.961	2.86
457.314	2.87
457.668	2.88
458.021	2.88
458.375	2.88
458.728	2.89
459.081	2.87
459.434	2.87
459.787	2.87
460.141	2.89
460.494	2.89
460.847	2.89
461.2	2.89
461.553	2.89
461.906	2.91
462.259	2.92
462.611	2.93
462.964	2.95
463.317	2.94
463.67	2.94
464.022	2.93
464.375	2.93
464.728	2.93
465.08	2.93
465.433	2.93
465.785	2.92
466.138	2.93
466.49	2.92
466.843	2.93
467.195	2.93
467.547	2.93
467.899	2.89
468.252	2.9
468.604	2.91
468.956	2.9
469.308	2.9
469.66	2.89
470.012	2.89
470.364	2.87
470.716	2.87
471.068	2.87
471.42	2.88
471.772	2.9
472.123	2.88
472.475	2.88
472.827	2.89
473.178	2.88
473.53	2.86
473.882	2.86
474.233	2.85
474.585	2.85
474.936	2.84
475.288	2.88
475.639	2.89
475.99	2.89
476.342	2.87
476.693	2.88
477.044	2.9
477.395	2.89
477.746	2.89
478.097	2.91
478.448	2.92
478.8	2.91
479.15	2.91
479.501	2.92
479.852	2.93
480.203	2.93
480.554	2.95
480.905	2.97
481.255	2.97
481.606	2.98
481.957	2.98
482.307	3
482.658	3
483.009	3.01
483.359	3.01
483.709	3.03
484.06	3.03
484.41	3.03
484.761	3.03
485.111	3.04
485.461	3.04
485.811	3.04
486.162	3.04
486.512	3.05
486.862	3.05
487.212	3.05
487.562	3.06
487.912	3.06
488.262	3.06
488.612	3.06
488.961	3.06
489.311	3.06
489.661	3.06
490.011	3.05
490.36	3.04
490.71	3.05
491.06	3.05
491.409	3.05
491.759	3.05
492.108	3.06
492.458	3.05
492.807	3.04
493.157	3.04
493.506	3.04
493.855	3.04
494.204	3.05
494.554	3.05
494.903	3.04
495.252	3.03
495.601	3.03
495.95	3.04
496.299	3.04
496.648	3.04
496.997	3.04
497.346	3.05
497.695	3.06
498.043	3.05
498.392	3.05
498.741	3.05
499.09	3.05
499.438	3.05
499.787	3.05
500.135	3.06
500.484	3.09
500.832	3.1
501.181	3.1
501.529	3.1
501.878	3.1
502.226	3.12
502.574	3.13
502.923	3.12
503.271	3.13
503.619	3.15
503.967	3.16
504.315	3.16
504.663	3.17
505.011	3.16
505.359	3.14
505.707	3.15
506.055	3.16
506.403	3.18
506.751	3.17
507.098	3.15
507.446	3.14
507.794	3.14
508.141	3.13
508.489	3.12
508.837	3.12
509.184	3.12
509.531	3.12
509.879	3.15
510.226	3.15
510.574	3.16
510.921	3.16
511.268	3.16
511.616	3.17
511.963	3.17
512.31	3.18
512.657	3.2
513.004	3.2
513.351	3.22
513.698	3.2
514.045	3.21
514.392	3.24
514.739	3.26
515.086	3.27
515.432	3.28
515.779	3.29
516.126	3.31
516.473	3.33
516.819	3.35
517.166	3.33
517.512	3.32
517.859	3.32
518.205	3.33
518.552	3.34
518.898	3.34
519.245	3.34
519.591	3.34
519.937	3.32
520.283	3.34
520.629	3.33
520.976	3.32
521.322	3.33
521.668	3.33
522.014	3.33
522.36	3.34
522.706	3.35
523.052	3.34
523.398	3.34
523.743	3.33
524.089	3.32
524.435	3.34
524.781	3.35
525.126	3.34
525.472	3.34
525.817	3.32
526.163	3.32
526.509	3.32
526.854	3.33
527.199	3.35
527.545	3.33
527.89	3.34
528.235	3.35
528.581	3.36
528.926	3.35
529.271	3.35
529.616	3.34
529.961	3.33
530.306	3.33
530.651	3.33
530.996	3.34
531.341	3.33
531.686	3.33
532.031	3.33
532.376	3.34
532.721	3.34
533.065	3.35
533.41	3.35
533.755	3.35
534.099	3.36
534.444	3.37
534.788	3.37
535.133	3.38
535.477	3.38
535.822	3.36
536.166	3.35
536.51	3.37
536.855	3.38
537.199	3.38
537.543	3.39
537.887	3.38
538.231	3.39
538.576	3.39
538.92	3.38
539.264	3.38
539.608	3.39
539.951	3.39
540.295	3.39
540.639	3.38
540.983	3.37
541.327	3.36
541.671	3.35
542.014	3.36
542.358	3.34
542.701	3.34
543.045	3.34
543.389	3.35
543.732	3.34
544.075	3.34
544.419	3.35
544.762	3.34
545.105	3.35
545.449	3.35
545.792	3.34
546.135	3.34
546.478	3.34
546.821	3.33
547.165	3.32
547.508	3.33
547.851	3.34
548.194	3.34
548.536	3.36
548.879	3.36
549.222	3.36
549.565	3.38
549.908	3.39
550.25	3.4
550.593	3.39
550.936	3.39
551.278	3.37
551.621	3.38
551.963	3.39
552.306	3.39
552.648	3.4
552.991	3.42
553.333	3.44
553.675	3.42
554.017	3.45
554.36	3.46
554.702	3.45
555.044	3.44
555.386	3.46
555.728	3.46
556.07	3.45
556.412	3.44
556.754	3.46
557.096	3.44
557.438	3.44
557.78	3.46
558.121	3.48
558.463	3.51
558.805	3.52
559.147	3.51
559.488	3.48
559.83	3.49
560.171	3.5
560.513	3.49
560.854	3.51
561.196	3.5
561.537	3.51
561.878	3.49
562.22	3.49
562.561	3.47
562.902	3.48
563.243	3.47
563.584	3.48
563.925	3.44
564.266	3.45
564.607	3.43
564.948	3.43
565.289	3.41
565.63	3.42
565.971	3.37
566.312	3.4
566.653	3.43
566.993	3.42
567.334	3.38
567.675	3.4
568.015	3.41
568.356	3.39
568.696	3.38
569.037	3.41
569.377	3.41
569.718	3.42
570.058	3.4
570.398	3.39
570.739	3.41
571.079	3.44
571.419	3.43
571.759	3.46
572.099	3.47
572.439	3.49
572.779	3.48
573.119	3.51
573.459	3.5
573.799	3.5
574.139	3.49
574.479	3.52
574.819	3.51
575.158	3.49
575.498	3.49
575.838	3.48
576.177	3.42
576.517	3.41
576.856	3.43
577.196	3.43
577.535	3.44
577.875	3.44
578.214	3.39
578.553	3.42
578.893	3.39
579.232	3.38
579.571	3.38
579.91	3.39
580.25	3.37
580.589	3.36
580.928	3.35
581.267	3.38
581.606	3.36
581.945	3.34
582.283	3.33
582.622	3.34
582.961	3.36
583.3	3.41
583.639	3.43
583.977	3.41
584.316	3.43
584.654	3.4
584.993	3.36
585.332	3.41
585.67	3.41
586.008	3.4
586.347	3.38
586.685	3.36
587.024	3.35
587.362	3.38
587.7	3.42
588.038	3.42
588.376	3.42
588.715	3.46
589.053	3.48
589.391	3.53
589.729	3.5
590.067	3.51
590.404	3.53
590.742	3.55
591.08	3.52
591.418	3.54
591.756	3.58
592.093	3.63
592.431	3.65
592.769	3.64
593.106	3.63
593.444	3.62
593.781	3.6
594.119	3.63
594.456	3.59
594.793	3.58
595.131	3.57
595.468	3.57
595.805	3.53
596.143	3.53
596.48	3.51
596.817	3.54
597.154	3.57
597.491	3.52
597.828	3.48
598.165	3.51
598.502	3.5
598.839	3.48
599.176	3.44
599.512	3.42
599.849	3.44
600.186	3.46
600.523	3.49
600.859	3.51
601.196	3.51
601.532	3.51
601.869	3.53
602.205	3.52
602.542	3.52
602.878	3.53
603.215	3.54
603.551	3.56
603.887	3.6
604.223	3.55
604.56	3.61
604.896	3.63
605.232	3.63
605.568	3.63
605.904	3.63
606.24	3.71
606.576	3.72
606.912	3.7
607.248	3.72
607.583	3.72
607.919	3.73
608.255	3.7
608.591	3.72
608.926	3.71
609.262	3.74
609.597	3.75
609.933	3.79
610.268	3.76
610.604	3.74
610.939	3.72
611.275	3.72
611.61	3.7
611.945	3.72
612.281	3.72
612.616	3.73
612.951	3.76
613.286	3.69
613.621	3.69
613.956	3.7
614.291	3.68
614.626	3.67
614.961	3.62
615.296	3.57
615.631	3.59
615.966	3.58
616.3	3.59
616.635	3.61
616.97	3.58
617.304	3.59
617.639	3.62
617.973	3.59
618.308	3.62
618.642	3.61
618.977	3.61
619.311	3.65
619.646	3.66
619.98	3.66
620.314	3.65
620.648	3.64
620.983	3.63
621.317	3.63
621.651	3.67
621.985	3.72
622.319	3.77
622.653	3.78
622.987	3.81
623.321	3.79
623.655	3.77
623.988	3.8
624.322	3.8
624.656	3.8
624.99	3.82
625.323	3.82
625.657	3.82
625.99	3.85
626.324	3.82
626.657	3.83
626.991	3.84
627.324	3.83
627.658	3.87
627.991	3.91
628.324	3.91
628.657	3.88
628.991	3.88
629.324	3.91
629.657	3.89
629.99	3.9
630.323	3.89
630.656	3.88
630.989	3.91
631.322	3.93
631.655	3.88
631.987	3.88
632.32	3.87
632.653	3.84
632.986	3.8
633.318	3.76
633.651	3.76
633.984	3.75
634.316	3.75
634.649	3.74
634.981	3.71
635.313	3.69
635.646	3.7
635.978	3.66
636.31	3.63
636.643	3.59
636.975	3.53
637.307	3.53
637.639	3.47
637.971	3.38
638.303	3.35
638.635	3.34
638.967	3.31
639.299	3.31
639.631	3.3
639.963	3.34
640.295	3.42
640.626	3.39
640.958	3.41
641.29	3.48
641.621	3.48
641.953	3.49
642.285	3.51
642.616	3.52
642.948	3.49
643.279	3.5
643.61	3.58
643.942	3.6
644.273	3.55
644.604	3.6
644.936	3.59
645.267	3.63
645.598	3.68
645.929	3.79
646.26	3.77
646.591	3.76
646.922	3.73
647.253	3.72
647.584	3.67
647.915	3.59
648.245	3.55
648.576	3.51
648.907	3.54
649.238	3.51
649.568	3.52
649.899	3.62
650.229	3.67
650.56	3.65
650.89	3.72
651.221	3.76
651.551	3.76
651.882	3.78
652.212	3.84
652.542	3.8
652.872	3.74
653.203	3.79
653.533	3.86
653.863	3.9
654.193	3.88
654.523	3.9
654.853	3.93
655.183	3.94
655.513	4.01
655.843	3.98
656.172	4.01
656.502	4
656.832	3.96
657.162	3.88
657.491	3.86
657.821	3.81
658.15	3.8
658.48	3.82
658.809	3.83
659.139	3.74
659.468	3.74
659.798	3.72
660.127	3.75
660.456	3.72
660.785	3.7
661.115	3.71
661.444	3.8
661.773	3.85
662.102	3.85
662.431	3.82
662.76	3.84
663.089	3.85
663.418	3.8
663.747	3.79
664.076	3.88
664.404	3.85
664.733	3.9
665.062	3.89
665.39	3.92
665.719	3.87
666.048	3.97
666.376	3.99
666.705	4.06
667.033	4.04
667.362	4.12
667.69	4.13
668.018	4.14
668.347	4.03
668.675	3.98
669.003	3.89
669.331	3.89
669.659	3.88
669.987	3.89
670.315	3.96
670.643	4.01
670.971	3.98
671.299	4.01
671.627	3.96
671.955	3.99
672.283	3.96
672.61	4
672.938	3.91
673.266	3.91
673.593	4.04
673.921	3.96
674.249	3.9
674.576	3.82
674.904	3.71
675.231	3.75
675.558	3.77
675.886	3.81
