Data from BA28301_Reflection_00010.txt Node
Date: Mon Nov 18 15:45:20 EST 2019
User: vgr7
Spectrometer: USB2G7710
Scans to average: 3
Trigger mode: 4
Integration Time (sec): 2.000000E-2
Electric dark correction enabled: true
Boxcar width: 10
XAxis mode: Wavelengths
Number of Pixels in Spectrum: 2048
>>>>>Begin Spectral Data<<<<<
177.721	-44.88
178.105	-3185.71
178.488	409.17
178.871	-144.68
179.254	181.34
179.636	61.54
180.019	-41.99
180.402	288.89
180.785	-268.82
181.168	-5.93
181.55	-123.8
181.933	82.83
182.316	126.2
182.698	85.87
183.081	69.05
183.463	63.54
183.846	57.01
184.228	78.5
184.611	42.52
184.993	-6.88
185.376	-3.35
185.758	72.56
186.14	214.24
186.522	362.96
186.904	-492.49
187.287	999.16
187.669	-48.06
188.051	-122.48
188.433	-77.81
188.815	-142.14
189.197	-365.44
189.579	-146.45
189.961	-150.36
190.342	-156.67
190.724	-22.24
191.106	-5.71
191.488	-23.62
191.869	16.15
192.251	27.63
192.633	-2.32
193.014	-89.72
193.396	-117.17
193.777	-96.01
194.159	-29.41
194.54	167.83
194.922	112.52
195.303	-41.87
195.684	115.2
196.065	36.54
196.447	-2076.47
196.828	84.89
197.209	16.01
197.59	-189.26
197.971	-100
198.352	-49.14
198.733	-77.25
199.114	-90.93
199.495	-17.39
199.876	-37
200.257	-56.95
200.638	-38.33
201.018	-49.79
201.399	-40.36
201.78	-35.98
202.16	-44.11
202.541	-83.64
202.922	-92.29
203.302	-95.02
203.683	-86.21
204.063	-120.14
204.444	-105.23
204.824	-114.61
205.204	-70.82
205.585	-28.17
205.965	1.69
206.345	36.52
206.725	29.23
207.106	2563.41
207.486	152.63
207.866	119.88
208.246	67.34
208.626	60.17
209.006	-90.98
209.386	19.56
209.766	3.88
210.145	28.68
210.525	23.94
210.905	81.13
211.285	2300
211.664	-111.01
212.044	52.73
212.424	101.62
212.803	26.22
213.183	70.01
213.562	20.49
213.942	0.76
214.321	-10.26
214.701	-4.79
215.08	5.43
215.459	-0.23
215.838	-1.19
216.218	-4.02
216.597	2.15
216.976	-14.13
217.355	0.07
217.734	5.59
218.113	12.22
218.492	7.62
218.871	1.49
219.25	1.88
219.629	-0.82
220.008	-7.68
220.387	-17.74
220.766	-21.7
221.144	-28.76
221.523	-36.78
221.902	-34.35
222.28	-32.13
222.659	-30.5
223.037	-31.33
223.416	-21.05
223.794	-17.3
224.173	-20.68
224.551	-16.54
224.929	-5.07
225.308	-4.71
225.686	-7.21
226.064	-4.54
226.442	-3.24
226.821	0.53
227.199	0.79
227.577	1.82
227.955	3.73
228.333	1.69
228.711	3.41
229.089	5.45
229.467	4.72
229.845	3.76
230.222	1.19
230.6	1.07
230.978	2.21
231.356	1.22
231.733	1.76
232.111	4.74
232.488	3.73
232.866	3.26
233.243	3.09
233.621	2.96
233.998	1.98
234.376	2.7
234.753	2.49
235.13	1.85
235.508	2.62
235.885	2.67
236.262	2.92
236.639	3.77
237.016	3.34
237.393	3.06
237.77	2.72
238.147	4.06
238.524	3.95
238.901	3.94
239.278	4.48
239.655	4.98
240.032	4.41
240.409	4.23
240.785	4.03
241.162	4.28
241.539	4.37
241.915	4.53
242.292	4.24
242.668	4.28
243.045	4.3
243.421	4.04
243.798	3.89
244.174	3.85
244.551	3.37
244.927	3.31
245.303	3.54
245.679	3.68
246.056	3.72
246.432	3.58
246.808	3.5
247.184	3.2
247.56	2.9
247.936	2.74
248.312	2.81
248.688	2.67
249.064	2.59
249.44	2.65
249.815	2.8
250.191	2.76
250.567	2.77
250.943	2.74
251.318	2.88
251.694	2.84
252.069	2.74
252.445	2.98
252.82	3.01
253.196	3.01
253.571	3.1
253.947	2.9
254.322	3.01
254.697	2.95
255.073	2.58
255.448	2.7
255.823	2.57
256.198	2.75
256.573	2.84
256.948	3.11
257.323	3.05
257.698	2.95
258.073	3.16
258.448	2.97
258.823	2.94
259.198	2.83
259.573	2.77
259.948	2.86
260.322	2.79
260.697	2.73
261.072	2.63
261.446	2.58
261.821	2.54
262.195	2.76
262.57	2.73
262.944	2.99
263.319	2.97
263.693	3
264.067	2.89
264.442	2.92
264.816	2.81
265.19	2.8
265.564	2.75
265.938	2.53
266.313	2.71
266.687	2.72
267.061	2.69
267.435	2.81
267.809	2.66
268.183	2.77
268.556	2.81
268.93	2.97
269.304	2.9
269.678	3.05
270.051	2.72
270.425	2.79
270.799	2.83
271.172	2.84
271.546	3.01
271.919	2.98
272.293	3.01
272.666	2.99
273.04	3.06
273.413	3
273.787	2.99
274.16	2.91
274.533	2.98
274.906	2.96
275.279	2.87
275.653	3.12
276.026	3.04
276.399	3.13
276.772	3.21
277.145	3.26
277.518	3.14
277.891	3.31
278.263	3.26
278.636	3.33
279.009	3.29
279.382	3.33
279.755	3.35
280.127	3.39
280.5	3.34
280.872	3.29
281.245	3.32
281.617	3.39
281.99	3.54
282.362	3.56
282.735	3.55
283.107	3.66
283.479	3.63
283.852	3.6
284.224	3.61
284.596	3.62
284.968	3.47
285.34	3.52
285.713	3.4
286.085	3.43
286.457	3.53
286.829	3.54
287.201	3.61
287.572	3.51
287.944	3.48
288.316	3.51
288.688	3.46
289.06	3.41
289.431	3.46
289.803	3.37
290.175	3.27
290.546	3.41
290.918	3.47
291.289	3.45
291.661	3.57
292.032	3.51
292.403	3.43
292.775	3.6
293.146	3.59
293.517	3.68
293.889	3.71
294.26	3.63
294.631	3.62
295.002	3.51
295.373	3.5
295.744	3.57
296.115	3.58
296.486	3.46
296.857	3.5
297.228	3.6
297.599	3.67
297.97	3.64
298.34	3.63
298.711	3.64
299.082	3.62
299.452	3.67
299.823	3.79
300.194	3.82
300.564	3.75
300.935	3.72
301.305	3.71
301.676	3.74
302.046	3.69
302.416	3.78
302.787	3.78
303.157	3.86
303.527	3.82
303.897	3.89
304.267	4.12
304.637	4.25
305.008	4.17
305.378	4.25
305.748	4.41
306.117	4.38
306.487	4.34
306.857	4.27
307.227	4.29
307.597	4.21
307.967	4.22
308.336	4.27
308.706	4.44
309.076	4.56
309.445	4.45
309.815	4.51
310.184	4.49
310.554	4.59
310.923	4.63
311.293	4.59
311.662	4.61
312.031	4.59
312.401	4.52
312.77	4.55
313.139	4.55
313.508	4.53
313.877	4.52
314.246	4.54
314.616	4.59
314.985	4.59
315.353	4.57
315.722	4.6
316.091	4.66
316.46	4.56
316.829	4.59
317.198	4.79
317.567	4.78
317.935	4.72
318.304	4.6
318.672	4.74
319.041	4.91
319.41	4.81
319.778	4.89
320.147	5.02
320.515	5.02
320.883	4.97
321.252	5.1
321.62	5.1
321.988	5.19
322.357	5.36
322.725	5.25
323.093	5.17
323.461	5.2
323.829	5.31
324.197	5.4
324.565	5.39
324.933	5.36
325.301	5.33
325.669	5.41
326.037	5.48
326.405	5.46
326.772	5.43
327.14	5.58
327.508	5.54
327.875	5.44
328.243	5.53
328.61	5.44
328.978	5.4
329.346	5.54
329.713	5.49
330.08	5.44
330.448	5.38
330.815	5.48
331.182	5.52
331.55	5.26
331.917	5.19
332.284	5.13
332.651	5.08
333.018	5.21
333.385	5.31
333.752	5.41
334.119	5.47
334.486	5.47
334.853	5.59
335.22	5.59
335.587	5.64
335.954	5.52
336.32	5.55
336.687	5.56
337.054	5.48
337.42	5.5
337.787	5.56
338.153	5.74
338.52	5.82
338.886	5.83
339.253	5.99
339.619	6.17
339.986	6.32
340.352	6.45
340.718	6.43
341.084	6.39
341.451	6.38
341.817	6.4
342.183	6.39
342.549	6.27
342.915	6.42
343.281	6.44
343.647	6.44
344.013	6.61
344.379	6.58
344.745	6.7
345.11	6.72
345.476	6.69
345.842	6.72
346.208	6.74
346.573	6.79
346.939	6.85
347.304	6.78
347.67	6.7
348.035	6.66
348.401	6.62
348.766	6.68
349.132	6.71
349.497	6.61
349.862	6.7
350.228	6.75
350.593	6.64
350.958	6.72
351.323	6.82
351.688	6.79
352.053	6.91
352.418	6.88
352.783	6.93
353.148	6.88
353.513	6.78
353.878	6.73
354.243	6.75
354.608	6.74
354.972	6.8
355.337	6.88
355.702	6.94
356.066	6.97
356.431	6.96
356.795	6.88
357.16	6.92
357.524	6.81
357.889	6.73
358.253	6.79
358.618	6.83
358.982	6.76
359.346	6.73
359.71	6.62
360.075	6.59
360.439	6.62
360.803	6.66
361.167	6.65
361.531	6.7
361.895	6.69
362.259	6.68
362.623	6.63
362.987	6.61
363.351	6.5
363.714	6.53
364.078	6.48
364.442	6.47
364.806	6.44
365.169	6.46
365.533	6.52
365.896	6.47
366.26	6.4
366.623	6.47
366.987	6.47
367.35	6.51
367.714	6.42
368.077	6.31
368.44	6.29
368.803	6.28
369.167	6.17
369.53	6.09
369.893	6.04
370.256	6.01
370.619	5.95
370.982	5.97
371.345	5.89
371.708	5.85
372.071	5.86
372.434	5.84
372.797	5.84
373.159	5.72
373.522	5.72
373.885	5.74
374.247	5.65
374.61	5.67
374.973	5.62
375.335	5.61
375.698	5.63
376.06	5.58
376.423	5.59
376.785	5.65
377.147	5.67
377.51	5.61
377.872	5.57
378.234	5.51
378.596	5.46
378.958	5.42
379.321	5.42
379.683	5.42
380.045	5.41
380.407	5.39
380.769	5.43
381.13	5.36
381.492	5.26
381.854	5.19
382.216	5.12
382.578	5.1
382.939	5.07
383.301	5.02
383.663	5
384.024	4.95
384.386	4.93
384.747	4.89
385.109	4.95
385.47	4.96
385.832	4.95
386.193	4.99
386.554	4.99
386.916	4.95
387.277	4.88
387.638	4.86
387.999	4.83
388.36	4.77
388.721	4.79
389.082	4.78
389.443	4.79
389.804	4.75
390.165	4.71
390.526	4.69
390.887	4.64
391.248	4.62
391.609	4.6
391.969	4.53
392.33	4.46
392.691	4.41
393.051	4.35
393.412	4.37
393.772	4.25
394.133	4.24
394.493	4.24
394.854	4.24
395.214	4.19
395.574	4.15
395.935	4.13
396.295	4.05
396.655	4.02
397.015	3.98
397.376	3.95
397.736	3.94
398.096	3.92
398.456	3.93
398.816	3.92
399.176	3.89
399.535	3.85
399.895	3.85
400.255	3.82
400.615	3.79
400.975	3.75
401.334	3.79
401.694	3.73
402.054	3.7
402.413	3.69
402.773	3.68
403.132	3.64
403.492	3.63
403.851	3.66
404.211	3.67
404.57	3.67
404.929	3.64
405.288	3.63
405.648	3.59
406.007	3.56
406.366	3.5
406.725	3.5
407.084	3.54
407.443	3.52
407.802	3.54
408.161	3.54
408.52	3.5
408.879	3.49
409.238	3.51
409.596	3.5
409.955	3.49
410.314	3.48
410.673	3.48
411.031	3.47
411.39	3.46
411.748	3.44
412.107	3.41
412.465	3.41
412.824	3.39
413.182	3.41
413.54	3.41
413.899	3.44
414.257	3.43
414.615	3.39
414.974	3.4
415.332	3.36
415.69	3.34
416.048	3.3
416.406	3.27
416.764	3.24
417.122	3.23
417.48	3.19
417.838	3.2
418.195	3.19
418.553	3.17
418.911	3.15
419.269	3.15
419.626	3.15
419.984	3.14
420.342	3.13
420.699	3.12
421.057	3.12
421.414	3.1
421.772	3.08
422.129	3.08
422.486	3.05
422.844	3.05
423.201	3.05
423.558	3.06
423.915	3.07
424.273	3.06
424.63	3.05
424.987	3.05
425.344	3.04
425.701	3.03
426.058	3.03
426.415	3.04
426.772	3.03
427.128	3.02
427.485	3.01
427.842	3.01
428.199	3.01
428.555	3
428.912	3
429.269	2.99
429.625	2.98
429.982	2.98
430.338	2.98
430.695	2.98
431.051	2.98
431.407	2.96
431.764	2.95
432.12	2.94
432.476	2.93
432.832	2.93
433.189	2.95
433.545	2.95
433.901	2.95
434.257	2.95
434.613	2.96
434.969	2.96
435.325	2.98
435.681	2.97
436.036	2.95
436.392	2.96
436.748	2.97
437.104	2.96
437.459	2.97
437.815	2.97
438.171	2.97
438.526	2.95
438.882	2.96
439.237	2.97
439.593	2.98
439.948	2.98
440.304	2.97
440.659	2.97
441.014	2.96
441.369	2.94
441.725	2.93
442.08	2.9
442.435	2.9
442.79	2.88
443.145	2.87
443.5	2.87
443.855	2.86
444.21	2.84
444.565	2.85
444.92	2.86
445.275	2.83
445.629	2.83
445.984	2.84
446.339	2.83
446.693	2.81
447.048	2.79
447.403	2.8
447.757	2.79
448.112	2.77
448.466	2.77
448.82	2.78
449.175	2.79
449.529	2.8
449.883	2.78
450.238	2.78
450.592	2.79
450.946	2.78
451.3	2.77
451.654	2.78
452.008	2.76
452.362	2.74
452.716	2.77
453.07	2.76
453.424	2.76
453.778	2.77
454.132	2.76
454.486	2.75
454.839	2.74
455.193	2.74
455.547	2.74
455.9	2.75
456.254	2.76
456.607	2.76
456.961	2.76
457.314	2.76
457.668	2.77
458.021	2.76
458.375	2.76
458.728	2.75
459.081	2.76
459.434	2.75
459.787	2.75
460.141	2.74
460.494	2.76
460.847	2.75
461.2	2.74
461.553	2.76
461.906	2.79
462.259	2.81
462.611	2.82
462.964	2.84
463.317	2.84
463.67	2.83
464.022	2.84
464.375	2.84
464.728	2.85
465.08	2.86
465.433	2.86
465.785	2.85
466.138	2.9
466.49	2.92
466.843	2.96
467.195	2.96
467.547	2.98
467.899	2.97
468.252	2.97
468.604	2.98
468.956	2.98
469.308	2.98
469.66	2.97
470.012	2.98
470.364	2.98
470.716	2.98
471.068	2.98
471.42	2.97
471.772	2.98
472.123	2.98
472.475	2.99
472.827	2.99
473.178	3.02
473.53	2.98
473.882	2.95
474.233	2.95
474.585	2.93
474.936	2.91
475.288	2.91
475.639	2.93
475.99	2.94
476.342	2.95
476.693	2.94
477.044	2.96
477.395	2.96
477.746	2.95
478.097	2.94
478.448	2.95
478.8	2.95
479.15	2.93
479.501	2.93
479.852	2.93
480.203	2.92
480.554	2.92
480.905	2.92
481.255	2.92
481.606	2.91
481.957	2.92
482.307	2.93
482.658	2.92
483.009	2.92
483.359	2.92
483.709	2.92
484.06	2.92
484.41	2.92
484.761	2.93
485.111	2.93
485.461	2.93
485.811	2.93
486.162	2.93
486.512	2.94
486.862	2.95
487.212	2.96
487.562	2.96
487.912	2.97
488.262	2.98
488.612	2.99
488.961	3
489.311	3.01
489.661	3.01
490.011	3.02
490.36	3.04
490.71	3.05
491.06	3.05
491.409	3.07
491.759	3.07
492.108	3.07
492.458	3.07
492.807	3.08
493.157	3.1
493.506	3.12
493.855	3.12
494.204	3.12
494.554	3.14
494.903	3.15
495.252	3.16
495.601	3.17
495.95	3.17
496.299	3.19
496.648	3.2
496.997	3.23
497.346	3.27
497.695	3.28
498.043	3.3
498.392	3.32
498.741	3.32
499.09	3.34
499.438	3.37
499.787	3.4
500.135	3.43
500.484	3.45
500.832	3.47
501.181	3.5
501.529	3.53
501.878	3.56
502.226	3.61
502.574	3.63
502.923	3.67
503.271	3.7
503.619	3.75
503.967	3.77
504.315	3.8
504.663	3.83
505.011	3.86
505.359	3.89
505.707	3.94
506.055	3.97
506.403	4.01
506.751	4.02
507.098	4.06
507.446	4.11
507.794	4.15
508.141	4.18
508.489	4.23
508.837	4.29
509.184	4.34
509.531	4.38
509.879	4.44
510.226	4.51
510.574	4.55
510.921	4.58
511.268	4.66
511.616	4.7
511.963	4.74
512.31	4.78
512.657	4.86
513.004	4.91
513.351	5
513.698	5.05
514.045	5.14
514.392	5.18
514.739	5.24
515.086	5.31
515.432	5.38
515.779	5.43
516.126	5.49
516.473	5.56
516.819	5.62
517.166	5.66
517.512	5.71
517.859	5.77
518.205	5.84
518.552	5.89
518.898	5.95
519.245	6.01
519.591	6.07
519.937	6.13
520.283	6.21
520.629	6.27
520.976	6.33
521.322	6.41
521.668	6.53
522.014	6.63
522.36	6.72
522.706	6.82
523.052	6.93
523.398	7.04
523.743	7.17
524.089	7.3
524.435	7.43
524.781	7.55
525.126	7.67
525.472	7.75
525.817	7.86
526.163	7.93
526.509	8.03
526.854	8.1
527.199	8.18
527.545	8.28
527.89	8.36
528.235	8.46
528.581	8.56
528.926	8.65
529.271	8.75
529.616	8.84
529.961	8.94
530.306	9.06
530.651	9.17
530.996	9.29
531.341	9.41
531.686	9.53
532.031	9.65
532.376	9.79
532.721	9.95
533.065	10.08
533.41	10.26
533.755	10.4
534.099	10.57
534.444	10.73
534.788	10.88
535.133	11.06
535.477	11.25
535.822	11.41
536.166	11.59
536.51	11.78
536.855	12.01
537.199	12.24
537.543	12.48
537.887	12.72
538.231	12.97
538.576	13.25
538.92	13.51
539.264	13.76
539.608	13.97
539.951	14.19
540.295	14.41
540.639	14.63
540.983	14.84
541.327	15.07
541.671	15.27
542.014	15.47
542.358	15.66
542.701	15.84
543.045	16.05
543.389	16.28
543.732	16.52
544.075	16.75
544.419	16.99
544.762	17.23
545.105	17.45
545.449	17.67
545.792	17.89
546.135	18.15
546.478	18.44
546.821	18.77
547.165	19.08
547.508	19.41
547.851	19.72
548.194	20.05
548.536	20.37
548.879	20.72
549.222	21.09
549.565	21.44
549.908	21.8
550.25	22.17
550.593	22.5
550.936	22.79
551.278	23.11
551.621	23.45
551.963	23.77
552.306	24.13
552.648	24.5
552.991	24.91
553.333	25.25
553.675	25.57
554.017	25.88
554.36	26.21
554.702	26.53
555.044	26.86
555.386	27.24
555.728	27.58
556.07	27.89
556.412	28.22
556.754	28.58
557.096	28.94
557.438	29.29
557.78	29.69
558.121	30.07
558.463	30.48
558.805	30.76
559.147	31.11
559.488	31.47
559.83	31.78
560.171	32.07
560.513	32.41
560.854	32.69
561.196	33.04
561.537	33.38
561.878	33.68
562.22	33.98
562.561	34.22
562.902	34.51
563.243	34.82
563.584	35.11
563.925	35.35
564.266	35.63
564.607	35.89
564.948	36.13
565.289	36.4
565.63	36.61
565.971	36.87
566.312	37.13
566.653	37.36
566.993	37.62
567.334	37.86
567.675	38.12
568.015	38.36
568.356	38.6
568.696	38.8
569.037	39.05
569.377	39.28
569.718	39.5
570.058	39.68
570.398	39.91
570.739	40.09
571.079	40.34
571.419	40.52
571.759	40.78
572.099	41.05
572.439	41.25
572.779	41.5
573.119	41.78
573.459	42.01
573.799	42.22
574.139	42.44
574.479	42.65
574.819	42.83
575.158	43.07
575.498	43.27
575.838	43.52
576.177	43.71
576.517	43.95
576.856	44.17
577.196	44.45
577.535	44.66
577.875	44.88
578.214	45.06
578.553	45.28
578.893	45.43
579.232	45.56
579.571	45.78
579.91	45.92
580.25	46.1
580.589	46.26
580.928	46.42
581.267	46.57
581.606	46.79
581.945	46.9
582.283	47.07
582.622	47.26
582.961	47.39
583.3	47.61
583.639	47.8
583.977	47.98
584.316	48.13
584.654	48.3
584.993	48.45
585.332	48.61
585.67	48.79
586.008	48.94
586.347	49.04
586.685	49.17
587.024	49.31
587.362	49.44
587.7	49.59
588.038	49.81
588.376	49.95
588.715	50.06
589.053	50.28
589.391	50.4
589.729	50.53
590.067	50.65
590.404	50.71
590.742	50.77
591.08	50.89
591.418	50.97
591.756	51.03
592.093	51.23
592.431	51.43
592.769	51.52
593.106	51.69
593.444	51.85
593.781	51.97
594.119	52.06
594.456	52.16
594.793	52.25
595.131	52.27
595.468	52.35
595.805	52.43
596.143	52.48
596.48	52.6
596.817	52.66
597.154	52.72
597.491	52.81
597.828	52.9
598.165	52.92
598.502	53.01
598.839	53.13
599.176	53.18
599.512	53.24
599.849	53.36
600.186	53.36
600.523	53.47
600.859	53.55
601.196	53.76
601.532	53.84
601.869	53.9
602.205	54.06
602.542	54.1
602.878	54.18
603.215	54.31
603.551	54.34
603.887	54.44
604.223	54.49
604.56	54.55
604.896	54.6
605.232	54.71
605.568	54.79
605.904	54.88
606.24	54.95
606.576	54.99
606.912	55.05
607.248	55.14
607.583	55.18
607.919	55.22
608.255	55.16
608.591	55.24
608.926	55.34
609.262	55.39
609.597	55.48
609.933	55.54
610.268	55.54
610.604	55.62
610.939	55.61
611.275	55.75
611.61	55.84
611.945	55.91
612.281	55.97
612.616	56.02
612.951	56
613.286	55.97
613.621	56
613.956	56.05
614.291	56.17
614.626	56.22
614.961	56.32
615.296	56.44
615.631	56.53
615.966	56.53
616.3	56.47
616.635	56.54
616.97	56.54
617.304	56.65
617.639	56.73
617.973	56.81
618.308	56.78
618.642	56.77
618.977	56.73
619.311	56.78
619.646	56.91
619.98	56.96
620.314	57.08
620.648	57.14
620.983	57.24
621.317	57.16
621.651	57.21
621.985	57.33
622.319	57.4
622.653	57.45
622.987	57.46
623.321	57.56
623.655	57.63
623.988	57.77
624.322	57.88
624.656	57.95
624.99	57.99
625.323	58.01
625.657	58
625.99	58.1
626.324	58.07
626.657	58.06
626.991	58.12
627.324	58.13
627.658	58.19
627.991	58.22
628.324	58.23
628.657	58.32
628.991	58.35
629.324	58.35
629.657	58.38
629.99	58.48
630.323	58.51
630.656	58.45
630.989	58.4
631.322	58.37
631.655	58.3
631.987	58.29
632.32	58.44
632.653	58.59
632.986	58.75
633.318	58.88
633.651	58.93
633.984	59
634.316	59.09
634.649	59.09
634.981	59.14
635.313	59.32
635.646	59.35
635.978	59.38
636.31	59.48
636.643	59.48
636.975	59.5
637.307	59.55
637.639	59.56
637.971	59.6
638.303	59.59
638.635	59.56
638.967	59.68
639.299	59.61
639.631	59.54
639.963	59.35
640.295	59.26
640.626	59.4
640.958	59.5
641.29	59.37
641.621	59.5
641.953	59.44
642.285	59.38
642.616	59.44
642.948	59.41
643.279	59.36
643.61	59.36
643.942	59.33
644.273	59.39
644.604	59.52
644.936	59.59
645.267	59.56
645.598	59.78
645.929	59.78
646.26	59.91
646.591	59.94
646.922	60.02
647.253	60.13
647.584	59.97
647.915	59.86
648.245	60.06
648.576	60.05
648.907	60.17
649.238	60.18
649.568	60.24
649.899	60.16
650.229	60.23
650.56	60.29
650.89	60.41
651.221	60.47
651.551	60.46
651.882	60.46
652.212	60.53
652.542	60.45
652.872	60.44
653.203	60.4
653.533	60.41
653.863	60.48
654.193	60.51
654.523	60.65
654.853	60.7
655.183	60.69
655.513	60.71
655.843	60.62
656.172	60.8
656.502	60.79
656.832	60.97
657.162	61
657.491	61.07
657.821	61.01
658.15	60.98
658.48	61
658.809	61.18
659.139	61.16
659.468	61.25
659.798	61.25
660.127	61.16
660.456	61.29
660.785	61.28
661.115	61.29
661.444	61.31
661.773	61.36
662.102	61.38
662.431	61.39
662.76	61.47
663.089	61.29
663.418	61.23
663.747	61.2
664.076	61.06
664.404	60.99
664.733	61.07
665.062	61.14
665.39	61.26
665.719	61.05
666.048	61.06
666.376	61
666.705	60.93
667.033	61.02
667.362	60.9
667.69	61.03
668.018	61.1
668.347	61.14
668.675	61.15
669.003	61.12
