Data from BA35141_Reflection_00012.txt Node
Date: Tue Nov 19 11:54:52 EST 2019
User: vgr7
Spectrometer: USB2G7710
Scans to average: 3
Trigger mode: 4
Integration Time (sec): 2.000000E-2
Electric dark correction enabled: true
Boxcar width: 10
XAxis mode: Wavelengths
Number of Pixels in Spectrum: 2048
>>>>>Begin Spectral Data<<<<<
177.721	-41.03
178.105	-191.67
178.488	-98.26
178.871	-54.39
179.254	28.99
179.636	-28.95
180.019	-168.12
180.402	500
180.785	12.61
181.168	-44.14
181.55	-17.16
181.933	49.14
182.316	-8.62
182.698	-8.64
183.081	25.46
183.463	124.17
183.846	63.46
184.228	76.48
184.611	179.2
184.993	263.49
185.376	180.34
185.758	209.61
186.14	205.8
186.522	499.22
186.904	-393.94
187.287	-251.85
187.669	-1026.67
188.051	834.23
188.433	308.81
188.815	153.38
189.197	1319.3
189.579	-1146.03
189.961	-361.75
190.342	-255.46
190.724	-298.35
191.106	-1461.73
191.488	-321.15
191.869	-187.88
192.251	-106.54
192.633	-49.44
193.014	-29.05
193.396	-44.79
193.777	-41.92
194.159	-64.48
194.54	-81.22
194.922	-94.63
195.303	-80.83
195.684	-66.67
196.065	-51.78
196.447	-49.62
196.828	-45.81
197.209	-46.07
197.59	-35.01
197.971	-31.91
198.352	-34.25
198.733	-19.88
199.114	-20.13
199.495	-30.22
199.876	-38.74
200.257	-52.75
200.638	-65.27
201.018	-75.33
201.399	-79.57
201.78	-76.59
202.16	-62.45
202.541	-50.55
202.922	-28.4
203.302	-47.14
203.683	-56.91
204.063	-379.49
204.444	-138.83
204.824	-58.59
205.204	-65.14
205.585	-71.02
205.965	-34.22
206.345	-36.46
206.725	-35.26
207.106	-18.87
207.486	-10.79
207.866	-20.71
208.246	21.18
208.626	15.37
209.006	-1.12
209.386	10.18
209.766	-1.57
210.145	12.87
210.525	14.61
210.905	20.95
211.285	33.1
211.664	28.07
212.044	39.72
212.424	27.87
212.803	-0.57
213.183	2.87
213.562	-16.49
213.942	-24.02
214.321	-25.08
214.701	-60.34
215.08	-98.62
215.459	-90.68
215.838	-86.14
216.218	-190.35
216.597	-120.39
216.976	-94.35
217.355	-51.97
217.734	-65.57
218.113	-64.9
218.492	-65.14
218.871	-43.51
219.25	-48.57
219.629	-69.9
220.008	-57.91
220.387	-67.87
220.766	-55.54
221.144	-68.58
221.523	-85.96
221.902	-91.65
222.28	-55.26
222.659	-33.99
223.037	-15.84
223.416	-14.13
223.794	-8.38
224.173	-10.29
224.551	-13.6
224.929	-16.04
225.308	-16.08
225.686	-7.9
226.064	-13.43
226.442	-13.64
226.821	-25.34
227.199	-16.58
227.577	-7.91
227.955	-7.93
228.333	-5.78
228.711	-2.76
229.089	-3.53
229.467	1.02
229.845	2.25
230.222	-0.25
230.6	-2.72
230.978	-2.64
231.356	-0.47
231.733	0.04
232.111	-0.2
232.488	-0.08
232.866	2.88
233.243	0.96
233.621	-0.56
233.998	1.97
234.376	4.28
234.753	7.35
235.13	4.45
235.508	3.26
235.885	5.22
236.262	4.99
236.639	3.92
237.016	4.76
237.393	4.49
237.77	4.32
238.147	4.58
238.524	5.54
238.901	4.79
239.278	3.8
239.655	3.96
240.032	4.55
240.409	3.85
240.785	3.59
241.162	4.51
241.539	4.5
241.915	3.98
242.292	3.59
242.668	2.83
243.045	3.4
243.421	3.59
243.798	3.61
244.174	3.67
244.551	3.83
244.927	3.76
245.303	3.62
245.679	3.85
246.056	3.64
246.432	3.64
246.808	3.77
247.184	3.97
247.56	3.84
247.936	3.76
248.312	4.09
248.688	4
249.064	3.87
249.44	3.89
249.815	4.2
250.191	4.24
250.567	4.78
250.943	5.02
251.318	4.95
251.694	4.7
252.069	4.76
252.445	4.92
252.82	5.2
253.196	5.38
253.571	5.36
253.947	5.7
254.322	5.49
254.697	5.64
255.073	5.64
255.448	5.42
255.823	5.53
256.198	5.4
256.573	5.22
256.948	5.05
257.323	4.92
257.698	4.51
258.073	4.4
258.448	4.09
258.823	3.71
259.198	3.52
259.573	3.55
259.948	3.69
260.322	3.49
260.697	3.59
261.072	3.55
261.446	3.59
261.821	3.65
262.195	3.87
262.57	3.69
262.944	3.81
263.319	3.91
263.693	3.69
264.067	3.65
264.442	3.88
264.816	3.88
265.19	3.93
265.564	4.06
265.938	4.14
266.313	3.98
266.687	3.99
267.061	4.21
267.435	4.43
267.809	4.22
268.183	4.2
268.556	4.06
268.93	4.15
269.304	4.03
269.678	3.83
270.051	3.67
270.425	3.65
270.799	3.3
271.172	3.26
271.546	3.53
271.919	3.57
272.293	3.41
272.666	3.39
273.04	3.22
273.413	3.31
273.787	3.11
274.16	3.27
274.533	3.31
274.906	3.33
275.279	3
275.653	3.11
276.026	3.29
276.399	3.29
276.772	3.27
277.145	3.31
277.518	3.29
277.891	3.34
278.263	3.51
278.636	3.57
279.009	3.67
279.382	3.35
279.755	3.35
280.127	3.26
280.5	3.38
280.872	3.54
281.245	3.66
281.617	3.7
281.99	3.63
282.362	3.61
282.735	3.58
283.107	3.89
283.479	3.83
283.852	3.8
284.224	3.87
284.596	3.84
284.968	3.77
285.34	3.83
285.713	3.76
286.085	3.54
286.457	3.52
286.829	3.4
287.201	3.46
287.572	3.42
287.944	3.58
288.316	3.72
288.688	3.75
289.06	3.67
289.431	3.9
289.803	3.95
290.175	3.78
290.546	3.75
290.918	3.63
291.289	3.42
291.661	3.53
292.032	3.49
292.403	3.46
292.775	3.72
293.146	3.84
293.517	3.92
293.889	4
294.26	4.22
294.631	4.38
295.002	4.48
295.373	4.53
295.744	4.43
296.115	4.29
296.486	4.34
296.857	4.28
297.228	4.18
297.599	4.15
297.97	4.47
298.34	4.57
298.711	4.67
299.082	4.83
299.452	4.71
299.823	4.76
300.194	4.82
300.564	4.54
300.935	4.47
301.305	4.41
301.676	4.4
302.046	4.22
302.416	4.08
302.787	4.03
303.157	4.15
303.527	4.29
303.897	4.13
304.267	4.04
304.637	4
305.008	3.97
305.378	4.13
305.748	4.05
306.117	3.95
306.487	3.91
306.857	3.9
307.227	4.22
307.597	4.14
307.967	4.12
308.336	4.17
308.706	4.17
309.076	4.23
309.445	4.43
309.815	4.56
310.184	4.75
310.554	4.69
310.923	4.6
311.293	4.48
311.662	4.77
312.031	4.86
312.401	4.92
312.77	5.01
313.139	4.97
313.508	4.92
313.877	5
314.246	5.02
314.616	5.22
314.985	4.97
315.353	5.05
315.722	5.13
316.091	5.22
316.46	5.27
316.829	5.31
317.198	5.12
317.567	5.25
317.935	5.25
318.304	5.4
318.672	5.47
319.041	5.64
319.41	5.42
319.778	5.41
320.147	5.56
320.515	5.48
320.883	5.38
321.252	5.55
321.62	5.6
321.988	5.56
322.357	5.31
322.725	5.5
323.093	5.49
323.461	5.52
323.829	5.57
324.197	5.63
324.565	5.65
324.933	5.81
325.301	5.6
325.669	5.54
326.037	5.61
326.405	5.53
326.772	5.46
327.14	5.59
327.508	5.55
327.875	5.49
328.243	5.56
328.61	5.54
328.978	5.47
329.346	5.43
329.713	5.56
330.08	5.76
330.448	5.67
330.815	5.64
331.182	5.74
331.55	5.76
331.917	5.83
332.284	5.86
332.651	5.89
333.018	5.91
333.385	6.15
333.752	6.12
334.119	6.28
334.486	6.42
334.853	6.35
335.22	6.33
335.587	6.38
335.954	6.51
336.32	6.56
336.687	6.64
337.054	6.63
337.42	6.64
337.787	6.68
338.153	6.68
338.52	6.73
338.886	6.72
339.253	6.58
339.619	6.54
339.986	6.63
340.352	6.63
340.718	6.72
341.084	6.72
341.451	6.77
341.817	6.68
342.183	6.57
342.549	6.66
342.915	6.72
343.281	6.8
343.647	6.85
344.013	7.05
344.379	6.94
344.745	7.1
345.11	7.06
345.476	7.03
345.842	7.05
346.208	7.08
346.573	7.03
346.939	7.27
347.304	7.35
347.67	7.22
348.035	7.19
348.401	7.2
348.766	7.05
349.132	7.06
349.497	7.14
349.862	7.22
350.228	7.2
350.593	7.21
350.958	7.19
351.323	7.19
351.688	7.17
352.053	7.32
352.418	7.28
352.783	7.31
353.148	7.31
353.513	7.28
353.878	7.3
354.243	7.2
354.608	7.17
354.972	7.17
355.337	7.21
355.702	7.18
356.066	7.19
356.431	7.21
356.795	7.23
357.16	7.13
357.524	7.15
357.889	7.16
358.253	7.16
358.618	7.08
358.982	6.98
359.346	6.88
359.71	6.76
360.075	6.78
360.439	6.74
360.803	6.79
361.167	6.77
361.531	6.79
361.895	6.89
362.259	6.91
362.623	6.91
362.987	6.9
363.351	6.93
363.714	6.98
364.078	6.95
364.442	6.91
364.806	6.97
365.169	6.95
365.533	6.95
365.896	6.94
366.26	6.93
366.623	6.98
366.987	6.97
367.35	7.08
367.714	7.01
368.077	7
368.44	7
368.803	6.94
369.167	6.81
369.53	6.73
369.893	6.66
370.256	6.6
370.619	6.55
370.982	6.4
371.345	6.28
371.708	6.27
372.071	6.21
372.434	6.1
372.797	6.03
373.159	5.95
373.522	5.86
373.885	5.85
374.247	5.74
374.61	5.75
374.973	5.62
375.335	5.54
375.698	5.53
376.06	5.47
376.423	5.53
376.785	5.51
377.147	5.52
377.51	5.44
377.872	5.35
378.234	5.36
378.596	5.43
378.958	5.39
379.321	5.34
379.683	5.33
380.045	5.32
380.407	5.26
380.769	5.19
381.13	5.17
381.492	5.14
381.854	5.18
382.216	5.14
382.578	5.14
382.939	5.14
383.301	5.12
383.663	5.09
384.024	5.03
384.386	5.03
384.747	4.96
385.109	4.95
385.47	4.95
385.832	4.88
386.193	4.81
386.554	4.71
386.916	4.71
387.277	4.68
387.638	4.7
387.999	4.71
388.36	4.69
388.721	4.72
389.082	4.71
389.443	4.69
389.804	4.67
390.165	4.64
390.526	4.64
390.887	4.62
391.248	4.58
391.609	4.58
391.969	4.56
392.33	4.52
392.691	4.47
393.051	4.49
393.412	4.47
393.772	4.44
394.133	4.48
394.493	4.45
394.854	4.44
395.214	4.4
395.574	4.32
395.935	4.34
396.295	4.31
396.655	4.28
397.015	4.25
397.376	4.23
397.736	4.2
398.096	4.17
398.456	4.1
398.816	4.05
399.176	3.96
399.535	3.91
399.895	3.9
400.255	3.89
400.615	3.84
400.975	3.83
401.334	3.87
401.694	3.88
402.054	3.84
402.413	3.8
402.773	3.79
403.132	3.8
403.492	3.78
403.851	3.74
404.211	3.75
404.57	3.75
404.929	3.72
405.288	3.74
405.648	3.7
406.007	3.72
406.366	3.7
406.725	3.71
407.084	3.75
407.443	3.74
407.802	3.75
408.161	3.73
408.52	3.76
408.879	3.72
409.238	3.69
409.596	3.68
409.955	3.7
410.314	3.69
410.673	3.74
411.031	3.72
411.39	3.73
411.748	3.73
412.107	3.66
412.465	3.63
412.824	3.56
413.182	3.6
413.54	3.59
413.899	3.57
414.257	3.56
414.615	3.49
414.974	3.48
415.332	3.48
415.69	3.47
416.048	3.44
416.406	3.42
416.764	3.42
417.122	3.41
417.48	3.4
417.838	3.37
418.195	3.33
418.553	3.31
418.911	3.3
419.269	3.26
419.626	3.25
419.984	3.25
420.342	3.26
420.699	3.24
421.057	3.22
421.414	3.23
421.772	3.23
422.129	3.24
422.486	3.23
422.844	3.21
423.201	3.21
423.558	3.2
423.915	3.2
424.273	3.18
424.63	3.18
424.987	3.16
425.344	3.15
425.701	3.15
426.058	3.13
426.415	3.1
426.772	3.1
427.128	3.11
427.485	3.11
427.842	3.1
428.199	3.09
428.555	3.1
428.912	3.09
429.269	3.09
429.625	3.11
429.982	3.09
430.338	3.11
430.695	3.09
431.051	3.09
431.407	3.07
431.764	3.07
432.12	3.06
432.476	3.09
432.832	3.08
433.189	3.07
433.545	3.09
433.901	3.1
434.257	3.13
434.613	3.11
434.969	3.09
435.325	3.09
435.681	3.08
436.036	3.06
436.392	3.07
436.748	3.06
437.104	3.05
437.459	3.05
437.815	3.04
438.171	3.04
438.526	3.03
438.882	3.04
439.237	3.05
439.593	3.05
439.948	3.03
440.304	3.02
440.659	3.02
441.014	3.02
441.369	3.01
441.725	2.99
442.08	3.01
442.435	3.02
442.79	3.01
443.145	3.01
443.5	3.01
443.855	2.99
444.21	2.99
444.565	2.98
444.92	3.01
445.275	2.99
445.629	2.98
445.984	2.98
446.339	2.98
446.693	2.95
447.048	2.92
447.403	2.93
447.757	2.91
448.112	2.92
448.466	2.93
448.82	2.92
449.175	2.92
449.529	2.9
449.883	2.88
450.238	2.89
450.592	2.89
450.946	2.86
451.3	2.85
451.654	2.84
452.008	2.82
452.362	2.79
452.716	2.79
453.07	2.79
453.424	2.79
453.778	2.8
454.132	2.81
454.486	2.84
454.839	2.83
455.193	2.87
455.547	2.86
455.9	2.87
456.254	2.86
456.607	2.86
456.961	2.88
457.314	2.88
457.668	2.89
458.021	2.88
458.375	2.92
458.728	2.92
459.081	2.94
459.434	2.93
459.787	2.93
460.141	2.92
460.494	2.93
460.847	2.93
461.2	2.91
461.553	2.92
461.906	2.93
462.259	2.93
462.611	2.92
462.964	2.93
463.317	2.92
463.67	2.94
464.022	2.94
464.375	2.95
464.728	2.96
465.08	2.95
465.433	2.99
465.785	2.99
466.138	3.01
466.49	3
466.843	3
467.195	3.04
467.547	3.06
467.899	3.09
468.252	3.08
468.604	3.1
468.956	3.11
469.308	3.12
469.66	3.12
470.012	3.12
470.364	3.11
470.716	3.14
471.068	3.13
471.42	3.14
471.772	3.14
472.123	3.14
472.475	3.18
472.827	3.17
473.178	3.16
473.53	3.16
473.882	3.17
474.233	3.17
474.585	3.16
474.936	3.13
475.288	3.1
475.639	3.11
475.99	3.12
476.342	3.11
476.693	3.08
477.044	3.07
477.395	3.1
477.746	3.07
478.097	3.05
478.448	3.05
478.8	3.05
479.15	3.04
479.501	3.01
479.852	2.99
480.203	2.97
480.554	2.97
480.905	2.97
481.255	2.97
481.606	2.99
481.957	3
482.307	3.01
482.658	3.03
483.009	3.03
483.359	3.02
483.709	3.04
484.06	3.05
484.41	3.06
484.761	3.05
485.111	3.06
485.461	3.07
485.811	3.08
486.162	3.07
486.512	3.08
486.862	3.1
487.212	3.11
487.562	3.11
487.912	3.12
488.262	3.13
488.612	3.14
488.961	3.14
489.311	3.15
489.661	3.16
490.011	3.17
490.36	3.18
490.71	3.2
491.06	3.2
491.409	3.22
491.759	3.23
492.108	3.23
492.458	3.25
492.807	3.26
493.157	3.27
493.506	3.29
493.855	3.31
494.204	3.32
494.554	3.32
494.903	3.35
495.252	3.37
495.601	3.39
495.95	3.42
496.299	3.43
496.648	3.44
496.997	3.47
497.346	3.49
497.695	3.52
498.043	3.55
498.392	3.56
498.741	3.57
499.09	3.61
499.438	3.65
499.787	3.68
500.135	3.72
500.484	3.75
500.832	3.8
501.181	3.82
501.529	3.88
501.878	3.93
502.226	4
502.574	4.03
502.923	4.09
503.271	4.11
503.619	4.16
503.967	4.2
504.315	4.25
504.663	4.26
505.011	4.31
505.359	4.34
505.707	4.4
506.055	4.46
506.403	4.48
506.751	4.53
507.098	4.57
507.446	4.61
507.794	4.66
508.141	4.7
508.489	4.73
508.837	4.76
509.184	4.81
509.531	4.84
509.879	4.9
510.226	4.91
510.574	4.98
510.921	5.01
511.268	5.08
511.616	5.14
511.963	5.22
512.31	5.25
512.657	5.33
513.004	5.36
513.351	5.41
513.698	5.47
514.045	5.53
514.392	5.61
514.739	5.67
515.086	5.76
515.432	5.85
515.779	5.96
516.126	6.05
516.473	6.12
516.819	6.17
517.166	6.25
517.512	6.35
517.859	6.45
518.205	6.51
518.552	6.59
518.898	6.63
519.245	6.72
519.591	6.81
519.937	6.88
520.283	6.98
520.629	7.08
520.976	7.18
521.322	7.28
521.668	7.4
522.014	7.52
522.36	7.6
522.706	7.71
523.052	7.85
523.398	7.99
523.743	8.15
524.089	8.35
524.435	8.49
524.781	8.64
525.126	8.77
525.472	8.91
525.817	9.01
526.163	9.15
526.509	9.25
526.854	9.37
527.199	9.49
527.545	9.58
527.89	9.68
528.235	9.79
528.581	9.93
528.926	10.05
529.271	10.16
529.616	10.3
529.961	10.4
530.306	10.52
530.651	10.64
530.996	10.77
531.341	10.89
531.686	11.03
532.031	11.17
532.376	11.33
532.721	11.49
533.065	11.68
533.41	11.84
533.755	11.99
534.099	12.15
534.444	12.35
534.788	12.54
535.133	12.73
535.477	12.93
535.822	13.11
536.166	13.33
536.51	13.58
536.855	13.83
537.199	14.11
537.543	14.37
537.887	14.65
538.231	14.92
538.576	15.22
538.92	15.51
539.264	15.76
539.608	15.99
539.951	16.24
540.295	16.47
540.639	16.7
540.983	16.95
541.327	17.17
541.671	17.35
542.014	17.59
542.358	17.79
542.701	17.99
543.045	18.18
543.389	18.37
543.732	18.57
544.075	18.77
544.419	18.98
544.762	19.2
545.105	19.47
545.449	19.69
545.792	19.93
546.135	20.18
546.478	20.47
546.821	20.79
547.165	21.08
547.508	21.37
547.851	21.65
548.194	21.94
548.536	22.26
548.879	22.6
549.222	22.85
549.565	23.15
549.908	23.47
550.25	23.77
550.593	24.08
550.936	24.37
551.278	24.7
551.621	24.97
551.963	25.29
552.306	25.57
552.648	25.92
552.991	26.19
553.333	26.48
553.675	26.73
554.017	26.89
554.36	27.14
554.702	27.41
555.044	27.68
555.386	27.98
555.728	28.21
556.07	28.46
556.412	28.76
556.754	29.04
557.096	29.28
557.438	29.56
557.78	29.82
558.121	30.08
558.463	30.32
558.805	30.67
559.147	30.91
559.488	31.13
559.83	31.44
560.171	31.7
560.513	31.94
560.854	32.23
561.196	32.56
561.537	32.84
561.878	33.1
562.22	33.31
562.561	33.53
562.902	33.79
563.243	34.04
563.584	34.26
563.925	34.5
564.266	34.69
564.607	34.91
564.948	35.14
565.289	35.35
565.63	35.55
565.971	35.72
566.312	35.88
566.653	36.07
566.993	36.21
567.334	36.43
567.675	36.65
568.015	36.85
568.356	37.03
568.696	37.23
569.037	37.33
569.377	37.57
569.718	37.75
570.058	37.95
570.398	38.12
570.739	38.29
571.079	38.46
571.419	38.65
571.759	38.79
572.099	38.98
572.439	39.14
572.779	39.34
573.119	39.52
573.459	39.73
573.799	39.9
574.139	40.02
574.479	40.13
574.819	40.26
575.158	40.34
575.498	40.49
575.838	40.61
576.177	40.84
576.517	40.97
576.856	41.15
577.196	41.25
577.535	41.39
577.875	41.57
578.214	41.68
578.553	41.9
578.893	42.08
579.232	42.18
579.571	42.33
579.91	42.42
580.25	42.52
580.589	42.63
580.928	42.7
581.267	42.85
581.606	43.04
581.945	43.2
582.283	43.38
582.622	43.43
582.961	43.57
583.3	43.65
583.639	43.78
583.977	43.8
584.316	43.95
584.654	44.06
584.993	44.19
585.332	44.34
585.67	44.34
586.008	44.44
586.347	44.59
586.685	44.67
587.024	44.76
587.362	44.88
587.7	44.98
588.038	45.1
588.376	45.23
588.715	45.25
589.053	45.28
589.391	45.34
589.729	45.53
590.067	45.61
590.404	45.69
590.742	45.7
591.08	45.81
591.418	45.95
591.756	46.05
592.093	46.06
592.431	46.14
592.769	46.3
593.106	46.4
593.444	46.39
593.781	46.49
594.119	46.57
594.456	46.62
594.793	46.63
595.131	46.71
595.468	46.77
595.805	46.79
596.143	46.87
596.48	46.97
596.817	46.94
597.154	47.02
597.491	47.09
597.828	47.22
598.165	47.31
598.502	47.29
598.839	47.31
599.176	47.43
599.512	47.48
599.849	47.45
600.186	47.46
600.523	47.62
600.859	47.69
601.196	47.85
601.532	47.89
601.869	47.98
602.205	48.08
602.542	48.14
602.878	48.27
603.215	48.31
603.551	48.36
603.887	48.47
604.223	48.49
604.56	48.52
604.896	48.56
605.232	48.63
605.568	48.61
605.904	48.72
606.24	48.72
606.576	48.77
606.912	48.93
607.248	48.99
607.583	48.99
607.919	49.05
608.255	49.02
608.591	49.08
608.926	49.14
609.262	49.13
609.597	49.21
609.933	49.28
610.268	49.29
610.604	49.26
610.939	49.29
611.275	49.31
611.61	49.3
611.945	49.3
612.281	49.35
612.616	49.44
612.951	49.47
613.286	49.56
613.621	49.68
613.956	49.67
614.291	49.75
614.626	49.77
614.961	49.78
615.296	49.89
615.631	49.91
615.966	49.98
616.3	50.01
616.635	50.07
616.97	50.05
617.304	50.1
617.639	50.1
617.973	50.1
618.308	50.16
618.642	50.18
618.977	50.23
619.311	50.17
619.646	50.23
619.98	50.21
620.314	50.15
620.648	50.04
620.983	50.05
621.317	50.13
621.651	50.17
621.985	50.21
622.319	50.14
622.653	50.21
622.987	50.17
623.321	50.19
623.655	50.22
623.988	50.3
624.322	50.39
624.656	50.53
624.99	50.54
625.323	50.55
625.657	50.65
625.99	50.73
626.324	50.8
626.657	50.86
626.991	50.82
627.324	50.8
627.658	50.76
627.991	50.93
628.324	50.85
628.657	50.9
628.991	50.95
629.324	51.02
629.657	51.01
629.99	51.15
630.323	51.24
630.656	51.2
630.989	51.21
631.322	51.21
631.655	51.22
631.987	51.28
632.32	51.37
632.653	51.42
632.986	51.39
633.318	51.39
633.651	51.32
633.984	51.4
634.316	51.6
634.649	51.8
634.981	51.65
635.313	51.74
635.646	51.81
635.978	51.79
636.31	51.78
636.643	51.79
636.975	51.7
637.307	51.72
637.639	51.81
637.971	51.72
638.303	51.62
638.635	51.62
638.967	51.62
639.299	51.63
639.631	51.62
639.963	51.68
640.295	51.71
640.626	51.88
640.958	51.94
641.29	51.97
641.621	51.83
641.953	51.76
642.285	51.79
642.616	51.68
642.948	51.67
643.279	51.85
643.61	51.86
643.942	52.07
644.273	52.03
644.604	52.01
644.936	52.02
645.267	52.2
645.598	52.21
645.929	52.17
646.26	52.1
646.591	52.09
646.922	52.08
647.253	52.01
647.584	51.96
647.915	51.92
648.245	51.91
648.576	51.99
648.907	52.13
649.238	52.18
649.568	52.27
649.899	52.29
650.229	52.32
650.56	52.33
650.89	52.11
651.221	52.12
651.551	52.08
651.882	52.13
652.212	52.08
652.542	52.12
652.872	52.17
653.203	52.29
653.533	52.28
653.863	52.22
654.193	52.35
654.523	52.34
654.853	52.42
655.183	52.29
655.513	52.28
655.843	52.35
656.172	52.32
656.502	52.35
656.832	52.42
657.162	52.32
657.491	52.3
657.821	52.39
658.15	52.37
658.48	52.39
658.809	52.51
659.139	52.49
659.468	52.49
659.798	52.5
660.127	52.42
660.456	52.48
660.785	52.59
661.115	52.54
661.444	52.51
661.773	52.52
662.102	52.7
662.431	52.75
662.76	52.75
663.089	52.86
663.418	52.87
663.747	52.86
664.076	52.86
664.404	52.99
664.733	53.2
665.062	53.27
665.39	53.37
665.719	53.27
666.048	53.31
666.376	53.29
666.705	53.43
667.033	53.38
667.362	53.38
