Data from BA35141_Reflection_00005.txt Node
Date: Tue Nov 19 11:54:37 EST 2019
User: vgr7
Spectrometer: USB2G7710
Scans to average: 3
Trigger mode: 4
Integration Time (sec): 2.000000E-2
Electric dark correction enabled: true
Boxcar width: 10
XAxis mode: Wavelengths
Number of Pixels in Spectrum: 2048
>>>>>Begin Spectral Data<<<<<
177.721	-6.23
178.105	-233.33
178.488	-21.64
178.871	9.65
179.254	71.01
179.636	42.82
180.019	-51.14
180.402	1350
180.785	98.2
181.168	-49.77
181.55	14.19
181.933	31.14
182.316	7.13
182.698	52.77
183.081	51.42
183.463	117.81
183.846	149.91
184.228	77.51
184.611	66.9
184.993	46.03
185.376	44.84
185.758	157.06
186.14	268.12
186.522	689.15
186.904	-451.52
187.287	-349.74
187.669	-1273.33
188.051	1081.98
188.433	575.1
188.815	442.05
189.197	3854.39
189.579	-2773.02
189.961	-971.04
190.342	-575.52
190.724	-483.92
191.106	-2393.83
191.488	-710.04
191.869	-377.86
192.251	-303.51
192.633	-192.81
193.014	-179.09
193.396	-181.71
193.777	-160.63
194.159	-150.18
194.54	-137.7
194.922	-172.26
195.303	-144.84
195.684	-127.15
196.065	-111.55
196.447	-100.99
196.828	-72.84
197.209	-66.05
197.59	-78.59
197.971	-71.61
198.352	-83.09
198.733	-99.89
199.114	-99.29
199.495	-109.72
199.876	-133.76
200.257	-140.17
200.638	-159.57
201.018	-184.48
201.399	-163.41
201.78	-183.71
202.16	-166.67
202.541	-183.29
202.922	-134.73
203.302	-215.2
203.683	-194.31
204.063	-612.82
204.444	-377.66
204.824	-217.17
205.204	-138.96
205.585	-209.37
205.965	-336.58
206.345	-140.56
206.725	-65.6
207.106	-53.6
207.486	-41.59
207.866	-24.49
208.246	-5.29
208.626	-27.12
209.006	-49.48
209.386	-47.93
209.766	-39.61
210.145	-33.04
210.525	-43.38
210.905	-58.11
211.285	-48.06
211.664	-56.49
212.044	-43.78
212.424	-33.21
212.803	-77.68
213.183	-105.02
213.562	-74.91
213.942	-67.02
214.321	-61.87
214.701	-136.68
215.08	-185.41
215.459	-160.33
215.838	-217.3
216.218	-299.7
216.597	-179.61
216.976	-171.05
217.355	-140.59
217.734	-171.73
218.113	-155.53
218.492	-127.31
218.871	-111.23
219.25	-113.64
219.629	-157.47
220.008	-118.26
220.387	-106.01
220.766	-80.86
221.144	-68.9
221.523	-76.31
221.902	-78.17
222.28	-55.56
222.659	-32.5
223.037	-22.53
223.416	-6.4
223.794	-14.03
224.173	-15.37
224.551	-18.33
224.929	-16.18
225.308	-15.37
225.686	-11.88
226.064	-19.65
226.442	-17.71
226.821	-13.6
227.199	-11.05
227.577	-8
227.955	-8.52
228.333	-15.12
228.711	-14.15
229.089	-15.15
229.467	-16.34
229.845	-14.48
230.222	-8.81
230.6	-6.58
230.978	-3.34
231.356	-4.07
231.733	-0.01
232.111	-1.75
232.488	-3.01
232.866	0.15
233.243	1.17
233.621	-1.09
233.998	4.06
234.376	1.3
234.753	-1.29
235.13	-1.06
235.508	0.71
235.885	-0.65
236.262	-0.47
236.639	-0.84
237.016	0.31
237.393	0.87
237.77	1.5
238.147	-1.25
238.524	-1.48
238.901	-1.87
239.278	-2.01
239.655	-1.49
240.032	-1.05
240.409	-0.51
240.785	-1.19
241.162	-1
241.539	0.13
241.915	-0.24
242.292	1.42
242.668	2.16
243.045	2.48
243.421	2.65
243.798	3.22
244.174	4.02
244.551	4.15
244.927	3.96
245.303	3.77
245.679	3.84
246.056	4.22
246.432	4.12
246.808	4.41
247.184	4.38
247.56	4.22
247.936	4.57
248.312	4.75
248.688	5.09
249.064	5.27
249.44	5.39
249.815	5.58
250.191	5.37
250.567	5.12
250.943	5.15
251.318	4.95
251.694	4.98
252.069	5.01
252.445	5.31
252.82	5.85
253.196	6.29
253.571	6.75
253.947	7.06
254.322	6.91
254.697	6.7
255.073	6.63
255.448	6.8
255.823	6.72
256.198	6.49
256.573	6.44
256.948	6.28
257.323	5.98
257.698	6.12
258.073	6.14
258.448	6.37
258.823	6.14
259.198	6.22
259.573	6.02
259.948	5.86
260.322	5.66
260.697	5.53
261.072	5.37
261.446	5.2
261.821	4.85
262.195	5.1
262.57	5.2
262.944	5.32
263.319	5.35
263.693	5.15
264.067	5.23
264.442	5.12
264.816	5
265.19	5.31
265.564	5.17
265.938	4.98
266.313	4.68
266.687	4.58
267.061	4.56
267.435	4.86
267.809	4.62
268.183	4.72
268.556	4.65
268.93	4.75
269.304	4.58
269.678	4.86
270.051	4.87
270.425	4.91
270.799	4.67
271.172	4.86
271.546	5.05
271.919	4.95
272.293	5.1
272.666	5.07
273.04	4.82
273.413	4.78
273.787	4.7
274.16	4.83
274.533	5.06
274.906	4.95
275.279	4.76
275.653	4.99
276.026	5.01
276.399	4.87
276.772	4.9
277.145	5.09
277.518	4.75
277.891	4.8
278.263	4.73
278.636	4.8
279.009	4.5
279.382	4.39
279.755	4.28
280.127	4.2
280.5	4.23
280.872	4.27
281.245	4.19
281.617	4.27
281.99	4.18
282.362	4
282.735	4.11
283.107	4.24
283.479	4.19
283.852	4.13
284.224	4.19
284.596	4.12
284.968	4.04
285.34	4.22
285.713	4.28
286.085	4.1
286.457	4.18
286.829	4.24
287.201	4.24
287.572	4.23
287.944	4.18
288.316	4.19
288.688	4.14
289.06	4.13
289.431	4.27
289.803	4.38
290.175	4.4
290.546	4.38
290.918	4.32
291.289	4.2
291.661	4.21
292.032	4.3
292.403	4.33
292.775	4.33
293.146	4.41
293.517	4.16
293.889	4.22
294.26	4.03
294.631	4
295.002	4.03
295.373	4.14
295.744	4.31
296.115	4.33
296.486	4.38
296.857	4.41
297.228	4.38
297.599	4.23
297.97	4.2
298.34	4.23
298.711	4.31
299.082	4.42
299.452	4.35
299.823	4.26
300.194	4.35
300.564	4.24
300.935	4.2
301.305	4.3
301.676	4.46
302.046	4.68
302.416	4.75
302.787	4.64
303.157	4.63
303.527	4.47
303.897	4.38
304.267	4.39
304.637	4.44
305.008	4.5
305.378	4.68
305.748	4.76
306.117	4.65
306.487	4.7
306.857	4.79
307.227	4.98
307.597	5.01
307.967	4.81
308.336	4.92
308.706	4.71
309.076	4.66
309.445	4.63
309.815	4.51
310.184	4.48
310.554	4.38
310.923	4.24
311.293	4.24
311.662	4.37
312.031	4.39
312.401	4.34
312.77	4.24
313.139	4.32
313.508	4.43
313.877	4.46
314.246	4.32
314.616	4.19
314.985	4.09
315.353	4.05
315.722	4.16
316.091	4.12
316.46	4.29
316.829	4.17
317.198	4.11
317.567	4.42
317.935	4.36
318.304	4.59
318.672	4.71
319.041	4.69
319.41	4.62
319.778	4.52
320.147	4.53
320.515	4.44
320.883	4.26
321.252	4.22
321.62	4.32
321.988	4.24
322.357	4.32
322.725	4.24
323.093	4.28
323.461	4.07
323.829	4.17
324.197	4.14
324.565	4.21
324.933	4.04
325.301	3.81
325.669	3.73
326.037	3.87
326.405	3.76
326.772	3.76
327.14	3.79
327.508	3.74
327.875	3.78
328.243	3.83
328.61	3.85
328.978	3.67
329.346	3.56
329.713	3.63
330.08	3.52
330.448	3.75
330.815	3.75
331.182	3.81
331.55	3.84
331.917	3.77
332.284	3.8
332.651	3.9
333.018	3.97
333.385	4.1
333.752	3.95
334.119	4.04
334.486	4.1
334.853	3.98
335.22	3.9
335.587	3.92
335.954	3.9
336.32	3.9
336.687	4.09
337.054	4.16
337.42	4
337.787	3.88
338.153	3.75
338.52	3.69
338.886	3.86
339.253	3.76
339.619	3.95
339.986	3.87
340.352	3.95
340.718	3.9
341.084	3.87
341.451	4.03
341.817	4.04
342.183	3.96
342.549	4.05
342.915	4.18
343.281	4.19
343.647	4.3
344.013	4.34
344.379	4.24
344.745	4.23
345.11	4.41
345.476	4.62
345.842	4.5
346.208	4.6
346.573	4.6
346.939	4.49
347.304	4.38
347.67	4.4
348.035	4.26
348.401	4.33
348.766	4.19
349.132	3.93
349.497	3.99
349.862	3.97
350.228	3.94
350.593	3.95
350.958	3.92
351.323	3.85
351.688	3.81
352.053	3.79
352.418	3.84
352.783	3.81
353.148	3.79
353.513	3.89
353.878	3.82
354.243	3.73
354.608	3.84
354.972	3.85
355.337	3.92
355.702	3.96
356.066	3.79
356.431	3.89
356.795	3.98
357.16	3.94
357.524	4.1
357.889	4.09
358.253	4.09
358.618	4.09
358.982	4.06
359.346	4.06
359.71	4.09
360.075	4.11
360.439	4.16
360.803	4.13
361.167	4.06
361.531	4.16
361.895	4.15
362.259	4.21
362.623	4.2
362.987	4.24
363.351	4.17
363.714	4.26
364.078	4.29
364.442	4.31
364.806	4.43
365.169	4.34
365.533	4.39
365.896	4.38
366.26	4.38
366.623	4.41
366.987	4.52
367.35	4.51
367.714	4.46
368.077	4.41
368.44	4.44
368.803	4.41
369.167	4.27
369.53	4.29
369.893	4.23
370.256	4.18
370.619	4.15
370.982	4.16
371.345	4.2
371.708	4.17
372.071	4.13
372.434	4
372.797	3.97
373.159	3.93
373.522	3.98
373.885	4.02
374.247	4.03
374.61	3.96
374.973	4
375.335	3.98
375.698	3.96
376.06	3.88
376.423	3.98
376.785	4.02
377.147	3.99
377.51	3.97
377.872	4.03
378.234	4.11
378.596	4.17
378.958	4.14
379.321	4.13
379.683	4.15
380.045	4.18
380.407	4.22
380.769	4.2
381.13	4.16
381.492	4.15
381.854	4.17
382.216	4.2
382.578	4.2
382.939	4.22
383.301	4.24
383.663	4.27
384.024	4.24
384.386	4.22
384.747	4.23
385.109	4.28
385.47	4.21
385.832	4.14
386.193	4.14
386.554	4.12
386.916	4.18
387.277	4.19
387.638	4.15
387.999	4.15
388.36	4.15
388.721	4.14
389.082	4.17
389.443	4.12
389.804	4.09
390.165	4.03
390.526	4.03
390.887	4.01
391.248	4.02
391.609	4.08
391.969	4.1
392.33	4.07
392.691	4.03
393.051	4.04
393.412	4.09
393.772	4.1
394.133	4.13
394.493	4.08
394.854	4.1
395.214	4.14
395.574	4.14
395.935	4.15
396.295	4.16
396.655	4.15
397.015	4.17
397.376	4.17
397.736	4.21
398.096	4.18
398.456	4.2
398.816	4.19
399.176	4.14
399.535	4.15
399.895	4.2
400.255	4.22
400.615	4.21
400.975	4.16
401.334	4.17
401.694	4.2
402.054	4.19
402.413	4.18
402.773	4.18
403.132	4.19
403.492	4.2
403.851	4.21
404.211	4.2
404.57	4.18
404.929	4.18
405.288	4.19
405.648	4.23
406.007	4.22
406.366	4.18
406.725	4.2
407.084	4.16
407.443	4.14
407.802	4.15
408.161	4.2
408.52	4.23
408.879	4.23
409.238	4.2
409.596	4.22
409.955	4.2
410.314	4.19
410.673	4.16
411.031	4.14
411.39	4.13
411.748	4.14
412.107	4.13
412.465	4.14
412.824	4.09
413.182	4.09
413.54	4.09
413.899	4.13
414.257	4.11
414.615	4.12
414.974	4.17
415.332	4.16
415.69	4.11
416.048	4.13
416.406	4.13
416.764	4.15
417.122	4.11
417.48	4.13
417.838	4.14
418.195	4.15
418.553	4.16
418.911	4.15
419.269	4.13
419.626	4.15
419.984	4.16
420.342	4.21
420.699	4.21
421.057	4.22
421.414	4.23
421.772	4.23
422.129	4.24
422.486	4.23
422.844	4.23
423.201	4.26
423.558	4.25
423.915	4.25
424.273	4.24
424.63	4.27
424.987	4.28
425.344	4.27
425.701	4.28
426.058	4.27
426.415	4.29
426.772	4.3
427.128	4.29
427.485	4.29
427.842	4.25
428.199	4.26
428.555	4.25
428.912	4.24
429.269	4.25
429.625	4.25
429.982	4.25
430.338	4.27
430.695	4.23
431.051	4.24
431.407	4.23
431.764	4.23
432.12	4.22
432.476	4.18
432.832	4.21
433.189	4.21
433.545	4.22
433.901	4.22
434.257	4.22
434.613	4.22
434.969	4.21
435.325	4.24
435.681	4.23
436.036	4.23
436.392	4.23
436.748	4.26
437.104	4.25
437.459	4.25
437.815	4.24
438.171	4.25
438.526	4.23
438.882	4.24
439.237	4.25
439.593	4.24
439.948	4.25
440.304	4.24
440.659	4.24
441.014	4.23
441.369	4.23
441.725	4.23
442.08	4.23
442.435	4.23
442.79	4.23
443.145	4.23
443.5	4.23
443.855	4.23
444.21	4.21
444.565	4.22
444.92	4.21
445.275	4.21
445.629	4.2
445.984	4.2
446.339	4.19
446.693	4.17
447.048	4.15
447.403	4.15
447.757	4.13
448.112	4.14
448.466	4.14
448.82	4.15
449.175	4.15
449.529	4.15
449.883	4.17
450.238	4.15
450.592	4.14
450.946	4.13
451.3	4.14
451.654	4.12
452.008	4.1
452.362	4.1
452.716	4.12
453.07	4.11
453.424	4.1
453.778	4.12
454.132	4.14
454.486	4.17
454.839	4.19
455.193	4.2
455.547	4.19
455.9	4.19
456.254	4.2
456.607	4.18
456.961	4.19
457.314	4.17
457.668	4.18
458.021	4.16
458.375	4.15
458.728	4.13
459.081	4.13
459.434	4.15
459.787	4.15
460.141	4.14
460.494	4.17
460.847	4.18
461.2	4.17
461.553	4.18
461.906	4.17
462.259	4.16
462.611	4.16
462.964	4.18
463.317	4.18
463.67	4.17
464.022	4.18
464.375	4.16
464.728	4.18
465.08	4.17
465.433	4.2
465.785	4.23
466.138	4.24
466.49	4.24
466.843	4.25
467.195	4.27
467.547	4.27
467.899	4.25
468.252	4.27
468.604	4.27
468.956	4.27
469.308	4.25
469.66	4.24
470.012	4.24
470.364	4.23
470.716	4.24
471.068	4.25
471.42	4.25
471.772	4.26
472.123	4.23
472.475	4.26
472.827	4.24
473.178	4.23
473.53	4.22
473.882	4.23
474.233	4.24
474.585	4.22
474.936	4.23
475.288	4.23
475.639	4.22
475.99	4.21
476.342	4.2
476.693	4.23
477.044	4.24
477.395	4.24
477.746	4.24
478.097	4.24
478.448	4.23
478.8	4.23
479.15	4.23
479.501	4.23
479.852	4.24
480.203	4.25
480.554	4.27
480.905	4.27
481.255	4.27
481.606	4.27
481.957	4.28
482.307	4.27
482.658	4.28
483.009	4.28
483.359	4.29
483.709	4.3
484.06	4.3
484.41	4.31
484.761	4.32
485.111	4.33
485.461	4.33
485.811	4.33
486.162	4.33
486.512	4.32
486.862	4.33
487.212	4.32
487.562	4.32
487.912	4.31
488.262	4.32
488.612	4.32
488.961	4.32
489.311	4.31
489.661	4.33
490.011	4.32
490.36	4.3
490.71	4.31
491.06	4.3
491.409	4.31
491.759	4.29
492.108	4.29
492.458	4.27
492.807	4.26
493.157	4.26
493.506	4.26
493.855	4.26
494.204	4.26
494.554	4.27
494.903	4.28
495.252	4.29
495.601	4.3
495.95	4.29
496.299	4.28
496.648	4.29
496.997	4.28
497.346	4.3
497.695	4.32
498.043	4.33
498.392	4.35
498.741	4.34
499.09	4.36
499.438	4.37
499.787	4.38
500.135	4.41
500.484	4.4
500.832	4.43
501.181	4.45
501.529	4.44
501.878	4.42
502.226	4.41
502.574	4.41
502.923	4.39
503.271	4.4
503.619	4.41
503.967	4.4
504.315	4.4
504.663	4.38
505.011	4.37
505.359	4.37
505.707	4.34
506.055	4.34
506.403	4.33
506.751	4.29
507.098	4.3
507.446	4.28
507.794	4.29
508.141	4.27
508.489	4.27
508.837	4.28
509.184	4.29
509.531	4.29
509.879	4.28
510.226	4.27
510.574	4.27
510.921	4.27
511.268	4.28
511.616	4.27
511.963	4.27
512.31	4.28
512.657	4.31
513.004	4.3
513.351	4.29
513.698	4.29
514.045	4.31
514.392	4.32
514.739	4.32
515.086	4.32
515.432	4.34
515.779	4.32
516.126	4.34
516.473	4.34
516.819	4.36
517.166	4.38
517.512	4.38
517.859	4.42
518.205	4.4
518.552	4.4
518.898	4.4
519.245	4.42
519.591	4.4
519.937	4.39
520.283	4.44
520.629	4.44
520.976	4.46
521.322	4.46
521.668	4.48
522.014	4.49
522.36	4.48
522.706	4.5
523.052	4.51
523.398	4.5
523.743	4.51
524.089	4.53
524.435	4.52
524.781	4.53
525.126	4.51
525.472	4.55
525.817	4.53
526.163	4.54
526.509	4.53
526.854	4.54
527.199	4.54
527.545	4.53
527.89	4.54
528.235	4.53
528.581	4.53
528.926	4.52
529.271	4.51
529.616	4.51
529.961	4.51
530.306	4.51
530.651	4.53
530.996	4.53
531.341	4.52
531.686	4.52
532.031	4.53
532.376	4.53
532.721	4.52
533.065	4.53
533.41	4.53
533.755	4.54
534.099	4.53
534.444	4.54
534.788	4.53
535.133	4.52
535.477	4.52
535.822	4.53
536.166	4.54
536.51	4.55
536.855	4.56
537.199	4.55
537.543	4.53
537.887	4.52
538.231	4.51
538.576	4.51
538.92	4.52
539.264	4.54
539.608	4.57
539.951	4.57
540.295	4.57
540.639	4.57
540.983	4.56
541.327	4.58
541.671	4.58
542.014	4.61
542.358	4.61
542.701	4.63
543.045	4.62
543.389	4.63
543.732	4.62
544.075	4.63
544.419	4.65
544.762	4.68
545.105	4.69
545.449	4.7
545.792	4.68
546.135	4.69
546.478	4.66
546.821	4.67
547.165	4.66
547.508	4.66
547.851	4.68
548.194	4.67
548.536	4.65
548.879	4.64
549.222	4.61
549.565	4.63
549.908	4.63
550.25	4.64
550.593	4.61
550.936	4.63
551.278	4.62
551.621	4.61
551.963	4.61
552.306	4.61
552.648	4.6
552.991	4.63
553.333	4.6
553.675	4.6
554.017	4.53
554.36	4.53
554.702	4.53
555.044	4.52
555.386	4.52
555.728	4.55
556.07	4.55
556.412	4.53
556.754	4.51
557.096	4.49
557.438	4.48
557.78	4.49
558.121	4.47
558.463	4.49
558.805	4.49
559.147	4.49
559.488	4.48
559.83	4.51
560.171	4.51
560.513	4.55
560.854	4.56
561.196	4.61
561.537	4.64
561.878	4.67
562.22	4.67
562.561	4.68
562.902	4.67
563.243	4.68
563.584	4.69
563.925	4.71
564.266	4.71
564.607	4.72
564.948	4.72
565.289	4.75
565.63	4.72
565.971	4.71
566.312	4.69
566.653	4.73
566.993	4.7
567.334	4.69
567.675	4.69
568.015	4.72
568.356	4.71
568.696	4.68
569.037	4.64
569.377	4.66
569.718	4.66
570.058	4.64
570.398	4.65
570.739	4.66
571.079	4.65
571.419	4.63
571.759	4.61
572.099	4.62
572.439	4.6
572.779	4.61
573.119	4.63
573.459	4.64
573.799	4.62
574.139	4.63
574.479	4.64
574.819	4.64
575.158	4.63
575.498	4.64
575.838	4.66
576.177	4.66
576.517	4.65
576.856	4.65
577.196	4.7
577.535	4.72
577.875	4.69
578.214	4.7
578.553	4.72
578.893	4.74
579.232	4.76
579.571	4.79
579.91	4.76
580.25	4.73
580.589	4.73
580.928	4.72
581.267	4.74
581.606	4.75
581.945	4.71
582.283	4.69
582.622	4.64
582.961	4.68
583.3	4.67
583.639	4.67
583.977	4.69
584.316	4.63
584.654	4.57
584.993	4.57
585.332	4.58
585.67	4.6
586.008	4.61
586.347	4.59
586.685	4.57
587.024	4.56
587.362	4.57
587.7	4.59
588.038	4.63
588.376	4.65
588.715	4.61
589.053	4.57
589.391	4.56
589.729	4.6
590.067	4.57
590.404	4.6
590.742	4.6
591.08	4.63
591.418	4.65
591.756	4.65
592.093	4.69
592.431	4.66
592.769	4.64
593.106	4.64
593.444	4.65
593.781	4.68
594.119	4.7
594.456	4.68
594.793	4.68
595.131	4.65
595.468	4.65
595.805	4.72
596.143	4.77
596.48	4.79
596.817	4.79
597.154	4.84
597.491	4.82
597.828	4.8
598.165	4.72
598.502	4.69
598.839	4.71
599.176	4.71
599.512	4.72
599.849	4.72
600.186	4.7
600.523	4.71
600.859	4.71
601.196	4.74
601.532	4.76
601.869	4.77
602.205	4.75
602.542	4.75
602.878	4.73
603.215	4.73
603.551	4.7
603.887	4.72
604.223	4.65
604.56	4.64
604.896	4.69
605.232	4.74
605.568	4.75
605.904	4.77
606.24	4.77
606.576	4.82
606.912	4.8
607.248	4.84
607.583	4.83
607.919	4.82
608.255	4.82
608.591	4.84
608.926	4.81
609.262	4.81
609.597	4.83
609.933	4.78
610.268	4.77
610.604	4.81
610.939	4.8
611.275	4.88
611.61	4.87
611.945	4.83
612.281	4.8
612.616	4.8
612.951	4.83
613.286	4.76
613.621	4.7
613.956	4.75
614.291	4.66
614.626	4.65
614.961	4.66
615.296	4.63
615.631	4.63
615.966	4.63
616.3	4.67
616.635	4.67
616.97	4.73
617.304	4.74
617.639	4.69
617.973	4.61
618.308	4.52
618.642	4.55
618.977	4.59
619.311	4.62
619.646	4.62
619.98	4.56
620.314	4.61
620.648	4.6
620.983	4.57
621.317	4.68
621.651	4.7
621.985	4.65
622.319	4.66
622.653	4.63
622.987	4.67
623.321	4.66
623.655	4.62
623.988	4.61
624.322	4.59
624.656	4.66
624.99	4.7
625.323	4.72
625.657	4.76
625.99	4.71
626.324	4.72
626.657	4.74
626.991	4.82
627.324	4.78
627.658	4.83
627.991	4.86
628.324	4.8
628.657	4.74
628.991	4.77
629.324	4.77
629.657	4.75
629.99	4.74
630.323	4.75
630.656	4.73
630.989	4.77
631.322	4.8
631.655	4.76
631.987	4.78
632.32	4.79
632.653	4.8
632.986	4.82
633.318	4.81
633.651	4.82
633.984	4.8
634.316	4.87
634.649	4.87
634.981	4.84
635.313	4.85
635.646	4.95
635.978	4.96
636.31	5.01
636.643	5.04
636.975	4.98
637.307	4.96
637.639	5.02
637.971	4.93
638.303	4.9
638.635	4.89
638.967	4.88
639.299	4.9
639.631	4.84
639.963	4.83
640.295	4.82
640.626	4.84
640.958	4.74
641.29	4.68
641.621	4.64
641.953	4.6
642.285	4.58
642.616	4.59
642.948	4.58
643.279	4.56
643.61	4.59
643.942	4.67
644.273	4.7
644.604	4.66
644.936	4.73
645.267	4.76
645.598	4.74
645.929	4.75
646.26	4.77
646.591	4.84
646.922	4.86
647.253	4.88
647.584	4.83
647.915	4.94
648.245	4.97
648.576	4.93
648.907	4.98
649.238	5
649.568	4.94
649.899	5.01
650.229	5.05
650.56	5.05
650.89	5.05
651.221	5.06
651.551	5.08
651.882	5.02
652.212	5.01
652.542	5
652.872	4.94
653.203	4.94
653.533	4.92
653.863	4.96
654.193	4.93
654.523	4.97
654.853	4.98
655.183	5.01
655.513	5.16
655.843	5.12
656.172	5.18
656.502	5.16
656.832	5.1
657.162	5.07
657.491	5.1
657.821	5.09
658.15	5.05
658.48	5.04
658.809	5.1
659.139	5.12
659.468	5.09
659.798	5.15
660.127	5.11
660.456	5.09
660.785	5.05
661.115	5.05
661.444	5.05
661.773	5.03
662.102	4.97
662.431	4.93
662.76	4.95
663.089	4.93
663.418	4.98
663.747	4.97
664.076	4.95
664.404	4.83
664.733	4.85
665.062	4.92
665.39	4.9
665.719	4.92
666.048	4.89
666.376	5.02
666.705	5.01
667.033	5.08
667.362	5.12
667.69	5.18
668.018	5.24
668.347	5.2
668.675	5.18
669.003	5.17
669.331	5.15
669.659	5.17
669.987	5.14
670.315	5.09
670.643	5.03
670.971	5.11
671.299	5.19
671.627	5.11
671.955	5.02
672.283	5
672.61	4.91
672.938	4.94
673.266	4.92
673.593	4.9
673.921	4.79
674.249	4.77
674.576	4.75
674.904	4.71
675.231	4.72
675.558	4.78
675.886	4.85
