Data from BA35141_Reflection_00008.txt Node
Date: Tue Nov 19 11:54:44 EST 2019
User: vgr7
Spectrometer: USB2G7710
Scans to average: 3
Trigger mode: 4
Integration Time (sec): 2.000000E-2
Electric dark correction enabled: true
Boxcar width: 10
XAxis mode: Wavelengths
Number of Pixels in Spectrum: 2048
>>>>>Begin Spectral Data<<<<<
177.721	-77.66
178.105	141.67
178.488	-9.79
178.871	-16.67
179.254	-55.07
179.636	-95.86
180.019	-10.77
180.402	250
180.785	-61.26
181.168	88.74
181.55	108.25
181.933	38.18
182.316	59.37
182.698	38.6
183.081	48.91
183.463	175.06
183.846	93.76
184.228	111.25
184.611	134.28
184.993	69.84
185.376	70.02
185.758	-18.62
186.14	11.59
186.522	-43.41
186.904	84.85
187.287	-103.7
187.669	-253.33
188.051	-66.67
188.433	-5.36
188.815	13.94
189.197	91.23
189.579	298.41
189.961	37.16
190.342	21.83
190.724	-19.39
191.106	-227.16
191.488	91.04
191.869	45.22
192.251	33.81
192.633	48.83
193.014	21.7
193.396	0.7
193.777	30.78
194.159	39.1
194.54	33.82
194.922	27.52
195.303	36.58
195.684	33.7
196.065	31.21
196.447	41
196.828	46.57
197.209	53.23
197.59	43.92
197.971	31.03
198.352	42.4
198.733	31.69
199.114	24.38
199.495	21.02
199.876	3.76
200.257	7.74
200.638	-10.3
201.018	-8.35
201.399	14.8
201.78	-13.73
202.16	-46.41
202.541	-64.97
202.922	-65.19
203.302	-141.98
203.683	-182.11
204.063	-512.82
204.444	-341.58
204.824	-250.51
205.204	-200.61
205.585	-232.24
205.965	-305.6
206.345	-119.53
206.725	-45.25
207.106	-23.96
207.486	-34.92
207.866	-7.91
208.246	-4.42
208.626	-8.28
209.006	-7.51
209.386	-23.44
209.766	-33.73
210.145	-16.78
210.525	-11.87
210.905	21.95
211.285	19.64
211.664	24.56
212.044	1.68
212.424	-4.67
212.803	6.54
213.183	5.73
213.562	-0.72
213.942	10.8
214.321	-12.92
214.701	-40.47
215.08	-46.43
215.459	-9.03
215.838	-30.01
216.218	-39.52
216.597	-31.26
216.976	-34.37
217.355	-20.75
217.734	21.34
218.113	31.48
218.492	22.58
218.871	22.46
219.25	14.75
219.629	-1.29
220.008	6.5
220.387	10.21
220.766	15.14
221.144	8.54
221.523	-11.44
221.902	-10.12
222.28	-7.81
222.659	7.61
223.037	0.75
223.416	10.15
223.794	7.29
224.173	-0.13
224.551	-1.4
224.929	-6.09
225.308	-3.01
225.686	-9.96
226.064	-10.9
226.442	-2.2
226.821	-4.57
227.199	-7.39
227.577	-1
227.955	3.38
228.333	-2.21
228.711	-2.14
229.089	3.88
229.467	7.99
229.845	3.13
230.222	8.01
230.6	4.65
230.978	4.01
231.356	1.24
231.733	4.84
232.111	5.61
232.488	6.07
232.866	5.92
233.243	4.9
233.621	4.2
233.998	4.42
234.376	3.68
234.753	1.25
235.13	4.53
235.508	2.7
235.885	1.26
236.262	1.76
236.639	1.98
237.016	1.99
237.393	1.44
237.77	2.75
238.147	3
238.524	4.97
238.901	5.96
239.278	5.07
239.655	4.66
240.032	4.49
240.409	4.86
240.785	5.15
241.162	4.82
241.539	4.73
241.915	5.15
242.292	5.47
242.668	5.79
243.045	5.55
243.421	5.62
243.798	5.61
244.174	5.62
244.551	5.45
244.927	4.83
245.303	4.51
245.679	4.51
246.056	4.21
246.432	3.94
246.808	3.89
247.184	3.87
247.56	3.58
247.936	3.8
248.312	3.83
248.688	3.72
249.064	3.67
249.44	3.82
249.815	3.71
250.191	3.65
250.567	3.58
250.943	3.62
251.318	3.52
251.694	3.64
252.069	3.42
252.445	3.38
252.82	3.73
253.196	4.08
253.571	4.18
253.947	4.41
254.322	4.47
254.697	3.99
255.073	4.27
255.448	4.34
255.823	4.06
256.198	3.91
256.573	3.82
256.948	3.8
257.323	4.07
257.698	4.09
258.073	3.85
258.448	4.03
258.823	4.01
259.198	4.19
259.573	3.65
259.948	3.79
260.322	3.75
260.697	3.72
261.072	3.64
261.446	3.78
261.821	3.82
262.195	3.82
262.57	4.1
262.944	4.07
263.319	4.19
263.693	4.07
264.067	4.24
264.442	4.38
264.816	4.24
265.19	4.2
265.564	4.19
265.938	4.25
266.313	4.05
266.687	3.83
267.061	3.74
267.435	4.24
267.809	4.31
268.183	4.09
268.556	3.99
268.93	4.08
269.304	3.92
269.678	3.91
270.051	3.98
270.425	3.88
270.799	3.66
271.172	3.61
271.546	3.82
271.919	3.7
272.293	3.63
272.666	3.85
273.04	3.56
273.413	3.37
273.787	3.36
274.16	3.26
274.533	3.47
274.906	3.28
275.279	3.05
275.653	3.03
276.026	3.15
276.399	3.26
276.772	3.22
277.145	3.28
277.518	3.15
277.891	2.96
278.263	3.11
278.636	3.26
279.009	3.11
279.382	2.97
279.755	3.05
280.127	3.21
280.5	3.15
280.872	3.23
281.245	3.33
281.617	3.38
281.99	3.55
282.362	3.45
282.735	3.53
283.107	3.57
283.479	3.66
283.852	3.76
284.224	3.59
284.596	3.63
284.968	3.53
285.34	3.49
285.713	3.65
286.085	3.49
286.457	3.52
286.829	3.5
287.201	3.49
287.572	3.42
287.944	3.33
288.316	3.25
288.688	3.27
289.06	3.21
289.431	3.21
289.803	3.18
290.175	3.13
290.546	3.2
290.918	3.24
291.289	3.07
291.661	3.11
292.032	3.01
292.403	2.89
292.775	3.01
293.146	3.17
293.517	3.05
293.889	3.07
294.26	3.2
294.631	3.31
295.002	3.48
295.373	3.4
295.744	3.29
296.115	3.4
296.486	3.39
296.857	3.52
297.228	3.44
297.599	3.35
297.97	3.54
298.34	3.59
298.711	3.68
299.082	3.85
299.452	3.83
299.823	3.99
300.194	4.08
300.564	4.13
300.935	4.14
301.305	3.99
301.676	3.92
302.046	3.81
302.416	3.93
302.787	3.84
303.157	3.95
303.527	4.09
303.897	4.07
304.267	4.14
304.637	4.1
305.008	4.26
305.378	4.47
305.748	4.39
306.117	4.34
306.487	4.42
306.857	4.28
307.227	4.37
307.597	4.39
307.967	4.24
308.336	4.14
308.706	4.18
309.076	4.52
309.445	4.72
309.815	4.88
310.184	4.71
310.554	4.69
310.923	4.67
311.293	4.74
311.662	4.78
312.031	4.87
312.401	4.81
312.77	4.7
313.139	4.67
313.508	4.6
313.877	4.59
314.246	4.45
314.616	4.58
314.985	4.67
315.353	4.87
315.722	5.15
316.091	5.17
316.46	5.07
316.829	5.07
317.198	4.97
317.567	4.83
317.935	5.03
318.304	5.2
318.672	5.56
319.041	5.69
319.41	5.54
319.778	5.39
320.147	5.55
320.515	5.65
320.883	5.58
321.252	5.54
321.62	5.41
321.988	5.44
322.357	5.45
322.725	5.38
323.093	5.29
323.461	5.28
323.829	5.22
324.197	5.21
324.565	5.23
324.933	5.29
325.301	5.28
325.669	5.25
326.037	5.31
326.405	5.11
326.772	5.11
327.14	5.27
327.508	5.37
327.875	5.32
328.243	5.31
328.61	5.32
328.978	5.46
329.346	5.6
329.713	5.69
330.08	5.72
330.448	5.64
330.815	5.76
331.182	5.54
331.55	5.7
331.917	5.66
332.284	5.59
332.651	5.81
333.018	5.67
333.385	5.62
333.752	5.57
334.119	5.59
334.486	5.44
334.853	5.48
335.22	5.43
335.587	5.34
335.954	5.29
336.32	5.38
336.687	5.48
337.054	5.4
337.42	5.39
337.787	5.4
338.153	5.5
338.52	5.41
338.886	5.57
339.253	5.43
339.619	5.58
339.986	5.59
340.352	5.52
340.718	5.73
341.084	5.64
341.451	5.62
341.817	5.61
342.183	5.6
342.549	5.69
342.915	5.85
343.281	5.95
343.647	6.03
344.013	6.04
344.379	5.91
344.745	5.98
345.11	6
345.476	6
345.842	5.98
346.208	6
346.573	5.87
346.939	5.92
347.304	5.89
347.67	5.78
348.035	5.77
348.401	5.76
348.766	5.83
349.132	5.9
349.497	5.99
349.862	6.09
350.228	6
350.593	5.86
350.958	5.98
351.323	5.98
351.688	5.91
352.053	5.88
352.418	5.88
352.783	5.87
353.148	5.88
353.513	5.84
353.878	5.76
354.243	5.76
354.608	5.83
354.972	5.84
355.337	5.85
355.702	5.87
356.066	5.84
356.431	5.86
356.795	5.76
357.16	5.69
357.524	5.54
357.889	5.54
358.253	5.57
358.618	5.49
358.982	5.49
359.346	5.49
359.71	5.47
360.075	5.58
360.439	5.58
360.803	5.59
361.167	5.49
361.531	5.54
361.895	5.59
362.259	5.62
362.623	5.6
362.987	5.61
363.351	5.5
363.714	5.46
364.078	5.49
364.442	5.49
364.806	5.49
365.169	5.63
365.533	5.63
365.896	5.59
366.26	5.54
366.623	5.49
366.987	5.6
367.35	5.67
367.714	5.56
368.077	5.6
368.44	5.6
368.803	5.67
369.167	5.54
369.53	5.5
369.893	5.43
370.256	5.37
370.619	5.32
370.982	5.25
371.345	5.24
371.708	5.19
372.071	5.2
372.434	5.19
372.797	5.11
373.159	5.08
373.522	5.06
373.885	5.08
374.247	5.08
374.61	4.88
374.973	4.75
375.335	4.69
375.698	4.62
376.06	4.57
376.423	4.48
376.785	4.53
377.147	4.52
377.51	4.43
377.872	4.49
378.234	4.55
378.596	4.57
378.958	4.55
379.321	4.49
379.683	4.47
380.045	4.45
380.407	4.46
380.769	4.4
381.13	4.45
381.492	4.38
381.854	4.36
382.216	4.43
382.578	4.49
382.939	4.48
383.301	4.43
383.663	4.39
384.024	4.43
384.386	4.43
384.747	4.39
385.109	4.4
385.47	4.35
385.832	4.3
386.193	4.3
386.554	4.27
386.916	4.3
387.277	4.24
387.638	4.22
387.999	4.15
388.36	4.15
388.721	4.08
389.082	4.09
389.443	4.04
389.804	3.99
390.165	4
390.526	3.97
390.887	3.93
391.248	3.93
391.609	3.91
391.969	3.91
392.33	3.91
392.691	3.9
393.051	3.9
393.412	3.88
393.772	3.86
394.133	3.88
394.493	3.82
394.854	3.85
395.214	3.88
395.574	3.86
395.935	3.84
396.295	3.84
396.655	3.85
397.015	3.84
397.376	3.88
397.736	3.82
398.096	3.82
398.456	3.87
398.816	3.84
399.176	3.82
399.535	3.74
399.895	3.75
400.255	3.72
400.615	3.69
400.975	3.69
401.334	3.69
401.694	3.64
402.054	3.66
402.413	3.62
402.773	3.54
403.132	3.55
403.492	3.56
403.851	3.54
404.211	3.5
404.57	3.49
404.929	3.44
405.288	3.43
405.648	3.43
406.007	3.41
406.366	3.4
406.725	3.41
407.084	3.41
407.443	3.38
407.802	3.39
408.161	3.39
408.52	3.37
408.879	3.37
409.238	3.36
409.596	3.32
409.955	3.33
410.314	3.37
410.673	3.34
411.031	3.31
411.39	3.32
411.748	3.33
412.107	3.33
412.465	3.3
412.824	3.28
413.182	3.24
413.54	3.25
413.899	3.27
414.257	3.24
414.615	3.25
414.974	3.26
415.332	3.25
415.69	3.21
416.048	3.22
416.406	3.2
416.764	3.21
417.122	3.21
417.48	3.19
417.838	3.18
418.195	3.16
418.553	3.14
418.911	3.11
419.269	3.09
419.626	3.08
419.984	3.08
420.342	3.08
420.699	3.09
421.057	3.07
421.414	3.08
421.772	3.08
422.129	3.07
422.486	3.05
422.844	3.04
423.201	3.05
423.558	3.02
423.915	3.01
424.273	3
424.63	3.01
424.987	3
425.344	2.99
425.701	3
426.058	3.02
426.415	3.04
426.772	3.03
427.128	3.05
427.485	3.04
427.842	3.03
428.199	3.03
428.555	3.03
428.912	2.99
429.269	2.99
429.625	3
429.982	3
430.338	3.02
430.695	3.02
431.051	3.06
431.407	3.06
431.764	3.05
432.12	3.03
432.476	3.03
432.832	3.02
433.189	3.02
433.545	3.01
433.901	2.99
434.257	2.99
434.613	2.99
434.969	2.98
435.325	2.99
435.681	2.99
436.036	2.98
436.392	2.98
436.748	3
437.104	2.98
437.459	2.98
437.815	2.98
438.171	2.98
438.526	2.96
438.882	2.96
439.237	2.94
439.593	2.95
439.948	2.96
440.304	2.97
440.659	2.96
441.014	2.97
441.369	2.97
441.725	2.97
442.08	2.97
442.435	2.98
442.79	2.97
443.145	2.94
443.5	2.93
443.855	2.92
444.21	2.9
444.565	2.89
444.92	2.9
445.275	2.89
445.629	2.88
445.984	2.87
446.339	2.86
446.693	2.89
447.048	2.87
447.403	2.85
447.757	2.83
448.112	2.82
448.466	2.82
448.82	2.82
449.175	2.81
449.529	2.81
449.883	2.8
450.238	2.79
450.592	2.8
450.946	2.81
451.3	2.83
451.654	2.82
452.008	2.85
452.362	2.82
452.716	2.83
453.07	2.84
453.424	2.85
453.778	2.85
454.132	2.84
454.486	2.86
454.839	2.87
455.193	2.9
455.547	2.92
455.9	2.92
456.254	2.91
456.607	2.91
456.961	2.91
457.314	2.89
457.668	2.91
458.021	2.91
458.375	2.91
458.728	2.92
459.081	2.91
459.434	2.9
459.787	2.9
460.141	2.89
460.494	2.88
460.847	2.88
461.2	2.88
461.553	2.87
461.906	2.89
462.259	2.89
462.611	2.89
462.964	2.87
463.317	2.87
463.67	2.89
464.022	2.9
464.375	2.9
464.728	2.94
465.08	2.94
465.433	2.96
465.785	2.98
466.138	2.96
466.49	2.97
466.843	2.98
467.195	3
467.547	3.01
467.899	3.02
468.252	3.03
468.604	3.03
468.956	3.03
469.308	3.02
469.66	3.01
470.012	3.02
470.364	3.04
470.716	3.02
471.068	3.02
471.42	3.01
471.772	3.05
472.123	3.04
472.475	3.05
472.827	3.02
473.178	3.01
473.53	2.99
473.882	2.98
474.233	2.98
474.585	2.99
474.936	2.99
475.288	2.98
475.639	2.99
475.99	2.97
476.342	2.97
476.693	2.97
477.044	2.95
477.395	2.92
477.746	2.92
478.097	2.95
478.448	2.92
478.8	2.92
479.15	2.9
479.501	2.89
479.852	2.88
480.203	2.9
480.554	2.9
480.905	2.92
481.255	2.93
481.606	2.93
481.957	2.93
482.307	2.94
482.658	2.93
483.009	2.94
483.359	2.95
483.709	2.97
484.06	2.97
484.41	2.99
484.761	3
485.111	3
485.461	2.99
485.811	3
486.162	3
486.512	3.01
486.862	3.03
487.212	3.02
487.562	3.02
487.912	3.03
488.262	3.04
488.612	3.04
488.961	3.05
489.311	3.06
489.661	3.05
490.011	3.07
490.36	3.07
490.71	3.07
491.06	3.06
491.409	3.07
491.759	3.07
492.108	3.08
492.458	3.09
492.807	3.1
493.157	3.11
493.506	3.12
493.855	3.13
494.204	3.13
494.554	3.15
494.903	3.16
495.252	3.18
495.601	3.2
495.95	3.2
496.299	3.2
496.648	3.2
496.997	3.23
497.346	3.25
497.695	3.29
498.043	3.31
498.392	3.31
498.741	3.31
499.09	3.34
499.438	3.37
499.787	3.38
500.135	3.4
500.484	3.41
500.832	3.42
501.181	3.45
501.529	3.48
501.878	3.52
502.226	3.54
502.574	3.53
502.923	3.52
503.271	3.56
503.619	3.58
503.967	3.61
504.315	3.64
504.663	3.66
505.011	3.65
505.359	3.66
505.707	3.7
506.055	3.72
506.403	3.74
506.751	3.77
507.098	3.81
507.446	3.82
507.794	3.85
508.141	3.89
508.489	3.92
508.837	3.92
509.184	3.92
509.531	3.97
509.879	3.99
510.226	4.05
510.574	4.09
510.921	4.14
511.268	4.19
511.616	4.18
511.963	4.22
512.31	4.28
512.657	4.35
513.004	4.37
513.351	4.42
513.698	4.46
514.045	4.5
514.392	4.53
514.739	4.58
515.086	4.63
515.432	4.67
515.779	4.7
516.126	4.77
516.473	4.84
516.819	4.86
517.166	4.93
517.512	4.95
517.859	5
518.205	5.03
518.552	5.06
518.898	5.11
519.245	5.15
519.591	5.18
519.937	5.2
520.283	5.25
520.629	5.3
520.976	5.33
521.322	5.37
521.668	5.43
522.014	5.52
522.36	5.57
522.706	5.63
523.052	5.73
523.398	5.78
523.743	5.86
524.089	5.95
524.435	6.04
524.781	6.13
525.126	6.19
525.472	6.28
525.817	6.35
526.163	6.42
526.509	6.48
526.854	6.53
527.199	6.59
527.545	6.65
527.89	6.71
528.235	6.78
528.581	6.83
528.926	6.89
529.271	6.95
529.616	7.02
529.961	7.09
530.306	7.15
530.651	7.22
530.996	7.29
531.341	7.38
531.686	7.47
532.031	7.56
532.376	7.64
532.721	7.73
533.065	7.83
533.41	7.93
533.755	8.03
534.099	8.16
534.444	8.27
534.788	8.38
535.133	8.49
535.477	8.58
535.822	8.71
536.166	8.86
536.51	9
536.855	9.16
537.199	9.32
537.543	9.48
537.887	9.67
538.231	9.83
538.576	10.01
538.92	10.16
539.264	10.32
539.608	10.5
539.951	10.64
540.295	10.8
540.639	10.96
540.983	11.11
541.327	11.24
541.671	11.39
542.014	11.54
542.358	11.7
542.701	11.88
543.045	12.01
543.389	12.15
543.732	12.3
544.075	12.45
544.419	12.62
544.762	12.8
545.105	12.97
545.449	13.16
545.792	13.34
546.135	13.53
546.478	13.76
546.821	13.99
547.165	14.25
547.508	14.47
547.851	14.71
548.194	14.93
548.536	15.2
548.879	15.46
549.222	15.67
549.565	15.87
549.908	16.07
550.25	16.36
550.593	16.62
550.936	16.88
551.278	17.12
551.621	17.39
551.963	17.68
552.306	17.96
552.648	18.23
552.991	18.5
553.333	18.77
553.675	18.97
554.017	19.18
554.36	19.35
554.702	19.59
555.044	19.83
555.386	20.07
555.728	20.31
556.07	20.53
556.412	20.86
556.754	21.12
557.096	21.4
557.438	21.67
557.78	21.94
558.121	22.21
558.463	22.51
558.805	22.76
559.147	22.99
559.488	23.22
559.83	23.46
560.171	23.69
560.513	23.99
560.854	24.28
561.196	24.56
561.537	24.88
561.878	25.15
562.22	25.39
562.561	25.66
562.902	25.87
563.243	26.16
563.584	26.4
563.925	26.66
564.266	26.91
564.607	27.12
564.948	27.32
565.289	27.57
565.63	27.78
565.971	28
566.312	28.19
566.653	28.41
566.993	28.66
567.334	28.92
567.675	29.08
568.015	29.25
568.356	29.44
568.696	29.68
569.037	29.87
569.377	30.07
569.718	30.31
570.058	30.53
570.398	30.73
570.739	30.92
571.079	31.13
571.419	31.35
571.759	31.49
572.099	31.7
572.439	31.86
572.779	32.03
573.119	32.2
573.459	32.4
573.799	32.55
574.139	32.67
574.479	32.79
574.819	32.99
575.158	33.19
575.498	33.38
575.838	33.52
576.177	33.71
576.517	33.93
576.856	34.11
577.196	34.26
577.535	34.46
577.875	34.61
578.214	34.76
578.553	34.94
578.893	35.19
579.232	35.27
579.571	35.45
579.91	35.6
580.25	35.8
580.589	35.92
580.928	36.05
581.267	36.26
581.606	36.52
581.945	36.72
582.283	36.86
582.622	36.98
582.961	37.13
583.3	37.23
583.639	37.36
583.977	37.47
584.316	37.58
584.654	37.68
584.993	37.88
585.332	38.03
585.67	38.13
586.008	38.25
586.347	38.52
586.685	38.67
587.024	38.81
587.362	38.96
587.7	39.15
588.038	39.35
588.376	39.44
588.715	39.41
589.053	39.37
589.391	39.4
589.729	39.58
590.067	39.69
590.404	39.89
590.742	39.98
591.08	40.1
591.418	40.23
591.756	40.32
592.093	40.37
592.431	40.43
592.769	40.54
593.106	40.64
593.444	40.72
593.781	40.83
594.119	40.85
594.456	40.86
594.793	40.86
595.131	40.82
595.468	40.89
595.805	41.01
596.143	41.18
596.48	41.34
596.817	41.31
597.154	41.37
597.491	41.37
597.828	41.48
598.165	41.56
598.502	41.62
598.839	41.68
599.176	41.78
599.512	41.82
599.849	41.88
600.186	41.89
600.523	41.98
600.859	42
601.196	42.07
601.532	42.17
601.869	42.27
602.205	42.43
602.542	42.53
602.878	42.59
603.215	42.61
603.551	42.64
603.887	42.72
604.223	42.72
604.56	42.75
604.896	42.79
605.232	42.79
605.568	42.82
605.904	42.94
606.24	42.99
606.576	43.11
606.912	43.1
607.248	43.22
607.583	43.19
607.919	43.26
608.255	43.35
608.591	43.44
608.926	43.56
609.262	43.62
609.597	43.64
609.933	43.7
610.268	43.68
610.604	43.71
610.939	43.83
611.275	43.94
611.61	44.03
611.945	44
612.281	44.12
612.616	44.24
612.951	44.33
613.286	44.4
613.621	44.46
613.956	44.62
614.291	44.68
614.626	44.8
614.961	44.84
615.296	44.92
615.631	44.99
615.966	44.97
616.3	44.99
616.635	45.1
616.97	45.17
617.304	45.37
617.639	45.45
617.973	45.39
618.308	45.46
618.642	45.43
618.977	45.44
619.311	45.39
619.646	45.39
619.98	45.3
620.314	45.33
620.648	45.28
620.983	45.3
621.317	45.33
621.651	45.33
621.985	45.39
622.319	45.35
622.653	45.43
622.987	45.47
623.321	45.51
623.655	45.54
623.988	45.44
624.322	45.44
624.656	45.47
624.99	45.52
625.323	45.49
625.657	45.58
625.99	45.69
626.324	45.75
626.657	45.84
626.991	45.94
627.324	45.85
627.658	45.91
627.991	45.96
628.324	45.93
628.657	45.95
628.991	45.98
629.324	46
629.657	45.93
629.99	46.02
630.323	46.04
630.656	46.04
630.989	46.12
631.322	46.12
631.655	46.19
631.987	46.16
632.32	46.26
632.653	46.27
632.986	46.35
633.318	46.32
633.651	46.26
633.984	46.18
634.316	46.27
634.649	46.29
634.981	46.36
635.313	46.43
635.646	46.53
635.978	46.55
636.31	46.61
636.643	46.71
636.975	46.66
637.307	46.74
637.639	46.76
637.971	46.82
638.303	46.86
638.635	46.79
638.967	46.93
639.299	46.86
639.631	46.85
639.963	46.88
640.295	47.05
640.626	47.14
640.958	47.26
641.29	47.29
641.621	47.36
641.953	47.22
642.285	47.21
642.616	47.21
642.948	47.23
643.279	47.25
643.61	47.22
643.942	47.26
644.273	47.22
644.604	47.22
644.936	47.27
645.267	47.28
645.598	47.38
645.929	47.34
646.26	47.38
646.591	47.48
646.922	47.52
647.253	47.44
647.584	47.38
647.915	47.32
648.245	47.28
648.576	47.22
648.907	47.43
649.238	47.51
649.568	47.42
649.899	47.54
650.229	47.63
650.56	47.56
650.89	47.55
651.221	47.48
651.551	47.49
651.882	47.42
652.212	47.51
652.542	47.48
652.872	47.49
653.203	47.52
653.533	47.51
653.863	47.57
654.193	47.46
654.523	47.54
654.853	47.62
655.183	47.56
655.513	47.71
655.843	47.59
656.172	47.55
656.502	47.62
656.832	47.61
657.162	47.54
657.491	47.7
657.821	47.78
658.15	47.95
658.48	48.07
658.809	48.15
659.139	48.12
659.468	48.12
659.798	48.17
660.127	48.22
660.456	48.12
660.785	48.05
661.115	48.12
661.444	48.01
661.773	48.05
662.102	48.27
662.431	48.19
662.76	48.26
663.089	48.28
663.418	48.29
663.747	48.27
664.076	48.33
664.404	48.2
664.733	48.25
665.062	48.24
665.39	48.09
665.719	48.05
666.048	48.01
666.376	48.03
666.705	48.11
667.033	48.06
667.362	48.25
667.69	48.3
668.018	48.48
668.347	48.66
668.675	48.66
669.003	48.5
669.331	48.59
669.659	48.55
669.987	48.55
670.315	48.63
670.643	48.51
