Data from BA35141_Reflection_00007.txt Node
Date: Tue Nov 19 11:54:41 EST 2019
User: vgr7
Spectrometer: USB2G7710
Scans to average: 3
Trigger mode: 4
Integration Time (sec): 2.000000E-2
Electric dark correction enabled: true
Boxcar width: 10
XAxis mode: Wavelengths
Number of Pixels in Spectrum: 2048
>>>>>Begin Spectral Data<<<<<
177.721	-134.43
178.105	433.33
178.488	88.94
178.871	114.04
179.254	76.81
179.636	142.58
180.019	145.55
180.402	-250
180.785	58.56
181.168	-61.04
181.55	-12.21
181.933	-9.55
182.316	-6.14
182.698	-26.86
183.081	-12.23
183.463	36.39
183.846	1.96
184.228	-0.2
184.611	-30.02
184.993	-46.03
185.376	-31.89
185.758	-47.15
186.14	1.45
186.522	-163.57
186.904	287.88
187.287	-21.69
187.669	33.33
188.051	172.07
188.433	142.15
188.815	117.43
189.197	1135.09
189.579	-741.27
189.961	-386.34
190.342	-189.09
190.724	-131.68
191.106	-702.47
191.488	-186.74
191.869	-51.52
192.251	-13.24
192.633	-14.49
193.014	-17.24
193.396	-19.86
193.777	-19.88
194.159	0.07
194.54	-15.73
194.922	-7.43
195.303	6.78
195.684	5.44
196.065	9.79
196.447	12.97
196.828	21.24
197.209	16.36
197.59	11.29
197.971	15.84
198.352	1.88
198.733	-4.73
199.114	12.49
199.495	10.2
199.876	-8.68
200.257	-15.55
200.638	2.57
201.018	20.41
201.399	21.25
201.78	23.9
202.16	-8.02
202.541	-6.02
202.922	-5.22
203.302	-15.76
203.683	-20.33
204.063	-141.03
204.444	-71.82
204.824	-37.37
205.204	-8.07
205.585	36.82
205.965	5.6
206.345	65.48
206.725	25.77
207.106	16.51
207.486	11.11
207.866	25.54
208.246	23.79
208.626	18.7
209.006	9.67
209.386	20.27
209.766	23.14
210.145	39.99
210.525	68.04
210.905	55.69
211.285	67.54
211.664	67.02
212.044	60.03
212.424	36.16
212.803	36.74
213.183	36.2
213.562	51.25
213.942	41.01
214.321	8.51
214.701	33.15
215.08	24.39
215.459	60.61
215.838	42.73
216.218	42.68
216.597	20.63
216.976	-13.03
217.355	-20.29
217.734	-50.72
218.113	-31.74
218.492	-50.27
218.871	-36.14
219.25	-22.48
219.629	-25.1
220.008	-2.56
220.387	10.51
220.766	8.74
221.144	3.12
221.523	-21.09
221.902	-3.88
222.28	5.11
222.659	11.47
223.037	-0.59
223.416	-9.49
223.794	-4.55
224.173	-0.95
224.551	-4
224.929	-1.55
225.308	-4.58
225.686	1.72
226.064	-3.93
226.442	5.17
226.821	4.88
227.199	-1.67
227.577	3.75
227.955	0.42
228.333	-4.56
228.711	-1.11
229.089	1.81
229.467	0.42
229.845	-4.76
230.222	-1.91
230.6	-3.24
230.978	-2.15
231.356	0.01
231.733	3.64
232.111	2.96
232.488	4.39
232.866	6.77
233.243	7.77
233.621	9.42
233.998	11.56
234.376	11.86
234.753	11.43
235.13	12.89
235.508	9.66
235.885	9.74
236.262	11.48
236.639	9.67
237.016	9.44
237.393	9.13
237.77	10.73
238.147	10.85
238.524	11.25
238.901	11.16
239.278	10.25
239.655	8.1
240.032	7.61
240.409	6.92
240.785	6.55
241.162	5.99
241.539	5.9
241.915	5.16
242.292	4.94
242.668	5.08
243.045	5.05
243.421	5.06
243.798	5.1
244.174	4.95
244.551	4.72
244.927	4.67
245.303	4.61
245.679	4.51
246.056	4.16
246.432	3.85
246.808	4.15
247.184	4.12
247.56	4.41
247.936	4.56
248.312	4.77
248.688	4.66
249.064	4.78
249.44	4.41
249.815	4.58
250.191	4.54
250.567	4.72
250.943	4.58
251.318	4.78
251.694	4.69
252.069	4.77
252.445	4.94
252.82	4.99
253.196	5.33
253.571	5.44
253.947	5.61
254.322	5.69
254.697	5.45
255.073	5.1
255.448	5.11
255.823	4.85
256.198	4.74
256.573	4.43
256.948	4.46
257.323	4.34
257.698	4.28
258.073	4.03
258.448	3.78
258.823	3.6
259.198	3.45
259.573	3.46
259.948	3.45
260.322	3.35
260.697	3.37
261.072	3.33
261.446	3.24
261.821	3.07
262.195	3.04
262.57	2.95
262.944	2.98
263.319	2.97
263.693	2.99
264.067	3.06
264.442	3.16
264.816	2.91
265.19	3.08
265.564	3.02
265.938	3.2
266.313	3
266.687	3.18
267.061	3.24
267.435	3.38
267.809	3.25
268.183	3.29
268.556	3.31
268.93	3.34
269.304	3.28
269.678	3.67
270.051	3.68
270.425	3.7
270.799	3.63
271.172	3.7
271.546	3.82
271.919	3.65
272.293	3.7
272.666	3.82
273.04	3.76
273.413	3.6
273.787	3.47
274.16	3.59
274.533	3.54
274.906	3.42
275.279	3.31
275.653	3.51
276.026	3.53
276.399	3.44
276.772	3.35
277.145	3.48
277.518	3.22
277.891	3.21
278.263	3.26
278.636	3.43
279.009	3.22
279.382	3.08
279.755	3.01
280.127	3.09
280.5	3.17
280.872	3.33
281.245	3.65
281.617	3.56
281.99	3.67
282.362	3.65
282.735	3.75
283.107	3.6
283.479	3.35
283.852	3.27
284.224	3.28
284.596	3.31
284.968	3.36
285.34	3.33
285.713	3.53
286.085	3.5
286.457	3.51
286.829	3.38
287.201	3.23
287.572	3.4
287.944	3.33
288.316	3.33
288.688	3.28
289.06	3.17
289.431	3.22
289.803	3.13
290.175	3.11
290.546	3.01
290.918	3.13
291.289	3.16
291.661	3.28
292.032	3.37
292.403	3.29
292.775	3.44
293.146	3.51
293.517	3.31
293.889	3.27
294.26	3.2
294.631	3.54
295.002	3.6
295.373	3.5
295.744	3.63
296.115	3.69
296.486	3.67
296.857	3.76
297.228	3.84
297.599	3.84
297.97	3.88
298.34	4.07
298.711	4.15
299.082	4.21
299.452	4.14
299.823	4.1
300.194	4.16
300.564	4.03
300.935	4.15
301.305	4.19
301.676	4.28
302.046	4.37
302.416	4.18
302.787	4.47
303.157	4.55
303.527	4.55
303.897	4.44
304.267	4.39
304.637	4.28
305.008	4.22
305.378	4.23
305.748	4.21
306.117	4.1
306.487	4.32
306.857	4.37
307.227	4.65
307.597	4.8
307.967	4.81
308.336	4.85
308.706	4.63
309.076	4.81
309.445	4.92
309.815	5.03
310.184	5.04
310.554	4.81
310.923	4.68
311.293	4.75
311.662	4.9
312.031	5.07
312.401	5.07
312.77	5.09
313.139	5.13
313.508	5.14
313.877	5.22
314.246	4.94
314.616	5.13
314.985	4.85
315.353	4.77
315.722	4.87
316.091	4.79
316.46	5
316.829	4.8
317.198	4.65
317.567	4.69
317.935	4.88
318.304	5.02
318.672	5.3
319.041	5.16
319.41	4.99
319.778	5.05
320.147	5.14
320.515	5.29
320.883	5.34
321.252	5.37
321.62	5.21
321.988	5.44
322.357	5.34
322.725	5.52
323.093	5.52
323.461	5.53
323.829	5.59
324.197	5.56
324.565	5.67
324.933	5.74
325.301	5.54
325.669	5.45
326.037	5.52
326.405	5.5
326.772	5.59
327.14	5.64
327.508	5.5
327.875	5.5
328.243	5.51
328.61	5.44
328.978	5.59
329.346	5.69
329.713	5.68
330.08	5.64
330.448	5.65
330.815	5.75
331.182	5.72
331.55	5.76
331.917	5.72
332.284	5.67
332.651	5.71
333.018	5.88
333.385	5.91
333.752	5.94
334.119	6.02
334.486	6.05
334.853	6.15
335.22	6.15
335.587	6.06
335.954	6.02
336.32	5.94
336.687	5.99
337.054	5.99
337.42	5.8
337.787	5.78
338.153	5.92
338.52	5.9
338.886	5.99
339.253	5.92
339.619	6.13
339.986	6.1
340.352	6.05
340.718	5.93
341.084	5.94
341.451	6
341.817	5.94
342.183	6
342.549	6.02
342.915	6.08
343.281	6.17
343.647	6.12
344.013	6.3
344.379	6.31
344.745	6.41
345.11	6.5
345.476	6.55
345.842	6.39
346.208	6.35
346.573	6.31
346.939	6.31
347.304	6.15
347.67	6.24
348.035	6.28
348.401	6.32
348.766	6.33
349.132	6.29
349.497	6.24
349.862	6.1
350.228	6.04
350.593	5.9
350.958	5.86
351.323	5.96
351.688	5.92
352.053	5.83
352.418	5.83
352.783	5.91
353.148	5.9
353.513	5.92
353.878	5.8
354.243	5.67
354.608	5.77
354.972	5.79
355.337	5.72
355.702	5.65
356.066	5.75
356.431	5.67
356.795	5.65
357.16	5.66
357.524	5.66
357.889	5.68
358.253	5.79
358.618	5.83
358.982	5.81
359.346	5.81
359.71	5.83
360.075	5.77
360.439	5.82
360.803	5.82
361.167	5.75
361.531	5.86
361.895	5.92
362.259	5.88
362.623	5.8
362.987	5.8
363.351	5.81
363.714	5.77
364.078	5.84
364.442	5.79
364.806	5.78
365.169	5.83
365.533	5.79
365.896	5.85
366.26	5.82
366.623	5.71
366.987	5.73
367.35	5.69
367.714	5.73
368.077	5.63
368.44	5.61
368.803	5.68
369.167	5.53
369.53	5.59
369.893	5.55
370.256	5.57
370.619	5.55
370.982	5.5
371.345	5.41
371.708	5.34
372.071	5.25
372.434	5.22
372.797	5.17
373.159	5.16
373.522	5.05
373.885	4.96
374.247	5.03
374.61	4.97
374.973	4.92
375.335	4.88
375.698	4.8
376.06	4.82
376.423	4.8
376.785	4.87
377.147	4.8
377.51	4.76
377.872	4.72
378.234	4.76
378.596	4.79
378.958	4.78
379.321	4.73
379.683	4.79
380.045	4.74
380.407	4.72
380.769	4.66
381.13	4.58
381.492	4.62
381.854	4.55
382.216	4.54
382.578	4.52
382.939	4.48
383.301	4.45
383.663	4.35
384.024	4.28
384.386	4.25
384.747	4.15
385.109	4.14
385.47	4.16
385.832	4.07
386.193	4
386.554	3.99
386.916	4.01
387.277	3.95
387.638	3.97
387.999	3.96
388.36	3.99
388.721	4.02
389.082	4.05
389.443	4.08
389.804	4.12
390.165	4.12
390.526	4.07
390.887	4.1
391.248	4.12
391.609	4.18
391.969	4.18
392.33	4.2
392.691	4.22
393.051	4.21
393.412	4.21
393.772	4.22
394.133	4.19
394.493	4.15
394.854	4.15
395.214	4.16
395.574	4.14
395.935	4.09
396.295	4.09
396.655	4.01
397.015	3.98
397.376	3.97
397.736	3.92
398.096	3.88
398.456	3.82
398.816	3.82
399.176	3.75
399.535	3.69
399.895	3.67
400.255	3.64
400.615	3.61
400.975	3.61
401.334	3.56
401.694	3.54
402.054	3.53
402.413	3.53
402.773	3.5
403.132	3.52
403.492	3.51
403.851	3.48
404.211	3.51
404.57	3.46
404.929	3.4
405.288	3.45
405.648	3.49
406.007	3.52
406.366	3.48
406.725	3.5
407.084	3.51
407.443	3.49
407.802	3.49
408.161	3.46
408.52	3.46
408.879	3.48
409.238	3.47
409.596	3.48
409.955	3.45
410.314	3.47
410.673	3.44
411.031	3.42
411.39	3.44
411.748	3.42
412.107	3.43
412.465	3.44
412.824	3.4
413.182	3.36
413.54	3.34
413.899	3.33
414.257	3.28
414.615	3.25
414.974	3.27
415.332	3.25
415.69	3.26
416.048	3.24
416.406	3.22
416.764	3.23
417.122	3.21
417.48	3.2
417.838	3.16
418.195	3.15
418.553	3.14
418.911	3.12
419.269	3.11
419.626	3.11
419.984	3.09
420.342	3.07
420.699	3.08
421.057	3.07
421.414	3.06
421.772	3.07
422.129	3.05
422.486	3.04
422.844	3.02
423.201	3.02
423.558	3.01
423.915	3.02
424.273	3.02
424.63	3.03
424.987	3.03
425.344	3.03
425.701	3.03
426.058	3.04
426.415	3.03
426.772	3.02
427.128	3.03
427.485	3.04
427.842	3.03
428.199	3.01
428.555	2.99
428.912	2.98
429.269	2.98
429.625	3.01
429.982	3.01
430.338	3.03
430.695	3
431.051	3.01
431.407	2.98
431.764	2.96
432.12	2.97
432.476	2.96
432.832	2.96
433.189	2.95
433.545	2.93
433.901	2.93
434.257	2.94
434.613	2.91
434.969	2.89
435.325	2.89
435.681	2.91
436.036	2.92
436.392	2.93
436.748	2.9
437.104	2.89
437.459	2.91
437.815	2.9
438.171	2.94
438.526	2.94
438.882	2.96
439.237	2.98
439.593	2.97
439.948	2.96
440.304	2.98
440.659	2.98
441.014	2.98
441.369	2.97
441.725	2.98
442.08	2.99
442.435	3
442.79	3.01
443.145	3
443.5	2.97
443.855	2.96
444.21	2.99
444.565	2.99
444.92	2.97
445.275	2.96
445.629	2.94
445.984	2.93
446.339	2.92
446.693	2.91
447.048	2.9
447.403	2.9
447.757	2.86
448.112	2.85
448.466	2.83
448.82	2.84
449.175	2.82
449.529	2.82
449.883	2.81
450.238	2.79
450.592	2.78
450.946	2.79
451.3	2.79
451.654	2.77
452.008	2.75
452.362	2.77
452.716	2.75
453.07	2.75
453.424	2.75
453.778	2.74
454.132	2.74
454.486	2.75
454.839	2.77
455.193	2.79
455.547	2.8
455.9	2.82
456.254	2.79
456.607	2.81
456.961	2.82
457.314	2.83
457.668	2.85
458.021	2.84
458.375	2.85
458.728	2.85
459.081	2.85
459.434	2.86
459.787	2.85
460.141	2.87
460.494	2.89
460.847	2.89
461.2	2.89
461.553	2.91
461.906	2.9
462.259	2.89
462.611	2.91
462.964	2.93
463.317	2.93
463.67	2.97
464.022	2.97
464.375	2.95
464.728	2.94
465.08	2.95
465.433	2.97
465.785	3
466.138	3.01
466.49	3.02
466.843	3.04
467.195	3.04
467.547	3.03
467.899	3.04
468.252	3.03
468.604	3.03
468.956	3.04
469.308	3.03
469.66	3.06
470.012	3.07
470.364	3.06
470.716	3.08
471.068	3.08
471.42	3.07
471.772	3.07
472.123	3.09
472.475	3.08
472.827	3.07
473.178	3.02
473.53	3.02
473.882	3.03
474.233	3.01
474.585	3.01
474.936	3
475.288	2.99
475.639	3.01
475.99	3
476.342	2.99
476.693	3
477.044	2.96
477.395	2.95
477.746	2.94
478.097	2.92
478.448	2.94
478.8	2.91
479.15	2.91
479.501	2.89
479.852	2.89
480.203	2.87
480.554	2.89
480.905	2.89
481.255	2.89
481.606	2.9
481.957	2.9
482.307	2.91
482.658	2.9
483.009	2.9
483.359	2.9
483.709	2.9
484.06	2.9
484.41	2.9
484.761	2.9
485.111	2.91
485.461	2.91
485.811	2.91
486.162	2.93
486.512	2.94
486.862	2.94
487.212	2.94
487.562	2.96
487.912	2.96
488.262	2.97
488.612	2.98
488.961	2.99
489.311	3
489.661	3.01
490.011	3.01
490.36	3.02
490.71	3.04
491.06	3.04
491.409	3.05
491.759	3.05
492.108	3.06
492.458	3.06
492.807	3.06
493.157	3.06
493.506	3.06
493.855	3.07
494.204	3.08
494.554	3.12
494.903	3.13
495.252	3.13
495.601	3.15
495.95	3.17
496.299	3.2
496.648	3.22
496.997	3.23
497.346	3.27
497.695	3.28
498.043	3.28
498.392	3.28
498.741	3.32
499.09	3.35
499.438	3.37
499.787	3.4
500.135	3.43
500.484	3.46
500.832	3.49
501.181	3.49
501.529	3.54
501.878	3.54
502.226	3.56
502.574	3.6
502.923	3.61
503.271	3.62
503.619	3.62
503.967	3.64
504.315	3.66
504.663	3.68
505.011	3.75
505.359	3.78
505.707	3.83
506.055	3.85
506.403	3.88
506.751	3.9
507.098	3.94
507.446	3.95
507.794	3.98
508.141	4.02
508.489	4.09
508.837	4.1
509.184	4.15
509.531	4.18
509.879	4.2
510.226	4.23
510.574	4.26
510.921	4.29
511.268	4.34
511.616	4.35
511.963	4.39
512.31	4.42
512.657	4.45
513.004	4.47
513.351	4.51
513.698	4.56
514.045	4.62
514.392	4.64
514.739	4.71
515.086	4.75
515.432	4.8
515.779	4.82
516.126	4.9
516.473	4.9
516.819	4.95
517.166	5
517.512	5.05
517.859	5.12
518.205	5.15
518.552	5.21
518.898	5.26
519.245	5.3
519.591	5.32
519.937	5.38
520.283	5.45
520.629	5.48
520.976	5.52
521.322	5.57
521.668	5.65
522.014	5.72
522.36	5.78
522.706	5.83
523.052	5.93
523.398	5.99
523.743	6.13
524.089	6.23
524.435	6.33
524.781	6.42
525.126	6.49
525.472	6.58
525.817	6.64
526.163	6.7
526.509	6.76
526.854	6.81
527.199	6.87
527.545	6.93
527.89	7
528.235	7.07
528.581	7.14
528.926	7.22
529.271	7.29
529.616	7.37
529.961	7.44
530.306	7.52
530.651	7.61
530.996	7.68
531.341	7.77
531.686	7.86
532.031	7.96
532.376	8.04
532.721	8.15
533.065	8.26
533.41	8.38
533.755	8.51
534.099	8.63
534.444	8.76
534.788	8.88
535.133	8.99
535.477	9.12
535.822	9.25
536.166	9.4
536.51	9.55
536.855	9.7
537.199	9.89
537.543	10.06
537.887	10.24
538.231	10.41
538.576	10.57
538.92	10.74
539.264	10.91
539.608	11.11
539.951	11.26
540.295	11.42
540.639	11.57
540.983	11.72
541.327	11.92
541.671	12.05
542.014	12.22
542.358	12.37
542.701	12.54
543.045	12.71
543.389	12.87
543.732	13.02
544.075	13.2
544.419	13.36
544.762	13.54
545.105	13.69
545.449	13.88
545.792	14.11
546.135	14.32
546.478	14.56
546.821	14.77
547.165	15.03
547.508	15.27
547.851	15.5
548.194	15.72
548.536	15.95
548.879	16.25
549.222	16.46
549.565	16.72
549.908	16.94
550.25	17.2
550.593	17.42
550.936	17.7
551.278	17.99
551.621	18.23
551.963	18.51
552.306	18.82
552.648	19.09
552.991	19.33
553.333	19.61
553.675	19.87
554.017	20.09
554.36	20.36
554.702	20.6
555.044	20.89
555.386	21.18
555.728	21.38
556.07	21.63
556.412	21.91
556.754	22.19
557.096	22.47
557.438	22.72
557.78	23.03
558.121	23.33
558.463	23.58
558.805	23.88
559.147	24.14
559.488	24.37
559.83	24.71
560.171	24.95
560.513	25.27
560.854	25.5
561.196	25.8
561.537	26.1
561.878	26.4
562.22	26.66
562.561	26.92
562.902	27.19
563.243	27.46
563.584	27.75
563.925	28.04
564.266	28.29
564.607	28.5
564.948	28.73
565.289	28.99
565.63	29.2
565.971	29.42
566.312	29.64
566.653	29.88
566.993	30.09
567.334	30.38
567.675	30.54
568.015	30.8
568.356	31.03
568.696	31.21
569.037	31.4
569.377	31.61
569.718	31.81
570.058	32.04
570.398	32.22
570.739	32.37
571.079	32.5
571.419	32.69
571.759	32.92
572.099	33.04
572.439	33.13
572.779	33.38
573.119	33.52
573.459	33.73
573.799	33.89
574.139	33.99
574.479	34.12
574.819	34.32
575.158	34.41
575.498	34.55
575.838	34.68
576.177	34.85
576.517	35.06
576.856	35.22
577.196	35.34
577.535	35.5
577.875	35.74
578.214	35.99
578.553	36.19
578.893	36.39
579.232	36.55
579.571	36.78
579.91	36.87
580.25	37.09
580.589	37.25
580.928	37.39
581.267	37.59
581.606	37.76
581.945	37.95
582.283	38.16
582.622	38.3
582.961	38.53
583.3	38.64
583.639	38.75
583.977	38.87
584.316	39.02
584.654	39.22
584.993	39.38
585.332	39.48
585.67	39.56
586.008	39.65
586.347	39.89
586.685	40.01
587.024	40.1
587.362	40.18
587.7	40.27
588.038	40.42
588.376	40.55
588.715	40.6
589.053	40.59
589.391	40.64
589.729	40.76
590.067	40.8
590.404	40.97
590.742	41.08
591.08	41.19
591.418	41.33
591.756	41.39
592.093	41.41
592.431	41.42
592.769	41.52
593.106	41.68
593.444	41.71
593.781	41.87
594.119	42.02
594.456	42.16
594.793	42.22
595.131	42.3
595.468	42.42
595.805	42.5
596.143	42.58
596.48	42.7
596.817	42.76
597.154	42.8
597.491	42.82
597.828	42.94
598.165	43.07
598.502	43.03
598.839	43.05
599.176	43.14
599.512	43.29
599.849	43.36
600.186	43.3
600.523	43.43
600.859	43.46
601.196	43.52
601.532	43.55
601.869	43.62
602.205	43.65
602.542	43.67
602.878	43.73
603.215	43.81
603.551	43.87
603.887	43.99
604.223	44.03
604.56	44.11
604.896	44.19
605.232	44.23
605.568	44.3
605.904	44.41
606.24	44.45
606.576	44.55
606.912	44.62
607.248	44.71
607.583	44.74
607.919	44.81
608.255	44.85
608.591	44.91
608.926	44.99
609.262	45.09
609.597	45.2
609.933	45.26
610.268	45.3
610.604	45.33
610.939	45.37
611.275	45.5
611.61	45.49
611.945	45.42
612.281	45.52
612.616	45.69
612.951	45.76
613.286	45.83
613.621	45.89
613.956	45.98
614.291	46.13
614.626	46.15
614.961	46.18
615.296	46.26
615.631	46.39
615.966	46.42
616.3	46.44
616.635	46.43
616.97	46.47
617.304	46.59
617.639	46.69
617.973	46.68
618.308	46.68
618.642	46.74
618.977	46.8
619.311	46.8
619.646	46.94
619.98	46.99
620.314	47.01
620.648	46.9
620.983	46.92
621.317	46.93
621.651	46.95
621.985	47
622.319	47.01
622.653	47.04
622.987	47.1
623.321	47.09
623.655	47.12
623.988	47.2
624.322	47.24
624.656	47.23
624.99	47.28
625.323	47.33
625.657	47.41
625.99	47.42
626.324	47.47
626.657	47.37
626.991	47.37
627.324	47.39
627.658	47.49
627.991	47.6
628.324	47.57
628.657	47.64
628.991	47.74
629.324	47.72
629.657	47.69
629.99	47.8
630.323	47.92
630.656	47.91
630.989	47.97
631.322	47.95
631.655	47.95
631.987	47.91
632.32	48.03
632.653	47.98
632.986	48.02
633.318	48
633.651	47.98
633.984	47.99
634.316	48.06
634.649	48.12
634.981	48.07
635.313	48.11
635.646	48.09
635.978	48.01
636.31	48.14
636.643	48.16
636.975	48.1
637.307	48.11
637.639	48.2
637.971	48.11
638.303	48.12
638.635	48.2
638.967	48.34
639.299	48.35
639.631	48.44
639.963	48.62
640.295	48.68
640.626	48.8
640.958	48.86
641.29	48.93
641.621	48.97
641.953	48.92
642.285	49.03
642.616	49.1
642.948	49.15
643.279	49.15
643.61	49.12
643.942	49.18
644.273	49.2
644.604	49.2
644.936	49.25
645.267	49.39
645.598	49.41
645.929	49.3
646.26	49.16
646.591	49.2
646.922	49.16
647.253	49.22
647.584	49.12
647.915	49.14
648.245	49
648.576	48.94
648.907	49.18
649.238	49.07
649.568	49.07
649.899	49.19
650.229	49.26
650.56	49.32
650.89	49.2
651.221	49.16
651.551	49.22
651.882	49.32
652.212	49.22
652.542	49.14
652.872	49.27
653.203	49.43
653.533	49.34
653.863	49.32
654.193	49.28
654.523	49.46
654.853	49.43
655.183	49.47
655.513	49.52
655.843	49.46
656.172	49.5
656.502	49.56
656.832	49.49
657.162	49.48
657.491	49.69
657.821	49.82
658.15	49.89
658.48	49.88
658.809	49.92
659.139	49.96
659.468	50.02
659.798	50.01
660.127	49.97
660.456	50.05
660.785	50.08
661.115	50.11
661.444	50.06
661.773	50.12
662.102	50.28
662.431	50.36
662.76	50.24
663.089	50.43
663.418	50.5
663.747	50.57
664.076	50.51
664.404	50.37
664.733	50.33
665.062	50.26
665.39	50.26
665.719	50.15
666.048	50.02
666.376	49.94
666.705	49.99
667.033	49.97
667.362	50.01
667.69	49.97
668.018	50.01
668.347	50.1
668.675	50.12
669.003	49.93
669.331	49.89
669.659	50.06
669.987	49.9
670.315	49.86
670.643	49.88
