Data from BA35141_Reflection_00014.txt Node
Date: Tue Nov 19 11:54:57 EST 2019
User: vgr7
Spectrometer: USB2G7710
Scans to average: 3
Trigger mode: 4
Integration Time (sec): 2.000000E-2
Electric dark correction enabled: true
Boxcar width: 10
XAxis mode: Wavelengths
Number of Pixels in Spectrum: 2048
>>>>>Begin Spectral Data<<<<<
177.721	-306.59
178.105	725
178.488	-32.7
178.871	-39.47
179.254	-100
179.636	-45.99
180.019	-98.76
180.402	650
180.785	-121.62
181.168	184.46
181.55	199.01
181.933	114.08
182.316	95.02
182.698	43.32
183.081	54.77
183.463	100
183.846	94.65
184.228	155.21
184.611	213.48
184.993	357.14
185.376	215.11
185.758	172.07
186.14	213.04
186.522	797.67
186.904	-700
187.287	-757.14
187.669	-1900
188.051	1235.14
188.433	444.83
188.815	165.36
189.197	942.11
189.579	-1233.33
189.961	-375.41
190.342	-192.04
190.724	-219.15
191.106	-1381.48
191.488	-383.87
191.869	-165.73
192.251	-91.39
192.633	-55.02
193.014	-7.61
193.396	-44.36
193.777	-46.17
194.159	-31.29
194.54	-18.5
194.922	-36.87
195.303	-34.51
195.684	-9.35
196.065	-10.96
196.447	-17.09
196.828	-20.05
197.209	-17.43
197.59	-1.99
197.971	-16.36
198.352	-23.52
198.733	-22.81
199.114	-10.77
199.495	-9.35
199.876	-36.61
200.257	-48.82
200.638	-64.93
201.018	-96.22
201.399	-56.82
201.78	-66.25
202.16	-87.34
202.541	-90.84
202.922	-83.22
203.302	-130.13
203.683	-226.83
204.063	-746.15
204.444	-467.01
204.824	-275.76
205.204	-187.67
205.585	-279.08
205.965	-289.38
206.345	-107.12
206.725	-54.18
207.106	-43.4
207.486	-21.9
207.866	-22.16
208.246	0.52
208.626	-15.3
209.006	6.47
209.386	13.54
209.766	27.06
210.145	34.92
210.525	42.47
210.905	81.87
211.285	66.75
211.664	93.68
212.044	90.33
212.424	88.95
212.803	87.21
213.183	82.8
213.562	108.6
213.942	97.87
214.321	113.44
214.701	151.49
215.08	173.48
215.459	128.82
215.838	151.55
216.218	167.87
216.597	162.27
216.976	120.76
217.355	83.47
217.734	43.89
218.113	65.52
218.492	56.52
218.871	53.68
219.25	58.25
219.629	46.73
220.008	41.84
220.387	36.94
220.766	51.59
221.144	69.41
221.523	34.13
221.902	58.58
222.28	51.35
222.659	57.22
223.037	40.61
223.416	31.13
223.794	30.05
224.173	17.4
224.551	21.32
224.929	13.96
225.308	7.08
225.686	13.01
226.064	5.7
226.442	7.59
226.821	5.92
227.199	3.77
227.577	3.06
227.955	0.76
228.333	-0.83
228.711	-4.1
229.089	-6.03
229.467	-4.14
229.845	-6.78
230.222	-8.32
230.6	-7.5
230.978	-4.21
231.356	-0.42
231.733	0.72
232.111	4.66
232.488	4.58
232.866	4.26
233.243	5.37
233.621	8.11
233.998	6.27
234.376	6.81
234.753	8.27
235.13	7.34
235.508	6.44
235.885	7.06
236.262	8.32
236.639	8.51
237.016	7.08
237.393	8.59
237.77	7.89
238.147	7.43
238.524	6.42
238.901	5.04
239.278	3.92
239.655	4.16
240.032	3.41
240.409	3.29
240.785	3.68
241.162	3.8
241.539	3.49
241.915	3.61
242.292	3.18
242.668	2.79
243.045	3.21
243.421	3.32
243.798	3.7
244.174	3.2
244.551	3.13
244.927	3.28
245.303	2.75
245.679	2.77
246.056	2.7
246.432	2.73
246.808	2.87
247.184	2.98
247.56	2.56
247.936	2.74
248.312	2.94
248.688	3.05
249.064	3.06
249.44	2.87
249.815	2.63
250.191	2.68
250.567	2.7
250.943	2.65
251.318	2.45
251.694	2.12
252.069	2.25
252.445	2.46
252.82	2.56
253.196	2.8
253.571	2.81
253.947	3.21
254.322	3.04
254.697	3.1
255.073	2.88
255.448	3.12
255.823	2.93
256.198	2.39
256.573	2.32
256.948	2.22
257.323	2.31
257.698	2.61
258.073	2.41
258.448	2.49
258.823	2.27
259.198	2.55
259.573	2.4
259.948	2.54
260.322	2.27
260.697	2.38
261.072	2.43
261.446	2.31
261.821	2.31
262.195	2.36
262.57	2.48
262.944	2.57
263.319	2.75
263.693	2.71
264.067	3
264.442	2.89
264.816	3.12
265.19	3.15
265.564	3.2
265.938	3.41
266.313	3.08
266.687	3.17
267.061	3.23
267.435	3.57
267.809	3.18
268.183	3.23
268.556	2.96
268.93	2.74
269.304	2.77
269.678	2.75
270.051	2.83
270.425	2.7
270.799	2.56
271.172	2.37
271.546	2.34
271.919	2.23
272.293	2.28
272.666	2.23
273.04	2.21
273.413	2.11
273.787	1.96
274.16	2.02
274.533	2.16
274.906	1.94
275.279	1.81
275.653	2.02
276.026	2.03
276.399	2.13
276.772	2.32
277.145	2.43
277.518	2.26
277.891	2.18
278.263	1.94
278.636	2.1
279.009	2.2
279.382	2.23
279.755	2.15
280.127	2.14
280.5	2.13
280.872	2.12
281.245	2.12
281.617	2.3
281.99	2.55
282.362	2.46
282.735	2.52
283.107	2.51
283.479	2.55
283.852	2.65
284.224	2.77
284.596	2.74
284.968	2.7
285.34	2.77
285.713	2.82
286.085	2.98
286.457	2.99
286.829	2.85
287.201	2.89
287.572	2.93
287.944	3.07
288.316	2.96
288.688	3.05
289.06	3.15
289.431	3.16
289.803	3.09
290.175	3.04
290.546	2.95
290.918	2.96
291.289	2.79
291.661	2.65
292.032	2.49
292.403	2.56
292.775	2.76
293.146	2.78
293.517	2.61
293.889	2.63
294.26	2.54
294.631	2.61
295.002	2.72
295.373	2.67
295.744	2.55
296.115	2.68
296.486	2.67
296.857	2.66
297.228	2.68
297.599	2.71
297.97	2.82
298.34	2.99
298.711	2.98
299.082	3.1
299.452	3.17
299.823	3.23
300.194	3.35
300.564	3.14
300.935	3.25
301.305	3.38
301.676	3.22
302.046	3.15
302.416	3.15
302.787	3.05
303.157	3.17
303.527	3.27
303.897	2.99
304.267	3.06
304.637	3.18
305.008	3.1
305.378	3.19
305.748	3.11
306.117	3.12
306.487	3.13
306.857	3.15
307.227	3.45
307.597	3.49
307.967	3.19
308.336	3.23
308.706	3.26
309.076	3.34
309.445	3.61
309.815	3.78
310.184	3.65
310.554	3.59
310.923	3.63
311.293	3.75
311.662	3.98
312.031	3.93
312.401	3.87
312.77	3.77
313.139	3.74
313.508	3.72
313.877	3.77
314.246	3.72
314.616	3.79
314.985	3.57
315.353	3.51
315.722	3.83
316.091	3.84
316.46	3.83
316.829	3.74
317.198	3.7
317.567	3.83
317.935	3.92
318.304	4.12
318.672	4.04
319.041	3.95
319.41	3.89
319.778	3.9
320.147	3.92
320.515	3.99
320.883	3.98
321.252	3.98
321.62	3.95
321.988	4.13
322.357	4.05
322.725	4.14
323.093	4.04
323.461	3.9
323.829	3.97
324.197	3.86
324.565	3.96
324.933	3.93
325.301	3.7
325.669	3.98
326.037	4.03
326.405	4.16
326.772	4.15
327.14	4.27
327.508	4.23
327.875	4.28
328.243	4.27
328.61	4.26
328.978	4.29
329.346	4.32
329.713	4.32
330.08	4.47
330.448	4.35
330.815	4.45
331.182	4.34
331.55	4.38
331.917	4.38
332.284	4.49
332.651	4.55
333.018	4.64
333.385	4.46
333.752	4.46
334.119	4.51
334.486	4.56
334.853	4.61
335.22	4.74
335.587	4.55
335.954	4.75
336.32	4.79
336.687	4.88
337.054	4.9
337.42	4.84
337.787	4.75
338.153	4.86
338.52	4.98
338.886	5.13
339.253	5.08
339.619	5.13
339.986	5.03
340.352	5.11
340.718	5.02
341.084	5.08
341.451	5.03
341.817	4.92
342.183	4.97
342.549	4.85
342.915	4.92
343.281	5.06
343.647	4.97
344.013	5.04
344.379	5.03
344.745	5.02
345.11	5.1
345.476	5.15
345.842	5.09
346.208	5.08
346.573	5
346.939	5.06
347.304	5.06
347.67	4.99
348.035	4.91
348.401	5.07
348.766	5.05
349.132	5.03
349.497	5.06
349.862	4.94
350.228	5.01
350.593	4.84
350.958	4.95
351.323	4.96
351.688	4.79
352.053	4.77
352.418	4.83
352.783	4.74
353.148	4.66
353.513	4.68
353.878	4.61
354.243	4.57
354.608	4.55
354.972	4.52
355.337	4.58
355.702	4.47
356.066	4.46
356.431	4.42
356.795	4.47
357.16	4.41
357.524	4.42
357.889	4.43
358.253	4.43
358.618	4.38
358.982	4.3
359.346	4.3
359.71	4.31
360.075	4.25
360.439	4.29
360.803	4.35
361.167	4.34
361.531	4.39
361.895	4.41
362.259	4.42
362.623	4.42
362.987	4.41
363.351	4.39
363.714	4.35
364.078	4.37
364.442	4.31
364.806	4.3
365.169	4.3
365.533	4.22
365.896	4.28
366.26	4.19
366.623	4.23
366.987	4.26
367.35	4.19
367.714	4.19
368.077	4.12
368.44	4.06
368.803	4.07
369.167	4.01
369.53	4.03
369.893	3.97
370.256	3.84
370.619	3.76
370.982	3.79
371.345	3.74
371.708	3.72
372.071	3.71
372.434	3.72
372.797	3.72
373.159	3.75
373.522	3.71
373.885	3.78
374.247	3.71
374.61	3.73
374.973	3.7
375.335	3.73
375.698	3.71
376.06	3.71
376.423	3.7
376.785	3.75
377.147	3.74
377.51	3.72
377.872	3.85
378.234	3.9
378.596	3.87
378.958	3.86
379.321	3.87
379.683	3.9
380.045	3.9
380.407	3.9
380.769	3.85
381.13	3.75
381.492	3.73
381.854	3.75
382.216	3.7
382.578	3.71
382.939	3.64
383.301	3.63
383.663	3.61
384.024	3.53
384.386	3.48
384.747	3.45
385.109	3.5
385.47	3.44
385.832	3.34
386.193	3.32
386.554	3.26
386.916	3.22
387.277	3.13
387.638	3.1
387.999	3.07
388.36	3.06
388.721	3.08
389.082	3.03
389.443	3.03
389.804	3.05
390.165	3.05
390.526	3.02
390.887	3
391.248	3.02
391.609	3.01
391.969	2.98
392.33	2.91
392.691	2.87
393.051	2.84
393.412	2.87
393.772	2.86
394.133	2.89
394.493	2.84
394.854	2.9
395.214	2.93
395.574	2.89
395.935	2.86
396.295	2.86
396.655	2.87
397.015	2.86
397.376	2.81
397.736	2.78
398.096	2.77
398.456	2.74
398.816	2.72
399.176	2.7
399.535	2.66
399.895	2.7
400.255	2.67
400.615	2.7
400.975	2.66
401.334	2.67
401.694	2.67
402.054	2.68
402.413	2.62
402.773	2.52
403.132	2.57
403.492	2.59
403.851	2.61
404.211	2.6
404.57	2.59
404.929	2.58
405.288	2.61
405.648	2.63
406.007	2.65
406.366	2.61
406.725	2.62
407.084	2.64
407.443	2.63
407.802	2.6
408.161	2.61
408.52	2.64
408.879	2.63
409.238	2.65
409.596	2.65
409.955	2.68
410.314	2.72
410.673	2.68
411.031	2.67
411.39	2.64
411.748	2.64
412.107	2.6
412.465	2.6
412.824	2.55
413.182	2.54
413.54	2.54
413.899	2.56
414.257	2.59
414.615	2.56
414.974	2.57
415.332	2.59
415.69	2.56
416.048	2.55
416.406	2.54
416.764	2.49
417.122	2.5
417.48	2.48
417.838	2.48
418.195	2.47
418.553	2.47
418.911	2.46
419.269	2.45
419.626	2.46
419.984	2.45
420.342	2.46
420.699	2.45
421.057	2.44
421.414	2.43
421.772	2.41
422.129	2.41
422.486	2.39
422.844	2.38
423.201	2.38
423.558	2.36
423.915	2.37
424.273	2.39
424.63	2.37
424.987	2.36
425.344	2.35
425.701	2.35
426.058	2.35
426.415	2.35
426.772	2.35
427.128	2.35
427.485	2.37
427.842	2.34
428.199	2.34
428.555	2.32
428.912	2.32
429.269	2.32
429.625	2.33
429.982	2.34
430.338	2.34
430.695	2.32
431.051	2.34
431.407	2.32
431.764	2.31
432.12	2.33
432.476	2.33
432.832	2.33
433.189	2.32
433.545	2.32
433.901	2.33
434.257	2.3
434.613	2.31
434.969	2.31
435.325	2.34
435.681	2.34
436.036	2.34
436.392	2.33
436.748	2.35
437.104	2.36
437.459	2.36
437.815	2.37
438.171	2.4
438.526	2.39
438.882	2.39
439.237	2.38
439.593	2.38
439.948	2.39
440.304	2.4
440.659	2.41
441.014	2.39
441.369	2.39
441.725	2.38
442.08	2.37
442.435	2.36
442.79	2.34
443.145	2.34
443.5	2.32
443.855	2.32
444.21	2.3
444.565	2.29
444.92	2.27
445.275	2.26
445.629	2.24
445.984	2.24
446.339	2.24
446.693	2.25
447.048	2.23
447.403	2.21
447.757	2.2
448.112	2.19
448.466	2.2
448.82	2.2
449.175	2.21
449.529	2.2
449.883	2.19
450.238	2.19
450.592	2.2
450.946	2.22
451.3	2.24
451.654	2.24
452.008	2.22
452.362	2.21
452.716	2.24
453.07	2.23
453.424	2.23
453.778	2.22
454.132	2.2
454.486	2.23
454.839	2.23
455.193	2.25
455.547	2.25
455.9	2.25
456.254	2.24
456.607	2.25
456.961	2.25
457.314	2.26
457.668	2.26
458.021	2.25
458.375	2.24
458.728	2.22
459.081	2.23
459.434	2.25
459.787	2.27
460.141	2.24
460.494	2.26
460.847	2.27
461.2	2.29
461.553	2.29
461.906	2.3
462.259	2.28
462.611	2.28
462.964	2.28
463.317	2.27
463.67	2.27
464.022	2.27
464.375	2.28
464.728	2.29
465.08	2.3
465.433	2.3
465.785	2.33
466.138	2.34
466.49	2.33
466.843	2.33
467.195	2.34
467.547	2.35
467.899	2.35
468.252	2.35
468.604	2.34
468.956	2.35
469.308	2.34
469.66	2.37
470.012	2.37
470.364	2.38
470.716	2.37
471.068	2.36
471.42	2.35
471.772	2.37
472.123	2.36
472.475	2.36
472.827	2.38
473.178	2.35
473.53	2.38
473.882	2.37
474.233	2.38
474.585	2.37
474.936	2.36
475.288	2.36
475.639	2.34
475.99	2.33
476.342	2.34
476.693	2.33
477.044	2.34
477.395	2.32
477.746	2.32
478.097	2.34
478.448	2.35
478.8	2.33
479.15	2.29
479.501	2.28
479.852	2.28
480.203	2.27
480.554	2.26
480.905	2.24
481.255	2.24
481.606	2.23
481.957	2.24
482.307	2.24
482.658	2.25
483.009	2.24
483.359	2.24
483.709	2.24
484.06	2.25
484.41	2.25
484.761	2.26
485.111	2.27
485.461	2.26
485.811	2.25
486.162	2.27
486.512	2.28
486.862	2.29
487.212	2.29
487.562	2.29
487.912	2.31
488.262	2.31
488.612	2.31
488.961	2.33
489.311	2.33
489.661	2.33
490.011	2.33
490.36	2.35
490.71	2.36
491.06	2.36
491.409	2.36
491.759	2.37
492.108	2.37
492.458	2.37
492.807	2.37
493.157	2.39
493.506	2.38
493.855	2.38
494.204	2.38
494.554	2.39
494.903	2.41
495.252	2.41
495.601	2.43
495.95	2.44
496.299	2.43
496.648	2.45
496.997	2.46
497.346	2.47
497.695	2.49
498.043	2.5
498.392	2.52
498.741	2.54
499.09	2.55
499.438	2.59
499.787	2.6
500.135	2.63
500.484	2.64
500.832	2.65
501.181	2.7
501.529	2.74
501.878	2.75
502.226	2.74
502.574	2.77
502.923	2.77
503.271	2.8
503.619	2.84
503.967	2.85
504.315	2.9
504.663	2.9
505.011	2.92
505.359	2.93
505.707	2.94
506.055	2.95
506.403	2.96
506.751	2.96
507.098	2.99
507.446	3.01
507.794	3.03
508.141	3.09
508.489	3.11
508.837	3.13
509.184	3.14
509.531	3.18
509.879	3.19
510.226	3.21
510.574	3.24
510.921	3.26
511.268	3.28
511.616	3.29
511.963	3.34
512.31	3.37
512.657	3.39
513.004	3.41
513.351	3.46
513.698	3.49
514.045	3.55
514.392	3.6
514.739	3.61
515.086	3.67
515.432	3.66
515.779	3.67
516.126	3.72
516.473	3.77
516.819	3.79
517.166	3.85
517.512	3.87
517.859	3.91
518.205	3.92
518.552	3.96
518.898	3.99
519.245	4.01
519.591	4.03
519.937	4.08
520.283	4.13
520.629	4.16
520.976	4.22
521.322	4.25
521.668	4.27
522.014	4.33
522.36	4.35
522.706	4.42
523.052	4.49
523.398	4.53
523.743	4.6
524.089	4.67
524.435	4.72
524.781	4.78
525.126	4.84
525.472	4.9
525.817	4.95
526.163	5.03
526.509	5.09
526.854	5.13
527.199	5.17
527.545	5.2
527.89	5.25
528.235	5.28
528.581	5.32
528.926	5.37
529.271	5.43
529.616	5.48
529.961	5.54
530.306	5.59
530.651	5.65
530.996	5.72
531.341	5.79
531.686	5.86
532.031	5.95
532.376	6.03
532.721	6.12
533.065	6.21
533.41	6.28
533.755	6.35
534.099	6.44
534.444	6.53
534.788	6.64
535.133	6.74
535.477	6.84
535.822	6.97
536.166	7.09
536.51	7.2
536.855	7.33
537.199	7.47
537.543	7.61
537.887	7.75
538.231	7.87
538.576	8
538.92	8.14
539.264	8.29
539.608	8.4
539.951	8.49
540.295	8.62
540.639	8.74
540.983	8.88
541.327	9.02
541.671	9.14
542.014	9.24
542.358	9.36
542.701	9.48
543.045	9.6
543.389	9.74
543.732	9.88
544.075	10.03
544.419	10.17
544.762	10.32
545.105	10.5
545.449	10.66
545.792	10.84
546.135	11.02
546.478	11.21
546.821	11.43
547.165	11.68
547.508	11.89
547.851	12.1
548.194	12.3
548.536	12.54
548.879	12.79
549.222	13.04
549.565	13.27
549.908	13.52
550.25	13.78
550.593	14
550.936	14.27
551.278	14.54
551.621	14.78
551.963	15.06
552.306	15.31
552.648	15.55
552.991	15.81
553.333	16.07
553.675	16.3
554.017	16.5
554.36	16.71
554.702	16.95
555.044	17.2
555.386	17.48
555.728	17.74
556.07	17.96
556.412	18.18
556.754	18.45
557.096	18.69
557.438	18.94
557.78	19.22
558.121	19.46
558.463	19.69
558.805	19.99
559.147	20.23
559.488	20.45
559.83	20.77
560.171	21.06
560.513	21.37
560.854	21.66
561.196	21.94
561.537	22.27
561.878	22.53
562.22	22.74
562.561	23
562.902	23.21
563.243	23.5
563.584	23.8
563.925	24.02
564.266	24.27
564.607	24.53
564.948	24.75
565.289	25.04
565.63	25.24
565.971	25.47
566.312	25.7
566.653	25.93
566.993	26.14
567.334	26.38
567.675	26.59
568.015	26.85
568.356	27.1
568.696	27.27
569.037	27.47
569.377	27.7
569.718	27.94
570.058	28.17
570.398	28.39
570.739	28.57
571.079	28.81
571.419	29.03
571.759	29.22
572.099	29.45
572.439	29.6
572.779	29.87
573.119	30.07
573.459	30.29
573.799	30.46
574.139	30.63
574.479	30.82
574.819	30.98
575.158	31.09
575.498	31.27
575.838	31.51
576.177	31.77
576.517	32.05
576.856	32.24
577.196	32.46
577.535	32.71
577.875	32.99
578.214	33.2
578.553	33.45
578.893	33.68
579.232	33.88
579.571	34.14
579.91	34.28
580.25	34.48
580.589	34.67
580.928	34.91
581.267	35.13
581.606	35.32
581.945	35.59
582.283	35.87
582.622	36.01
582.961	36.3
583.3	36.51
583.639	36.65
583.977	36.81
584.316	36.97
584.654	37.12
584.993	37.33
585.332	37.56
585.67	37.7
586.008	37.87
586.347	38.04
586.685	38.13
587.024	38.31
587.362	38.45
587.7	38.64
588.038	38.84
588.376	38.96
588.715	39.04
589.053	39.1
589.391	39.15
589.729	39.34
590.067	39.34
590.404	39.46
590.742	39.58
591.08	39.72
591.418	39.8
591.756	39.85
592.093	39.85
592.431	39.83
592.769	39.92
593.106	39.99
593.444	40.07
593.781	40.14
594.119	40.21
594.456	40.27
594.793	40.29
595.131	40.36
595.468	40.49
595.805	40.59
596.143	40.67
596.48	40.82
596.817	40.88
597.154	40.99
597.491	41.03
597.828	41.16
598.165	41.29
598.502	41.36
598.839	41.4
599.176	41.59
599.512	41.76
599.849	41.79
600.186	41.86
600.523	41.98
600.859	42.12
601.196	42.24
601.532	42.35
601.869	42.42
602.205	42.43
602.542	42.47
602.878	42.52
603.215	42.57
603.551	42.62
603.887	42.73
604.223	42.7
604.56	42.73
604.896	42.75
605.232	42.77
605.568	42.88
605.904	43
606.24	43.02
606.576	43.07
606.912	43.23
607.248	43.36
607.583	43.39
607.919	43.48
608.255	43.59
608.591	43.74
608.926	43.91
609.262	44.05
609.597	44.19
609.933	44.33
610.268	44.41
610.604	44.46
610.939	44.54
611.275	44.71
611.61	44.86
611.945	44.93
612.281	45.11
612.616	45.25
612.951	45.39
613.286	45.5
613.621	45.66
613.956	45.76
614.291	45.87
614.626	46
614.961	46.06
615.296	46.22
615.631	46.21
615.966	46.21
616.3	46.28
616.635	46.37
616.97	46.48
617.304	46.6
617.639	46.68
617.973	46.76
618.308	46.89
618.642	46.82
618.977	46.94
619.311	46.84
619.646	46.9
619.98	46.92
620.314	46.9
620.648	46.83
620.983	46.82
621.317	46.97
621.651	47.06
621.985	47.17
622.319	47.05
622.653	47.1
622.987	47.11
623.321	47.13
623.655	47.15
623.988	47.06
624.322	47.01
624.656	46.99
624.99	46.93
625.323	46.9
625.657	47
625.99	47.01
626.324	47.1
626.657	47.12
626.991	47.11
627.324	47.09
627.658	47.12
627.991	47.23
628.324	47.14
628.657	47.16
628.991	47.12
629.324	47.16
629.657	47.14
629.99	47.31
630.323	47.38
630.656	47.32
630.989	47.51
631.322	47.6
631.655	47.71
631.987	47.75
632.32	47.9
632.653	47.96
632.986	48.05
633.318	48.09
633.651	48.01
633.984	48.11
634.316	48.31
634.649	48.45
634.981	48.44
635.313	48.55
635.646	48.6
635.978	48.67
636.31	48.8
636.643	48.99
636.975	49.01
637.307	49.04
637.639	49.13
637.971	49.11
638.303	49.18
638.635	49.14
638.967	49.22
639.299	49.15
639.631	49.2
639.963	49.28
640.295	49.4
640.626	49.64
640.958	49.66
641.29	49.69
641.621	49.78
641.953	49.82
642.285	49.84
642.616	49.84
642.948	49.94
643.279	49.93
643.61	49.82
643.942	49.88
644.273	49.88
644.604	49.91
644.936	49.98
645.267	50.09
645.598	50.19
645.929	50.21
646.26	50.27
646.591	50.31
646.922	50.29
647.253	50.2
647.584	50.14
647.915	50.19
648.245	50.18
648.576	50.08
648.907	50.2
649.238	50.16
649.568	50.27
649.899	50.34
650.229	50.42
650.56	50.43
650.89	50.36
651.221	50.36
651.551	50.41
651.882	50.32
652.212	50.32
652.542	50.4
652.872	50.45
653.203	50.38
653.533	50.28
653.863	50.16
654.193	50.2
654.523	50.22
654.853	50.19
655.183	50.07
655.513	50.03
655.843	49.95
656.172	49.84
656.502	49.8
656.832	49.6
657.162	49.49
657.491	49.51
657.821	49.54
658.15	49.53
658.48	49.54
658.809	49.56
659.139	49.41
659.468	49.28
659.798	49.25
660.127	49.35
660.456	49.46
660.785	49.58
661.115	49.53
661.444	49.58
661.773	49.64
662.102	49.73
662.431	49.86
662.76	49.92
663.089	50.16
663.418	50.19
663.747	50.28
664.076	50.45
664.404	50.56
664.733	50.58
665.062	50.74
665.39	50.92
665.719	51.07
666.048	51.23
666.376	51.32
666.705	51.44
667.033	51.34
667.362	51.32
667.69	51.25
668.018	51.39
668.347	51.21
668.675	51.16
669.003	51.04
669.331	51.04
