Data from BA35141_Reflection_00002.txt Node
Date: Tue Nov 19 11:54:31 EST 2019
User: vgr7
Spectrometer: USB2G7710
Scans to average: 3
Trigger mode: 4
Integration Time (sec): 2.000000E-2
Electric dark correction enabled: true
Boxcar width: 10
XAxis mode: Wavelengths
Number of Pixels in Spectrum: 2048
>>>>>Begin Spectral Data<<<<<
177.721	186.08
178.105	-1733.33
178.488	-80.88
178.871	-56.14
179.254	-2.9
179.636	13.63
180.019	-103.93
180.402	300
180.785	-12.61
181.168	109.01
181.55	197.36
181.933	136.78
182.316	129.02
182.698	103.37
183.081	84.09
183.463	144.53
183.846	109.8
184.228	37.63
184.611	-14.66
184.993	-25.4
185.376	-23.5
185.758	26.43
186.14	89.86
186.522	96.12
186.904	12.12
187.287	7.41
187.669	186.67
188.051	41.44
188.433	-28.35
188.815	-38.34
189.197	-435.09
189.579	441.27
189.961	348.63
190.342	136.87
190.724	23.17
191.106	-116.05
191.488	37.28
191.869	45.22
192.251	33.81
192.633	-5.88
193.014	11.2
193.396	-28.17
193.777	-22.58
194.159	4.08
194.54	27.58
194.922	18.69
195.303	40.12
195.684	21.02
196.065	12.27
196.447	14.09
196.828	14.64
197.209	24.8
197.59	31.03
197.971	15.66
198.352	25.32
198.733	44.44
199.114	31.97
199.495	33.7
199.876	32.91
200.257	11.37
200.638	2.23
201.018	-10.72
201.399	27.02
201.78	21.01
202.16	-21.1
202.541	-39.53
202.922	-40.91
203.302	-104.32
203.683	-89.43
204.063	-205.13
204.444	-114.78
204.824	-62.63
205.204	-31.66
205.585	-49.24
205.965	-66.67
206.345	-28.91
206.725	1.86
207.106	10.45
207.486	29.84
207.866	32.23
208.246	53.17
208.626	64.89
209.006	78.82
209.386	74.54
209.766	55.69
210.145	67.82
210.525	64.84
210.905	97.48
211.285	71.89
211.664	58.25
212.044	44.23
212.424	52.42
212.803	36.39
213.183	48.75
213.562	50.9
213.942	72.64
214.321	60.01
214.701	8.31
215.08	30.24
215.459	16.91
215.838	-5.96
216.218	-44.04
216.597	-16.61
216.976	-41.29
217.355	-12.49
217.734	-28.16
218.113	-24.23
218.492	-9.46
218.871	-7.02
219.25	-4.04
219.629	-6.13
220.008	-1
220.387	-6.01
220.766	8.46
221.144	-1.02
221.523	-3.46
221.902	-2.24
222.28	22.82
222.659	61.08
223.037	45.69
223.416	27.37
223.794	20.4
224.173	11.67
224.551	16.9
224.929	19.37
225.308	5.51
225.686	10.83
226.064	8.87
226.442	8.36
226.821	2.28
227.199	0.49
227.577	6.77
227.955	8.44
228.333	3.64
228.711	2.1
229.089	1.31
229.467	1.55
229.845	0.1
230.222	2.09
230.6	1.54
230.978	2.05
231.356	0.6
231.733	3.9
232.111	6.52
232.488	5.5
232.866	6.19
233.243	9.02
233.621	8.39
233.998	5.6
234.376	5.94
234.753	4.56
235.13	4.97
235.508	2.91
235.885	3.47
236.262	5.25
236.639	5.81
237.016	5.17
237.393	6.33
237.77	6.29
238.147	4.35
238.524	3.5
238.901	3.59
239.278	4.14
239.655	4.46
240.032	2.89
240.409	2.07
240.785	2.46
241.162	2.07
241.539	2.35
241.915	2.72
242.292	2.89
242.668	3.41
243.045	3.42
243.421	3.84
243.798	3.84
244.174	3.48
244.551	3.51
244.927	3.67
245.303	3.47
245.679	3.43
246.056	3.53
246.432	3.42
246.808	3.49
247.184	3.67
247.56	3.44
247.936	3.99
248.312	4.26
248.688	4.15
249.064	4.15
249.44	4.09
249.815	4.26
250.191	4.17
250.567	4.24
250.943	4.26
251.318	3.93
251.694	3.81
252.069	3.86
252.445	3.68
252.82	3.48
253.196	3.56
253.571	3.53
253.947	3.49
254.322	3.61
254.697	3.67
255.073	3.41
255.448	3.25
255.823	2.93
256.198	3.17
256.573	3.21
256.948	3.28
257.323	3.5
257.698	3.69
258.073	3.58
258.448	3.79
258.823	3.72
259.198	3.71
259.573	3.73
259.948	3.98
260.322	4.05
260.697	4.15
261.072	4.21
261.446	4.2
261.821	4.04
262.195	4
262.57	3.92
262.944	3.92
263.319	4.06
263.693	4.21
264.067	3.99
264.442	4
264.816	4.22
265.19	4.08
265.564	3.88
265.938	4.08
266.313	3.71
266.687	3.63
267.061	3.78
267.435	3.79
267.809	3.42
268.183	3.31
268.556	3.29
268.93	3.34
269.304	3.41
269.678	3.55
270.051	3.85
270.425	3.88
270.799	3.94
271.172	3.9
271.546	3.76
271.919	3.79
272.293	3.77
272.666	3.71
273.04	3.77
273.413	3.88
273.787	3.71
274.16	3.73
274.533	3.97
274.906	3.96
275.279	3.85
275.653	3.93
276.026	4.17
276.399	4.09
276.772	3.82
277.145	3.82
277.518	3.68
277.891	3.53
278.263	3.72
278.636	3.8
279.009	3.84
279.382	4.02
279.755	4.2
280.127	4.08
280.5	4.03
280.872	3.89
281.245	3.9
281.617	4.1
281.99	4.12
282.362	3.97
282.735	4.03
283.107	4.02
283.479	4.19
283.852	4.09
284.224	4.26
284.596	4.27
284.968	4.05
285.34	4.16
285.713	4.09
286.085	3.85
286.457	3.69
286.829	3.7
287.201	3.56
287.572	3.54
287.944	3.71
288.316	3.64
288.688	3.77
289.06	3.74
289.431	3.74
289.803	3.74
290.175	3.83
290.546	3.6
290.918	3.71
291.289	3.51
291.661	3.55
292.032	3.53
292.403	3.75
292.775	3.85
293.146	3.93
293.517	3.89
293.889	3.94
294.26	3.97
294.631	3.92
295.002	4.02
295.373	3.93
295.744	3.77
296.115	3.75
296.486	3.77
296.857	3.88
297.228	3.77
297.599	3.67
297.97	3.71
298.34	3.81
298.711	3.81
299.082	3.88
299.452	3.68
299.823	3.48
300.194	3.48
300.564	3.47
300.935	3.54
301.305	3.6
301.676	3.62
302.046	3.6
302.416	3.62
302.787	3.59
303.157	3.51
303.527	3.76
303.897	3.79
304.267	3.7
304.637	3.55
305.008	3.67
305.378	3.78
305.748	3.51
306.117	3.65
306.487	3.69
306.857	3.76
307.227	4.11
307.597	4.28
307.967	4.01
308.336	3.98
308.706	3.84
309.076	3.96
309.445	4.05
309.815	4.12
310.184	4.04
310.554	3.99
310.923	3.85
311.293	3.76
311.662	3.69
312.031	3.64
312.401	3.65
312.77	3.49
313.139	3.54
313.508	3.71
313.877	3.61
314.246	3.54
314.616	3.6
314.985	3.37
315.353	3.38
315.722	3.68
316.091	3.86
316.46	3.86
316.829	3.75
317.198	3.67
317.567	3.96
317.935	3.97
318.304	4.15
318.672	4.49
319.041	4.56
319.41	4.56
319.778	4.85
320.147	4.8
320.515	5.01
320.883	4.87
321.252	4.85
321.62	4.91
321.988	4.88
322.357	4.77
322.725	4.98
323.093	4.94
323.461	4.86
323.829	4.77
324.197	4.75
324.565	4.72
324.933	4.69
325.301	4.37
325.669	4.44
326.037	4.39
326.405	4.35
326.772	4.47
327.14	4.57
327.508	4.3
327.875	4.32
328.243	4.23
328.61	4.34
328.978	4.35
329.346	4.16
329.713	4.21
330.08	4.22
330.448	4.21
330.815	4.24
331.182	4.23
331.55	4.12
331.917	4.12
332.284	4.02
332.651	4.02
333.018	3.99
333.385	3.97
333.752	3.9
334.119	3.91
334.486	3.74
334.853	3.76
335.22	3.79
335.587	3.65
335.954	3.66
336.32	3.5
336.687	3.49
337.054	3.68
337.42	3.72
337.787	3.61
338.153	3.47
338.52	3.47
338.886	3.32
339.253	3.42
339.619	3.46
339.986	3.47
340.352	3.42
340.718	3.55
341.084	3.59
341.451	3.66
341.817	3.66
342.183	3.66
342.549	3.65
342.915	3.75
343.281	3.88
343.647	3.97
344.013	4.11
344.379	4.05
344.745	4.09
345.11	3.97
345.476	4.12
345.842	4.14
346.208	4.17
346.573	4.24
346.939	4.23
347.304	4.24
347.67	4.26
348.035	4.28
348.401	4.3
348.766	4.31
349.132	4.35
349.497	4.32
349.862	4.35
350.228	4.34
350.593	4.29
350.958	4.33
351.323	4.14
351.688	4.15
352.053	4.08
352.418	4.03
352.783	4.07
353.148	4.05
353.513	4.11
353.878	4
354.243	3.97
354.608	4.04
354.972	3.93
355.337	4.01
355.702	4
356.066	3.94
356.431	3.91
356.795	3.89
357.16	3.85
357.524	3.86
357.889	3.92
358.253	3.94
358.618	3.96
358.982	4.09
359.346	4.15
359.71	4.26
360.075	4.24
360.439	4.24
360.803	4.27
361.167	4.17
361.531	4.17
361.895	4.21
362.259	4.26
362.623	4.29
362.987	4.19
363.351	4.17
363.714	4.16
364.078	4.17
364.442	4.14
364.806	4.19
365.169	4.21
365.533	4.21
365.896	4.2
366.26	4.1
366.623	4.12
366.987	4.06
367.35	4.02
367.714	3.99
368.077	4.03
368.44	3.92
368.803	4.01
369.167	4.07
369.53	3.95
369.893	3.85
370.256	3.82
370.619	3.92
370.982	3.94
371.345	3.98
371.708	3.93
372.071	3.92
372.434	3.93
372.797	3.84
373.159	3.76
373.522	3.79
373.885	3.89
374.247	3.87
374.61	3.85
374.973	3.85
375.335	3.93
375.698	3.87
376.06	3.9
376.423	3.92
376.785	3.91
377.147	3.98
377.51	3.93
377.872	3.97
378.234	3.96
378.596	3.98
378.958	4.03
379.321	4.07
379.683	4.08
380.045	4.07
380.407	4.06
380.769	4.09
381.13	4.04
381.492	4
381.854	3.96
382.216	3.98
382.578	3.98
382.939	3.95
383.301	3.96
383.663	3.98
384.024	3.94
384.386	3.93
384.747	3.93
385.109	3.98
385.47	4.04
385.832	4
386.193	4.04
386.554	3.98
386.916	4
387.277	3.96
387.638	3.97
387.999	3.93
388.36	3.94
388.721	3.98
389.082	4.02
389.443	3.98
389.804	3.93
390.165	3.93
390.526	3.91
390.887	3.93
391.248	3.92
391.609	3.92
391.969	3.92
392.33	3.91
392.691	3.89
393.051	3.85
393.412	3.88
393.772	3.87
394.133	3.88
394.493	3.83
394.854	3.84
395.214	3.82
395.574	3.86
395.935	3.86
396.295	3.89
396.655	3.83
397.015	3.87
397.376	3.93
397.736	3.94
398.096	3.94
398.456	3.88
398.816	3.88
399.176	3.88
399.535	3.93
399.895	3.93
400.255	4
400.615	3.98
400.975	3.98
401.334	3.99
401.694	4.01
402.054	4.05
402.413	4.06
402.773	4.1
403.132	4.08
403.492	4.11
403.851	4.08
404.211	4.1
404.57	4.09
404.929	4.08
405.288	4.1
405.648	4.13
406.007	4.18
406.366	4.2
406.725	4.17
407.084	4.13
407.443	4.15
407.802	4.08
408.161	4.12
408.52	4.13
408.879	4.13
409.238	4.15
409.596	4.17
409.955	4.17
410.314	4.17
410.673	4.2
411.031	4.2
411.39	4.18
411.748	4.18
412.107	4.17
412.465	4.15
412.824	4.15
413.182	4.13
413.54	4.16
413.899	4.15
414.257	4.18
414.615	4.19
414.974	4.18
415.332	4.19
415.69	4.19
416.048	4.15
416.406	4.14
416.764	4.09
417.122	4.06
417.48	4.05
417.838	4.03
418.195	4.02
418.553	4.01
418.911	4.01
419.269	4.01
419.626	4.03
419.984	4.03
420.342	4.03
420.699	4.02
421.057	3.99
421.414	3.99
421.772	3.98
422.129	3.96
422.486	3.96
422.844	3.96
423.201	3.94
423.558	3.95
423.915	3.95
424.273	3.97
424.63	3.98
424.987	4
425.344	4.01
425.701	4.02
426.058	4.03
426.415	4.05
426.772	4.04
427.128	4.04
427.485	4.05
427.842	4.06
428.199	4.08
428.555	4.11
428.912	4.11
429.269	4.11
429.625	4.11
429.982	4.11
430.338	4.1
430.695	4.11
431.051	4.12
431.407	4.12
431.764	4.11
432.12	4.11
432.476	4.08
432.832	4.08
433.189	4.09
433.545	4.05
433.901	4.05
434.257	4.07
434.613	4.06
434.969	4.03
435.325	4.02
435.681	4.02
436.036	4.02
436.392	4.01
436.748	4.02
437.104	4.02
437.459	4.02
437.815	4.02
438.171	4.03
438.526	4.03
438.882	4.02
439.237	4.03
439.593	4.03
439.948	4.03
440.304	4.03
440.659	4.04
441.014	4.04
441.369	4.03
441.725	4.02
442.08	4.02
442.435	4.05
442.79	4.05
443.145	4.04
443.5	4.04
443.855	4.05
444.21	4.06
444.565	4.06
444.92	4.08
445.275	4.08
445.629	4.08
445.984	4.08
446.339	4.08
446.693	4.09
447.048	4.07
447.403	4.06
447.757	4.06
448.112	4.04
448.466	4.05
448.82	4.07
449.175	4.06
449.529	4.06
449.883	4.06
450.238	4.04
450.592	4.05
450.946	4.04
451.3	4.04
451.654	4.03
452.008	4.04
452.362	4.01
452.716	4.04
453.07	4.04
453.424	4.02
453.778	4.01
454.132	3.99
454.486	3.99
454.839	4.01
455.193	4.04
455.547	4.04
455.9	4.05
456.254	4.02
456.607	4.03
456.961	4.05
457.314	4.03
457.668	4.06
458.021	4.05
458.375	4.06
458.728	4.04
459.081	4.04
459.434	4.03
459.787	4.07
460.141	4.06
460.494	4.06
460.847	4.08
461.2	4.1
461.553	4.11
461.906	4.11
462.259	4.11
462.611	4.1
462.964	4.11
463.317	4.1
463.67	4.13
464.022	4.13
464.375	4.14
464.728	4.15
465.08	4.15
465.433	4.16
465.785	4.17
466.138	4.21
466.49	4.22
466.843	4.24
467.195	4.23
467.547	4.2
467.899	4.21
468.252	4.22
468.604	4.21
468.956	4.2
469.308	4.19
469.66	4.2
470.012	4.18
470.364	4.17
470.716	4.19
471.068	4.18
471.42	4.18
471.772	4.18
472.123	4.19
472.475	4.18
472.827	4.21
473.178	4.19
473.53	4.18
473.882	4.16
474.233	4.13
474.585	4.14
474.936	4.17
475.288	4.15
475.639	4.16
475.99	4.15
476.342	4.15
476.693	4.18
477.044	4.19
477.395	4.22
477.746	4.21
478.097	4.22
478.448	4.22
478.8	4.22
479.15	4.2
479.501	4.2
479.852	4.17
480.203	4.15
480.554	4.16
480.905	4.17
481.255	4.18
481.606	4.2
481.957	4.18
482.307	4.18
482.658	4.17
483.009	4.17
483.359	4.18
483.709	4.19
484.06	4.19
484.41	4.19
484.761	4.19
485.111	4.19
485.461	4.17
485.811	4.16
486.162	4.16
486.512	4.16
486.862	4.16
487.212	4.18
487.562	4.18
487.912	4.17
488.262	4.17
488.612	4.16
488.961	4.16
489.311	4.16
489.661	4.16
490.011	4.16
490.36	4.17
490.71	4.17
491.06	4.17
491.409	4.18
491.759	4.18
492.108	4.17
492.458	4.18
492.807	4.18
493.157	4.2
493.506	4.21
493.855	4.22
494.204	4.22
494.554	4.22
494.903	4.22
495.252	4.25
495.601	4.26
495.95	4.27
496.299	4.3
496.648	4.31
496.997	4.33
497.346	4.36
497.695	4.38
498.043	4.39
498.392	4.37
498.741	4.35
499.09	4.36
499.438	4.4
499.787	4.39
500.135	4.41
500.484	4.4
500.832	4.41
501.181	4.42
501.529	4.46
501.878	4.46
502.226	4.47
502.574	4.46
502.923	4.46
503.271	4.45
503.619	4.44
503.967	4.42
504.315	4.41
504.663	4.39
505.011	4.37
505.359	4.37
505.707	4.39
506.055	4.4
506.403	4.41
506.751	4.39
507.098	4.39
507.446	4.38
507.794	4.4
508.141	4.39
508.489	4.39
508.837	4.38
509.184	4.39
509.531	4.4
509.879	4.42
510.226	4.41
510.574	4.43
510.921	4.41
511.268	4.44
511.616	4.45
511.963	4.48
512.31	4.5
512.657	4.5
513.004	4.5
513.351	4.48
513.698	4.47
514.045	4.48
514.392	4.5
514.739	4.51
515.086	4.5
515.432	4.54
515.779	4.53
516.126	4.53
516.473	4.54
516.819	4.54
517.166	4.53
517.512	4.52
517.859	4.55
518.205	4.53
518.552	4.55
518.898	4.56
519.245	4.54
519.591	4.54
519.937	4.54
520.283	4.54
520.629	4.57
520.976	4.57
521.322	4.56
521.668	4.54
522.014	4.54
522.36	4.53
522.706	4.5
523.052	4.51
523.398	4.49
523.743	4.47
524.089	4.45
524.435	4.45
524.781	4.47
525.126	4.45
525.472	4.47
525.817	4.43
526.163	4.41
526.509	4.4
526.854	4.41
527.199	4.41
527.545	4.41
527.89	4.4
528.235	4.41
528.581	4.42
528.926	4.42
529.271	4.43
529.616	4.44
529.961	4.44
530.306	4.44
530.651	4.45
530.996	4.46
531.341	4.48
531.686	4.49
532.031	4.49
532.376	4.51
532.721	4.51
533.065	4.54
533.41	4.57
533.755	4.58
534.099	4.57
534.444	4.58
534.788	4.58
535.133	4.61
535.477	4.61
535.822	4.6
536.166	4.61
536.51	4.61
536.855	4.6
537.199	4.61
537.543	4.61
537.887	4.63
538.231	4.63
538.576	4.63
538.92	4.63
539.264	4.63
539.608	4.62
539.951	4.61
540.295	4.6
540.639	4.58
540.983	4.59
541.327	4.61
541.671	4.61
542.014	4.6
542.358	4.59
542.701	4.6
543.045	4.61
543.389	4.61
543.732	4.61
544.075	4.62
544.419	4.61
544.762	4.64
545.105	4.63
545.449	4.62
545.792	4.62
546.135	4.63
546.478	4.64
546.821	4.66
547.165	4.68
547.508	4.69
547.851	4.71
548.194	4.71
548.536	4.71
548.879	4.72
549.222	4.74
549.565	4.78
549.908	4.77
550.25	4.78
550.593	4.81
550.936	4.83
551.278	4.81
551.621	4.83
551.963	4.83
552.306	4.86
552.648	4.87
552.991	4.88
553.333	4.89
553.675	4.9
554.017	4.88
554.36	4.91
554.702	4.92
555.044	4.94
555.386	4.96
555.728	4.98
556.07	4.97
556.412	4.97
556.754	4.94
557.096	4.96
557.438	4.95
557.78	4.94
558.121	4.93
558.463	4.96
558.805	5
559.147	5
559.488	4.94
559.83	4.97
560.171	4.96
560.513	4.91
560.854	4.9
561.196	4.93
561.537	4.89
561.878	4.89
562.22	4.87
562.561	4.85
562.902	4.82
563.243	4.84
563.584	4.85
563.925	4.89
564.266	4.85
564.607	4.85
564.948	4.86
565.289	4.88
565.63	4.89
565.971	4.86
566.312	4.85
566.653	4.86
566.993	4.85
567.334	4.88
567.675	4.91
568.015	4.92
568.356	4.9
568.696	4.93
569.037	4.91
569.377	4.9
569.718	4.93
570.058	4.96
570.398	4.94
570.739	4.92
571.079	4.9
571.419	4.92
571.759	4.91
572.099	4.91
572.439	4.9
572.779	4.93
573.119	4.93
573.459	4.92
573.799	4.91
574.139	4.92
574.479	4.9
574.819	4.92
575.158	4.92
575.498	4.91
575.838	4.85
576.177	4.86
576.517	4.86
576.856	4.85
577.196	4.84
577.535	4.86
577.875	4.89
578.214	4.91
578.553	4.9
578.893	4.92
579.232	4.94
579.571	4.97
579.91	4.91
580.25	4.91
580.589	4.94
580.928	4.96
581.267	4.95
581.606	4.94
581.945	4.92
582.283	4.95
582.622	4.93
582.961	4.98
583.3	4.99
583.639	5
583.977	4.99
584.316	4.99
584.654	4.97
584.993	4.99
585.332	5
585.67	5.02
586.008	5.03
586.347	5.02
586.685	5.01
587.024	5.01
587.362	5.02
587.7	5.04
588.038	5.05
588.376	5.07
588.715	5.1
589.053	5.06
589.391	5.05
589.729	5.1
590.067	5.1
590.404	5.18
590.742	5.19
591.08	5.21
591.418	5.24
591.756	5.26
592.093	5.23
592.431	5.2
592.769	5.16
593.106	5.12
593.444	5.14
593.781	5.15
594.119	5.16
594.456	5.17
594.793	5.12
595.131	5.14
595.468	5.13
595.805	5.13
596.143	5.17
596.48	5.15
596.817	5.14
597.154	5.13
597.491	5.11
597.828	5.11
598.165	5.14
598.502	5.07
598.839	5.01
599.176	5.05
599.512	5.05
599.849	5.08
600.186	5.08
600.523	5.04
600.859	5.04
601.196	5.03
601.532	5.04
601.869	5.07
602.205	5.03
602.542	5.05
602.878	5.04
603.215	5.05
603.551	5.08
603.887	5.06
604.223	5.06
604.56	5.01
604.896	5.06
605.232	5.03
605.568	5.06
605.904	5.08
606.24	5.09
606.576	5.14
606.912	5.11
607.248	5.19
607.583	5.24
607.919	5.25
608.255	5.26
608.591	5.28
608.926	5.28
609.262	5.3
609.597	5.33
609.933	5.31
610.268	5.3
610.604	5.24
610.939	5.28
611.275	5.32
611.61	5.34
611.945	5.31
612.281	5.36
612.616	5.39
612.951	5.44
613.286	5.44
613.621	5.43
613.956	5.47
614.291	5.41
614.626	5.38
614.961	5.4
615.296	5.42
615.631	5.46
615.966	5.46
616.3	5.48
616.635	5.45
616.97	5.43
617.304	5.43
617.639	5.51
617.973	5.49
618.308	5.51
618.642	5.45
618.977	5.44
619.311	5.44
619.646	5.41
619.98	5.38
620.314	5.32
620.648	5.22
620.983	5.2
621.317	5.2
621.651	5.26
621.985	5.22
622.319	5.2
622.653	5.17
622.987	5.17
623.321	5.19
623.655	5.22
623.988	5.26
624.322	5.23
624.656	5.26
624.99	5.27
625.323	5.24
625.657	5.32
625.99	5.36
626.324	5.34
626.657	5.33
626.991	5.34
627.324	5.35
627.658	5.48
627.991	5.56
628.324	5.56
628.657	5.5
628.991	5.49
629.324	5.48
629.657	5.43
629.99	5.4
630.323	5.39
630.656	5.38
630.989	5.42
631.322	5.46
631.655	5.43
631.987	5.41
632.32	5.44
632.653	5.39
632.986	5.34
633.318	5.33
633.651	5.33
633.984	5.32
634.316	5.33
634.649	5.22
634.981	5.18
635.313	5.3
635.646	5.33
635.978	5.38
636.31	5.41
636.643	5.46
636.975	5.52
637.307	5.53
637.639	5.51
637.971	5.44
638.303	5.44
638.635	5.44
638.967	5.48
639.299	5.45
639.631	5.52
639.963	5.56
640.295	5.58
640.626	5.59
640.958	5.56
641.29	5.58
641.621	5.62
641.953	5.62
642.285	5.53
642.616	5.51
642.948	5.47
643.279	5.46
643.61	5.4
643.942	5.42
644.273	5.4
644.604	5.41
644.936	5.42
645.267	5.42
645.598	5.45
645.929	5.43
646.26	5.52
646.591	5.53
646.922	5.48
647.253	5.44
647.584	5.46
647.915	5.52
648.245	5.52
648.576	5.5
648.907	5.47
649.238	5.51
649.568	5.53
649.899	5.56
650.229	5.63
650.56	5.67
650.89	5.67
651.221	5.64
651.551	5.73
651.882	5.77
652.212	5.75
652.542	5.8
652.872	5.81
653.203	5.78
653.533	5.76
653.863	5.75
654.193	5.72
654.523	5.71
654.853	5.77
655.183	5.8
655.513	5.86
655.843	5.92
656.172	5.98
656.502	5.98
656.832	5.99
657.162	5.85
657.491	5.85
657.821	5.84
658.15	5.87
658.48	5.81
658.809	5.82
659.139	5.83
659.468	5.73
659.798	5.76
660.127	5.73
660.456	5.71
660.785	5.81
661.115	5.89
661.444	5.9
661.773	5.84
662.102	5.79
662.431	5.76
662.76	5.71
663.089	5.71
663.418	5.7
663.747	5.75
664.076	5.78
664.404	5.9
664.733	5.97
665.062	6.01
665.39	6.03
665.719	6.03
666.048	6.06
666.376	6.15
666.705	6.1
667.033	6.04
667.362	6.05
667.69	6.04
668.018	6.09
668.347	6.09
668.675	6.12
669.003	6.14
669.331	6.19
669.659	6.24
669.987	6.2
670.315	6.15
670.643	6.05
670.971	6.16
671.299	6.08
671.627	6.11
671.955	6.13
672.283	6.07
672.61	6.01
672.938	6.06
673.266	6.05
673.593	6.05
673.921	6.1
674.249	6.19
674.576	6.14
674.904	6.06
675.231	6.06
675.558	5.97
675.886	5.96
676.213	5.93
676.54	6.01
676.867	5.97
677.195	6.08
677.522	6.15
677.849	6.08
678.176	6.12
678.503	5.96
678.83	5.95
679.157	5.93
679.484	5.96
