Data from BA35141_Reflection_00004.txt Node
Date: Tue Nov 19 11:54:35 EST 2019
User: vgr7
Spectrometer: USB2G7710
Scans to average: 3
Trigger mode: 4
Integration Time (sec): 2.000000E-2
Electric dark correction enabled: true
Boxcar width: 10
XAxis mode: Wavelengths
Number of Pixels in Spectrum: 2048
>>>>>Begin Spectral Data<<<<<
177.721	-207.69
178.105	350
178.488	-32.7
178.871	-39.47
179.254	-65.22
179.636	8.76
180.019	13.04
180.402	1450
180.785	186.49
181.168	-89.19
181.55	-58.42
181.933	-3.29
182.316	-44.28
182.698	-61.94
183.081	-75.88
183.463	-159.54
183.846	-60.43
184.228	-126.99
184.611	-148.23
184.993	-309.52
185.376	-252.52
185.758	-269.37
186.14	-178.26
186.522	-411.63
186.904	245.45
187.287	131.75
187.669	1020
188.051	-683.78
188.433	-348.28
188.815	-89.54
189.197	-742.11
189.579	1052.38
189.961	296.72
190.342	197.35
190.724	85.82
191.106	507.41
191.488	110.75
191.869	120.98
192.251	56.94
192.633	20.97
193.014	2.89
193.396	-23.36
193.777	-20.65
194.159	1.53
194.54	6.44
194.922	7.28
195.303	15.04
195.684	1.74
196.065	-6.9
196.447	-18.44
196.828	-16.22
197.209	-22.37
197.59	-37.16
197.971	-36.11
198.352	-60.32
198.733	-78.63
199.114	-77.54
199.495	-75.91
199.876	-82.15
200.257	-74.23
200.638	-81.63
201.018	-103.31
201.399	-40.53
201.78	-26.55
202.16	-36.71
202.541	-52.67
202.922	-43.49
203.302	-92.47
203.683	-109.76
204.063	-315.38
204.444	-54.64
204.824	-9.09
205.204	63.47
205.585	217.65
205.965	285.84
206.345	148.54
206.725	100
207.106	100
207.486	100
207.866	93.02
208.246	93.02
208.626	102.22
209.006	111.99
209.386	88.47
209.766	60
210.145	50.11
210.525	78.08
210.905	72.81
211.285	73.87
211.664	70.53
212.044	74.85
212.424	48.43
212.803	48.83
213.183	16.13
213.562	20.43
213.942	44.56
214.321	40.5
214.701	48.51
215.08	10.54
215.459	36.6
215.838	0.34
216.218	-22.17
216.597	-9.89
216.976	-38.41
217.355	-23.97
217.734	-15.51
218.113	-22.02
218.492	-53.32
218.871	-41.05
219.25	-39.87
219.629	-69.49
220.008	-72.61
220.387	-81.98
220.766	-51.92
221.144	-28.11
221.523	-75.65
221.902	-79.49
222.28	-96.4
222.659	-55.08
223.037	-36.44
223.416	-48.34
223.794	-24.59
224.173	-16.03
224.551	-6.13
224.929	-5.36
225.308	-8.27
225.686	-8.55
226.064	-1.9
226.442	6.27
226.821	12.77
227.199	3.21
227.577	7.72
227.955	16.96
228.333	16.22
228.711	15.69
229.089	10.65
229.467	14.35
229.845	13.29
230.222	17.19
230.6	9.78
230.978	9.18
231.356	12.78
231.733	15.44
232.111	12.78
232.488	10.06
232.866	12.85
233.243	11.03
233.621	10.57
233.998	8.17
234.376	8.84
234.753	6.28
235.13	8.87
235.508	7.91
235.885	6.86
236.262	8.12
236.639	6.32
237.016	7.61
237.393	8.1
237.77	8.33
238.147	8.11
238.524	8.88
238.901	8.42
239.278	7.84
239.655	6.54
240.032	6.42
240.409	7.06
240.785	6.6
241.162	7.12
241.539	7.23
241.915	7.5
242.292	7.08
242.668	7.44
243.045	7.21
243.421	7.29
243.798	7.49
244.174	6.96
244.551	6.98
244.927	6.88
245.303	6.42
245.679	6.38
246.056	6.16
246.432	6.02
246.808	6.16
247.184	6.39
247.56	6.26
247.936	6.36
248.312	6.21
248.688	6.22
249.064	6.17
249.44	6.03
249.815	6.09
250.191	6.13
250.567	5.95
250.943	5.91
251.318	5.97
251.694	5.6
252.069	6.22
252.445	6.02
252.82	5.99
253.196	6.2
253.571	6.45
253.947	6.48
254.322	6.5
254.697	6.25
255.073	5.88
255.448	5.92
255.823	5.79
256.198	5.64
256.573	5.98
256.948	6.08
257.323	6.19
257.698	6.27
258.073	6.41
258.448	6.49
258.823	6.38
259.198	6.27
259.573	6.28
259.948	6.16
260.322	6.27
260.697	6.32
261.072	6.38
261.446	6.24
261.821	6.17
262.195	6.1
262.57	6.25
262.944	6.29
263.319	6.33
263.693	6.32
264.067	6.51
264.442	6.24
264.816	6.24
265.19	6.12
265.564	5.91
265.938	5.74
266.313	5.7
266.687	5.54
267.061	5.66
267.435	5.66
267.809	5.5
268.183	5.38
268.556	5.29
268.93	5.38
269.304	5.25
269.678	5.34
270.051	5.27
270.425	5.16
270.799	5.04
271.172	5.11
271.546	5.18
271.919	5.02
272.293	5.19
272.666	5.27
273.04	5.49
273.413	5.63
273.787	5.65
274.16	5.72
274.533	5.87
274.906	5.75
275.279	5.64
275.653	5.73
276.026	5.84
276.399	5.88
276.772	5.77
277.145	5.97
277.518	6.01
277.891	6.24
278.263	6.39
278.636	6.49
279.009	6.29
279.382	6.33
279.755	6.56
280.127	6.41
280.5	6.49
280.872	6.26
281.245	6.2
281.617	6.21
281.99	6.13
282.362	6.2
282.735	6.05
283.107	6.11
283.479	6.04
283.852	5.96
284.224	5.81
284.596	5.8
284.968	5.54
285.34	5.48
285.713	5.42
286.085	5.3
286.457	5.19
286.829	5.4
287.201	5.33
287.572	5.28
287.944	5.45
288.316	5.3
288.688	5.36
289.06	5.3
289.431	5.37
289.803	5.37
290.175	5.22
290.546	5.28
290.918	5.26
291.289	5.23
291.661	5.24
292.032	5.33
292.403	5.24
292.775	5.54
293.146	5.53
293.517	5.54
293.889	5.56
294.26	5.65
294.631	5.44
295.002	5.4
295.373	5.29
295.744	5.28
296.115	5.28
296.486	5.19
296.857	5.17
297.228	5.12
297.599	4.95
297.97	5.09
298.34	5.22
298.711	5.26
299.082	5.23
299.452	5.21
299.823	5.08
300.194	5.09
300.564	4.82
300.935	4.75
301.305	4.83
301.676	4.8
302.046	4.81
302.416	4.87
302.787	4.89
303.157	4.91
303.527	4.87
303.897	4.72
304.267	4.78
304.637	4.89
305.008	4.8
305.378	5.05
305.748	5.12
306.117	5.07
306.487	5.11
306.857	5.21
307.227	5.38
307.597	5.6
307.967	5.67
308.336	5.71
308.706	5.85
309.076	5.78
309.445	5.82
309.815	5.79
310.184	5.74
310.554	5.81
310.923	5.87
311.293	5.83
311.662	5.89
312.031	5.97
312.401	5.88
312.77	5.87
313.139	5.78
313.508	5.61
313.877	5.6
314.246	5.46
314.616	5.44
314.985	5.31
315.353	5.27
315.722	5.4
316.091	5.47
316.46	5.58
316.829	5.36
317.198	5.46
317.567	5.56
317.935	5.62
318.304	5.58
318.672	5.41
319.041	5.41
319.41	5.27
319.778	5.24
320.147	5.33
320.515	5.3
320.883	5.32
321.252	5.46
321.62	5.43
321.988	5.53
322.357	5.35
322.725	5.33
323.093	5.19
323.461	5.07
323.829	5.17
324.197	5.11
324.565	5.22
324.933	4.98
325.301	4.84
325.669	4.93
326.037	4.93
326.405	5.04
326.772	5.02
327.14	5.03
327.508	4.82
327.875	4.75
328.243	4.77
328.61	4.6
328.978	4.5
329.346	4.43
329.713	4.38
330.08	4.53
330.448	4.51
330.815	4.57
331.182	4.43
331.55	4.31
331.917	4.19
332.284	4.27
332.651	4.41
333.018	4.24
333.385	4.05
333.752	4.08
334.119	4.14
334.486	4.14
334.853	4.33
335.22	4.55
335.587	4.57
335.954	4.63
336.32	4.74
336.687	4.8
337.054	4.89
337.42	4.95
337.787	4.86
338.153	4.89
338.52	4.89
338.886	4.99
339.253	4.98
339.619	5.02
339.986	4.93
340.352	4.94
340.718	5.23
341.084	5.41
341.451	5.42
341.817	5.33
342.183	5.29
342.549	5.19
342.915	5.26
343.281	5.21
343.647	5.1
344.013	5.09
344.379	5.08
344.745	5.08
345.11	4.97
345.476	5.03
345.842	5.01
346.208	5.03
346.573	5.01
346.939	4.95
347.304	4.94
347.67	4.9
348.035	4.91
348.401	4.66
348.766	4.55
349.132	4.62
349.497	4.68
349.862	4.65
350.228	4.62
350.593	4.51
350.958	4.63
351.323	4.65
351.688	4.63
352.053	4.58
352.418	4.55
352.783	4.63
353.148	4.66
353.513	4.7
353.878	4.69
354.243	4.69
354.608	4.79
354.972	4.77
355.337	4.92
355.702	4.87
356.066	5
356.431	5.03
356.795	4.98
357.16	4.91
357.524	4.88
357.889	4.83
358.253	4.79
358.618	4.69
358.982	4.7
359.346	4.71
359.71	4.71
360.075	4.76
360.439	4.74
360.803	4.77
361.167	4.78
361.531	4.74
361.895	4.68
362.259	4.7
362.623	4.74
362.987	4.65
363.351	4.67
363.714	4.66
364.078	4.64
364.442	4.63
364.806	4.66
365.169	4.64
365.533	4.74
365.896	4.81
366.26	4.79
366.623	4.74
366.987	4.79
367.35	4.8
367.714	4.73
368.077	4.79
368.44	4.76
368.803	4.64
369.167	4.59
369.53	4.68
369.893	4.65
370.256	4.65
370.619	4.66
370.982	4.6
371.345	4.66
371.708	4.69
372.071	4.69
372.434	4.67
372.797	4.72
373.159	4.6
373.522	4.52
373.885	4.54
374.247	4.55
374.61	4.48
374.973	4.42
375.335	4.46
375.698	4.42
376.06	4.45
376.423	4.52
376.785	4.63
377.147	4.59
377.51	4.56
377.872	4.52
378.234	4.59
378.596	4.6
378.958	4.52
379.321	4.56
379.683	4.53
380.045	4.48
380.407	4.5
380.769	4.56
381.13	4.59
381.492	4.58
381.854	4.59
382.216	4.63
382.578	4.74
382.939	4.73
383.301	4.73
383.663	4.66
384.024	4.62
384.386	4.54
384.747	4.51
385.109	4.52
385.47	4.6
385.832	4.52
386.193	4.49
386.554	4.47
386.916	4.4
387.277	4.37
387.638	4.41
387.999	4.39
388.36	4.39
388.721	4.41
389.082	4.43
389.443	4.47
389.804	4.46
390.165	4.42
390.526	4.38
390.887	4.37
391.248	4.36
391.609	4.4
391.969	4.41
392.33	4.44
392.691	4.44
393.051	4.38
393.412	4.38
393.772	4.43
394.133	4.46
394.493	4.44
394.854	4.45
395.214	4.45
395.574	4.46
395.935	4.42
396.295	4.4
396.655	4.37
397.015	4.38
397.376	4.37
397.736	4.32
398.096	4.33
398.456	4.35
398.816	4.39
399.176	4.34
399.535	4.32
399.895	4.33
400.255	4.36
400.615	4.39
400.975	4.4
401.334	4.39
401.694	4.41
402.054	4.42
402.413	4.45
402.773	4.45
403.132	4.5
403.492	4.55
403.851	4.53
404.211	4.54
404.57	4.53
404.929	4.51
405.288	4.54
405.648	4.55
406.007	4.51
406.366	4.49
406.725	4.53
407.084	4.56
407.443	4.52
407.802	4.47
408.161	4.45
408.52	4.43
408.879	4.44
409.238	4.42
409.596	4.45
409.955	4.44
410.314	4.41
410.673	4.36
411.031	4.33
411.39	4.35
411.748	4.39
412.107	4.39
412.465	4.41
412.824	4.41
413.182	4.42
413.54	4.42
413.899	4.41
414.257	4.4
414.615	4.39
414.974	4.39
415.332	4.43
415.69	4.41
416.048	4.43
416.406	4.38
416.764	4.39
417.122	4.37
417.48	4.38
417.838	4.39
418.195	4.4
418.553	4.38
418.911	4.37
419.269	4.36
419.626	4.35
419.984	4.34
420.342	4.35
420.699	4.33
421.057	4.35
421.414	4.36
421.772	4.35
422.129	4.35
422.486	4.37
422.844	4.37
423.201	4.39
423.558	4.39
423.915	4.43
424.273	4.41
424.63	4.43
424.987	4.43
425.344	4.44
425.701	4.43
426.058	4.46
426.415	4.46
426.772	4.46
427.128	4.5
427.485	4.52
427.842	4.52
428.199	4.53
428.555	4.52
428.912	4.52
429.269	4.51
429.625	4.52
429.982	4.5
430.338	4.52
430.695	4.51
431.051	4.5
431.407	4.47
431.764	4.48
432.12	4.46
432.476	4.47
432.832	4.46
433.189	4.45
433.545	4.45
433.901	4.44
434.257	4.43
434.613	4.41
434.969	4.39
435.325	4.39
435.681	4.39
436.036	4.38
436.392	4.39
436.748	4.4
437.104	4.4
437.459	4.43
437.815	4.41
438.171	4.4
438.526	4.4
438.882	4.43
439.237	4.42
439.593	4.42
439.948	4.43
440.304	4.43
440.659	4.44
441.014	4.44
441.369	4.43
441.725	4.44
442.08	4.44
442.435	4.46
442.79	4.44
443.145	4.43
443.5	4.43
443.855	4.43
444.21	4.43
444.565	4.43
444.92	4.41
445.275	4.41
445.629	4.4
445.984	4.42
446.339	4.41
446.693	4.43
447.048	4.41
447.403	4.41
447.757	4.39
448.112	4.4
448.466	4.41
448.82	4.41
449.175	4.42
449.529	4.42
449.883	4.42
450.238	4.47
450.592	4.48
450.946	4.5
451.3	4.5
451.654	4.47
452.008	4.45
452.362	4.45
452.716	4.45
453.07	4.44
453.424	4.42
453.778	4.42
454.132	4.38
454.486	4.39
454.839	4.38
455.193	4.38
455.547	4.35
455.9	4.37
456.254	4.36
456.607	4.35
456.961	4.35
457.314	4.32
457.668	4.29
458.021	4.29
458.375	4.28
458.728	4.29
459.081	4.31
459.434	4.31
459.787	4.32
460.141	4.31
460.494	4.32
460.847	4.31
461.2	4.32
461.553	4.36
461.906	4.35
462.259	4.36
462.611	4.35
462.964	4.37
463.317	4.34
463.67	4.36
464.022	4.36
464.375	4.36
464.728	4.37
465.08	4.36
465.433	4.35
465.785	4.36
466.138	4.35
466.49	4.34
466.843	4.35
467.195	4.34
467.547	4.37
467.899	4.39
468.252	4.4
468.604	4.39
468.956	4.39
469.308	4.4
469.66	4.39
470.012	4.41
470.364	4.41
470.716	4.44
471.068	4.43
471.42	4.44
471.772	4.43
472.123	4.45
472.475	4.46
472.827	4.46
473.178	4.48
473.53	4.47
473.882	4.47
474.233	4.49
474.585	4.49
474.936	4.48
475.288	4.45
475.639	4.46
475.99	4.47
476.342	4.44
476.693	4.45
477.044	4.44
477.395	4.45
477.746	4.46
478.097	4.44
478.448	4.44
478.8	4.43
479.15	4.41
479.501	4.41
479.852	4.42
480.203	4.42
480.554	4.42
480.905	4.42
481.255	4.42
481.606	4.43
481.957	4.42
482.307	4.42
482.658	4.44
483.009	4.44
483.359	4.44
483.709	4.44
484.06	4.44
484.41	4.45
484.761	4.45
485.111	4.45
485.461	4.45
485.811	4.46
486.162	4.46
486.512	4.47
486.862	4.47
487.212	4.47
487.562	4.47
487.912	4.47
488.262	4.47
488.612	4.48
488.961	4.48
489.311	4.48
489.661	4.49
490.011	4.48
490.36	4.47
490.71	4.48
491.06	4.49
491.409	4.49
491.759	4.49
492.108	4.47
492.458	4.47
492.807	4.47
493.157	4.47
493.506	4.47
493.855	4.47
494.204	4.47
494.554	4.48
494.903	4.48
495.252	4.48
495.601	4.5
495.95	4.48
496.299	4.47
496.648	4.48
496.997	4.47
497.346	4.5
497.695	4.51
498.043	4.51
498.392	4.49
498.741	4.49
499.09	4.48
499.438	4.5
499.787	4.5
500.135	4.52
500.484	4.52
500.832	4.52
501.181	4.53
501.529	4.55
501.878	4.54
502.226	4.54
502.574	4.54
502.923	4.52
503.271	4.54
503.619	4.55
503.967	4.53
504.315	4.52
504.663	4.51
505.011	4.52
505.359	4.51
505.707	4.51
506.055	4.5
506.403	4.51
506.751	4.49
507.098	4.5
507.446	4.49
507.794	4.49
508.141	4.47
508.489	4.48
508.837	4.45
509.184	4.45
509.531	4.46
509.879	4.44
510.226	4.45
510.574	4.45
510.921	4.43
511.268	4.46
511.616	4.48
511.963	4.46
512.31	4.43
512.657	4.45
513.004	4.45
513.351	4.45
513.698	4.44
514.045	4.46
514.392	4.45
514.739	4.45
515.086	4.46
515.432	4.46
515.779	4.45
516.126	4.48
516.473	4.48
516.819	4.48
517.166	4.51
517.512	4.48
517.859	4.47
518.205	4.46
518.552	4.48
518.898	4.47
519.245	4.5
519.591	4.53
519.937	4.53
520.283	4.54
520.629	4.55
520.976	4.57
521.322	4.56
521.668	4.56
522.014	4.57
522.36	4.58
522.706	4.59
523.052	4.59
523.398	4.57
523.743	4.59
524.089	4.6
524.435	4.57
524.781	4.59
525.126	4.57
525.472	4.59
525.817	4.58
526.163	4.57
526.509	4.56
526.854	4.56
527.199	4.56
527.545	4.56
527.89	4.55
528.235	4.56
528.581	4.58
528.926	4.58
529.271	4.58
529.616	4.59
529.961	4.59
530.306	4.59
530.651	4.6
530.996	4.6
531.341	4.59
531.686	4.62
532.031	4.63
532.376	4.65
532.721	4.65
533.065	4.65
533.41	4.67
533.755	4.69
534.099	4.69
534.444	4.7
534.788	4.73
535.133	4.73
535.477	4.72
535.822	4.72
536.166	4.72
536.51	4.7
536.855	4.68
537.199	4.69
537.543	4.69
537.887	4.69
538.231	4.68
538.576	4.68
538.92	4.67
539.264	4.66
539.608	4.67
539.951	4.68
540.295	4.69
540.639	4.7
540.983	4.69
541.327	4.71
541.671	4.7
542.014	4.7
542.358	4.71
542.701	4.72
543.045	4.71
543.389	4.72
543.732	4.72
544.075	4.74
544.419	4.76
544.762	4.77
545.105	4.8
545.449	4.81
545.792	4.83
546.135	4.81
546.478	4.83
546.821	4.81
547.165	4.81
547.508	4.8
547.851	4.8
548.194	4.77
548.536	4.73
548.879	4.73
549.222	4.71
549.565	4.68
549.908	4.65
550.25	4.65
550.593	4.66
550.936	4.67
551.278	4.64
551.621	4.6
551.963	4.64
552.306	4.61
552.648	4.62
552.991	4.59
553.333	4.61
553.675	4.61
554.017	4.58
554.36	4.6
554.702	4.59
555.044	4.58
555.386	4.6
555.728	4.62
556.07	4.63
556.412	4.64
556.754	4.63
557.096	4.68
557.438	4.7
557.78	4.67
558.121	4.69
558.463	4.69
558.805	4.69
559.147	4.67
559.488	4.64
559.83	4.64
560.171	4.66
560.513	4.65
560.854	4.64
561.196	4.64
561.537	4.65
561.878	4.67
562.22	4.69
562.561	4.7
562.902	4.68
563.243	4.68
563.584	4.68
563.925	4.72
564.266	4.69
564.607	4.68
564.948	4.71
565.289	4.67
565.63	4.64
565.971	4.67
566.312	4.65
566.653	4.68
566.993	4.69
567.334	4.69
567.675	4.73
568.015	4.74
568.356	4.75
568.696	4.74
569.037	4.73
569.377	4.74
569.718	4.74
570.058	4.78
570.398	4.75
570.739	4.72
571.079	4.72
571.419	4.73
571.759	4.7
572.099	4.7
572.439	4.72
572.779	4.75
573.119	4.73
573.459	4.75
573.799	4.71
574.139	4.7
574.479	4.7
574.819	4.69
575.158	4.69
575.498	4.76
575.838	4.73
576.177	4.73
576.517	4.69
576.856	4.67
577.196	4.66
577.535	4.72
577.875	4.72
578.214	4.73
578.553	4.75
578.893	4.78
579.232	4.79
579.571	4.77
579.91	4.77
580.25	4.75
580.589	4.71
580.928	4.75
581.267	4.71
581.606	4.68
581.945	4.63
582.283	4.62
582.622	4.59
582.961	4.58
583.3	4.64
583.639	4.65
583.977	4.66
584.316	4.69
584.654	4.67
584.993	4.7
585.332	4.7
585.67	4.64
586.008	4.67
586.347	4.66
586.685	4.68
587.024	4.7
587.362	4.71
587.7	4.73
588.038	4.75
588.376	4.79
588.715	4.81
589.053	4.81
589.391	4.78
589.729	4.76
590.067	4.78
590.404	4.75
590.742	4.78
591.08	4.8
591.418	4.74
591.756	4.73
592.093	4.72
592.431	4.74
592.769	4.77
593.106	4.74
593.444	4.75
593.781	4.75
594.119	4.72
594.456	4.72
594.793	4.74
595.131	4.73
595.468	4.74
595.805	4.78
596.143	4.81
596.48	4.84
596.817	4.86
597.154	4.87
597.491	4.84
597.828	4.82
598.165	4.85
598.502	4.88
598.839	4.87
599.176	4.9
599.512	4.86
599.849	4.87
600.186	4.87
600.523	4.86
600.859	4.88
601.196	4.9
601.532	4.91
601.869	4.89
602.205	4.84
602.542	4.81
602.878	4.83
603.215	4.8
603.551	4.81
603.887	4.79
604.223	4.82
604.56	4.86
604.896	4.87
605.232	4.85
605.568	4.84
605.904	4.84
606.24	4.82
606.576	4.81
606.912	4.79
607.248	4.84
607.583	4.84
607.919	4.81
608.255	4.85
608.591	4.88
608.926	4.87
609.262	4.88
609.597	4.9
609.933	4.88
610.268	4.93
610.604	4.92
610.939	4.95
611.275	4.91
611.61	4.91
611.945	4.84
612.281	4.84
612.616	4.82
612.951	4.84
613.286	4.85
613.621	4.83
613.956	4.93
614.291	4.89
614.626	4.86
614.961	4.88
615.296	4.81
615.631	4.79
615.966	4.85
616.3	4.93
616.635	4.93
616.97	4.9
617.304	4.91
617.639	4.91
617.973	4.89
618.308	4.9
618.642	4.86
618.977	4.91
619.311	4.87
619.646	4.96
619.98	4.94
620.314	4.91
620.648	4.9
620.983	4.82
621.317	4.83
621.651	4.84
621.985	4.79
622.319	4.8
622.653	4.83
622.987	4.75
623.321	4.7
623.655	4.75
623.988	4.74
624.322	4.67
624.656	4.62
624.99	4.6
625.323	4.61
625.657	4.7
625.99	4.73
626.324	4.79
626.657	4.74
626.991	4.75
627.324	4.83
627.658	4.84
627.991	4.88
628.324	4.88
628.657	4.88
628.991	4.94
629.324	4.95
629.657	4.91
629.99	4.99
630.323	4.97
630.656	4.9
630.989	4.86
631.322	4.94
631.655	5.06
631.987	5.1
632.32	5.13
632.653	5.05
632.986	5
633.318	4.96
633.651	4.98
633.984	4.99
634.316	4.95
634.649	4.97
634.981	4.98
635.313	4.94
635.646	4.93
635.978	4.92
636.31	4.97
636.643	5
636.975	4.97
637.307	4.97
637.639	5.02
637.971	5.07
638.303	5.08
638.635	4.97
638.967	5.01
639.299	4.97
639.631	4.99
639.963	5.04
640.295	5.04
640.626	5.01
640.958	5.03
641.29	5.01
641.621	5.03
641.953	4.99
642.285	5.06
642.616	5.12
642.948	5.01
643.279	4.99
643.61	5.03
643.942	5.07
644.273	5.11
644.604	5.03
644.936	5.03
645.267	5
645.598	5.09
645.929	5.02
646.26	4.97
646.591	5.03
646.922	5.06
647.253	5.05
647.584	5.06
647.915	5.03
648.245	5
648.576	4.93
648.907	4.93
649.238	4.93
649.568	4.89
649.899	4.99
650.229	5.05
650.56	5.01
650.89	5.02
651.221	5.04
651.551	5.13
651.882	5.14
652.212	5.1
652.542	5.04
652.872	5.01
653.203	5.07
653.533	5
653.863	4.98
654.193	4.95
654.523	4.92
654.853	5
655.183	5.02
655.513	5.1
655.843	5.13
656.172	5.11
656.502	5.13
656.832	5.08
657.162	4.98
657.491	5
657.821	4.96
658.15	4.97
658.48	5.03
658.809	5.03
659.139	5.12
659.468	5.14
659.798	5.15
660.127	5.17
660.456	5.2
660.785	5.14
661.115	5.19
661.444	5.24
661.773	5.19
662.102	5.22
662.431	5.18
662.76	5.12
663.089	5.15
663.418	5.21
663.747	5.18
664.076	5.23
664.404	5.2
664.733	5.25
665.062	5.2
665.39	5.08
665.719	5.1
666.048	5.06
666.376	5.09
666.705	5.11
667.033	5.15
667.362	5.11
667.69	5.21
668.018	5.23
668.347	5.2
668.675	5.19
669.003	5.2
669.331	5.23
669.659	5.23
669.987	5.16
670.315	5.08
670.643	5.16
670.971	5.16
671.299	5.21
671.627	5.11
671.955	5.13
672.283	5.19
672.61	5.16
672.938	5.23
673.266	5.19
673.593	5.14
673.921	5.07
674.249	5.01
674.576	4.98
674.904	4.94
675.231	5.03
675.558	5.09
675.886	5.14
676.213	5.16
676.54	5.26
676.867	5.22
677.195	5.28
677.522	5.28
677.849	5.32
678.176	5.2
