Data from BA35141_Reflection_00006.txt Node
Date: Tue Nov 19 11:54:39 EST 2019
User: vgr7
Spectrometer: USB2G7710
Scans to average: 3
Trigger mode: 4
Integration Time (sec): 2.000000E-2
Electric dark correction enabled: true
Boxcar width: 10
XAxis mode: Wavelengths
Number of Pixels in Spectrum: 2048
>>>>>Begin Spectral Data<<<<<
177.721	-599.63
178.105	2016.67
178.488	262.72
178.871	128.07
179.254	131.88
179.636	130.41
180.019	60.66
180.402	750
180.785	33.33
181.168	61.71
181.55	73.6
181.933	49.92
182.316	56.88
182.698	73.01
183.081	81.57
183.463	94.91
183.846	112.48
184.228	77.51
184.611	52.72
184.993	-39.68
185.376	-106.24
185.758	-122.22
186.14	-97.1
186.522	-310.85
186.904	293.94
187.287	47.09
187.669	-113.33
188.051	271.17
188.433	138.31
188.815	62.96
189.197	170.18
189.579	36.51
189.961	-36.61
190.342	-35.69
190.724	5.44
191.106	124.69
191.488	42.65
191.869	111.66
192.251	45.77
192.633	44.28
193.014	2.01
193.396	-3.24
193.777	4.1
194.159	20.5
194.54	43.17
194.922	41.87
195.303	33.92
195.684	20.23
196.065	19.71
196.447	6.68
196.828	-2.6
197.209	-0.54
197.59	-8.25
197.971	-15.62
198.352	-26.59
198.733	-42.48
199.114	-47.7
199.495	-43.16
199.876	-62.72
200.257	-82.09
200.638	-94.85
201.018	-85.19
201.399	-63.61
201.78	-81.97
202.16	-95.78
202.541	-137.49
202.922	-128.11
203.302	-227.75
203.683	-228.46
204.063	-735.9
204.444	-449.83
204.824	-217.17
205.204	-111.57
205.585	-104.79
205.965	-35.69
206.345	18.02
206.725	30.76
207.106	42
207.486	40.32
207.866	47.06
208.246	52.3
208.626	57.13
209.006	46.44
209.386	38.52
209.766	19.22
210.145	-0.51
210.525	11.42
210.905	5.34
211.285	16.07
211.664	15.09
212.044	6.51
212.424	27.56
212.803	-3.06
213.183	-40.5
213.562	-53.41
213.942	-60.63
214.321	-63.79
214.701	-106.87
215.08	-137.49
215.459	-102.69
215.838	-131.39
216.218	-145.85
216.597	-142.98
216.976	-143.37
217.355	-113.04
217.734	-118.92
218.113	-83.91
218.492	-72.39
218.871	-52.28
219.25	-42.66
219.629	-58.19
220.008	-26.33
220.387	-30.33
220.766	-12.41
221.144	-0.06
221.523	1.53
221.902	10.59
222.28	16.52
222.659	35.23
223.037	36.86
223.416	33.33
223.794	37.34
224.173	23.96
224.551	29.25
224.929	31.23
225.308	32.37
225.686	21.99
226.064	23.7
226.442	22.55
226.821	20.04
227.199	15.4
227.577	15.85
227.955	13.25
228.333	10.21
228.711	13.64
229.089	10.93
229.467	9.8
229.845	7.48
230.222	11.52
230.6	7.94
230.978	8.09
231.356	6.23
231.733	2.81
232.111	5.16
232.488	4.49
232.866	5.78
233.243	6.32
233.621	7.53
233.998	7.85
234.376	7.86
234.753	5.99
235.13	6.61
235.508	5.74
235.885	6.99
236.262	6.51
236.639	6.08
237.016	8.61
237.393	9.67
237.77	9.01
238.147	6.45
238.524	6.75
238.901	6.8
239.278	6.98
239.655	7.56
240.032	7.99
240.409	7.6
240.785	7.42
241.162	7.68
241.539	8.1
241.915	7.03
242.292	7.96
242.668	8.09
243.045	8.62
243.421	8.58
243.798	8.04
244.174	8.09
244.551	8.04
244.927	7.28
245.303	7.12
245.679	7.17
246.056	7.39
246.432	7.13
246.808	6.97
247.184	6.85
247.56	6.72
247.936	6.35
248.312	6.36
248.688	6.21
249.064	6.19
249.44	5.97
249.815	6.13
250.191	5.71
250.567	5.81
250.943	5.53
251.318	5.52
251.694	5.4
252.069	5.42
252.445	5.28
252.82	5.44
253.196	5.53
253.571	5.73
253.947	5.66
254.322	5.88
254.697	6.03
255.073	6.22
255.448	6.3
255.823	6.5
256.198	6.58
256.573	6.52
256.948	6.57
257.323	6.57
257.698	6.5
258.073	6.25
258.448	6.33
258.823	6.31
259.198	6.36
259.573	6.34
259.948	6.11
260.322	6
260.697	6.17
261.072	6.14
261.446	6.13
261.821	6.34
262.195	6.36
262.57	6.24
262.944	6.16
263.319	6.12
263.693	6.12
264.067	6.07
264.442	6.27
264.816	6.01
265.19	6.17
265.564	6.34
265.938	6.51
266.313	6.29
266.687	6.27
267.061	6.42
267.435	6.76
267.809	6.86
268.183	6.88
268.556	6.78
268.93	6.82
269.304	6.59
269.678	6.27
270.051	6.22
270.425	6.31
270.799	6.23
271.172	6.34
271.546	6.39
271.919	6.4
272.293	6.45
272.666	6.61
273.04	6.55
273.413	6.56
273.787	6.62
274.16	6.52
274.533	6.64
274.906	6.69
275.279	6.43
275.653	6.33
276.026	6.24
276.399	6.23
276.772	6.11
277.145	6.11
277.518	5.86
277.891	5.81
278.263	5.77
278.636	5.8
279.009	5.62
279.382	5.59
279.755	5.79
280.127	5.54
280.5	5.59
280.872	5.6
281.245	5.5
281.617	5.39
281.99	5.71
282.362	5.6
282.735	5.42
283.107	5.49
283.479	5.62
283.852	5.8
284.224	5.82
284.596	5.78
284.968	5.8
285.34	6.03
285.713	6.2
286.085	6.21
286.457	6.24
286.829	6.17
287.201	6.19
287.572	6.12
287.944	6.1
288.316	6.12
288.688	6.07
289.06	6.04
289.431	6.17
289.803	6.03
290.175	6.09
290.546	6.06
290.918	6.01
291.289	5.99
291.661	5.99
292.032	5.87
292.403	5.95
292.775	6.06
293.146	6.13
293.517	5.9
293.889	5.75
294.26	5.79
294.631	5.86
295.002	5.8
295.373	5.69
295.744	5.83
296.115	5.77
296.486	5.81
296.857	5.89
297.228	5.82
297.599	5.87
297.97	5.81
298.34	5.78
298.711	5.77
299.082	5.75
299.452	5.62
299.823	5.65
300.194	5.59
300.564	5.47
300.935	5.41
301.305	5.53
301.676	5.64
302.046	5.58
302.416	5.57
302.787	5.63
303.157	5.73
303.527	5.67
303.897	5.62
304.267	5.52
304.637	5.51
305.008	5.42
305.378	5.35
305.748	5.37
306.117	5.32
306.487	5.32
306.857	5.23
307.227	5.19
307.597	5.12
307.967	5.08
308.336	5.01
308.706	5.08
309.076	5.05
309.445	4.98
309.815	4.95
310.184	4.87
310.554	4.7
310.923	4.6
311.293	4.69
311.662	4.62
312.031	4.64
312.401	4.51
312.77	4.57
313.139	4.58
313.508	4.46
313.877	4.52
314.246	4.42
314.616	4.39
314.985	4.52
315.353	4.6
315.722	4.79
316.091	4.7
316.46	4.63
316.829	4.57
317.198	4.61
317.567	4.64
317.935	4.64
318.304	4.92
318.672	4.99
319.041	4.81
319.41	4.88
319.778	4.96
320.147	4.91
320.515	4.92
320.883	4.86
321.252	4.97
321.62	4.85
321.988	5.17
322.357	5.21
322.725	4.98
323.093	4.85
323.461	4.66
323.829	4.82
324.197	4.79
324.565	4.82
324.933	4.82
325.301	4.78
325.669	4.9
326.037	4.82
326.405	4.79
326.772	4.84
327.14	4.73
327.508	4.65
327.875	4.72
328.243	4.66
328.61	4.75
328.978	4.69
329.346	4.72
329.713	4.56
330.08	4.65
330.448	4.77
330.815	4.89
331.182	4.91
331.55	5.03
331.917	5.02
332.284	5.04
332.651	5.03
333.018	5
333.385	4.91
333.752	4.7
334.119	4.58
334.486	4.64
334.853	4.7
335.22	4.71
335.587	4.83
335.954	4.89
336.32	4.79
336.687	4.97
337.054	5.16
337.42	5.18
337.787	5.07
338.153	5.16
338.52	5.14
338.886	5.15
339.253	4.99
339.619	5
339.986	4.95
340.352	4.99
340.718	5.1
341.084	5.18
341.451	5.28
341.817	5.35
342.183	5.23
342.549	5.22
342.915	5.25
343.281	5.25
343.647	5.19
344.013	5.22
344.379	5.09
344.745	5
345.11	4.95
345.476	5.06
345.842	5.01
346.208	5
346.573	5.03
346.939	5.07
347.304	5.14
347.67	5.13
348.035	5.03
348.401	5.03
348.766	4.97
349.132	4.98
349.497	5.09
349.862	5.09
350.228	5.14
350.593	5.12
350.958	5.09
351.323	5.13
351.688	5.07
352.053	5.01
352.418	4.98
352.783	5.03
353.148	4.91
353.513	4.97
353.878	4.94
354.243	4.94
354.608	4.92
354.972	4.91
355.337	4.91
355.702	4.98
356.066	5
356.431	5.09
356.795	5.1
357.16	5.04
357.524	5.05
357.889	4.97
358.253	4.99
358.618	4.95
358.982	4.92
359.346	4.95
359.71	4.94
360.075	4.98
360.439	5.03
360.803	5.14
361.167	5.02
361.531	5.06
361.895	5.02
362.259	5.06
362.623	5.04
362.987	5.02
363.351	4.99
363.714	4.92
364.078	4.86
364.442	4.84
364.806	4.87
365.169	4.86
365.533	4.92
365.896	4.94
366.26	5
366.623	5.08
366.987	5.02
367.35	5.13
367.714	5.09
368.077	5.03
368.44	4.98
368.803	5.01
369.167	4.95
369.53	4.95
369.893	4.9
370.256	4.9
370.619	4.98
370.982	4.94
371.345	4.92
371.708	4.93
372.071	4.9
372.434	4.85
372.797	4.9
373.159	4.9
373.522	4.89
373.885	4.82
374.247	4.77
374.61	4.86
374.973	4.81
375.335	4.86
375.698	4.85
376.06	4.82
376.423	4.85
376.785	4.91
377.147	4.92
377.51	4.87
377.872	4.83
378.234	4.79
378.596	4.83
378.958	4.85
379.321	4.85
379.683	4.9
380.045	4.86
380.407	4.84
380.769	4.79
381.13	4.77
381.492	4.85
381.854	4.85
382.216	4.81
382.578	4.79
382.939	4.75
383.301	4.71
383.663	4.68
384.024	4.7
384.386	4.65
384.747	4.7
385.109	4.75
385.47	4.77
385.832	4.76
386.193	4.75
386.554	4.7
386.916	4.74
387.277	4.7
387.638	4.77
387.999	4.72
388.36	4.7
388.721	4.7
389.082	4.65
389.443	4.64
389.804	4.65
390.165	4.67
390.526	4.67
390.887	4.66
391.248	4.71
391.609	4.71
391.969	4.69
392.33	4.64
392.691	4.63
393.051	4.6
393.412	4.63
393.772	4.62
394.133	4.64
394.493	4.58
394.854	4.62
395.214	4.6
395.574	4.63
395.935	4.69
396.295	4.7
396.655	4.71
397.015	4.73
397.376	4.74
397.736	4.73
398.096	4.74
398.456	4.76
398.816	4.78
399.176	4.75
399.535	4.8
399.895	4.78
400.255	4.81
400.615	4.82
400.975	4.81
401.334	4.88
401.694	4.88
402.054	4.9
402.413	4.9
402.773	4.88
403.132	4.88
403.492	4.85
403.851	4.85
404.211	4.81
404.57	4.82
404.929	4.76
405.288	4.77
405.648	4.74
406.007	4.76
406.366	4.76
406.725	4.75
407.084	4.75
407.443	4.78
407.802	4.77
408.161	4.79
408.52	4.76
408.879	4.75
409.238	4.73
409.596	4.72
409.955	4.7
410.314	4.72
410.673	4.69
411.031	4.7
411.39	4.7
411.748	4.73
412.107	4.74
412.465	4.78
412.824	4.77
413.182	4.76
413.54	4.76
413.899	4.75
414.257	4.76
414.615	4.72
414.974	4.69
415.332	4.67
415.69	4.67
416.048	4.67
416.406	4.65
416.764	4.66
417.122	4.64
417.48	4.65
417.838	4.65
418.195	4.68
418.553	4.66
418.911	4.66
419.269	4.67
419.626	4.67
419.984	4.65
420.342	4.63
420.699	4.64
421.057	4.63
421.414	4.62
421.772	4.63
422.129	4.63
422.486	4.64
422.844	4.65
423.201	4.65
423.558	4.66
423.915	4.67
424.273	4.67
424.63	4.7
424.987	4.7
425.344	4.71
425.701	4.71
426.058	4.72
426.415	4.7
426.772	4.67
427.128	4.67
427.485	4.68
427.842	4.72
428.199	4.73
428.555	4.74
428.912	4.73
429.269	4.72
429.625	4.75
429.982	4.75
430.338	4.73
430.695	4.71
431.051	4.7
431.407	4.71
431.764	4.69
432.12	4.68
432.476	4.68
432.832	4.66
433.189	4.64
433.545	4.63
433.901	4.63
434.257	4.62
434.613	4.6
434.969	4.6
435.325	4.56
435.681	4.55
436.036	4.55
436.392	4.58
436.748	4.58
437.104	4.58
437.459	4.59
437.815	4.6
438.171	4.6
438.526	4.61
438.882	4.6
439.237	4.61
439.593	4.59
439.948	4.6
440.304	4.62
440.659	4.64
441.014	4.65
441.369	4.67
441.725	4.68
442.08	4.69
442.435	4.69
442.79	4.72
443.145	4.74
443.5	4.72
443.855	4.71
444.21	4.71
444.565	4.7
444.92	4.7
445.275	4.7
445.629	4.7
445.984	4.69
446.339	4.69
446.693	4.69
447.048	4.69
447.403	4.67
447.757	4.64
448.112	4.64
448.466	4.62
448.82	4.63
449.175	4.62
449.529	4.61
449.883	4.6
450.238	4.57
450.592	4.56
450.946	4.57
451.3	4.56
451.654	4.56
452.008	4.57
452.362	4.56
452.716	4.57
453.07	4.6
453.424	4.6
453.778	4.61
454.132	4.61
454.486	4.63
454.839	4.64
455.193	4.65
455.547	4.65
455.9	4.65
456.254	4.64
456.607	4.64
456.961	4.64
457.314	4.65
457.668	4.66
458.021	4.66
458.375	4.65
458.728	4.64
459.081	4.64
459.434	4.62
459.787	4.63
460.141	4.64
460.494	4.62
460.847	4.63
461.2	4.62
461.553	4.6
461.906	4.61
462.259	4.59
462.611	4.61
462.964	4.58
463.317	4.6
463.67	4.6
464.022	4.61
464.375	4.62
464.728	4.62
465.08	4.62
465.433	4.63
465.785	4.65
466.138	4.67
466.49	4.69
466.843	4.7
467.195	4.71
467.547	4.69
467.899	4.71
468.252	4.68
468.604	4.7
468.956	4.71
469.308	4.68
469.66	4.7
470.012	4.69
470.364	4.72
470.716	4.71
471.068	4.72
471.42	4.73
471.772	4.72
472.123	4.71
472.475	4.72
472.827	4.7
473.178	4.68
473.53	4.67
473.882	4.65
474.233	4.65
474.585	4.63
474.936	4.62
475.288	4.61
475.639	4.63
475.99	4.63
476.342	4.62
476.693	4.64
477.044	4.65
477.395	4.63
477.746	4.61
478.097	4.61
478.448	4.61
478.8	4.61
479.15	4.62
479.501	4.63
479.852	4.64
480.203	4.65
480.554	4.67
480.905	4.67
481.255	4.67
481.606	4.67
481.957	4.68
482.307	4.68
482.658	4.69
483.009	4.7
483.359	4.7
483.709	4.71
484.06	4.71
484.41	4.69
484.761	4.71
485.111	4.72
485.461	4.73
485.811	4.72
486.162	4.72
486.512	4.71
486.862	4.72
487.212	4.72
487.562	4.73
487.912	4.71
488.262	4.73
488.612	4.72
488.961	4.73
489.311	4.73
489.661	4.73
490.011	4.72
490.36	4.72
490.71	4.71
491.06	4.71
491.409	4.71
491.759	4.71
492.108	4.69
492.458	4.69
492.807	4.68
493.157	4.7
493.506	4.7
493.855	4.71
494.204	4.7
494.554	4.7
494.903	4.7
495.252	4.71
495.601	4.71
495.95	4.74
496.299	4.73
496.648	4.76
496.997	4.76
497.346	4.76
497.695	4.77
498.043	4.79
498.392	4.81
498.741	4.82
499.09	4.84
499.438	4.89
499.787	4.9
500.135	4.91
500.484	4.9
500.832	4.91
501.181	4.91
501.529	4.9
501.878	4.89
502.226	4.88
502.574	4.88
502.923	4.85
503.271	4.83
503.619	4.87
503.967	4.85
504.315	4.85
504.663	4.85
505.011	4.83
505.359	4.82
505.707	4.82
506.055	4.81
506.403	4.82
506.751	4.79
507.098	4.78
507.446	4.77
507.794	4.77
508.141	4.77
508.489	4.79
508.837	4.8
509.184	4.82
509.531	4.81
509.879	4.82
510.226	4.84
510.574	4.87
510.921	4.82
511.268	4.83
511.616	4.84
511.963	4.85
512.31	4.88
512.657	4.87
513.004	4.86
513.351	4.87
513.698	4.86
514.045	4.88
514.392	4.88
514.739	4.9
515.086	4.92
515.432	4.94
515.779	4.93
516.126	4.94
516.473	4.93
516.819	4.95
517.166	4.95
517.512	4.97
517.859	4.97
518.205	5
518.552	5
518.898	5
519.245	5
519.591	5.02
519.937	5.02
520.283	5.04
520.629	5.05
520.976	5.05
521.322	5.05
521.668	5.06
522.014	5.07
522.36	5.05
522.706	5.04
523.052	5.05
523.398	5.04
523.743	5.06
524.089	5.06
524.435	5.06
524.781	5.05
525.126	5.07
525.472	5.09
525.817	5.11
526.163	5.1
526.509	5.09
526.854	5.09
527.199	5.1
527.545	5.09
527.89	5.1
528.235	5.12
528.581	5.12
528.926	5.14
529.271	5.13
529.616	5.14
529.961	5.15
530.306	5.15
530.651	5.16
530.996	5.16
531.341	5.17
531.686	5.18
532.031	5.17
532.376	5.16
532.721	5.14
533.065	5.14
533.41	5.13
533.755	5.14
534.099	5.13
534.444	5.13
534.788	5.13
535.133	5.15
535.477	5.15
535.822	5.15
536.166	5.14
536.51	5.15
536.855	5.15
537.199	5.13
537.543	5.14
537.887	5.14
538.231	5.12
538.576	5.12
538.92	5.14
539.264	5.17
539.608	5.18
539.951	5.19
540.295	5.2
540.639	5.23
540.983	5.23
541.327	5.24
541.671	5.24
542.014	5.25
542.358	5.23
542.701	5.23
543.045	5.23
543.389	5.24
543.732	5.25
544.075	5.24
544.419	5.25
544.762	5.26
545.105	5.27
545.449	5.29
545.792	5.3
546.135	5.29
546.478	5.3
546.821	5.29
547.165	5.29
547.508	5.28
547.851	5.29
548.194	5.29
548.536	5.28
548.879	5.29
549.222	5.27
549.565	5.27
549.908	5.25
550.25	5.23
550.593	5.21
550.936	5.21
551.278	5.23
551.621	5.23
551.963	5.24
552.306	5.23
552.648	5.22
552.991	5.2
553.333	5.22
553.675	5.18
554.017	5.17
554.36	5.2
554.702	5.21
555.044	5.17
555.386	5.19
555.728	5.19
556.07	5.16
556.412	5.18
556.754	5.17
557.096	5.21
557.438	5.21
557.78	5.2
558.121	5.22
558.463	5.18
558.805	5.19
559.147	5.2
559.488	5.21
559.83	5.24
560.171	5.21
560.513	5.21
560.854	5.25
561.196	5.26
561.537	5.27
561.878	5.29
562.22	5.31
562.561	5.3
562.902	5.34
563.243	5.38
563.584	5.36
563.925	5.39
564.266	5.37
564.607	5.41
564.948	5.4
565.289	5.41
565.63	5.42
565.971	5.44
566.312	5.42
566.653	5.43
566.993	5.42
567.334	5.45
567.675	5.42
568.015	5.41
568.356	5.38
568.696	5.36
569.037	5.34
569.377	5.33
569.718	5.31
570.058	5.31
570.398	5.31
570.739	5.32
571.079	5.29
571.419	5.26
571.759	5.25
572.099	5.28
572.439	5.25
572.779	5.26
573.119	5.22
573.459	5.23
573.799	5.24
574.139	5.21
574.479	5.23
574.819	5.24
575.158	5.26
575.498	5.28
575.838	5.3
576.177	5.3
576.517	5.3
576.856	5.33
577.196	5.31
577.535	5.29
577.875	5.3
578.214	5.31
578.553	5.35
578.893	5.35
579.232	5.33
579.571	5.36
579.91	5.38
580.25	5.39
580.589	5.38
580.928	5.35
581.267	5.39
581.606	5.4
581.945	5.34
582.283	5.33
582.622	5.34
582.961	5.34
583.3	5.31
583.639	5.34
583.977	5.31
584.316	5.32
584.654	5.33
584.993	5.36
585.332	5.38
585.67	5.39
586.008	5.43
586.347	5.46
586.685	5.41
587.024	5.39
587.362	5.42
587.7	5.44
588.038	5.48
588.376	5.47
588.715	5.42
589.053	5.46
589.391	5.45
589.729	5.43
590.067	5.44
590.404	5.53
590.742	5.52
591.08	5.56
591.418	5.57
591.756	5.59
592.093	5.6
592.431	5.59
592.769	5.59
593.106	5.55
593.444	5.57
593.781	5.58
594.119	5.58
594.456	5.58
594.793	5.55
595.131	5.55
595.468	5.56
595.805	5.57
596.143	5.61
596.48	5.62
596.817	5.64
597.154	5.59
597.491	5.52
597.828	5.55
598.165	5.54
598.502	5.49
598.839	5.49
599.176	5.47
599.512	5.5
599.849	5.51
600.186	5.48
600.523	5.45
600.859	5.46
601.196	5.46
601.532	5.46
601.869	5.47
602.205	5.43
602.542	5.41
602.878	5.44
603.215	5.42
603.551	5.42
603.887	5.41
604.223	5.44
604.56	5.45
604.896	5.43
605.232	5.4
605.568	5.42
605.904	5.37
606.24	5.41
606.576	5.38
606.912	5.35
607.248	5.33
607.583	5.3
607.919	5.3
608.255	5.31
608.591	5.36
608.926	5.39
609.262	5.46
609.597	5.48
609.933	5.51
610.268	5.52
610.604	5.49
610.939	5.49
611.275	5.5
611.61	5.51
611.945	5.52
612.281	5.54
612.616	5.55
612.951	5.61
613.286	5.62
613.621	5.64
613.956	5.64
614.291	5.71
614.626	5.75
614.961	5.81
615.296	5.86
615.631	5.85
615.966	5.8
616.3	5.8
616.635	5.74
616.97	5.7
617.304	5.7
617.639	5.74
617.973	5.69
618.308	5.71
618.642	5.68
618.977	5.66
619.311	5.68
619.646	5.69
619.98	5.68
620.314	5.63
620.648	5.6
620.983	5.63
621.317	5.58
621.651	5.58
621.985	5.57
622.319	5.53
622.653	5.49
622.987	5.47
623.321	5.47
623.655	5.51
623.988	5.54
624.322	5.55
624.656	5.6
624.99	5.58
625.323	5.6
625.657	5.64
625.99	5.66
626.324	5.64
626.657	5.64
626.991	5.64
627.324	5.61
627.658	5.63
627.991	5.69
628.324	5.68
628.657	5.69
628.991	5.69
629.324	5.7
629.657	5.67
629.99	5.75
630.323	5.72
630.656	5.72
630.989	5.68
631.322	5.63
631.655	5.6
631.987	5.66
632.32	5.64
632.653	5.62
632.986	5.58
633.318	5.57
633.651	5.55
633.984	5.6
634.316	5.65
634.649	5.6
634.981	5.57
635.313	5.56
635.646	5.6
635.978	5.57
636.31	5.54
636.643	5.6
636.975	5.56
637.307	5.6
637.639	5.58
637.971	5.58
638.303	5.6
638.635	5.6
638.967	5.61
639.299	5.64
639.631	5.66
639.963	5.71
640.295	5.75
640.626	5.77
640.958	5.77
641.29	5.73
641.621	5.82
641.953	5.8
642.285	5.85
642.616	5.79
642.948	5.78
643.279	5.83
643.61	5.82
643.942	5.84
644.273	5.75
644.604	5.77
644.936	5.77
645.267	5.79
645.598	5.78
645.929	5.72
646.26	5.66
646.591	5.71
646.922	5.75
647.253	5.68
647.584	5.68
647.915	5.7
648.245	5.77
648.576	5.77
648.907	5.75
649.238	5.71
649.568	5.69
649.899	5.73
650.229	5.77
650.56	5.77
650.89	5.73
651.221	5.83
651.551	5.85
651.882	5.86
652.212	5.89
652.542	5.88
652.872	5.96
653.203	6.02
653.533	6.01
653.863	5.97
654.193	6.01
654.523	6.02
654.853	5.99
655.183	5.98
655.513	5.96
655.843	5.94
656.172	5.96
656.502	5.98
656.832	5.98
657.162	5.9
657.491	5.86
657.821	5.87
658.15	5.8
658.48	5.81
658.809	5.82
659.139	5.87
659.468	5.82
659.798	5.84
660.127	5.79
660.456	5.7
660.785	5.67
661.115	5.74
661.444	5.78
661.773	5.81
662.102	5.77
662.431	5.72
662.76	5.78
663.089	5.85
663.418	5.91
663.747	5.83
664.076	5.84
664.404	5.85
664.733	5.88
665.062	5.97
665.39	5.99
665.719	5.95
666.048	5.9
666.376	5.92
666.705	5.92
667.033	5.92
667.362	5.93
667.69	6.04
668.018	5.99
668.347	6.03
668.675	5.97
669.003	5.99
669.331	6.12
669.659	5.94
669.987	5.97
670.315	5.99
670.643	6.1
670.971	6.15
671.299	6.11
671.627	6.07
671.955	6
672.283	5.96
672.61	6
672.938	5.98
673.266	6.05
673.593	5.98
673.921	6.01
674.249	6.02
674.576	5.93
674.904	5.97
675.231	5.85
675.558	5.9
675.886	5.91
676.213	5.88
676.54	6.09
676.867	5.94
677.195	5.91
677.522	5.96
677.849	5.88
678.176	5.98
678.503	6.03
678.83	6.04
679.157	6.04
