Data from BA44024_Reflection_00006.txt Node
Date: Tue Nov 19 11:48:43 EST 2019
User: vgr7
Spectrometer: USB2G7710
Scans to average: 3
Trigger mode: 4
Integration Time (sec): 2.000000E-2
Electric dark correction enabled: true
Boxcar width: 10
XAxis mode: Wavelengths
Number of Pixels in Spectrum: 2048
>>>>>Begin Spectral Data<<<<<
177.721	81.11
178.105	75.35
178.488	150.95
178.871	150.63
179.254	6.15
179.636	4.88
180.019	-3.98
180.402	-13.64
180.785	-161.64
181.168	0.79
181.55	20.76
181.933	7.91
182.316	-12.74
182.698	-27.88
183.081	-93
183.463	-161.43
183.846	-185.25
184.228	-422.3
184.611	650.96
184.993	240.34
185.376	299.8
185.758	302.41
186.14	263.16
186.522	241.84
186.904	189.22
187.287	137.41
187.669	90.22
188.051	104.11
188.433	92.21
188.815	61.88
189.197	55.4
189.579	42.77
189.961	21.6
190.342	15.25
190.724	-6.5
191.106	-23.63
191.488	-25.49
191.869	-30.98
192.251	-37.95
192.633	-46.98
193.014	-46.57
193.396	-42.63
193.777	-43.73
194.159	-42.65
194.54	-30
194.922	-39.6
195.303	-47.91
195.684	-71.9
196.065	-57.05
196.447	-42.11
196.828	-50.34
197.209	-47.25
197.59	-22.49
197.971	-16.66
198.352	-20.55
198.733	-16.21
199.114	-9.89
199.495	-10.72
199.876	-12.37
200.257	-9.86
200.638	-7.89
201.018	-17.26
201.399	-12.73
201.78	12.22
202.16	9.6
202.541	6.86
202.922	7.53
203.302	7.32
203.683	21
204.063	5.25
204.444	14.09
204.824	24.59
205.204	31.16
205.585	15.16
205.965	22.79
206.345	27.42
206.725	27.44
207.106	29.15
207.486	33.94
207.866	40.02
208.246	44.39
208.626	42.55
209.006	47.11
209.386	48.67
209.766	37.17
210.145	33.59
210.525	3.1
210.905	10.37
211.285	7.17
211.664	14.59
212.044	7.15
212.424	5.47
212.803	15.32
213.183	5.03
213.562	17.29
213.942	20.03
214.321	13.04
214.701	8.7
215.08	16.3
215.459	25.89
215.838	22.05
216.218	22.29
216.597	30.96
216.976	22.24
217.355	26.98
217.734	20.65
218.113	28.21
218.492	32.05
218.871	37.26
219.25	46.49
219.629	31.68
220.008	40.35
220.387	34.77
220.766	34.91
221.144	29.16
221.523	24.3
221.902	28.57
222.28	33.37
222.659	37.22
223.037	36.28
223.416	32.9
223.794	35.67
224.173	29.02
224.551	27.9
224.929	36.72
225.308	31.26
225.686	32.57
226.064	29.66
226.442	28.04
226.821	25.34
227.199	21.91
227.577	23.29
227.955	19.78
228.333	17.5
228.711	12.5
229.089	16.62
229.467	16.08
229.845	11.76
230.222	8.87
230.6	5.76
230.978	4.56
231.356	6.3
231.733	4.59
232.111	6.62
232.488	8.15
232.866	7.84
233.243	6.89
233.621	7.1
233.998	5.04
234.376	6.33
234.753	5.66
235.13	4.65
235.508	3.87
235.885	3.67
236.262	5.02
236.639	5.69
237.016	6.67
237.393	9.1
237.77	9.56
238.147	9.56
238.524	9.77
238.901	8.6
239.278	7.58
239.655	6.9
240.032	5.73
240.409	4.95
240.785	5.26
241.162	5.5
241.539	5.23
241.915	5.92
242.292	5.95
242.668	5.48
243.045	6.21
243.421	6.38
243.798	6.31
244.174	6.15
244.551	5.93
244.927	5.37
245.303	4.88
245.679	4.8
246.056	5.04
246.432	4.67
246.808	5.02
247.184	5.18
247.56	5.35
247.936	5.37
248.312	5.46
248.688	5.28
249.064	5.19
249.44	5.19
249.815	4.78
250.191	4.85
250.567	5.07
250.943	4.89
251.318	4.65
251.694	5.05
252.069	4.99
252.445	5.22
252.82	5.62
253.196	5.56
253.571	5.71
253.947	6.01
254.322	6.48
254.697	5.97
255.073	5.46
255.448	5.48
255.823	5.98
256.198	5.79
256.573	5.62
256.948	5.58
257.323	5.76
257.698	6.09
258.073	5.86
258.448	5.66
258.823	5.53
259.198	5.51
259.573	5.26
259.948	5.24
260.322	5.16
260.697	5.03
261.072	5.13
261.446	5.03
261.821	4.67
262.195	4.71
262.57	4.98
262.944	5.26
263.319	5.34
263.693	5.15
264.067	5
264.442	5.06
264.816	4.82
265.19	4.75
265.564	4.6
265.938	4.6
266.313	4.55
266.687	4.47
267.061	4.65
267.435	4.63
267.809	4.38
268.183	4.51
268.556	4.41
268.93	4.38
269.304	4.41
269.678	4.59
270.051	4.48
270.425	4.34
270.799	4.09
271.172	4.04
271.546	4.04
271.919	4.19
272.293	4.24
272.666	4.48
273.04	4.37
273.413	4.31
273.787	4.36
274.16	4.45
274.533	4.56
274.906	4.48
275.279	4.47
275.653	4.81
276.026	4.8
276.399	4.94
276.772	4.91
277.145	4.87
277.518	4.67
277.891	4.85
278.263	5.08
278.636	5.16
279.009	5.33
279.382	5.41
279.755	5.45
280.127	5.39
280.5	5.28
280.872	5.28
281.245	5.39
281.617	5.36
281.99	5.26
282.362	5.04
282.735	5.03
283.107	5.16
283.479	4.99
283.852	4.94
284.224	4.85
284.596	4.7
284.968	4.74
285.34	4.85
285.713	4.75
286.085	4.46
286.457	4.48
286.829	4.3
287.201	4.21
287.572	4.18
287.944	4.25
288.316	4.27
288.688	4.33
289.06	4.31
289.431	4.3
289.803	4.38
290.175	4.53
290.546	4.38
290.918	4.25
291.289	4.2
291.661	4.22
292.032	4.22
292.403	4.27
292.775	4.38
293.146	4.56
293.517	4.52
293.889	4.57
294.26	4.5
294.631	4.52
295.002	4.55
295.373	4.47
295.744	4.34
296.115	4.36
296.486	4.39
296.857	4.52
297.228	4.42
297.599	4.47
297.97	4.48
298.34	4.62
298.711	4.65
299.082	4.74
299.452	4.65
299.823	4.72
300.194	4.75
300.564	4.61
300.935	4.49
301.305	4.47
301.676	4.37
302.046	4.45
302.416	4.4
302.787	4.48
303.157	4.57
303.527	4.8
303.897	4.75
304.267	4.75
304.637	4.65
305.008	4.6
305.378	4.62
305.748	4.61
306.117	4.66
306.487	4.71
306.857	4.68
307.227	4.9
307.597	4.89
307.967	4.96
308.336	5.03
308.706	4.97
309.076	5
309.445	5.26
309.815	5.26
310.184	5.24
310.554	5.15
310.923	5.15
311.293	5.14
311.662	5.15
312.031	4.97
312.401	5.01
312.77	5.11
313.139	5.13
313.508	5.16
313.877	5.14
314.246	5.09
314.616	5.24
314.985	5.07
315.353	5.01
315.722	5.09
316.091	4.97
316.46	4.99
316.829	5.02
317.198	4.95
317.567	5.05
317.935	5.22
318.304	5.49
318.672	5.56
319.041	5.51
319.41	5.6
319.778	5.71
320.147	5.68
320.515	5.61
320.883	5.55
321.252	5.6
321.62	5.49
321.988	5.57
322.357	5.54
322.725	5.49
323.093	5.49
323.461	5.47
323.829	5.51
324.197	5.45
324.565	5.49
324.933	5.47
325.301	5.21
325.669	5.12
326.037	4.86
326.405	4.83
326.772	4.78
327.14	4.67
327.508	4.6
327.875	4.35
328.243	4.38
328.61	4.44
328.978	4.28
329.346	4.45
329.713	4.33
330.08	4.32
330.448	4.4
330.815	4.43
331.182	4.21
331.55	4.26
331.917	4.2
332.284	4.28
332.651	4.2
333.018	4.28
333.385	4.3
333.752	4.38
334.119	4.33
334.486	4.32
334.853	4.39
335.22	4.45
335.587	4.53
335.954	4.54
336.32	4.46
336.687	4.66
337.054	4.44
337.42	4.47
337.787	4.4
338.153	4.46
338.52	4.54
338.886	4.71
339.253	4.65
339.619	4.71
339.986	4.6
340.352	4.65
340.718	4.65
341.084	4.63
341.451	4.56
341.817	4.64
342.183	4.54
342.549	4.53
342.915	4.5
343.281	4.48
343.647	4.55
344.013	4.57
344.379	4.45
344.745	4.5
345.11	4.53
345.476	4.52
345.842	4.49
346.208	4.4
346.573	4.45
346.939	4.47
347.304	4.46
347.67	4.42
348.035	4.45
348.401	4.44
348.766	4.3
349.132	4.42
349.497	4.4
349.862	4.45
350.228	4.53
350.593	4.55
350.958	4.62
351.323	4.57
351.688	4.55
352.053	4.47
352.418	4.59
352.783	4.53
353.148	4.55
353.513	4.52
353.878	4.53
354.243	4.35
354.608	4.43
354.972	4.39
355.337	4.38
355.702	4.29
356.066	4.3
356.431	4.36
356.795	4.26
357.16	4.16
357.524	4.23
357.889	4.22
358.253	4.3
358.618	4.3
358.982	4.32
359.346	4.37
359.71	4.42
360.075	4.35
360.439	4.42
360.803	4.42
361.167	4.39
361.531	4.37
361.895	4.44
362.259	4.49
362.623	4.54
362.987	4.51
363.351	4.54
363.714	4.53
364.078	4.64
364.442	4.67
364.806	4.78
365.169	4.73
365.533	4.74
365.896	4.69
366.26	4.65
366.623	4.63
366.987	4.65
367.35	4.75
367.714	4.77
368.077	4.72
368.44	4.73
368.803	4.7
369.167	4.69
369.53	4.7
369.893	4.62
370.256	4.61
370.619	4.62
370.982	4.59
371.345	4.56
371.708	4.47
372.071	4.48
372.434	4.43
372.797	4.48
373.159	4.45
373.522	4.47
373.885	4.48
374.247	4.45
374.61	4.42
374.973	4.33
375.335	4.31
375.698	4.34
376.06	4.34
376.423	4.37
376.785	4.47
377.147	4.42
377.51	4.37
377.872	4.41
378.234	4.47
378.596	4.52
378.958	4.59
379.321	4.58
379.683	4.6
380.045	4.55
380.407	4.52
380.769	4.47
381.13	4.46
381.492	4.47
381.854	4.55
382.216	4.56
382.578	4.52
382.939	4.52
383.301	4.47
383.663	4.45
384.024	4.42
384.386	4.34
384.747	4.36
385.109	4.42
385.47	4.41
385.832	4.44
386.193	4.43
386.554	4.38
386.916	4.39
387.277	4.4
387.638	4.39
387.999	4.42
388.36	4.43
388.721	4.44
389.082	4.44
389.443	4.44
389.804	4.42
390.165	4.45
390.526	4.5
390.887	4.53
391.248	4.51
391.609	4.56
391.969	4.55
392.33	4.53
392.691	4.52
393.051	4.48
393.412	4.45
393.772	4.43
394.133	4.43
394.493	4.44
394.854	4.42
395.214	4.49
395.574	4.46
395.935	4.48
396.295	4.46
396.655	4.46
397.015	4.44
397.376	4.42
397.736	4.38
398.096	4.3
398.456	4.28
398.816	4.28
399.176	4.24
399.535	4.26
399.895	4.28
400.255	4.27
400.615	4.29
400.975	4.29
401.334	4.31
401.694	4.34
402.054	4.32
402.413	4.31
402.773	4.24
403.132	4.24
403.492	4.22
403.851	4.2
404.211	4.18
404.57	4.19
404.929	4.19
405.288	4.21
405.648	4.24
406.007	4.25
406.366	4.26
406.725	4.28
407.084	4.3
407.443	4.27
407.802	4.25
408.161	4.26
408.52	4.27
408.879	4.24
409.238	4.22
409.596	4.23
409.955	4.23
410.314	4.27
410.673	4.3
411.031	4.29
411.39	4.28
411.748	4.29
412.107	4.27
412.465	4.28
412.824	4.31
413.182	4.28
413.54	4.28
413.899	4.28
414.257	4.28
414.615	4.26
414.974	4.3
415.332	4.3
415.69	4.29
416.048	4.26
416.406	4.28
416.764	4.28
417.122	4.27
417.48	4.26
417.838	4.22
418.195	4.2
418.553	4.18
418.911	4.18
419.269	4.18
419.626	4.18
419.984	4.17
420.342	4.16
420.699	4.16
421.057	4.16
421.414	4.16
421.772	4.15
422.129	4.13
422.486	4.12
422.844	4.11
423.201	4.11
423.558	4.11
423.915	4.09
424.273	4.07
424.63	4.07
424.987	4.08
425.344	4.09
425.701	4.11
426.058	4.14
426.415	4.12
426.772	4.13
427.128	4.13
427.485	4.14
427.842	4.13
428.199	4.17
428.555	4.16
428.912	4.14
429.269	4.14
429.625	4.16
429.982	4.15
430.338	4.15
430.695	4.11
431.051	4.13
431.407	4.13
431.764	4.14
432.12	4.15
432.476	4.13
432.832	4.14
433.189	4.14
433.545	4.13
433.901	4.13
434.257	4.12
434.613	4.1
434.969	4.06
435.325	4.08
435.681	4.05
436.036	4.05
436.392	4.03
436.748	4.03
437.104	4.02
437.459	4.05
437.815	4.04
438.171	4.05
438.526	4.05
438.882	4.04
439.237	4.05
439.593	4.05
439.948	4.06
440.304	4.05
440.659	4.05
441.014	4.05
441.369	4.07
441.725	4.07
442.08	4.07
442.435	4.09
442.79	4.06
443.145	4.07
443.5	4.09
443.855	4.1
444.21	4.1
444.565	4.1
444.92	4.09
445.275	4.09
445.629	4.08
445.984	4.09
446.339	4.1
446.693	4.08
447.048	4.07
447.403	4.05
447.757	4.06
448.112	4.03
448.466	4.03
448.82	4.03
449.175	4.04
449.529	4.02
449.883	4.03
450.238	4.03
450.592	4
450.946	3.99
451.3	3.99
451.654	3.98
452.008	3.95
452.362	3.95
452.716	3.96
453.07	3.96
453.424	3.93
453.778	3.93
454.132	3.92
454.486	3.93
454.839	3.91
455.193	3.89
455.547	3.89
455.9	3.89
456.254	3.91
456.607	3.91
456.961	3.93
457.314	3.93
457.668	3.95
458.021	3.96
458.375	3.97
458.728	3.98
459.081	3.99
459.434	3.99
459.787	4.01
460.141	4.01
460.494	4.02
460.847	4.03
461.2	4.04
461.553	4.07
461.906	4.07
462.259	4.08
462.611	4.1
462.964	4.13
463.317	4.13
463.67	4.11
464.022	4.1
464.375	4.12
464.728	4.13
465.08	4.13
465.433	4.13
465.785	4.12
466.138	4.11
466.49	4.12
466.843	4.15
467.195	4.16
467.547	4.14
467.899	4.16
468.252	4.17
468.604	4.13
468.956	4.12
469.308	4.13
469.66	4.13
470.012	4.13
470.364	4.12
470.716	4.13
471.068	4.13
471.42	4.12
471.772	4.1
472.123	4.11
472.475	4.13
472.827	4.14
473.178	4.18
473.53	4.19
473.882	4.19
474.233	4.2
474.585	4.18
474.936	4.19
475.288	4.16
475.639	4.14
475.99	4.16
476.342	4.17
476.693	4.16
477.044	4.17
477.395	4.16
477.746	4.14
478.097	4.14
478.448	4.13
478.8	4.15
479.15	4.14
479.501	4.11
479.852	4.09
480.203	4.07
480.554	4.06
480.905	4.05
481.255	4.06
481.606	4.04
481.957	4.06
482.307	4.05
482.658	4.07
483.009	4.07
483.359	4.08
483.709	4.09
484.06	4.1
484.41	4.1
484.761	4.11
485.111	4.12
485.461	4.12
485.811	4.13
486.162	4.13
486.512	4.13
486.862	4.15
487.212	4.16
487.562	4.16
487.912	4.17
488.262	4.18
488.612	4.19
488.961	4.2
489.311	4.2
489.661	4.21
490.011	4.21
490.36	4.23
490.71	4.22
491.06	4.23
491.409	4.22
491.759	4.23
492.108	4.23
492.458	4.22
492.807	4.23
493.157	4.24
493.506	4.25
493.855	4.26
494.204	4.26
494.554	4.28
494.903	4.28
495.252	4.3
495.601	4.29
495.95	4.29
496.299	4.29
496.648	4.28
496.997	4.29
497.346	4.31
497.695	4.32
498.043	4.34
498.392	4.32
498.741	4.35
499.09	4.36
499.438	4.38
499.787	4.38
500.135	4.41
500.484	4.42
500.832	4.4
501.181	4.41
501.529	4.41
501.878	4.41
502.226	4.42
502.574	4.43
502.923	4.46
503.271	4.48
503.619	4.49
503.967	4.53
504.315	4.54
504.663	4.51
505.011	4.53
505.359	4.53
505.707	4.55
506.055	4.52
506.403	4.52
506.751	4.52
507.098	4.57
507.446	4.57
507.794	4.57
508.141	4.62
508.489	4.64
508.837	4.66
509.184	4.66
509.531	4.65
509.879	4.64
510.226	4.62
510.574	4.63
510.921	4.64
511.268	4.65
511.616	4.66
511.963	4.67
512.31	4.65
512.657	4.65
513.004	4.66
513.351	4.68
513.698	4.69
514.045	4.72
514.392	4.71
514.739	4.7
515.086	4.7
515.432	4.7
515.779	4.69
516.126	4.72
516.473	4.73
516.819	4.76
517.166	4.8
517.512	4.84
517.859	4.83
518.205	4.84
518.552	4.86
518.898	4.85
519.245	4.88
519.591	4.92
519.937	4.92
520.283	4.93
520.629	4.93
520.976	4.94
521.322	4.93
521.668	4.95
522.014	4.96
522.36	4.97
522.706	4.98
523.052	5
523.398	4.97
523.743	4.99
524.089	5
524.435	5.01
524.781	4.99
525.126	5
525.472	5
525.817	4.98
526.163	4.99
526.509	5.01
526.854	5.01
527.199	5.03
527.545	5.04
527.89	5.05
528.235	5.06
528.581	5.06
528.926	5.05
529.271	5.04
529.616	5.05
529.961	5.05
530.306	5.05
530.651	5.06
530.996	5.07
531.341	5.08
531.686	5.07
532.031	5.08
532.376	5.08
532.721	5.09
533.065	5.11
533.41	5.12
533.755	5.11
534.099	5.11
534.444	5.1
534.788	5.1
535.133	5.1
535.477	5.1
535.822	5.11
536.166	5.12
536.51	5.13
536.855	5.12
537.199	5.14
537.543	5.14
537.887	5.14
538.231	5.14
538.576	5.11
538.92	5.13
539.264	5.14
539.608	5.15
539.951	5.15
540.295	5.14
540.639	5.15
540.983	5.16
541.327	5.16
541.671	5.17
542.014	5.19
542.358	5.19
542.701	5.19
543.045	5.19
543.389	5.2
543.732	5.21
544.075	5.22
544.419	5.19
544.762	5.19
545.105	5.2
545.449	5.2
545.792	5.24
546.135	5.24
546.478	5.24
546.821	5.26
547.165	5.27
547.508	5.3
547.851	5.3
548.194	5.29
548.536	5.3
548.879	5.3
549.222	5.32
549.565	5.31
549.908	5.28
550.25	5.29
550.593	5.28
550.936	5.29
551.278	5.3
551.621	5.33
551.963	5.37
552.306	5.36
552.648	5.36
552.991	5.34
553.333	5.31
553.675	5.3
554.017	5.3
554.36	5.28
554.702	5.26
555.044	5.23
555.386	5.25
555.728	5.25
556.07	5.25
556.412	5.25
556.754	5.22
557.096	5.25
557.438	5.25
557.78	5.28
558.121	5.27
558.463	5.26
558.805	5.26
559.147	5.27
559.488	5.25
559.83	5.25
560.171	5.23
560.513	5.27
560.854	5.27
561.196	5.26
561.537	5.28
561.878	5.27
562.22	5.32
562.561	5.31
562.902	5.3
563.243	5.29
563.584	5.28
563.925	5.33
564.266	5.32
564.607	5.32
564.948	5.32
565.289	5.35
565.63	5.33
565.971	5.35
566.312	5.34
566.653	5.37
566.993	5.38
567.334	5.42
567.675	5.45
568.015	5.44
568.356	5.44
568.696	5.45
569.037	5.47
569.377	5.46
569.718	5.46
570.058	5.47
570.398	5.46
570.739	5.46
571.079	5.45
571.419	5.46
571.759	5.45
572.099	5.41
572.439	5.4
572.779	5.41
573.119	5.42
573.459	5.4
573.799	5.39
574.139	5.4
574.479	5.37
574.819	5.36
575.158	5.39
575.498	5.4
575.838	5.41
576.177	5.41
576.517	5.39
576.856	5.4
577.196	5.41
577.535	5.42
577.875	5.41
578.214	5.43
578.553	5.41
578.893	5.44
579.232	5.48
579.571	5.5
579.91	5.52
580.25	5.5
580.589	5.51
580.928	5.51
581.267	5.5
581.606	5.56
581.945	5.53
582.283	5.52
582.622	5.48
582.961	5.47
583.3	5.47
583.639	5.51
583.977	5.53
584.316	5.55
584.654	5.57
584.993	5.55
585.332	5.54
585.67	5.58
586.008	5.57
586.347	5.56
586.685	5.49
587.024	5.48
587.362	5.49
587.7	5.49
588.038	5.52
588.376	5.52
588.715	5.47
589.053	5.49
589.391	5.48
589.729	5.5
590.067	5.49
590.404	5.5
590.742	5.5
591.08	5.53
591.418	5.49
591.756	5.47
592.093	5.5
592.431	5.52
592.769	5.51
593.106	5.51
593.444	5.55
593.781	5.62
594.119	5.6
594.456	5.62
594.793	5.66
595.131	5.66
595.468	5.69
595.805	5.71
596.143	5.73
596.48	5.73
596.817	5.72
597.154	5.75
597.491	5.74
597.828	5.69
598.165	5.66
598.502	5.68
598.839	5.7
599.176	5.71
599.512	5.72
599.849	5.75
600.186	5.79
600.523	5.78
600.859	5.76
601.196	5.79
601.532	5.76
601.869	5.75
602.205	5.75
602.542	5.74
602.878	5.73
603.215	5.74
603.551	5.76
603.887	5.77
604.223	5.75
604.56	5.75
604.896	5.8
605.232	5.81
605.568	5.79
605.904	5.8
606.24	5.82
606.576	5.83
606.912	5.82
607.248	5.85
607.583	5.84
607.919	5.85
608.255	5.84
608.591	5.88
608.926	5.84
609.262	5.82
609.597	5.8
609.933	5.81
610.268	5.84
610.604	5.86
610.939	5.9
611.275	5.92
611.61	5.92
611.945	5.89
612.281	5.91
612.616	5.95
612.951	5.93
613.286	5.87
613.621	5.87
613.956	5.9
614.291	5.84
614.626	5.85
614.961	5.86
615.296	5.89
615.631	5.91
615.966	5.96
616.3	5.99
616.635	6.03
616.97	6.02
617.304	5.95
617.639	5.94
617.973	5.91
618.308	5.89
618.642	5.87
618.977	5.84
619.311	5.81
619.646	5.8
619.98	5.85
620.314	5.89
620.648	5.88
620.983	5.83
621.317	5.83
621.651	5.85
621.985	5.88
622.319	5.83
622.653	5.81
622.987	5.8
623.321	5.79
623.655	5.77
623.988	5.79
624.322	5.85
624.656	5.84
624.99	5.83
625.323	5.87
625.657	5.96
625.99	5.99
626.324	6.01
626.657	6
626.991	6.01
627.324	6.04
627.658	6.02
627.991	6.06
628.324	6.04
628.657	6.02
628.991	6.04
629.324	6.04
629.657	6.05
629.99	6.02
630.323	6.04
630.656	6.06
630.989	6.01
631.322	5.93
631.655	5.93
631.987	5.95
632.32	5.94
632.653	5.9
632.986	5.89
633.318	5.92
633.651	5.97
633.984	5.95
634.316	5.93
634.649	5.92
634.981	5.9
635.313	5.95
635.646	5.97
635.978	5.96
636.31	5.98
636.643	5.98
636.975	6.01
637.307	6
637.639	6.02
637.971	6.1
638.303	6.08
638.635	6.06
638.967	6.05
639.299	6.01
639.631	6.04
639.963	6.01
640.295	6
640.626	5.92
640.958	5.88
641.29	5.89
641.621	5.9
641.953	5.85
642.285	5.82
642.616	5.83
642.948	5.72
643.279	5.73
643.61	5.73
643.942	5.75
644.273	5.79
644.604	5.74
644.936	5.74
645.267	5.84
645.598	5.87
645.929	5.87
646.26	5.91
646.591	5.91
646.922	5.94
647.253	5.87
647.584	5.98
647.915	6.08
648.245	6.12
648.576	6.16
648.907	6.27
649.238	6.27
649.568	6.31
649.899	6.41
650.229	6.42
650.56	6.44
650.89	6.5
651.221	6.44
651.551	6.44
651.882	6.37
652.212	6.35
652.542	6.35
652.872	6.34
653.203	6.43
653.533	6.35
653.863	6.38
654.193	6.45
654.523	6.36
654.853	6.38
655.183	6.35
655.513	6.28
655.843	6.2
656.172	6.24
656.502	6.13
656.832	6.12
657.162	6.14
657.491	6.13
657.821	6.06
658.15	6.06
658.48	6.13
658.809	6.17
659.139	6.2
659.468	6.19
659.798	6.24
660.127	6.12
660.456	6.18
660.785	6.14
661.115	6.15
661.444	6.27
661.773	6.2
662.102	6.17
662.431	6.29
662.76	6.33
663.089	6.4
663.418	6.53
663.747	6.55
664.076	6.57
664.404	6.56
664.733	6.58
665.062	6.58
665.39	6.49
665.719	6.44
666.048	6.43
666.376	6.46
666.705	6.5
667.033	6.55
667.362	6.55
667.69	6.65
668.018	6.61
668.347	6.51
668.675	6.52
669.003	6.56
669.331	6.51
669.659	6.47
669.987	6.41
670.315	6.33
670.643	6.36
670.971	6.39
671.299	6.4
671.627	6.49
671.955	6.53
672.283	6.56
672.61	6.58
672.938	6.55
673.266	6.55
673.593	6.52
673.921	6.57
674.249	6.53
674.576	6.45
674.904	6.47
675.231	6.46
675.558	6.56
675.886	6.58
676.213	6.62
676.54	6.66
676.867	6.66
677.195	6.71
677.522	6.69
677.849	6.68
678.176	6.68
678.503	6.61
678.83	6.61
679.157	6.68
679.484	6.73
679.81	6.76
