Data from BA44024_Reflection_00015.txt Node
Date: Tue Nov 19 11:49:04 EST 2019
User: vgr7
Spectrometer: USB2G7710
Scans to average: 3
Trigger mode: 4
Integration Time (sec): 2.000000E-2
Electric dark correction enabled: true
Boxcar width: 10
XAxis mode: Wavelengths
Number of Pixels in Spectrum: 2048
>>>>>Begin Spectral Data<<<<<
177.721	51.04
178.105	128.17
178.488	114
178.871	-1.27
179.254	33.85
179.636	70.87
180.019	104.52
180.402	18.18
180.785	68.49
181.168	112.77
181.55	75.46
181.933	100.62
182.316	72.76
182.698	100.55
183.081	170.92
183.463	226.24
183.846	237.74
184.228	469.89
184.611	-686.62
184.993	-152.94
185.376	-187.02
185.758	-130.85
186.14	-77.89
186.522	-43.42
186.904	-83.83
187.287	-68.07
187.669	-21.45
188.051	-48.24
188.433	-72.68
188.815	-53.59
189.197	-38.51
189.579	-31.76
189.961	-43.52
190.342	-40.12
190.724	-62.22
191.106	-48.62
191.488	-41.15
191.869	-35.66
192.251	-45.82
192.633	-41.44
193.014	-35.53
193.396	-34.57
193.777	-34.91
194.159	-37.65
194.54	-30
194.922	-29.55
195.303	-24.18
195.684	-48.35
196.065	-34.19
196.447	-38.81
196.828	-42.6
197.209	-26.02
197.59	-10.11
197.971	2.97
198.352	4.01
198.733	15.88
199.114	16.29
199.495	31.03
199.876	26.4
200.257	15.64
200.638	12.05
201.018	-7.62
201.399	-3.58
201.78	-2.96
202.16	-12.94
202.541	-23.27
202.922	-35.15
203.302	-47.57
203.683	-46.3
204.063	-72.08
204.444	-53.02
204.824	-47.8
205.204	-50.41
205.585	-48.3
205.965	-46.37
206.345	-78.63
206.725	-59.36
207.106	-59.12
207.486	-78.85
207.866	-66.84
208.246	-50.32
208.626	-46.26
209.006	-33.55
209.386	-43.1
209.766	-49.81
210.145	-34.55
210.525	-35.91
210.905	-9.49
211.285	9.9
211.664	27.26
212.044	37.63
212.424	23.85
212.803	23.63
213.183	27
213.562	13.75
213.942	17.37
214.321	32.7
214.701	23.47
215.08	21.14
215.459	26.94
215.838	16.87
216.218	10.72
216.597	7.35
216.976	-8.25
217.355	-10.75
217.734	-19.83
218.113	-13.44
218.492	-14.89
218.871	-23.55
219.25	-38.46
219.629	-46.89
220.008	-36.16
220.387	-36.16
220.766	-34.01
221.144	-37.43
221.523	-32.16
221.902	-27.23
222.28	-20.42
222.659	-6.93
223.037	-5.21
223.416	-9.4
223.794	-6.44
224.173	-5.78
224.551	-4.4
224.929	4.8
225.308	5.14
225.686	12.02
226.064	6.24
226.442	9.41
226.821	9.94
227.199	8.01
227.577	4.59
227.955	3.75
228.333	-0.22
228.711	0.18
229.089	-1.82
229.467	-4.71
229.845	-10.2
230.222	-12.93
230.6	-18.26
230.978	-17.86
231.356	-18.48
231.733	-16.04
232.111	-14.04
232.488	-13.97
232.866	-11.47
233.243	-10.79
233.621	-9.91
233.998	-9.19
234.376	-9.02
234.753	-9.63
235.13	-8.88
235.508	-6.07
235.885	-5.66
236.262	-4.1
236.639	-4.69
237.016	-3.03
237.393	-1.66
237.77	0.63
238.147	0.28
238.524	1.65
238.901	0.41
239.278	0.39
239.655	0.34
240.032	1.12
240.409	1.1
240.785	0.94
241.162	1.19
241.539	1.24
241.915	2.2
242.292	2.61
242.668	3.33
243.045	3.89
243.421	4.06
243.798	4.54
244.174	4.82
244.551	5.04
244.927	4.8
245.303	4.72
245.679	4.56
246.056	4.81
246.432	4.87
246.808	5.33
247.184	5.48
247.56	5.32
247.936	5.45
248.312	5.54
248.688	5.57
249.064	5.45
249.44	5.38
249.815	5.25
250.191	4.87
250.567	4.83
250.943	4.84
251.318	4.76
251.694	4.35
252.069	4.36
252.445	4.41
252.82	4.91
253.196	4.79
253.571	5.21
253.947	4.96
254.322	4.37
254.697	4.32
255.073	4.26
255.448	4.27
255.823	3.8
256.198	3.59
256.573	3.58
256.948	3.74
257.323	3.77
257.698	3.71
258.073	3.9
258.448	3.85
258.823	3.55
259.198	3.67
259.573	3.73
259.948	3.64
260.322	3.69
260.697	3.53
261.072	3.55
261.446	3.37
261.821	3.27
262.195	3.53
262.57	3.43
262.944	3.58
263.319	3.62
263.693	3.7
264.067	3.73
264.442	3.64
264.816	3.56
265.19	3.52
265.564	3.53
265.938	3.31
266.313	3.34
266.687	3.5
267.061	3.35
267.435	3.38
267.809	3.32
268.183	3.4
268.556	3.32
268.93	3.45
269.304	3.21
269.678	3.48
270.051	3.47
270.425	3.63
270.799	3.36
271.172	3.34
271.546	3.34
271.919	3.44
272.293	3.51
272.666	3.58
273.04	3.62
273.413	3.59
273.787	3.62
274.16	3.45
274.533	3.37
274.906	3.3
275.279	3.11
275.653	3.24
276.026	3.06
276.399	3.12
276.772	3.12
277.145	3.3
277.518	3.2
277.891	3.05
278.263	3.11
278.636	3.31
279.009	3.45
279.382	3.5
279.755	3.33
280.127	3.3
280.5	3.2
280.872	3.34
281.245	3.31
281.617	3.38
281.99	3.46
282.362	3.56
282.735	3.48
283.107	3.8
283.479	3.83
283.852	3.69
284.224	3.75
284.596	3.69
284.968	3.66
285.34	3.81
285.713	3.99
286.085	3.83
286.457	3.89
286.829	3.83
287.201	3.94
287.572	4.05
287.944	4.14
288.316	4.08
288.688	4.09
289.06	4.05
289.431	4.09
289.803	4.06
290.175	4.08
290.546	4.26
290.918	4.15
291.289	4.03
291.661	4.33
292.032	4.25
292.403	4.22
292.775	4.42
293.146	4.25
293.517	4.34
293.889	4.42
294.26	4.23
294.631	4.3
295.002	4.38
295.373	4.35
295.744	4.47
296.115	4.55
296.486	4.58
296.857	4.75
297.228	4.86
297.599	5.05
297.97	5.09
298.34	5.25
298.711	5.32
299.082	5.46
299.452	5.29
299.823	5.39
300.194	5.58
300.564	5.59
300.935	5.84
301.305	5.8
301.676	5.75
302.046	5.9
302.416	5.89
302.787	5.91
303.157	5.97
303.527	5.86
303.897	5.93
304.267	5.88
304.637	5.96
305.008	5.97
305.378	5.89
305.748	6.04
306.117	5.93
306.487	5.98
306.857	6.13
307.227	6.45
307.597	6.41
307.967	6.39
308.336	6.29
308.706	6.13
309.076	6.21
309.445	6.56
309.815	6.72
310.184	6.9
310.554	6.82
310.923	6.91
311.293	6.97
311.662	7.16
312.031	7.29
312.401	7.25
312.77	7.24
313.139	7.34
313.508	7.25
313.877	7.24
314.246	7.18
314.616	7.1
314.985	6.92
315.353	7.09
315.722	7.15
316.091	7.46
316.46	7.52
316.829	7.59
317.198	7.37
317.567	7.45
317.935	7.42
318.304	7.64
318.672	7.76
319.041	7.87
319.41	7.72
319.778	7.49
320.147	7.65
320.515	7.74
320.883	7.69
321.252	7.79
321.62	8
321.988	8.09
322.357	8.14
322.725	8.16
323.093	7.99
323.461	8.11
323.829	7.87
324.197	7.85
324.565	7.97
324.933	8.01
325.301	7.94
325.669	7.96
326.037	8
326.405	7.94
326.772	7.85
327.14	7.83
327.508	8.06
327.875	7.91
328.243	7.95
328.61	7.97
328.978	8.03
329.346	8.11
329.713	8.13
330.08	8.31
330.448	8.46
330.815	8.52
331.182	8.45
331.55	8.71
331.917	8.62
332.284	8.52
332.651	8.64
333.018	8.66
333.385	8.68
333.752	8.66
334.119	8.68
334.486	8.71
334.853	8.88
335.22	8.9
335.587	8.91
335.954	9.03
336.32	9.08
336.687	9.18
337.054	9.08
337.42	9.24
337.787	9.21
338.153	9.33
338.52	9.41
338.886	9.54
339.253	9.5
339.619	9.77
339.986	9.87
340.352	9.78
340.718	9.96
341.084	10.11
341.451	10.17
341.817	10.29
342.183	10.43
342.549	10.48
342.915	10.46
343.281	10.64
343.647	10.57
344.013	10.64
344.379	10.45
344.745	10.5
345.11	10.49
345.476	10.51
345.842	10.39
346.208	10.54
346.573	10.36
346.939	10.39
347.304	10.41
347.67	10.32
348.035	10.22
348.401	10.06
348.766	9.99
349.132	10.05
349.497	9.98
349.862	9.9
350.228	9.87
350.593	9.82
350.958	9.75
351.323	9.63
351.688	9.68
352.053	9.82
352.418	9.66
352.783	9.66
353.148	9.64
353.513	9.68
353.878	9.58
354.243	9.65
354.608	9.73
354.972	9.71
355.337	9.77
355.702	9.89
356.066	9.92
356.431	9.84
356.795	9.78
357.16	9.79
357.524	9.79
357.889	9.72
358.253	9.8
358.618	9.79
358.982	9.83
359.346	9.83
359.71	9.77
360.075	9.89
360.439	9.86
360.803	9.82
361.167	9.8
361.531	9.77
361.895	9.78
362.259	9.74
362.623	9.7
362.987	9.66
363.351	9.57
363.714	9.58
364.078	9.63
364.442	9.56
364.806	9.59
365.169	9.55
365.533	9.56
365.896	9.54
366.26	9.46
366.623	9.4
366.987	9.34
367.35	9.36
367.714	9.29
368.077	9.24
368.44	9.23
368.803	9.1
369.167	9.04
369.53	9.05
369.893	8.99
370.256	8.89
370.619	8.81
370.982	8.81
371.345	8.78
371.708	8.7
372.071	8.65
372.434	8.53
372.797	8.49
373.159	8.4
373.522	8.32
373.885	8.4
374.247	8.35
374.61	8.33
374.973	8.24
375.335	8.18
375.698	8.13
376.06	8.07
376.423	8.06
376.785	8.06
377.147	7.93
377.51	7.77
377.872	7.83
378.234	7.83
378.596	7.85
378.958	7.76
379.321	7.69
379.683	7.66
380.045	7.61
380.407	7.64
380.769	7.62
381.13	7.5
381.492	7.41
381.854	7.41
382.216	7.34
382.578	7.29
382.939	7.3
383.301	7.27
383.663	7.26
384.024	7.23
384.386	7.18
384.747	7.15
385.109	7.17
385.47	7.13
385.832	7.09
386.193	6.99
386.554	6.94
386.916	6.94
387.277	6.87
387.638	6.86
387.999	6.78
388.36	6.69
388.721	6.72
389.082	6.69
389.443	6.63
389.804	6.6
390.165	6.57
390.526	6.48
390.887	6.4
391.248	6.3
391.609	6.28
391.969	6.22
392.33	6.21
392.691	6.19
393.051	6.1
393.412	6.07
393.772	6.04
394.133	5.99
394.493	5.92
394.854	5.9
395.214	5.87
395.574	5.85
395.935	5.84
396.295	5.79
396.655	5.7
397.015	5.67
397.376	5.6
397.736	5.52
398.096	5.48
398.456	5.41
398.816	5.37
399.176	5.29
399.535	5.27
399.895	5.21
400.255	5.18
400.615	5.15
400.975	5.06
401.334	5.04
401.694	5.05
402.054	5.01
402.413	4.95
402.773	4.91
403.132	4.84
403.492	4.8
403.851	4.75
404.211	4.75
404.57	4.71
404.929	4.69
405.288	4.72
405.648	4.69
406.007	4.72
406.366	4.74
406.725	4.75
407.084	4.75
407.443	4.72
407.802	4.7
408.161	4.71
408.52	4.71
408.879	4.72
409.238	4.68
409.596	4.66
409.955	4.67
410.314	4.65
410.673	4.65
411.031	4.62
411.39	4.61
411.748	4.64
412.107	4.66
412.465	4.66
412.824	4.63
413.182	4.62
413.54	4.59
413.899	4.55
414.257	4.52
414.615	4.45
414.974	4.45
415.332	4.44
415.69	4.4
416.048	4.37
416.406	4.31
416.764	4.29
417.122	4.26
417.48	4.24
417.838	4.2
418.195	4.17
418.553	4.17
418.911	4.15
419.269	4.1
419.626	4.07
419.984	4.07
420.342	4.04
420.699	4.02
421.057	3.99
421.414	3.98
421.772	3.96
422.129	3.96
422.486	3.94
422.844	3.9
423.201	3.89
423.558	3.89
423.915	3.91
424.273	3.9
424.63	3.91
424.987	3.9
425.344	3.91
425.701	3.88
426.058	3.85
426.415	3.85
426.772	3.86
427.128	3.85
427.485	3.83
427.842	3.83
428.199	3.83
428.555	3.83
428.912	3.83
429.269	3.83
429.625	3.82
429.982	3.82
430.338	3.84
430.695	3.82
431.051	3.81
431.407	3.78
431.764	3.77
432.12	3.77
432.476	3.76
432.832	3.74
433.189	3.76
433.545	3.76
433.901	3.78
434.257	3.77
434.613	3.77
434.969	3.78
435.325	3.76
435.681	3.77
436.036	3.76
436.392	3.76
436.748	3.77
437.104	3.78
437.459	3.8
437.815	3.79
438.171	3.79
438.526	3.79
438.882	3.81
439.237	3.8
439.593	3.78
439.948	3.76
440.304	3.77
440.659	3.76
441.014	3.75
441.369	3.74
441.725	3.73
442.08	3.72
442.435	3.71
442.79	3.71
443.145	3.69
443.5	3.68
443.855	3.67
444.21	3.64
444.565	3.63
444.92	3.61
445.275	3.6
445.629	3.59
445.984	3.57
446.339	3.54
446.693	3.54
447.048	3.53
447.403	3.52
447.757	3.51
448.112	3.53
448.466	3.52
448.82	3.51
449.175	3.5
449.529	3.49
449.883	3.47
450.238	3.48
450.592	3.47
450.946	3.45
451.3	3.44
451.654	3.44
452.008	3.45
452.362	3.44
452.716	3.45
453.07	3.47
453.424	3.46
453.778	3.47
454.132	3.46
454.486	3.47
454.839	3.5
455.193	3.5
455.547	3.49
455.9	3.5
456.254	3.5
456.607	3.5
456.961	3.52
457.314	3.51
457.668	3.5
458.021	3.51
458.375	3.51
458.728	3.52
459.081	3.52
459.434	3.52
459.787	3.52
460.141	3.53
460.494	3.54
460.847	3.56
461.2	3.55
461.553	3.58
461.906	3.58
462.259	3.58
462.611	3.58
462.964	3.58
463.317	3.59
463.67	3.59
464.022	3.59
464.375	3.6
464.728	3.62
465.08	3.64
465.433	3.66
465.785	3.7
466.138	3.7
466.49	3.73
466.843	3.76
467.195	3.78
467.547	3.76
467.899	3.76
468.252	3.76
468.604	3.78
468.956	3.77
469.308	3.77
469.66	3.77
470.012	3.77
470.364	3.77
470.716	3.79
471.068	3.81
471.42	3.84
471.772	3.82
472.123	3.83
472.475	3.85
472.827	3.84
473.178	3.86
473.53	3.88
473.882	3.89
474.233	3.88
474.585	3.87
474.936	3.87
475.288	3.88
475.639	3.88
475.99	3.88
476.342	3.88
476.693	3.88
477.044	3.88
477.395	3.87
477.746	3.83
478.097	3.83
478.448	3.79
478.8	3.76
479.15	3.78
479.501	3.76
479.852	3.75
480.203	3.73
480.554	3.72
480.905	3.7
481.255	3.69
481.606	3.68
481.957	3.68
482.307	3.68
482.658	3.68
483.009	3.68
483.359	3.67
483.709	3.67
484.06	3.68
484.41	3.69
484.761	3.69
485.111	3.73
485.461	3.73
485.811	3.74
486.162	3.75
486.512	3.76
486.862	3.77
487.212	3.78
487.562	3.79
487.912	3.79
488.262	3.8
488.612	3.81
488.961	3.82
489.311	3.83
489.661	3.84
490.011	3.84
490.36	3.86
490.71	3.89
491.06	3.89
491.409	3.9
491.759	3.91
492.108	3.92
492.458	3.93
492.807	3.95
493.157	3.97
493.506	3.98
493.855	3.98
494.204	3.99
494.554	4.01
494.903	4.03
495.252	4.06
495.601	4.1
495.95	4.16
496.299	4.18
496.648	4.23
496.997	4.27
497.346	4.34
497.695	4.38
498.043	4.43
498.392	4.48
498.741	4.54
499.09	4.58
499.438	4.64
499.787	4.69
500.135	4.73
500.484	4.78
500.832	4.83
501.181	4.89
501.529	4.99
501.878	5.05
502.226	5.12
502.574	5.19
502.923	5.25
503.271	5.28
503.619	5.32
503.967	5.35
504.315	5.42
504.663	5.47
505.011	5.52
505.359	5.55
505.707	5.61
506.055	5.67
506.403	5.75
506.751	5.83
507.098	5.9
507.446	5.96
507.794	6.05
508.141	6.13
508.489	6.23
508.837	6.28
509.184	6.36
509.531	6.44
509.879	6.49
510.226	6.56
510.574	6.65
510.921	6.78
511.268	6.86
511.616	6.94
511.963	7.03
512.31	7.14
512.657	7.24
513.004	7.32
513.351	7.45
513.698	7.54
514.045	7.62
514.392	7.72
514.739	7.83
515.086	7.92
515.432	8.04
515.779	8.13
516.126	8.24
516.473	8.34
516.819	8.43
517.166	8.55
517.512	8.66
517.859	8.76
518.205	8.83
518.552	8.93
518.898	9
519.245	9.07
519.591	9.19
519.937	9.32
520.283	9.45
520.629	9.54
520.976	9.65
521.322	9.79
521.668	9.9
522.014	10.03
522.36	10.17
522.706	10.3
523.052	10.46
523.398	10.6
523.743	10.76
524.089	10.93
524.435	11.08
524.781	11.23
525.126	11.37
525.472	11.52
525.817	11.64
526.163	11.76
526.509	11.88
526.854	11.97
527.199	12.05
527.545	12.15
527.89	12.25
528.235	12.37
528.581	12.49
528.926	12.6
529.271	12.74
529.616	12.84
529.961	12.95
530.306	13.09
530.651	13.23
530.996	13.39
531.341	13.53
531.686	13.68
532.031	13.83
532.376	13.99
532.721	14.18
533.065	14.37
533.41	14.57
533.755	14.76
534.099	14.95
534.444	15.14
534.788	15.31
535.133	15.48
535.477	15.68
535.822	15.88
536.166	16.1
536.51	16.29
536.855	16.57
537.199	16.83
537.543	17.08
537.887	17.35
538.231	17.58
538.576	17.87
538.92	18.12
539.264	18.38
539.608	18.59
539.951	18.78
540.295	18.99
540.639	19.18
540.983	19.4
541.327	19.6
541.671	19.83
542.014	20.05
542.358	20.27
542.701	20.47
543.045	20.66
543.389	20.88
543.732	21.09
544.075	21.29
544.419	21.5
544.762	21.72
545.105	21.95
545.449	22.2
545.792	22.4
546.135	22.67
546.478	22.94
546.821	23.27
547.165	23.6
547.508	23.92
547.851	24.25
548.194	24.53
548.536	24.87
548.879	25.2
549.222	25.53
549.565	25.84
549.908	26.12
550.25	26.45
550.593	26.78
550.936	27.15
551.278	27.51
551.621	27.85
551.963	28.19
552.306	28.49
552.648	28.83
552.991	29.14
553.333	29.46
553.675	29.82
554.017	30.07
554.36	30.33
554.702	30.56
555.044	30.85
555.386	31.15
555.728	31.41
556.07	31.62
556.412	31.96
556.754	32.21
557.096	32.58
557.438	32.91
557.78	33.2
558.121	33.41
558.463	33.72
558.805	34
559.147	34.29
559.488	34.57
559.83	34.84
560.171	35.14
560.513	35.37
560.854	35.57
561.196	35.86
561.537	36.12
561.878	36.39
562.22	36.6
562.561	36.81
562.902	37.02
563.243	37.32
563.584	37.47
563.925	37.72
564.266	37.87
564.607	38.12
564.948	38.31
565.289	38.61
565.63	38.73
565.971	38.97
566.312	39.12
566.653	39.33
566.993	39.53
567.334	39.76
567.675	39.9
568.015	40.14
568.356	40.28
568.696	40.52
569.037	40.72
569.377	40.93
569.718	41.09
570.058	41.33
570.398	41.5
570.739	41.79
571.079	41.95
571.419	42.15
571.759	42.26
572.099	42.43
572.439	42.55
572.779	42.73
573.119	42.86
573.459	43.07
573.799	43.23
574.139	43.39
574.479	43.57
574.819	43.78
575.158	43.93
575.498	44.19
575.838	44.36
576.177	44.54
576.517	44.77
576.856	44.93
577.196	45.11
577.535	45.32
577.875	45.48
578.214	45.75
578.553	45.93
578.893	46.15
579.232	46.41
579.571	46.7
579.91	46.92
580.25	47.18
580.589	47.38
580.928	47.57
581.267	47.75
581.606	47.89
581.945	48.12
582.283	48.25
582.622	48.33
582.961	48.47
583.3	48.63
583.639	48.7
583.977	48.93
584.316	49.01
584.654	49.12
584.993	49.17
585.332	49.22
585.67	49.39
586.008	49.53
586.347	49.56
586.685	49.61
587.024	49.7
587.362	49.67
587.7	49.77
588.038	49.83
588.376	49.9
588.715	49.96
589.053	49.98
589.391	50.11
589.729	50.2
590.067	50.26
590.404	50.3
590.742	50.43
591.08	50.48
591.418	50.64
591.756	50.73
592.093	50.81
592.431	50.93
592.769	50.97
593.106	51.02
593.444	51.06
593.781	51.08
594.119	51.1
594.456	51.3
594.793	51.35
595.131	51.43
595.468	51.55
595.805	51.66
596.143	51.8
596.48	51.81
596.817	51.93
597.154	52
597.491	52.08
597.828	52.21
598.165	52.26
598.502	52.3
598.839	52.39
599.176	52.49
599.512	52.59
599.849	52.54
600.186	52.65
600.523	52.82
600.859	52.89
601.196	53.01
601.532	52.91
601.869	52.92
602.205	52.94
602.542	52.94
602.878	53.01
603.215	53.1
603.551	53.2
603.887	53.29
604.223	53.35
604.56	53.46
604.896	53.47
605.232	53.56
605.568	53.6
605.904	53.61
606.24	53.63
606.576	53.75
606.912	53.96
607.248	54.06
607.583	54.04
607.919	54.19
608.255	54.2
608.591	54.41
608.926	54.5
609.262	54.69
609.597	54.81
609.933	54.85
610.268	54.89
610.604	54.97
610.939	54.98
611.275	55
611.61	55
611.945	55.06
612.281	55.07
612.616	55.2
612.951	55.33
613.286	55.41
613.621	55.42
613.956	55.53
614.291	55.52
614.626	55.62
614.961	55.66
615.296	55.79
615.631	55.79
615.966	55.88
616.3	55.82
616.635	55.94
616.97	55.94
617.304	55.92
617.639	55.91
617.973	55.96
618.308	56.18
618.642	56.24
618.977	56.3
619.311	56.49
619.646	56.46
619.98	56.52
620.314	56.6
620.648	56.58
620.983	56.54
621.317	56.63
621.651	56.73
621.985	56.68
622.319	56.76
622.653	56.73
622.987	56.76
623.321	56.84
623.655	56.85
623.988	56.95
624.322	56.99
624.656	56.98
624.99	57.01
625.323	56.89
625.657	56.92
625.99	56.9
626.324	56.86
626.657	56.83
626.991	56.86
627.324	56.8
627.658	56.81
627.991	56.79
628.324	56.81
628.657	56.86
628.991	56.9
629.324	56.93
629.657	57.01
629.99	57.02
630.323	57.04
630.656	56.99
630.989	56.97
631.322	56.9
631.655	56.96
631.987	56.93
632.32	56.91
632.653	56.98
632.986	57.06
633.318	57.05
633.651	57.19
633.984	57.17
634.316	57.24
634.649	57.16
634.981	57.29
635.313	57.35
635.646	57.34
635.978	57.38
636.31	57.43
636.643	57.59
636.975	57.66
637.307	57.65
637.639	57.8
637.971	57.91
638.303	57.97
638.635	58.09
638.967	58.21
639.299	58.3
639.631	58.34
639.963	58.35
640.295	58.4
640.626	58.34
640.958	58.43
641.29	58.49
641.621	58.62
641.953	58.51
642.285	58.44
642.616	58.47
642.948	58.5
643.279	58.44
643.61	58.16
643.942	58.21
644.273	58.24
644.604	58.16
644.936	58.11
645.267	58.2
645.598	58.15
645.929	58.12
646.26	58.2
646.591	58.15
646.922	58.24
647.253	58.18
647.584	58.27
647.915	58.19
648.245	58.21
648.576	58.34
648.907	58.43
649.238	58.52
649.568	58.6
649.899	58.48
650.229	58.43
650.56	58.57
650.89	58.64
651.221	58.69
651.551	58.75
651.882	58.82
652.212	58.74
652.542	58.8
652.872	58.72
653.203	58.64
653.533	58.7
653.863	58.57
654.193	58.68
654.523	58.56
654.853	58.54
655.183	58.49
655.513	58.33
655.843	58.2
656.172	58.1
656.502	58.02
656.832	58.08
657.162	58.1
657.491	58.08
657.821	57.96
658.15	57.91
658.48	57.86
658.809	57.7
659.139	57.76
659.468	57.8
659.798	57.87
660.127	57.89
660.456	57.81
660.785	57.87
661.115	57.81
661.444	57.85
661.773	57.83
662.102	57.77
662.431	57.89
662.76	58.02
663.089	58.06
663.418	58.19
663.747	58.21
664.076	58.28
664.404	58.41
664.733	58.49
665.062	58.57
665.39	58.58
665.719	58.79
666.048	58.84
666.376	58.59
666.705	58.62
667.033	58.61
667.362	58.61
