Data from BA44024_Reflection_00004.txt Node
Date: Tue Nov 19 11:48:39 EST 2019
User: vgr7
Spectrometer: USB2G7710
Scans to average: 3
Trigger mode: 4
Integration Time (sec): 2.000000E-2
Electric dark correction enabled: true
Boxcar width: 10
XAxis mode: Wavelengths
Number of Pixels in Spectrum: 2048
>>>>>Begin Spectral Data<<<<<
177.721	55.67
178.105	159.86
178.488	157.67
178.871	177.22
179.254	89.23
179.636	24.49
180.019	131.65
180.402	-18.18
180.785	2.74
181.168	21.41
181.55	-29.73
181.933	-6.92
182.316	7.38
182.698	28.1
183.081	79.35
183.463	65.21
183.846	81.56
184.228	191.08
184.611	-266.24
184.993	-57.14
185.376	-65.31
185.758	-25.82
186.14	42.11
186.522	46.91
186.904	38.32
187.287	14.12
187.669	-4.42
188.051	-3.44
188.433	-8.7
188.815	-2.52
189.197	-1.3
189.579	-31.76
189.961	-58.17
190.342	-66.34
190.724	-74.41
191.106	-70.48
191.488	-59.42
191.869	-62.51
192.251	-68.12
192.633	-80.2
193.014	-89.37
193.396	-80.25
193.777	-84.01
194.159	-95.13
194.54	-87.02
194.922	-93.6
195.303	-109.89
195.684	-144.25
196.065	-135.44
196.447	-147.66
196.828	-135.43
197.209	-145.24
197.59	-118.41
197.971	-93.85
198.352	-81.95
198.733	-84.08
199.114	-87.16
199.495	-90.54
199.876	-95.43
200.257	-97.83
200.638	-99.6
201.018	-110.88
201.399	-108.24
201.78	-88.21
202.16	-94.36
202.541	-92.34
202.922	-94.36
203.302	-86.57
203.683	-92.12
204.063	-97.85
204.444	-104.43
204.824	-111.83
205.204	-91.84
205.585	-97.22
205.965	-85.52
206.345	-107.55
206.725	-85.66
207.106	-60.48
207.486	-72.58
207.866	-58.98
208.246	-35.75
208.626	-50.78
209.006	-45.82
209.386	-36.98
209.766	-52.04
210.145	-40.74
210.525	-50.77
210.905	-64.09
211.285	-54.11
211.664	-38.39
212.044	-37.95
212.424	-37.4
212.803	-48.36
213.183	-45.77
213.562	-41.65
213.942	-38.46
214.321	-40.19
214.701	-50.39
215.08	-67.2
215.459	-45.96
215.838	-62.98
216.218	-74.89
216.597	-50.71
216.976	-49.83
217.355	-56.19
217.734	-56.79
218.113	-53.43
218.492	-55.75
218.871	-53.95
219.25	-56.24
219.629	-52.57
220.008	-42.11
220.387	-36.16
220.766	-32.43
221.144	-44.01
221.523	-44.62
221.902	-45.05
222.28	-35.37
222.659	-22.6
223.037	-19.73
223.416	-22.09
223.794	-18.87
224.173	-19.07
224.551	-21.22
224.929	-25.08
225.308	-20.37
225.686	-20.51
226.064	-24.2
226.442	-24.67
226.821	-24.22
227.199	-21.58
227.577	-20.95
227.955	-21.37
228.333	-20.83
228.711	-17.15
229.089	-16.2
229.467	-13.67
229.845	-14.66
230.222	-11.33
230.6	-12.95
230.978	-14.27
231.356	-12.14
231.733	-10.19
232.111	-7.87
232.488	-7.36
232.866	-4.14
233.243	-5.14
233.621	-3.53
233.998	-1.85
234.376	1.57
234.753	2.69
235.13	1.98
235.508	0.56
235.885	0.81
236.262	0.55
236.639	-0.2
237.016	0.2
237.393	0.73
237.77	1.04
238.147	0.28
238.524	0.85
238.901	1.67
239.278	1.46
239.655	1.05
240.032	1.21
240.409	0.25
240.785	0.08
241.162	0.79
241.539	0.35
241.915	0.4
242.292	-0.21
242.668	0.34
243.045	0.6
243.421	1.12
243.798	1.37
244.174	1.72
244.551	2.37
244.927	2.3
245.303	1.99
245.679	2.04
246.056	2.35
246.432	2.28
246.808	2.51
247.184	2.51
247.56	2.63
247.936	2.46
248.312	2.98
248.688	3.25
249.064	3.16
249.44	3.2
249.815	3.14
250.191	3.34
250.567	3.31
250.943	3.48
251.318	3.42
251.694	3.18
252.069	3
252.445	2.49
252.82	2.85
253.196	3.22
253.571	3.28
253.947	3.05
254.322	3.02
254.697	2.74
255.073	2.72
255.448	2.86
255.823	3.22
256.198	3.14
256.573	3.1
256.948	3.41
257.323	3.72
257.698	3.78
258.073	3.85
258.448	3.79
258.823	3.69
259.198	3.82
259.573	3.84
259.948	3.9
260.322	3.87
260.697	3.71
261.072	3.81
261.446	3.95
261.821	3.92
262.195	4
262.57	4.18
262.944	4.23
263.319	4.13
263.693	3.99
264.067	3.94
264.442	4
264.816	4
265.19	3.76
265.564	3.93
265.938	3.79
266.313	3.8
266.687	3.42
267.061	3.33
267.435	3.49
267.809	3.39
268.183	3.35
268.556	3.28
268.93	3.11
269.304	3.02
269.678	3.12
270.051	2.95
270.425	2.8
270.799	2.58
271.172	2.58
271.546	2.65
271.919	2.9
272.293	2.82
272.666	2.72
273.04	2.74
273.413	2.61
273.787	2.48
274.16	2.33
274.533	2.74
274.906	2.89
275.279	2.7
275.653	2.79
276.026	2.85
276.399	3.13
276.772	3.21
277.145	3.13
277.518	3.14
277.891	3.22
278.263	3.34
278.636	3.62
279.009	3.75
279.382	3.74
279.755	3.59
280.127	3.57
280.5	3.57
280.872	3.65
281.245	3.73
281.617	3.88
281.99	4.13
282.362	3.98
282.735	3.86
283.107	3.97
283.479	4.06
283.852	4.16
284.224	4.07
284.596	4.05
284.968	4.13
285.34	4.03
285.713	4.14
286.085	4.1
286.457	3.98
286.829	3.9
287.201	3.86
287.572	3.83
287.944	3.85
288.316	3.84
288.688	3.91
289.06	3.86
289.431	3.97
289.803	3.99
290.175	3.95
290.546	3.87
290.918	3.8
291.289	3.63
291.661	3.63
292.032	3.59
292.403	3.6
292.775	3.73
293.146	3.92
293.517	3.81
293.889	3.88
294.26	3.98
294.631	3.94
295.002	4.01
295.373	3.97
295.744	4.08
296.115	4.1
296.486	4.03
296.857	4.1
297.228	3.89
297.599	3.75
297.97	3.89
298.34	4.04
298.711	4.22
299.082	4.35
299.452	4.37
299.823	4.39
300.194	4.23
300.564	4.01
300.935	3.85
301.305	3.82
301.676	3.65
302.046	3.55
302.416	3.67
302.787	3.79
303.157	3.79
303.527	3.6
303.897	3.53
304.267	3.58
304.637	3.69
305.008	3.79
305.378	3.93
305.748	4
306.117	3.92
306.487	3.77
306.857	3.77
307.227	3.79
307.597	3.92
307.967	4.08
308.336	4.24
308.706	4.45
309.076	4.58
309.445	4.78
309.815	4.77
310.184	4.69
310.554	4.5
310.923	4.5
311.293	4.54
311.662	4.6
312.031	4.57
312.401	4.44
312.77	4.49
313.139	4.47
313.508	4.36
313.877	4.34
314.246	4.42
314.616	4.45
314.985	4.47
315.353	4.46
315.722	4.49
316.091	4.5
316.46	4.46
316.829	4.44
317.198	4.32
317.567	4.46
317.935	4.4
318.304	4.49
318.672	4.49
319.041	4.66
319.41	4.68
319.778	4.63
320.147	4.68
320.515	4.52
320.883	4.42
321.252	4.35
321.62	4.3
321.988	4.36
322.357	4.17
322.725	4.11
323.093	3.96
323.461	3.89
323.829	3.84
324.197	3.67
324.565	3.65
324.933	3.59
325.301	3.63
325.669	3.64
326.037	3.66
326.405	3.8
326.772	3.7
327.14	3.47
327.508	3.51
327.875	3.38
328.243	3.58
328.61	3.73
328.978	3.7
329.346	3.75
329.713	3.75
330.08	3.78
330.448	3.86
330.815	3.99
331.182	3.9
331.55	3.94
331.917	3.94
332.284	4.09
332.651	4.1
333.018	3.93
333.385	4.01
333.752	3.92
334.119	3.86
334.486	3.77
334.853	3.98
335.22	3.92
335.587	3.91
335.954	3.75
336.32	3.62
336.687	3.8
337.054	3.66
337.42	3.64
337.787	3.62
338.153	3.58
338.52	3.6
338.886	3.71
339.253	3.6
339.619	3.77
339.986	3.54
340.352	3.54
340.718	3.59
341.084	3.64
341.451	3.72
341.817	3.73
342.183	3.72
342.549	3.73
342.915	3.76
343.281	3.91
343.647	4.01
344.013	4.06
344.379	3.97
344.745	4.11
345.11	4.13
345.476	4.25
345.842	4.23
346.208	4.14
346.573	4.2
346.939	4.25
347.304	4.17
347.67	4.21
348.035	4.28
348.401	4.35
348.766	4.37
349.132	4.37
349.497	4.35
349.862	4.37
350.228	4.29
350.593	4.4
350.958	4.43
351.323	4.34
351.688	4.32
352.053	4.27
352.418	4.31
352.783	4.22
353.148	4.16
353.513	4.16
353.878	4.2
354.243	4.16
354.608	4.31
354.972	4.33
355.337	4.4
355.702	4.32
356.066	4.29
356.431	4.2
356.795	4.14
357.16	4.19
357.524	4.23
357.889	4.27
358.253	4.27
358.618	4.22
358.982	4.26
359.346	4.35
359.71	4.38
360.075	4.38
360.439	4.47
360.803	4.45
361.167	4.41
361.531	4.43
361.895	4.43
362.259	4.36
362.623	4.3
362.987	4.3
363.351	4.34
363.714	4.33
364.078	4.36
364.442	4.39
364.806	4.37
365.169	4.39
365.533	4.38
365.896	4.38
366.26	4.34
366.623	4.32
366.987	4.23
367.35	4.27
367.714	4.15
368.077	4.17
368.44	4.26
368.803	4.26
369.167	4.16
369.53	4.13
369.893	4.13
370.256	4.18
370.619	4.13
370.982	4.07
371.345	4.14
371.708	4.22
372.071	4.23
372.434	4.2
372.797	4.22
373.159	4.18
373.522	4.15
373.885	4.18
374.247	4.22
374.61	4.32
374.973	4.33
375.335	4.41
375.698	4.35
376.06	4.29
376.423	4.32
376.785	4.38
377.147	4.42
377.51	4.39
377.872	4.41
378.234	4.44
378.596	4.53
378.958	4.55
379.321	4.47
379.683	4.45
380.045	4.48
380.407	4.45
380.769	4.49
381.13	4.49
381.492	4.49
381.854	4.5
382.216	4.53
382.578	4.49
382.939	4.46
383.301	4.45
383.663	4.49
384.024	4.47
384.386	4.49
384.747	4.48
385.109	4.52
385.47	4.5
385.832	4.5
386.193	4.47
386.554	4.42
386.916	4.44
387.277	4.45
387.638	4.41
387.999	4.43
388.36	4.44
388.721	4.49
389.082	4.54
389.443	4.49
389.804	4.44
390.165	4.46
390.526	4.49
390.887	4.49
391.248	4.44
391.609	4.49
391.969	4.49
392.33	4.45
392.691	4.41
393.051	4.37
393.412	4.34
393.772	4.37
394.133	4.37
394.493	4.35
394.854	4.37
395.214	4.41
395.574	4.39
395.935	4.37
396.295	4.33
396.655	4.25
397.015	4.27
397.376	4.28
397.736	4.23
398.096	4.25
398.456	4.23
398.816	4.29
399.176	4.26
399.535	4.2
399.895	4.24
400.255	4.26
400.615	4.32
400.975	4.34
401.334	4.36
401.694	4.33
402.054	4.37
402.413	4.38
402.773	4.37
403.132	4.4
403.492	4.43
403.851	4.45
404.211	4.46
404.57	4.47
404.929	4.41
405.288	4.45
405.648	4.39
406.007	4.42
406.366	4.38
406.725	4.35
407.084	4.39
407.443	4.38
407.802	4.38
408.161	4.4
408.52	4.38
408.879	4.36
409.238	4.39
409.596	4.37
409.955	4.33
410.314	4.34
410.673	4.29
411.031	4.27
411.39	4.26
411.748	4.27
412.107	4.26
412.465	4.28
412.824	4.29
413.182	4.35
413.54	4.35
413.899	4.32
414.257	4.33
414.615	4.32
414.974	4.32
415.332	4.32
415.69	4.3
416.048	4.32
416.406	4.3
416.764	4.28
417.122	4.27
417.48	4.29
417.838	4.27
418.195	4.28
418.553	4.28
418.911	4.27
419.269	4.27
419.626	4.29
419.984	4.29
420.342	4.29
420.699	4.27
421.057	4.26
421.414	4.29
421.772	4.3
422.129	4.32
422.486	4.31
422.844	4.32
423.201	4.32
423.558	4.3
423.915	4.31
424.273	4.32
424.63	4.34
424.987	4.34
425.344	4.36
425.701	4.35
426.058	4.35
426.415	4.34
426.772	4.34
427.128	4.34
427.485	4.35
427.842	4.34
428.199	4.34
428.555	4.35
428.912	4.33
429.269	4.31
429.625	4.3
429.982	4.3
430.338	4.29
430.695	4.27
431.051	4.3
431.407	4.3
431.764	4.28
432.12	4.26
432.476	4.24
432.832	4.24
433.189	4.24
433.545	4.23
433.901	4.25
434.257	4.25
434.613	4.26
434.969	4.25
435.325	4.27
435.681	4.28
436.036	4.29
436.392	4.29
436.748	4.31
437.104	4.3
437.459	4.29
437.815	4.29
438.171	4.29
438.526	4.27
438.882	4.26
439.237	4.29
439.593	4.31
439.948	4.32
440.304	4.32
440.659	4.32
441.014	4.33
441.369	4.33
441.725	4.33
442.08	4.32
442.435	4.31
442.79	4.31
443.145	4.29
443.5	4.27
443.855	4.26
444.21	4.24
444.565	4.25
444.92	4.28
445.275	4.26
445.629	4.27
445.984	4.28
446.339	4.29
446.693	4.29
447.048	4.26
447.403	4.26
447.757	4.24
448.112	4.24
448.466	4.23
448.82	4.22
449.175	4.2
449.529	4.19
449.883	4.2
450.238	4.17
450.592	4.17
450.946	4.17
451.3	4.18
451.654	4.18
452.008	4.15
452.362	4.1
452.716	4.09
453.07	4.08
453.424	4.07
453.778	4.07
454.132	4.04
454.486	4.07
454.839	4.07
455.193	4.09
455.547	4.09
455.9	4.09
456.254	4.11
456.607	4.11
456.961	4.1
457.314	4.09
457.668	4.1
458.021	4.1
458.375	4.1
458.728	4.12
459.081	4.12
459.434	4.12
459.787	4.14
460.141	4.15
460.494	4.17
460.847	4.16
461.2	4.16
461.553	4.17
461.906	4.17
462.259	4.15
462.611	4.17
462.964	4.19
463.317	4.2
463.67	4.2
464.022	4.21
464.375	4.21
464.728	4.23
465.08	4.22
465.433	4.22
465.785	4.23
466.138	4.22
466.49	4.25
466.843	4.28
467.195	4.28
467.547	4.29
467.899	4.29
468.252	4.3
468.604	4.3
468.956	4.27
469.308	4.27
469.66	4.3
470.012	4.25
470.364	4.25
470.716	4.25
471.068	4.25
471.42	4.27
471.772	4.29
472.123	4.27
472.475	4.29
472.827	4.31
473.178	4.32
473.53	4.32
473.882	4.3
474.233	4.29
474.585	4.29
474.936	4.29
475.288	4.28
475.639	4.29
475.99	4.3
476.342	4.31
476.693	4.32
477.044	4.32
477.395	4.35
477.746	4.34
478.097	4.33
478.448	4.33
478.8	4.31
479.15	4.31
479.501	4.32
479.852	4.34
480.203	4.35
480.554	4.35
480.905	4.37
481.255	4.38
481.606	4.38
481.957	4.39
482.307	4.4
482.658	4.42
483.009	4.43
483.359	4.43
483.709	4.44
484.06	4.44
484.41	4.45
484.761	4.45
485.111	4.46
485.461	4.47
485.811	4.48
486.162	4.48
486.512	4.49
486.862	4.5
487.212	4.49
487.562	4.48
487.912	4.49
488.262	4.51
488.612	4.5
488.961	4.5
489.311	4.51
489.661	4.51
490.011	4.5
490.36	4.49
490.71	4.49
491.06	4.49
491.409	4.49
491.759	4.47
492.108	4.46
492.458	4.46
492.807	4.47
493.157	4.47
493.506	4.48
493.855	4.47
494.204	4.49
494.554	4.5
494.903	4.5
495.252	4.51
495.601	4.5
495.95	4.51
496.299	4.52
496.648	4.51
496.997	4.53
497.346	4.54
497.695	4.56
498.043	4.57
498.392	4.6
498.741	4.63
499.09	4.65
499.438	4.7
499.787	4.69
500.135	4.7
500.484	4.7
500.832	4.7
501.181	4.71
501.529	4.7
501.878	4.7
502.226	4.72
502.574	4.71
502.923	4.72
503.271	4.74
503.619	4.75
503.967	4.79
504.315	4.81
504.663	4.82
505.011	4.81
505.359	4.81
505.707	4.81
506.055	4.81
506.403	4.83
506.751	4.81
507.098	4.82
507.446	4.84
507.794	4.86
508.141	4.89
508.489	4.92
508.837	4.94
509.184	4.95
509.531	4.96
509.879	4.97
510.226	4.97
510.574	4.97
510.921	4.98
511.268	4.97
511.616	4.96
511.963	4.97
512.31	5.02
512.657	5.04
513.004	5.04
513.351	5.04
513.698	5.04
514.045	5.04
514.392	5.06
514.739	5.06
515.086	5.05
515.432	5.08
515.779	5.09
516.126	5.11
516.473	5.11
516.819	5.11
517.166	5.13
517.512	5.13
517.859	5.15
518.205	5.16
518.552	5.17
518.898	5.19
519.245	5.18
519.591	5.18
519.937	5.17
520.283	5.18
520.629	5.21
520.976	5.21
521.322	5.22
521.668	5.23
522.014	5.25
522.36	5.25
522.706	5.26
523.052	5.25
523.398	5.26
523.743	5.3
524.089	5.31
524.435	5.32
524.781	5.33
525.126	5.34
525.472	5.36
525.817	5.38
526.163	5.38
526.509	5.4
526.854	5.4
527.199	5.41
527.545	5.43
527.89	5.44
528.235	5.45
528.581	5.47
528.926	5.47
529.271	5.47
529.616	5.49
529.961	5.48
530.306	5.48
530.651	5.48
530.996	5.46
531.341	5.46
531.686	5.46
532.031	5.46
532.376	5.47
532.721	5.47
533.065	5.47
533.41	5.48
533.755	5.48
534.099	5.48
534.444	5.48
534.788	5.46
535.133	5.45
535.477	5.44
535.822	5.44
536.166	5.45
536.51	5.45
536.855	5.44
537.199	5.46
537.543	5.47
537.887	5.51
538.231	5.53
538.576	5.55
538.92	5.58
539.264	5.61
539.608	5.61
539.951	5.6
540.295	5.6
540.639	5.59
540.983	5.6
541.327	5.62
541.671	5.61
542.014	5.63
542.358	5.65
542.701	5.67
543.045	5.67
543.389	5.68
543.732	5.7
544.075	5.71
544.419	5.71
544.762	5.71
545.105	5.69
545.449	5.7
545.792	5.69
546.135	5.68
546.478	5.67
546.821	5.66
547.165	5.69
547.508	5.69
547.851	5.69
548.194	5.7
548.536	5.68
548.879	5.7
549.222	5.7
549.565	5.67
549.908	5.65
550.25	5.63
550.593	5.62
550.936	5.6
551.278	5.59
551.621	5.61
551.963	5.6
552.306	5.58
552.648	5.59
552.991	5.59
553.333	5.6
553.675	5.61
554.017	5.63
554.36	5.61
554.702	5.6
555.044	5.59
555.386	5.58
555.728	5.6
556.07	5.57
556.412	5.57
556.754	5.59
557.096	5.59
557.438	5.59
557.78	5.58
558.121	5.6
558.463	5.6
558.805	5.62
559.147	5.61
559.488	5.61
559.83	5.61
560.171	5.64
560.513	5.63
560.854	5.57
561.196	5.63
561.537	5.64
561.878	5.67
562.22	5.69
562.561	5.71
562.902	5.71
563.243	5.72
563.584	5.71
563.925	5.72
564.266	5.75
564.607	5.77
564.948	5.79
565.289	5.79
565.63	5.79
565.971	5.77
566.312	5.78
566.653	5.79
566.993	5.72
567.334	5.72
567.675	5.71
568.015	5.72
568.356	5.65
568.696	5.69
569.037	5.67
569.377	5.68
569.718	5.69
570.058	5.69
570.398	5.71
570.739	5.72
571.079	5.7
571.419	5.7
571.759	5.7
572.099	5.7
572.439	5.71
572.779	5.71
573.119	5.72
573.459	5.76
573.799	5.76
574.139	5.82
574.479	5.82
574.819	5.83
575.158	5.88
575.498	5.93
575.838	5.93
576.177	5.94
576.517	5.97
576.856	5.95
577.196	5.96
577.535	5.99
577.875	5.98
578.214	5.97
578.553	5.99
578.893	5.99
579.232	5.99
579.571	5.99
579.91	5.98
580.25	5.98
580.589	5.96
580.928	5.99
581.267	5.98
581.606	5.98
581.945	5.96
582.283	5.96
582.622	5.91
582.961	5.9
583.3	5.89
583.639	5.87
583.977	5.86
584.316	5.9
584.654	5.86
584.993	5.85
585.332	5.88
585.67	5.84
586.008	5.86
586.347	5.9
586.685	5.87
587.024	5.95
587.362	5.94
587.7	5.98
588.038	5.97
588.376	5.98
588.715	5.96
589.053	5.96
589.391	5.96
589.729	5.97
590.067	5.95
590.404	5.99
590.742	5.95
591.08	5.97
591.418	5.95
591.756	5.96
592.093	6
592.431	6
592.769	6.04
593.106	6.01
593.444	5.99
593.781	6
594.119	5.94
594.456	5.96
594.793	5.91
595.131	5.92
595.468	5.94
595.805	5.96
596.143	5.98
596.48	5.97
596.817	5.97
597.154	6.01
597.491	5.93
597.828	5.93
598.165	5.92
598.502	5.91
598.839	5.89
599.176	5.88
599.512	5.89
599.849	5.88
600.186	5.87
600.523	5.84
600.859	5.85
601.196	5.84
601.532	5.86
601.869	5.87
602.205	5.87
602.542	5.84
602.878	5.86
603.215	5.89
603.551	5.89
603.887	5.94
604.223	5.94
604.56	5.99
604.896	6.06
605.232	6.05
605.568	6.1
605.904	6.12
606.24	6.15
606.576	6.16
606.912	6.14
607.248	6.2
607.583	6.26
607.919	6.27
608.255	6.31
608.591	6.3
608.926	6.27
609.262	6.3
609.597	6.33
609.933	6.35
610.268	6.31
610.604	6.31
610.939	6.26
611.275	6.28
611.61	6.26
611.945	6.23
612.281	6.28
612.616	6.24
612.951	6.26
613.286	6.26
613.621	6.28
613.956	6.35
614.291	6.34
614.626	6.34
614.961	6.33
615.296	6.35
615.631	6.36
615.966	6.39
616.3	6.36
616.635	6.38
616.97	6.35
617.304	6.34
617.639	6.37
617.973	6.38
618.308	6.36
618.642	6.34
618.977	6.32
619.311	6.31
619.646	6.35
619.98	6.35
620.314	6.36
620.648	6.33
620.983	6.35
621.317	6.33
621.651	6.3
621.985	6.3
622.319	6.29
622.653	6.28
622.987	6.34
623.321	6.36
623.655	6.35
623.988	6.36
624.322	6.39
624.656	6.37
624.99	6.36
625.323	6.33
625.657	6.36
625.99	6.36
626.324	6.37
626.657	6.36
626.991	6.33
627.324	6.27
627.658	6.25
627.991	6.21
628.324	6.2
628.657	6.19
628.991	6.17
629.324	6.15
629.657	6.12
629.99	6.13
630.323	6.08
630.656	6.05
630.989	6.04
631.322	6
631.655	5.98
631.987	5.99
632.32	6
632.653	6.02
632.986	6.04
633.318	6.04
633.651	6.03
633.984	6.09
634.316	6.15
634.649	6.16
634.981	6.11
635.313	6.16
635.646	6.2
635.978	6.28
636.31	6.3
636.643	6.31
636.975	6.28
637.307	6.33
637.639	6.37
637.971	6.4
638.303	6.37
638.635	6.45
638.967	6.43
639.299	6.43
639.631	6.46
639.963	6.44
640.295	6.42
640.626	6.47
640.958	6.44
641.29	6.42
641.621	6.41
641.953	6.43
642.285	6.37
642.616	6.36
642.948	6.31
643.279	6.28
643.61	6.29
643.942	6.33
644.273	6.29
644.604	6.24
644.936	6.25
645.267	6.34
645.598	6.3
645.929	6.28
646.26	6.32
646.591	6.32
646.922	6.34
647.253	6.33
647.584	6.24
647.915	6.23
648.245	6.28
648.576	6.3
648.907	6.35
649.238	6.37
649.568	6.39
649.899	6.39
650.229	6.46
650.56	6.56
650.89	6.54
651.221	6.53
651.551	6.56
651.882	6.52
652.212	6.47
652.542	6.5
652.872	6.55
653.203	6.58
653.533	6.56
653.863	6.56
654.193	6.57
654.523	6.56
654.853	6.59
655.183	6.55
655.513	6.59
655.843	6.5
656.172	6.54
656.502	6.47
656.832	6.46
657.162	6.39
657.491	6.35
657.821	6.34
658.15	6.37
658.48	6.42
658.809	6.39
659.139	6.39
659.468	6.38
659.798	6.38
660.127	6.28
660.456	6.27
660.785	6.32
661.115	6.31
661.444	6.37
661.773	6.36
662.102	6.37
662.431	6.36
662.76	6.41
663.089	6.52
663.418	6.59
663.747	6.62
664.076	6.65
664.404	6.69
664.733	6.71
665.062	6.71
665.39	6.71
665.719	6.83
666.048	6.84
666.376	6.83
666.705	6.94
667.033	7
667.362	7.01
667.69	6.95
668.018	7.02
668.347	7.07
668.675	7.08
669.003	7.15
669.331	7.15
669.659	7.07
669.987	6.93
670.315	6.89
670.643	6.85
670.971	6.92
671.299	6.82
671.627	6.86
671.955	6.82
672.283	6.72
672.61	6.66
672.938	6.63
673.266	6.65
673.593	6.57
673.921	6.6
674.249	6.63
674.576	6.65
674.904	6.66
675.231	6.64
675.558	6.64
675.886	6.62
676.213	6.59
676.54	6.77
676.867	6.76
677.195	6.85
