Data from BA44024_Reflection_00008.txt Node
Date: Tue Nov 19 11:48:48 EST 2019
User: vgr7
Spectrometer: USB2G7710
Scans to average: 3
Trigger mode: 4
Integration Time (sec): 2.000000E-2
Electric dark correction enabled: true
Boxcar width: 10
XAxis mode: Wavelengths
Number of Pixels in Spectrum: 2048
>>>>>Begin Spectral Data<<<<<
177.721	37.16
178.105	43.66
178.488	73.68
178.871	44.3
179.254	-12.31
179.636	44.11
180.019	23.15
180.402	127.27
180.785	-104.11
181.168	6.68
181.55	16.55
181.933	19.04
182.316	-10.23
182.698	8.34
183.081	-33.75
183.463	-6.36
183.846	-3.04
184.228	-20.82
184.611	20.38
184.993	3.36
185.376	-40.97
185.758	-45.51
186.14	-84.21
186.522	-24.41
186.904	-47.9
187.287	-93.36
187.669	-44.16
188.051	-48.24
188.433	-72.68
188.815	-82.46
189.197	-59.78
189.579	-52.22
189.961	-84.21
190.342	-75.08
190.724	-76.15
191.106	-79.85
191.488	-75.08
191.869	-71.86
192.251	-96.98
192.633	-99.58
193.014	-90.75
193.396	-100.4
193.777	-102.9
194.159	-110.12
194.54	-112.49
194.922	-109.92
195.303	-109.89
195.684	-129.11
196.065	-128.91
196.447	-106.43
196.828	-90.56
197.209	-94.61
197.59	-70.45
197.971	-42.83
198.352	-43.88
198.733	-47.06
199.114	-62.24
199.495	-56.16
199.876	-56.67
200.257	-40.46
200.638	-37.13
201.018	-48.92
201.399	-32.36
201.78	-15.8
202.16	-2.92
202.541	-4.44
202.922	-7.62
203.302	-7.13
203.683	-30.55
204.063	-50.6
204.444	-71.58
204.824	-74.25
205.204	-64.65
205.585	-73.42
205.965	-71.16
206.345	-89.88
206.725	-79.09
207.106	-65.91
207.486	-71.02
207.866	-66.84
208.246	-50.32
208.626	-59.81
209.006	-58.09
209.386	-67.57
209.766	-81.04
210.145	-86.17
210.525	-97.21
210.905	-85.6
211.285	-69.09
211.664	-38.39
212.044	-37.95
212.424	-30.05
212.803	-44.21
213.183	-43.02
213.562	-33.4
213.942	-45.1
214.321	-39.03
214.701	-44.23
215.08	-30.9
215.459	-25.13
215.838	-17.35
216.218	-27.46
216.597	-26.11
216.976	-35.97
217.355	-34.75
217.734	-40.07
218.113	-33.44
218.492	-27.06
218.871	-27.12
219.25	-18.7
219.629	-32.69
220.008	-24.26
220.387	-16.97
220.766	-8.66
221.144	-6.19
221.523	-8.08
221.902	-3.98
222.28	3.49
222.659	13.01
223.037	4.47
223.416	8.93
223.794	0.46
224.173	-7.04
224.551	-2.38
224.929	-3.35
225.308	-1.54
225.686	-5.67
226.064	-3.71
226.442	-3.9
226.821	-6.9
227.199	-10.82
227.577	-4.99
227.955	-2.74
228.333	-10.11
228.711	-10.6
229.089	-14.72
229.467	-11.16
229.845	-11.92
230.222	-12.93
230.6	-15.45
230.978	-12.18
231.356	-12.72
231.733	-13.53
232.111	-11.35
232.488	-12.95
232.866	-11.22
233.243	-12.75
233.621	-8.96
233.998	-9.63
234.376	-7.73
234.753	-4.74
235.13	-4.17
235.508	-5.09
235.885	-4.9
236.262	-1.42
236.639	-2.27
237.016	-2.22
237.393	-3.16
237.77	-1.94
238.147	-1.72
238.524	-0.75
238.901	-1.38
239.278	-1.84
239.655	-1.08
240.032	-0.77
240.409	-0.36
240.785	-0.57
241.162	-0.02
241.539	-0.03
241.915	0.1
242.292	-0.32
242.668	-0.29
243.045	-0.12
243.421	0.32
243.798	0.59
244.174	0.69
244.551	1.02
244.927	1.4
245.303	1.2
245.679	1.22
246.056	1.32
246.432	1.29
246.808	1.54
247.184	1.72
247.56	1.92
247.936	2.03
248.312	2.26
248.688	2.48
249.064	2.4
249.44	2.29
249.815	2.49
250.191	2.61
250.567	2.74
250.943	2.66
251.318	2.8
251.694	2.28
252.069	2.45
252.445	2.85
252.82	3.2
253.196	3.51
253.571	3.75
253.947	3.93
254.322	3.89
254.697	3.6
255.073	3.56
255.448	3.54
255.823	3.58
256.198	3.57
256.573	3.4
256.948	3.48
257.323	3.36
257.698	3.32
258.073	3.09
258.448	3.06
258.823	3.25
259.198	3.17
259.573	3.26
259.948	3.08
260.322	2.7
260.697	2.61
261.072	2.58
261.446	2.61
261.821	2.61
262.195	2.62
262.57	2.85
262.944	2.99
263.319	3.12
263.693	3.07
264.067	2.96
264.442	2.96
264.816	2.78
265.19	2.83
265.564	2.82
265.938	2.94
266.313	2.62
266.687	2.45
267.061	2.21
267.435	2.31
267.809	2.16
268.183	2.32
268.556	2.2
268.93	2.14
269.304	2.3
269.678	2.32
270.051	2.25
270.425	2.01
270.799	1.85
271.172	1.62
271.546	1.76
271.919	1.97
272.293	2.27
272.666	2.43
273.04	2.54
273.413	2.46
273.787	2.63
274.16	2.76
274.533	2.87
274.906	3.1
275.279	3.23
275.653	3.35
276.026	3.49
276.399	3.58
276.772	3.71
277.145	3.48
277.518	3.4
277.891	3.61
278.263	3.76
278.636	3.82
279.009	3.73
279.382	3.43
279.755	3.3
280.127	3.13
280.5	3.04
280.872	3.13
281.245	3.06
281.617	2.96
281.99	3.04
282.362	3.13
282.735	2.97
283.107	2.9
283.479	3
283.852	2.98
284.224	2.88
284.596	2.77
284.968	2.8
285.34	2.69
285.713	2.62
286.085	2.5
286.457	2.36
286.829	2.48
287.201	2.5
287.572	2.49
287.944	2.36
288.316	2.51
288.688	2.48
289.06	2.53
289.431	2.64
289.803	2.67
290.175	2.59
290.546	2.67
290.918	2.62
291.289	2.4
291.661	2.38
292.032	2.4
292.403	2.42
292.775	2.55
293.146	2.76
293.517	2.76
293.889	2.78
294.26	2.95
294.631	3.11
295.002	3.29
295.373	3.27
295.744	3.29
296.115	3.25
296.486	3.2
296.857	3.28
297.228	3.26
297.599	3.12
297.97	3.14
298.34	3.2
298.711	3.28
299.082	3.43
299.452	3.35
299.823	3.24
300.194	3.2
300.564	3
300.935	3.1
301.305	3.07
301.676	3.11
302.046	3.15
302.416	2.98
302.787	2.99
303.157	2.95
303.527	3.04
303.897	2.95
304.267	2.95
304.637	2.88
305.008	2.89
305.378	3.06
305.748	3.04
306.117	2.93
306.487	2.99
306.857	2.95
307.227	3.09
307.597	3.44
307.967	3.63
308.336	3.69
308.706	3.64
309.076	3.91
309.445	4.06
309.815	4.01
310.184	3.96
310.554	3.9
310.923	3.95
311.293	4.03
311.662	4.17
312.031	4.11
312.401	4.02
312.77	3.89
313.139	3.82
313.508	3.84
313.877	3.94
314.246	3.84
314.616	3.96
314.985	3.99
315.353	3.87
315.722	3.89
316.091	3.89
316.46	3.82
316.829	3.52
317.198	3.56
317.567	3.69
317.935	3.9
318.304	4.13
318.672	4.18
319.041	4.14
319.41	4.02
319.778	4.19
320.147	4.25
320.515	4.39
320.883	4.47
321.252	4.62
321.62	4.56
321.988	4.71
322.357	4.56
322.725	4.5
323.093	4.45
323.461	4.5
323.829	4.56
324.197	4.46
324.565	4.74
324.933	4.65
325.301	4.54
325.669	4.46
326.037	4.3
326.405	4.45
326.772	4.41
327.14	4.53
327.508	4.41
327.875	4.54
328.243	4.55
328.61	4.53
328.978	4.45
329.346	4.56
329.713	4.55
330.08	4.61
330.448	4.79
330.815	4.87
331.182	4.65
331.55	4.52
331.917	4.56
332.284	4.56
332.651	4.55
333.018	4.47
333.385	4.35
333.752	4.46
334.119	4.41
334.486	4.39
334.853	4.31
335.22	4.37
335.587	4.25
335.954	4.26
336.32	4.2
336.687	4.18
337.054	4.18
337.42	4.15
337.787	4.15
338.153	4.04
338.52	4.05
338.886	4.21
339.253	4.34
339.619	4.5
339.986	4.39
340.352	4.45
340.718	4.53
341.084	4.71
341.451	4.74
341.817	4.75
342.183	4.8
342.549	4.89
342.915	4.82
343.281	4.95
343.647	5.06
344.013	5.18
344.379	5.05
344.745	5.06
345.11	5
345.476	5.06
345.842	4.97
346.208	4.88
346.573	4.89
346.939	4.93
347.304	4.82
347.67	4.8
348.035	4.88
348.401	4.81
348.766	4.82
349.132	4.78
349.497	4.76
349.862	4.82
350.228	4.79
350.593	4.88
350.958	4.94
351.323	4.89
351.688	4.87
352.053	5.02
352.418	5.06
352.783	5.13
353.148	5.05
353.513	5.09
353.878	5.02
354.243	5
354.608	4.96
354.972	4.94
355.337	5.01
355.702	4.91
356.066	5.02
356.431	5.06
356.795	5.07
357.16	5.08
357.524	4.98
357.889	4.97
358.253	4.98
358.618	4.86
358.982	4.82
359.346	4.85
359.71	4.86
360.075	4.81
360.439	4.81
360.803	4.87
361.167	4.86
361.531	4.85
361.895	4.84
362.259	4.83
362.623	4.83
362.987	4.76
363.351	4.73
363.714	4.7
364.078	4.6
364.442	4.54
364.806	4.5
365.169	4.49
365.533	4.48
365.896	4.52
366.26	4.53
366.623	4.48
366.987	4.46
367.35	4.43
367.714	4.46
368.077	4.47
368.44	4.49
368.803	4.5
369.167	4.51
369.53	4.47
369.893	4.46
370.256	4.44
370.619	4.43
370.982	4.37
371.345	4.38
371.708	4.36
372.071	4.37
372.434	4.31
372.797	4.43
373.159	4.35
373.522	4.31
373.885	4.27
374.247	4.28
374.61	4.27
374.973	4.2
375.335	4.17
375.698	4.1
376.06	3.99
376.423	3.95
376.785	3.98
377.147	4
377.51	3.96
377.872	4.01
378.234	4.08
378.596	4.14
378.958	4.15
379.321	4.16
379.683	4.11
380.045	4.07
380.407	4.02
380.769	4.05
381.13	3.95
381.492	3.94
381.854	3.89
382.216	3.86
382.578	3.89
382.939	3.89
383.301	3.85
383.663	3.94
384.024	3.92
384.386	3.93
384.747	3.94
385.109	3.93
385.47	3.91
385.832	3.86
386.193	3.8
386.554	3.74
386.916	3.71
387.277	3.68
387.638	3.67
387.999	3.67
388.36	3.66
388.721	3.7
389.082	3.71
389.443	3.77
389.804	3.75
390.165	3.73
390.526	3.68
390.887	3.67
391.248	3.61
391.609	3.63
391.969	3.58
392.33	3.53
392.691	3.5
393.051	3.48
393.412	3.47
393.772	3.45
394.133	3.46
394.493	3.42
394.854	3.42
395.214	3.43
395.574	3.38
395.935	3.31
396.295	3.28
396.655	3.27
397.015	3.24
397.376	3.24
397.736	3.19
398.096	3.18
398.456	3.21
398.816	3.16
399.176	3.09
399.535	3.12
399.895	3.08
400.255	3.1
400.615	3.07
400.975	3.02
401.334	3.03
401.694	3.03
402.054	3.05
402.413	3.09
402.773	3.1
403.132	3.08
403.492	3.13
403.851	3.12
404.211	3.09
404.57	3.07
404.929	3.05
405.288	3.08
405.648	3.09
406.007	3.06
406.366	3.09
406.725	3.08
407.084	3.05
407.443	3.04
407.802	3.04
408.161	3.05
408.52	3.05
408.879	3.04
409.238	3.01
409.596	3.02
409.955	2.98
410.314	2.97
410.673	2.96
411.031	2.92
411.39	2.95
411.748	2.96
412.107	2.93
412.465	2.96
412.824	2.93
413.182	2.92
413.54	2.94
413.899	2.94
414.257	2.97
414.615	2.97
414.974	3.01
415.332	3.02
415.69	3.03
416.048	3.05
416.406	3.03
416.764	3.05
417.122	3.01
417.48	2.99
417.838	2.95
418.195	2.97
418.553	2.97
418.911	2.95
419.269	2.94
419.626	2.94
419.984	2.93
420.342	2.93
420.699	2.9
421.057	2.89
421.414	2.87
421.772	2.87
422.129	2.87
422.486	2.85
422.844	2.83
423.201	2.82
423.558	2.81
423.915	2.82
424.273	2.81
424.63	2.82
424.987	2.84
425.344	2.88
425.701	2.87
426.058	2.87
426.415	2.9
426.772	2.9
427.128	2.91
427.485	2.9
427.842	2.87
428.199	2.9
428.555	2.88
428.912	2.88
429.269	2.87
429.625	2.87
429.982	2.89
430.338	2.9
430.695	2.88
431.051	2.88
431.407	2.86
431.764	2.83
432.12	2.82
432.476	2.81
432.832	2.79
433.189	2.77
433.545	2.76
433.901	2.75
434.257	2.73
434.613	2.71
434.969	2.73
435.325	2.75
435.681	2.76
436.036	2.79
436.392	2.79
436.748	2.79
437.104	2.79
437.459	2.77
437.815	2.78
438.171	2.79
438.526	2.75
438.882	2.77
439.237	2.79
439.593	2.8
439.948	2.81
440.304	2.81
440.659	2.82
441.014	2.83
441.369	2.83
441.725	2.83
442.08	2.84
442.435	2.83
442.79	2.82
443.145	2.8
443.5	2.76
443.855	2.74
444.21	2.74
444.565	2.72
444.92	2.72
445.275	2.71
445.629	2.71
445.984	2.74
446.339	2.74
446.693	2.72
447.048	2.7
447.403	2.69
447.757	2.67
448.112	2.67
448.466	2.65
448.82	2.66
449.175	2.66
449.529	2.65
449.883	2.64
450.238	2.64
450.592	2.65
450.946	2.67
451.3	2.68
451.654	2.69
452.008	2.7
452.362	2.69
452.716	2.71
453.07	2.71
453.424	2.71
453.778	2.69
454.132	2.7
454.486	2.71
454.839	2.72
455.193	2.72
455.547	2.71
455.9	2.72
456.254	2.72
456.607	2.71
456.961	2.71
457.314	2.72
457.668	2.73
458.021	2.73
458.375	2.73
458.728	2.73
459.081	2.74
459.434	2.73
459.787	2.76
460.141	2.75
460.494	2.74
460.847	2.75
461.2	2.76
461.553	2.75
461.906	2.75
462.259	2.74
462.611	2.74
462.964	2.77
463.317	2.75
463.67	2.74
464.022	2.75
464.375	2.76
464.728	2.76
465.08	2.76
465.433	2.76
465.785	2.77
466.138	2.78
466.49	2.79
466.843	2.81
467.195	2.8
467.547	2.79
467.899	2.83
468.252	2.83
468.604	2.8
468.956	2.82
469.308	2.83
469.66	2.84
470.012	2.84
470.364	2.83
470.716	2.85
471.068	2.84
471.42	2.85
471.772	2.86
472.123	2.87
472.475	2.89
472.827	2.88
473.178	2.89
473.53	2.91
473.882	2.9
474.233	2.89
474.585	2.88
474.936	2.9
475.288	2.87
475.639	2.85
475.99	2.86
476.342	2.86
476.693	2.86
477.044	2.87
477.395	2.86
477.746	2.84
478.097	2.83
478.448	2.82
478.8	2.81
479.15	2.79
479.501	2.79
479.852	2.76
480.203	2.77
480.554	2.76
480.905	2.76
481.255	2.76
481.606	2.76
481.957	2.78
482.307	2.78
482.658	2.77
483.009	2.77
483.359	2.79
483.709	2.79
484.06	2.79
484.41	2.8
484.761	2.81
485.111	2.82
485.461	2.82
485.811	2.83
486.162	2.84
486.512	2.84
486.862	2.85
487.212	2.87
487.562	2.87
487.912	2.87
488.262	2.87
488.612	2.87
488.961	2.87
489.311	2.87
489.661	2.88
490.011	2.89
490.36	2.9
490.71	2.89
491.06	2.89
491.409	2.88
491.759	2.88
492.108	2.87
492.458	2.87
492.807	2.88
493.157	2.89
493.506	2.88
493.855	2.88
494.204	2.88
494.554	2.89
494.903	2.9
495.252	2.92
495.601	2.93
495.95	2.95
496.299	2.93
496.648	2.94
496.997	2.94
497.346	2.96
497.695	2.97
498.043	3.02
498.392	3.04
498.741	3.08
499.09	3.11
499.438	3.14
499.787	3.13
500.135	3.14
500.484	3.15
500.832	3.17
501.181	3.19
501.529	3.21
501.878	3.21
502.226	3.21
502.574	3.2
502.923	3.21
503.271	3.25
503.619	3.31
503.967	3.33
504.315	3.33
504.663	3.34
505.011	3.36
505.359	3.34
505.707	3.36
506.055	3.37
506.403	3.38
506.751	3.41
507.098	3.46
507.446	3.5
507.794	3.52
508.141	3.56
508.489	3.59
508.837	3.62
509.184	3.65
509.531	3.68
509.879	3.73
510.226	3.75
510.574	3.75
510.921	3.77
511.268	3.79
511.616	3.85
511.963	3.88
512.31	3.9
512.657	3.94
513.004	3.97
513.351	4.02
513.698	4.05
514.045	4.07
514.392	4.11
514.739	4.15
515.086	4.23
515.432	4.28
515.779	4.32
516.126	4.39
516.473	4.43
516.819	4.5
517.166	4.55
517.512	4.61
517.859	4.66
518.205	4.7
518.552	4.74
518.898	4.77
519.245	4.82
519.591	4.86
519.937	4.91
520.283	4.98
520.629	5.04
520.976	5.09
521.322	5.17
521.668	5.24
522.014	5.3
522.36	5.33
522.706	5.39
523.052	5.47
523.398	5.5
523.743	5.58
524.089	5.65
524.435	5.71
524.781	5.78
525.126	5.84
525.472	5.92
525.817	5.98
526.163	6.05
526.509	6.12
526.854	6.17
527.199	6.23
527.545	6.29
527.89	6.33
528.235	6.38
528.581	6.41
528.926	6.46
529.271	6.53
529.616	6.58
529.961	6.63
530.306	6.67
530.651	6.74
530.996	6.81
531.341	6.88
531.686	6.96
532.031	7.05
532.376	7.14
532.721	7.22
533.065	7.32
533.41	7.39
533.755	7.48
534.099	7.57
534.444	7.68
534.788	7.75
535.133	7.85
535.477	7.95
535.822	8.07
536.166	8.19
536.51	8.3
536.855	8.43
537.199	8.56
537.543	8.74
537.887	8.89
538.231	9.04
538.576	9.21
538.92	9.35
539.264	9.48
539.608	9.61
539.951	9.71
540.295	9.83
540.639	9.96
540.983	10.06
541.327	10.17
541.671	10.28
542.014	10.39
542.358	10.5
542.701	10.64
543.045	10.74
543.389	10.87
543.732	11
544.075	11.15
544.419	11.29
544.762	11.42
545.105	11.56
545.449	11.68
545.792	11.83
546.135	11.98
546.478	12.16
546.821	12.32
547.165	12.51
547.508	12.71
547.851	12.91
548.194	13.08
548.536	13.32
548.879	13.53
549.222	13.75
549.565	13.94
549.908	14.12
550.25	14.35
550.593	14.55
550.936	14.78
551.278	14.96
551.621	15.13
551.963	15.37
552.306	15.59
552.648	15.83
552.991	16.03
553.333	16.17
553.675	16.34
554.017	16.54
554.36	16.73
554.702	16.9
555.044	17.09
555.386	17.33
555.728	17.47
556.07	17.63
556.412	17.82
556.754	18.05
557.096	18.27
557.438	18.49
557.78	18.66
558.121	18.89
558.463	19.15
558.805	19.39
559.147	19.59
559.488	19.79
559.83	19.98
560.171	20.19
560.513	20.48
560.854	20.71
561.196	21.01
561.537	21.25
561.878	21.47
562.22	21.68
562.561	21.91
562.902	22.14
563.243	22.4
563.584	22.63
563.925	22.89
564.266	23.11
564.607	23.35
564.948	23.6
565.289	23.83
565.63	24.02
565.971	24.25
566.312	24.48
566.653	24.75
566.993	24.95
567.334	25.15
567.675	25.35
568.015	25.59
568.356	25.78
568.696	26.01
569.037	26.27
569.377	26.52
569.718	26.72
570.058	26.92
570.398	27.14
570.739	27.4
571.079	27.57
571.419	27.81
571.759	27.98
572.099	28.2
572.439	28.42
572.779	28.65
573.119	28.87
573.459	29.03
573.799	29.17
574.139	29.43
574.479	29.62
574.819	29.83
575.158	30.07
575.498	30.27
575.838	30.47
576.177	30.65
576.517	30.79
576.856	31.01
577.196	31.27
577.535	31.47
577.875	31.66
578.214	31.9
578.553	32.11
578.893	32.34
579.232	32.55
579.571	32.72
579.91	32.93
580.25	33.09
580.589	33.31
580.928	33.55
581.267	33.69
581.606	33.9
581.945	34.1
582.283	34.22
582.622	34.29
582.961	34.42
583.3	34.64
583.639	34.9
583.977	35.06
584.316	35.23
584.654	35.45
584.993	35.57
585.332	35.72
585.67	35.83
586.008	36.02
586.347	36.24
586.685	36.42
587.024	36.56
587.362	36.67
587.7	36.85
588.038	36.96
588.376	37.07
588.715	37.2
589.053	37.35
589.391	37.45
589.729	37.71
590.067	37.88
590.404	37.98
590.742	38.12
591.08	38.32
591.418	38.5
591.756	38.65
592.093	38.81
592.431	39
592.769	39.13
593.106	39.27
593.444	39.35
593.781	39.47
594.119	39.58
594.456	39.76
594.793	39.86
595.131	39.99
595.468	40.14
595.805	40.28
596.143	40.4
596.48	40.56
596.817	40.64
597.154	40.77
597.491	40.84
597.828	40.95
598.165	41.04
598.502	41.1
598.839	41.16
599.176	41.32
599.512	41.44
599.849	41.57
600.186	41.64
600.523	41.72
600.859	41.84
601.196	41.96
601.532	42.04
601.869	42.14
602.205	42.27
602.542	42.32
602.878	42.44
603.215	42.52
603.551	42.6
603.887	42.71
604.223	42.76
604.56	42.89
604.896	42.93
605.232	43.04
605.568	43.09
605.904	43.18
606.24	43.22
606.576	43.27
606.912	43.37
607.248	43.56
607.583	43.65
607.919	43.7
608.255	43.75
608.591	43.92
608.926	43.96
609.262	44.03
609.597	44.16
609.933	44.2
610.268	44.27
610.604	44.37
610.939	44.47
611.275	44.53
611.61	44.58
611.945	44.66
612.281	44.68
612.616	44.86
612.951	44.87
613.286	44.91
613.621	45
613.956	45.06
614.291	45
614.626	45.08
614.961	45.19
615.296	45.33
615.631	45.29
615.966	45.4
616.3	45.51
616.635	45.58
616.97	45.57
617.304	45.64
617.639	45.61
617.973	45.57
618.308	45.66
618.642	45.67
618.977	45.72
619.311	45.8
619.646	45.76
619.98	45.86
620.314	45.94
620.648	45.98
620.983	46.05
621.317	46.23
621.651	46.24
621.985	46.25
622.319	46.26
622.653	46.33
622.987	46.38
623.321	46.38
623.655	46.39
623.988	46.58
624.322	46.64
624.656	46.63
624.99	46.74
625.323	46.76
625.657	46.79
625.99	46.85
626.324	46.9
626.657	46.91
626.991	46.92
627.324	46.95
627.658	46.92
627.991	46.91
628.324	46.79
628.657	46.81
628.991	46.81
629.324	46.85
629.657	46.86
629.99	46.88
630.323	46.94
630.656	46.94
630.989	46.85
631.322	46.81
631.655	46.85
631.987	46.88
632.32	46.87
632.653	46.93
632.986	46.98
633.318	47.02
633.651	47.11
633.984	47.14
634.316	47.24
634.649	47.29
634.981	47.31
635.313	47.39
635.646	47.43
635.978	47.46
636.31	47.54
636.643	47.59
636.975	47.67
637.307	47.68
637.639	47.75
637.971	47.85
638.303	48.03
638.635	48.1
638.967	48.16
639.299	48.2
639.631	48.18
639.963	48.09
640.295	48.01
640.626	48.04
640.958	48.09
641.29	48.06
641.621	48.03
641.953	48.1
642.285	48.14
642.616	48.15
642.948	48.17
643.279	48.22
643.61	48.03
643.942	48
644.273	47.97
644.604	47.99
644.936	48.06
645.267	47.98
645.598	47.99
645.929	47.92
646.26	48.04
646.591	48.2
646.922	48.34
647.253	48.34
647.584	48.34
647.915	48.29
648.245	48.29
648.576	48.44
648.907	48.38
649.238	48.44
649.568	48.55
649.899	48.56
650.229	48.47
650.56	48.62
650.89	48.67
651.221	48.67
651.551	48.82
651.882	48.81
652.212	48.82
652.542	48.86
652.872	48.82
653.203	48.84
653.533	48.9
653.863	48.8
654.193	48.98
654.523	48.96
654.853	48.96
655.183	49.05
655.513	48.98
655.843	49.08
656.172	49.13
656.502	49.16
656.832	49.21
657.162	49.28
657.491	49.39
657.821	49.38
658.15	49.4
658.48	49.42
658.809	49.44
659.139	49.5
659.468	49.55
659.798	49.67
660.127	49.71
660.456	49.67
660.785	49.73
661.115	49.76
661.444	49.84
661.773	49.88
662.102	49.85
662.431	49.91
662.76	49.96
663.089	49.92
663.418	49.91
663.747	49.87
664.076	49.91
664.404	49.94
664.733	50.05
665.062	50.14
665.39	49.99
665.719	50.08
666.048	50.04
666.376	50.09
666.705	50.13
667.033	49.96
667.362	49.98
667.69	49.99
