Data from BA44024_Reflection_00013.txt Node
Date: Tue Nov 19 11:48:59 EST 2019
User: vgr7
Spectrometer: USB2G7710
Scans to average: 3
Trigger mode: 4
Integration Time (sec): 2.000000E-2
Electric dark correction enabled: true
Boxcar width: 10
XAxis mode: Wavelengths
Number of Pixels in Spectrum: 2048
>>>>>Begin Spectral Data<<<<<
177.721	14.03
178.105	-9.15
178.488	-53.98
178.871	-5.06
179.254	-30.77
179.636	24.49
180.019	1.45
180.402	81.82
180.785	-169.86
181.168	-13.95
181.55	-17.11
181.933	0.49
182.316	9.89
182.698	-21.3
183.081	-22.98
183.463	-95.83
183.846	-87.64
184.228	-255.02
184.611	478.98
184.993	174.79
185.376	178.09
185.758	217.07
186.14	193.68
186.522	127.73
186.904	99.4
187.287	77.34
187.669	67.51
188.051	68.26
188.433	62.67
188.815	48.56
189.197	41.23
189.579	32.54
189.961	41.13
190.342	34.19
190.724	7.43
191.106	12.29
191.488	8.44
191.869	8.72
192.251	-2.54
192.633	-5.45
193.014	-16.2
193.396	-10.39
193.777	-7.22
194.159	-15.16
194.54	-13.02
194.922	-16.99
195.303	-12.31
195.684	-31.52
196.065	-21.12
196.447	-22.32
196.828	-45.69
197.209	-42.35
197.59	-27.13
197.971	-14.04
198.352	-8.27
198.733	2.3
199.114	-13.63
199.495	-23
199.876	-35.9
200.257	-20.06
200.638	-19.85
201.018	-15.88
201.399	-19.28
201.78	-15.8
202.16	-17.95
202.541	-13.23
202.922	-3.49
203.302	-5.68
203.683	5.25
204.063	-16.23
204.444	-4.47
204.824	20.42
205.204	14.33
205.585	9.87
205.965	-25.49
206.345	-41.67
206.725	-26.48
207.106	-18.38
207.486	1.04
207.866	13.31
208.246	6.51
208.626	7.93
209.006	26.07
209.386	24.2
209.766	-0.74
210.145	17.07
210.525	6.81
210.905	23.61
211.285	20.79
211.664	28.41
212.044	36.41
212.424	32.42
212.803	20.86
213.183	18.76
213.562	12.57
213.942	37.31
214.321	22.29
214.701	17.32
215.08	23.56
215.459	18.6
215.838	25.16
216.218	26.92
216.597	22.11
216.976	7.45
217.355	11.55
217.734	14.49
218.113	22.38
218.492	25.09
218.871	15.8
219.25	12.91
219.629	0.44
220.008	4.65
220.387	3.06
220.766	11.94
221.144	21.76
221.523	25.13
221.902	28.57
222.28	34.12
222.659	40.78
223.037	40.42
223.416	37.84
223.794	26.7
224.173	23.96
224.551	27.23
224.929	27.89
225.308	28.83
225.686	21.72
226.064	20.88
226.442	25.38
226.821	22.94
227.199	25.05
227.577	24.66
227.955	22.38
228.333	20.8
228.711	20.59
229.089	19.93
229.467	15
229.845	10.73
230.222	11.44
230.6	6.7
230.978	6.06
231.356	7.17
231.733	9.61
232.111	7.69
232.488	5.1
232.866	3.68
233.243	2.96
233.621	6.4
233.998	4.37
234.376	-0.37
234.753	0.14
235.13	-1.71
235.508	-0.03
235.885	0.43
236.262	1.8
236.639	1.01
237.016	0.85
237.393	3.57
237.77	4.83
238.147	4.55
238.524	4.74
238.901	3.87
239.278	3.5
239.655	3.36
240.032	4.58
240.409	3.8
240.785	4.76
241.162	4.02
241.539	4.28
241.915	4.18
242.292	5.04
242.668	4.54
243.045	5.1
243.421	4.86
243.798	5.08
244.174	5.01
244.551	5.18
244.927	4.87
245.303	4.56
245.679	4.35
246.056	4.08
246.432	4.64
246.808	5.33
247.184	5.26
247.56	5.38
247.936	5.4
248.312	5.65
248.688	5.49
249.064	5.63
249.44	5.56
249.815	5.61
250.191	5.29
250.567	5.33
250.943	5.45
251.318	5.49
251.694	5.08
252.069	5.08
252.445	4.92
252.82	5.22
253.196	5.28
253.571	5.58
253.947	6.01
254.322	5.24
254.697	4.53
255.073	4.42
255.448	4.11
255.823	3.98
256.198	4.14
256.573	3.91
256.948	4.01
257.323	4.01
257.698	4.05
258.073	4.09
258.448	4.37
258.823	4.11
259.198	4.35
259.573	4.45
259.948	4.46
260.322	4.37
260.697	4.27
261.072	4.33
261.446	4.21
261.821	4.2
262.195	4.35
262.57	4.39
262.944	4.46
263.319	4.63
263.693	4.45
264.067	4.41
264.442	4.38
264.816	4.25
265.19	4.41
265.564	4.38
265.938	4.47
266.313	4.1
266.687	3.89
267.061	3.72
267.435	3.98
267.809	3.81
268.183	3.95
268.556	4.01
268.93	3.93
269.304	3.87
269.678	3.82
270.051	3.97
270.425	3.85
270.799	3.84
271.172	3.79
271.546	4
271.919	3.98
272.293	4.2
272.666	4.19
273.04	4.02
273.413	3.9
273.787	3.89
274.16	3.88
274.533	4.1
274.906	3.96
275.279	3.91
275.653	4
276.026	3.84
276.399	3.83
276.772	3.99
277.145	4.1
277.518	4.08
277.891	3.81
278.263	3.98
278.636	4.05
279.009	4.21
279.382	4.16
279.755	4.32
280.127	4.13
280.5	4.2
280.872	4.23
281.245	4.4
281.617	4.54
281.99	4.78
282.362	4.81
282.735	4.87
283.107	4.77
283.479	4.88
283.852	4.91
284.224	5
284.596	4.73
284.968	4.69
285.34	4.71
285.713	4.89
286.085	4.89
286.457	4.82
286.829	4.71
287.201	4.73
287.572	4.67
287.944	4.76
288.316	4.89
288.688	5.1
289.06	5.04
289.431	5.07
289.803	5.07
290.175	4.96
290.546	4.79
290.918	4.83
291.289	4.68
291.661	4.76
292.032	4.59
292.403	4.67
292.775	4.77
293.146	4.99
293.517	4.95
293.889	4.93
294.26	5.1
294.631	5.16
295.002	5.12
295.373	5.11
295.744	5.09
296.115	5.09
296.486	4.75
296.857	4.71
297.228	4.45
297.599	4.38
297.97	4.49
298.34	4.67
298.711	4.71
299.082	4.83
299.452	4.92
299.823	5.01
300.194	5.17
300.564	5.06
300.935	4.86
301.305	4.9
301.676	4.95
302.046	4.89
302.416	4.85
302.787	4.91
303.157	5.01
303.527	5.02
303.897	4.86
304.267	4.97
304.637	4.95
305.008	5.18
305.378	5.37
305.748	5.28
306.117	5.21
306.487	5.32
306.857	5.33
307.227	5.36
307.597	5.54
307.967	5.51
308.336	5.57
308.706	5.65
309.076	5.68
309.445	5.74
309.815	5.74
310.184	5.6
310.554	5.56
310.923	5.58
311.293	5.68
311.662	5.8
312.031	5.81
312.401	5.91
312.77	5.99
313.139	6.08
313.508	6.2
313.877	6.24
314.246	6.2
314.616	6.31
314.985	6.18
315.353	6.09
315.722	6.18
316.091	6.3
316.46	6.29
316.829	6.39
317.198	6.34
317.567	6.43
317.935	6.55
318.304	6.83
318.672	6.79
319.041	6.89
319.41	6.95
319.778	7.17
320.147	7.21
320.515	7.05
320.883	6.92
321.252	7.08
321.62	7.14
321.988	7.14
322.357	7.12
322.725	7.23
323.093	7.22
323.461	7.22
323.829	7.11
324.197	7.21
324.565	7.13
324.933	7.33
325.301	7.48
325.669	7.69
326.037	7.66
326.405	7.85
326.772	7.89
327.14	7.8
327.508	7.78
327.875	7.79
328.243	7.94
328.61	7.95
328.978	7.86
329.346	8
329.713	8.2
330.08	8.23
330.448	8.27
330.815	8.38
331.182	8.42
331.55	8.58
331.917	8.54
332.284	8.65
332.651	8.54
333.018	8.47
333.385	8.5
333.752	8.44
334.119	8.4
334.486	8.31
334.853	8.36
335.22	8.34
335.587	8.36
335.954	8.41
336.32	8.44
336.687	8.39
337.054	8.35
337.42	8.19
337.787	8.02
338.153	8.13
338.52	8.11
338.886	8.09
339.253	8.02
339.619	8.11
339.986	8.08
340.352	8.14
340.718	8.11
341.084	8.06
341.451	8.14
341.817	8.21
342.183	8.2
342.549	8.21
342.915	8.31
343.281	8.4
343.647	8.37
344.013	8.24
344.379	8.35
344.745	8.43
345.11	8.67
345.476	8.82
345.842	8.74
346.208	8.78
346.573	8.73
346.939	8.77
347.304	8.74
347.67	8.73
348.035	8.62
348.401	8.6
348.766	8.57
349.132	8.49
349.497	8.42
349.862	8.44
350.228	8.59
350.593	8.52
350.958	8.54
351.323	8.5
351.688	8.49
352.053	8.47
352.418	8.42
352.783	8.18
353.148	8.27
353.513	8.23
353.878	8.17
354.243	8.05
354.608	8.11
354.972	8.1
355.337	8.12
355.702	8.14
356.066	8.11
356.431	8.12
356.795	8.13
357.16	8.1
357.524	8.15
357.889	8
358.253	8.02
358.618	7.96
358.982	7.9
359.346	8.03
359.71	7.96
360.075	7.96
360.439	8.04
360.803	8.01
361.167	8.04
361.531	8.05
361.895	8.1
362.259	8.05
362.623	8.09
362.987	8.09
363.351	8.09
363.714	8.07
364.078	8.01
364.442	7.93
364.806	7.92
365.169	7.85
365.533	7.9
365.896	7.85
366.26	7.87
366.623	7.93
366.987	7.89
367.35	7.9
367.714	7.87
368.077	7.82
368.44	7.74
368.803	7.63
369.167	7.51
369.53	7.55
369.893	7.45
370.256	7.35
370.619	7.25
370.982	7.16
371.345	7.2
371.708	7.06
372.071	7.06
372.434	6.96
372.797	6.9
373.159	6.86
373.522	6.83
373.885	6.71
374.247	6.67
374.61	6.59
374.973	6.56
375.335	6.48
375.698	6.45
376.06	6.45
376.423	6.43
376.785	6.45
377.147	6.36
377.51	6.33
377.872	6.32
378.234	6.28
378.596	6.33
378.958	6.3
379.321	6.43
379.683	6.39
380.045	6.37
380.407	6.37
380.769	6.35
381.13	6.3
381.492	6.25
381.854	6.21
382.216	6.17
382.578	6.13
382.939	6.1
383.301	6.02
383.663	5.96
384.024	5.93
384.386	5.91
384.747	5.94
385.109	5.95
385.47	5.92
385.832	5.89
386.193	5.83
386.554	5.76
386.916	5.65
387.277	5.67
387.638	5.67
387.999	5.61
388.36	5.53
388.721	5.54
389.082	5.55
389.443	5.51
389.804	5.51
390.165	5.52
390.526	5.49
390.887	5.45
391.248	5.45
391.609	5.44
391.969	5.42
392.33	5.32
392.691	5.28
393.051	5.25
393.412	5.23
393.772	5.18
394.133	5.11
394.493	5.07
394.854	5.06
395.214	5.01
395.574	4.99
395.935	4.96
396.295	4.92
396.655	4.88
397.015	4.86
397.376	4.84
397.736	4.76
398.096	4.73
398.456	4.75
398.816	4.67
399.176	4.63
399.535	4.54
399.895	4.52
400.255	4.49
400.615	4.46
400.975	4.43
401.334	4.41
401.694	4.45
402.054	4.46
402.413	4.42
402.773	4.43
403.132	4.41
403.492	4.44
403.851	4.41
404.211	4.38
404.57	4.38
404.929	4.32
405.288	4.35
405.648	4.33
406.007	4.27
406.366	4.25
406.725	4.26
407.084	4.29
407.443	4.32
407.802	4.3
408.161	4.29
408.52	4.29
408.879	4.31
409.238	4.28
409.596	4.28
409.955	4.23
410.314	4.24
410.673	4.24
411.031	4.2
411.39	4.19
411.748	4.21
412.107	4.18
412.465	4.17
412.824	4.15
413.182	4.15
413.54	4.16
413.899	4.16
414.257	4.14
414.615	4.08
414.974	4.05
415.332	4.03
415.69	4.01
416.048	3.98
416.406	3.92
416.764	3.91
417.122	3.88
417.48	3.88
417.838	3.84
418.195	3.82
418.553	3.83
418.911	3.82
419.269	3.81
419.626	3.78
419.984	3.77
420.342	3.76
420.699	3.74
421.057	3.72
421.414	3.7
421.772	3.69
422.129	3.69
422.486	3.67
422.844	3.65
423.201	3.64
423.558	3.63
423.915	3.62
424.273	3.61
424.63	3.6
424.987	3.6
425.344	3.58
425.701	3.58
426.058	3.56
426.415	3.51
426.772	3.49
427.128	3.52
427.485	3.5
427.842	3.49
428.199	3.51
428.555	3.51
428.912	3.5
429.269	3.47
429.625	3.46
429.982	3.48
430.338	3.51
430.695	3.49
431.051	3.51
431.407	3.54
431.764	3.54
432.12	3.54
432.476	3.54
432.832	3.56
433.189	3.55
433.545	3.54
433.901	3.58
434.257	3.57
434.613	3.54
434.969	3.53
435.325	3.53
435.681	3.5
436.036	3.51
436.392	3.51
436.748	3.55
437.104	3.56
437.459	3.54
437.815	3.53
438.171	3.55
438.526	3.52
438.882	3.55
439.237	3.54
439.593	3.55
439.948	3.52
440.304	3.5
440.659	3.5
441.014	3.5
441.369	3.48
441.725	3.5
442.08	3.49
442.435	3.49
442.79	3.49
443.145	3.48
443.5	3.45
443.855	3.45
444.21	3.43
444.565	3.42
444.92	3.41
445.275	3.39
445.629	3.36
445.984	3.35
446.339	3.31
446.693	3.3
447.048	3.3
447.403	3.31
447.757	3.31
448.112	3.3
448.466	3.29
448.82	3.3
449.175	3.27
449.529	3.27
449.883	3.25
450.238	3.25
450.592	3.25
450.946	3.26
451.3	3.27
451.654	3.24
452.008	3.21
452.362	3.22
452.716	3.24
453.07	3.25
453.424	3.28
453.778	3.28
454.132	3.28
454.486	3.28
454.839	3.28
455.193	3.3
455.547	3.32
455.9	3.34
456.254	3.33
456.607	3.32
456.961	3.32
457.314	3.34
457.668	3.34
458.021	3.35
458.375	3.35
458.728	3.37
459.081	3.4
459.434	3.41
459.787	3.44
460.141	3.44
460.494	3.45
460.847	3.44
461.2	3.44
461.553	3.45
461.906	3.44
462.259	3.45
462.611	3.43
462.964	3.45
463.317	3.45
463.67	3.46
464.022	3.5
464.375	3.5
464.728	3.5
465.08	3.51
465.433	3.51
465.785	3.53
466.138	3.53
466.49	3.55
466.843	3.58
467.195	3.58
467.547	3.56
467.899	3.58
468.252	3.6
468.604	3.61
468.956	3.61
469.308	3.62
469.66	3.63
470.012	3.62
470.364	3.58
470.716	3.57
471.068	3.6
471.42	3.59
471.772	3.61
472.123	3.62
472.475	3.63
472.827	3.62
473.178	3.61
473.53	3.61
473.882	3.61
474.233	3.6
474.585	3.59
474.936	3.6
475.288	3.58
475.639	3.56
475.99	3.58
476.342	3.57
476.693	3.59
477.044	3.58
477.395	3.58
477.746	3.6
478.097	3.6
478.448	3.58
478.8	3.58
479.15	3.57
479.501	3.57
479.852	3.57
480.203	3.57
480.554	3.59
480.905	3.57
481.255	3.56
481.606	3.56
481.957	3.55
482.307	3.55
482.658	3.55
483.009	3.56
483.359	3.54
483.709	3.56
484.06	3.56
484.41	3.56
484.761	3.57
485.111	3.57
485.461	3.58
485.811	3.58
486.162	3.57
486.512	3.58
486.862	3.58
487.212	3.58
487.562	3.58
487.912	3.59
488.262	3.59
488.612	3.6
488.961	3.6
489.311	3.61
489.661	3.61
490.011	3.62
490.36	3.61
490.71	3.63
491.06	3.63
491.409	3.63
491.759	3.63
492.108	3.64
492.458	3.65
492.807	3.66
493.157	3.68
493.506	3.7
493.855	3.7
494.204	3.72
494.554	3.74
494.903	3.76
495.252	3.77
495.601	3.82
495.95	3.83
496.299	3.84
496.648	3.87
496.997	3.91
497.346	3.96
497.695	4.01
498.043	4.04
498.392	4.07
498.741	4.13
499.09	4.18
499.438	4.21
499.787	4.22
500.135	4.25
500.484	4.3
500.832	4.35
501.181	4.41
501.529	4.45
501.878	4.47
502.226	4.53
502.574	4.55
502.923	4.59
503.271	4.64
503.619	4.71
503.967	4.76
504.315	4.81
504.663	4.84
505.011	4.87
505.359	4.92
505.707	4.96
506.055	4.99
506.403	5.04
506.751	5.1
507.098	5.19
507.446	5.27
507.794	5.32
508.141	5.37
508.489	5.42
508.837	5.45
509.184	5.52
509.531	5.56
509.879	5.61
510.226	5.67
510.574	5.72
510.921	5.78
511.268	5.86
511.616	5.93
511.963	5.98
512.31	6.07
512.657	6.15
513.004	6.22
513.351	6.3
513.698	6.36
514.045	6.44
514.392	6.5
514.739	6.55
515.086	6.63
515.432	6.74
515.779	6.8
516.126	6.9
516.473	6.97
516.819	7.07
517.166	7.16
517.512	7.24
517.859	7.33
518.205	7.41
518.552	7.45
518.898	7.51
519.245	7.58
519.591	7.66
519.937	7.73
520.283	7.83
520.629	7.9
520.976	8.01
521.322	8.12
521.668	8.22
522.014	8.33
522.36	8.44
522.706	8.54
523.052	8.68
523.398	8.82
523.743	8.97
524.089	9.12
524.435	9.25
524.781	9.4
525.126	9.53
525.472	9.65
525.817	9.78
526.163	9.88
526.509	9.99
526.854	10.1
527.199	10.19
527.545	10.27
527.89	10.36
528.235	10.44
528.581	10.54
528.926	10.65
529.271	10.76
529.616	10.87
529.961	11
530.306	11.1
530.651	11.22
530.996	11.34
531.341	11.47
531.686	11.61
532.031	11.74
532.376	11.89
532.721	12.04
533.065	12.2
533.41	12.36
533.755	12.51
534.099	12.69
534.444	12.85
534.788	13.02
535.133	13.22
535.477	13.41
535.822	13.61
536.166	13.8
536.51	14.03
536.855	14.26
537.199	14.47
537.543	14.73
537.887	14.97
538.231	15.25
538.576	15.47
538.92	15.69
539.264	15.94
539.608	16.19
539.951	16.43
540.295	16.62
540.639	16.8
540.983	17
541.327	17.2
541.671	17.41
542.014	17.62
542.358	17.81
542.701	18.04
543.045	18.24
543.389	18.44
543.732	18.62
544.075	18.82
544.419	19.05
544.762	19.3
545.105	19.55
545.449	19.77
545.792	20.06
546.135	20.34
546.478	20.6
546.821	20.86
547.165	21.14
547.508	21.47
547.851	21.83
548.194	22.16
548.536	22.46
548.879	22.83
549.222	23.19
549.565	23.5
549.908	23.78
550.25	24.11
550.593	24.42
550.936	24.77
551.278	25.11
551.621	25.44
551.963	25.77
552.306	26.07
552.648	26.37
552.991	26.73
553.333	27.1
553.675	27.41
554.017	27.71
554.36	27.99
554.702	28.25
555.044	28.56
555.386	28.88
555.728	29.23
556.07	29.48
556.412	29.75
556.754	30.06
557.096	30.39
557.438	30.74
557.78	31.07
558.121	31.4
558.463	31.69
558.805	32
559.147	32.24
559.488	32.53
559.83	32.86
560.171	33.09
560.513	33.31
560.854	33.55
561.196	33.9
561.537	34.2
561.878	34.54
562.22	34.75
562.561	35.01
562.902	35.21
563.243	35.45
563.584	35.74
563.925	36.05
564.266	36.31
564.607	36.52
564.948	36.79
565.289	37.11
565.63	37.3
565.971	37.53
566.312	37.83
566.653	38.09
566.993	38.36
567.334	38.65
567.675	38.85
568.015	39.18
568.356	39.38
568.696	39.6
569.037	39.76
569.377	40.05
569.718	40.25
570.058	40.46
570.398	40.69
570.739	40.93
571.079	41.12
571.419	41.34
571.759	41.51
572.099	41.65
572.439	41.79
572.779	42.02
573.119	42.18
573.459	42.33
573.799	42.51
574.139	42.65
574.479	42.85
574.819	43.07
575.158	43.21
575.498	43.36
575.838	43.56
576.177	43.79
576.517	43.93
576.856	44.03
577.196	44.28
577.535	44.51
577.875	44.69
578.214	44.88
578.553	45.07
578.893	45.28
579.232	45.56
579.571	45.78
579.91	45.96
580.25	46.22
580.589	46.46
580.928	46.58
581.267	46.69
581.606	46.83
581.945	47
582.283	47.13
582.622	47.29
582.961	47.43
583.3	47.6
583.639	47.76
583.977	48.04
584.316	48.23
584.654	48.36
584.993	48.47
585.332	48.56
585.67	48.7
586.008	48.85
586.347	48.98
586.685	49.08
587.024	49.21
587.362	49.28
587.7	49.4
588.038	49.53
588.376	49.67
588.715	49.78
589.053	49.91
589.391	50.04
589.729	50.14
590.067	50.27
590.404	50.39
590.742	50.53
591.08	50.64
591.418	50.69
591.756	50.8
592.093	51.01
592.431	51.15
592.769	51.16
593.106	51.31
593.444	51.41
593.781	51.43
594.119	51.47
594.456	51.64
594.793	51.75
595.131	51.86
595.468	51.95
595.805	52.06
596.143	52.17
596.48	52.3
596.817	52.42
597.154	52.48
597.491	52.53
597.828	52.6
598.165	52.69
598.502	52.77
598.839	52.86
599.176	52.83
599.512	52.95
599.849	53
600.186	53.05
600.523	53.09
600.859	53.28
601.196	53.47
601.532	53.45
601.869	53.55
602.205	53.63
602.542	53.64
602.878	53.64
603.215	53.75
603.551	53.77
603.887	53.83
604.223	53.88
604.56	53.98
604.896	54.08
605.232	54.19
605.568	54.28
605.904	54.34
606.24	54.39
606.576	54.43
606.912	54.68
607.248	54.76
607.583	54.8
607.919	54.85
608.255	54.78
608.591	54.95
608.926	54.99
609.262	55.04
609.597	55.23
609.933	55.32
610.268	55.35
610.604	55.47
610.939	55.55
611.275	55.62
611.61	55.68
611.945	55.71
612.281	55.73
612.616	55.87
612.951	55.93
613.286	56.01
613.621	56.12
613.956	56.01
614.291	56.04
614.626	56.17
614.961	56.3
615.296	56.49
615.631	56.47
615.966	56.47
616.3	56.63
616.635	56.64
616.97	56.73
617.304	56.76
617.639	56.82
617.973	56.89
618.308	57
618.642	56.99
618.977	57
619.311	57.02
619.646	57.01
619.98	57.1
620.314	57.11
620.648	57.19
620.983	57.41
621.317	57.46
621.651	57.5
621.985	57.47
622.319	57.54
622.653	57.55
622.987	57.53
623.321	57.56
623.655	57.58
623.988	57.68
624.322	57.74
624.656	57.75
624.99	57.71
625.323	57.66
625.657	57.73
625.99	57.77
626.324	57.78
626.657	57.74
626.991	57.72
627.324	57.71
627.658	57.71
627.991	57.62
628.324	57.63
628.657	57.7
628.991	57.7
629.324	57.72
629.657	57.78
629.99	57.9
630.323	57.93
630.656	57.99
630.989	57.91
631.322	57.88
631.655	57.87
631.987	57.88
632.32	57.96
632.653	58.06
632.986	58.14
633.318	58.16
633.651	58.2
633.984	58.25
634.316	58.29
634.649	58.28
634.981	58.31
635.313	58.35
635.646	58.41
635.978	58.42
636.31	58.42
636.643	58.47
636.975	58.51
637.307	58.45
637.639	58.46
637.971	58.49
638.303	58.6
638.635	58.67
638.967	58.82
639.299	58.92
639.631	58.83
639.963	58.74
640.295	58.77
640.626	58.83
640.958	58.77
641.29	58.8
641.621	58.91
641.953	58.96
642.285	59.02
642.616	59.04
642.948	59.11
643.279	59.18
643.61	59.07
643.942	59.01
644.273	59.11
644.604	59.1
644.936	59.19
645.267	59.16
645.598	59.17
645.929	59.08
646.26	59.06
646.591	59.13
646.922	59.36
647.253	59.37
647.584	59.37
647.915	59.39
648.245	59.59
648.576	59.5
648.907	59.64
649.238	59.62
649.568	59.5
649.899	59.42
650.229	59.35
650.56	59.46
650.89	59.52
651.221	59.46
651.551	59.52
651.882	59.61
652.212	59.6
652.542	59.62
652.872	59.7
653.203	59.63
653.533	59.67
653.863	59.48
654.193	59.51
654.523	59.58
654.853	59.58
655.183	59.42
655.513	59.41
655.843	59.28
656.172	59.31
656.502	59.37
656.832	59.37
657.162	59.51
657.491	59.49
657.821	59.53
658.15	59.51
658.48	59.53
658.809	59.34
659.139	59.34
659.468	59.41
659.798	59.4
660.127	59.41
660.456	59.38
660.785	59.52
661.115	59.61
661.444	59.49
661.773	59.49
662.102	59.56
662.431	59.63
662.76	59.74
663.089	59.76
663.418	59.75
663.747	59.87
664.076	59.75
664.404	59.84
664.733	59.83
665.062	59.77
665.39	59.84
665.719	59.97
666.048	60.02
666.376	60.02
666.705	60.07
667.033	60.08
667.362	60.02
667.69	59.98
668.018	59.91
668.347	59.98
668.675	60
669.003	59.97
669.331	60.06
669.659	59.95
669.987	60.02
