Data from BA44024_Reflection_00011.txt Node
Date: Tue Nov 19 11:48:54 EST 2019
User: vgr7
Spectrometer: USB2G7710
Scans to average: 3
Trigger mode: 4
Integration Time (sec): 2.000000E-2
Electric dark correction enabled: true
Boxcar width: 10
XAxis mode: Wavelengths
Number of Pixels in Spectrum: 2048
>>>>>Begin Spectral Data<<<<<
177.721	39.09
178.105	-2.11
178.488	13.77
178.871	15.19
179.254	4.62
179.636	2.5
180.019	-64.56
180.402	127.27
180.785	78.08
181.168	31.24
181.55	42.5
181.933	71.57
182.316	58.09
182.698	71.46
183.081	91.02
183.463	113.92
183.846	167.25
184.228	360.22
184.611	-517.83
184.993	-113.45
185.376	-212.37
185.758	-243.54
186.14	-300
186.522	-229.64
186.904	-181.44
187.287	-191.89
187.669	-114.51
188.051	-133.76
188.433	-156.77
188.815	-164.99
189.197	-120.32
189.579	-99.22
189.961	-105.64
190.342	-86.98
190.724	-125.19
191.106	-116.03
191.488	-101.39
191.869	-98.91
192.251	-95.89
192.633	-110.89
193.014	-118.59
193.396	-116.75
193.777	-121.99
194.159	-125.32
194.54	-119.98
194.922	-126.45
195.303	-118.02
195.684	-159.67
196.065	-173.27
196.447	-174.33
196.828	-143.42
197.209	-156.94
197.59	-146.52
197.971	-116.31
198.352	-116.54
198.733	-120.07
199.114	-127.25
199.495	-106.71
199.876	-116.43
200.257	-120.99
200.638	-126.41
201.018	-141.4
201.399	-142.48
201.78	-112.92
202.16	-108.35
202.541	-107.62
202.922	-111.11
203.302	-127.25
203.683	-122.43
204.063	-122.43
204.444	-111.8
204.824	-112.06
205.204	-115.36
205.585	-111.99
205.965	-123.58
206.345	-154.42
206.725	-105.61
207.106	-101.45
207.486	-129.24
207.866	-125.25
208.246	-116.12
208.626	-130.81
209.006	-128.52
209.386	-135.21
209.766	-161.71
210.145	-169.1
210.525	-158.82
210.905	-137.18
211.285	-122.42
211.664	-108.83
212.044	-108.86
212.424	-101.31
212.803	-120.58
213.183	-136.61
213.562	-120.83
213.942	-137.04
214.321	-120.21
214.701	-147.85
215.08	-149.7
215.459	-128.39
215.838	-133.67
216.218	-141.03
216.597	-113.84
216.976	-111.89
217.355	-105.2
217.734	-110.62
218.113	-101.89
218.492	-106.32
218.871	-109.54
219.25	-115.67
219.629	-113.32
220.008	-95.81
220.387	-105.56
220.766	-92.76
221.144	-82.79
221.523	-89.59
221.902	-79.28
222.28	-72.1
222.659	-51.91
223.037	-46.81
223.416	-47.59
223.794	-39.7
224.173	-42.59
224.551	-44.2
224.929	-46.25
225.308	-39.3
225.686	-37.15
226.064	-39.51
226.442	-34.87
226.821	-32.48
227.199	-29.28
227.577	-26.5
227.955	-28.81
228.333	-26.25
228.711	-25.69
229.089	-24.37
229.467	-23.76
229.845	-22.61
230.222	-19.4
230.6	-23.3
230.978	-22.1
231.356	-21.99
231.733	-20.27
232.111	-19.45
232.488	-18.08
232.866	-16.15
233.243	-16.48
233.621	-9.95
233.998	-9.45
234.376	-8.84
234.753	-10.73
235.13	-10.76
235.508	-10.78
235.885	-9.5
236.262	-9.5
236.639	-9.05
237.016	-8.88
237.393	-5.58
237.77	-3.59
238.147	-3.25
238.524	-1.68
238.901	-2.34
239.278	-1.56
239.655	-1.36
240.032	-0.37
240.409	-0.15
240.785	0.35
241.162	1.11
241.539	-0.3
241.915	0.63
242.292	1.08
242.668	1.69
243.045	2.67
243.421	3.03
243.798	2.97
244.174	3.17
244.551	2.94
244.927	3.13
245.303	3.1
245.679	3.1
246.056	3.19
246.432	3.16
246.808	3.51
247.184	3.63
247.56	3.41
247.936	3.35
248.312	3.22
248.688	3.24
249.064	3.13
249.44	3.38
249.815	3.19
250.191	3.18
250.567	3.15
250.943	2.9
251.318	2.44
251.694	2.42
252.069	2.38
252.445	2.75
252.82	2.88
253.196	2.67
253.571	2.48
253.947	2.05
254.322	2.05
254.697	1.84
255.073	1.48
255.448	2.06
255.823	2.37
256.198	2.65
256.573	2.53
256.948	2.52
257.323	2.56
257.698	2.41
258.073	2.35
258.448	2.56
258.823	2.32
259.198	2.64
259.573	2.25
259.948	2.49
260.322	2.33
260.697	2.14
261.072	2.12
261.446	2.07
261.821	1.88
262.195	1.65
262.57	1.65
262.944	1.86
263.319	1.76
263.693	1.41
264.067	1.36
264.442	1.43
264.816	1.26
265.19	1.18
265.564	1.38
265.938	1.26
266.313	0.9
266.687	0.99
267.061	0.91
267.435	1.34
267.809	1.18
268.183	1.18
268.556	1.22
268.93	1.34
269.304	1.46
269.678	1.83
270.051	1.99
270.425	2.11
270.799	1.87
271.172	1.89
271.546	2.18
271.919	2.13
272.293	1.97
272.666	2.23
273.04	2.33
273.413	2.28
273.787	2.25
274.16	2.31
274.533	2.35
274.906	2.59
275.279	2.63
275.653	2.7
276.026	2.86
276.399	2.79
276.772	2.75
277.145	2.73
277.518	2.57
277.891	2.57
278.263	2.46
278.636	2.86
279.009	2.9
279.382	2.84
279.755	2.78
280.127	2.98
280.5	2.79
280.872	2.67
281.245	2.73
281.617	2.82
281.99	3.01
282.362	3.15
282.735	3.05
283.107	3
283.479	2.99
283.852	3.02
284.224	3.3
284.596	3.45
284.968	3.46
285.34	3.46
285.713	3.59
286.085	3.6
286.457	3.51
286.829	3.47
287.201	3.37
287.572	3.5
287.944	3.51
288.316	3.62
288.688	3.72
289.06	3.81
289.431	3.86
289.803	3.74
290.175	3.79
290.546	3.72
290.918	3.81
291.289	3.81
291.661	3.84
292.032	3.66
292.403	3.46
292.775	3.58
293.146	3.66
293.517	3.66
293.889	3.63
294.26	3.68
294.631	3.68
295.002	3.79
295.373	3.66
295.744	3.64
296.115	3.65
296.486	3.64
296.857	3.5
297.228	3.38
297.599	3.27
297.97	3.28
298.34	3.35
298.711	3.24
299.082	3.3
299.452	3.26
299.823	3.35
300.194	3.53
300.564	3.38
300.935	3.4
301.305	3.23
301.676	3.25
302.046	3.05
302.416	3.09
302.787	3.16
303.157	3.28
303.527	3.34
303.897	3.33
304.267	3.23
304.637	3.27
305.008	3.36
305.378	3.55
305.748	3.52
306.117	3.56
306.487	3.66
306.857	3.69
307.227	3.82
307.597	3.65
307.967	3.68
308.336	3.78
308.706	3.72
309.076	3.84
309.445	3.9
309.815	3.93
310.184	3.79
310.554	3.66
310.923	3.61
311.293	3.49
311.662	3.46
312.031	3.53
312.401	3.56
312.77	3.61
313.139	3.59
313.508	3.48
313.877	3.5
314.246	3.51
314.616	3.38
314.985	3.21
315.353	3.37
315.722	3.4
316.091	3.43
316.46	3.56
316.829	3.7
317.198	3.63
317.567	3.93
317.935	4.09
318.304	4.3
318.672	4.37
319.041	4.54
319.41	4.72
319.778	4.67
320.147	4.7
320.515	4.87
320.883	4.96
321.252	5.12
321.62	5.01
321.988	5.16
322.357	5.31
322.725	5.48
323.093	5.48
323.461	5.47
323.829	5.56
324.197	5.57
324.565	5.48
324.933	5.51
325.301	5.36
325.669	5.34
326.037	5.48
326.405	5.49
326.772	5.37
327.14	5.25
327.508	5.31
327.875	5.2
328.243	5.13
328.61	5.14
328.978	5.13
329.346	5.27
329.713	5.1
330.08	5.14
330.448	5.13
330.815	5.09
331.182	4.9
331.55	4.75
331.917	4.79
332.284	4.87
332.651	4.97
333.018	4.9
333.385	5
333.752	4.9
334.119	4.96
334.486	5.01
334.853	4.85
335.22	4.84
335.587	5.04
335.954	5.06
336.32	5.03
336.687	5.05
337.054	5
337.42	5.11
337.787	5.16
338.153	5.16
338.52	5.28
338.886	5.4
339.253	5.43
339.619	5.45
339.986	5.34
340.352	5.29
340.718	5.38
341.084	5.33
341.451	5.33
341.817	5.27
342.183	5.27
342.549	5.48
342.915	5.55
343.281	5.61
343.647	5.62
344.013	5.65
344.379	5.65
344.745	5.66
345.11	5.61
345.476	5.61
345.842	5.55
346.208	5.55
346.573	5.62
346.939	5.6
347.304	5.67
347.67	5.8
348.035	5.79
348.401	5.82
348.766	5.81
349.132	5.84
349.497	5.84
349.862	5.82
350.228	5.82
350.593	5.75
350.958	5.73
351.323	5.71
351.688	5.71
352.053	5.78
352.418	5.74
352.783	5.75
353.148	5.7
353.513	5.75
353.878	5.78
354.243	5.67
354.608	5.69
354.972	5.63
355.337	5.62
355.702	5.68
356.066	5.63
356.431	5.59
356.795	5.54
357.16	5.58
357.524	5.58
357.889	5.63
358.253	5.6
358.618	5.46
358.982	5.5
359.346	5.45
359.71	5.38
360.075	5.45
360.439	5.48
360.803	5.47
361.167	5.46
361.531	5.35
361.895	5.28
362.259	5.39
362.623	5.35
362.987	5.36
363.351	5.27
363.714	5.22
364.078	5.2
364.442	5.18
364.806	5.11
365.169	5.06
365.533	4.95
365.896	4.95
366.26	5
366.623	4.89
366.987	4.93
367.35	4.93
367.714	4.88
368.077	4.89
368.44	4.88
368.803	4.81
369.167	4.85
369.53	4.92
369.893	4.74
370.256	4.69
370.619	4.59
370.982	4.62
371.345	4.61
371.708	4.62
372.071	4.56
372.434	4.55
372.797	4.6
373.159	4.52
373.522	4.57
373.885	4.59
374.247	4.58
374.61	4.56
374.973	4.49
375.335	4.45
375.698	4.35
376.06	4.3
376.423	4.25
376.785	4.26
377.147	4.24
377.51	4.24
377.872	4.25
378.234	4.24
378.596	4.2
378.958	4.22
379.321	4.21
379.683	4.28
380.045	4.24
380.407	4.22
380.769	4.22
381.13	4.12
381.492	4.02
381.854	4.03
382.216	4
382.578	3.98
382.939	3.94
383.301	3.98
383.663	3.98
384.024	3.98
384.386	3.95
384.747	3.93
385.109	3.98
385.47	3.97
385.832	3.93
386.193	3.89
386.554	3.77
386.916	3.78
387.277	3.74
387.638	3.77
387.999	3.77
388.36	3.76
388.721	3.81
389.082	3.89
389.443	3.88
389.804	3.88
390.165	3.89
390.526	3.87
390.887	3.79
391.248	3.76
391.609	3.75
391.969	3.73
392.33	3.7
392.691	3.67
393.051	3.66
393.412	3.66
393.772	3.67
394.133	3.71
394.493	3.7
394.854	3.68
395.214	3.68
395.574	3.68
395.935	3.67
396.295	3.64
396.655	3.55
397.015	3.49
397.376	3.42
397.736	3.38
398.096	3.37
398.456	3.35
398.816	3.36
399.176	3.31
399.535	3.28
399.895	3.24
400.255	3.2
400.615	3.17
400.975	3.22
401.334	3.19
401.694	3.16
402.054	3.16
402.413	3.12
402.773	3.07
403.132	3.01
403.492	3.01
403.851	2.96
404.211	2.97
404.57	3
404.929	3
405.288	2.99
405.648	2.96
406.007	3
406.366	2.99
406.725	3.02
407.084	3
407.443	3.03
407.802	3.03
408.161	3.03
408.52	3
408.879	3.02
409.238	3.03
409.596	2.98
409.955	2.98
410.314	3.01
410.673	3.02
411.031	3.02
411.39	3.02
411.748	3.04
412.107	3.01
412.465	3.02
412.824	2.99
413.182	3.01
413.54	3.03
413.899	3
414.257	3.01
414.615	2.99
414.974	3
415.332	2.99
415.69	2.98
416.048	2.97
416.406	2.95
416.764	2.96
417.122	2.97
417.48	2.95
417.838	2.93
418.195	2.93
418.553	2.93
418.911	2.92
419.269	2.9
419.626	2.91
419.984	2.91
420.342	2.93
420.699	2.92
421.057	2.87
421.414	2.88
421.772	2.89
422.129	2.89
422.486	2.88
422.844	2.87
423.201	2.87
423.558	2.85
423.915	2.85
424.273	2.84
424.63	2.83
424.987	2.85
425.344	2.85
425.701	2.86
426.058	2.85
426.415	2.86
426.772	2.88
427.128	2.89
427.485	2.88
427.842	2.85
428.199	2.85
428.555	2.89
428.912	2.89
429.269	2.85
429.625	2.85
429.982	2.85
430.338	2.85
430.695	2.83
431.051	2.85
431.407	2.86
431.764	2.85
432.12	2.87
432.476	2.87
432.832	2.85
433.189	2.82
433.545	2.83
433.901	2.82
434.257	2.8
434.613	2.79
434.969	2.78
435.325	2.79
435.681	2.8
436.036	2.8
436.392	2.79
436.748	2.79
437.104	2.8
437.459	2.78
437.815	2.81
438.171	2.84
438.526	2.82
438.882	2.81
439.237	2.81
439.593	2.79
439.948	2.79
440.304	2.8
440.659	2.81
441.014	2.8
441.369	2.8
441.725	2.83
442.08	2.81
442.435	2.82
442.79	2.81
443.145	2.81
443.5	2.82
443.855	2.8
444.21	2.8
444.565	2.81
444.92	2.81
445.275	2.8
445.629	2.8
445.984	2.81
446.339	2.8
446.693	2.79
447.048	2.77
447.403	2.77
447.757	2.76
448.112	2.77
448.466	2.76
448.82	2.74
449.175	2.73
449.529	2.73
449.883	2.71
450.238	2.71
450.592	2.7
450.946	2.68
451.3	2.69
451.654	2.68
452.008	2.69
452.362	2.68
452.716	2.67
453.07	2.67
453.424	2.65
453.778	2.66
454.132	2.68
454.486	2.7
454.839	2.71
455.193	2.73
455.547	2.73
455.9	2.75
456.254	2.76
456.607	2.74
456.961	2.75
457.314	2.75
457.668	2.74
458.021	2.75
458.375	2.75
458.728	2.77
459.081	2.77
459.434	2.77
459.787	2.8
460.141	2.79
460.494	2.78
460.847	2.79
461.2	2.8
461.553	2.8
461.906	2.82
462.259	2.79
462.611	2.8
462.964	2.79
463.317	2.79
463.67	2.81
464.022	2.84
464.375	2.85
464.728	2.84
465.08	2.86
465.433	2.86
465.785	2.87
466.138	2.87
466.49	2.88
466.843	2.88
467.195	2.87
467.547	2.85
467.899	2.87
468.252	2.89
468.604	2.88
468.956	2.86
469.308	2.86
469.66	2.87
470.012	2.84
470.364	2.84
470.716	2.85
471.068	2.86
471.42	2.85
471.772	2.86
472.123	2.88
472.475	2.89
472.827	2.88
473.178	2.87
473.53	2.89
473.882	2.87
474.233	2.87
474.585	2.86
474.936	2.87
475.288	2.85
475.639	2.86
475.99	2.84
476.342	2.87
476.693	2.87
477.044	2.87
477.395	2.88
477.746	2.87
478.097	2.85
478.448	2.82
478.8	2.84
479.15	2.82
479.501	2.81
479.852	2.81
480.203	2.82
480.554	2.83
480.905	2.83
481.255	2.84
481.606	2.85
481.957	2.85
482.307	2.86
482.658	2.87
483.009	2.87
483.359	2.87
483.709	2.88
484.06	2.88
484.41	2.88
484.761	2.89
485.111	2.91
485.461	2.92
485.811	2.93
486.162	2.93
486.512	2.94
486.862	2.95
487.212	2.95
487.562	2.95
487.912	2.95
488.262	2.96
488.612	2.96
488.961	2.96
489.311	2.97
489.661	2.97
490.011	2.98
490.36	2.97
490.71	2.98
491.06	2.97
491.409	2.97
491.759	2.96
492.108	2.96
492.458	2.95
492.807	2.95
493.157	2.96
493.506	2.95
493.855	2.95
494.204	2.95
494.554	2.94
494.903	2.95
495.252	2.95
495.601	2.97
495.95	2.98
496.299	2.97
496.648	2.98
496.997	3
497.346	3.01
497.695	3
498.043	3.03
498.392	3.04
498.741	3.05
499.09	3.07
499.438	3.09
499.787	3.11
500.135	3.12
500.484	3.14
500.832	3.16
501.181	3.18
501.529	3.21
501.878	3.25
502.226	3.24
502.574	3.28
502.923	3.28
503.271	3.29
503.619	3.32
503.967	3.33
504.315	3.33
504.663	3.36
505.011	3.43
505.359	3.42
505.707	3.47
506.055	3.5
506.403	3.54
506.751	3.56
507.098	3.58
507.446	3.6
507.794	3.64
508.141	3.67
508.489	3.7
508.837	3.73
509.184	3.78
509.531	3.81
509.879	3.83
510.226	3.85
510.574	3.88
510.921	3.91
511.268	3.95
511.616	4
511.963	4.02
512.31	4.03
512.657	4.09
513.004	4.09
513.351	4.14
513.698	4.18
514.045	4.25
514.392	4.31
514.739	4.36
515.086	4.4
515.432	4.47
515.779	4.53
516.126	4.58
516.473	4.62
516.819	4.67
517.166	4.73
517.512	4.77
517.859	4.83
518.205	4.85
518.552	4.89
518.898	4.92
519.245	4.98
519.591	5.04
519.937	5.08
520.283	5.16
520.629	5.19
520.976	5.24
521.322	5.29
521.668	5.33
522.014	5.4
522.36	5.45
522.706	5.51
523.052	5.6
523.398	5.67
523.743	5.75
524.089	5.88
524.435	5.97
524.781	6.08
525.126	6.16
525.472	6.25
525.817	6.34
526.163	6.43
526.509	6.49
526.854	6.56
527.199	6.62
527.545	6.68
527.89	6.74
528.235	6.81
528.581	6.86
528.926	6.95
529.271	7.01
529.616	7.07
529.961	7.13
530.306	7.2
530.651	7.27
530.996	7.34
531.341	7.4
531.686	7.49
532.031	7.57
532.376	7.66
532.721	7.74
533.065	7.83
533.41	7.94
533.755	8.05
534.099	8.16
534.444	8.26
534.788	8.38
535.133	8.49
535.477	8.61
535.822	8.74
536.166	8.84
536.51	8.99
536.855	9.13
537.199	9.28
537.543	9.44
537.887	9.61
538.231	9.79
538.576	9.96
538.92	10.11
539.264	10.25
539.608	10.39
539.951	10.53
540.295	10.67
540.639	10.77
540.983	10.9
541.327	11.02
541.671	11.17
542.014	11.32
542.358	11.43
542.701	11.54
543.045	11.67
543.389	11.81
543.732	11.94
544.075	12.09
544.419	12.25
544.762	12.39
545.105	12.55
545.449	12.72
545.792	12.9
546.135	13.06
546.478	13.25
546.821	13.44
547.165	13.64
547.508	13.82
547.851	14.05
548.194	14.24
548.536	14.42
548.879	14.61
549.222	14.79
549.565	15.02
549.908	15.27
550.25	15.5
550.593	15.72
550.936	15.97
551.278	16.18
551.621	16.41
551.963	16.67
552.306	16.89
552.648	17.1
552.991	17.29
553.333	17.51
553.675	17.77
554.017	18.02
554.36	18.25
554.702	18.49
555.044	18.74
555.386	19.02
555.728	19.29
556.07	19.53
556.412	19.83
556.754	20.08
557.096	20.33
557.438	20.59
557.78	20.85
558.121	21.1
558.463	21.41
558.805	21.68
559.147	21.91
559.488	22.19
559.83	22.46
560.171	22.74
560.513	23.01
560.854	23.32
561.196	23.61
561.537	23.88
561.878	24.17
562.22	24.44
562.561	24.73
562.902	25
563.243	25.27
563.584	25.49
563.925	25.75
564.266	26
564.607	26.31
564.948	26.57
565.289	26.89
565.63	27.11
565.971	27.35
566.312	27.64
566.653	27.87
566.993	28.11
567.334	28.4
567.675	28.64
568.015	28.86
568.356	29.12
568.696	29.37
569.037	29.62
569.377	29.85
569.718	30.07
570.058	30.33
570.398	30.62
570.739	30.9
571.079	31.15
571.419	31.42
571.759	31.61
572.099	31.88
572.439	32.09
572.779	32.33
573.119	32.57
573.459	32.75
573.799	33.01
574.139	33.26
574.479	33.47
574.819	33.76
575.158	34.02
575.498	34.23
575.838	34.51
576.177	34.78
576.517	35.03
576.856	35.25
577.196	35.48
577.535	35.73
577.875	35.92
578.214	36.12
578.553	36.35
578.893	36.61
579.232	36.81
579.571	37.1
579.91	37.36
580.25	37.64
580.589	37.91
580.928	38.13
581.267	38.35
581.606	38.56
581.945	38.76
582.283	39.04
582.622	39.26
582.961	39.47
583.3	39.68
583.639	39.89
583.977	40.11
584.316	40.37
584.654	40.57
584.993	40.83
585.332	41.1
585.67	41.33
586.008	41.57
586.347	41.81
586.685	41.99
587.024	42.13
587.362	42.23
587.7	42.39
588.038	42.53
588.376	42.71
588.715	42.82
589.053	42.98
589.391	43.04
589.729	43.23
590.067	43.38
590.404	43.52
590.742	43.74
591.08	43.97
591.418	44.15
591.756	44.34
592.093	44.49
592.431	44.77
592.769	44.96
593.106	45.1
593.444	45.29
593.781	45.36
594.119	45.44
594.456	45.64
594.793	45.83
595.131	46.02
595.468	46.17
595.805	46.38
596.143	46.51
596.48	46.64
596.817	46.78
597.154	46.94
597.491	47.04
597.828	47.1
598.165	47.2
598.502	47.3
598.839	47.4
599.176	47.56
599.512	47.62
599.849	47.66
600.186	47.81
600.523	47.85
600.859	48.1
601.196	48.36
601.532	48.5
601.869	48.64
602.205	48.71
602.542	48.87
602.878	49.05
603.215	49.21
603.551	49.34
603.887	49.47
604.223	49.54
604.56	49.65
604.896	49.78
605.232	49.89
605.568	49.94
605.904	50
606.24	50.1
606.576	50.2
606.912	50.36
607.248	50.45
607.583	50.52
607.919	50.57
608.255	50.61
608.591	50.72
608.926	50.76
609.262	50.89
609.597	50.96
609.933	50.99
610.268	51.03
610.604	51.12
610.939	51.13
611.275	51.19
611.61	51.31
611.945	51.44
612.281	51.43
612.616	51.54
612.951	51.64
613.286	51.66
613.621	51.68
613.956	51.71
614.291	51.78
614.626	51.88
614.961	51.94
615.296	52.04
615.631	52.14
615.966	52.25
616.3	52.36
616.635	52.43
616.97	52.48
617.304	52.49
617.639	52.51
617.973	52.58
618.308	52.65
618.642	52.63
618.977	52.64
619.311	52.77
619.646	52.78
619.98	52.82
620.314	52.83
620.648	52.98
620.983	53.09
621.317	53.22
621.651	53.35
621.985	53.42
622.319	53.45
622.653	53.53
622.987	53.6
623.321	53.58
623.655	53.71
623.988	53.8
624.322	53.98
624.656	54.01
624.99	54.15
625.323	54.13
625.657	54.14
625.99	54.18
626.324	54.26
626.657	54.29
626.991	54.38
627.324	54.42
627.658	54.31
627.991	54.38
628.324	54.42
628.657	54.44
628.991	54.47
629.324	54.47
629.657	54.52
629.99	54.53
630.323	54.56
630.656	54.5
630.989	54.56
631.322	54.54
631.655	54.59
631.987	54.55
632.32	54.66
632.653	54.8
632.986	54.82
633.318	54.86
633.651	54.98
633.984	55.02
634.316	55.13
634.649	55.21
634.981	55.18
635.313	55.18
635.646	55.27
635.978	55.25
636.31	55.38
636.643	55.32
636.975	55.41
637.307	55.47
637.639	55.53
637.971	55.52
638.303	55.61
638.635	55.65
638.967	55.73
639.299	55.66
639.631	55.69
639.963	55.72
640.295	55.64
640.626	55.69
640.958	55.6
641.29	55.57
641.621	55.61
641.953	55.66
642.285	55.62
642.616	55.59
642.948	55.67
643.279	55.65
643.61	55.64
643.942	55.59
644.273	55.67
644.604	55.64
644.936	55.74
645.267	55.68
645.598	55.67
645.929	55.59
646.26	55.68
646.591	55.76
646.922	55.83
647.253	55.85
647.584	55.9
647.915	55.96
648.245	56.11
648.576	56.22
648.907	56.3
649.238	56.35
649.568	56.38
649.899	56.29
650.229	56.38
650.56	56.53
650.89	56.56
651.221	56.52
651.551	56.68
651.882	56.7
652.212	56.61
652.542	56.75
652.872	56.86
653.203	56.97
653.533	56.97
653.863	56.98
654.193	57.13
654.523	57.16
654.853	57.35
655.183	57.33
655.513	57.23
655.843	57.1
656.172	57.17
656.502	57.28
656.832	57.44
657.162	57.52
657.491	57.54
657.821	57.6
658.15	57.6
658.48	57.62
658.809	57.62
659.139	57.72
659.468	57.77
659.798	57.69
660.127	57.63
660.456	57.66
660.785	57.66
661.115	57.64
661.444	57.65
661.773	57.48
662.102	57.54
662.431	57.54
662.76	57.61
663.089	57.66
663.418	57.61
663.747	57.58
664.076	57.51
664.404	57.45
664.733	57.51
665.062	57.62
665.39	57.46
665.719	57.39
