Data from BA44024_Reflection_00010.txt Node
Date: Tue Nov 19 11:48:52 EST 2019
User: vgr7
Spectrometer: USB2G7710
Scans to average: 3
Trigger mode: 4
Integration Time (sec): 2.000000E-2
Electric dark correction enabled: true
Boxcar width: 10
XAxis mode: Wavelengths
Number of Pixels in Spectrum: 2048
>>>>>Begin Spectral Data<<<<<
177.721	9.79
178.105	-58.45
178.488	-31.02
178.871	-13.92
179.254	-47.69
179.636	-7.02
180.019	116.27
180.402	-4.55
180.785	1.37
181.168	20.43
181.55	15.85
181.933	14.71
182.316	1.93
182.698	4.5
183.081	83.84
183.463	34.39
183.846	60.95
184.228	100
184.611	4.46
184.993	24.37
185.376	-9.53
185.758	-44.42
186.14	-121.05
186.522	-56.89
186.904	-22.16
187.287	-39.09
187.669	-30.6
188.051	-7.54
188.433	-23.05
188.815	-44.34
189.197	-48.85
189.579	-56.36
189.961	-57.89
190.342	-67.56
190.724	-96.75
191.106	-73.35
191.488	-65.72
191.869	-55.31
192.251	-69.22
192.633	-84.13
193.014	-83.62
193.396	-65.25
193.777	-51.07
194.159	-42.44
194.54	-48
194.922	-55.71
195.303	-62.2
195.684	-61.53
196.065	-69.84
196.447	-81.42
196.828	-64
197.209	-55.14
197.59	-37.7
197.971	-38.68
198.352	-20.34
198.733	-22.17
199.114	-14.67
199.495	-25.26
199.876	-43.98
200.257	-36.42
200.638	-36.91
201.018	-32.17
201.399	-36.07
201.78	-28.45
202.16	-37.79
202.541	-33.11
202.922	-37.68
203.302	-35.77
203.683	-47.49
204.063	-40.33
204.444	-15.66
204.824	-9.98
205.204	-4.88
205.585	-1.81
205.965	-12.22
206.345	-12.48
206.725	-1.27
207.106	-14.08
207.486	-14.36
207.866	12
208.246	31.52
208.626	36.78
209.006	24.61
209.386	28.62
209.766	-0.37
210.145	9.15
210.525	10.84
210.905	10.65
211.285	25.1
211.664	33.21
212.044	30.52
212.424	8.13
212.803	-2.45
213.183	-11.21
213.562	-3.73
213.942	-6.34
214.321	-4.13
214.701	-9.56
215.08	-7.7
215.459	11.49
215.838	5.63
216.218	-4.13
216.597	-8.23
216.976	-10.87
217.355	-13.18
217.734	-10.88
218.113	-2.47
218.492	-3.45
218.871	-0.15
219.25	-10.64
219.629	-20.23
220.008	-15.61
220.387	-10.15
220.766	-0.61
221.144	-4.41
221.523	-12.1
221.902	-3.85
222.28	-4.61
222.659	1.02
223.037	1.82
223.416	-2.23
223.794	-3.57
224.173	-6.94
224.551	-6.3
224.929	-11.39
225.308	-2.04
225.686	2.42
226.064	-1.85
226.442	-0.62
226.821	-0.08
227.199	0.46
227.577	2.84
227.955	5.99
228.333	6.44
228.711	5.64
229.089	8.93
229.467	9.69
229.845	8.04
230.222	7.32
230.6	3.63
230.978	5.81
231.356	4.91
231.733	4.64
232.111	5.59
232.488	6.42
232.866	11.3
233.243	8.16
233.621	6.43
233.998	3.74
234.376	2.04
234.753	1.24
235.13	2.43
235.508	2.54
235.885	0.84
236.262	-0.14
236.639	-0.17
237.016	-0.09
237.393	2.4
237.77	3.23
238.147	2.19
238.524	3.73
238.901	2.52
239.278	2.35
239.655	2.75
240.032	3.03
240.409	3.73
240.785	3.4
241.162	4.1
241.539	4.36
241.915	4.67
242.292	5.28
242.668	5.33
243.045	5.15
243.421	5.05
243.798	4.96
244.174	5.01
244.551	5.01
244.927	4.94
245.303	4.41
245.679	4.38
246.056	4.58
246.432	4.59
246.808	4.97
247.184	5.21
247.56	4.62
247.936	4.57
248.312	4.27
248.688	4.39
249.064	4.4
249.44	4.26
249.815	4.29
250.191	4.1
250.567	4
250.943	3.73
251.318	3.54
251.694	3.55
252.069	3.7
252.445	3.81
252.82	3.95
253.196	4.12
253.571	3.95
253.947	4.04
254.322	3.89
254.697	3.57
255.073	3.3
255.448	3.7
255.823	3.74
256.198	3.91
256.573	3.7
256.948	3.67
257.323	3.89
257.698	3.88
258.073	3.66
258.448	3.82
258.823	3.67
259.198	3.73
259.573	3.56
259.948	3.53
260.322	3.34
260.697	3.35
261.072	3.3
261.446	3.39
261.821	3.36
262.195	3.34
262.57	3.47
262.944	3.37
263.319	3.27
263.693	3.22
264.067	3.11
264.442	3.04
264.816	3.05
265.19	2.83
265.564	2.8
265.938	2.9
266.313	2.66
266.687	2.86
267.061	2.9
267.435	3.09
267.809	2.92
268.183	2.84
268.556	2.77
268.93	2.86
269.304	2.69
269.678	2.61
270.051	2.66
270.425	2.48
270.799	2.42
271.172	2.54
271.546	2.55
271.919	2.47
272.293	2.46
272.666	2.39
273.04	2.51
273.413	2.53
273.787	2.52
274.16	2.44
274.533	2.53
274.906	2.53
275.279	2.5
275.653	2.67
276.026	2.83
276.399	2.78
276.772	2.72
277.145	2.97
277.518	3.09
277.891	3.09
278.263	3.34
278.636	3.57
279.009	3.55
279.382	3.6
279.755	3.67
280.127	3.82
280.5	3.67
280.872	3.73
281.245	3.66
281.617	3.75
281.99	3.74
282.362	3.62
282.735	3.55
283.107	3.58
283.479	3.48
283.852	3.41
284.224	3.44
284.596	3.5
284.968	3.36
285.34	3.28
285.713	3.29
286.085	2.99
286.457	2.84
286.829	2.9
287.201	2.8
287.572	2.86
287.944	2.84
288.316	2.94
288.688	2.85
289.06	2.81
289.431	2.68
289.803	2.82
290.175	2.91
290.546	3.04
290.918	3.09
291.289	3.14
291.661	3.16
292.032	3.09
292.403	2.99
292.775	3.02
293.146	3.11
293.517	3.04
293.889	3.17
294.26	3.3
294.631	3.4
295.002	3.37
295.373	3.39
295.744	3.39
296.115	3.54
296.486	3.71
296.857	3.85
297.228	4
297.599	4.1
297.97	4.01
298.34	3.97
298.711	3.92
299.082	3.88
299.452	3.88
299.823	3.93
300.194	3.92
300.564	3.92
300.935	4
301.305	4.1
301.676	4.17
302.046	4.16
302.416	4.16
302.787	4.35
303.157	4.23
303.527	4.33
303.897	4.11
304.267	4
304.637	4.11
305.008	4.07
305.378	4.08
305.748	4.22
306.117	4.14
306.487	4.2
306.857	4.42
307.227	4.5
307.597	4.63
307.967	4.79
308.336	4.77
308.706	4.67
309.076	4.72
309.445	4.76
309.815	4.86
310.184	4.57
310.554	4.47
310.923	4.6
311.293	4.55
311.662	4.64
312.031	4.6
312.401	4.52
312.77	4.54
313.139	4.5
313.508	4.43
313.877	4.54
314.246	4.43
314.616	4.3
314.985	4.25
315.353	4.23
315.722	4.25
316.091	4.42
316.46	4.45
316.829	4.46
317.198	4.48
317.567	4.53
317.935	4.85
318.304	5.1
318.672	4.97
319.041	4.97
319.41	5.13
319.778	5.31
320.147	5.41
320.515	5.37
320.883	5.36
321.252	5.49
321.62	5.45
321.988	5.71
322.357	5.74
322.725	5.89
323.093	5.93
323.461	6.04
323.829	5.89
324.197	5.82
324.565	5.83
324.933	5.63
325.301	5.49
325.669	5.43
326.037	5.4
326.405	5.52
326.772	5.58
327.14	5.28
327.508	5.22
327.875	5.09
328.243	5.01
328.61	5.01
328.978	4.97
329.346	5.09
329.713	5.04
330.08	5.06
330.448	4.98
330.815	4.91
331.182	4.77
331.55	4.87
331.917	4.85
332.284	4.83
332.651	5.03
333.018	5.19
333.385	5.26
333.752	5.3
334.119	5.31
334.486	5.15
334.853	5.25
335.22	5.21
335.587	5.23
335.954	5.26
336.32	5.22
336.687	5.33
337.054	5.3
337.42	5.28
337.787	5.19
338.153	5.13
338.52	5.29
338.886	5.34
339.253	5.28
339.619	5.55
339.986	5.56
340.352	5.56
340.718	5.57
341.084	5.58
341.451	5.44
341.817	5.44
342.183	5.61
342.549	5.76
342.915	5.89
343.281	5.98
343.647	6.11
344.013	6.13
344.379	6.09
344.745	6.11
345.11	5.95
345.476	6.08
345.842	6.19
346.208	6.08
346.573	6.03
346.939	6.16
347.304	6.16
347.67	6.15
348.035	6.12
348.401	6.07
348.766	6.08
349.132	6.26
349.497	6.26
349.862	6.23
350.228	6.12
350.593	5.98
350.958	5.99
351.323	5.98
351.688	6.06
352.053	6.02
352.418	6.06
352.783	6.12
353.148	6.08
353.513	5.94
353.878	5.95
354.243	5.86
354.608	5.77
354.972	5.7
355.337	5.67
355.702	5.71
356.066	5.74
356.431	5.61
356.795	5.65
357.16	5.57
357.524	5.56
357.889	5.46
358.253	5.42
358.618	5.38
358.982	5.33
359.346	5.34
359.71	5.33
360.075	5.28
360.439	5.33
360.803	5.38
361.167	5.36
361.531	5.36
361.895	5.34
362.259	5.33
362.623	5.27
362.987	5.27
363.351	5.17
363.714	5.14
364.078	5.19
364.442	5.12
364.806	5.17
365.169	5.14
365.533	5.26
365.896	5.39
366.26	5.34
366.623	5.31
366.987	5.18
367.35	5.19
367.714	5.2
368.077	5.15
368.44	5.07
368.803	5.06
369.167	5.05
369.53	5.09
369.893	5.09
370.256	5.02
370.619	4.96
370.982	4.91
371.345	4.92
371.708	4.85
372.071	4.74
372.434	4.7
372.797	4.72
373.159	4.67
373.522	4.57
373.885	4.57
374.247	4.57
374.61	4.6
374.973	4.52
375.335	4.43
375.698	4.37
376.06	4.31
376.423	4.3
376.785	4.25
377.147	4.23
377.51	4.15
377.872	4.16
378.234	4.14
378.596	4.2
378.958	4.08
379.321	4.09
379.683	4.09
380.045	4.06
380.407	4.01
380.769	3.97
381.13	3.96
381.492	3.89
381.854	3.88
382.216	3.9
382.578	3.87
382.939	3.91
383.301	3.9
383.663	3.92
384.024	3.92
384.386	3.92
384.747	3.87
385.109	3.85
385.47	3.87
385.832	3.89
386.193	3.88
386.554	3.86
386.916	3.91
387.277	3.87
387.638	3.82
387.999	3.79
388.36	3.75
388.721	3.72
389.082	3.71
389.443	3.72
389.804	3.69
390.165	3.71
390.526	3.68
390.887	3.68
391.248	3.63
391.609	3.65
391.969	3.65
392.33	3.66
392.691	3.67
393.051	3.61
393.412	3.58
393.772	3.56
394.133	3.6
394.493	3.54
394.854	3.59
395.214	3.58
395.574	3.57
395.935	3.56
396.295	3.53
396.655	3.51
397.015	3.49
397.376	3.49
397.736	3.42
398.096	3.42
398.456	3.43
398.816	3.46
399.176	3.39
399.535	3.31
399.895	3.3
400.255	3.27
400.615	3.29
400.975	3.29
401.334	3.26
401.694	3.25
402.054	3.22
402.413	3.17
402.773	3.18
403.132	3.17
403.492	3.19
403.851	3.23
404.211	3.27
404.57	3.23
404.929	3.19
405.288	3.24
405.648	3.23
406.007	3.21
406.366	3.24
406.725	3.23
407.084	3.25
407.443	3.26
407.802	3.28
408.161	3.3
408.52	3.32
408.879	3.31
409.238	3.29
409.596	3.31
409.955	3.31
410.314	3.32
410.673	3.32
411.031	3.32
411.39	3.3
411.748	3.29
412.107	3.32
412.465	3.33
412.824	3.34
413.182	3.32
413.54	3.36
413.899	3.3
414.257	3.32
414.615	3.29
414.974	3.28
415.332	3.26
415.69	3.23
416.048	3.21
416.406	3.19
416.764	3.19
417.122	3.18
417.48	3.19
417.838	3.16
418.195	3.13
418.553	3.11
418.911	3.08
419.269	3.06
419.626	3.05
419.984	3.04
420.342	3.01
420.699	3.01
421.057	2.99
421.414	2.99
421.772	2.96
422.129	2.96
422.486	2.97
422.844	2.96
423.201	2.96
423.558	2.96
423.915	2.97
424.273	2.96
424.63	2.94
424.987	2.94
425.344	2.96
425.701	2.97
426.058	2.97
426.415	2.97
426.772	2.97
427.128	2.95
427.485	2.96
427.842	2.95
428.199	2.98
428.555	2.96
428.912	2.95
429.269	2.95
429.625	2.95
429.982	2.93
430.338	2.96
430.695	2.94
431.051	2.95
431.407	2.95
431.764	2.94
432.12	2.95
432.476	2.94
432.832	2.92
433.189	2.93
433.545	2.91
433.901	2.91
434.257	2.92
434.613	2.9
434.969	2.9
435.325	2.91
435.681	2.88
436.036	2.89
436.392	2.91
436.748	2.93
437.104	2.94
437.459	2.95
437.815	2.93
438.171	2.93
438.526	2.93
438.882	2.92
439.237	2.92
439.593	2.92
439.948	2.91
440.304	2.91
440.659	2.9
441.014	2.92
441.369	2.93
441.725	2.93
442.08	2.94
442.435	2.93
442.79	2.91
443.145	2.91
443.5	2.9
443.855	2.88
444.21	2.88
444.565	2.86
444.92	2.86
445.275	2.85
445.629	2.84
445.984	2.81
446.339	2.82
446.693	2.83
447.048	2.81
447.403	2.81
447.757	2.8
448.112	2.81
448.466	2.79
448.82	2.77
449.175	2.78
449.529	2.77
449.883	2.78
450.238	2.79
450.592	2.8
450.946	2.82
451.3	2.81
451.654	2.79
452.008	2.81
452.362	2.8
452.716	2.81
453.07	2.82
453.424	2.85
453.778	2.84
454.132	2.83
454.486	2.86
454.839	2.87
455.193	2.89
455.547	2.88
455.9	2.88
456.254	2.9
456.607	2.88
456.961	2.89
457.314	2.88
457.668	2.86
458.021	2.84
458.375	2.82
458.728	2.84
459.081	2.86
459.434	2.84
459.787	2.85
460.141	2.85
460.494	2.84
460.847	2.82
461.2	2.82
461.553	2.83
461.906	2.82
462.259	2.82
462.611	2.81
462.964	2.81
463.317	2.81
463.67	2.82
464.022	2.8
464.375	2.8
464.728	2.78
465.08	2.81
465.433	2.82
465.785	2.84
466.138	2.86
466.49	2.85
466.843	2.87
467.195	2.87
467.547	2.86
467.899	2.89
468.252	2.9
468.604	2.92
468.956	2.93
469.308	2.91
469.66	2.92
470.012	2.94
470.364	2.93
470.716	2.95
471.068	2.93
471.42	2.95
471.772	2.95
472.123	2.99
472.475	2.97
472.827	2.99
473.178	2.98
473.53	2.98
473.882	3
474.233	2.99
474.585	2.99
474.936	3.01
475.288	3
475.639	3.03
475.99	3
476.342	3.01
476.693	3.02
477.044	3.03
477.395	3.01
477.746	2.99
478.097	3
478.448	3.02
478.8	3.01
479.15	2.99
479.501	2.97
479.852	2.98
480.203	2.98
480.554	2.96
480.905	2.94
481.255	2.93
481.606	2.92
481.957	2.92
482.307	2.92
482.658	2.92
483.009	2.91
483.359	2.91
483.709	2.9
484.06	2.9
484.41	2.89
484.761	2.9
485.111	2.91
485.461	2.91
485.811	2.91
486.162	2.9
486.512	2.9
486.862	2.91
487.212	2.91
487.562	2.91
487.912	2.93
488.262	2.94
488.612	2.94
488.961	2.95
489.311	2.95
489.661	2.95
490.011	2.94
490.36	2.95
490.71	2.96
491.06	2.95
491.409	2.96
491.759	2.98
492.108	2.97
492.458	2.97
492.807	2.98
493.157	2.99
493.506	3
493.855	3.02
494.204	3.04
494.554	3.05
494.903	3.04
495.252	3.04
495.601	3.05
495.95	3.06
496.299	3.07
496.648	3.07
496.997	3.09
497.346	3.13
497.695	3.15
498.043	3.18
498.392	3.2
498.741	3.2
499.09	3.21
499.438	3.23
499.787	3.25
500.135	3.26
500.484	3.26
500.832	3.28
501.181	3.3
501.529	3.31
501.878	3.33
502.226	3.35
502.574	3.37
502.923	3.39
503.271	3.38
503.619	3.4
503.967	3.41
504.315	3.44
504.663	3.43
505.011	3.44
505.359	3.44
505.707	3.46
506.055	3.5
506.403	3.52
506.751	3.55
507.098	3.58
507.446	3.61
507.794	3.64
508.141	3.66
508.489	3.68
508.837	3.7
509.184	3.74
509.531	3.77
509.879	3.79
510.226	3.83
510.574	3.87
510.921	3.92
511.268	3.98
511.616	4
511.963	4.04
512.31	4.06
512.657	4.09
513.004	4.12
513.351	4.14
513.698	4.18
514.045	4.22
514.392	4.27
514.739	4.3
515.086	4.34
515.432	4.41
515.779	4.44
516.126	4.48
516.473	4.51
516.819	4.56
517.166	4.63
517.512	4.65
517.859	4.7
518.205	4.74
518.552	4.79
518.898	4.83
519.245	4.9
519.591	4.97
519.937	5.04
520.283	5.11
520.629	5.14
520.976	5.19
521.322	5.27
521.668	5.33
522.014	5.41
522.36	5.48
522.706	5.53
523.052	5.63
523.398	5.7
523.743	5.77
524.089	5.85
524.435	5.93
524.781	6.03
525.126	6.11
525.472	6.17
525.817	6.22
526.163	6.27
526.509	6.34
526.854	6.39
527.199	6.43
527.545	6.48
527.89	6.55
528.235	6.61
528.581	6.68
528.926	6.74
529.271	6.79
529.616	6.85
529.961	6.93
530.306	6.98
530.651	7.05
530.996	7.14
531.341	7.22
531.686	7.3
532.031	7.37
532.376	7.44
532.721	7.55
533.065	7.62
533.41	7.73
533.755	7.81
534.099	7.91
534.444	8.02
534.788	8.12
535.133	8.24
535.477	8.36
535.822	8.46
536.166	8.6
536.51	8.74
536.855	8.88
537.199	9
537.543	9.15
537.887	9.32
538.231	9.49
538.576	9.64
538.92	9.79
539.264	9.97
539.608	10.1
539.951	10.23
540.295	10.4
540.639	10.54
540.983	10.66
541.327	10.8
541.671	10.96
542.014	11.1
542.358	11.23
542.701	11.34
543.045	11.47
543.389	11.61
543.732	11.75
544.075	11.91
544.419	12.08
544.762	12.24
545.105	12.41
545.449	12.56
545.792	12.72
546.135	12.91
546.478	13.07
546.821	13.29
547.165	13.51
547.508	13.71
547.851	13.9
548.194	14.1
548.536	14.32
548.879	14.51
549.222	14.76
549.565	15.01
549.908	15.25
550.25	15.45
550.593	15.65
550.936	15.9
551.278	16.13
551.621	16.34
551.963	16.61
552.306	16.83
552.648	17.09
552.991	17.35
553.333	17.58
553.675	17.84
554.017	18.02
554.36	18.22
554.702	18.43
555.044	18.64
555.386	18.91
555.728	19.14
556.07	19.34
556.412	19.59
556.754	19.82
557.096	20.06
557.438	20.38
557.78	20.67
558.121	20.88
558.463	21.14
558.805	21.43
559.147	21.67
559.488	21.93
559.83	22.14
560.171	22.43
560.513	22.7
560.854	22.97
561.196	23.32
561.537	23.63
561.878	23.94
562.22	24.21
562.561	24.53
562.902	24.76
563.243	25.09
563.584	25.36
563.925	25.63
564.266	25.89
564.607	26.14
564.948	26.4
565.289	26.68
565.63	26.93
565.971	27.22
566.312	27.55
566.653	27.86
566.993	28.2
567.334	28.46
567.675	28.69
568.015	28.96
568.356	29.22
568.696	29.49
569.037	29.76
569.377	30.08
569.718	30.29
570.058	30.61
570.398	30.87
570.739	31.15
571.079	31.41
571.419	31.68
571.759	31.9
572.099	32.1
572.439	32.36
572.779	32.64
573.119	32.87
573.459	33.08
573.799	33.28
574.139	33.43
574.479	33.69
574.819	33.94
575.158	34.19
575.498	34.41
575.838	34.66
576.177	34.93
576.517	35.15
576.856	35.42
577.196	35.66
577.535	35.93
577.875	36.14
578.214	36.38
578.553	36.61
578.893	36.9
579.232	37.21
579.571	37.5
579.91	37.71
580.25	37.97
580.589	38.22
580.928	38.45
581.267	38.73
581.606	38.93
581.945	39.21
582.283	39.44
582.622	39.72
582.961	39.93
583.3	40.07
583.639	40.29
583.977	40.53
584.316	40.75
584.654	40.95
584.993	41.07
585.332	41.36
585.67	41.61
586.008	41.9
586.347	42.1
586.685	42.23
587.024	42.42
587.362	42.56
587.7	42.73
588.038	42.98
588.376	43.11
588.715	43.3
589.053	43.43
589.391	43.56
589.729	43.67
590.067	43.86
590.404	44.08
590.742	44.27
591.08	44.45
591.418	44.63
591.756	44.81
592.093	45.03
592.431	45.13
592.769	45.3
593.106	45.39
593.444	45.59
593.781	45.76
594.119	45.93
594.456	46.16
594.793	46.28
595.131	46.39
595.468	46.54
595.805	46.73
596.143	46.87
596.48	47
596.817	47.15
597.154	47.27
597.491	47.38
597.828	47.55
598.165	47.71
598.502	47.78
598.839	47.93
599.176	48.09
599.512	48.22
599.849	48.3
600.186	48.43
600.523	48.55
600.859	48.71
601.196	48.87
601.532	48.91
601.869	49.05
602.205	49.16
602.542	49.27
602.878	49.29
603.215	49.44
603.551	49.6
603.887	49.79
604.223	49.86
604.56	49.98
604.896	50
605.232	50.09
605.568	50.25
605.904	50.36
606.24	50.44
606.576	50.59
606.912	50.8
607.248	50.97
607.583	51.03
607.919	51.09
608.255	51.13
608.591	51.31
608.926	51.38
609.262	51.51
609.597	51.68
609.933	51.86
610.268	51.98
610.604	51.99
610.939	52.02
611.275	52.16
611.61	52.23
611.945	52.31
612.281	52.4
612.616	52.43
612.951	52.48
613.286	52.56
613.621	52.59
613.956	52.6
614.291	52.62
614.626	52.73
614.961	52.8
615.296	53.03
615.631	53.05
615.966	53.17
616.3	53.24
616.635	53.29
616.97	53.21
617.304	53.29
617.639	53.35
617.973	53.38
618.308	53.46
618.642	53.45
618.977	53.57
619.311	53.57
619.646	53.68
619.98	53.73
620.314	53.8
620.648	53.87
620.983	54.02
621.317	54.17
621.651	54.3
621.985	54.47
622.319	54.44
622.653	54.49
622.987	54.48
623.321	54.53
623.655	54.69
623.988	54.84
624.322	54.84
624.656	54.87
624.99	54.96
625.323	54.95
625.657	55.04
625.99	55.08
626.324	55.11
626.657	55.09
626.991	55.14
627.324	55.25
627.658	55.26
627.991	55.26
628.324	55.2
628.657	55.14
628.991	55.09
629.324	55.12
629.657	55.21
629.99	55.27
630.323	55.37
630.656	55.33
630.989	55.39
631.322	55.35
631.655	55.44
631.987	55.49
632.32	55.51
632.653	55.62
632.986	55.61
633.318	55.68
633.651	55.8
633.984	55.85
634.316	55.88
634.649	55.96
634.981	55.96
635.313	56.12
635.646	56.18
635.978	56.12
636.31	56.22
636.643	56.28
636.975	56.47
637.307	56.43
637.639	56.45
637.971	56.54
638.303	56.66
638.635	56.66
638.967	56.71
639.299	56.6
639.631	56.55
639.963	56.61
640.295	56.5
640.626	56.51
640.958	56.43
641.29	56.29
641.621	56.29
641.953	56.29
642.285	56.22
642.616	56.32
642.948	56.42
643.279	56.43
643.61	56.27
643.942	56.31
644.273	56.39
644.604	56.42
644.936	56.32
645.267	56.32
645.598	56.48
645.929	56.38
646.26	56.62
646.591	56.8
646.922	56.95
647.253	57.1
647.584	57.19
647.915	57.28
648.245	57.37
648.576	57.41
648.907	57.49
649.238	57.6
649.568	57.65
649.899	57.74
650.229	57.71
650.56	57.94
650.89	57.87
651.221	57.78
651.551	57.84
651.882	57.89
652.212	57.89
652.542	57.83
652.872	58.01
653.203	58.02
653.533	57.99
653.863	57.92
654.193	58.02
654.523	57.96
654.853	58.06
655.183	58.22
655.513	58.22
655.843	58.23
656.172	58.2
656.502	58.18
656.832	58.22
657.162	58.23
657.491	58.24
657.821	58.26
658.15	58.29
658.48	58.29
658.809	58.33
659.139	58.33
659.468	58.44
659.798	58.36
660.127	58.37
660.456	58.37
660.785	58.43
661.115	58.49
661.444	58.48
661.773	58.4
662.102	58.3
662.431	58.25
662.76	58.32
663.089	58.31
663.418	58.34
663.747	58.38
664.076	58.45
664.404	58.5
664.733	58.48
665.062	58.6
665.39	58.58
665.719	58.67
666.048	58.82
666.376	58.87
666.705	59.11
667.033	59.04
667.362	59
667.69	58.95
668.018	58.92
668.347	59.06
668.675	59.08
669.003	59.27
669.331	59.39
669.659	59.28
669.987	59.3
670.315	59.29
