Data from BA44024_Reflection_00009.txt Node
Date: Tue Nov 19 11:48:50 EST 2019
User: vgr7
Spectrometer: USB2G7710
Scans to average: 3
Trigger mode: 4
Integration Time (sec): 2.000000E-2
Electric dark correction enabled: true
Boxcar width: 10
XAxis mode: Wavelengths
Number of Pixels in Spectrum: 2048
>>>>>Begin Spectral Data<<<<<
177.721	2.47
178.105	-19.72
178.488	-27.1
178.871	89.87
179.254	89.23
179.636	81.57
180.019	120.8
180.402	45.45
180.785	93.15
181.168	50.88
181.55	20.76
181.933	48.7
182.316	27.49
182.698	44.57
183.081	127.83
183.463	226.24
183.846	218.22
184.228	414.13
184.611	-743.95
184.993	-183.19
185.376	-223.53
185.758	-281.84
186.14	-343.16
186.522	-238.35
186.904	-144.91
187.287	-109.17
187.669	-53.63
188.051	-77.37
188.433	-104.68
188.815	-86.9
189.197	-70.41
189.579	-69.75
189.961	-90.72
190.342	-63.43
190.724	-86.59
191.106	-67.36
191.488	-52.89
191.869	-53.17
192.251	-64.19
192.633	-52.51
193.014	-38.29
193.396	-27.85
193.777	-13.51
194.159	7.33
194.54	2.75
194.922	-4.44
195.303	-20.22
195.684	-31.52
196.065	-22.75
196.447	-25.62
196.828	-19.39
197.209	0.11
197.59	6.91
197.971	19.97
198.352	7.7
198.733	3.54
199.114	3.82
199.495	4.01
199.876	5.63
200.257	7.99
200.638	-7.89
201.018	-26.89
201.399	-25.82
201.78	-28.65
202.16	-49.27
202.541	-50.9
202.922	-32.4
203.302	-34.57
203.683	-40.57
204.063	-52.03
204.444	-63.02
204.824	-53.36
205.204	-65.95
205.585	-72.1
205.965	-84.21
206.345	-102.73
206.725	-73.83
207.106	-72.7
207.486	-75.72
207.866	-60.56
208.246	-38.66
208.626	-38.74
209.006	-35.3
209.386	-36.98
209.766	-52.04
210.145	-51.07
210.525	-56.35
210.905	-65.75
211.285	-47.3
211.664	-21.11
212.044	-28.2
212.424	-19.03
212.803	-26.21
213.183	-40.27
213.562	-27.5
213.942	-21.18
214.321	-13.58
214.701	-14.69
215.08	-15.17
215.459	-16.8
215.838	-24.61
216.218	-37.87
216.597	-30.04
216.976	-25.81
217.355	-26.18
217.734	-18.95
218.113	-10.11
218.492	-7.07
218.871	-4.77
219.25	-7.84
219.629	-22.28
220.008	-11.5
220.387	-9.46
220.766	-14.21
221.144	-15.24
221.523	-13.89
221.902	-12.5
222.28	-12.2
222.659	-11.2
223.037	-13.51
223.416	-12.93
223.794	-10.59
224.173	-15.27
224.551	-24.58
224.929	-28.48
225.308	-31.3
225.686	-35.91
226.064	-38.83
226.442	-36.38
226.821	-36.25
227.199	-34.14
227.577	-33.27
227.955	-36.1
228.333	-36.49
228.711	-31.4
229.089	-26.89
229.467	-28.72
229.845	-25.99
230.222	-26.08
230.6	-24.81
230.978	-23.24
231.356	-22.23
231.733	-22.18
232.111	-19.94
232.488	-15.24
232.866	-15.38
233.243	-13.24
233.621	-11.09
233.998	-10.97
234.376	-9.67
234.753	-9.2
235.13	-7.04
235.508	-6.07
235.885	-4.71
236.262	-4.46
236.639	-5.91
237.016	-4.97
237.393	-4.06
237.77	-3.97
238.147	-1.72
238.524	-1.89
238.901	-1.9
239.278	-1.45
239.655	-1.08
240.032	-0.6
240.409	0.1
240.785	0.87
241.162	1.12
241.539	1.49
241.915	2.02
242.292	2.61
242.668	2.81
243.045	3.02
243.421	2.91
243.798	2.98
244.174	3.14
244.551	3.26
244.927	3.33
245.303	3.2
245.679	3.04
246.056	2.58
246.432	2.71
246.808	2.88
247.184	2.9
247.56	2.98
247.936	3.13
248.312	3.09
248.688	3.01
249.064	2.93
249.44	2.31
249.815	2.36
250.191	1.88
250.567	1.71
250.943	1.55
251.318	1.6
251.694	1.39
252.069	1.4
252.445	1.41
252.82	1.36
253.196	1.32
253.571	1.66
253.947	1.75
254.322	1.6
254.697	1.4
255.073	1.22
255.448	0.95
255.823	0.92
256.198	0.57
256.573	0.85
256.948	1.04
257.323	1.63
257.698	1.54
258.073	1.53
258.448	1.9
258.823	1.66
259.198	1.73
259.573	1.74
259.948	1.97
260.322	1.8
260.697	1.96
261.072	2.12
261.446	2.06
261.821	2.05
262.195	2.08
262.57	2.31
262.944	2.41
263.319	2.49
263.693	2.37
264.067	2.5
264.442	2.42
264.816	2.33
265.19	2.14
265.564	2.09
265.938	2.4
266.313	2.05
266.687	2.43
267.061	2.23
267.435	2.25
267.809	1.88
268.183	2.07
268.556	1.84
268.93	1.76
269.304	1.99
269.678	2.17
270.051	2.25
270.425	2.22
270.799	2.08
271.172	2.15
271.546	2.2
271.919	2.04
272.293	2.06
272.666	2.12
273.04	2.3
273.413	2.42
273.787	2.36
274.16	2.32
274.533	2.23
274.906	2.33
275.279	2.37
275.653	2.36
276.026	2.51
276.399	2.58
276.772	2.48
277.145	2.33
277.518	1.98
277.891	1.83
278.263	2
278.636	2.18
279.009	2.27
279.382	2.33
279.755	2.31
280.127	2.14
280.5	1.94
280.872	1.9
281.245	1.8
281.617	1.78
281.99	1.9
282.362	1.82
282.735	1.79
283.107	1.93
283.479	1.98
283.852	1.85
284.224	1.98
284.596	2.17
284.968	2.23
285.34	2.34
285.713	2.27
286.085	2.11
286.457	2.15
286.829	2.06
287.201	2.1
287.572	2.24
287.944	2.4
288.316	2.55
288.688	2.69
289.06	2.8
289.431	2.89
289.803	2.87
290.175	2.92
290.546	2.95
290.918	2.8
291.289	2.84
291.661	2.88
292.032	2.79
292.403	2.69
292.775	2.68
293.146	2.85
293.517	3.03
293.889	3.03
294.26	2.92
294.631	2.97
295.002	2.96
295.373	2.97
295.744	2.91
296.115	2.97
296.486	2.9
296.857	2.79
297.228	2.76
297.599	2.79
297.97	2.96
298.34	3.03
298.711	3.07
299.082	3.13
299.452	3.11
299.823	3.11
300.194	3.27
300.564	3.18
300.935	3.11
301.305	3.07
301.676	3.04
302.046	3.16
302.416	3.13
302.787	3.22
303.157	3.24
303.527	3.43
303.897	3.29
304.267	3.17
304.637	3.25
305.008	3.16
305.378	3.22
305.748	2.97
306.117	2.9
306.487	2.99
306.857	3.03
307.227	3.17
307.597	3.14
307.967	3.04
308.336	3.19
308.706	3.16
309.076	3.16
309.445	3.2
309.815	3.2
310.184	3.16
310.554	3.09
310.923	3.02
311.293	2.97
311.662	3.03
312.031	3.02
312.401	3.12
312.77	3.22
313.139	3.25
313.508	3.33
313.877	3.3
314.246	3.12
314.616	3.21
314.985	3.15
315.353	3.17
315.722	3.16
316.091	3.05
316.46	3.22
316.829	3.3
317.198	3.31
317.567	3.44
317.935	3.4
318.304	3.4
318.672	3.65
319.041	3.58
319.41	3.76
319.778	4.02
320.147	3.99
320.515	4.04
320.883	3.93
321.252	4.04
321.62	4.06
321.988	4.18
322.357	4.04
322.725	4.03
323.093	3.9
323.461	3.94
323.829	4.1
324.197	3.8
324.565	3.83
324.933	3.94
325.301	3.67
325.669	3.85
326.037	3.92
326.405	3.72
326.772	3.89
327.14	3.74
327.508	3.58
327.875	3.41
328.243	3.32
328.61	3.36
328.978	3.29
329.346	3.46
329.713	3.5
330.08	3.55
330.448	3.64
330.815	3.71
331.182	3.74
331.55	3.59
331.917	3.62
332.284	3.68
332.651	3.51
333.018	3.58
333.385	3.66
333.752	3.58
334.119	3.59
334.486	3.43
334.853	3.39
335.22	3.3
335.587	3.5
335.954	3.49
336.32	3.45
336.687	3.55
337.054	3.44
337.42	3.57
337.787	3.52
338.153	3.55
338.52	3.68
338.886	3.69
339.253	3.63
339.619	3.83
339.986	3.76
340.352	3.83
340.718	3.93
341.084	3.92
341.451	4.03
341.817	4.02
342.183	4.01
342.549	4.16
342.915	4.38
343.281	4.39
343.647	4.38
344.013	4.54
344.379	4.48
344.745	4.53
345.11	4.48
345.476	4.55
345.842	4.44
346.208	4.36
346.573	4.35
346.939	4.54
347.304	4.57
347.67	4.53
348.035	4.55
348.401	4.49
348.766	4.48
349.132	4.44
349.497	4.44
349.862	4.46
350.228	4.33
350.593	4.2
350.958	4.22
351.323	4.25
351.688	4.24
352.053	4.22
352.418	4.19
352.783	4.14
353.148	4.05
353.513	4.09
353.878	4.15
354.243	4.17
354.608	4.17
354.972	4.15
355.337	4.09
355.702	4.07
356.066	4.12
356.431	4.03
356.795	4.04
357.16	4.12
357.524	4.14
357.889	4.13
358.253	4.17
358.618	4.09
358.982	4.02
359.346	4.02
359.71	4.01
360.075	4.02
360.439	4.11
360.803	4.2
361.167	4.11
361.531	4.05
361.895	4.04
362.259	3.96
362.623	3.96
362.987	4.09
363.351	4.07
363.714	3.97
364.078	4.03
364.442	4
364.806	3.99
365.169	3.97
365.533	4.03
365.896	3.97
366.26	3.93
366.623	3.97
366.987	3.93
367.35	3.95
367.714	3.98
368.077	3.98
368.44	3.94
368.803	3.98
369.167	3.96
369.53	3.92
369.893	3.9
370.256	3.82
370.619	3.67
370.982	3.6
371.345	3.63
371.708	3.61
372.071	3.62
372.434	3.62
372.797	3.67
373.159	3.64
373.522	3.65
373.885	3.62
374.247	3.61
374.61	3.61
374.973	3.58
375.335	3.56
375.698	3.42
376.06	3.39
376.423	3.38
376.785	3.41
377.147	3.37
377.51	3.36
377.872	3.3
378.234	3.36
378.596	3.41
378.958	3.48
379.321	3.43
379.683	3.4
380.045	3.33
380.407	3.28
380.769	3.24
381.13	3.23
381.492	3.27
381.854	3.25
382.216	3.25
382.578	3.2
382.939	3.18
383.301	3.2
383.663	3.23
384.024	3.18
384.386	3.18
384.747	3.19
385.109	3.19
385.47	3.21
385.832	3.18
386.193	3.15
386.554	3.08
386.916	3.08
387.277	3.06
387.638	3.05
387.999	3.06
388.36	3.12
388.721	3.12
389.082	3.1
389.443	3.09
389.804	3.07
390.165	3.09
390.526	3.07
390.887	3.01
391.248	2.96
391.609	2.99
391.969	3
392.33	2.97
392.691	2.96
393.051	2.98
393.412	2.98
393.772	3
394.133	3
394.493	2.97
394.854	2.95
395.214	2.99
395.574	2.95
395.935	2.85
396.295	2.84
396.655	2.83
397.015	2.82
397.376	2.79
397.736	2.8
398.096	2.79
398.456	2.83
398.816	2.81
399.176	2.76
399.535	2.7
399.895	2.71
400.255	2.74
400.615	2.71
400.975	2.71
401.334	2.69
401.694	2.68
402.054	2.63
402.413	2.64
402.773	2.61
403.132	2.63
403.492	2.71
403.851	2.7
404.211	2.71
404.57	2.72
404.929	2.68
405.288	2.65
405.648	2.66
406.007	2.65
406.366	2.63
406.725	2.66
407.084	2.68
407.443	2.68
407.802	2.66
408.161	2.66
408.52	2.65
408.879	2.63
409.238	2.64
409.596	2.67
409.955	2.71
410.314	2.7
410.673	2.68
411.031	2.62
411.39	2.64
411.748	2.65
412.107	2.69
412.465	2.72
412.824	2.69
413.182	2.66
413.54	2.67
413.899	2.69
414.257	2.69
414.615	2.69
414.974	2.68
415.332	2.68
415.69	2.68
416.048	2.67
416.406	2.64
416.764	2.63
417.122	2.62
417.48	2.61
417.838	2.63
418.195	2.62
418.553	2.63
418.911	2.62
419.269	2.61
419.626	2.59
419.984	2.58
420.342	2.6
420.699	2.6
421.057	2.59
421.414	2.6
421.772	2.61
422.129	2.58
422.486	2.59
422.844	2.57
423.201	2.57
423.558	2.55
423.915	2.57
424.273	2.58
424.63	2.6
424.987	2.59
425.344	2.58
425.701	2.59
426.058	2.58
426.415	2.58
426.772	2.56
427.128	2.57
427.485	2.56
427.842	2.53
428.199	2.53
428.555	2.52
428.912	2.49
429.269	2.47
429.625	2.47
429.982	2.44
430.338	2.46
430.695	2.42
431.051	2.42
431.407	2.39
431.764	2.37
432.12	2.36
432.476	2.37
432.832	2.37
433.189	2.36
433.545	2.37
433.901	2.37
434.257	2.39
434.613	2.37
434.969	2.39
435.325	2.41
435.681	2.41
436.036	2.42
436.392	2.43
436.748	2.42
437.104	2.44
437.459	2.45
437.815	2.46
438.171	2.48
438.526	2.49
438.882	2.53
439.237	2.54
439.593	2.52
439.948	2.51
440.304	2.51
440.659	2.52
441.014	2.52
441.369	2.51
441.725	2.53
442.08	2.52
442.435	2.53
442.79	2.51
443.145	2.51
443.5	2.51
443.855	2.5
444.21	2.52
444.565	2.53
444.92	2.53
445.275	2.52
445.629	2.5
445.984	2.5
446.339	2.49
446.693	2.49
447.048	2.49
447.403	2.48
447.757	2.48
448.112	2.47
448.466	2.46
448.82	2.45
449.175	2.45
449.529	2.46
449.883	2.45
450.238	2.46
450.592	2.47
450.946	2.47
451.3	2.47
451.654	2.46
452.008	2.44
452.362	2.45
452.716	2.45
453.07	2.46
453.424	2.46
453.778	2.48
454.132	2.46
454.486	2.47
454.839	2.48
455.193	2.48
455.547	2.48
455.9	2.47
456.254	2.46
456.607	2.44
456.961	2.45
457.314	2.43
457.668	2.44
458.021	2.43
458.375	2.43
458.728	2.43
459.081	2.43
459.434	2.43
459.787	2.42
460.141	2.42
460.494	2.43
460.847	2.43
461.2	2.42
461.553	2.43
461.906	2.4
462.259	2.41
462.611	2.4
462.964	2.42
463.317	2.43
463.67	2.43
464.022	2.43
464.375	2.42
464.728	2.43
465.08	2.42
465.433	2.41
465.785	2.42
466.138	2.43
466.49	2.45
466.843	2.46
467.195	2.47
467.547	2.47
467.899	2.48
468.252	2.49
468.604	2.49
468.956	2.49
469.308	2.52
469.66	2.51
470.012	2.53
470.364	2.51
470.716	2.51
471.068	2.54
471.42	2.52
471.772	2.53
472.123	2.53
472.475	2.53
472.827	2.56
473.178	2.54
473.53	2.53
473.882	2.54
474.233	2.53
474.585	2.51
474.936	2.5
475.288	2.49
475.639	2.5
475.99	2.5
476.342	2.5
476.693	2.49
477.044	2.49
477.395	2.48
477.746	2.5
478.097	2.49
478.448	2.49
478.8	2.5
479.15	2.51
479.501	2.5
479.852	2.49
480.203	2.49
480.554	2.51
480.905	2.51
481.255	2.49
481.606	2.5
481.957	2.51
482.307	2.51
482.658	2.51
483.009	2.51
483.359	2.51
483.709	2.51
484.06	2.51
484.41	2.52
484.761	2.53
485.111	2.53
485.461	2.54
485.811	2.54
486.162	2.55
486.512	2.56
486.862	2.56
487.212	2.58
487.562	2.58
487.912	2.58
488.262	2.58
488.612	2.6
488.961	2.61
489.311	2.62
489.661	2.61
490.011	2.62
490.36	2.62
490.71	2.62
491.06	2.62
491.409	2.63
491.759	2.63
492.108	2.63
492.458	2.63
492.807	2.63
493.157	2.64
493.506	2.63
493.855	2.63
494.204	2.64
494.554	2.63
494.903	2.65
495.252	2.65
495.601	2.66
495.95	2.64
496.299	2.65
496.648	2.67
496.997	2.7
497.346	2.73
497.695	2.74
498.043	2.74
498.392	2.78
498.741	2.79
499.09	2.79
499.438	2.82
499.787	2.83
500.135	2.84
500.484	2.84
500.832	2.86
501.181	2.89
501.529	2.91
501.878	2.93
502.226	2.91
502.574	2.92
502.923	2.92
503.271	2.96
503.619	2.98
503.967	2.97
504.315	2.98
504.663	2.97
505.011	3
505.359	3.01
505.707	3.03
506.055	3.05
506.403	3.05
506.751	3.05
507.098	3.06
507.446	3.07
507.794	3.1
508.141	3.11
508.489	3.11
508.837	3.11
509.184	3.15
509.531	3.19
509.879	3.2
510.226	3.23
510.574	3.26
510.921	3.27
511.268	3.32
511.616	3.36
511.963	3.38
512.31	3.4
512.657	3.45
513.004	3.45
513.351	3.49
513.698	3.54
514.045	3.57
514.392	3.63
514.739	3.67
515.086	3.72
515.432	3.78
515.779	3.83
516.126	3.9
516.473	3.93
516.819	3.96
517.166	4.02
517.512	4.08
517.859	4.12
518.205	4.15
518.552	4.18
518.898	4.2
519.245	4.26
519.591	4.34
519.937	4.37
520.283	4.43
520.629	4.48
520.976	4.54
521.322	4.62
521.668	4.68
522.014	4.72
522.36	4.78
522.706	4.85
523.052	4.92
523.398	4.98
523.743	5.05
524.089	5.15
524.435	5.23
524.781	5.3
525.126	5.37
525.472	5.47
525.817	5.53
526.163	5.59
526.509	5.62
526.854	5.66
527.199	5.72
527.545	5.78
527.89	5.84
528.235	5.89
528.581	5.93
528.926	5.99
529.271	6.06
529.616	6.12
529.961	6.19
530.306	6.26
530.651	6.33
530.996	6.41
531.341	6.49
531.686	6.59
532.031	6.67
532.376	6.76
532.721	6.83
533.065	6.92
533.41	7.03
533.755	7.15
534.099	7.26
534.444	7.37
534.788	7.47
535.133	7.57
535.477	7.69
535.822	7.82
536.166	7.95
536.51	8.07
536.855	8.22
537.199	8.36
537.543	8.53
537.887	8.69
538.231	8.86
538.576	9.03
538.92	9.19
539.264	9.35
539.608	9.52
539.951	9.65
540.295	9.81
540.639	9.93
540.983	10.06
541.327	10.2
541.671	10.34
542.014	10.5
542.358	10.65
542.701	10.79
543.045	10.91
543.389	11.06
543.732	11.17
544.075	11.33
544.419	11.48
544.762	11.63
545.105	11.78
545.449	11.95
545.792	12.11
546.135	12.27
546.478	12.46
546.821	12.64
547.165	12.87
547.508	13.07
547.851	13.3
548.194	13.51
548.536	13.7
548.879	13.93
549.222	14.12
549.565	14.32
549.908	14.54
550.25	14.76
550.593	14.96
550.936	15.25
551.278	15.48
551.621	15.69
551.963	15.92
552.306	16.16
552.648	16.38
552.991	16.58
553.333	16.78
553.675	17.01
554.017	17.23
554.36	17.4
554.702	17.62
555.044	17.84
555.386	18.07
555.728	18.28
556.07	18.51
556.412	18.73
556.754	18.97
557.096	19.19
557.438	19.45
557.78	19.72
558.121	19.97
558.463	20.17
558.805	20.44
559.147	20.66
559.488	20.88
559.83	21.17
560.171	21.42
560.513	21.68
560.854	21.91
561.196	22.21
561.537	22.54
561.878	22.8
562.22	23.03
562.561	23.23
562.902	23.49
563.243	23.71
563.584	23.95
563.925	24.22
564.266	24.47
564.607	24.67
564.948	24.9
565.289	25.15
565.63	25.35
565.971	25.58
566.312	25.82
566.653	26.03
566.993	26.18
567.334	26.45
567.675	26.63
568.015	26.83
568.356	26.99
568.696	27.14
569.037	27.34
569.377	27.61
569.718	27.84
570.058	28.08
570.398	28.24
570.739	28.46
571.079	28.63
571.419	28.82
571.759	29.03
572.099	29.25
572.439	29.39
572.779	29.6
573.119	29.77
573.459	29.95
573.799	30.14
574.139	30.34
574.479	30.49
574.819	30.68
575.158	30.9
575.498	31.05
575.838	31.26
576.177	31.47
576.517	31.62
576.856	31.81
577.196	31.97
577.535	32.18
577.875	32.32
578.214	32.5
578.553	32.73
578.893	32.92
579.232	33.04
579.571	33.25
579.91	33.45
580.25	33.68
580.589	33.88
580.928	34.12
581.267	34.33
581.606	34.54
581.945	34.76
582.283	34.95
582.622	35.18
582.961	35.33
583.3	35.46
583.639	35.62
583.977	35.78
584.316	35.98
584.654	36.08
584.993	36.25
585.332	36.48
585.67	36.58
586.008	36.8
586.347	36.99
586.685	37.2
587.024	37.37
587.362	37.4
587.7	37.52
588.038	37.62
588.376	37.76
588.715	37.86
589.053	38.02
589.391	38.11
589.729	38.18
590.067	38.26
590.404	38.43
590.742	38.56
591.08	38.68
591.418	38.74
591.756	38.94
592.093	39.12
592.431	39.18
592.769	39.31
593.106	39.37
593.444	39.5
593.781	39.57
594.119	39.59
594.456	39.79
594.793	39.83
595.131	39.92
595.468	40.03
595.805	40.26
596.143	40.37
596.48	40.48
596.817	40.67
597.154	40.8
597.491	40.8
597.828	40.9
598.165	41
598.502	41.12
598.839	41.21
599.176	41.3
599.512	41.47
599.849	41.59
600.186	41.74
600.523	41.81
600.859	41.98
601.196	42.17
601.532	42.24
601.869	42.38
602.205	42.48
602.542	42.54
602.878	42.49
603.215	42.54
603.551	42.62
603.887	42.66
604.223	42.73
604.56	42.86
604.896	42.91
605.232	43
605.568	43.08
605.904	43.22
606.24	43.29
606.576	43.3
606.912	43.42
607.248	43.51
607.583	43.64
607.919	43.61
608.255	43.59
608.591	43.72
608.926	43.82
609.262	43.85
609.597	43.96
609.933	44.01
610.268	44.08
610.604	44.11
610.939	44.17
611.275	44.26
611.61	44.35
611.945	44.47
612.281	44.52
612.616	44.66
612.951	44.69
613.286	44.75
613.621	44.86
613.956	44.86
614.291	44.83
614.626	44.8
614.961	44.91
615.296	45.09
615.631	45.06
615.966	45.12
616.3	45.17
616.635	45.18
616.97	45.25
617.304	45.28
617.639	45.31
617.973	45.35
618.308	45.38
618.642	45.37
618.977	45.46
619.311	45.44
619.646	45.41
619.98	45.42
620.314	45.47
620.648	45.48
620.983	45.58
621.317	45.7
621.651	45.8
621.985	45.92
622.319	45.98
622.653	46.02
622.987	46.03
623.321	46.2
623.655	46.31
623.988	46.43
624.322	46.44
624.656	46.47
624.99	46.55
625.323	46.56
625.657	46.63
625.99	46.61
626.324	46.71
626.657	46.72
626.991	46.78
627.324	46.91
627.658	46.96
627.991	46.9
628.324	46.93
628.657	46.93
628.991	46.87
629.324	46.79
629.657	46.84
629.99	46.93
630.323	46.9
630.656	46.94
630.989	46.9
631.322	46.97
631.655	46.99
631.987	46.98
632.32	47.04
632.653	47.03
632.986	47.09
633.318	47.16
633.651	47.17
633.984	47.21
634.316	47.23
634.649	47.19
634.981	47.27
635.313	47.28
635.646	47.39
635.978	47.42
636.31	47.54
636.643	47.68
636.975	47.67
637.307	47.71
637.639	47.71
637.971	47.8
638.303	47.86
638.635	47.92
638.967	47.96
639.299	48.04
639.631	48.14
639.963	48.12
640.295	47.99
640.626	48.14
640.958	48.08
641.29	48
641.621	48.07
641.953	47.97
642.285	47.98
642.616	47.94
642.948	47.97
643.279	48.02
643.61	47.82
643.942	47.82
644.273	47.84
644.604	47.89
644.936	47.95
645.267	47.87
645.598	47.99
645.929	47.94
646.26	47.92
646.591	47.9
646.922	47.98
647.253	48.13
647.584	48.01
647.915	48.06
648.245	48.14
648.576	48.21
648.907	48.4
649.238	48.48
649.568	48.53
649.899	48.54
650.229	48.56
650.56	48.79
650.89	48.84
651.221	48.83
651.551	48.9
651.882	48.83
652.212	48.93
652.542	48.88
652.872	48.92
653.203	48.95
653.533	49.08
653.863	49.07
654.193	48.98
654.523	48.99
654.853	49.06
655.183	49.1
655.513	49.07
655.843	49.02
656.172	49.05
656.502	49.04
656.832	49.17
657.162	49.19
657.491	49.1
657.821	49.06
658.15	49.08
658.48	49.06
658.809	49.1
659.139	49.07
659.468	49.12
659.798	49.2
660.127	49.22
660.456	49.21
660.785	49.25
661.115	49.37
661.444	49.48
661.773	49.42
662.102	49.38
662.431	49.45
662.76	49.46
663.089	49.52
663.418	49.51
663.747	49.47
664.076	49.41
664.404	49.52
664.733	49.65
665.062	49.78
665.39	49.68
665.719	49.7
666.048	49.68
666.376	49.58
666.705	49.64
667.033	49.6
667.362	49.48
667.69	49.39
668.018	49.37
