Data from BA48287_Reflection_00004.txt Node
Date: Tue Nov 19 11:43:21 EST 2019
User: vgr7
Spectrometer: USB2G7710
Scans to average: 3
Trigger mode: 4
Integration Time (sec): 2.000000E-2
Electric dark correction enabled: true
Boxcar width: 10
XAxis mode: Wavelengths
Number of Pixels in Spectrum: 2048
>>>>>Begin Spectral Data<<<<<
177.721	88.41
178.105	53.9
178.488	13.02
178.871	33.33
179.254	31.62
179.636	34.5
180.019	38.91
180.402	76.19
180.785	33.33
181.168	58.33
181.55	91.77
181.933	58.11
182.316	-3.75
182.698	-3011.11
183.081	-31.46
183.463	-566.67
183.846	-188.29
184.228	259.2
184.611	502.3
184.993	576.19
185.376	158.93
185.758	118.02
186.14	94.97
186.522	66.31
186.904	78.53
187.287	26.72
187.669	13.78
188.051	21.57
188.433	-23.31
188.815	-82.34
189.197	-68.93
189.579	-12.43
189.961	-11.31
190.342	-18.15
190.724	-9.29
191.106	-17.18
191.488	-18.03
191.869	-24.34
192.251	-21.86
192.633	-23.94
193.014	-22.11
193.396	-35.37
193.777	-39.99
194.159	-49.8
194.54	-43.96
194.922	-41.2
195.303	-48.28
195.684	-45.38
196.065	-48.24
196.447	-31.45
196.828	-31.02
197.209	-19.03
197.59	-26.83
197.971	-26.27
198.352	-23.24
198.733	-38.44
199.114	-30.05
199.495	-23.75
199.876	-16.91
200.257	-18.94
200.638	-21.92
201.018	-29.94
201.399	-29.31
201.78	-27.65
202.16	-29.98
202.541	-26.19
202.922	-39.58
203.302	-22.86
203.683	-33.33
204.063	-46.88
204.444	-60.65
204.824	-51
205.204	-51.67
205.585	-35.47
205.965	-48.8
206.345	-41.48
206.725	-18.94
207.106	-25.31
207.486	-40.68
207.866	-47.07
208.246	-46.33
208.626	-39.41
209.006	-38.43
209.386	-46.82
209.766	-63.59
210.145	-59.01
210.525	-64.86
210.905	-39.52
211.285	-46.73
211.664	-34.66
212.044	-28.04
212.424	-26.37
212.803	-38.97
213.183	-49.62
213.562	-45.19
213.942	-57.86
214.321	-74.12
214.701	-72.23
215.08	-76.39
215.459	-66.1
215.838	-79.68
216.218	-81.65
216.597	-83.27
216.976	-81.66
217.355	-77.5
217.734	-69.01
218.113	-55.18
218.492	-65.17
218.871	-55.84
219.25	-43.72
219.629	-51.79
220.008	-46.12
220.387	-49.48
220.766	-33.49
221.144	-27.1
221.523	-53.03
221.902	-27.26
222.28	-18.32
222.659	-8.7
223.037	-15.2
223.416	-18.52
223.794	-11.39
224.173	-16.43
224.551	-15.16
224.929	-14.21
225.308	-12.76
225.686	-15.96
226.064	-15.18
226.442	-11.93
226.821	-16.56
227.199	-15.16
227.577	-13.58
227.955	-13.42
228.333	-16.24
228.711	-17.64
229.089	-18.21
229.467	-15.72
229.845	-15.73
230.222	-14.58
230.6	-16.08
230.978	-11.2
231.356	-11.19
231.733	-10.12
232.111	-8.27
232.488	-5.89
232.866	-2.47
233.243	-2.21
233.621	-2.38
233.998	-3.32
234.376	-3.51
234.753	-2.99
235.13	-2.7
235.508	-1.9
235.885	-1.23
236.262	0.09
236.639	-1.02
237.016	0.25
237.393	2.68
237.77	3.35
238.147	3.87
238.524	5.02
238.901	4.09
239.278	4.1
239.655	3.65
240.032	3.69
240.409	2.62
240.785	3.07
241.162	3.23
241.539	3.73
241.915	3.36
242.292	4.07
242.668	4.26
243.045	4.41
243.421	4.61
243.798	4.7
244.174	5.09
244.551	5.59
244.927	5.39
245.303	4.91
245.679	4.73
246.056	4.54
246.432	4.66
246.808	4.58
247.184	4.57
247.56	4.46
247.936	4.54
248.312	5.06
248.688	4.68
249.064	4.29
249.44	4.15
249.815	4.48
250.191	4.27
250.567	4.1
250.943	4.12
251.318	3.91
251.694	3.75
252.069	3.62
252.445	3.51
252.82	3.84
253.196	3.71
253.571	3.74
253.947	4.07
254.322	3.77
254.697	4.05
255.073	4.19
255.448	4.47
255.823	4.37
256.198	4.09
256.573	3.95
256.948	4.38
257.323	4.49
257.698	4.37
258.073	4.44
258.448	4.55
258.823	4.54
259.198	4.63
259.573	4.48
259.948	4.66
260.322	4.48
260.697	4.33
261.072	4.41
261.446	4.47
261.821	4.31
262.195	4.25
262.57	4.17
262.944	4.28
263.319	4.32
263.693	4.4
264.067	4.46
264.442	4.51
264.816	4.45
265.19	4.61
265.564	4.43
265.938	4.32
266.313	4.3
266.687	4.18
267.061	4
267.435	4.21
267.809	3.94
268.183	4.12
268.556	4.04
268.93	4.19
269.304	4.02
269.678	4.01
270.051	3.99
270.425	4.02
270.799	3.74
271.172	3.74
271.546	3.74
271.919	3.83
272.293	3.89
272.666	3.93
273.04	3.88
273.413	4.01
273.787	3.93
274.16	3.93
274.533	4.06
274.906	4.17
275.279	4.16
275.653	4.21
276.026	4.19
276.399	4.24
276.772	4.24
277.145	4.33
277.518	4.2
277.891	4.41
278.263	4.39
278.636	4.56
279.009	4.47
279.382	4.38
279.755	4.21
280.127	4.24
280.5	4.24
280.872	4.41
281.245	4.39
281.617	4.47
281.99	4.39
282.362	4.38
282.735	4.55
283.107	4.44
283.479	4.46
283.852	4.5
284.224	4.53
284.596	4.38
284.968	4.49
285.34	4.64
285.713	4.58
286.085	4.58
286.457	4.5
286.829	4.54
287.201	4.41
287.572	4.47
287.944	4.51
288.316	4.59
288.688	4.53
289.06	4.67
289.431	4.85
289.803	4.93
290.175	4.93
290.546	4.84
290.918	5
291.289	4.93
291.661	4.91
292.032	5.02
292.403	5.11
292.775	5.02
293.146	5.07
293.517	5.09
293.889	5.08
294.26	5.3
294.631	5.28
295.002	5.49
295.373	5.62
295.744	5.63
296.115	5.56
296.486	5.58
296.857	5.51
297.228	5.28
297.599	5.2
297.97	5.16
298.34	5.11
298.711	5.12
299.082	5.12
299.452	5.14
299.823	5.09
300.194	5.2
300.564	5.25
300.935	5.19
301.305	5.19
301.676	5.14
302.046	4.98
302.416	5.01
302.787	4.88
303.157	4.68
303.527	4.61
303.897	4.6
304.267	4.38
304.637	4.4
305.008	4.64
305.378	4.77
305.748	4.85
306.117	4.82
306.487	4.92
306.857	4.98
307.227	5.07
307.597	5.18
307.967	5.06
308.336	5.04
308.706	5.07
309.076	5.2
309.445	5.39
309.815	5.45
310.184	5.45
310.554	5.51
310.923	5.55
311.293	5.52
311.662	5.57
312.031	5.72
312.401	5.73
312.77	5.61
313.139	5.53
313.508	5.57
313.877	5.71
314.246	5.67
314.616	5.68
314.985	5.62
315.353	5.58
315.722	5.68
316.091	5.61
316.46	5.63
316.829	5.58
317.198	5.53
317.567	5.62
317.935	5.69
318.304	5.84
318.672	5.88
319.041	6.02
319.41	5.93
319.778	5.83
320.147	5.77
320.515	5.88
320.883	5.97
321.252	5.95
321.62	5.92
321.988	5.89
322.357	5.89
322.725	5.89
323.093	5.84
323.461	5.79
323.829	5.86
324.197	5.79
324.565	5.71
324.933	5.66
325.301	5.5
325.669	5.44
326.037	5.37
326.405	5.47
326.772	5.43
327.14	5.41
327.508	5.45
327.875	5.36
328.243	5.38
328.61	5.28
328.978	5.3
329.346	5.18
329.713	5.1
330.08	5.14
330.448	5.08
330.815	5.06
331.182	4.97
331.55	5
331.917	5
332.284	4.91
332.651	4.99
333.018	5.06
333.385	5.13
333.752	5.17
334.119	5.21
334.486	5.23
334.853	5.35
335.22	5.39
335.587	5.56
335.954	5.43
336.32	5.5
336.687	5.45
337.054	5.52
337.42	5.62
337.787	5.5
338.153	5.56
338.52	5.57
338.886	5.69
339.253	5.65
339.619	5.66
339.986	5.7
340.352	5.59
340.718	5.68
341.084	5.69
341.451	5.62
341.817	5.62
342.183	5.59
342.549	5.64
342.915	5.6
343.281	5.61
343.647	5.73
344.013	5.64
344.379	5.6
344.745	5.63
345.11	5.53
345.476	5.67
345.842	5.71
346.208	5.66
346.573	5.6
346.939	5.66
347.304	5.73
347.67	5.77
348.035	5.72
348.401	5.68
348.766	5.62
349.132	5.57
349.497	5.51
349.862	5.5
350.228	5.43
350.593	5.48
350.958	5.49
351.323	5.39
351.688	5.45
352.053	5.42
352.418	5.4
352.783	5.45
353.148	5.38
353.513	5.3
353.878	5.29
354.243	5.28
354.608	5.3
354.972	5.29
355.337	5.35
355.702	5.5
356.066	5.49
356.431	5.56
356.795	5.56
357.16	5.55
357.524	5.57
357.889	5.59
358.253	5.53
358.618	5.45
358.982	5.57
359.346	5.69
359.71	5.79
360.075	5.79
360.439	5.8
360.803	5.85
361.167	5.87
361.531	5.94
361.895	5.95
362.259	5.97
362.623	6.02
362.987	6.02
363.351	5.99
363.714	6.03
364.078	5.96
364.442	6
364.806	6.01
365.169	6.01
365.533	6.05
365.896	6.07
366.26	6.15
366.623	6.02
366.987	5.95
367.35	5.93
367.714	5.92
368.077	5.89
368.44	5.87
368.803	5.9
369.167	5.89
369.53	5.91
369.893	5.82
370.256	5.74
370.619	5.72
370.982	5.69
371.345	5.67
371.708	5.71
372.071	5.68
372.434	5.68
372.797	5.73
373.159	5.63
373.522	5.61
373.885	5.53
374.247	5.62
374.61	5.66
374.973	5.64
375.335	5.69
375.698	5.69
376.06	5.67
376.423	5.66
376.785	5.65
377.147	5.62
377.51	5.58
377.872	5.6
378.234	5.61
378.596	5.62
378.958	5.62
379.321	5.56
379.683	5.56
380.045	5.55
380.407	5.56
380.769	5.62
381.13	5.63
381.492	5.67
381.854	5.68
382.216	5.62
382.578	5.63
382.939	5.59
383.301	5.59
383.663	5.56
384.024	5.6
384.386	5.61
384.747	5.61
385.109	5.66
385.47	5.67
385.832	5.59
386.193	5.58
386.554	5.51
386.916	5.61
387.277	5.61
387.638	5.64
387.999	5.62
388.36	5.58
388.721	5.61
389.082	5.61
389.443	5.58
389.804	5.58
390.165	5.61
390.526	5.61
390.887	5.63
391.248	5.65
391.609	5.64
391.969	5.65
392.33	5.68
392.691	5.68
393.051	5.7
393.412	5.76
393.772	5.78
394.133	5.82
394.493	5.78
394.854	5.79
395.214	5.75
395.574	5.71
395.935	5.72
396.295	5.7
396.655	5.69
397.015	5.7
397.376	5.72
397.736	5.65
398.096	5.63
398.456	5.59
398.816	5.61
399.176	5.53
399.535	5.52
399.895	5.5
400.255	5.54
400.615	5.51
400.975	5.48
401.334	5.46
401.694	5.5
402.054	5.47
402.413	5.49
402.773	5.53
403.132	5.53
403.492	5.53
403.851	5.54
404.211	5.5
404.57	5.5
404.929	5.49
405.288	5.54
405.648	5.55
406.007	5.6
406.366	5.62
406.725	5.61
407.084	5.6
407.443	5.6
407.802	5.57
408.161	5.61
408.52	5.63
408.879	5.66
409.238	5.63
409.596	5.67
409.955	5.62
410.314	5.59
410.673	5.6
411.031	5.58
411.39	5.56
411.748	5.59
412.107	5.56
412.465	5.56
412.824	5.55
413.182	5.57
413.54	5.54
413.899	5.51
414.257	5.55
414.615	5.51
414.974	5.52
415.332	5.5
415.69	5.44
416.048	5.42
416.406	5.39
416.764	5.39
417.122	5.39
417.48	5.41
417.838	5.39
418.195	5.38
418.553	5.38
418.911	5.39
419.269	5.39
419.626	5.4
419.984	5.4
420.342	5.39
420.699	5.37
421.057	5.38
421.414	5.38
421.772	5.38
422.129	5.38
422.486	5.37
422.844	5.37
423.201	5.38
423.558	5.39
423.915	5.39
424.273	5.38
424.63	5.37
424.987	5.36
425.344	5.37
425.701	5.35
426.058	5.35
426.415	5.33
426.772	5.33
427.128	5.32
427.485	5.3
427.842	5.29
428.199	5.3
428.555	5.27
428.912	5.27
429.269	5.26
429.625	5.28
429.982	5.29
430.338	5.28
430.695	5.28
431.051	5.26
431.407	5.26
431.764	5.25
432.12	5.22
432.476	5.24
432.832	5.25
433.189	5.24
433.545	5.25
433.901	5.27
434.257	5.27
434.613	5.29
434.969	5.3
435.325	5.28
435.681	5.28
436.036	5.29
436.392	5.29
436.748	5.3
437.104	5.29
437.459	5.28
437.815	5.28
438.171	5.27
438.526	5.28
438.882	5.29
439.237	5.3
439.593	5.32
439.948	5.33
440.304	5.31
440.659	5.33
441.014	5.33
441.369	5.33
441.725	5.35
442.08	5.32
442.435	5.31
442.79	5.32
443.145	5.33
443.5	5.31
443.855	5.29
444.21	5.27
444.565	5.26
444.92	5.26
445.275	5.24
445.629	5.24
445.984	5.23
446.339	5.22
446.693	5.21
447.048	5.19
447.403	5.18
447.757	5.18
448.112	5.18
448.466	5.17
448.82	5.15
449.175	5.12
449.529	5.13
449.883	5.13
450.238	5.12
450.592	5.1
450.946	5.09
451.3	5.11
451.654	5.1
452.008	5.1
452.362	5.08
452.716	5.09
453.07	5.07
453.424	5.07
453.778	5.07
454.132	5.06
454.486	5.06
454.839	5.05
455.193	5.06
455.547	5.04
455.9	5.06
456.254	5.09
456.607	5.11
456.961	5.12
457.314	5.12
457.668	5.11
458.021	5.13
458.375	5.14
458.728	5.13
459.081	5.15
459.434	5.18
459.787	5.21
460.141	5.22
460.494	5.25
460.847	5.26
461.2	5.27
461.553	5.3
461.906	5.32
462.259	5.32
462.611	5.32
462.964	5.32
463.317	5.32
463.67	5.32
464.022	5.32
464.375	5.32
464.728	5.32
465.08	5.34
465.433	5.34
465.785	5.36
466.138	5.36
466.49	5.37
466.843	5.36
467.195	5.35
467.547	5.35
467.899	5.36
468.252	5.36
468.604	5.34
468.956	5.34
469.308	5.34
469.66	5.38
470.012	5.39
470.364	5.43
470.716	5.46
471.068	5.45
471.42	5.46
471.772	5.47
472.123	5.47
472.475	5.47
472.827	5.45
473.178	5.46
473.53	5.46
473.882	5.45
474.233	5.45
474.585	5.45
474.936	5.44
475.288	5.43
475.639	5.43
475.99	5.44
476.342	5.45
476.693	5.43
477.044	5.38
477.395	5.37
477.746	5.35
478.097	5.35
478.448	5.35
478.8	5.36
479.15	5.35
479.501	5.37
479.852	5.38
480.203	5.4
480.554	5.41
480.905	5.41
481.255	5.42
481.606	5.45
481.957	5.46
482.307	5.45
482.658	5.47
483.009	5.48
483.359	5.48
483.709	5.49
484.06	5.49
484.41	5.51
484.761	5.52
485.111	5.53
485.461	5.53
485.811	5.54
486.162	5.55
486.512	5.56
486.862	5.56
487.212	5.56
487.562	5.56
487.912	5.57
488.262	5.57
488.612	5.58
488.961	5.58
489.311	5.59
489.661	5.6
490.011	5.61
490.36	5.6
490.71	5.62
491.06	5.62
491.409	5.62
491.759	5.62
492.108	5.61
492.458	5.61
492.807	5.62
493.157	5.64
493.506	5.65
493.855	5.65
494.204	5.67
494.554	5.7
494.903	5.72
495.252	5.72
495.601	5.74
495.95	5.74
496.299	5.76
496.648	5.77
496.997	5.76
497.346	5.79
497.695	5.81
498.043	5.81
498.392	5.83
498.741	5.86
499.09	5.89
499.438	5.91
499.787	5.94
500.135	5.93
500.484	5.93
500.832	5.94
501.181	5.97
501.529	5.99
501.878	6
502.226	6.02
502.574	6.05
502.923	6.06
503.271	6.09
503.619	6.1
503.967	6.11
504.315	6.13
504.663	6.14
505.011	6.15
505.359	6.17
505.707	6.18
506.055	6.19
506.403	6.19
506.751	6.22
507.098	6.25
507.446	6.28
507.794	6.29
508.141	6.3
508.489	6.3
508.837	6.3
509.184	6.31
509.531	6.31
509.879	6.32
510.226	6.34
510.574	6.36
510.921	6.36
511.268	6.39
511.616	6.43
511.963	6.45
512.31	6.46
512.657	6.48
513.004	6.5
513.351	6.5
513.698	6.52
514.045	6.51
514.392	6.51
514.739	6.54
515.086	6.57
515.432	6.58
515.779	6.6
516.126	6.62
516.473	6.64
516.819	6.65
517.166	6.67
517.512	6.7
517.859	6.72
518.205	6.73
518.552	6.75
518.898	6.74
519.245	6.75
519.591	6.76
519.937	6.77
520.283	6.8
520.629	6.8
520.976	6.82
521.322	6.85
521.668	6.86
522.014	6.85
522.36	6.86
522.706	6.86
523.052	6.86
523.398	6.86
523.743	6.87
524.089	6.89
524.435	6.89
524.781	6.91
525.126	6.9
525.472	6.94
525.817	6.93
526.163	6.95
526.509	6.96
526.854	6.96
527.199	6.98
527.545	6.98
527.89	6.99
528.235	6.99
528.581	7
528.926	7
529.271	7.01
529.616	7.03
529.961	7.04
530.306	7.06
530.651	7.06
530.996	7.09
531.341	7.09
531.686	7.09
532.031	7.09
532.376	7.11
532.721	7.1
533.065	7.1
533.41	7.11
533.755	7.1
534.099	7.12
534.444	7.14
534.788	7.13
535.133	7.15
535.477	7.18
535.822	7.18
536.166	7.19
536.51	7.2
536.855	7.21
537.199	7.22
537.543	7.23
537.887	7.25
538.231	7.24
538.576	7.26
538.92	7.29
539.264	7.3
539.608	7.3
539.951	7.31
540.295	7.32
540.639	7.32
540.983	7.33
541.327	7.33
541.671	7.32
542.014	7.34
542.358	7.33
542.701	7.32
543.045	7.33
543.389	7.36
543.732	7.35
544.075	7.35
544.419	7.35
544.762	7.35
545.105	7.36
545.449	7.37
545.792	7.36
546.135	7.35
546.478	7.36
546.821	7.36
547.165	7.36
547.508	7.36
547.851	7.36
548.194	7.35
548.536	7.34
548.879	7.35
549.222	7.33
549.565	7.36
549.908	7.36
550.25	7.36
550.593	7.37
550.936	7.36
551.278	7.38
551.621	7.36
551.963	7.37
552.306	7.36
552.648	7.36
552.991	7.36
553.333	7.36
553.675	7.38
554.017	7.41
554.36	7.43
554.702	7.41
555.044	7.42
555.386	7.45
555.728	7.47
556.07	7.47
556.412	7.48
556.754	7.49
557.096	7.5
557.438	7.51
557.78	7.48
558.121	7.5
558.463	7.49
558.805	7.54
559.147	7.57
559.488	7.6
559.83	7.57
560.171	7.57
560.513	7.59
560.854	7.61
561.196	7.59
561.537	7.62
561.878	7.65
562.22	7.68
562.561	7.69
562.902	7.68
563.243	7.7
563.584	7.71
563.925	7.73
564.266	7.69
564.607	7.69
564.948	7.69
565.289	7.71
565.63	7.71
565.971	7.67
566.312	7.67
566.653	7.65
566.993	7.66
567.334	7.69
567.675	7.66
568.015	7.62
568.356	7.63
568.696	7.58
569.037	7.58
569.377	7.54
569.718	7.54
570.058	7.56
570.398	7.55
570.739	7.55
571.079	7.53
571.419	7.54
571.759	7.56
572.099	7.56
572.439	7.56
572.779	7.57
573.119	7.6
573.459	7.58
573.799	7.55
574.139	7.59
574.479	7.58
574.819	7.61
575.158	7.64
575.498	7.63
575.838	7.66
576.177	7.65
576.517	7.66
576.856	7.67
577.196	7.68
577.535	7.7
577.875	7.69
578.214	7.71
578.553	7.74
578.893	7.76
579.232	7.76
579.571	7.77
579.91	7.8
580.25	7.78
580.589	7.77
580.928	7.79
581.267	7.79
581.606	7.79
581.945	7.78
582.283	7.77
582.622	7.76
582.961	7.77
583.3	7.8
583.639	7.8
583.977	7.79
584.316	7.83
584.654	7.81
584.993	7.85
585.332	7.82
585.67	7.79
586.008	7.77
586.347	7.8
586.685	7.76
587.024	7.77
587.362	7.8
587.7	7.83
588.038	7.88
588.376	7.9
588.715	7.92
589.053	7.93
589.391	7.98
589.729	8
590.067	7.97
590.404	7.95
590.742	7.95
591.08	7.96
591.418	7.94
591.756	7.95
592.093	7.94
592.431	7.98
592.769	8
593.106	8.01
593.444	8.02
593.781	8.05
594.119	8.05
594.456	8.03
594.793	8.04
595.131	8.02
595.468	8.02
595.805	7.99
596.143	7.99
596.48	7.96
596.817	7.95
597.154	7.99
597.491	8.01
597.828	8.02
598.165	8.02
598.502	8.05
598.839	8.07
599.176	8.1
599.512	8.1
599.849	8.12
600.186	8.12
600.523	8.11
600.859	8.12
601.196	8.13
601.532	8.14
601.869	8.1
602.205	8.12
602.542	8.08
602.878	8.1
603.215	8.11
603.551	8.09
603.887	8.08
604.223	8.12
604.56	8.14
604.896	8.18
605.232	8.14
605.568	8.11
605.904	8.08
606.24	8.08
606.576	8.06
606.912	8.06
607.248	8.05
607.583	8.05
607.919	8.02
608.255	8.01
608.591	8
608.926	8.05
609.262	8.04
609.597	8.08
609.933	8.07
610.268	8.09
610.604	8.1
610.939	8.17
611.275	8.15
611.61	8.16
611.945	8.16
612.281	8.23
612.616	8.24
612.951	8.3
613.286	8.29
613.621	8.32
613.956	8.35
614.291	8.4
614.626	8.39
614.961	8.48
615.296	8.52
615.631	8.53
615.966	8.57
616.3	8.59
616.635	8.59
616.97	8.61
617.304	8.63
617.639	8.69
617.973	8.66
618.308	8.66
618.642	8.61
618.977	8.58
619.311	8.55
619.646	8.59
619.98	8.61
620.314	8.57
620.648	8.63
620.983	8.61
621.317	8.57
621.651	8.59
621.985	8.6
622.319	8.56
622.653	8.57
622.987	8.55
623.321	8.52
623.655	8.54
623.988	8.53
624.322	8.51
624.656	8.47
624.99	8.47
625.323	8.48
625.657	8.5
625.99	8.54
626.324	8.6
626.657	8.54
626.991	8.49
627.324	8.5
627.658	8.45
627.991	8.43
628.324	8.47
628.657	8.47
628.991	8.42
629.324	8.41
629.657	8.41
629.99	8.39
630.323	8.42
630.656	8.4
630.989	8.41
631.322	8.4
631.655	8.42
631.987	8.41
632.32	8.41
632.653	8.43
632.986	8.43
633.318	8.41
633.651	8.48
633.984	8.53
634.316	8.55
634.649	8.58
634.981	8.6
635.313	8.65
635.646	8.68
635.978	8.74
636.31	8.77
636.643	8.77
636.975	8.8
637.307	8.78
637.639	8.83
637.971	8.87
638.303	8.85
638.635	8.84
638.967	8.84
639.299	8.82
639.631	8.82
639.963	8.79
640.295	8.82
640.626	8.82
640.958	8.81
641.29	8.85
641.621	8.83
641.953	8.84
642.285	8.71
642.616	8.68
642.948	8.68
643.279	8.68
643.61	8.76
643.942	8.75
644.273	8.79
644.604	8.75
644.936	8.74
645.267	8.8
645.598	8.85
645.929	8.9
646.26	8.93
646.591	8.93
646.922	8.96
647.253	8.82
647.584	8.8
647.915	8.81
648.245	8.82
648.576	8.82
648.907	8.81
649.238	8.91
649.568	8.95
649.899	8.93
650.229	8.97
650.56	8.89
650.89	8.93
651.221	8.98
651.551	9.03
651.882	9.05
652.212	8.98
652.542	9.03
652.872	9.06
653.203	9.06
653.533	9.09
653.863	9.11
654.193	9.2
654.523	9.21
654.853	9.27
655.183	9.28
655.513	9.28
655.843	9.21
656.172	9.23
656.502	9.16
656.832	9.16
657.162	9.15
657.491	9.23
657.821	9.17
658.15	9.2
658.48	9.18
658.809	9.14
659.139	9.17
659.468	9.13
659.798	9.14
660.127	9.1
660.456	9.09
660.785	9.06
661.115	9.07
661.444	9.11
661.773	9.12
662.102	9.17
662.431	9.21
662.76	9.31
663.089	9.31
663.418	9.39
663.747	9.38
664.076	9.37
664.404	9.34
664.733	9.4
665.062	9.31
665.39	9.39
665.719	9.47
666.048	9.43
666.376	9.43
666.705	9.46
667.033	9.49
667.362	9.47
667.69	9.49
668.018	9.4
668.347	9.39
668.675	9.4
669.003	9.37
669.331	9.4
669.659	9.36
669.987	9.32
670.315	9.28
670.643	9.24
670.971	9.23
671.299	9.2
671.627	9.19
671.955	9.17
672.283	9.07
672.61	9.09
672.938	9.12
673.266	9.12
673.593	9.06
673.921	9.02
674.249	9.05
674.576	9.14
674.904	9.21
675.231	9.13
675.558	9.11
675.886	9.08
676.213	9.06
676.54	9.11
676.867	9.17
677.195	9.23
