Data from BA48648_Reflection_00007.txt Node
Date: Tue Nov 19 11:44:36 EST 2019
User: vgr7
Spectrometer: USB2G7710
Scans to average: 3
Trigger mode: 4
Integration Time (sec): 2.000000E-2
Electric dark correction enabled: true
Boxcar width: 10
XAxis mode: Wavelengths
Number of Pixels in Spectrum: 2048
>>>>>Begin Spectral Data<<<<<
177.721	-23.2
178.105	60.67
178.488	67.38
178.871	98.82
179.254	45.76
179.636	54.55
180.019	1127.03
180.402	500
180.785	-348
181.168	171.43
181.55	95.52
181.933	448.62
182.316	1072.6
182.698	146.51
183.081	-223.7
183.463	-32.92
183.846	-48.42
184.228	-72.14
184.611	-34.87
184.993	-16.98
185.376	-5.83
185.758	-10.86
186.14	-17.81
186.522	-4.11
186.904	-2.87
187.287	-5.22
187.669	-4.68
188.051	-4.27
188.433	-4.09
188.815	-1.09
189.197	-5.91
189.579	-5.49
189.961	1.85
190.342	14.67
190.724	5.46
191.106	9.96
191.488	8.65
191.869	13.04
192.251	24.33
192.633	27.54
193.014	28.19
193.396	20.15
193.777	33.15
194.159	19.37
194.54	9.81
194.922	2.71
195.303	10.1
195.684	10.55
196.065	11.85
196.447	22.33
196.828	31.81
197.209	36.52
197.59	42.27
197.971	36.82
198.352	35.13
198.733	46.9
199.114	42.31
199.495	42.91
199.876	36.69
200.257	25.47
200.638	32.19
201.018	16.44
201.399	16.82
201.78	19.67
202.16	31.42
202.541	30.27
202.922	20.12
203.302	25.5
203.683	24.72
204.063	30.41
204.444	30.97
204.824	29.95
205.204	27.38
205.585	22.8
205.965	21.04
206.345	22.11
206.725	10.41
207.106	4.78
207.486	7.13
207.866	7.32
208.246	16.3
208.626	7.17
209.006	7.11
209.386	17.51
209.766	5.74
210.145	2.02
210.525	2.36
210.905	6.51
211.285	7.33
211.664	12.85
212.044	1.26
212.424	-1.08
212.803	-6.62
213.183	-5.28
213.562	-2.51
213.942	-0.07
214.321	-11.48
214.701	-16.14
215.08	-7.87
215.459	-11.65
215.838	-8.6
216.218	-12.11
216.597	-11.24
216.976	-22.61
217.355	-28.83
217.734	-19.25
218.113	-14.84
218.492	-19.6
218.871	-19.49
219.25	-32.59
219.629	-45.13
220.008	-38.57
220.387	-32.21
220.766	-11.28
221.144	-18.25
221.523	-20.51
221.902	-26.26
222.28	-13.76
222.659	-4.58
223.037	0.24
223.416	3.48
223.794	-1.13
224.173	-4.55
224.551	-0.45
224.929	3.52
225.308	1.96
225.686	-1.15
226.064	-5.55
226.442	0.23
226.821	2
227.199	2.75
227.577	-0.04
227.955	0.52
228.333	-4.54
228.711	-7.84
229.089	-6.14
229.467	-7.73
229.845	-5.33
230.222	-6.11
230.6	-6.47
230.978	-8.77
231.356	-8.98
231.733	-5.56
232.111	-4.83
232.488	-5.77
232.866	-5.28
233.243	-5.92
233.621	-6.82
233.998	-5.05
234.376	-5.7
234.753	-5.76
235.13	-5.73
235.508	-3.69
235.885	-3.86
236.262	-2.46
236.639	-1.92
237.016	-1.58
237.393	0.5
237.77	0.81
238.147	1.38
238.524	1.58
238.901	1.11
239.278	0.51
239.655	-0.26
240.032	0.55
240.409	1.24
240.785	1.8
241.162	2.73
241.539	2.78
241.915	3
242.292	3.1
242.668	3.47
243.045	3.91
243.421	3.74
243.798	3.99
244.174	3.99
244.551	3.72
244.927	3.58
245.303	3.45
245.679	3.35
246.056	3.36
246.432	3.14
246.808	3.25
247.184	3.52
247.56	3.62
247.936	3.39
248.312	3.39
248.688	3.37
249.064	3.15
249.44	3.22
249.815	3.25
250.191	3.33
250.567	3.27
250.943	3.34
251.318	3.17
251.694	3.02
252.069	3
252.445	3.14
252.82	3.43
253.196	3.5
253.571	3.39
253.947	3.31
254.322	3.32
254.697	3.37
255.073	3.13
255.448	3.01
255.823	2.94
256.198	2.82
256.573	3.02
256.948	3.06
257.323	3.23
257.698	3.01
258.073	2.88
258.448	3.03
258.823	2.7
259.198	2.89
259.573	2.95
259.948	2.95
260.322	2.96
260.697	2.96
261.072	3.02
261.446	3.03
261.821	2.96
262.195	3.07
262.57	3.13
262.944	3.27
263.319	3.34
263.693	3.43
264.067	3.42
264.442	3.47
264.816	3.56
265.19	3.52
265.564	3.55
265.938	3.6
266.313	3.3
266.687	3.43
267.061	3.38
267.435	3.38
267.809	3.3
268.183	3.25
268.556	3.2
268.93	3.05
269.304	3.1
269.678	3.21
270.051	3.22
270.425	3.21
270.799	3.01
271.172	3.08
271.546	3.13
271.919	3.13
272.293	3.09
272.666	3.06
273.04	3.16
273.413	3.28
273.787	3.42
274.16	3.54
274.533	3.75
274.906	3.75
275.279	3.75
275.653	3.81
276.026	4.04
276.399	3.97
276.772	3.9
277.145	3.94
277.518	3.86
277.891	3.76
278.263	3.89
278.636	4.18
279.009	3.96
279.382	3.82
279.755	3.8
280.127	3.68
280.5	3.72
280.872	3.6
281.245	3.57
281.617	3.46
281.99	3.43
282.362	3.29
282.735	3.3
283.107	3.25
283.479	3.32
283.852	3.26
284.224	3.22
284.596	3.21
284.968	3.18
285.34	3.21
285.713	3.32
286.085	3.22
286.457	3.25
286.829	3.44
287.201	3.61
287.572	3.72
287.944	3.85
288.316	3.78
288.688	3.81
289.06	3.91
289.431	3.97
289.803	4.11
290.175	4.08
290.546	4.1
290.918	4.15
291.289	4.13
291.661	4.07
292.032	4.18
292.403	4.16
292.775	4.31
293.146	4.32
293.517	4.3
293.889	4.2
294.26	4.06
294.631	4.06
295.002	4
295.373	3.91
295.744	3.82
296.115	3.9
296.486	3.84
296.857	3.74
297.228	3.62
297.599	3.54
297.97	3.57
298.34	3.5
298.711	3.51
299.082	3.43
299.452	3.45
299.823	3.42
300.194	3.5
300.564	3.49
300.935	3.49
301.305	3.38
301.676	3.38
302.046	3.45
302.416	3.39
302.787	3.42
303.157	3.43
303.527	3.49
303.897	3.27
304.267	3.31
304.637	3.43
305.008	3.5
305.378	3.44
305.748	3.4
306.117	3.47
306.487	3.59
306.857	3.74
307.227	3.83
307.597	3.93
307.967	3.96
308.336	3.93
308.706	3.98
309.076	4.27
309.445	4.39
309.815	4.37
310.184	4.4
310.554	4.42
310.923	4.36
311.293	4.33
311.662	4.5
312.031	4.58
312.401	4.53
312.77	4.69
313.139	4.71
313.508	4.87
313.877	4.97
314.246	4.93
314.616	4.84
314.985	4.62
315.353	4.63
315.722	4.81
316.091	4.9
316.46	5.04
316.829	4.94
317.198	5.08
317.567	5.14
317.935	5.2
318.304	5.42
318.672	5.64
319.041	5.76
319.41	5.63
319.778	5.59
320.147	5.51
320.515	5.42
320.883	5.53
321.252	5.46
321.62	5.54
321.988	5.58
322.357	5.59
322.725	5.82
323.093	5.76
323.461	5.8
323.829	5.83
324.197	5.85
324.565	5.83
324.933	5.75
325.301	5.53
325.669	5.51
326.037	5.43
326.405	5.42
326.772	5.38
327.14	5.45
327.508	5.62
327.875	5.6
328.243	5.53
328.61	5.57
328.978	5.58
329.346	5.5
329.713	5.55
330.08	5.78
330.448	5.84
330.815	5.83
331.182	5.77
331.55	5.66
331.917	5.63
332.284	5.59
332.651	5.68
333.018	5.83
333.385	5.87
333.752	5.89
334.119	5.87
334.486	5.82
334.853	5.82
335.22	5.77
335.587	5.93
335.954	6.04
336.32	6.06
336.687	6.13
337.054	6.1
337.42	6.02
337.787	5.98
338.153	5.96
338.52	6.15
338.886	6.15
339.253	6.24
339.619	6.22
339.986	6.24
340.352	6.17
340.718	6.27
341.084	6.21
341.451	6.16
341.817	6.21
342.183	6.29
342.549	6.47
342.915	6.6
343.281	6.55
343.647	6.61
344.013	6.57
344.379	6.56
344.745	6.67
345.11	6.61
345.476	6.62
345.842	6.62
346.208	6.51
346.573	6.53
346.939	6.47
347.304	6.48
347.67	6.51
348.035	6.51
348.401	6.56
348.766	6.63
349.132	6.67
349.497	6.73
349.862	6.69
350.228	6.53
350.593	6.47
350.958	6.57
351.323	6.48
351.688	6.52
352.053	6.48
352.418	6.43
352.783	6.52
353.148	6.46
353.513	6.55
353.878	6.59
354.243	6.52
354.608	6.57
354.972	6.53
355.337	6.61
355.702	6.59
356.066	6.6
356.431	6.57
356.795	6.57
357.16	6.54
357.524	6.53
357.889	6.53
358.253	6.44
358.618	6.36
358.982	6.4
359.346	6.36
359.71	6.3
360.075	6.32
360.439	6.31
360.803	6.35
361.167	6.24
361.531	6.19
361.895	6.19
362.259	6.22
362.623	6.25
362.987	6.2
363.351	6.18
363.714	6.12
364.078	6.12
364.442	6.07
364.806	6.03
365.169	6.07
365.533	6.08
365.896	6.12
366.26	6.09
366.623	6.08
366.987	6.1
367.35	6.2
367.714	6.12
368.077	6.07
368.44	6.04
368.803	6
369.167	5.95
369.53	5.92
369.893	5.9
370.256	5.82
370.619	5.78
370.982	5.75
371.345	5.73
371.708	5.67
372.071	5.64
372.434	5.6
372.797	5.53
373.159	5.52
373.522	5.46
373.885	5.42
374.247	5.33
374.61	5.25
374.973	5.18
375.335	5.18
375.698	5.11
376.06	5.13
376.423	5.03
376.785	5.03
377.147	4.99
377.51	4.93
377.872	4.9
378.234	4.85
378.596	4.85
378.958	4.84
379.321	4.79
379.683	4.82
380.045	4.75
380.407	4.68
380.769	4.67
381.13	4.67
381.492	4.66
381.854	4.64
382.216	4.62
382.578	4.58
382.939	4.54
383.301	4.56
383.663	4.48
384.024	4.49
384.386	4.5
384.747	4.45
385.109	4.42
385.47	4.42
385.832	4.43
386.193	4.38
386.554	4.25
386.916	4.24
387.277	4.19
387.638	4.22
387.999	4.2
388.36	4.18
388.721	4.13
389.082	4.1
389.443	4.07
389.804	4.06
390.165	4.03
390.526	4.01
390.887	3.96
391.248	3.94
391.609	3.96
391.969	3.91
392.33	3.92
392.691	3.88
393.051	3.87
393.412	3.81
393.772	3.82
394.133	3.86
394.493	3.84
394.854	3.83
395.214	3.82
395.574	3.82
395.935	3.78
396.295	3.76
396.655	3.74
397.015	3.77
397.376	3.7
397.736	3.65
398.096	3.61
398.456	3.58
398.816	3.56
399.176	3.53
399.535	3.5
399.895	3.47
400.255	3.47
400.615	3.44
400.975	3.44
401.334	3.42
401.694	3.37
402.054	3.35
402.413	3.35
402.773	3.28
403.132	3.27
403.492	3.26
403.851	3.25
404.211	3.25
404.57	3.23
404.929	3.25
405.288	3.25
405.648	3.28
406.007	3.31
406.366	3.28
406.725	3.26
407.084	3.27
407.443	3.28
407.802	3.24
408.161	3.25
408.52	3.25
408.879	3.23
409.238	3.27
409.596	3.27
409.955	3.22
410.314	3.24
410.673	3.23
411.031	3.21
411.39	3.19
411.748	3.19
412.107	3.16
412.465	3.17
412.824	3.16
413.182	3.12
413.54	3.11
413.899	3.12
414.257	3.11
414.615	3.11
414.974	3.09
415.332	3.08
415.69	3.08
416.048	3.06
416.406	3.03
416.764	3.02
417.122	3
417.48	3
417.838	2.98
418.195	2.98
418.553	2.98
418.911	2.95
419.269	2.94
419.626	2.93
419.984	2.9
420.342	2.91
420.699	2.91
421.057	2.91
421.414	2.9
421.772	2.89
422.129	2.88
422.486	2.88
422.844	2.89
423.201	2.87
423.558	2.87
423.915	2.88
424.273	2.87
424.63	2.88
424.987	2.87
425.344	2.86
425.701	2.85
426.058	2.86
426.415	2.86
426.772	2.86
427.128	2.86
427.485	2.88
427.842	2.86
428.199	2.88
428.555	2.86
428.912	2.85
429.269	2.85
429.625	2.81
429.982	2.82
430.338	2.81
430.695	2.81
431.051	2.78
431.407	2.78
431.764	2.77
432.12	2.75
432.476	2.75
432.832	2.74
433.189	2.73
433.545	2.74
433.901	2.75
434.257	2.76
434.613	2.75
434.969	2.73
435.325	2.73
435.681	2.7
436.036	2.7
436.392	2.71
436.748	2.72
437.104	2.74
437.459	2.73
437.815	2.71
438.171	2.71
438.526	2.72
438.882	2.71
439.237	2.72
439.593	2.75
439.948	2.75
440.304	2.75
440.659	2.77
441.014	2.76
441.369	2.75
441.725	2.74
442.08	2.74
442.435	2.75
442.79	2.75
443.145	2.76
443.5	2.75
443.855	2.76
444.21	2.74
444.565	2.74
444.92	2.75
445.275	2.76
445.629	2.76
445.984	2.76
446.339	2.77
446.693	2.78
447.048	2.75
447.403	2.75
447.757	2.75
448.112	2.74
448.466	2.73
448.82	2.73
449.175	2.73
449.529	2.73
449.883	2.72
450.238	2.71
450.592	2.7
450.946	2.69
451.3	2.67
451.654	2.66
452.008	2.66
452.362	2.65
452.716	2.65
453.07	2.65
453.424	2.64
453.778	2.62
454.132	2.59
454.486	2.6
454.839	2.61
455.193	2.61
455.547	2.62
455.9	2.63
456.254	2.64
456.607	2.63
456.961	2.63
457.314	2.63
457.668	2.64
458.021	2.66
458.375	2.65
458.728	2.67
459.081	2.68
459.434	2.68
459.787	2.69
460.141	2.66
460.494	2.67
460.847	2.68
461.2	2.68
461.553	2.69
461.906	2.69
462.259	2.67
462.611	2.67
462.964	2.66
463.317	2.65
463.67	2.67
464.022	2.67
464.375	2.68
464.728	2.7
465.08	2.68
465.433	2.69
465.785	2.69
466.138	2.7
466.49	2.7
466.843	2.7
467.195	2.72
467.547	2.74
467.899	2.73
468.252	2.73
468.604	2.74
468.956	2.76
469.308	2.76
469.66	2.78
470.012	2.77
470.364	2.79
470.716	2.8
471.068	2.79
471.42	2.79
471.772	2.78
472.123	2.76
472.475	2.79
472.827	2.75
473.178	2.77
473.53	2.77
473.882	2.8
474.233	2.79
474.585	2.79
474.936	2.79
475.288	2.77
475.639	2.78
475.99	2.78
476.342	2.79
476.693	2.79
477.044	2.79
477.395	2.79
477.746	2.77
478.097	2.75
478.448	2.74
478.8	2.76
479.15	2.76
479.501	2.74
479.852	2.74
480.203	2.75
480.554	2.74
480.905	2.73
481.255	2.72
481.606	2.72
481.957	2.71
482.307	2.72
482.658	2.74
483.009	2.74
483.359	2.75
483.709	2.75
484.06	2.75
484.41	2.76
484.761	2.78
485.111	2.79
485.461	2.8
485.811	2.81
486.162	2.81
486.512	2.82
486.862	2.84
487.212	2.84
487.562	2.85
487.912	2.86
488.262	2.87
488.612	2.88
488.961	2.89
489.311	2.9
489.661	2.9
490.011	2.9
490.36	2.9
490.71	2.9
491.06	2.9
491.409	2.91
491.759	2.9
492.108	2.89
492.458	2.89
492.807	2.89
493.157	2.9
493.506	2.91
493.855	2.91
494.204	2.92
494.554	2.92
494.903	2.93
495.252	2.95
495.601	2.97
495.95	2.98
496.299	2.98
496.648	3.01
496.997	3.02
497.346	3.05
497.695	3.08
498.043	3.11
498.392	3.14
498.741	3.16
499.09	3.19
499.438	3.21
499.787	3.21
500.135	3.24
500.484	3.27
500.832	3.31
501.181	3.34
501.529	3.37
501.878	3.4
502.226	3.44
502.574	3.47
502.923	3.5
503.271	3.53
503.619	3.57
503.967	3.58
504.315	3.61
504.663	3.63
505.011	3.65
505.359	3.68
505.707	3.72
506.055	3.75
506.403	3.79
506.751	3.83
507.098	3.89
507.446	3.93
507.794	3.96
508.141	3.98
508.489	4.01
508.837	4.05
509.184	4.1
509.531	4.13
509.879	4.17
510.226	4.21
510.574	4.26
510.921	4.29
511.268	4.36
511.616	4.41
511.963	4.45
512.31	4.51
512.657	4.55
513.004	4.58
513.351	4.63
513.698	4.68
514.045	4.73
514.392	4.78
514.739	4.85
515.086	4.92
515.432	5
515.779	5.07
516.126	5.13
516.473	5.19
516.819	5.26
517.166	5.33
517.512	5.39
517.859	5.45
518.205	5.51
518.552	5.54
518.898	5.61
519.245	5.67
519.591	5.74
519.937	5.8
520.283	5.87
520.629	5.96
520.976	6.05
521.322	6.15
521.668	6.23
522.014	6.31
522.36	6.41
522.706	6.5
523.052	6.63
523.398	6.75
523.743	6.87
524.089	6.99
524.435	7.1
524.781	7.21
525.126	7.31
525.472	7.42
525.817	7.51
526.163	7.6
526.509	7.7
526.854	7.78
527.199	7.87
527.545	7.95
527.89	8
528.235	8.08
528.581	8.18
528.926	8.27
529.271	8.36
529.616	8.45
529.961	8.55
530.306	8.63
530.651	8.72
530.996	8.83
531.341	8.96
531.686	9.07
532.031	9.19
532.376	9.32
532.721	9.45
533.065	9.6
533.41	9.73
533.755	9.88
534.099	10.04
534.444	10.18
534.788	10.34
535.133	10.52
535.477	10.7
535.822	10.87
536.166	11.09
536.51	11.28
536.855	11.5
537.199	11.69
537.543	11.93
537.887	12.18
538.231	12.41
538.576	12.63
538.92	12.86
539.264	13.08
539.608	13.26
539.951	13.44
540.295	13.63
540.639	13.82
540.983	14
541.327	14.17
541.671	14.37
542.014	14.55
542.358	14.72
542.701	14.87
543.045	15.05
543.389	15.21
543.732	15.39
544.075	15.56
544.419	15.76
544.762	15.95
545.105	16.16
545.449	16.36
545.792	16.57
546.135	16.82
546.478	17.08
546.821	17.38
547.165	17.68
547.508	17.93
547.851	18.2
548.194	18.46
548.536	18.73
548.879	18.98
549.222	19.24
549.565	19.53
549.908	19.84
550.25	20.12
550.593	20.42
550.936	20.73
551.278	21.05
551.621	21.35
551.963	21.65
552.306	21.91
552.648	22.24
552.991	22.57
553.333	22.81
553.675	23.06
554.017	23.29
554.36	23.54
554.702	23.86
555.044	24.18
555.386	24.46
555.728	24.79
556.07	25.11
556.412	25.46
556.754	25.73
557.096	26.05
557.438	26.32
557.78	26.59
558.121	26.89
558.463	27.17
558.805	27.48
559.147	27.78
559.488	28.09
559.83	28.34
560.171	28.58
560.513	28.89
560.854	29.19
561.196	29.5
561.537	29.77
561.878	30.07
562.22	30.36
562.561	30.65
562.902	30.91
563.243	31.18
563.584	31.45
563.925	31.71
564.266	31.97
564.607	32.24
564.948	32.51
565.289	32.75
565.63	32.98
565.971	33.22
566.312	33.47
566.653	33.72
566.993	33.97
567.334	34.22
567.675	34.46
568.015	34.67
568.356	34.95
568.696	35.26
569.037	35.44
569.377	35.61
569.718	35.84
570.058	36.07
570.398	36.28
570.739	36.47
571.079	36.73
571.419	36.94
571.759	37.13
572.099	37.33
572.439	37.54
572.779	37.77
573.119	38
573.459	38.2
573.799	38.33
574.139	38.51
574.479	38.75
574.819	38.89
575.158	39.1
575.498	39.28
575.838	39.45
576.177	39.67
576.517	39.94
576.856	40.19
577.196	40.39
577.535	40.64
577.875	40.88
578.214	41.07
578.553	41.3
578.893	41.6
579.232	41.82
579.571	42.07
579.91	42.2
580.25	42.4
580.589	42.56
580.928	42.83
581.267	43
581.606	43.16
581.945	43.37
582.283	43.54
582.622	43.69
582.961	43.87
583.3	43.99
583.639	44.13
583.977	44.26
584.316	44.46
584.654	44.57
584.993	44.7
585.332	44.89
585.67	45.02
586.008	45.21
586.347	45.35
586.685	45.42
587.024	45.68
587.362	45.79
587.7	45.99
588.038	46.15
588.376	46.29
588.715	46.41
589.053	46.62
589.391	46.75
589.729	46.9
590.067	47
590.404	47.19
590.742	47.32
591.08	47.46
591.418	47.47
591.756	47.67
592.093	47.79
592.431	47.87
592.769	48.03
593.106	48.07
593.444	48.21
593.781	48.27
594.119	48.37
594.456	48.51
594.793	48.59
595.131	48.71
595.468	48.94
595.805	49.03
596.143	49.13
596.48	49.19
596.817	49.22
597.154	49.39
597.491	49.5
597.828	49.56
598.165	49.68
598.502	49.87
598.839	49.98
599.176	50.1
599.512	50.16
599.849	50.3
600.186	50.34
600.523	50.38
600.859	50.55
601.196	50.59
601.532	50.69
601.869	50.76
602.205	50.8
602.542	50.76
602.878	50.92
603.215	50.99
603.551	51.1
603.887	51.23
604.223	51.28
604.56	51.33
604.896	51.42
605.232	51.44
605.568	51.44
605.904	51.46
606.24	51.53
606.576	51.61
606.912	51.64
607.248	51.78
607.583	51.94
607.919	52.02
608.255	52.17
608.591	52.21
608.926	52.3
609.262	52.4
609.597	52.47
609.933	52.52
610.268	52.62
610.604	52.72
610.939	52.75
611.275	52.78
611.61	52.83
611.945	52.85
612.281	52.9
612.616	53.02
612.951	53.11
613.286	53.2
613.621	53.3
613.956	53.4
614.291	53.42
614.626	53.45
614.961	53.49
615.296	53.48
615.631	53.58
615.966	53.68
616.3	53.69
616.635	53.78
616.97	53.83
617.304	53.77
617.639	53.8
617.973	53.84
618.308	53.89
618.642	53.91
618.977	54.03
619.311	54.12
619.646	54.17
619.98	54.24
620.314	54.29
620.648	54.37
620.983	54.36
621.317	54.46
621.651	54.44
621.985	54.47
622.319	54.56
622.653	54.62
622.987	54.64
623.321	54.81
623.655	54.83
623.988	54.89
624.322	54.99
624.656	55.04
624.99	55.12
625.323	55.2
625.657	55.28
625.99	55.22
626.324	55.26
626.657	55.23
626.991	55.22
627.324	55.26
627.658	55.18
627.991	55.24
628.324	55.21
628.657	55.25
628.991	55.25
629.324	55.25
629.657	55.23
629.99	55.22
630.323	55.17
630.656	55.25
630.989	55.27
631.322	55.28
631.655	55.35
631.987	55.37
632.32	55.38
632.653	55.44
632.986	55.48
633.318	55.47
633.651	55.53
633.984	55.54
634.316	55.54
634.649	55.66
634.981	55.73
635.313	55.81
635.646	55.85
635.978	55.9
636.31	55.97
636.643	56.02
636.975	56.1
637.307	56.1
637.639	56.09
637.971	55.96
638.303	55.9
638.635	55.84
638.967	55.81
639.299	55.81
639.631	55.81
639.963	55.88
640.295	55.94
640.626	55.95
640.958	56.02
641.29	56.06
641.621	56.03
641.953	56.01
642.285	56.06
642.616	56.09
642.948	56.22
643.279	56.1
643.61	56.21
643.942	56.16
644.273	56.13
644.604	56.17
644.936	56.4
645.267	56.46
645.598	56.52
645.929	56.61
646.26	56.67
646.591	56.67
646.922	56.68
647.253	56.73
647.584	56.92
647.915	57.03
648.245	56.96
648.576	57.02
648.907	56.99
649.238	56.91
649.568	56.91
649.899	56.88
650.229	56.99
650.56	56.93
650.89	57.01
651.221	57.14
651.551	57.25
651.882	57.24
652.212	57.31
652.542	57.33
652.872	57.34
653.203	57.48
653.533	57.5
653.863	57.52
654.193	57.43
654.523	57.45
654.853	57.35
655.183	57.47
655.513	57.56
655.843	57.65
656.172	57.76
656.502	57.77
656.832	57.72
657.162	57.66
657.491	57.65
657.821	57.65
658.15	57.68
658.48	57.69
658.809	57.67
659.139	57.73
659.468	57.86
659.798	57.91
660.127	57.73
660.456	57.81
660.785	57.89
661.115	57.93
661.444	57.92
661.773	58.02
662.102	58.07
662.431	58.03
662.76	58.1
663.089	58.02
663.418	58.02
663.747	58.04
664.076	58.16
664.404	58.18
664.733	58.26
665.062	58.24
665.39	58.1
665.719	58.14
666.048	58.12
666.376	58.13
666.705	58.14
667.033	58.17
667.362	58.1
667.69	57.97
668.018	57.97
668.347	57.9
668.675	57.89
669.003	57.84
669.331	57.85
669.659	57.7
669.987	57.76
670.315	57.84
