Data from BA48648_Reflection_00014.txt Node
Date: Tue Nov 19 11:44:50 EST 2019
User: vgr7
Spectrometer: USB2G7710
Scans to average: 3
Trigger mode: 4
Integration Time (sec): 2.000000E-2
Electric dark correction enabled: true
Boxcar width: 10
XAxis mode: Wavelengths
Number of Pixels in Spectrum: 2048
>>>>>Begin Spectral Data<<<<<
177.721	-92.01
178.105	-23.6
178.488	-103.89
178.871	-31.76
179.254	-50.85
179.636	-198.7
180.019	-1264.86
180.402	566.67
180.785	144
181.168	181.17
181.55	142.6
181.933	572.48
182.316	1339.73
182.698	380.73
183.081	-821.97
183.463	-220.71
183.846	-201.48
184.228	-101.71
184.611	-81.46
184.993	-74.72
185.376	-77.16
185.758	-53.11
186.14	-64.13
186.522	-35.84
186.904	-39.01
187.287	-36.9
187.669	-31.2
188.051	-22.92
188.433	-32.36
188.815	-34.18
189.197	-32.03
189.579	-31.33
189.961	-32.87
190.342	-22.21
190.724	-27.2
191.106	-12.12
191.488	-12.71
191.869	-13.93
192.251	-2.35
192.633	-0.55
193.014	4.31
193.396	6.62
193.777	12.5
194.159	12.26
194.54	7.11
194.922	6.83
195.303	7.13
195.684	5.85
196.065	0.48
196.447	9.52
196.828	12.14
197.209	21.35
197.59	22.37
197.971	30.37
198.352	21.02
198.733	17.98
199.114	9.86
199.495	16.03
199.876	14.32
200.257	-1.61
200.638	-0.72
201.018	3.22
201.399	8.47
201.78	27.06
202.16	29.57
202.541	16.63
202.922	5.28
203.302	7.29
203.683	8.72
204.063	5.45
204.444	5.08
204.824	4.2
205.204	1.33
205.585	4.33
205.965	1.7
206.345	1.35
206.725	2.85
207.106	5.23
207.486	2.52
207.866	-1.73
208.246	2.66
208.626	-1.7
209.006	-4.99
209.386	-16.1
209.766	-24.3
210.145	-15.22
210.525	-9.45
210.905	-1.72
211.285	-2.47
211.664	2.2
212.044	1.63
212.424	7.47
212.803	10.75
213.183	4.22
213.562	7.19
213.942	1.74
214.321	8.17
214.701	11.56
215.08	13.09
215.459	18.42
215.838	24.14
216.218	18.82
216.597	25.49
216.976	22.9
217.355	34.37
217.734	33.49
218.113	16.81
218.492	7.71
218.871	4.75
219.25	6.3
219.629	-5.91
220.008	-3.56
220.387	-18.95
220.766	-11.83
221.144	-6.39
221.523	-5.99
221.902	2.77
222.28	12.58
222.659	12.11
223.037	2.24
223.416	6.19
223.794	7.57
224.173	8.09
224.551	4.39
224.929	5.61
225.308	5.24
225.686	9.53
226.064	5.81
226.442	9.71
226.821	7.99
227.199	9.12
227.577	10.87
227.955	10.68
228.333	11.19
228.711	6.29
229.089	7.75
229.467	6.82
229.845	5.81
230.222	3.53
230.6	5.97
230.978	8.45
231.356	6.73
231.733	8.17
232.111	11.23
232.488	10.03
232.866	11.44
233.243	11.47
233.621	11.93
233.998	13.33
234.376	14.69
234.753	13.71
235.13	11.99
235.508	10.25
235.885	11.72
236.262	12.76
236.639	12.5
237.016	12.45
237.393	13.63
237.77	12.14
238.147	11.66
238.524	10.51
238.901	10.42
239.278	9.59
239.655	8.75
240.032	7.14
240.409	7.21
240.785	6.93
241.162	7.02
241.539	6.48
241.915	6.58
242.292	6.16
242.668	6.25
243.045	6.65
243.421	7.03
243.798	6.66
244.174	6.3
244.551	6.78
244.927	6.6
245.303	6.33
245.679	6.27
246.056	5.97
246.432	5.87
246.808	5.77
247.184	5.79
247.56	5.61
247.936	6.04
248.312	6.13
248.688	6.06
249.064	6
249.44	6.03
249.815	5.92
250.191	5.87
250.567	5.95
250.943	5.8
251.318	5.64
251.694	5.4
252.069	5.43
252.445	5.11
252.82	5.1
253.196	4.9
253.571	4.99
253.947	5.18
254.322	5.04
254.697	5.04
255.073	4.71
255.448	5.01
255.823	4.93
256.198	4.78
256.573	4.73
256.948	4.74
257.323	4.79
257.698	4.72
258.073	4.76
258.448	4.94
258.823	4.68
259.198	4.89
259.573	4.93
259.948	4.93
260.322	4.73
260.697	4.77
261.072	4.75
261.446	4.86
261.821	4.83
262.195	4.84
262.57	4.74
262.944	4.98
263.319	4.95
263.693	4.88
264.067	5.06
264.442	5.08
264.816	5.07
265.19	5.13
265.564	5.14
265.938	5.04
266.313	4.77
266.687	4.92
267.061	4.62
267.435	4.85
267.809	4.82
268.183	5.07
268.556	5.03
268.93	5.19
269.304	5.12
269.678	5.19
270.051	5.36
270.425	5.36
270.799	5.3
271.172	5.25
271.546	5.4
271.919	5.28
272.293	5.38
272.666	5.36
273.04	5.19
273.413	5.24
273.787	5.26
274.16	5.3
274.533	5.39
274.906	5.38
275.279	5.38
275.653	5.38
276.026	5.36
276.399	5.37
276.772	5.42
277.145	5.51
277.518	5.48
277.891	5.31
278.263	5.37
278.636	5.35
279.009	5.44
279.382	5.28
279.755	5.13
280.127	5.01
280.5	4.95
280.872	5.21
281.245	5.33
281.617	5.53
281.99	5.52
282.362	5.49
282.735	5.64
283.107	5.49
283.479	5.54
283.852	5.42
284.224	5.44
284.596	5.29
284.968	5.17
285.34	5.2
285.713	5.21
286.085	5.27
286.457	5.32
286.829	5.35
287.201	5.22
287.572	5.41
287.944	5.37
288.316	5.39
288.688	5.34
289.06	5.27
289.431	5.17
289.803	5.35
290.175	5.4
290.546	5.34
290.918	5.28
291.289	5.15
291.661	5.36
292.032	5.46
292.403	5.44
292.775	5.58
293.146	5.6
293.517	5.65
293.889	5.64
294.26	5.62
294.631	5.62
295.002	5.81
295.373	5.77
295.744	5.81
296.115	5.89
296.486	5.93
296.857	5.98
297.228	6
297.599	5.99
297.97	6.07
298.34	6.19
298.711	6.45
299.082	6.48
299.452	6.48
299.823	6.36
300.194	6.37
300.564	6.26
300.935	6.32
301.305	6.42
301.676	6.37
302.046	6.39
302.416	6.43
302.787	6.34
303.157	6.4
303.527	6.62
303.897	6.7
304.267	6.63
304.637	6.64
305.008	6.62
305.378	6.67
305.748	6.67
306.117	6.67
306.487	6.57
306.857	6.69
307.227	6.93
307.597	7.1
307.967	7.32
308.336	7.46
308.706	7.56
309.076	7.66
309.445	7.84
309.815	7.97
310.184	7.99
310.554	8.1
310.923	8.13
311.293	8.08
311.662	8.02
312.031	8.07
312.401	8.06
312.77	8.19
313.139	8.26
313.508	8.28
313.877	8.39
314.246	8.49
314.616	8.64
314.985	8.57
315.353	8.5
315.722	8.67
316.091	8.75
316.46	8.84
316.829	8.78
317.198	8.82
317.567	8.93
317.935	8.87
318.304	9.05
318.672	9.19
319.041	9.34
319.41	9.42
319.778	9.57
320.147	9.73
320.515	9.73
320.883	9.68
321.252	9.75
321.62	9.77
321.988	9.67
322.357	9.61
322.725	9.69
323.093	9.78
323.461	9.62
323.829	9.61
324.197	9.54
324.565	9.57
324.933	9.75
325.301	9.54
325.669	9.74
326.037	9.67
326.405	9.61
326.772	9.56
327.14	9.54
327.508	9.63
327.875	9.67
328.243	9.59
328.61	9.56
328.978	9.63
329.346	9.59
329.713	9.7
330.08	9.78
330.448	9.73
330.815	9.84
331.182	9.87
331.55	9.78
331.917	9.72
332.284	9.81
332.651	9.7
333.018	9.76
333.385	9.69
333.752	9.71
334.119	9.76
334.486	9.87
334.853	9.87
335.22	9.75
335.587	9.52
335.954	9.61
336.32	9.56
336.687	9.47
337.054	9.53
337.42	9.6
337.787	9.55
338.153	9.61
338.52	9.63
338.886	9.67
339.253	9.68
339.619	9.75
339.986	9.69
340.352	9.56
340.718	9.61
341.084	9.67
341.451	9.68
341.817	9.79
342.183	9.73
342.549	9.81
342.915	9.88
343.281	10.02
343.647	10.09
344.013	10.13
344.379	10.18
344.745	10.15
345.11	10.03
345.476	10.16
345.842	10.11
346.208	10
346.573	9.98
346.939	10.19
347.304	10.21
347.67	10.23
348.035	10.31
348.401	10.36
348.766	10.29
349.132	10.29
349.497	10.21
349.862	10.17
350.228	10.17
350.593	10.11
350.958	10.15
351.323	10.13
351.688	10.16
352.053	10.1
352.418	10.12
352.783	10.15
353.148	10.1
353.513	10.06
353.878	10.09
354.243	10.07
354.608	10.04
354.972	10.01
355.337	10.08
355.702	10.11
356.066	10.03
356.431	10.07
356.795	10.03
357.16	10.11
357.524	10.1
357.889	10.01
358.253	9.99
358.618	10
358.982	9.96
359.346	9.97
359.71	9.98
360.075	9.96
360.439	9.98
360.803	9.95
361.167	9.95
361.531	9.96
361.895	9.96
362.259	9.9
362.623	9.92
362.987	9.86
363.351	9.8
363.714	9.84
364.078	9.85
364.442	9.81
364.806	9.75
365.169	9.79
365.533	9.8
365.896	9.89
366.26	9.87
366.623	9.82
366.987	9.75
367.35	9.76
367.714	9.7
368.077	9.68
368.44	9.7
368.803	9.68
369.167	9.62
369.53	9.69
369.893	9.7
370.256	9.63
370.619	9.58
370.982	9.59
371.345	9.49
371.708	9.41
372.071	9.41
372.434	9.43
372.797	9.32
373.159	9.29
373.522	9.11
373.885	9.02
374.247	9.01
374.61	9.04
374.973	8.93
375.335	8.96
375.698	8.9
376.06	8.85
376.423	8.84
376.785	8.83
377.147	8.74
377.51	8.64
377.872	8.64
378.234	8.62
378.596	8.57
378.958	8.67
379.321	8.64
379.683	8.61
380.045	8.47
380.407	8.46
380.769	8.44
381.13	8.44
381.492	8.44
381.854	8.41
382.216	8.33
382.578	8.34
382.939	8.23
383.301	8.19
383.663	8.17
384.024	8.05
384.386	8
384.747	7.93
385.109	7.9
385.47	7.87
385.832	7.79
386.193	7.78
386.554	7.62
386.916	7.57
387.277	7.51
387.638	7.47
387.999	7.44
388.36	7.37
388.721	7.36
389.082	7.33
389.443	7.28
389.804	7.21
390.165	7.19
390.526	7.16
390.887	7.09
391.248	7
391.609	7
391.969	6.98
392.33	6.95
392.691	6.93
393.051	6.85
393.412	6.83
393.772	6.79
394.133	6.77
394.493	6.75
394.854	6.72
395.214	6.71
395.574	6.64
395.935	6.62
396.295	6.56
396.655	6.5
397.015	6.41
397.376	6.43
397.736	6.36
398.096	6.3
398.456	6.3
398.816	6.26
399.176	6.21
399.535	6.15
399.895	6.14
400.255	6.13
400.615	6.08
400.975	6.04
401.334	6.01
401.694	5.97
402.054	5.95
402.413	5.89
402.773	5.86
403.132	5.85
403.492	5.83
403.851	5.8
404.211	5.79
404.57	5.83
404.929	5.78
405.288	5.76
405.648	5.73
406.007	5.72
406.366	5.73
406.725	5.71
407.084	5.7
407.443	5.66
407.802	5.62
408.161	5.58
408.52	5.59
408.879	5.54
409.238	5.52
409.596	5.49
409.955	5.49
410.314	5.45
410.673	5.43
411.031	5.41
411.39	5.41
411.748	5.36
412.107	5.36
412.465	5.34
412.824	5.28
413.182	5.28
413.54	5.26
413.899	5.23
414.257	5.23
414.615	5.2
414.974	5.17
415.332	5.14
415.69	5.14
416.048	5.12
416.406	5.09
416.764	5.07
417.122	5.02
417.48	5.03
417.838	4.99
418.195	4.96
418.553	4.95
418.911	4.91
419.269	4.92
419.626	4.88
419.984	4.88
420.342	4.88
420.699	4.87
421.057	4.85
421.414	4.83
421.772	4.8
422.129	4.78
422.486	4.78
422.844	4.76
423.201	4.75
423.558	4.73
423.915	4.72
424.273	4.7
424.63	4.7
424.987	4.68
425.344	4.68
425.701	4.69
426.058	4.68
426.415	4.66
426.772	4.64
427.128	4.63
427.485	4.61
427.842	4.6
428.199	4.59
428.555	4.57
428.912	4.55
429.269	4.53
429.625	4.53
429.982	4.53
430.338	4.54
430.695	4.53
431.051	4.54
431.407	4.52
431.764	4.51
432.12	4.53
432.476	4.56
432.832	4.57
433.189	4.54
433.545	4.53
433.901	4.55
434.257	4.54
434.613	4.54
434.969	4.52
435.325	4.51
435.681	4.5
436.036	4.51
436.392	4.54
436.748	4.55
437.104	4.54
437.459	4.53
437.815	4.52
438.171	4.52
438.526	4.51
438.882	4.51
439.237	4.52
439.593	4.5
439.948	4.46
440.304	4.42
440.659	4.44
441.014	4.43
441.369	4.42
441.725	4.42
442.08	4.42
442.435	4.42
442.79	4.42
443.145	4.41
443.5	4.41
443.855	4.37
444.21	4.37
444.565	4.36
444.92	4.35
445.275	4.34
445.629	4.33
445.984	4.32
446.339	4.32
446.693	4.31
447.048	4.29
447.403	4.29
447.757	4.3
448.112	4.28
448.466	4.27
448.82	4.28
449.175	4.26
449.529	4.26
449.883	4.24
450.238	4.24
450.592	4.24
450.946	4.21
451.3	4.23
451.654	4.23
452.008	4.22
452.362	4.2
452.716	4.22
453.07	4.22
453.424	4.22
453.778	4.21
454.132	4.19
454.486	4.19
454.839	4.19
455.193	4.19
455.547	4.17
455.9	4.18
456.254	4.17
456.607	4.18
456.961	4.18
457.314	4.19
457.668	4.19
458.021	4.19
458.375	4.19
458.728	4.18
459.081	4.19
459.434	4.19
459.787	4.2
460.141	4.19
460.494	4.19
460.847	4.2
461.2	4.21
461.553	4.24
461.906	4.27
462.259	4.28
462.611	4.3
462.964	4.32
463.317	4.32
463.67	4.32
464.022	4.33
464.375	4.34
464.728	4.35
465.08	4.35
465.433	4.37
465.785	4.4
466.138	4.4
466.49	4.41
466.843	4.44
467.195	4.45
467.547	4.47
467.899	4.48
468.252	4.48
468.604	4.49
468.956	4.5
469.308	4.48
469.66	4.51
470.012	4.49
470.364	4.49
470.716	4.51
471.068	4.56
471.42	4.54
471.772	4.54
472.123	4.55
472.475	4.57
472.827	4.56
473.178	4.57
473.53	4.58
473.882	4.58
474.233	4.59
474.585	4.58
474.936	4.58
475.288	4.57
475.639	4.57
475.99	4.55
476.342	4.54
476.693	4.53
477.044	4.51
477.395	4.53
477.746	4.51
478.097	4.51
478.448	4.48
478.8	4.5
479.15	4.48
479.501	4.48
479.852	4.48
480.203	4.49
480.554	4.49
480.905	4.49
481.255	4.5
481.606	4.49
481.957	4.5
482.307	4.48
482.658	4.5
483.009	4.5
483.359	4.51
483.709	4.5
484.06	4.51
484.41	4.53
484.761	4.53
485.111	4.54
485.461	4.54
485.811	4.55
486.162	4.55
486.512	4.55
486.862	4.56
487.212	4.57
487.562	4.57
487.912	4.57
488.262	4.57
488.612	4.57
488.961	4.58
489.311	4.57
489.661	4.59
490.011	4.59
490.36	4.58
490.71	4.6
491.06	4.61
491.409	4.61
491.759	4.61
492.108	4.62
492.458	4.63
492.807	4.65
493.157	4.66
493.506	4.68
493.855	4.71
494.204	4.72
494.554	4.74
494.903	4.75
495.252	4.78
495.601	4.81
495.95	4.84
496.299	4.88
496.648	4.92
496.997	4.95
497.346	4.99
497.695	5.03
498.043	5.06
498.392	5.1
498.741	5.15
499.09	5.18
499.438	5.23
499.787	5.26
500.135	5.31
500.484	5.35
500.832	5.39
501.181	5.43
501.529	5.47
501.878	5.51
502.226	5.57
502.574	5.61
502.923	5.66
503.271	5.7
503.619	5.75
503.967	5.81
504.315	5.88
504.663	5.92
505.011	6.01
505.359	6.04
505.707	6.09
506.055	6.14
506.403	6.2
506.751	6.21
507.098	6.28
507.446	6.34
507.794	6.39
508.141	6.46
508.489	6.53
508.837	6.59
509.184	6.64
509.531	6.69
509.879	6.74
510.226	6.79
510.574	6.85
510.921	6.89
511.268	6.95
511.616	7
511.963	7.06
512.31	7.11
512.657	7.19
513.004	7.22
513.351	7.28
513.698	7.34
514.045	7.44
514.392	7.51
514.739	7.57
515.086	7.67
515.432	7.73
515.779	7.79
516.126	7.89
516.473	7.97
516.819	8.05
517.166	8.12
517.512	8.16
517.859	8.24
518.205	8.3
518.552	8.35
518.898	8.4
519.245	8.47
519.591	8.54
519.937	8.61
520.283	8.71
520.629	8.79
520.976	8.9
521.322	8.98
521.668	9.07
522.014	9.17
522.36	9.23
522.706	9.33
523.052	9.46
523.398	9.55
523.743	9.69
524.089	9.81
524.435	9.94
524.781	10.07
525.126	10.18
525.472	10.3
525.817	10.38
526.163	10.48
526.509	10.56
526.854	10.63
527.199	10.71
527.545	10.77
527.89	10.84
528.235	10.91
528.581	11
528.926	11.07
529.271	11.15
529.616	11.24
529.961	11.32
530.306	11.38
530.651	11.47
530.996	11.57
531.341	11.67
531.686	11.77
532.031	11.87
532.376	11.99
532.721	12.11
533.065	12.24
533.41	12.35
533.755	12.48
534.099	12.62
534.444	12.76
534.788	12.88
535.133	13.02
535.477	13.17
535.822	13.3
536.166	13.47
536.51	13.61
536.855	13.79
537.199	13.97
537.543	14.16
537.887	14.35
538.231	14.53
538.576	14.72
538.92	14.9
539.264	15.08
539.608	15.25
539.951	15.41
540.295	15.57
540.639	15.74
540.983	15.9
541.327	16.03
541.671	16.17
542.014	16.36
542.358	16.49
542.701	16.63
543.045	16.78
543.389	16.93
543.732	17.11
544.075	17.28
544.419	17.46
544.762	17.66
545.105	17.83
545.449	18.02
545.792	18.22
546.135	18.42
546.478	18.63
546.821	18.86
547.165	19.07
547.508	19.3
547.851	19.56
548.194	19.76
548.536	20.02
548.879	20.24
549.222	20.44
549.565	20.71
549.908	20.98
550.25	21.24
550.593	21.45
550.936	21.68
551.278	21.91
551.621	22.13
551.963	22.38
552.306	22.6
552.648	22.87
552.991	23.11
553.333	23.32
553.675	23.59
554.017	23.81
554.36	24.05
554.702	24.26
555.044	24.48
555.386	24.75
555.728	24.99
556.07	25.3
556.412	25.58
556.754	25.86
557.096	26.11
557.438	26.36
557.78	26.69
558.121	26.96
558.463	27.22
558.805	27.5
559.147	27.79
559.488	28.1
559.83	28.31
560.171	28.58
560.513	28.88
560.854	29.14
561.196	29.45
561.537	29.73
561.878	29.97
562.22	30.29
562.561	30.57
562.902	30.8
563.243	31.03
563.584	31.29
563.925	31.52
564.266	31.7
564.607	31.95
564.948	32.14
565.289	32.4
565.63	32.67
565.971	32.92
566.312	33.15
566.653	33.36
566.993	33.58
567.334	33.85
567.675	34.1
568.015	34.3
568.356	34.53
568.696	34.78
569.037	35.03
569.377	35.21
569.718	35.42
570.058	35.69
570.398	35.9
570.739	36.06
571.079	36.29
571.419	36.55
571.759	36.76
572.099	36.98
572.439	37.15
572.779	37.32
573.119	37.54
573.459	37.66
573.799	37.88
574.139	38.12
574.479	38.31
574.819	38.51
575.158	38.68
575.498	38.86
575.838	39
576.177	39.18
576.517	39.39
576.856	39.57
577.196	39.77
577.535	40.03
577.875	40.29
578.214	40.47
578.553	40.68
578.893	40.96
579.232	41.17
579.571	41.39
579.91	41.54
580.25	41.72
580.589	41.96
580.928	42.08
581.267	42.23
581.606	42.35
581.945	42.49
582.283	42.64
582.622	42.79
582.961	42.93
583.3	43.09
583.639	43.22
583.977	43.44
584.316	43.62
584.654	43.76
584.993	43.86
585.332	44.02
585.67	44.19
586.008	44.29
586.347	44.41
586.685	44.46
587.024	44.71
587.362	44.92
587.7	45.09
588.038	45.29
588.376	45.41
588.715	45.55
589.053	45.69
589.391	45.85
589.729	45.97
590.067	46.11
590.404	46.25
590.742	46.43
591.08	46.55
591.418	46.64
591.756	46.73
592.093	46.88
592.431	47.04
592.769	47.18
593.106	47.24
593.444	47.39
593.781	47.57
594.119	47.67
594.456	47.68
594.793	47.74
595.131	47.83
595.468	47.97
595.805	48.06
596.143	48.17
596.48	48.27
596.817	48.33
597.154	48.54
597.491	48.65
597.828	48.68
598.165	48.75
598.502	48.89
598.839	49.02
599.176	49.13
599.512	49.15
599.849	49.22
600.186	49.42
600.523	49.52
600.859	49.61
601.196	49.66
601.532	49.87
601.869	50.01
602.205	50.1
602.542	50.21
602.878	50.28
603.215	50.39
603.551	50.5
603.887	50.61
604.223	50.59
604.56	50.69
604.896	50.82
605.232	50.91
605.568	50.94
605.904	50.97
606.24	51.07
606.576	51.22
606.912	51.26
607.248	51.31
607.583	51.47
607.919	51.56
608.255	51.76
608.591	51.77
608.926	51.88
609.262	51.94
609.597	52
609.933	52.13
610.268	52.21
610.604	52.29
610.939	52.36
611.275	52.49
611.61	52.51
611.945	52.58
612.281	52.66
612.616	52.75
612.951	52.92
613.286	52.98
613.621	53.06
613.956	53.16
614.291	53.22
614.626	53.24
614.961	53.35
615.296	53.25
615.631	53.3
615.966	53.39
616.3	53.47
616.635	53.63
616.97	53.63
617.304	53.66
617.639	53.64
617.973	53.69
618.308	53.71
618.642	53.74
618.977	53.78
619.311	53.83
619.646	53.86
619.98	53.85
620.314	53.96
620.648	54.01
620.983	54.11
621.317	54.18
621.651	54.18
621.985	54.18
622.319	54.31
622.653	54.35
622.987	54.34
623.321	54.45
623.655	54.43
623.988	54.52
624.322	54.59
624.656	54.67
624.99	54.72
625.323	54.81
625.657	54.99
625.99	55.04
626.324	55.18
626.657	55.22
626.991	55.25
627.324	55.27
627.658	55.19
627.991	55.23
628.324	55.27
628.657	55.38
628.991	55.47
629.324	55.54
629.657	55.62
629.99	55.67
630.323	55.69
630.656	55.69
630.989	55.73
631.322	55.77
631.655	55.9
631.987	55.96
632.32	56.05
632.653	56.06
632.986	56.1
633.318	56.01
633.651	56.01
633.984	56.06
634.316	56.02
634.649	56.18
634.981	56.29
635.313	56.38
635.646	56.35
635.978	56.38
636.31	56.44
636.643	56.49
636.975	56.59
637.307	56.62
637.639	56.75
637.971	56.76
638.303	56.83
638.635	56.81
638.967	56.82
639.299	56.79
639.631	56.73
639.963	56.8
640.295	56.89
640.626	56.94
640.958	56.95
641.29	57.14
641.621	57.22
641.953	57.16
642.285	57.23
642.616	57.31
642.948	57.37
643.279	57.3
643.61	57.4
643.942	57.33
644.273	57.35
644.604	57.32
644.936	57.49
645.267	57.48
645.598	57.59
645.929	57.77
646.26	57.74
646.591	57.76
646.922	57.81
647.253	57.94
647.584	57.93
647.915	58.07
648.245	58.04
648.576	58.09
648.907	58.18
649.238	58.11
649.568	58.14
649.899	58.14
650.229	58.14
650.56	58.22
650.89	58.29
651.221	58.43
651.551	58.6
651.882	58.52
652.212	58.5
652.542	58.52
652.872	58.43
653.203	58.57
653.533	58.67
653.863	58.75
654.193	58.7
654.523	58.84
654.853	58.84
655.183	58.87
655.513	58.9
655.843	58.98
656.172	59.04
656.502	59.09
656.832	59.18
657.162	59.31
657.491	59.13
657.821	59.23
658.15	59.22
658.48	59.22
658.809	59.27
659.139	59.39
659.468	59.39
659.798	59.49
660.127	59.42
660.456	59.53
660.785	59.45
661.115	59.41
661.444	59.46
661.773	59.51
662.102	59.65
662.431	59.71
662.76	59.67
663.089	59.68
663.418	59.74
663.747	59.67
664.076	59.68
664.404	59.87
664.733	59.87
665.062	59.98
665.39	59.92
665.719	59.94
666.048	59.92
666.376	59.95
666.705	59.91
667.033	59.96
667.362	59.85
667.69	59.95
668.018	60.12
668.347	60.13
668.675	60.18
