Data from BA48648_Reflection_00010.txt Node
Date: Tue Nov 19 11:44:41 EST 2019
User: vgr7
Spectrometer: USB2G7710
Scans to average: 3
Trigger mode: 4
Integration Time (sec): 2.000000E-2
Electric dark correction enabled: true
Boxcar width: 10
XAxis mode: Wavelengths
Number of Pixels in Spectrum: 2048
>>>>>Begin Spectral Data<<<<<
177.721	9.57
178.105	74.72
178.488	152.7
178.871	135.29
179.254	110.17
179.636	177.92
180.019	424.32
180.402	-100
180.785	-500
181.168	645.45
181.55	382.51
181.933	980.73
182.316	1661.64
182.698	369.1
183.081	-697.69
183.463	-155.02
183.846	-267.35
184.228	-211.43
184.611	-123.6
184.993	-74.34
185.376	-58.74
185.758	-48.86
186.14	-65.32
186.522	-60.51
186.904	-52.58
187.287	-50.06
187.669	-48.7
188.051	-31.86
188.433	-36.56
188.815	-29.01
189.197	-20.75
189.579	-14.5
189.961	-11.63
190.342	-5.96
190.724	-10.05
191.106	-9.89
191.488	-13.58
191.869	4.87
192.251	13.17
192.633	15.26
193.014	4.46
193.396	12.8
193.777	19.78
194.159	20.1
194.54	23.46
194.922	27.03
195.303	31.09
195.684	38.39
196.065	27
196.447	37.78
196.828	32.56
197.209	34.08
197.59	36.54
197.971	30.53
198.352	19.23
198.733	15.46
199.114	19.53
199.495	16.19
199.876	4.54
200.257	0.88
200.638	-13.68
201.018	-20.74
201.399	-29.22
201.78	-27.32
202.16	-33.06
202.541	-44.22
202.922	-36.31
203.302	-29.96
203.683	-32.79
204.063	-28.9
204.444	-27.97
204.824	-22.94
205.204	-12.72
205.585	-13.55
205.965	-17.02
206.345	-7.18
206.725	-1.45
207.106	1.77
207.486	0.98
207.866	6.27
208.246	14.67
208.626	9.07
209.006	12.74
209.386	15.05
209.766	6.19
210.145	4.4
210.525	8.21
210.905	1.98
211.285	-5.98
211.664	-2.82
212.044	6.92
212.424	7.58
212.803	1.68
213.183	-10.43
213.562	-5.63
213.942	-4.68
214.321	-13.28
214.701	-21.22
215.08	-20.62
215.459	-13.42
215.838	-16.75
216.218	-29.83
216.597	-11.54
216.976	-6.98
217.355	-1.85
217.734	7.58
218.113	24.25
218.492	14.32
218.871	10.62
219.25	17.3
219.629	5.65
220.008	-12.26
220.387	-22.53
220.766	-15
221.144	3.06
221.523	-3.03
221.902	5.52
222.28	11.93
222.659	24.67
223.037	14.38
223.416	8.65
223.794	10.72
224.173	13.27
224.551	10.95
224.929	2.73
225.308	2.36
225.686	-2.98
226.064	-13.66
226.442	-10.1
226.821	-8.81
227.199	-8.89
227.577	-4.23
227.955	0.4
228.333	0.32
228.711	1.58
229.089	-0.44
229.467	0.4
229.845	-4.01
230.222	-4.3
230.6	-7.86
230.978	-7.1
231.356	-5.84
231.733	-5.88
232.111	-6.25
232.488	-8.49
232.866	-6.82
233.243	-7.62
233.621	-5.91
233.998	-3.01
234.376	-1.34
234.753	-1.61
235.13	-1.38
235.508	-2.01
235.885	-1.39
236.262	-1.21
236.639	-2.28
237.016	-2.51
237.393	-1.85
237.77	0.02
238.147	0.2
238.524	1.85
238.901	2.3
239.278	2.46
239.655	2.73
240.032	2.88
240.409	3.19
240.785	3.26
241.162	3.55
241.539	3.05
241.915	2.82
242.292	2.68
242.668	3.45
243.045	3.65
243.421	4.12
243.798	4.23
244.174	4.41
244.551	4.76
244.927	5.15
245.303	4.74
245.679	4.76
246.056	4.86
246.432	4.9
246.808	5.19
247.184	5.03
247.56	5.09
247.936	5
248.312	5.04
248.688	5.33
249.064	5.31
249.44	5.43
249.815	5.34
250.191	5.38
250.567	5.09
250.943	5.14
251.318	4.8
251.694	4.61
252.069	4.47
252.445	4.39
252.82	4.25
253.196	4.35
253.571	4.33
253.947	4.3
254.322	3.97
254.697	3.71
255.073	3.67
255.448	3.3
255.823	3.32
256.198	3.33
256.573	3.13
256.948	3.12
257.323	3.24
257.698	3.31
258.073	3.32
258.448	3.69
258.823	3.51
259.198	3.6
259.573	3.58
259.948	3.67
260.322	3.51
260.697	3.61
261.072	3.89
261.446	3.79
261.821	3.66
262.195	3.69
262.57	3.81
262.944	3.92
263.319	4.05
263.693	4.09
264.067	4.16
264.442	4.09
264.816	4.18
265.19	4.07
265.564	4.1
265.938	4.2
266.313	3.9
266.687	4.03
267.061	4.08
267.435	4.28
267.809	4.29
268.183	4.64
268.556	4.4
268.93	4.29
269.304	4.27
269.678	4.4
270.051	4.42
270.425	4.23
270.799	4.11
271.172	4
271.546	4.07
271.919	3.94
272.293	4.06
272.666	4
273.04	4.1
273.413	4.04
273.787	3.87
274.16	3.97
274.533	4.07
274.906	4.09
275.279	3.82
275.653	3.81
276.026	3.65
276.399	3.8
276.772	3.72
277.145	3.71
277.518	3.63
277.891	3.59
278.263	3.72
278.636	3.82
279.009	3.98
279.382	3.89
279.755	3.81
280.127	3.87
280.5	3.76
280.872	3.67
281.245	3.73
281.617	3.99
281.99	4
282.362	3.87
282.735	3.87
283.107	3.87
283.479	3.87
283.852	3.72
284.224	3.53
284.596	3.51
284.968	3.54
285.34	3.48
285.713	3.6
286.085	3.49
286.457	3.48
286.829	3.52
287.201	3.59
287.572	3.79
287.944	3.68
288.316	3.72
288.688	3.83
289.06	3.85
289.431	3.66
289.803	3.6
290.175	3.52
290.546	3.55
290.918	3.58
291.289	3.48
291.661	3.56
292.032	3.67
292.403	3.61
292.775	3.59
293.146	3.74
293.517	3.68
293.889	3.68
294.26	3.66
294.631	3.5
295.002	3.38
295.373	3.34
295.744	3.38
296.115	3.35
296.486	3.26
296.857	3.27
297.228	3.25
297.599	3.17
297.97	3.23
298.34	3.19
298.711	3.33
299.082	3.3
299.452	3.33
299.823	3.27
300.194	3.33
300.564	3.3
300.935	3.31
301.305	3.23
301.676	3.31
302.046	3.25
302.416	3.28
302.787	3.26
303.157	3.2
303.527	3.22
303.897	3.32
304.267	3.34
304.637	3.35
305.008	3.48
305.378	3.68
305.748	3.8
306.117	3.79
306.487	3.72
306.857	3.94
307.227	4.09
307.597	4.11
307.967	4.13
308.336	4.16
308.706	4.18
309.076	4.26
309.445	4.19
309.815	4.27
310.184	4.26
310.554	4.31
310.923	4.3
311.293	4.2
311.662	4.21
312.031	4.29
312.401	4.23
312.77	4.17
313.139	4.08
313.508	3.91
313.877	3.97
314.246	3.9
314.616	3.77
314.985	3.65
315.353	3.71
315.722	3.69
316.091	3.84
316.46	3.81
316.829	3.79
317.198	3.79
317.567	3.92
317.935	3.98
318.304	4.07
318.672	4.16
319.041	4.35
319.41	4.24
319.778	4.28
320.147	4.37
320.515	4.43
320.883	4.42
321.252	4.59
321.62	4.58
321.988	4.58
322.357	4.6
322.725	4.62
323.093	4.59
323.461	4.67
323.829	4.62
324.197	4.69
324.565	4.72
324.933	4.74
325.301	4.65
325.669	4.71
326.037	4.78
326.405	4.8
326.772	4.88
327.14	4.82
327.508	4.71
327.875	4.7
328.243	4.63
328.61	4.73
328.978	4.71
329.346	4.58
329.713	4.7
330.08	4.77
330.448	4.67
330.815	4.74
331.182	4.71
331.55	4.65
331.917	4.49
332.284	4.58
332.651	4.57
333.018	4.52
333.385	4.44
333.752	4.38
334.119	4.32
334.486	4.22
334.853	4.42
335.22	4.51
335.587	4.47
335.954	4.56
336.32	4.55
336.687	4.67
337.054	4.72
337.42	4.71
337.787	4.67
338.153	4.86
338.52	4.89
338.886	4.92
339.253	4.82
339.619	4.95
339.986	4.84
340.352	4.85
340.718	4.85
341.084	4.92
341.451	4.87
341.817	4.92
342.183	4.85
342.549	4.89
342.915	4.86
343.281	4.94
343.647	4.92
344.013	4.91
344.379	4.82
344.745	4.91
345.11	4.8
345.476	4.93
345.842	4.81
346.208	4.73
346.573	4.77
346.939	4.87
347.304	4.84
347.67	4.85
348.035	4.83
348.401	4.82
348.766	4.83
349.132	5.02
349.497	4.95
349.862	4.99
350.228	4.92
350.593	4.89
350.958	4.83
351.323	4.7
351.688	4.69
352.053	4.68
352.418	4.66
352.783	4.71
353.148	4.66
353.513	4.68
353.878	4.72
354.243	4.53
354.608	4.59
354.972	4.54
355.337	4.56
355.702	4.63
356.066	4.68
356.431	4.61
356.795	4.5
357.16	4.54
357.524	4.58
357.889	4.54
358.253	4.54
358.618	4.59
358.982	4.61
359.346	4.63
359.71	4.65
360.075	4.65
360.439	4.68
360.803	4.72
361.167	4.69
361.531	4.72
361.895	4.82
362.259	4.75
362.623	4.81
362.987	4.76
363.351	4.71
363.714	4.69
364.078	4.76
364.442	4.72
364.806	4.78
365.169	4.76
365.533	4.84
365.896	4.91
366.26	4.9
366.623	4.97
366.987	4.97
367.35	4.94
367.714	4.93
368.077	4.9
368.44	4.82
368.803	4.82
369.167	4.69
369.53	4.61
369.893	4.63
370.256	4.52
370.619	4.55
370.982	4.53
371.345	4.55
371.708	4.51
372.071	4.47
372.434	4.41
372.797	4.36
373.159	4.31
373.522	4.17
373.885	4.19
374.247	4.1
374.61	4.04
374.973	4.07
375.335	4.05
375.698	4.04
376.06	4.05
376.423	3.97
376.785	4.07
377.147	4.06
377.51	4.09
377.872	4.1
378.234	4.1
378.596	4.14
378.958	4.13
379.321	4.17
379.683	4.19
380.045	4.13
380.407	4.17
380.769	4.13
381.13	4.19
381.492	4.15
381.854	4.2
382.216	4.23
382.578	4.17
382.939	4.1
383.301	4.09
383.663	4.04
384.024	4.12
384.386	4.06
384.747	4.06
385.109	4.06
385.47	4.05
385.832	4.03
386.193	4
386.554	3.94
386.916	3.89
387.277	3.9
387.638	3.95
387.999	3.92
388.36	3.95
388.721	3.97
389.082	3.95
389.443	3.95
389.804	3.93
390.165	3.97
390.526	3.99
390.887	3.98
391.248	3.99
391.609	3.97
391.969	3.97
392.33	3.95
392.691	3.88
393.051	3.87
393.412	3.85
393.772	3.84
394.133	3.86
394.493	3.84
394.854	3.81
395.214	3.77
395.574	3.74
395.935	3.71
396.295	3.66
396.655	3.63
397.015	3.63
397.376	3.6
397.736	3.57
398.096	3.58
398.456	3.56
398.816	3.55
399.176	3.52
399.535	3.49
399.895	3.51
400.255	3.52
400.615	3.51
400.975	3.52
401.334	3.51
401.694	3.5
402.054	3.51
402.413	3.51
402.773	3.5
403.132	3.49
403.492	3.5
403.851	3.5
404.211	3.48
404.57	3.49
404.929	3.5
405.288	3.5
405.648	3.48
406.007	3.49
406.366	3.52
406.725	3.5
407.084	3.52
407.443	3.5
407.802	3.5
408.161	3.51
408.52	3.48
408.879	3.48
409.238	3.48
409.596	3.47
409.955	3.46
410.314	3.51
410.673	3.52
411.031	3.51
411.39	3.51
411.748	3.53
412.107	3.5
412.465	3.51
412.824	3.5
413.182	3.49
413.54	3.5
413.899	3.47
414.257	3.48
414.615	3.46
414.974	3.48
415.332	3.46
415.69	3.43
416.048	3.45
416.406	3.44
416.764	3.44
417.122	3.43
417.48	3.43
417.838	3.4
418.195	3.4
418.553	3.4
418.911	3.39
419.269	3.38
419.626	3.37
419.984	3.38
420.342	3.38
420.699	3.37
421.057	3.37
421.414	3.37
421.772	3.36
422.129	3.34
422.486	3.34
422.844	3.34
423.201	3.36
423.558	3.35
423.915	3.36
424.273	3.37
424.63	3.36
424.987	3.36
425.344	3.36
425.701	3.34
426.058	3.34
426.415	3.33
426.772	3.32
427.128	3.32
427.485	3.33
427.842	3.32
428.199	3.32
428.555	3.3
428.912	3.29
429.269	3.31
429.625	3.34
429.982	3.33
430.338	3.32
430.695	3.29
431.051	3.29
431.407	3.27
431.764	3.25
432.12	3.27
432.476	3.27
432.832	3.27
433.189	3.28
433.545	3.28
433.901	3.29
434.257	3.32
434.613	3.33
434.969	3.31
435.325	3.32
435.681	3.31
436.036	3.32
436.392	3.34
436.748	3.33
437.104	3.32
437.459	3.32
437.815	3.33
438.171	3.35
438.526	3.35
438.882	3.35
439.237	3.36
439.593	3.35
439.948	3.35
440.304	3.36
440.659	3.36
441.014	3.35
441.369	3.35
441.725	3.34
442.08	3.31
442.435	3.3
442.79	3.29
443.145	3.29
443.5	3.28
443.855	3.26
444.21	3.27
444.565	3.27
444.92	3.27
445.275	3.27
445.629	3.27
445.984	3.26
446.339	3.27
446.693	3.27
447.048	3.26
447.403	3.26
447.757	3.24
448.112	3.25
448.466	3.24
448.82	3.24
449.175	3.24
449.529	3.24
449.883	3.24
450.238	3.22
450.592	3.24
450.946	3.24
451.3	3.26
451.654	3.27
452.008	3.27
452.362	3.25
452.716	3.23
453.07	3.21
453.424	3.21
453.778	3.22
454.132	3.21
454.486	3.21
454.839	3.22
455.193	3.24
455.547	3.24
455.9	3.25
456.254	3.25
456.607	3.27
456.961	3.29
457.314	3.32
457.668	3.33
458.021	3.34
458.375	3.32
458.728	3.3
459.081	3.29
459.434	3.3
459.787	3.32
460.141	3.33
460.494	3.33
460.847	3.35
461.2	3.34
461.553	3.34
461.906	3.34
462.259	3.34
462.611	3.34
462.964	3.34
463.317	3.33
463.67	3.36
464.022	3.34
464.375	3.33
464.728	3.32
465.08	3.34
465.433	3.32
465.785	3.33
466.138	3.36
466.49	3.39
466.843	3.39
467.195	3.4
467.547	3.41
467.899	3.42
468.252	3.42
468.604	3.41
468.956	3.44
469.308	3.43
469.66	3.46
470.012	3.45
470.364	3.45
470.716	3.46
471.068	3.46
471.42	3.46
471.772	3.47
472.123	3.47
472.475	3.46
472.827	3.47
473.178	3.5
473.53	3.48
473.882	3.47
474.233	3.46
474.585	3.45
474.936	3.45
475.288	3.46
475.639	3.44
475.99	3.44
476.342	3.43
476.693	3.44
477.044	3.42
477.395	3.41
477.746	3.39
478.097	3.38
478.448	3.36
478.8	3.36
479.15	3.34
479.501	3.34
479.852	3.36
480.203	3.36
480.554	3.36
480.905	3.35
481.255	3.35
481.606	3.35
481.957	3.35
482.307	3.36
482.658	3.36
483.009	3.36
483.359	3.36
483.709	3.36
484.06	3.36
484.41	3.36
484.761	3.38
485.111	3.38
485.461	3.39
485.811	3.4
486.162	3.41
486.512	3.42
486.862	3.42
487.212	3.41
487.562	3.41
487.912	3.41
488.262	3.41
488.612	3.41
488.961	3.41
489.311	3.41
489.661	3.4
490.011	3.4
490.36	3.4
490.71	3.41
491.06	3.41
491.409	3.41
491.759	3.41
492.108	3.39
492.458	3.39
492.807	3.39
493.157	3.39
493.506	3.39
493.855	3.38
494.204	3.38
494.554	3.38
494.903	3.39
495.252	3.42
495.601	3.43
495.95	3.45
496.299	3.46
496.648	3.48
496.997	3.47
497.346	3.48
497.695	3.5
498.043	3.52
498.392	3.55
498.741	3.57
499.09	3.58
499.438	3.6
499.787	3.61
500.135	3.61
500.484	3.62
500.832	3.66
501.181	3.69
501.529	3.72
501.878	3.74
502.226	3.75
502.574	3.74
502.923	3.75
503.271	3.75
503.619	3.76
503.967	3.79
504.315	3.82
504.663	3.84
505.011	3.85
505.359	3.84
505.707	3.84
506.055	3.85
506.403	3.85
506.751	3.87
507.098	3.9
507.446	3.94
507.794	3.96
508.141	3.98
508.489	3.97
508.837	3.98
509.184	4
509.531	3.99
509.879	4.02
510.226	4.04
510.574	4.06
510.921	4.07
511.268	4.09
511.616	4.11
511.963	4.13
512.31	4.16
512.657	4.2
513.004	4.23
513.351	4.25
513.698	4.31
514.045	4.35
514.392	4.39
514.739	4.39
515.086	4.43
515.432	4.46
515.779	4.5
516.126	4.54
516.473	4.57
516.819	4.61
517.166	4.64
517.512	4.67
517.859	4.7
518.205	4.74
518.552	4.79
518.898	4.81
519.245	4.85
519.591	4.89
519.937	4.93
520.283	4.98
520.629	5.02
520.976	5.05
521.322	5.08
521.668	5.13
522.014	5.17
522.36	5.2
522.706	5.26
523.052	5.33
523.398	5.37
523.743	5.44
524.089	5.5
524.435	5.56
524.781	5.62
525.126	5.68
525.472	5.74
525.817	5.78
526.163	5.83
526.509	5.85
526.854	5.88
527.199	5.95
527.545	5.98
527.89	6.03
528.235	6.06
528.581	6.11
528.926	6.15
529.271	6.21
529.616	6.25
529.961	6.31
530.306	6.34
530.651	6.39
530.996	6.44
531.341	6.51
531.686	6.57
532.031	6.64
532.376	6.7
532.721	6.77
533.065	6.85
533.41	6.94
533.755	7.03
534.099	7.12
534.444	7.18
534.788	7.26
535.133	7.33
535.477	7.44
535.822	7.55
536.166	7.65
536.51	7.77
536.855	7.91
537.199	8.04
537.543	8.19
537.887	8.35
538.231	8.49
538.576	8.64
538.92	8.79
539.264	8.93
539.608	9.07
539.951	9.19
540.295	9.34
540.639	9.47
540.983	9.59
541.327	9.71
541.671	9.83
542.014	9.98
542.358	10.13
542.701	10.27
543.045	10.38
543.389	10.51
543.732	10.64
544.075	10.78
544.419	10.9
544.762	11.04
545.105	11.19
545.449	11.36
545.792	11.53
546.135	11.7
546.478	11.87
546.821	12.06
547.165	12.27
547.508	12.46
547.851	12.67
548.194	12.86
548.536	13.08
548.879	13.29
549.222	13.47
549.565	13.69
549.908	13.88
550.25	14.1
550.593	14.33
550.936	14.56
551.278	14.81
551.621	15.04
551.963	15.3
552.306	15.52
552.648	15.75
552.991	15.99
553.333	16.21
553.675	16.45
554.017	16.65
554.36	16.86
554.702	17.05
555.044	17.27
555.386	17.54
555.728	17.81
556.07	18.05
556.412	18.36
556.754	18.6
557.096	18.87
557.438	19.14
557.78	19.4
558.121	19.67
558.463	19.93
558.805	20.22
559.147	20.47
559.488	20.69
559.83	20.96
560.171	21.16
560.513	21.4
560.854	21.65
561.196	21.9
561.537	22.2
561.878	22.49
562.22	22.77
562.561	23.01
562.902	23.25
563.243	23.51
563.584	23.72
563.925	23.97
564.266	24.2
564.607	24.45
564.948	24.7
565.289	24.91
565.63	25.14
565.971	25.35
566.312	25.57
566.653	25.87
566.993	26.11
567.334	26.4
567.675	26.63
568.015	26.87
568.356	27.12
568.696	27.33
569.037	27.53
569.377	27.71
569.718	27.94
570.058	28.12
570.398	28.31
570.739	28.49
571.079	28.7
571.419	28.93
571.759	29.12
572.099	29.32
572.439	29.56
572.779	29.75
573.119	29.93
573.459	30.1
573.799	30.23
574.139	30.39
574.479	30.59
574.819	30.8
575.158	30.98
575.498	31.23
575.838	31.36
576.177	31.57
576.517	31.76
576.856	31.93
577.196	32.18
577.535	32.41
577.875	32.65
578.214	32.84
578.553	33.02
578.893	33.32
579.232	33.51
579.571	33.67
579.91	33.8
580.25	34.04
580.589	34.26
580.928	34.47
581.267	34.69
581.606	34.83
581.945	34.96
582.283	35.16
582.622	35.27
582.961	35.52
583.3	35.66
583.639	35.83
583.977	36.05
584.316	36.22
584.654	36.44
584.993	36.57
585.332	36.75
585.67	36.94
586.008	37.05
586.347	37.2
586.685	37.35
587.024	37.58
587.362	37.71
587.7	37.94
588.038	38.1
588.376	38.29
588.715	38.42
589.053	38.61
589.391	38.81
589.729	38.93
590.067	39.06
590.404	39.25
590.742	39.44
591.08	39.52
591.418	39.62
591.756	39.65
592.093	39.78
592.431	39.92
592.769	40.04
593.106	40.09
593.444	40.24
593.781	40.37
594.119	40.51
594.456	40.61
594.793	40.65
595.131	40.77
595.468	40.87
595.805	41.02
596.143	41.11
596.48	41.15
596.817	41.25
597.154	41.39
597.491	41.49
597.828	41.5
598.165	41.65
598.502	41.77
598.839	41.94
599.176	42.09
599.512	42.14
599.849	42.27
600.186	42.4
600.523	42.48
600.859	42.58
601.196	42.63
601.532	42.77
601.869	42.88
602.205	42.95
602.542	43.01
602.878	43.05
603.215	43.18
603.551	43.25
603.887	43.41
604.223	43.51
604.56	43.59
604.896	43.69
605.232	43.75
605.568	43.84
605.904	43.91
606.24	43.97
606.576	44.08
606.912	44.2
607.248	44.32
607.583	44.48
607.919	44.54
608.255	44.74
608.591	44.83
608.926	44.91
609.262	44.94
609.597	45.01
609.933	45.1
610.268	45.21
610.604	45.32
610.939	45.33
611.275	45.33
611.61	45.37
611.945	45.46
612.281	45.52
612.616	45.66
612.951	45.76
613.286	45.86
613.621	45.94
613.956	45.98
614.291	46.01
614.626	46.09
614.961	46.21
615.296	46.21
615.631	46.32
615.966	46.38
616.3	46.56
616.635	46.7
616.97	46.82
617.304	46.76
617.639	46.89
617.973	46.92
618.308	47.1
618.642	47.13
618.977	47.18
619.311	47.27
619.646	47.36
619.98	47.46
620.314	47.54
620.648	47.62
620.983	47.7
621.317	47.76
621.651	47.72
621.985	47.74
622.319	47.8
622.653	47.89
622.987	47.99
623.321	48.03
623.655	48.02
623.988	48.11
624.322	48.19
624.656	48.16
624.99	48.23
625.323	48.14
625.657	48.28
625.99	48.4
626.324	48.47
626.657	48.34
626.991	48.38
627.324	48.46
627.658	48.45
627.991	48.52
628.324	48.59
628.657	48.68
628.991	48.79
629.324	48.87
629.657	48.84
629.99	48.91
630.323	49
630.656	49.04
630.989	49.03
631.322	49.18
631.655	49.28
631.987	49.39
632.32	49.54
632.653	49.56
632.986	49.52
633.318	49.56
633.651	49.67
633.984	49.68
634.316	49.63
634.649	49.71
634.981	49.74
635.313	49.77
635.646	49.79
635.978	49.78
636.31	49.78
636.643	49.83
636.975	49.88
637.307	49.85
637.639	49.95
637.971	49.99
638.303	49.92
638.635	49.9
638.967	49.89
639.299	49.85
639.631	49.89
639.963	49.98
640.295	50
640.626	50.03
640.958	50.04
641.29	50.13
641.621	50.15
641.953	50.22
642.285	50.35
642.616	50.48
642.948	50.66
643.279	50.7
643.61	50.8
643.942	50.8
644.273	50.87
644.604	50.85
644.936	50.94
645.267	51.06
645.598	51.14
645.929	51.29
646.26	51.29
646.591	51.34
646.922	51.4
647.253	51.5
647.584	51.57
647.915	51.63
648.245	51.69
648.576	51.79
648.907	51.63
649.238	51.51
649.568	51.5
649.899	51.44
650.229	51.4
650.56	51.4
650.89	51.45
651.221	51.5
651.551	51.66
651.882	51.72
652.212	51.7
652.542	51.73
652.872	51.66
653.203	51.75
653.533	51.72
653.863	51.69
654.193	51.68
654.523	51.74
654.853	51.8
655.183	51.87
655.513	51.97
655.843	52.09
656.172	52.2
656.502	52.23
656.832	52.21
657.162	52.28
657.491	52.27
657.821	52.32
658.15	52.35
658.48	52.36
658.809	52.36
659.139	52.42
659.468	52.46
659.798	52.46
660.127	52.43
660.456	52.59
660.785	52.64
661.115	52.65
661.444	52.74
661.773	52.83
662.102	52.84
662.431	52.83
662.76	52.99
663.089	52.99
663.418	52.95
663.747	52.96
664.076	53.05
664.404	53.27
664.733	53.27
665.062	53.28
665.39	53.2
665.719	53.21
666.048	53.21
666.376	53.19
666.705	53.37
667.033	53.42
667.362	53.3
667.69	53.31
668.018	53.38
668.347	53.34
668.675	53.23
669.003	53.22
669.331	53.28
669.659	53.12
669.987	53.13
670.315	53.29
