Data from BA48648_Reflection_00006.txt Node
Date: Tue Nov 19 11:44:33 EST 2019
User: vgr7
Spectrometer: USB2G7710
Scans to average: 3
Trigger mode: 4
Integration Time (sec): 2.000000E-2
Electric dark correction enabled: true
Boxcar width: 10
XAxis mode: Wavelengths
Number of Pixels in Spectrum: 2048
>>>>>Begin Spectral Data<<<<<
177.721	122.28
178.105	144.94
178.488	187.83
178.871	155.29
179.254	116.95
179.636	249.35
180.019	2424.32
180.402	766.67
180.785	-228
181.168	132.47
181.55	95.52
181.933	393.58
182.316	908.22
182.698	236.21
183.081	-483.82
183.463	-93.2
183.846	-104.08
184.228	-87.91
184.611	-53.5
184.993	-30.57
185.376	-23.91
185.758	-18.91
186.14	-32.07
186.522	-21.53
186.904	-12.05
187.287	-13
187.669	-18.2
188.051	-14.28
188.433	-9.31
188.815	-1.93
189.197	-1.63
189.579	3.26
189.961	3.6
190.342	7.88
190.724	8.14
191.106	1.75
191.488	2.4
191.869	1.27
192.251	-0.09
192.633	1.75
193.014	1.03
193.396	3.11
193.777	10.74
194.159	13.9
194.54	15.2
194.922	5.06
195.303	8.91
195.684	13.68
196.065	16.63
196.447	25.99
196.828	20.57
197.209	20.82
197.59	10
197.971	8.04
198.352	4.96
198.733	5.07
199.114	12.03
199.495	7.38
199.876	4.87
200.257	7.03
200.638	7.06
201.018	6.09
201.399	3.45
201.78	4.89
202.16	1.85
202.541	0.39
202.922	-0.77
203.302	3.84
203.683	12.12
204.063	10.44
204.444	6.55
204.824	-5.78
205.204	-10.51
205.585	1.17
205.965	-4.44
206.345	0.87
206.725	2.4
207.106	0.27
207.486	2.1
207.866	9.69
208.246	15.6
208.626	9.31
209.006	6.38
209.386	9.38
209.766	4.39
210.145	3.32
210.525	-5.06
210.905	-2.79
211.285	-5.73
211.664	-1.84
212.044	-3.92
212.424	-2.34
212.803	3.21
213.183	4.57
213.562	1.8
213.942	2.83
214.321	-2.23
214.701	-8.11
215.08	-10.08
215.459	-7.84
215.838	-10.18
216.218	-19.95
216.597	-14.78
216.976	-17.92
217.355	-30.65
217.734	-40.99
218.113	-20.03
218.492	-21.74
218.871	-6.18
219.25	-4.04
219.629	-30.35
220.008	-14.12
220.387	-15.79
220.766	-7.93
221.144	-7.94
221.523	-10.21
221.902	-8.06
222.28	5.9
222.659	15.61
223.037	22.65
223.416	30.58
223.794	27.62
224.173	19.3
224.551	20.84
224.929	19.04
225.308	28.76
225.686	21.31
226.064	12.42
226.442	16.89
226.821	9.99
227.199	8.51
227.577	11.05
227.955	10.17
228.333	8.38
228.711	9.3
229.089	9.43
229.467	8.43
229.845	9.33
230.222	6.93
230.6	5.31
230.978	5.3
231.356	2.4
231.733	2.65
232.111	7.53
232.488	7.71
232.866	7.55
233.243	3.64
233.621	6.59
233.998	6.19
234.376	5.19
234.753	6.12
235.13	6.08
235.508	6.7
235.885	4.73
236.262	3.89
236.639	3.85
237.016	4.81
237.393	6.08
237.77	7
238.147	5.92
238.524	5.6
238.901	4.61
239.278	4.3
239.655	4.11
240.032	3.72
240.409	3.42
240.785	3.48
241.162	4.35
241.539	4.19
241.915	4.12
242.292	4.54
242.668	4.25
243.045	4.04
243.421	4.56
243.798	4.67
244.174	5.22
244.551	4.9
244.927	4.66
245.303	4.42
245.679	4.09
246.056	4.04
246.432	4.02
246.808	4.19
247.184	4.33
247.56	4.14
247.936	3.99
248.312	4.06
248.688	3.96
249.064	3.87
249.44	3.6
249.815	3.4
250.191	3.18
250.567	3.34
250.943	3.59
251.318	3.27
251.694	3.19
252.069	2.78
252.445	2.73
252.82	2.76
253.196	2.53
253.571	2.73
253.947	2.84
254.322	2.87
254.697	2.71
255.073	2.58
255.448	2.76
255.823	2.86
256.198	2.72
256.573	2.88
256.948	3.13
257.323	3.35
257.698	3.59
258.073	3.47
258.448	3.43
258.823	3.21
259.198	3.03
259.573	2.76
259.948	2.98
260.322	2.94
260.697	3.07
261.072	3.22
261.446	3.06
261.821	2.9
262.195	2.95
262.57	2.95
262.944	3.04
263.319	3
263.693	2.87
264.067	2.92
264.442	2.74
264.816	2.6
265.19	2.52
265.564	2.45
265.938	2.6
266.313	2.6
266.687	2.52
267.061	2.84
267.435	3.08
267.809	2.8
268.183	2.79
268.556	2.61
268.93	2.72
269.304	2.75
269.678	3.14
270.051	3.1
270.425	3.04
270.799	2.75
271.172	2.78
271.546	2.86
271.919	2.9
272.293	2.97
272.666	2.98
273.04	3.04
273.413	3.06
273.787	3.09
274.16	2.87
274.533	3.12
274.906	3.04
275.279	3.01
275.653	3.38
276.026	3.48
276.399	3.46
276.772	3.35
277.145	3.4
277.518	3.09
277.891	3.02
278.263	3.18
278.636	3.37
279.009	3.42
279.382	3.36
279.755	3.16
280.127	3.08
280.5	3.05
280.872	3.01
281.245	2.96
281.617	2.99
281.99	3.26
282.362	3.15
282.735	3.02
283.107	3.03
283.479	2.85
283.852	2.8
284.224	2.99
284.596	2.97
284.968	3.02
285.34	3.08
285.713	3.23
286.085	3.07
286.457	3.12
286.829	3.07
287.201	3.08
287.572	3.21
287.944	3.34
288.316	3.37
288.688	3.48
289.06	3.47
289.431	3.55
289.803	3.51
290.175	3.55
290.546	3.59
290.918	3.61
291.289	3.51
291.661	3.45
292.032	3.29
292.403	3.27
292.775	3.28
293.146	3.33
293.517	3.22
293.889	3.35
294.26	3.26
294.631	3.36
295.002	3.4
295.373	3.39
295.744	3.39
296.115	3.37
296.486	3.28
296.857	3.43
297.228	3.32
297.599	3.22
297.97	3.2
298.34	3.19
298.711	3.19
299.082	3.27
299.452	3.25
299.823	3.27
300.194	3.35
300.564	3.29
300.935	3.28
301.305	3.22
301.676	3.08
302.046	3.14
302.416	3.17
302.787	3.1
303.157	3.08
303.527	3.07
303.897	3
304.267	2.84
304.637	2.64
305.008	2.58
305.378	2.8
305.748	2.81
306.117	2.8
306.487	2.8
306.857	2.81
307.227	3
307.597	2.95
307.967	2.78
308.336	2.74
308.706	2.77
309.076	2.92
309.445	3.1
309.815	3.03
310.184	2.82
310.554	2.8
310.923	2.8
311.293	2.83
311.662	2.88
312.031	2.95
312.401	2.91
312.77	2.9
313.139	2.77
313.508	2.7
313.877	2.78
314.246	2.84
314.616	2.84
314.985	2.72
315.353	2.81
315.722	2.94
316.091	2.97
316.46	2.91
316.829	2.8
317.198	2.91
317.567	3
317.935	3.14
318.304	3.29
318.672	3.29
319.041	3.37
319.41	3.27
319.778	3.38
320.147	3.46
320.515	3.48
320.883	3.48
321.252	3.55
321.62	3.43
321.988	3.32
322.357	3.21
322.725	3.24
323.093	3.11
323.461	3.14
323.829	3.13
324.197	3.17
324.565	3.12
324.933	2.97
325.301	2.87
325.669	2.83
326.037	2.9
326.405	2.9
326.772	2.84
327.14	2.88
327.508	2.81
327.875	2.75
328.243	2.73
328.61	2.72
328.978	2.67
329.346	2.76
329.713	2.83
330.08	2.96
330.448	2.97
330.815	3.16
331.182	2.98
331.55	3.07
331.917	3.11
332.284	3.14
332.651	3.09
333.018	3.23
333.385	3.33
333.752	3.31
334.119	3.34
334.486	3.38
334.853	3.25
335.22	3.2
335.587	3.23
335.954	3.28
336.32	3.19
336.687	3.19
337.054	3.09
337.42	3.05
337.787	2.91
338.153	2.91
338.52	2.82
338.886	2.91
339.253	2.82
339.619	2.72
339.986	2.73
340.352	2.74
340.718	2.69
341.084	2.59
341.451	2.53
341.817	2.43
342.183	2.42
342.549	2.52
342.915	2.61
343.281	2.55
343.647	2.51
344.013	2.56
344.379	2.56
344.745	2.67
345.11	2.65
345.476	2.83
345.842	2.83
346.208	2.83
346.573	2.87
346.939	2.85
347.304	3
347.67	2.98
348.035	2.98
348.401	3.05
348.766	3.08
349.132	3.05
349.497	3.07
349.862	2.99
350.228	2.98
350.593	2.94
350.958	3.11
351.323	3.16
351.688	3.12
352.053	3.15
352.418	3.03
352.783	3.1
353.148	2.99
353.513	2.96
353.878	2.94
354.243	2.88
354.608	2.9
354.972	2.79
355.337	2.77
355.702	2.75
356.066	2.67
356.431	2.72
356.795	2.72
357.16	2.74
357.524	2.72
357.889	2.71
358.253	2.75
358.618	2.68
358.982	2.69
359.346	2.69
359.71	2.62
360.075	2.71
360.439	2.65
360.803	2.62
361.167	2.56
361.531	2.56
361.895	2.56
362.259	2.58
362.623	2.61
362.987	2.68
363.351	2.69
363.714	2.69
364.078	2.65
364.442	2.59
364.806	2.57
365.169	2.6
365.533	2.6
365.896	2.59
366.26	2.6
366.623	2.57
366.987	2.59
367.35	2.67
367.714	2.61
368.077	2.67
368.44	2.68
368.803	2.74
369.167	2.72
369.53	2.73
369.893	2.76
370.256	2.72
370.619	2.68
370.982	2.63
371.345	2.67
371.708	2.65
372.071	2.73
372.434	2.76
372.797	2.74
373.159	2.69
373.522	2.71
373.885	2.7
374.247	2.68
374.61	2.67
374.973	2.58
375.335	2.56
375.698	2.53
376.06	2.49
376.423	2.47
376.785	2.5
377.147	2.44
377.51	2.45
377.872	2.43
378.234	2.39
378.596	2.46
378.958	2.39
379.321	2.42
379.683	2.4
380.045	2.34
380.407	2.41
380.769	2.45
381.13	2.39
381.492	2.38
381.854	2.4
382.216	2.45
382.578	2.53
382.939	2.56
383.301	2.53
383.663	2.58
384.024	2.64
384.386	2.64
384.747	2.69
385.109	2.7
385.47	2.73
385.832	2.79
386.193	2.78
386.554	2.76
386.916	2.77
387.277	2.79
387.638	2.83
387.999	2.76
388.36	2.74
388.721	2.81
389.082	2.88
389.443	2.86
389.804	2.84
390.165	2.83
390.526	2.81
390.887	2.87
391.248	2.9
391.609	2.89
391.969	2.89
392.33	2.87
392.691	2.83
393.051	2.79
393.412	2.74
393.772	2.73
394.133	2.78
394.493	2.78
394.854	2.8
395.214	2.78
395.574	2.79
395.935	2.83
396.295	2.81
396.655	2.74
397.015	2.75
397.376	2.77
397.736	2.75
398.096	2.78
398.456	2.77
398.816	2.73
399.176	2.66
399.535	2.65
399.895	2.66
400.255	2.69
400.615	2.74
400.975	2.77
401.334	2.77
401.694	2.77
402.054	2.72
402.413	2.7
402.773	2.71
403.132	2.73
403.492	2.71
403.851	2.71
404.211	2.73
404.57	2.72
404.929	2.72
405.288	2.73
405.648	2.69
406.007	2.66
406.366	2.7
406.725	2.71
407.084	2.68
407.443	2.71
407.802	2.68
408.161	2.68
408.52	2.71
408.879	2.72
409.238	2.73
409.596	2.73
409.955	2.71
410.314	2.71
410.673	2.74
411.031	2.72
411.39	2.72
411.748	2.69
412.107	2.72
412.465	2.71
412.824	2.72
413.182	2.74
413.54	2.76
413.899	2.74
414.257	2.76
414.615	2.81
414.974	2.83
415.332	2.82
415.69	2.79
416.048	2.75
416.406	2.74
416.764	2.72
417.122	2.71
417.48	2.73
417.838	2.73
418.195	2.7
418.553	2.71
418.911	2.72
419.269	2.72
419.626	2.7
419.984	2.71
420.342	2.71
420.699	2.7
421.057	2.69
421.414	2.7
421.772	2.71
422.129	2.7
422.486	2.69
422.844	2.69
423.201	2.71
423.558	2.71
423.915	2.72
424.273	2.73
424.63	2.75
424.987	2.75
425.344	2.76
425.701	2.78
426.058	2.78
426.415	2.77
426.772	2.79
427.128	2.79
427.485	2.79
427.842	2.79
428.199	2.81
428.555	2.81
428.912	2.81
429.269	2.79
429.625	2.81
429.982	2.81
430.338	2.83
430.695	2.84
431.051	2.83
431.407	2.82
431.764	2.81
432.12	2.81
432.476	2.82
432.832	2.8
433.189	2.8
433.545	2.78
433.901	2.78
434.257	2.78
434.613	2.79
434.969	2.8
435.325	2.8
435.681	2.78
436.036	2.8
436.392	2.81
436.748	2.81
437.104	2.81
437.459	2.8
437.815	2.8
438.171	2.8
438.526	2.79
438.882	2.8
439.237	2.81
439.593	2.83
439.948	2.82
440.304	2.83
440.659	2.82
441.014	2.82
441.369	2.83
441.725	2.83
442.08	2.82
442.435	2.83
442.79	2.81
443.145	2.83
443.5	2.81
443.855	2.8
444.21	2.8
444.565	2.81
444.92	2.82
445.275	2.83
445.629	2.81
445.984	2.82
446.339	2.82
446.693	2.82
447.048	2.8
447.403	2.79
447.757	2.79
448.112	2.79
448.466	2.81
448.82	2.81
449.175	2.81
449.529	2.82
449.883	2.79
450.238	2.8
450.592	2.79
450.946	2.8
451.3	2.81
451.654	2.81
452.008	2.8
452.362	2.78
452.716	2.76
453.07	2.77
453.424	2.79
453.778	2.76
454.132	2.77
454.486	2.79
454.839	2.79
455.193	2.77
455.547	2.78
455.9	2.79
456.254	2.79
456.607	2.8
456.961	2.79
457.314	2.83
457.668	2.83
458.021	2.84
458.375	2.85
458.728	2.85
459.081	2.85
459.434	2.84
459.787	2.85
460.141	2.87
460.494	2.87
460.847	2.85
461.2	2.87
461.553	2.89
461.906	2.87
462.259	2.88
462.611	2.89
462.964	2.89
463.317	2.87
463.67	2.89
464.022	2.9
464.375	2.9
464.728	2.88
465.08	2.87
465.433	2.86
465.785	2.85
466.138	2.86
466.49	2.89
466.843	2.9
467.195	2.9
467.547	2.89
467.899	2.91
468.252	2.91
468.604	2.91
468.956	2.9
469.308	2.91
469.66	2.92
470.012	2.93
470.364	2.94
470.716	2.95
471.068	2.94
471.42	2.93
471.772	2.93
472.123	2.93
472.475	2.94
472.827	2.94
473.178	2.97
473.53	2.95
473.882	2.95
474.233	2.93
474.585	2.91
474.936	2.9
475.288	2.87
475.639	2.88
475.99	2.87
476.342	2.88
476.693	2.87
477.044	2.87
477.395	2.85
477.746	2.84
478.097	2.84
478.448	2.83
478.8	2.84
479.15	2.84
479.501	2.84
479.852	2.85
480.203	2.88
480.554	2.87
480.905	2.88
481.255	2.88
481.606	2.89
481.957	2.9
482.307	2.91
482.658	2.92
483.009	2.93
483.359	2.93
483.709	2.93
484.06	2.94
484.41	2.95
484.761	2.96
485.111	2.96
485.461	2.97
485.811	2.97
486.162	2.97
486.512	2.98
486.862	2.99
487.212	2.99
487.562	2.98
487.912	2.98
488.262	2.98
488.612	2.98
488.961	2.99
489.311	2.99
489.661	2.99
490.011	2.98
490.36	2.98
490.71	2.97
491.06	2.97
491.409	2.97
491.759	2.97
492.108	2.97
492.458	2.97
492.807	2.97
493.157	2.97
493.506	2.97
493.855	2.96
494.204	2.95
494.554	2.96
494.903	2.96
495.252	2.97
495.601	2.97
495.95	2.98
496.299	2.98
496.648	2.99
496.997	3
497.346	3.02
497.695	3.04
498.043	3.03
498.392	3.04
498.741	3.04
499.09	3.04
499.438	3.04
499.787	3.06
500.135	3.06
500.484	3.06
500.832	3.07
501.181	3.08
501.529	3.1
501.878	3.12
502.226	3.13
502.574	3.12
502.923	3.12
503.271	3.12
503.619	3.13
503.967	3.13
504.315	3.14
504.663	3.12
505.011	3.11
505.359	3.13
505.707	3.13
506.055	3.15
506.403	3.13
506.751	3.14
507.098	3.14
507.446	3.14
507.794	3.15
508.141	3.18
508.489	3.19
508.837	3.18
509.184	3.17
509.531	3.16
509.879	3.15
510.226	3.15
510.574	3.17
510.921	3.17
511.268	3.19
511.616	3.19
511.963	3.21
512.31	3.22
512.657	3.22
513.004	3.2
513.351	3.18
513.698	3.2
514.045	3.19
514.392	3.2
514.739	3.2
515.086	3.22
515.432	3.2
515.779	3.19
516.126	3.2
516.473	3.21
516.819	3.23
517.166	3.25
517.512	3.26
517.859	3.25
518.205	3.24
518.552	3.23
518.898	3.23
519.245	3.24
519.591	3.23
519.937	3.24
520.283	3.26
520.629	3.28
520.976	3.27
521.322	3.29
521.668	3.29
522.014	3.29
522.36	3.29
522.706	3.3
523.052	3.32
523.398	3.32
523.743	3.32
524.089	3.33
524.435	3.32
524.781	3.33
525.126	3.34
525.472	3.36
525.817	3.35
526.163	3.36
526.509	3.38
526.854	3.39
527.199	3.39
527.545	3.4
527.89	3.4
528.235	3.4
528.581	3.4
528.926	3.39
529.271	3.4
529.616	3.4
529.961	3.4
530.306	3.39
530.651	3.39
530.996	3.4
531.341	3.4
531.686	3.4
532.031	3.4
532.376	3.39
532.721	3.39
533.065	3.4
533.41	3.4
533.755	3.38
534.099	3.38
534.444	3.38
534.788	3.38
535.133	3.39
535.477	3.39
535.822	3.4
536.166	3.4
536.51	3.4
536.855	3.39
537.199	3.4
537.543	3.41
537.887	3.41
538.231	3.4
538.576	3.39
538.92	3.4
539.264	3.4
539.608	3.4
539.951	3.4
540.295	3.4
540.639	3.4
540.983	3.41
541.327	3.41
541.671	3.4
542.014	3.43
542.358	3.4
542.701	3.42
543.045	3.43
543.389	3.44
543.732	3.44
544.075	3.45
544.419	3.44
544.762	3.44
545.105	3.44
545.449	3.47
545.792	3.49
546.135	3.5
546.478	3.52
546.821	3.53
547.165	3.54
547.508	3.56
547.851	3.55
548.194	3.54
548.536	3.54
548.879	3.53
549.222	3.5
549.565	3.52
549.908	3.51
550.25	3.49
550.593	3.48
550.936	3.5
551.278	3.49
551.621	3.51
551.963	3.54
552.306	3.55
552.648	3.51
552.991	3.53
553.333	3.52
553.675	3.53
554.017	3.54
554.36	3.53
554.702	3.54
555.044	3.57
555.386	3.58
555.728	3.6
556.07	3.62
556.412	3.61
556.754	3.62
557.096	3.61
557.438	3.62
557.78	3.61
558.121	3.63
558.463	3.63
558.805	3.62
559.147	3.64
559.488	3.64
559.83	3.64
560.171	3.6
560.513	3.61
560.854	3.58
561.196	3.58
561.537	3.6
561.878	3.59
562.22	3.58
562.561	3.6
562.902	3.58
563.243	3.59
563.584	3.6
563.925	3.6
564.266	3.59
564.607	3.57
564.948	3.6
565.289	3.6
565.63	3.6
565.971	3.62
566.312	3.57
566.653	3.57
566.993	3.56
567.334	3.59
567.675	3.58
568.015	3.61
568.356	3.62
568.696	3.63
569.037	3.63
569.377	3.65
569.718	3.63
570.058	3.64
570.398	3.63
570.739	3.63
571.079	3.61
571.419	3.63
571.759	3.64
572.099	3.61
572.439	3.6
572.779	3.6
573.119	3.62
573.459	3.65
573.799	3.63
574.139	3.61
574.479	3.61
574.819	3.63
575.158	3.6
575.498	3.59
575.838	3.55
576.177	3.53
576.517	3.5
576.856	3.48
577.196	3.47
577.535	3.48
577.875	3.46
578.214	3.46
578.553	3.46
578.893	3.48
579.232	3.51
579.571	3.51
579.91	3.49
580.25	3.44
580.589	3.44
580.928	3.46
581.267	3.5
581.606	3.49
581.945	3.47
582.283	3.48
582.622	3.49
582.961	3.53
583.3	3.53
583.639	3.57
583.977	3.62
584.316	3.62
584.654	3.64
584.993	3.68
585.332	3.71
585.67	3.73
586.008	3.74
586.347	3.73
586.685	3.74
587.024	3.77
587.362	3.76
587.7	3.8
588.038	3.81
588.376	3.83
588.715	3.84
589.053	3.85
589.391	3.87
589.729	3.86
590.067	3.84
590.404	3.88
590.742	3.88
591.08	3.86
591.418	3.89
591.756	3.88
592.093	3.88
592.431	3.87
592.769	3.85
593.106	3.82
593.444	3.8
593.781	3.79
594.119	3.81
594.456	3.83
594.793	3.8
595.131	3.8
595.468	3.81
595.805	3.79
596.143	3.8
596.48	3.77
596.817	3.74
597.154	3.75
597.491	3.72
597.828	3.69
598.165	3.68
598.502	3.66
598.839	3.66
599.176	3.66
599.512	3.64
599.849	3.69
600.186	3.71
600.523	3.74
600.859	3.72
601.196	3.7
601.532	3.69
601.869	3.73
602.205	3.7
602.542	3.71
602.878	3.74
603.215	3.72
603.551	3.73
603.887	3.77
604.223	3.78
604.56	3.82
604.896	3.84
605.232	3.87
605.568	3.88
605.904	3.87
606.24	3.88
606.576	3.9
606.912	3.85
607.248	3.84
607.583	3.84
607.919	3.86
608.255	3.9
608.591	3.89
608.926	3.82
609.262	3.8
609.597	3.76
609.933	3.78
610.268	3.82
610.604	3.81
610.939	3.79
611.275	3.79
611.61	3.75
611.945	3.72
612.281	3.67
612.616	3.7
612.951	3.74
613.286	3.72
613.621	3.71
613.956	3.75
614.291	3.73
614.626	3.74
614.961	3.77
615.296	3.73
615.631	3.73
615.966	3.76
616.3	3.83
616.635	3.87
616.97	3.8
617.304	3.79
617.639	3.81
617.973	3.81
618.308	3.8
618.642	3.81
618.977	3.83
619.311	3.83
619.646	3.83
619.98	3.83
620.314	3.87
620.648	3.9
620.983	3.85
621.317	3.88
621.651	3.89
621.985	3.9
622.319	3.91
622.653	3.92
622.987	3.93
623.321	3.95
623.655	3.93
623.988	3.97
624.322	3.92
624.656	3.94
624.99	3.94
625.323	3.95
625.657	3.97
625.99	3.98
626.324	3.97
626.657	3.94
626.991	3.87
627.324	3.85
627.658	3.83
627.991	3.9
628.324	3.86
628.657	3.87
628.991	3.82
629.324	3.84
629.657	3.85
629.99	3.86
630.323	3.79
630.656	3.8
630.989	3.8
631.322	3.85
631.655	3.85
631.987	3.91
632.32	3.94
632.653	3.88
632.986	3.92
633.318	3.94
633.651	3.99
633.984	4.04
634.316	4.05
634.649	4.06
634.981	4.03
635.313	4.06
635.646	4.01
635.978	4.05
636.31	4.03
636.643	3.98
636.975	4
637.307	4.12
637.639	4.17
637.971	4.15
638.303	4.1
638.635	4.13
638.967	4.06
639.299	4.01
639.631	4.06
639.963	4.09
640.295	4.11
640.626	4.05
640.958	4.07
641.29	4.06
641.621	4.05
641.953	4.03
642.285	4.12
642.616	4.18
642.948	4.18
643.279	4.18
643.61	4.25
643.942	4.22
644.273	4.13
644.604	4.13
644.936	4.11
645.267	4.15
645.598	4.13
645.929	4.16
646.26	4.19
646.591	4.2
646.922	4.14
647.253	4.11
647.584	4.11
647.915	4.14
648.245	4.12
648.576	4.07
648.907	4.17
649.238	4.11
649.568	4.07
649.899	4.06
650.229	4.1
650.56	4.14
650.89	4.17
651.221	4.18
651.551	4.19
651.882	4.16
652.212	4.17
652.542	4.16
652.872	4.18
653.203	4.17
653.533	4.16
653.863	4.2
654.193	4.2
654.523	4.21
654.853	4.25
655.183	4.27
655.513	4.32
655.843	4.25
656.172	4.31
656.502	4.31
656.832	4.36
657.162	4.28
657.491	4.24
657.821	4.19
658.15	4.2
658.48	4.19
658.809	4.21
659.139	4.21
659.468	4.23
659.798	4.24
660.127	4.27
660.456	4.29
660.785	4.26
661.115	4.33
661.444	4.37
661.773	4.34
662.102	4.33
662.431	4.36
662.76	4.39
663.089	4.42
663.418	4.47
663.747	4.4
664.076	4.48
664.404	4.5
664.733	4.63
665.062	4.58
665.39	4.58
665.719	4.65
666.048	4.62
666.376	4.63
666.705	4.58
667.033	4.62
667.362	4.61
667.69	4.66
668.018	4.61
668.347	4.6
668.675	4.6
669.003	4.61
669.331	4.56
669.659	4.45
669.987	4.36
670.315	4.32
670.643	4.34
670.971	4.33
671.299	4.34
671.627	4.27
671.955	4.34
672.283	4.33
672.61	4.33
672.938	4.39
673.266	4.39
673.593	4.4
673.921	4.28
674.249	4.23
674.576	4.25
674.904	4.21
675.231	4.22
675.558	4.26
675.886	4.23
676.213	4.21
676.54	4.32
676.867	4.34
677.195	4.37
677.522	4.42
677.849	4.37
678.176	4.43
678.503	4.39
678.83	4.43
679.157	4.43
679.484	4.36
679.81	4.36
680.137	4.42
680.464	4.38
680.791	4.47
681.117	4.54
681.444	4.54
