Data from BA48287_Reflection_00008.txt Node
Date: Tue Nov 19 11:43:34 EST 2019
User: vgr7
Spectrometer: USB2G7710
Scans to average: 3
Trigger mode: 4
Integration Time (sec): 2.000000E-2
Electric dark correction enabled: true
Boxcar width: 10
XAxis mode: Wavelengths
Number of Pixels in Spectrum: 2048
>>>>>Begin Spectral Data<<<<<
177.721	-17.29
178.105	-9.93
178.488	-0.99
178.871	-5.13
179.254	-9.4
179.636	24.77
180.019	94.69
180.402	28.57
180.785	18.79
181.168	40.48
181.55	165.84
181.933	96.36
182.316	201.55
182.698	-7677.78
183.081	-144.13
183.463	17433.33
183.846	784.68
184.228	-397.51
184.611	-842.53
184.993	-938.1
185.376	-205.71
185.758	-183.14
186.14	-154.09
186.522	-146.69
186.904	-131.64
187.287	-131.46
187.669	-124.89
188.051	-136.33
188.433	-358.57
188.815	-552.42
189.197	-286.12
189.579	-138.32
189.961	-94.8
190.342	-70.94
190.724	-83.81
191.106	-99.9
191.488	-99.63
191.869	-74.16
192.251	-73.6
192.633	-65.82
193.014	-55.41
193.396	-48.32
193.777	-32.37
194.159	-40.51
194.54	-28.27
194.922	-35.66
195.303	-40.21
195.684	-40.17
196.065	-43.02
196.447	-38.52
196.828	-34.04
197.209	-33.43
197.59	-21.62
197.971	-32.99
198.352	-29.39
198.733	-26.65
199.114	-24.12
199.495	-14
199.876	-16.91
200.257	-28.75
200.638	-32.21
201.018	-47.89
201.399	-59.5
201.78	-69.67
202.16	-66.85
202.541	-82.23
202.922	-87.9
203.302	-78.49
203.683	-92.53
204.063	-94.04
204.444	-81.06
204.824	-102.28
205.204	-104.3
205.585	-129.9
205.965	-150.16
206.345	-145.05
206.725	-137.38
207.106	-126.35
207.486	-154.07
207.866	-148.04
208.246	-127.68
208.626	-147.95
209.006	-143.38
209.386	-132.9
209.766	-159.38
210.145	-139.83
210.525	-145.48
210.905	-109.67
211.285	-101.32
211.664	-78.44
212.044	-75.34
212.424	-70.59
212.803	-62.84
213.183	-63.2
213.562	-54.07
213.942	-53.23
214.321	-68.92
214.701	-68.18
215.08	-74.27
215.459	-61.59
215.838	-61.76
216.218	-81.65
216.597	-62.8
216.976	-72.79
217.355	-77.5
217.734	-76.67
218.113	-58.81
218.492	-53.58
218.871	-64.76
219.25	-61.93
219.629	-77.66
220.008	-74.76
220.387	-80.54
220.766	-74.72
221.144	-84.91
221.523	-100.18
221.902	-77.45
222.28	-59.38
222.659	-43.6
223.037	-41.21
223.416	-41.63
223.794	-37.72
224.173	-35.41
224.551	-31.68
224.929	-22.44
225.308	-18.07
225.686	-10.89
226.064	-21.8
226.442	-22.09
226.821	-15.24
227.199	-17.23
227.577	-13.96
227.955	-9.78
228.333	-8.67
228.711	-14.18
229.089	-9.18
229.467	-9.7
229.845	-12.42
230.222	-11.2
230.6	-8.31
230.978	-6.54
231.356	-5.68
231.733	-6.03
232.111	-5.27
232.488	-4.33
232.866	-3.98
233.243	-4.54
233.621	-4.05
233.998	-2.73
234.376	-4.08
234.753	-3.93
235.13	-2.15
235.508	-4.05
235.885	-4.64
236.262	-4.86
236.639	-1.78
237.016	-1.89
237.393	-0.35
237.77	1.57
238.147	2.36
238.524	1.97
238.901	1.75
239.278	1.2
239.655	2.14
240.032	2.13
240.409	2.36
240.785	2.32
241.162	2.29
241.539	2.3
241.915	2.74
242.292	3.78
242.668	3.82
243.045	3.92
243.421	4.57
243.798	5.01
244.174	5.02
244.551	4.82
244.927	4.85
245.303	4.31
245.679	4.21
246.056	4.22
246.432	4.03
246.808	4.1
247.184	4.43
247.56	4.32
247.936	4.4
248.312	4.44
248.688	4.57
249.064	4.6
249.44	4.49
249.815	4.46
250.191	4.44
250.567	4.33
250.943	4.37
251.318	4.21
251.694	3.83
252.069	3.95
252.445	4.11
252.82	4.16
253.196	4.85
253.571	4.77
253.947	4.86
254.322	4.9
254.697	4.91
255.073	4.82
255.448	4.69
255.823	4.95
256.198	4.98
256.573	4.81
256.948	4.98
257.323	5.15
257.698	5.25
258.073	5.08
258.448	4.98
258.823	4.89
259.198	4.9
259.573	4.88
259.948	4.81
260.322	4.82
260.697	4.61
261.072	4.38
261.446	4.35
261.821	4.2
262.195	4.13
262.57	4.12
262.944	4.27
263.319	4.32
263.693	4.17
264.067	4.02
264.442	4.13
264.816	4.05
265.19	3.93
265.564	3.65
265.938	3.63
266.313	3.85
266.687	3.87
267.061	3.67
267.435	3.99
267.809	3.9
268.183	3.82
268.556	4
268.93	4.26
269.304	4.28
269.678	4.38
270.051	4.61
270.425	4.68
270.799	4.4
271.172	4.34
271.546	4.57
271.919	4.61
272.293	4.63
272.666	4.61
273.04	4.52
273.413	4.57
273.787	4.67
274.16	4.61
274.533	4.63
274.906	4.84
275.279	4.61
275.653	4.53
276.026	4.4
276.399	4.4
276.772	4.31
277.145	4.41
277.518	4.33
277.891	4.27
278.263	4.12
278.636	4.26
279.009	4.4
279.382	4.25
279.755	4.26
280.127	4.25
280.5	4.32
280.872	4.59
281.245	4.72
281.617	4.66
281.99	4.8
282.362	4.87
282.735	4.8
283.107	4.84
283.479	5.13
283.852	5.2
284.224	5.2
284.596	5.13
284.968	5.12
285.34	5.24
285.713	5.3
286.085	5.33
286.457	5.28
286.829	5.21
287.201	5.25
287.572	5.29
287.944	5.23
288.316	5.28
288.688	5.24
289.06	5.22
289.431	5.35
289.803	5.3
290.175	5.32
290.546	5.37
290.918	5.41
291.289	5.42
291.661	5.48
292.032	5.62
292.403	5.65
292.775	5.81
293.146	5.82
293.517	5.85
293.889	5.84
294.26	5.97
294.631	6.1
295.002	6.08
295.373	6.13
295.744	6.33
296.115	6.39
296.486	6.5
296.857	6.52
297.228	6.48
297.599	6.44
297.97	6.59
298.34	6.74
298.711	6.74
299.082	6.78
299.452	6.92
299.823	6.94
300.194	7.05
300.564	6.89
300.935	7.05
301.305	7.1
301.676	7.3
302.046	7.28
302.416	7.3
302.787	7.4
303.157	7.52
303.527	7.54
303.897	7.53
304.267	7.65
304.637	7.77
305.008	7.86
305.378	8
305.748	7.88
306.117	7.88
306.487	8.06
306.857	8.04
307.227	8.28
307.597	8.49
307.967	8.69
308.336	8.93
308.706	8.91
309.076	9.12
309.445	9.29
309.815	9.39
310.184	9.68
310.554	9.8
310.923	9.84
311.293	10.01
311.662	10.13
312.031	10.17
312.401	10.23
312.77	10.33
313.139	10.5
313.508	10.62
313.877	10.72
314.246	10.86
314.616	10.93
314.985	10.83
315.353	10.8
315.722	10.84
316.091	10.85
316.46	11
316.829	10.97
317.198	11.06
317.567	11.43
317.935	11.47
318.304	11.62
318.672	11.68
319.041	11.63
319.41	11.69
319.778	11.57
320.147	11.68
320.515	11.73
320.883	11.75
321.252	12.04
321.62	12.21
321.988	12.22
322.357	12.42
322.725	12.62
323.093	12.76
323.461	12.94
323.829	13.03
324.197	13.29
324.565	13.54
324.933	13.56
325.301	13.36
325.669	13.36
326.037	13.45
326.405	13.72
326.772	13.85
327.14	13.97
327.508	14.06
327.875	14.14
328.243	14.21
328.61	14.26
328.978	14.18
329.346	14.25
329.713	14.48
330.08	14.64
330.448	14.67
330.815	14.74
331.182	14.68
331.55	14.81
331.917	14.64
332.284	14.73
332.651	14.84
333.018	15
333.385	14.96
333.752	15.05
334.119	15.06
334.486	15.14
334.853	15.14
335.22	15.36
335.587	15.46
335.954	15.61
336.32	15.67
336.687	15.86
337.054	16.06
337.42	16.11
337.787	15.97
338.153	16.08
338.52	16.11
338.886	16.26
339.253	16.38
339.619	16.53
339.986	16.5
340.352	16.56
340.718	16.65
341.084	16.78
341.451	16.78
341.817	16.82
342.183	16.82
342.549	16.89
342.915	16.93
343.281	16.89
343.647	16.99
344.013	17.09
344.379	17.18
344.745	17.06
345.11	17.12
345.476	17.45
345.842	17.52
346.208	17.59
346.573	17.52
346.939	17.47
347.304	17.46
347.67	17.47
348.035	17.46
348.401	17.53
348.766	17.51
349.132	17.55
349.497	17.6
349.862	17.69
350.228	17.79
350.593	17.78
350.958	18.04
351.323	18.03
351.688	18.02
352.053	17.87
352.418	17.91
352.783	17.92
353.148	17.84
353.513	17.72
353.878	17.71
354.243	17.79
354.608	17.91
354.972	18.01
355.337	17.97
355.702	17.93
356.066	17.92
356.431	18.02
356.795	18.06
357.16	18.01
357.524	17.94
357.889	17.96
358.253	17.98
358.618	17.84
358.982	17.87
359.346	17.9
359.71	18
360.075	18.06
360.439	18.1
360.803	18.07
361.167	18.1
361.531	18.14
361.895	18.18
362.259	18.17
362.623	18.09
362.987	18.14
363.351	18.14
363.714	18.18
364.078	18.13
364.442	18
364.806	17.99
365.169	17.96
365.533	17.9
365.896	17.92
366.26	17.87
366.623	17.83
366.987	17.84
367.35	17.82
367.714	17.76
368.077	17.71
368.44	17.72
368.803	17.66
369.167	17.54
369.53	17.42
369.893	17.34
370.256	17.38
370.619	17.33
370.982	17.36
371.345	17.26
371.708	17.22
372.071	17.24
372.434	17.17
372.797	17.19
373.159	17.08
373.522	16.96
373.885	16.95
374.247	16.81
374.61	16.71
374.973	16.54
375.335	16.42
375.698	16.26
376.06	16.17
376.423	16.18
376.785	16.17
377.147	16.14
377.51	16.01
377.872	15.88
378.234	15.8
378.596	15.71
378.958	15.64
379.321	15.62
379.683	15.61
380.045	15.51
380.407	15.41
380.769	15.36
381.13	15.31
381.492	15.24
381.854	15.19
382.216	15.15
382.578	15.16
382.939	15.15
383.301	15.12
383.663	15.07
384.024	14.98
384.386	14.91
384.747	14.84
385.109	14.81
385.47	14.77
385.832	14.7
386.193	14.63
386.554	14.55
386.916	14.47
387.277	14.36
387.638	14.3
387.999	14.22
388.36	14.14
388.721	14.09
389.082	14
389.443	13.98
389.804	13.88
390.165	13.83
390.526	13.74
390.887	13.66
391.248	13.59
391.609	13.5
391.969	13.44
392.33	13.34
392.691	13.27
393.051	13.16
393.412	13.11
393.772	13.06
394.133	12.92
394.493	12.86
394.854	12.77
395.214	12.72
395.574	12.66
395.935	12.59
396.295	12.49
396.655	12.38
397.015	12.28
397.376	12.22
397.736	12.06
398.096	11.99
398.456	11.9
398.816	11.78
399.176	11.68
399.535	11.61
399.895	11.54
400.255	11.43
400.615	11.39
400.975	11.29
401.334	11.19
401.694	11.17
402.054	11.09
402.413	11.05
402.773	10.96
403.132	10.88
403.492	10.85
403.851	10.77
404.211	10.76
404.57	10.69
404.929	10.59
405.288	10.58
405.648	10.49
406.007	10.46
406.366	10.44
406.725	10.4
407.084	10.37
407.443	10.35
407.802	10.35
408.161	10.33
408.52	10.28
408.879	10.24
409.238	10.22
409.596	10.16
409.955	10.1
410.314	10.08
410.673	10.03
411.031	9.99
411.39	10
411.748	9.95
412.107	9.93
412.465	9.89
412.824	9.87
413.182	9.83
413.54	9.78
413.899	9.72
414.257	9.66
414.615	9.6
414.974	9.55
415.332	9.48
415.69	9.38
416.048	9.32
416.406	9.28
416.764	9.2
417.122	9.14
417.48	9.08
417.838	9.03
418.195	8.98
418.553	8.92
418.911	8.84
419.269	8.77
419.626	8.71
419.984	8.65
420.342	8.58
420.699	8.52
421.057	8.46
421.414	8.42
421.772	8.38
422.129	8.33
422.486	8.28
422.844	8.23
423.201	8.21
423.558	8.16
423.915	8.13
424.273	8.11
424.63	8.06
424.987	8.04
425.344	8.01
425.701	7.98
426.058	7.93
426.415	7.91
426.772	7.9
427.128	7.89
427.485	7.87
427.842	7.86
428.199	7.87
428.555	7.88
428.912	7.87
429.269	7.85
429.625	7.83
429.982	7.8
430.338	7.8
430.695	7.78
431.051	7.79
431.407	7.77
431.764	7.77
432.12	7.78
432.476	7.77
432.832	7.76
433.189	7.75
433.545	7.76
433.901	7.77
434.257	7.77
434.613	7.78
434.969	7.78
435.325	7.79
435.681	7.77
436.036	7.78
436.392	7.78
436.748	7.78
437.104	7.78
437.459	7.79
437.815	7.79
438.171	7.79
438.526	7.78
438.882	7.76
439.237	7.76
439.593	7.76
439.948	7.74
440.304	7.74
440.659	7.71
441.014	7.69
441.369	7.66
441.725	7.63
442.08	7.59
442.435	7.57
442.79	7.53
443.145	7.51
443.5	7.47
443.855	7.43
444.21	7.41
444.565	7.39
444.92	7.34
445.275	7.32
445.629	7.28
445.984	7.24
446.339	7.23
446.693	7.2
447.048	7.15
447.403	7.11
447.757	7.07
448.112	7.07
448.466	7.05
448.82	7.02
449.175	7.01
449.529	7
449.883	6.97
450.238	6.94
450.592	6.9
450.946	6.86
451.3	6.85
451.654	6.79
452.008	6.77
452.362	6.75
452.716	6.72
453.07	6.74
453.424	6.75
453.778	6.72
454.132	6.72
454.486	6.73
454.839	6.73
455.193	6.76
455.547	6.75
455.9	6.77
456.254	6.78
456.607	6.81
456.961	6.82
457.314	6.83
457.668	6.85
458.021	6.88
458.375	6.93
458.728	6.96
459.081	7.01
459.434	7.04
459.787	7.07
460.141	7.09
460.494	7.12
460.847	7.13
461.2	7.17
461.553	7.18
461.906	7.21
462.259	7.25
462.611	7.26
462.964	7.32
463.317	7.35
463.67	7.4
464.022	7.41
464.375	7.45
464.728	7.49
465.08	7.56
465.433	7.63
465.785	7.65
466.138	7.7
466.49	7.75
466.843	7.81
467.195	7.85
467.547	7.91
467.899	7.94
468.252	7.96
468.604	7.99
468.956	8.02
469.308	8.05
469.66	8.09
470.012	8.16
470.364	8.16
470.716	8.19
471.068	8.2
471.42	8.24
471.772	8.27
472.123	8.27
472.475	8.28
472.827	8.26
473.178	8.28
473.53	8.27
473.882	8.24
474.233	8.2
474.585	8.18
474.936	8.17
475.288	8.16
475.639	8.18
475.99	8.13
476.342	8.1
476.693	8.08
477.044	8.05
477.395	7.99
477.746	7.99
478.097	7.94
478.448	7.9
478.8	7.83
479.15	7.78
479.501	7.74
479.852	7.71
480.203	7.7
480.554	7.68
480.905	7.68
481.255	7.68
481.606	7.7
481.957	7.7
482.307	7.69
482.658	7.69
483.009	7.69
483.359	7.7
483.709	7.72
484.06	7.72
484.41	7.73
484.761	7.75
485.111	7.76
485.461	7.78
485.811	7.79
486.162	7.83
486.512	7.85
486.862	7.88
487.212	7.91
487.562	7.94
487.912	7.97
488.262	8
488.612	8.04
488.961	8.07
489.311	8.1
489.661	8.14
490.011	8.18
490.36	8.21
490.71	8.26
491.06	8.3
491.409	8.36
491.759	8.42
492.108	8.47
492.458	8.53
492.807	8.6
493.157	8.69
493.506	8.76
493.855	8.84
494.204	8.94
494.554	9.02
494.903	9.11
495.252	9.21
495.601	9.31
495.95	9.41
496.299	9.52
496.648	9.65
496.997	9.76
497.346	9.9
497.695	10.03
498.043	10.17
498.392	10.3
498.741	10.43
499.09	10.55
499.438	10.7
499.787	10.82
500.135	10.98
500.484	11.1
500.832	11.26
501.181	11.46
501.529	11.63
501.878	11.8
502.226	11.98
502.574	12.15
502.923	12.32
503.271	12.52
503.619	12.71
503.967	12.91
504.315	13.12
504.663	13.31
505.011	13.52
505.359	13.72
505.707	13.9
506.055	14.09
506.403	14.29
506.751	14.49
507.098	14.71
507.446	14.91
507.794	15.13
508.141	15.34
508.489	15.54
508.837	15.7
509.184	15.91
509.531	16.11
509.879	16.3
510.226	16.51
510.574	16.67
510.921	16.87
511.268	17.07
511.616	17.27
511.963	17.46
512.31	17.66
512.657	17.87
513.004	18.08
513.351	18.31
513.698	18.53
514.045	18.75
514.392	18.97
514.739	19.2
515.086	19.41
515.432	19.63
515.779	19.84
516.126	20.07
516.473	20.27
516.819	20.49
517.166	20.72
517.512	20.92
517.859	21.1
518.205	21.29
518.552	21.5
518.898	21.69
519.245	21.86
519.591	22.04
519.937	22.24
520.283	22.45
520.629	22.63
520.976	22.87
521.322	23.1
521.668	23.32
522.014	23.56
522.36	23.82
522.706	24.09
523.052	24.38
523.398	24.72
523.743	25.08
524.089	25.43
524.435	25.73
524.781	26.03
525.126	26.32
525.472	26.6
525.817	26.8
526.163	26.99
526.509	27.2
526.854	27.41
527.199	27.59
527.545	27.77
527.89	27.95
528.235	28.14
528.581	28.34
528.926	28.54
529.271	28.73
529.616	28.9
529.961	29.09
530.306	29.29
530.651	29.47
530.996	29.66
531.341	29.84
531.686	30.04
532.031	30.25
532.376	30.5
532.721	30.74
533.065	30.97
533.41	31.23
533.755	31.49
534.099	31.71
534.444	31.98
534.788	32.25
535.133	32.5
535.477	32.73
535.822	32.98
536.166	33.22
536.51	33.54
536.855	33.87
537.199	34.17
537.543	34.51
537.887	34.87
538.231	35.2
538.576	35.53
538.92	35.88
539.264	36.16
539.608	36.4
539.951	36.61
540.295	36.89
540.639	37.16
540.983	37.36
541.327	37.62
541.671	37.84
542.014	38.04
542.358	38.24
542.701	38.38
543.045	38.62
543.389	38.85
543.732	39.01
544.075	39.23
544.419	39.45
544.762	39.64
545.105	39.83
545.449	40.06
545.792	40.26
546.135	40.49
546.478	40.79
546.821	41.1
547.165	41.36
547.508	41.62
547.851	41.91
548.194	42.16
548.536	42.44
548.879	42.71
549.222	43.04
549.565	43.37
549.908	43.74
550.25	43.98
550.593	44.22
550.936	44.49
551.278	44.74
551.621	45.02
551.963	45.28
552.306	45.5
552.648	45.71
552.991	45.97
553.333	46.18
553.675	46.3
554.017	46.48
554.36	46.71
554.702	46.88
555.044	47.07
555.386	47.29
555.728	47.49
556.07	47.64
556.412	47.81
556.754	48.01
557.096	48.2
557.438	48.43
557.78	48.7
558.121	48.94
558.463	49.2
558.805	49.39
559.147	49.54
559.488	49.72
559.83	49.9
560.171	50.07
560.513	50.3
560.854	50.54
561.196	50.69
561.537	50.88
561.878	51.07
562.22	51.14
562.561	51.33
562.902	51.49
563.243	51.69
563.584	51.8
563.925	51.92
564.266	52.06
564.607	52.13
564.948	52.22
565.289	52.3
565.63	52.29
565.971	52.34
566.312	52.47
566.653	52.58
566.993	52.71
567.334	52.84
567.675	52.9
568.015	52.98
568.356	53.14
568.696	53.18
569.037	53.27
569.377	53.41
569.718	53.54
570.058	53.62
570.398	53.74
570.739	53.85
571.079	53.92
571.419	54.01
571.759	54.06
572.099	54.17
572.439	54.26
572.779	54.36
573.119	54.52
573.459	54.58
573.799	54.65
574.139	54.72
574.479	54.78
574.819	54.84
575.158	54.98
575.498	55.04
575.838	55.16
576.177	55.19
576.517	55.32
576.856	55.39
577.196	55.48
577.535	55.46
577.875	55.56
578.214	55.67
578.553	55.74
578.893	55.93
579.232	56.02
579.571	56.16
579.91	56.3
580.25	56.35
580.589	56.46
580.928	56.54
581.267	56.59
581.606	56.76
581.945	56.9
582.283	56.87
582.622	56.88
582.961	56.92
583.3	57.04
583.639	57.02
583.977	57.05
584.316	57.09
584.654	57.21
584.993	57.24
585.332	57.27
585.67	57.32
586.008	57.4
586.347	57.39
586.685	57.35
587.024	57.48
587.362	57.55
587.7	57.64
588.038	57.64
588.376	57.78
588.715	57.7
589.053	57.76
589.391	57.83
589.729	57.92
590.067	57.99
590.404	58.03
590.742	58.14
591.08	58.24
591.418	58.23
591.756	58.29
592.093	58.29
592.431	58.33
592.769	58.4
593.106	58.42
593.444	58.6
593.781	58.67
594.119	58.63
594.456	58.66
594.793	58.62
595.131	58.68
595.468	58.64
595.805	58.71
596.143	58.65
596.48	58.64
596.817	58.59
597.154	58.65
597.491	58.68
597.828	58.6
598.165	58.59
598.502	58.69
598.839	58.71
599.176	58.84
599.512	58.84
599.849	58.85
600.186	58.85
600.523	58.79
600.859	58.81
601.196	58.85
601.532	58.79
601.869	58.84
602.205	58.95
602.542	58.96
602.878	58.92
603.215	58.98
603.551	59.01
603.887	59.09
604.223	59.08
604.56	59.12
604.896	59.19
605.232	59.21
605.568	59.27
605.904	59.26
606.24	59.26
606.576	59.34
606.912	59.39
607.248	59.42
607.583	59.38
607.919	59.46
608.255	59.5
608.591	59.54
608.926	59.61
609.262	59.52
609.597	59.58
609.933	59.7
610.268	59.63
610.604	59.69
610.939	59.77
611.275	59.74
611.61	59.74
611.945	59.72
612.281	59.76
612.616	59.71
612.951	59.79
613.286	59.75
613.621	59.78
613.956	59.82
614.291	59.86
614.626	59.93
614.961	59.94
615.296	59.97
615.631	60.05
615.966	60.04
616.3	60.12
616.635	60.13
616.97	60.1
617.304	60.33
617.639	60.34
617.973	60.3
618.308	60.36
618.642	60.36
618.977	60.41
619.311	60.32
619.646	60.32
619.98	60.29
620.314	60.29
620.648	60.32
620.983	60.27
621.317	60.31
621.651	60.33
621.985	60.31
622.319	60.29
622.653	60.33
622.987	60.34
623.321	60.34
623.655	60.3
623.988	60.36
624.322	60.36
624.656	60.32
624.99	60.32
625.323	60.41
625.657	60.45
625.99	60.4
626.324	60.51
626.657	60.55
626.991	60.56
627.324	60.53
627.658	60.46
627.991	60.53
628.324	60.44
628.657	60.52
628.991	60.49
629.324	60.49
629.657	60.41
629.99	60.42
630.323	60.42
630.656	60.56
630.989	60.53
631.322	60.45
631.655	60.51
631.987	60.56
632.32	60.46
632.653	60.51
632.986	60.56
633.318	60.58
633.651	60.57
633.984	60.56
634.316	60.68
634.649	60.74
634.981	60.71
635.313	60.77
635.646	60.71
635.978	60.72
636.31	60.78
636.643	60.83
636.975	60.85
637.307	60.91
637.639	60.82
637.971	60.7
638.303	60.64
638.635	60.62
638.967	60.59
639.299	60.65
639.631	60.67
639.963	60.75
640.295	60.68
640.626	60.71
640.958	60.78
641.29	60.75
641.621	60.59
641.953	60.63
642.285	60.62
642.616	60.68
642.948	60.81
643.279	60.73
643.61	60.74
643.942	60.76
644.273	60.71
644.604	60.79
644.936	60.96
645.267	61.06
645.598	61.15
645.929	61.2
646.26	61.11
646.591	61.04
646.922	60.99
647.253	61
647.584	60.97
647.915	61
648.245	60.95
648.576	61.07
648.907	61.13
649.238	61.09
649.568	60.98
649.899	60.95
650.229	61.02
650.56	61.06
650.89	61.03
651.221	60.99
651.551	60.93
651.882	60.86
652.212	60.72
652.542	60.69
652.872	60.66
653.203	60.67
653.533	60.71
653.863	60.77
654.193	60.81
654.523	60.85
654.853	60.86
655.183	60.84
655.513	60.9
655.843	60.77
656.172	60.85
656.502	60.9
656.832	60.86
657.162	60.93
657.491	60.88
657.821	60.85
658.15	60.99
658.48	60.99
