Data from BA48648_Reflection_00003.txt Node
Date: Tue Nov 19 11:44:26 EST 2019
User: vgr7
Spectrometer: USB2G7710
Scans to average: 3
Trigger mode: 4
Integration Time (sec): 2.000000E-2
Electric dark correction enabled: true
Boxcar width: 10
XAxis mode: Wavelengths
Number of Pixels in Spectrum: 2048
>>>>>Begin Spectral Data<<<<<
177.721	-46.13
178.105	-12.36
178.488	-49.94
178.871	23.53
179.254	-13.56
179.636	-78.57
180.019	86.49
180.402	700
180.785	320
181.168	242.86
181.55	124.66
181.933	563.3
182.316	1038.36
182.698	277.74
183.081	-434.68
183.463	-144.98
183.846	-238.59
184.228	-167.41
184.611	-91.22
184.993	-101.13
185.376	-90.56
185.758	-64.73
186.14	-60.81
186.522	-46.62
186.904	-52.39
187.287	-43.2
187.669	-39.17
188.051	-38.98
188.433	-39.9
188.815	-44.79
189.197	-28.32
189.579	-28.68
189.961	-25.55
190.342	-15.15
190.724	-16.16
191.106	-27.18
191.488	-21.74
191.869	-1.83
192.251	-1.15
192.633	-3.01
193.014	-0.06
193.396	0.94
193.777	7
194.159	-3.79
194.54	-10.85
194.922	-17.5
195.303	-34.06
195.684	-37.66
196.065	-42.2
196.447	-40.1
196.828	-27.95
197.209	-30.62
197.59	-32.13
197.971	-29.84
198.352	-18.55
198.733	-17.32
199.114	-7.15
199.495	-3.7
199.876	-14.19
200.257	-25.43
200.638	-19.47
201.018	-10.2
201.399	-6.76
201.78	-3.26
202.16	-0.82
202.541	-8.92
202.922	2.35
203.302	10.57
203.683	7.11
204.063	12.1
204.444	15.17
204.824	1.4
205.204	-4.99
205.585	-3.48
205.965	-1.76
206.345	-22.47
206.725	-15.54
207.106	-17
207.486	-19.02
207.866	-10.13
208.246	-6.9
208.626	-14.26
209.006	-28.94
209.386	-28.42
209.766	-28.8
210.145	-33.86
210.525	-26.1
210.905	-39.4
211.285	-34.89
211.664	-29.13
212.044	-26.94
212.424	-16.37
212.803	-11.97
213.183	-11.72
213.562	-6.23
213.942	-7.46
214.321	4.57
214.701	2.19
215.08	1.57
215.459	4.97
215.838	-3.21
216.218	-3.54
216.597	7.2
216.976	5.38
217.355	3.76
217.734	3.41
218.113	20.27
218.492	15.57
218.871	25.04
219.25	8.6
219.629	9.25
220.008	-4.3
220.387	-23.58
220.766	-1.41
221.144	0.14
221.523	-10.37
221.902	0.46
222.28	0.26
222.659	-3.93
223.037	-6.3
223.416	-8.26
223.794	-8.07
224.173	-13.35
224.551	-17.98
224.929	-15.08
225.308	-14.8
225.686	-14.39
226.064	-17.8
226.442	-15.57
226.821	-14.95
227.199	-4.71
227.577	-3.06
227.955	0.8
228.333	0.04
228.711	-6.94
229.089	-8.02
229.467	-6.6
229.845	-11.29
230.222	-9.14
230.6	-9.13
230.978	-6.05
231.356	-4.81
231.733	-4.66
232.111	-5.09
232.488	-5.14
232.866	-2.58
233.243	-3.72
233.621	-2.38
233.998	-3.74
234.376	-2.97
234.753	-3.59
235.13	-5.76
235.508	-4.24
235.885	-4.56
236.262	-2.97
236.639	-2.26
237.016	-0.88
237.393	-0.34
237.77	1.16
238.147	-0.01
238.524	0.74
238.901	-0.04
239.278	-0.54
239.655	0.52
240.032	1.64
240.409	2.04
240.785	1.66
241.162	2.12
241.539	1.42
241.915	2.25
242.292	2.24
242.668	2.68
243.045	3.14
243.421	2.92
243.798	3.08
244.174	3.05
244.551	2.84
244.927	2.53
245.303	2.46
245.679	2.43
246.056	2.55
246.432	2.47
246.808	2.67
247.184	2.69
247.56	2.54
247.936	2.45
248.312	2.49
248.688	2.66
249.064	2.57
249.44	2.81
249.815	2.73
250.191	2.68
250.567	2.73
250.943	2.63
251.318	2.54
251.694	2.32
252.069	2.5
252.445	2.62
252.82	2.94
253.196	3.08
253.571	3.16
253.947	3.24
254.322	3.35
254.697	3.16
255.073	3.33
255.448	3.33
255.823	3.28
256.198	3.06
256.573	3.09
256.948	3.02
257.323	3.16
257.698	3.15
258.073	3.22
258.448	3.06
258.823	2.7
259.198	2.67
259.573	2.65
259.948	2.37
260.322	2.54
260.697	2.51
261.072	2.42
261.446	2.32
261.821	2.23
262.195	2.17
262.57	2.29
262.944	2.18
263.319	2.25
263.693	2.26
264.067	2.33
264.442	2.18
264.816	2.3
265.19	2.04
265.564	1.89
265.938	1.87
266.313	1.78
266.687	2.05
267.061	1.93
267.435	2.25
267.809	2.24
268.183	1.98
268.556	1.91
268.93	1.94
269.304	1.93
269.678	2.06
270.051	2.23
270.425	2.15
270.799	2.09
271.172	2.08
271.546	2.28
271.919	2.36
272.293	2.37
272.666	2.32
273.04	2.39
273.413	2.47
273.787	2.38
274.16	2.42
274.533	2.5
274.906	2.73
275.279	2.63
275.653	2.71
276.026	2.94
276.399	2.99
276.772	3.21
277.145	3.27
277.518	3.17
277.891	3.08
278.263	3.14
278.636	3.4
279.009	3.48
279.382	3.3
279.755	3.29
280.127	3.3
280.5	3.19
280.872	3.23
281.245	3.07
281.617	3.22
281.99	3.27
282.362	3.22
282.735	3.16
283.107	3
283.479	3.11
283.852	3.08
284.224	3.04
284.596	2.82
284.968	2.76
285.34	2.85
285.713	2.84
286.085	2.67
286.457	2.48
286.829	2.36
287.201	2.43
287.572	2.39
287.944	2.44
288.316	2.59
288.688	2.68
289.06	2.65
289.431	2.58
289.803	2.64
290.175	2.59
290.546	2.42
290.918	2.45
291.289	2.29
291.661	2.2
292.032	2.22
292.403	2.33
292.775	2.37
293.146	2.34
293.517	2.35
293.889	2.35
294.26	2.52
294.631	2.59
295.002	2.54
295.373	2.44
295.744	2.3
296.115	2.31
296.486	2.13
296.857	2.26
297.228	2.23
297.599	2.13
297.97	2.23
298.34	2.33
298.711	2.35
299.082	2.39
299.452	2.32
299.823	2.29
300.194	2.36
300.564	2.42
300.935	2.45
301.305	2.42
301.676	2.42
302.046	2.41
302.416	2.21
302.787	2.15
303.157	2.18
303.527	2.21
303.897	2.14
304.267	2.36
304.637	2.23
305.008	2.37
305.378	2.42
305.748	2.29
306.117	2.31
306.487	2.25
306.857	2.33
307.227	2.47
307.597	2.44
307.967	2.31
308.336	2.28
308.706	2.12
309.076	2.28
309.445	2.32
309.815	2.19
310.184	2.38
310.554	2.43
310.923	2.36
311.293	2.38
311.662	2.36
312.031	2.11
312.401	2.11
312.77	1.94
313.139	1.97
313.508	2.07
313.877	1.92
314.246	1.89
314.616	1.84
314.985	1.79
315.353	1.94
315.722	2
316.091	1.9
316.46	2.02
316.829	1.9
317.198	1.92
317.567	1.93
317.935	1.9
318.304	2.02
318.672	2.1
319.041	2.12
319.41	2.07
319.778	2.32
320.147	2.48
320.515	2.65
320.883	2.59
321.252	2.59
321.62	2.76
321.988	2.85
322.357	2.78
322.725	2.7
323.093	2.49
323.461	2.44
323.829	2.46
324.197	2.47
324.565	2.48
324.933	2.54
325.301	2.53
325.669	2.44
326.037	2.3
326.405	2.35
326.772	2.38
327.14	2.41
327.508	2.35
327.875	2.28
328.243	2.16
328.61	2.1
328.978	2.06
329.346	2.09
329.713	2.08
330.08	2.19
330.448	2.27
330.815	2.44
331.182	2.4
331.55	2.37
331.917	2.23
332.284	2.17
332.651	2.04
333.018	2.11
333.385	2.16
333.752	2.28
334.119	2.24
334.486	2.33
334.853	2.35
335.22	2.31
335.587	2.23
335.954	2.2
336.32	2.22
336.687	2.26
337.054	2.27
337.42	2.21
337.787	2.1
338.153	2.21
338.52	2.17
338.886	2.25
339.253	2.32
339.619	2.4
339.986	2.4
340.352	2.32
340.718	2.26
341.084	2.22
341.451	2.14
341.817	2.19
342.183	2.15
342.549	2.17
342.915	2.18
343.281	2.23
343.647	2.26
344.013	2.34
344.379	2.28
344.745	2.27
345.11	2.28
345.476	2.37
345.842	2.24
346.208	2.25
346.573	2.2
346.939	2.18
347.304	2.17
347.67	2.13
348.035	2.19
348.401	2.25
348.766	2.25
349.132	2.23
349.497	2.23
349.862	2.21
350.228	2.2
350.593	2.25
350.958	2.28
351.323	2.26
351.688	2.15
352.053	2.13
352.418	2.13
352.783	2.14
353.148	2.01
353.513	2.01
353.878	1.96
354.243	1.97
354.608	2.01
354.972	2.01
355.337	2.06
355.702	2.1
356.066	2.08
356.431	2.06
356.795	2.05
357.16	2.04
357.524	2
357.889	1.98
358.253	1.92
358.618	1.96
358.982	1.98
359.346	2.05
359.71	2.06
360.075	2.12
360.439	2.16
360.803	2.21
361.167	2.21
361.531	2.19
361.895	2.22
362.259	2.25
362.623	2.3
362.987	2.3
363.351	2.3
363.714	2.3
364.078	2.3
364.442	2.27
364.806	2.29
365.169	2.35
365.533	2.35
365.896	2.39
366.26	2.36
366.623	2.36
366.987	2.38
367.35	2.39
367.714	2.3
368.077	2.31
368.44	2.38
368.803	2.37
369.167	2.43
369.53	2.4
369.893	2.39
370.256	2.32
370.619	2.28
370.982	2.33
371.345	2.32
371.708	2.37
372.071	2.41
372.434	2.44
372.797	2.45
373.159	2.46
373.522	2.44
373.885	2.41
374.247	2.47
374.61	2.48
374.973	2.52
375.335	2.54
375.698	2.52
376.06	2.46
376.423	2.5
376.785	2.51
377.147	2.57
377.51	2.53
377.872	2.49
378.234	2.5
378.596	2.47
378.958	2.5
379.321	2.49
379.683	2.56
380.045	2.52
380.407	2.49
380.769	2.46
381.13	2.47
381.492	2.47
381.854	2.48
382.216	2.47
382.578	2.49
382.939	2.5
383.301	2.45
383.663	2.45
384.024	2.45
384.386	2.42
384.747	2.38
385.109	2.4
385.47	2.48
385.832	2.47
386.193	2.46
386.554	2.41
386.916	2.44
387.277	2.42
387.638	2.43
387.999	2.47
388.36	2.49
388.721	2.52
389.082	2.56
389.443	2.54
389.804	2.56
390.165	2.51
390.526	2.52
390.887	2.55
391.248	2.58
391.609	2.57
391.969	2.57
392.33	2.56
392.691	2.57
393.051	2.53
393.412	2.57
393.772	2.59
394.133	2.6
394.493	2.55
394.854	2.51
395.214	2.49
395.574	2.5
395.935	2.48
396.295	2.48
396.655	2.46
397.015	2.47
397.376	2.46
397.736	2.48
398.096	2.48
398.456	2.47
398.816	2.45
399.176	2.42
399.535	2.42
399.895	2.41
400.255	2.41
400.615	2.44
400.975	2.44
401.334	2.43
401.694	2.44
402.054	2.46
402.413	2.45
402.773	2.46
403.132	2.43
403.492	2.44
403.851	2.41
404.211	2.42
404.57	2.43
404.929	2.39
405.288	2.41
405.648	2.38
406.007	2.4
406.366	2.41
406.725	2.44
407.084	2.46
407.443	2.45
407.802	2.47
408.161	2.5
408.52	2.51
408.879	2.51
409.238	2.52
409.596	2.54
409.955	2.57
410.314	2.59
410.673	2.57
411.031	2.57
411.39	2.58
411.748	2.57
412.107	2.57
412.465	2.58
412.824	2.59
413.182	2.62
413.54	2.62
413.899	2.62
414.257	2.6
414.615	2.6
414.974	2.59
415.332	2.56
415.69	2.52
416.048	2.52
416.406	2.51
416.764	2.5
417.122	2.48
417.48	2.49
417.838	2.49
418.195	2.48
418.553	2.48
418.911	2.49
419.269	2.48
419.626	2.47
419.984	2.47
420.342	2.47
420.699	2.48
421.057	2.46
421.414	2.48
421.772	2.48
422.129	2.47
422.486	2.48
422.844	2.49
423.201	2.5
423.558	2.5
423.915	2.49
424.273	2.49
424.63	2.5
424.987	2.49
425.344	2.51
425.701	2.52
426.058	2.54
426.415	2.54
426.772	2.54
427.128	2.55
427.485	2.56
427.842	2.56
428.199	2.55
428.555	2.56
428.912	2.55
429.269	2.56
429.625	2.59
429.982	2.57
430.338	2.57
430.695	2.56
431.051	2.58
431.407	2.58
431.764	2.57
432.12	2.57
432.476	2.59
432.832	2.58
433.189	2.58
433.545	2.56
433.901	2.56
434.257	2.59
434.613	2.56
434.969	2.56
435.325	2.55
435.681	2.53
436.036	2.52
436.392	2.53
436.748	2.53
437.104	2.52
437.459	2.53
437.815	2.52
438.171	2.53
438.526	2.53
438.882	2.53
439.237	2.54
439.593	2.54
439.948	2.52
440.304	2.52
440.659	2.53
441.014	2.54
441.369	2.54
441.725	2.54
442.08	2.54
442.435	2.54
442.79	2.54
443.145	2.55
443.5	2.55
443.855	2.55
444.21	2.56
444.565	2.57
444.92	2.58
445.275	2.59
445.629	2.59
445.984	2.59
446.339	2.58
446.693	2.57
447.048	2.56
447.403	2.56
447.757	2.55
448.112	2.55
448.466	2.56
448.82	2.55
449.175	2.54
449.529	2.55
449.883	2.55
450.238	2.55
450.592	2.55
450.946	2.55
451.3	2.55
451.654	2.54
452.008	2.51
452.362	2.49
452.716	2.49
453.07	2.49
453.424	2.48
453.778	2.48
454.132	2.49
454.486	2.51
454.839	2.54
455.193	2.54
455.547	2.53
455.9	2.53
456.254	2.53
456.607	2.53
456.961	2.54
457.314	2.55
457.668	2.54
458.021	2.54
458.375	2.53
458.728	2.53
459.081	2.54
459.434	2.54
459.787	2.56
460.141	2.56
460.494	2.57
460.847	2.58
461.2	2.58
461.553	2.61
461.906	2.6
462.259	2.59
462.611	2.62
462.964	2.62
463.317	2.64
463.67	2.65
464.022	2.65
464.375	2.63
464.728	2.63
465.08	2.64
465.433	2.64
465.785	2.64
466.138	2.65
466.49	2.65
466.843	2.67
467.195	2.67
467.547	2.68
467.899	2.68
468.252	2.69
468.604	2.68
468.956	2.65
469.308	2.66
469.66	2.68
470.012	2.67
470.364	2.68
470.716	2.65
471.068	2.65
471.42	2.66
471.772	2.67
472.123	2.68
472.475	2.68
472.827	2.69
473.178	2.69
473.53	2.71
473.882	2.69
474.233	2.68
474.585	2.69
474.936	2.68
475.288	2.68
475.639	2.67
475.99	2.68
476.342	2.7
476.693	2.7
477.044	2.68
477.395	2.67
477.746	2.66
478.097	2.69
478.448	2.68
478.8	2.67
479.15	2.66
479.501	2.66
479.852	2.65
480.203	2.65
480.554	2.66
480.905	2.67
481.255	2.68
481.606	2.68
481.957	2.68
482.307	2.68
482.658	2.7
483.009	2.69
483.359	2.7
483.709	2.7
484.06	2.7
484.41	2.71
484.761	2.71
485.111	2.71
485.461	2.71
485.811	2.71
486.162	2.72
486.512	2.73
486.862	2.73
487.212	2.74
487.562	2.75
487.912	2.76
488.262	2.75
488.612	2.75
488.961	2.76
489.311	2.75
489.661	2.75
490.011	2.74
490.36	2.74
490.71	2.73
491.06	2.73
491.409	2.73
491.759	2.73
492.108	2.73
492.458	2.73
492.807	2.74
493.157	2.76
493.506	2.75
493.855	2.76
494.204	2.76
494.554	2.76
494.903	2.76
495.252	2.74
495.601	2.76
495.95	2.77
496.299	2.76
496.648	2.78
496.997	2.8
497.346	2.8
497.695	2.81
498.043	2.83
498.392	2.82
498.741	2.82
499.09	2.84
499.438	2.84
499.787	2.83
500.135	2.81
500.484	2.78
500.832	2.8
501.181	2.81
501.529	2.83
501.878	2.84
502.226	2.84
502.574	2.86
502.923	2.85
503.271	2.84
503.619	2.84
503.967	2.83
504.315	2.82
504.663	2.81
505.011	2.83
505.359	2.82
505.707	2.83
506.055	2.83
506.403	2.83
506.751	2.83
507.098	2.83
507.446	2.83
507.794	2.83
508.141	2.81
508.489	2.82
508.837	2.8
509.184	2.79
509.531	2.81
509.879	2.78
510.226	2.77
510.574	2.79
510.921	2.81
511.268	2.81
511.616	2.82
511.963	2.83
512.31	2.82
512.657	2.82
513.004	2.81
513.351	2.81
513.698	2.82
514.045	2.82
514.392	2.84
514.739	2.84
515.086	2.83
515.432	2.86
515.779	2.84
516.126	2.87
516.473	2.87
516.819	2.86
517.166	2.89
517.512	2.9
517.859	2.9
518.205	2.88
518.552	2.88
518.898	2.87
519.245	2.87
519.591	2.88
519.937	2.88
520.283	2.9
520.629	2.91
520.976	2.89
521.322	2.9
521.668	2.89
522.014	2.9
522.36	2.9
522.706	2.91
523.052	2.91
523.398	2.89
523.743	2.91
524.089	2.92
524.435	2.92
524.781	2.92
525.126	2.91
525.472	2.92
525.817	2.92
526.163	2.94
526.509	2.96
526.854	2.95
527.199	2.96
527.545	2.95
527.89	2.95
528.235	2.96
528.581	2.96
528.926	2.96
529.271	2.96
529.616	2.97
529.961	2.96
530.306	2.94
530.651	2.94
530.996	2.94
531.341	2.94
531.686	2.94
532.031	2.95
532.376	2.95
532.721	2.95
533.065	2.95
533.41	2.94
533.755	2.94
534.099	2.94
534.444	2.93
534.788	2.94
535.133	2.94
535.477	2.94
535.822	2.94
536.166	2.94
536.51	2.95
536.855	2.94
537.199	2.95
537.543	2.98
537.887	2.99
538.231	2.99
538.576	2.98
538.92	2.99
539.264	2.99
539.608	2.99
539.951	2.98
540.295	3.01
540.639	3
540.983	3.01
541.327	3.02
541.671	3.03
542.014	3.05
542.358	3.05
542.701	3.06
543.045	3.06
543.389	3.08
543.732	3.06
544.075	3.07
544.419	3.06
544.762	3.05
545.105	3.05
545.449	3.06
545.792	3.07
546.135	3.07
546.478	3.07
546.821	3.08
547.165	3.09
547.508	3.09
547.851	3.11
548.194	3.08
548.536	3.07
548.879	3.04
549.222	3.03
549.565	3.03
549.908	3
550.25	3.01
550.593	2.99
550.936	3
551.278	2.98
551.621	3
551.963	3
552.306	3
552.648	3
552.991	3.01
553.333	3.02
553.675	3.04
554.017	3.03
554.36	3.03
554.702	3.02
555.044	3
555.386	3.02
555.728	3.02
556.07	3.03
556.412	3.03
556.754	3.02
557.096	3.03
557.438	3.01
557.78	3.01
558.121	3.03
558.463	3.05
558.805	3.05
559.147	3.07
559.488	3.07
559.83	3.06
560.171	3.03
560.513	3.04
560.854	3.01
561.196	3.03
561.537	3.02
561.878	3.06
562.22	3.09
562.561	3.1
562.902	3.11
563.243	3.13
563.584	3.11
563.925	3.13
564.266	3.15
564.607	3.14
564.948	3.12
565.289	3.11
565.63	3.12
565.971	3.15
566.312	3.13
566.653	3.11
566.993	3.14
567.334	3.15
567.675	3.13
568.015	3.13
568.356	3.14
568.696	3.16
569.037	3.12
569.377	3.1
569.718	3.11
570.058	3.1
570.398	3.11
570.739	3.11
571.079	3.11
571.419	3.1
571.759	3.11
572.099	3.14
572.439	3.14
572.779	3.14
573.119	3.13
573.459	3.16
573.799	3.16
574.139	3.15
574.479	3.16
574.819	3.15
575.158	3.14
575.498	3.16
575.838	3.15
576.177	3.16
576.517	3.17
576.856	3.14
577.196	3.15
577.535	3.12
577.875	3.16
578.214	3.14
578.553	3.15
578.893	3.16
579.232	3.15
579.571	3.17
579.91	3.13
580.25	3.13
580.589	3.12
580.928	3.11
581.267	3.1
581.606	3.07
581.945	3.05
582.283	3.08
582.622	3.01
582.961	3.01
583.3	3.02
583.639	3.02
583.977	3.02
584.316	3.05
584.654	3.08
584.993	3.04
585.332	3.04
585.67	3.06
586.008	3.08
586.347	3.06
586.685	3.05
587.024	3.08
587.362	3.07
587.7	3.06
588.038	3.09
588.376	3.09
588.715	3.12
589.053	3.17
589.391	3.2
589.729	3.23
590.067	3.23
590.404	3.26
590.742	3.24
591.08	3.24
591.418	3.21
591.756	3.24
592.093	3.23
592.431	3.23
592.769	3.21
593.106	3.2
593.444	3.23
593.781	3.25
594.119	3.24
594.456	3.25
594.793	3.23
595.131	3.25
595.468	3.27
595.805	3.27
596.143	3.25
596.48	3.2
596.817	3.19
597.154	3.19
597.491	3.17
597.828	3.19
598.165	3.19
598.502	3.2
598.839	3.17
599.176	3.21
599.512	3.18
599.849	3.2
600.186	3.17
600.523	3.16
600.859	3.15
601.196	3.18
601.532	3.17
601.869	3.2
602.205	3.15
602.542	3.12
602.878	3.1
603.215	3.13
603.551	3.15
603.887	3.13
604.223	3.11
604.56	3.11
604.896	3.14
605.232	3.12
605.568	3.13
605.904	3.14
606.24	3.14
606.576	3.19
606.912	3.18
607.248	3.23
607.583	3.24
607.919	3.24
608.255	3.24
608.591	3.29
608.926	3.27
609.262	3.28
609.597	3.28
609.933	3.3
610.268	3.32
610.604	3.32
610.939	3.38
611.275	3.38
611.61	3.36
611.945	3.31
612.281	3.35
612.616	3.32
612.951	3.36
613.286	3.3
613.621	3.26
613.956	3.27
614.291	3.24
614.626	3.27
614.961	3.27
615.296	3.3
615.631	3.24
615.966	3.25
616.3	3.31
616.635	3.34
616.97	3.3
617.304	3.26
617.639	3.29
617.973	3.31
618.308	3.35
618.642	3.35
618.977	3.35
619.311	3.35
619.646	3.39
619.98	3.37
620.314	3.4
620.648	3.37
620.983	3.37
621.317	3.39
621.651	3.37
621.985	3.36
622.319	3.35
622.653	3.4
622.987	3.43
623.321	3.37
623.655	3.38
623.988	3.39
624.322	3.43
624.656	3.39
624.99	3.33
625.323	3.34
625.657	3.42
625.99	3.43
626.324	3.41
626.657	3.39
626.991	3.44
627.324	3.44
627.658	3.47
627.991	3.51
628.324	3.52
628.657	3.5
628.991	3.51
629.324	3.49
629.657	3.49
629.99	3.47
630.323	3.48
630.656	3.5
630.989	3.51
631.322	3.49
631.655	3.52
631.987	3.51
632.32	3.5
632.653	3.46
632.986	3.47
633.318	3.5
633.651	3.51
633.984	3.43
634.316	3.41
634.649	3.46
634.981	3.4
635.313	3.39
635.646	3.41
635.978	3.41
636.31	3.39
636.643	3.39
636.975	3.42
637.307	3.46
637.639	3.41
637.971	3.38
638.303	3.38
638.635	3.44
638.967	3.48
639.299	3.46
639.631	3.42
639.963	3.45
640.295	3.48
640.626	3.49
640.958	3.45
641.29	3.49
641.621	3.46
641.953	3.43
642.285	3.45
642.616	3.44
642.948	3.49
643.279	3.49
643.61	3.51
643.942	3.44
644.273	3.38
644.604	3.42
644.936	3.5
645.267	3.47
645.598	3.4
645.929	3.35
646.26	3.34
646.591	3.41
646.922	3.43
647.253	3.4
647.584	3.42
647.915	3.49
648.245	3.45
648.576	3.44
648.907	3.53
649.238	3.46
649.568	3.43
649.899	3.42
650.229	3.52
650.56	3.47
650.89	3.52
651.221	3.63
651.551	3.62
651.882	3.55
652.212	3.62
652.542	3.67
652.872	3.7
653.203	3.73
653.533	3.75
653.863	3.71
654.193	3.71
654.523	3.68
654.853	3.68
655.183	3.71
655.513	3.75
655.843	3.71
656.172	3.82
656.502	3.88
656.832	3.83
657.162	3.73
657.491	3.72
657.821	3.67
658.15	3.64
658.48	3.67
658.809	3.71
659.139	3.69
659.468	3.64
659.798	3.73
660.127	3.76
660.456	3.65
660.785	3.67
661.115	3.63
661.444	3.68
661.773	3.74
662.102	3.74
662.431	3.74
662.76	3.79
663.089	3.75
663.418	3.7
663.747	3.7
664.076	3.78
664.404	3.85
664.733	3.94
665.062	4.01
665.39	3.95
665.719	3.98
666.048	4
666.376	3.99
666.705	3.89
667.033	3.86
667.362	3.87
667.69	3.87
668.018	3.89
668.347	3.81
668.675	3.74
669.003	3.79
669.331	3.84
669.659	3.82
669.987	3.8
670.315	3.81
670.643	3.81
670.971	3.72
671.299	3.67
671.627	3.74
671.955	3.6
672.283	3.7
672.61	3.64
672.938	3.6
673.266	3.61
673.593	3.55
673.921	3.57
674.249	3.58
674.576	3.6
674.904	3.63
675.231	3.71
675.558	3.73
675.886	3.76
676.213	3.64
676.54	3.69
676.867	3.7
677.195	3.7
677.522	3.78
677.849	3.84
678.176	3.86
678.503	3.79
