Data from BA48287_Reflection_00014.txt Node
Date: Tue Nov 19 11:43:47 EST 2019
User: vgr7
Spectrometer: USB2G7710
Scans to average: 3
Trigger mode: 4
Integration Time (sec): 2.000000E-2
Electric dark correction enabled: true
Boxcar width: 10
XAxis mode: Wavelengths
Number of Pixels in Spectrum: 2048
>>>>>Begin Spectral Data<<<<<
177.721	9.83
178.105	27.3
178.488	1.63
178.871	22.56
179.254	39.32
179.636	106.49
180.019	184.33
180.402	80.95
180.785	24.24
181.168	-173.81
181.55	-13.17
181.933	38.98
182.316	65.78
182.698	-3177.78
183.081	-179.34
183.463	10933.33
183.846	230.63
184.228	-121.39
184.611	-101.15
184.993	276.19
185.376	51.2
185.758	19.56
186.14	25.16
186.522	13.96
186.904	12.43
187.287	-6.79
187.669	25.78
188.051	26.21
188.433	-84.01
188.815	-78.06
189.197	-57.62
189.579	-23.12
189.961	-15.85
190.342	-15.89
190.724	-11.53
191.106	-12.01
191.488	-6.27
191.869	-14.01
192.251	-20.17
192.633	-21.38
193.014	-17.82
193.396	-14.55
193.777	-9.94
194.159	-4.77
194.54	-0.61
194.922	3.54
195.303	8.67
195.684	10.66
196.065	10.5
196.447	24.72
196.828	19.25
197.209	21.65
197.59	24.17
197.971	29.28
198.352	37.1
198.733	36.11
199.114	36.53
199.495	31.9
199.876	32.26
200.257	35.92
200.638	47.77
201.018	49.32
201.399	50.25
201.78	46.18
202.16	39.85
202.541	34.21
202.922	34.36
203.302	48.77
203.683	45.87
204.063	44.99
204.444	29.62
204.824	33.62
205.204	35.77
205.585	26.08
205.965	18.45
206.345	-4.98
206.725	-9.2
207.106	6.64
207.486	7.35
207.866	24.16
208.246	31.51
208.626	22.09
209.006	14.79
209.386	5.55
209.766	21.29
210.145	9.93
210.525	5.68
210.905	7.45
211.285	-0.85
211.664	8.62
212.044	12.17
212.424	8.91
212.803	2.82
213.183	-15.69
213.562	-13.63
213.942	-22.18
214.321	-28.86
214.701	-23.19
215.08	-22.83
215.459	-11.42
215.838	-27.83
216.218	-42.42
216.597	-44.38
216.976	-44.28
217.355	-32.55
217.734	-26.22
218.113	-18.3
218.492	1.12
218.871	8.49
219.25	4.63
219.629	-12.33
220.008	-16.85
220.387	-11.59
220.766	-1.1
221.144	16.56
221.523	23.95
221.902	44.74
222.28	69.76
222.659	77.34
223.037	56.84
223.416	39.7
223.794	40.05
224.173	34.83
224.551	36.11
224.929	36.14
225.308	33.71
225.686	28.47
226.064	28.33
226.442	24.33
226.821	20.42
227.199	14.01
227.577	17.66
227.955	17.73
228.333	15.31
228.711	13.99
229.089	14.07
229.467	13.26
229.845	8.21
230.222	6.94
230.6	4.41
230.978	4.99
231.356	5.48
231.733	6.61
232.111	6.84
232.488	5.36
232.866	6.06
233.243	7.22
233.621	6.89
233.998	5.66
234.376	4.47
234.753	4.09
235.13	7.04
235.508	8.21
235.885	8.56
236.262	8.48
236.639	7.79
237.016	8.18
237.393	9.08
237.77	10.55
238.147	9.24
238.524	9.41
238.901	9.46
239.278	8.69
239.655	8.66
240.032	9.1
240.409	8.86
240.785	8.23
241.162	7.12
241.539	6.78
241.915	6.69
242.292	6.36
242.668	6.72
243.045	6.33
243.421	5.76
243.798	5.59
244.174	5.66
244.551	5.72
244.927	5.55
245.303	5.3
245.679	5.21
246.056	5.18
246.432	5.06
246.808	4.9
247.184	4.89
247.56	4.56
247.936	4.62
248.312	4.61
248.688	4.64
249.064	4.68
249.44	4.79
249.815	4.88
250.191	5.04
250.567	4.99
250.943	5.18
251.318	4.99
251.694	4.82
252.069	4.68
252.445	4.53
252.82	4.52
253.196	4.59
253.571	4.35
253.947	4.46
254.322	4.41
254.697	4.24
255.073	4.35
255.448	4.56
255.823	4.52
256.198	4.38
256.573	4.34
256.948	4.42
257.323	4.56
257.698	4.67
258.073	4.52
258.448	4.48
258.823	4.27
259.198	4.42
259.573	4.44
259.948	4.68
260.322	4.83
260.697	4.83
261.072	4.75
261.446	4.91
261.821	4.91
262.195	4.8
262.57	4.97
262.944	4.88
263.319	4.86
263.693	4.78
264.067	4.94
264.442	4.89
264.816	4.97
265.19	4.97
265.564	4.75
265.938	4.88
266.313	4.82
266.687	4.87
267.061	5.03
267.435	5.13
267.809	4.97
268.183	4.79
268.556	4.74
268.93	4.83
269.304	4.79
269.678	4.85
270.051	4.96
270.425	4.96
270.799	4.98
271.172	5.06
271.546	5.18
271.919	5.02
272.293	5.19
272.666	5.15
273.04	5.03
273.413	5.1
273.787	5.06
274.16	4.9
274.533	4.99
274.906	4.89
275.279	4.7
275.653	4.7
276.026	4.68
276.399	4.82
276.772	4.76
277.145	4.71
277.518	4.51
277.891	4.44
278.263	4.44
278.636	4.41
279.009	4.3
279.382	4.15
279.755	4.28
280.127	4.26
280.5	4.12
280.872	4.33
281.245	4.41
281.617	4.36
281.99	4.51
282.362	4.51
282.735	4.53
283.107	4.71
283.479	4.64
283.852	4.8
284.224	4.75
284.596	4.65
284.968	4.52
285.34	4.49
285.713	4.48
286.085	4.4
286.457	4.47
286.829	4.46
287.201	4.5
287.572	4.51
287.944	4.52
288.316	4.66
288.688	4.61
289.06	4.52
289.431	4.67
289.803	4.66
290.175	4.67
290.546	4.6
290.918	4.55
291.289	4.46
291.661	4.35
292.032	4.24
292.403	4.22
292.775	4.33
293.146	4.47
293.517	4.53
293.889	4.53
294.26	4.54
294.631	4.73
295.002	4.69
295.373	4.74
295.744	4.76
296.115	4.79
296.486	4.78
296.857	4.94
297.228	4.83
297.599	4.78
297.97	4.81
298.34	4.91
298.711	4.95
299.082	5.12
299.452	5.1
299.823	5.23
300.194	5.34
300.564	5.27
300.935	5.28
301.305	5.22
301.676	5.25
302.046	5.16
302.416	5.01
302.787	5.03
303.157	4.91
303.527	4.92
303.897	4.76
304.267	4.69
304.637	4.69
305.008	4.79
305.378	4.68
305.748	4.62
306.117	4.56
306.487	4.66
306.857	4.63
307.227	4.78
307.597	4.69
307.967	4.67
308.336	4.62
308.706	4.55
309.076	4.71
309.445	4.89
309.815	5.04
310.184	4.98
310.554	4.94
310.923	4.93
311.293	4.87
311.662	4.95
312.031	4.98
312.401	4.86
312.77	4.91
313.139	5.19
313.508	5.23
313.877	5.27
314.246	5.15
314.616	5.14
314.985	4.97
315.353	5.06
315.722	5.17
316.091	5.23
316.46	5.31
316.829	5.31
317.198	5.07
317.567	5.06
317.935	4.99
318.304	5.23
318.672	5.36
319.041	5.57
319.41	5.59
319.778	5.58
320.147	5.54
320.515	5.36
320.883	5.28
321.252	5.3
321.62	5.27
321.988	5.42
322.357	5.47
322.725	5.59
323.093	5.56
323.461	5.52
323.829	5.59
324.197	5.56
324.565	5.49
324.933	5.43
325.301	5.32
325.669	5.53
326.037	5.48
326.405	5.43
326.772	5.29
327.14	5.21
327.508	5.34
327.875	5.42
328.243	5.52
328.61	5.49
328.978	5.4
329.346	5.45
329.713	5.43
330.08	5.54
330.448	5.61
330.815	5.69
331.182	5.68
331.55	5.62
331.917	5.61
332.284	5.53
332.651	5.66
333.018	5.68
333.385	5.71
333.752	5.73
334.119	5.7
334.486	5.72
334.853	5.6
335.22	5.44
335.587	5.52
335.954	5.57
336.32	5.58
336.687	5.75
337.054	5.73
337.42	5.78
337.787	5.6
338.153	5.57
338.52	5.51
338.886	5.57
339.253	5.56
339.619	5.66
339.986	5.75
340.352	5.65
340.718	5.75
341.084	5.74
341.451	5.71
341.817	5.85
342.183	5.82
342.549	6.06
342.915	6.16
343.281	6.04
343.647	5.99
344.013	6.02
344.379	5.9
344.745	5.94
345.11	5.83
345.476	5.94
345.842	5.86
346.208	5.86
346.573	5.89
346.939	6
347.304	5.93
347.67	5.86
348.035	5.93
348.401	5.91
348.766	5.87
349.132	5.87
349.497	5.87
349.862	5.93
350.228	5.8
350.593	5.75
350.958	5.88
351.323	5.87
351.688	5.84
352.053	5.82
352.418	5.73
352.783	5.7
353.148	5.61
353.513	5.66
353.878	5.7
354.243	5.53
354.608	5.53
354.972	5.61
355.337	5.61
355.702	5.55
356.066	5.58
356.431	5.52
356.795	5.44
357.16	5.39
357.524	5.28
357.889	5.32
358.253	5.27
358.618	5.23
358.982	5.24
359.346	5.26
359.71	5.31
360.075	5.36
360.439	5.44
360.803	5.44
361.167	5.4
361.531	5.4
361.895	5.44
362.259	5.46
362.623	5.42
362.987	5.49
363.351	5.5
363.714	5.44
364.078	5.48
364.442	5.51
364.806	5.54
365.169	5.61
365.533	5.58
365.896	5.61
366.26	5.59
366.623	5.54
366.987	5.52
367.35	5.49
367.714	5.46
368.077	5.43
368.44	5.47
368.803	5.47
369.167	5.41
369.53	5.48
369.893	5.47
370.256	5.42
370.619	5.33
370.982	5.26
371.345	5.28
371.708	5.19
372.071	5.18
372.434	5.06
372.797	5.02
373.159	5.02
373.522	5.04
373.885	5.01
374.247	5.02
374.61	4.94
374.973	4.91
375.335	4.88
375.698	4.81
376.06	4.71
376.423	4.74
376.785	4.74
377.147	4.66
377.51	4.59
377.872	4.61
378.234	4.65
378.596	4.65
378.958	4.64
379.321	4.68
379.683	4.67
380.045	4.69
380.407	4.67
380.769	4.63
381.13	4.58
381.492	4.58
381.854	4.57
382.216	4.61
382.578	4.61
382.939	4.59
383.301	4.55
383.663	4.59
384.024	4.55
384.386	4.49
384.747	4.45
385.109	4.45
385.47	4.45
385.832	4.4
386.193	4.44
386.554	4.39
386.916	4.33
387.277	4.3
387.638	4.3
387.999	4.3
388.36	4.28
388.721	4.27
389.082	4.26
389.443	4.26
389.804	4.26
390.165	4.24
390.526	4.23
390.887	4.27
391.248	4.25
391.609	4.27
391.969	4.32
392.33	4.34
392.691	4.31
393.051	4.28
393.412	4.3
393.772	4.26
394.133	4.26
394.493	4.26
394.854	4.26
395.214	4.24
395.574	4.23
395.935	4.26
396.295	4.23
396.655	4.24
397.015	4.22
397.376	4.2
397.736	4.19
398.096	4.16
398.456	4.11
398.816	4.11
399.176	4.06
399.535	3.99
399.895	3.99
400.255	4
400.615	3.99
400.975	3.96
401.334	4
401.694	4.02
402.054	4.04
402.413	4.04
402.773	4.04
403.132	4.02
403.492	4.01
403.851	4
404.211	3.95
404.57	3.96
404.929	3.92
405.288	3.94
405.648	3.95
406.007	3.97
406.366	3.95
406.725	3.95
407.084	3.96
407.443	3.95
407.802	3.92
408.161	3.93
408.52	3.91
408.879	3.88
409.238	3.87
409.596	3.84
409.955	3.81
410.314	3.8
410.673	3.79
411.031	3.76
411.39	3.79
411.748	3.8
412.107	3.8
412.465	3.82
412.824	3.8
413.182	3.77
413.54	3.78
413.899	3.76
414.257	3.74
414.615	3.74
414.974	3.71
415.332	3.72
415.69	3.69
416.048	3.67
416.406	3.65
416.764	3.62
417.122	3.63
417.48	3.6
417.838	3.6
418.195	3.59
418.553	3.58
418.911	3.56
419.269	3.55
419.626	3.54
419.984	3.53
420.342	3.54
420.699	3.54
421.057	3.52
421.414	3.54
421.772	3.54
422.129	3.52
422.486	3.51
422.844	3.5
423.201	3.51
423.558	3.51
423.915	3.52
424.273	3.53
424.63	3.53
424.987	3.54
425.344	3.52
425.701	3.52
426.058	3.52
426.415	3.51
426.772	3.51
427.128	3.52
427.485	3.51
427.842	3.47
428.199	3.45
428.555	3.45
428.912	3.43
429.269	3.43
429.625	3.43
429.982	3.43
430.338	3.44
430.695	3.41
431.051	3.43
431.407	3.42
431.764	3.39
432.12	3.38
432.476	3.4
432.832	3.41
433.189	3.41
433.545	3.42
433.901	3.42
434.257	3.43
434.613	3.4
434.969	3.42
435.325	3.44
435.681	3.44
436.036	3.44
436.392	3.46
436.748	3.47
437.104	3.48
437.459	3.47
437.815	3.49
438.171	3.48
438.526	3.47
438.882	3.47
439.237	3.48
439.593	3.5
439.948	3.49
440.304	3.49
440.659	3.49
441.014	3.47
441.369	3.49
441.725	3.48
442.08	3.49
442.435	3.48
442.79	3.47
443.145	3.49
443.5	3.48
443.855	3.47
444.21	3.48
444.565	3.47
444.92	3.46
445.275	3.45
445.629	3.45
445.984	3.45
446.339	3.45
446.693	3.46
447.048	3.43
447.403	3.42
447.757	3.42
448.112	3.43
448.466	3.42
448.82	3.41
449.175	3.41
449.529	3.42
449.883	3.42
450.238	3.43
450.592	3.43
450.946	3.44
451.3	3.44
451.654	3.41
452.008	3.43
452.362	3.46
452.716	3.46
453.07	3.46
453.424	3.45
453.778	3.45
454.132	3.43
454.486	3.44
454.839	3.46
455.193	3.46
455.547	3.46
455.9	3.46
456.254	3.47
456.607	3.46
456.961	3.47
457.314	3.46
457.668	3.44
458.021	3.45
458.375	3.43
458.728	3.42
459.081	3.44
459.434	3.41
459.787	3.41
460.141	3.41
460.494	3.43
460.847	3.42
461.2	3.41
461.553	3.43
461.906	3.43
462.259	3.41
462.611	3.4
462.964	3.43
463.317	3.43
463.67	3.42
464.022	3.42
464.375	3.4
464.728	3.39
465.08	3.39
465.433	3.39
465.785	3.39
466.138	3.41
466.49	3.41
466.843	3.44
467.195	3.44
467.547	3.46
467.899	3.45
468.252	3.47
468.604	3.48
468.956	3.47
469.308	3.46
469.66	3.49
470.012	3.49
470.364	3.46
470.716	3.49
471.068	3.51
471.42	3.53
471.772	3.55
472.123	3.55
472.475	3.57
472.827	3.59
473.178	3.6
473.53	3.58
473.882	3.59
474.233	3.59
474.585	3.57
474.936	3.56
475.288	3.56
475.639	3.54
475.99	3.51
476.342	3.52
476.693	3.55
477.044	3.52
477.395	3.5
477.746	3.5
478.097	3.49
478.448	3.47
478.8	3.45
479.15	3.45
479.501	3.45
479.852	3.46
480.203	3.47
480.554	3.47
480.905	3.48
481.255	3.47
481.606	3.48
481.957	3.49
482.307	3.49
482.658	3.5
483.009	3.51
483.359	3.52
483.709	3.53
484.06	3.53
484.41	3.54
484.761	3.55
485.111	3.55
485.461	3.56
485.811	3.56
486.162	3.57
486.512	3.57
486.862	3.58
487.212	3.58
487.562	3.58
487.912	3.58
488.262	3.58
488.612	3.59
488.961	3.59
489.311	3.59
489.661	3.6
490.011	3.6
490.36	3.59
490.71	3.6
491.06	3.59
491.409	3.59
491.759	3.59
492.108	3.6
492.458	3.6
492.807	3.6
493.157	3.63
493.506	3.64
493.855	3.65
494.204	3.66
494.554	3.68
494.903	3.68
495.252	3.68
495.601	3.7
495.95	3.71
496.299	3.72
496.648	3.74
496.997	3.77
497.346	3.79
497.695	3.81
498.043	3.85
498.392	3.88
498.741	3.91
499.09	3.93
499.438	3.97
499.787	3.99
500.135	3.99
500.484	4
500.832	4
501.181	4.01
501.529	4.04
501.878	4.07
502.226	4.13
502.574	4.15
502.923	4.16
503.271	4.18
503.619	4.23
503.967	4.27
504.315	4.29
504.663	4.32
505.011	4.36
505.359	4.37
505.707	4.4
506.055	4.43
506.403	4.46
506.751	4.48
507.098	4.53
507.446	4.58
507.794	4.61
508.141	4.64
508.489	4.69
508.837	4.72
509.184	4.75
509.531	4.78
509.879	4.83
510.226	4.87
510.574	4.93
510.921	4.94
511.268	4.98
511.616	5.01
511.963	5.05
512.31	5.08
512.657	5.13
513.004	5.16
513.351	5.21
513.698	5.25
514.045	5.3
514.392	5.34
514.739	5.39
515.086	5.42
515.432	5.47
515.779	5.51
516.126	5.57
516.473	5.6
516.819	5.63
517.166	5.67
517.512	5.73
517.859	5.78
518.205	5.83
518.552	5.88
518.898	5.95
519.245	5.96
519.591	6.01
519.937	6.06
520.283	6.13
520.629	6.17
520.976	6.23
521.322	6.31
521.668	6.38
522.014	6.45
522.36	6.51
522.706	6.59
523.052	6.66
523.398	6.75
523.743	6.86
524.089	6.97
524.435	7.06
524.781	7.15
525.126	7.2
525.472	7.29
525.817	7.36
526.163	7.41
526.509	7.5
526.854	7.56
527.199	7.62
527.545	7.67
527.89	7.74
528.235	7.8
528.581	7.84
528.926	7.92
529.271	8
529.616	8.09
529.961	8.17
530.306	8.24
530.651	8.31
530.996	8.38
531.341	8.47
531.686	8.55
532.031	8.65
532.376	8.75
532.721	8.85
533.065	8.95
533.41	9.07
533.755	9.2
534.099	9.32
534.444	9.45
534.788	9.59
535.133	9.72
535.477	9.86
535.822	10.03
536.166	10.19
536.51	10.34
536.855	10.5
537.199	10.68
537.543	10.87
537.887	11.08
538.231	11.28
538.576	11.47
538.92	11.67
539.264	11.85
539.608	12.04
539.951	12.23
540.295	12.41
540.639	12.59
540.983	12.75
541.327	12.91
541.671	13.08
542.014	13.23
542.358	13.39
542.701	13.54
543.045	13.71
543.389	13.88
543.732	14.05
544.075	14.23
544.419	14.43
544.762	14.64
545.105	14.84
545.449	15.08
545.792	15.3
546.135	15.55
546.478	15.81
546.821	16.08
547.165	16.35
547.508	16.63
547.851	16.89
548.194	17.16
548.536	17.45
548.879	17.72
549.222	18
549.565	18.3
549.908	18.58
550.25	18.84
550.593	19.12
550.936	19.41
551.278	19.68
551.621	19.98
551.963	20.29
552.306	20.54
552.648	20.8
552.991	21.09
553.333	21.36
553.675	21.61
554.017	21.85
554.36	22.09
554.702	22.31
555.044	22.56
555.386	22.81
555.728	23.09
556.07	23.36
556.412	23.68
556.754	23.94
557.096	24.27
557.438	24.59
557.78	24.87
558.121	25.19
558.463	25.53
558.805	25.82
559.147	26.07
559.488	26.36
559.83	26.61
560.171	26.9
560.513	27.2
560.854	27.49
561.196	27.76
561.537	28.01
561.878	28.27
562.22	28.55
562.561	28.88
562.902	29.16
563.243	29.43
563.584	29.64
563.925	29.9
564.266	30.13
564.607	30.39
564.948	30.62
565.289	30.82
565.63	31.02
565.971	31.21
566.312	31.47
566.653	31.71
566.993	31.96
567.334	32.17
567.675	32.35
568.015	32.53
568.356	32.79
568.696	33.01
569.037	33.28
569.377	33.52
569.718	33.73
570.058	33.87
570.398	34.04
570.739	34.26
571.079	34.47
571.419	34.7
571.759	34.87
572.099	35.06
572.439	35.26
572.779	35.43
573.119	35.62
573.459	35.77
573.799	35.94
574.139	36.12
574.479	36.3
574.819	36.47
575.158	36.7
575.498	36.82
575.838	37
576.177	37.15
576.517	37.3
576.856	37.5
577.196	37.74
577.535	37.98
577.875	38.22
578.214	38.44
578.553	38.59
578.893	38.77
579.232	39.04
579.571	39.22
579.91	39.45
580.25	39.65
580.589	39.87
580.928	40.05
581.267	40.21
581.606	40.37
581.945	40.62
582.283	40.77
582.622	40.95
582.961	41.14
583.3	41.28
583.639	41.46
583.977	41.59
584.316	41.74
584.654	41.9
584.993	42.01
585.332	42.14
585.67	42.3
586.008	42.51
586.347	42.54
586.685	42.64
587.024	42.78
587.362	42.87
587.7	43
588.038	43.16
588.376	43.32
588.715	43.47
589.053	43.57
589.391	43.68
589.729	43.86
590.067	43.98
590.404	44.13
590.742	44.24
591.08	44.39
591.418	44.43
591.756	44.53
592.093	44.61
592.431	44.68
592.769	44.77
593.106	44.87
593.444	45.06
593.781	45.29
594.119	45.39
594.456	45.52
594.793	45.6
595.131	45.66
595.468	45.77
595.805	45.9
596.143	45.97
596.48	45.98
596.817	46.01
597.154	46.09
597.491	46.17
597.828	46.27
598.165	46.3
598.502	46.42
598.839	46.49
599.176	46.62
599.512	46.72
599.849	46.8
600.186	46.87
600.523	46.88
600.859	46.88
601.196	47.01
601.532	47.07
601.869	47.12
602.205	47.2
602.542	47.2
602.878	47.2
603.215	47.25
603.551	47.32
603.887	47.4
604.223	47.45
604.56	47.47
604.896	47.49
605.232	47.56
605.568	47.66
605.904	47.66
606.24	47.71
606.576	47.75
606.912	47.85
607.248	47.9
607.583	48.06
607.919	48.09
608.255	48.08
608.591	48.15
608.926	48.27
609.262	48.33
609.597	48.4
609.933	48.5
610.268	48.57
610.604	48.7
610.939	48.85
611.275	48.93
611.61	49.09
611.945	49.16
612.281	49.27
612.616	49.25
612.951	49.42
613.286	49.46
613.621	49.56
613.956	49.68
614.291	49.79
614.626	49.76
614.961	49.93
615.296	50.04
615.631	50.12
615.966	50.17
616.3	50.28
616.635	50.37
616.97	50.4
617.304	50.53
617.639	50.61
617.973	50.62
618.308	50.69
618.642	50.67
618.977	50.73
619.311	50.82
619.646	50.87
619.98	50.9
620.314	51.02
620.648	51.17
620.983	51.16
621.317	51.14
621.651	51.23
621.985	51.19
622.319	51.23
622.653	51.32
622.987	51.34
623.321	51.42
623.655	51.52
623.988	51.58
624.322	51.6
624.656	51.61
624.99	51.63
625.323	51.73
625.657	51.73
625.99	51.68
626.324	51.68
626.657	51.82
626.991	51.86
627.324	51.86
627.658	51.83
627.991	51.87
628.324	51.87
628.657	51.94
628.991	51.98
629.324	52
629.657	51.93
629.99	51.93
630.323	51.91
630.656	51.87
630.989	51.88
631.322	51.81
631.655	51.83
631.987	51.78
632.32	51.69
632.653	51.75
632.986	51.95
633.318	51.94
633.651	52.01
633.984	52.03
634.316	52.19
634.649	52.2
634.981	52.23
635.313	52.33
635.646	52.35
635.978	52.41
636.31	52.54
636.643	52.64
636.975	52.61
637.307	52.64
637.639	52.73
637.971	52.77
638.303	52.84
638.635	52.92
638.967	53.06
639.299	53.15
639.631	53.18
639.963	53.08
640.295	53.14
640.626	53.06
640.958	53.18
641.29	53.06
641.621	53.14
641.953	53.24
642.285	53.12
642.616	53.11
642.948	53.09
643.279	52.94
643.61	52.95
643.942	53.16
644.273	53.17
644.604	53.13
644.936	53.2
645.267	53.31
645.598	53.4
645.929	53.34
646.26	53.43
646.591	53.48
646.922	53.59
647.253	53.56
647.584	53.58
647.915	53.58
648.245	53.61
648.576	53.57
648.907	53.61
649.238	53.7
649.568	53.69
649.899	53.77
650.229	53.95
650.56	54.01
650.89	53.92
651.221	53.94
651.551	53.98
651.882	53.88
652.212	53.83
652.542	53.72
652.872	53.81
653.203	53.73
653.533	53.76
653.863	53.69
654.193	53.83
654.523	53.81
654.853	53.81
655.183	53.8
655.513	53.8
655.843	53.68
656.172	53.73
656.502	53.67
656.832	53.61
657.162	53.53
657.491	53.56
657.821	53.61
658.15	53.75
658.48	53.81
658.809	53.91
659.139	53.94
659.468	53.97
659.798	53.96
660.127	53.94
660.456	53.91
660.785	53.9
661.115	53.78
661.444	53.88
661.773	53.89
662.102	53.99
662.431	54.08
662.76	54.04
663.089	53.96
663.418	54.06
663.747	54.1
664.076	54.12
664.404	54.13
664.733	54.07
665.062	54.01
665.39	53.95
665.719	54.03
666.048	54.01
666.376	54.06
666.705	54.02
667.033	54.17
667.362	54.18
667.69	54.26
668.018	54.32
668.347	54.27
668.675	54.32
669.003	54.28
669.331	54.17
669.659	54.28
669.987	54.47
