Data from BA48287_Reflection_00007.txt Node
Date: Tue Nov 19 11:43:32 EST 2019
User: vgr7
Spectrometer: USB2G7710
Scans to average: 3
Trigger mode: 4
Integration Time (sec): 2.000000E-2
Electric dark correction enabled: true
Boxcar width: 10
XAxis mode: Wavelengths
Number of Pixels in Spectrum: 2048
>>>>>Begin Spectral Data<<<<<
177.721	-1.07
178.105	-29.43
178.488	-28.43
178.871	-31.79
179.254	-31.62
179.636	-27.11
180.019	-42.1
180.402	-42.86
180.785	3.03
181.168	945.24
181.55	194.65
181.933	163.75
182.316	263.36
182.698	-11455.56
183.081	-500.94
183.463	36766.67
183.846	1172.07
184.228	-641.29
184.611	-1543.68
184.993	-1433.33
185.376	-202.03
185.758	-103.35
186.14	-125.16
186.522	-119.01
186.904	-119.21
187.287	-97.5
187.669	-85.78
188.051	-78.53
188.433	-198.65
188.815	-324.5
189.197	-47.81
189.579	-20.35
189.961	-8.29
190.342	6.99
190.724	-17.24
191.106	-10.29
191.488	11.94
191.869	11.71
192.251	3.64
192.633	3.3
193.014	5.17
193.396	-0.52
193.777	5.45
194.159	9.32
194.54	11.09
194.922	4.46
195.303	5.23
195.684	2.11
196.065	-1.54
196.447	9.92
196.828	11.82
197.209	3.05
197.59	1.96
197.971	7.03
198.352	4.94
198.733	3.4
199.114	1.89
199.495	-9.4
199.876	-15.46
200.257	-7.64
200.638	-1.65
201.018	0.63
201.399	-0.66
201.78	-8.84
202.16	-8.01
202.541	-22.87
202.922	-12.25
203.302	-10.8
203.683	-19.47
204.063	-23.04
204.444	-31.34
204.824	-32.76
205.204	-40.35
205.585	-52.89
205.965	-74.79
206.345	-52.24
206.725	-31.43
207.106	-27.29
207.486	-25.46
207.866	-22.64
208.246	-25.76
208.626	-41.34
209.006	-62.92
209.386	-60.21
209.766	-62.46
210.145	-64.29
210.525	-48.32
210.905	-38.72
211.285	-36.66
211.664	-21.06
212.044	-25.51
212.424	-26.69
212.803	-27.33
213.183	-26.4
213.562	-21.48
213.942	-17.39
214.321	-30.77
214.701	-36.16
215.08	-48.11
215.459	-40.55
215.838	-37.86
216.218	-55.02
216.597	-46.88
216.976	-26.32
217.355	-35.09
217.734	-45.17
218.113	-42.28
218.492	-47.58
218.871	-44.8
219.25	-40.69
219.629	-47.05
220.008	-34.08
220.387	-30.02
220.766	-22.1
221.144	-22.59
221.523	-29.91
221.902	-27.7
222.28	-16.11
222.659	-7.9
223.037	-13.4
223.416	-21.48
223.794	-15.78
224.173	-6.81
224.551	-7.13
224.929	-13.15
225.308	-12.41
225.686	-6.99
226.064	-7.72
226.442	-7.01
226.821	-8.39
227.199	-7.43
227.577	-8.34
227.955	-7.71
228.333	-8.07
228.711	-8.08
229.089	-7.28
229.467	-6.64
229.845	-7.7
230.222	-7.08
230.6	-5.72
230.978	-1.7
231.356	-0.99
231.733	-0.57
232.111	-0.73
232.488	0.27
232.866	1.78
233.243	5.77
233.621	4.01
233.998	6.09
234.376	6.24
234.753	6.77
235.13	4.16
235.508	4.48
235.885	3.99
236.262	4.35
236.639	2.76
237.016	3.63
237.393	5.14
237.77	5.1
238.147	5.36
238.524	4.6
238.901	4.24
239.278	3.66
239.655	3.7
240.032	3.59
240.409	3.79
240.785	3.17
241.162	2.51
241.539	3.22
241.915	2.83
242.292	3.58
242.668	3.94
243.045	4.52
243.421	4.67
243.798	4.72
244.174	4.65
244.551	5.03
244.927	5.01
245.303	4.85
245.679	4.93
246.056	4.86
246.432	4.87
246.808	5
247.184	5.39
247.56	5.37
247.936	5.41
248.312	5.37
248.688	5.8
249.064	5.85
249.44	5.57
249.815	5.62
250.191	5.4
250.567	5.09
250.943	5.19
251.318	4.95
251.694	4.78
252.069	4.71
252.445	4.69
252.82	4.82
253.196	4.62
253.571	4.87
253.947	4.76
254.322	4.92
254.697	4.75
255.073	4.67
255.448	4.49
255.823	4.68
256.198	4.73
256.573	4.64
256.948	4.66
257.323	4.81
257.698	4.7
258.073	4.62
258.448	4.83
258.823	4.78
259.198	4.92
259.573	4.99
259.948	5.11
260.322	4.8
260.697	4.77
261.072	4.8
261.446	4.73
261.821	4.59
262.195	4.63
262.57	4.71
262.944	4.57
263.319	4.71
263.693	4.49
264.067	4.49
264.442	4.39
264.816	4.36
265.19	4.22
265.564	4.18
265.938	4.19
266.313	4.04
266.687	4.12
267.061	4.12
267.435	4.22
267.809	4.09
268.183	4.33
268.556	4.17
268.93	4.31
269.304	4.26
269.678	4.33
270.051	4.17
270.425	4.11
270.799	4.04
271.172	3.98
271.546	4.1
271.919	4.15
272.293	4.1
272.666	4.16
273.04	4.32
273.413	4.42
273.787	4.46
274.16	4.4
274.533	4.28
274.906	4.11
275.279	4.03
275.653	4.14
276.026	4.15
276.399	4.24
276.772	4.19
277.145	4.18
277.518	4.28
277.891	4.41
278.263	4.61
278.636	4.71
279.009	4.73
279.382	4.81
279.755	4.69
280.127	4.65
280.5	4.54
280.872	4.57
281.245	4.53
281.617	4.48
281.99	4.5
282.362	4.53
282.735	4.6
283.107	4.63
283.479	4.58
283.852	4.7
284.224	4.74
284.596	4.72
284.968	4.61
285.34	4.55
285.713	4.53
286.085	4.5
286.457	4.55
286.829	4.49
287.201	4.41
287.572	4.44
287.944	4.56
288.316	4.58
288.688	4.61
289.06	4.64
289.431	4.74
289.803	4.79
290.175	4.83
290.546	4.94
290.918	4.86
291.289	4.81
291.661	4.7
292.032	4.66
292.403	4.77
292.775	5
293.146	5.14
293.517	5.1
293.889	4.98
294.26	5.02
294.631	5.12
295.002	5.15
295.373	5.19
295.744	5.17
296.115	5.29
296.486	5.31
296.857	5.4
297.228	5.39
297.599	5.38
297.97	5.45
298.34	5.53
298.711	5.76
299.082	5.87
299.452	5.96
299.823	5.96
300.194	5.92
300.564	5.81
300.935	5.85
301.305	5.96
301.676	6.08
302.046	6.14
302.416	6.21
302.787	6.33
303.157	6.35
303.527	6.48
303.897	6.43
304.267	6.36
304.637	6.28
305.008	6.39
305.378	6.54
305.748	6.52
306.117	6.56
306.487	6.64
306.857	6.85
307.227	7.05
307.597	7.23
307.967	7.22
308.336	7.34
308.706	7.39
309.076	7.59
309.445	7.71
309.815	7.75
310.184	7.7
310.554	7.73
310.923	7.74
311.293	7.87
311.662	7.93
312.031	8.06
312.401	8.09
312.77	8.11
313.139	8.15
313.508	8.19
313.877	8.21
314.246	8.15
314.616	8.04
314.985	7.83
315.353	7.88
315.722	8.12
316.091	8.11
316.46	8.04
316.829	8.05
317.198	8.08
317.567	8.22
317.935	8.51
318.304	8.62
318.672	8.82
319.041	8.72
319.41	8.69
319.778	8.8
320.147	8.96
320.515	9.08
320.883	9.29
321.252	9.39
321.62	9.33
321.988	9.51
322.357	9.63
322.725	9.79
323.093	9.68
323.461	9.74
323.829	9.83
324.197	9.93
324.565	9.93
324.933	9.95
325.301	9.82
325.669	9.74
326.037	9.82
326.405	9.85
326.772	9.97
327.14	10.1
327.508	10.05
327.875	10.16
328.243	10.08
328.61	9.97
328.978	10.06
329.346	10.17
329.713	10.09
330.08	10.2
330.448	10.29
330.815	10.5
331.182	10.41
331.55	10.42
331.917	10.36
332.284	10.37
332.651	10.43
333.018	10.64
333.385	10.66
333.752	10.7
334.119	10.7
334.486	10.8
334.853	10.85
335.22	10.94
335.587	10.88
335.954	10.81
336.32	10.95
336.687	10.95
337.054	11.05
337.42	11.12
337.787	11.09
338.153	11.13
338.52	11.13
338.886	11.15
339.253	11.3
339.619	11.49
339.986	11.52
340.352	11.62
340.718	11.7
341.084	11.86
341.451	11.92
341.817	12.01
342.183	11.96
342.549	12.09
342.915	12.17
343.281	12.32
343.647	12.46
344.013	12.43
344.379	12.4
344.745	12.39
345.11	12.47
345.476	12.59
345.842	12.57
346.208	12.71
346.573	12.81
346.939	12.86
347.304	12.9
347.67	12.98
348.035	12.89
348.401	12.84
348.766	12.82
349.132	12.9
349.497	12.86
349.862	12.9
350.228	12.84
350.593	12.87
350.958	12.86
351.323	12.95
351.688	12.97
352.053	13.06
352.418	13.18
352.783	13.14
353.148	13.11
353.513	13.18
353.878	13.11
354.243	13.09
354.608	13.14
354.972	13.13
355.337	13.11
355.702	13.16
356.066	13.12
356.431	13.08
356.795	13.05
357.16	13.02
357.524	12.99
357.889	13
358.253	12.95
358.618	12.93
358.982	12.91
359.346	12.99
359.71	13.02
360.075	13.08
360.439	13.02
360.803	13.03
361.167	12.97
361.531	12.91
361.895	12.97
362.259	12.93
362.623	12.87
362.987	12.87
363.351	12.79
363.714	12.84
364.078	12.78
364.442	12.68
364.806	12.69
365.169	12.62
365.533	12.62
365.896	12.6
366.26	12.53
366.623	12.49
366.987	12.41
367.35	12.35
367.714	12.18
368.077	12.19
368.44	12.13
368.803	12.12
369.167	12.09
369.53	11.95
369.893	11.88
370.256	11.86
370.619	11.78
370.982	11.73
371.345	11.64
371.708	11.56
372.071	11.49
372.434	11.46
372.797	11.41
373.159	11.29
373.522	11.27
373.885	11.23
374.247	11.2
374.61	11.14
374.973	11.03
375.335	11.03
375.698	10.98
376.06	10.87
376.423	10.84
376.785	10.83
377.147	10.77
377.51	10.71
377.872	10.64
378.234	10.61
378.596	10.58
378.958	10.52
379.321	10.52
379.683	10.48
380.045	10.41
380.407	10.35
380.769	10.3
381.13	10.17
381.492	10.09
381.854	9.96
382.216	9.89
382.578	9.88
382.939	9.74
383.301	9.65
383.663	9.64
384.024	9.58
384.386	9.5
384.747	9.42
385.109	9.35
385.47	9.3
385.832	9.21
386.193	9.14
386.554	9.05
386.916	8.97
387.277	8.97
387.638	8.94
387.999	8.92
388.36	8.89
388.721	8.87
389.082	8.86
389.443	8.8
389.804	8.76
390.165	8.67
390.526	8.68
390.887	8.62
391.248	8.53
391.609	8.47
391.969	8.42
392.33	8.39
392.691	8.37
393.051	8.29
393.412	8.26
393.772	8.23
394.133	8.2
394.493	8.15
394.854	8.06
395.214	7.95
395.574	7.9
395.935	7.88
396.295	7.78
396.655	7.67
397.015	7.65
397.376	7.58
397.736	7.54
398.096	7.44
398.456	7.41
398.816	7.38
399.176	7.3
399.535	7.21
399.895	7.19
400.255	7.14
400.615	7.12
400.975	7.07
401.334	7.01
401.694	6.94
402.054	6.92
402.413	6.91
402.773	6.91
403.132	6.84
403.492	6.78
403.851	6.77
404.211	6.75
404.57	6.7
404.929	6.67
405.288	6.64
405.648	6.59
406.007	6.57
406.366	6.54
406.725	6.5
407.084	6.49
407.443	6.46
407.802	6.44
408.161	6.43
408.52	6.42
408.879	6.41
409.238	6.39
409.596	6.36
409.955	6.3
410.314	6.3
410.673	6.28
411.031	6.25
411.39	6.24
411.748	6.25
412.107	6.23
412.465	6.2
412.824	6.16
413.182	6.15
413.54	6.12
413.899	6.08
414.257	6.08
414.615	6.04
414.974	6
415.332	5.99
415.69	5.93
416.048	5.91
416.406	5.85
416.764	5.82
417.122	5.81
417.48	5.75
417.838	5.71
418.195	5.7
418.553	5.67
418.911	5.63
419.269	5.58
419.626	5.56
419.984	5.54
420.342	5.52
420.699	5.5
421.057	5.47
421.414	5.45
421.772	5.42
422.129	5.41
422.486	5.38
422.844	5.32
423.201	5.3
423.558	5.27
423.915	5.26
424.273	5.24
424.63	5.22
424.987	5.23
425.344	5.21
425.701	5.16
426.058	5.13
426.415	5.11
426.772	5.1
427.128	5.08
427.485	5.06
427.842	5.05
428.199	5.04
428.555	5.02
428.912	4.99
429.269	4.98
429.625	4.96
429.982	4.96
430.338	4.98
430.695	4.97
431.051	4.96
431.407	4.96
431.764	4.96
432.12	4.95
432.476	4.94
432.832	4.95
433.189	5
433.545	5.02
433.901	5.01
434.257	5.02
434.613	5.02
434.969	4.99
435.325	4.99
435.681	4.98
436.036	4.99
436.392	5
436.748	5.01
437.104	5.03
437.459	5.02
437.815	5.02
438.171	5.02
438.526	5.01
438.882	5
439.237	4.99
439.593	4.99
439.948	4.98
440.304	4.96
440.659	4.93
441.014	4.9
441.369	4.89
441.725	4.89
442.08	4.87
442.435	4.87
442.79	4.84
443.145	4.83
443.5	4.82
443.855	4.79
444.21	4.78
444.565	4.76
444.92	4.75
445.275	4.74
445.629	4.71
445.984	4.7
446.339	4.7
446.693	4.68
447.048	4.65
447.403	4.63
447.757	4.64
448.112	4.62
448.466	4.63
448.82	4.63
449.175	4.63
449.529	4.62
449.883	4.62
450.238	4.61
450.592	4.59
450.946	4.58
451.3	4.58
451.654	4.56
452.008	4.54
452.362	4.52
452.716	4.52
453.07	4.54
453.424	4.54
453.778	4.52
454.132	4.52
454.486	4.52
454.839	4.53
455.193	4.53
455.547	4.53
455.9	4.54
456.254	4.53
456.607	4.53
456.961	4.54
457.314	4.53
457.668	4.55
458.021	4.56
458.375	4.57
458.728	4.59
459.081	4.6
459.434	4.62
459.787	4.63
460.141	4.63
460.494	4.64
460.847	4.65
461.2	4.68
461.553	4.71
461.906	4.73
462.259	4.74
462.611	4.75
462.964	4.77
463.317	4.77
463.67	4.8
464.022	4.82
464.375	4.85
464.728	4.9
465.08	4.9
465.433	4.94
465.785	4.99
466.138	5.01
466.49	5.04
466.843	5.05
467.195	5.07
467.547	5.1
467.899	5.11
468.252	5.12
468.604	5.13
468.956	5.14
469.308	5.14
469.66	5.17
470.012	5.19
470.364	5.21
470.716	5.21
471.068	5.23
471.42	5.25
471.772	5.25
472.123	5.25
472.475	5.27
472.827	5.26
473.178	5.26
473.53	5.24
473.882	5.21
474.233	5.21
474.585	5.2
474.936	5.19
475.288	5.17
475.639	5.17
475.99	5.14
476.342	5.13
476.693	5.11
477.044	5.1
477.395	5.07
477.746	5.05
478.097	5.07
478.448	5.02
478.8	5
479.15	4.98
479.501	4.96
479.852	4.95
480.203	4.94
480.554	4.93
480.905	4.92
481.255	4.93
481.606	4.94
481.957	4.96
482.307	4.96
482.658	4.97
483.009	4.98
483.359	5
483.709	5.01
484.06	5.02
484.41	5.02
484.761	5.03
485.111	5.04
485.461	5.05
485.811	5.06
486.162	5.08
486.512	5.09
486.862	5.12
487.212	5.13
487.562	5.14
487.912	5.15
488.262	5.18
488.612	5.21
488.961	5.22
489.311	5.23
489.661	5.25
490.011	5.26
490.36	5.28
490.71	5.3
491.06	5.33
491.409	5.35
491.759	5.39
492.108	5.42
492.458	5.45
492.807	5.48
493.157	5.53
493.506	5.55
493.855	5.6
494.204	5.64
494.554	5.69
494.903	5.76
495.252	5.83
495.601	5.9
495.95	5.95
496.299	6.04
496.648	6.12
496.997	6.21
497.346	6.32
497.695	6.38
498.043	6.46
498.392	6.53
498.741	6.6
499.09	6.66
499.438	6.76
499.787	6.86
500.135	6.96
500.484	7.07
500.832	7.2
501.181	7.28
501.529	7.39
501.878	7.49
502.226	7.61
502.574	7.71
502.923	7.81
503.271	7.94
503.619	8.04
503.967	8.16
504.315	8.3
504.663	8.43
505.011	8.58
505.359	8.7
505.707	8.84
506.055	8.99
506.403	9.13
506.751	9.24
507.098	9.38
507.446	9.51
507.794	9.64
508.141	9.79
508.489	9.96
508.837	10.1
509.184	10.25
509.531	10.39
509.879	10.52
510.226	10.66
510.574	10.82
510.921	10.97
511.268	11.14
511.616	11.27
511.963	11.4
512.31	11.56
512.657	11.71
513.004	11.88
513.351	12.08
513.698	12.26
514.045	12.46
514.392	12.62
514.739	12.81
515.086	12.97
515.432	13.17
515.779	13.34
516.126	13.53
516.473	13.69
516.819	13.85
517.166	14.04
517.512	14.22
517.859	14.37
518.205	14.52
518.552	14.67
518.898	14.83
519.245	14.99
519.591	15.14
519.937	15.32
520.283	15.49
520.629	15.63
520.976	15.82
521.322	15.99
521.668	16.18
522.014	16.35
522.36	16.59
522.706	16.77
523.052	17
523.398	17.26
523.743	17.57
524.089	17.85
524.435	18.1
524.781	18.37
525.126	18.61
525.472	18.85
525.817	19.02
526.163	19.22
526.509	19.41
526.854	19.6
527.199	19.77
527.545	19.92
527.89	20.08
528.235	20.28
528.581	20.48
528.926	20.66
529.271	20.87
529.616	21.04
529.961	21.22
530.306	21.41
530.651	21.59
530.996	21.76
531.341	21.96
531.686	22.15
532.031	22.37
532.376	22.57
532.721	22.81
533.065	23.05
533.41	23.31
533.755	23.57
534.099	23.81
534.444	24.06
534.788	24.33
535.133	24.59
535.477	24.83
535.822	25.09
536.166	25.38
536.51	25.68
536.855	26.01
537.199	26.34
537.543	26.67
537.887	27.04
538.231	27.39
538.576	27.73
538.92	28.1
539.264	28.4
539.608	28.72
539.951	28.98
540.295	29.27
540.639	29.5
540.983	29.74
541.327	30
541.671	30.26
542.014	30.52
542.358	30.74
542.701	30.94
543.045	31.18
543.389	31.42
543.732	31.63
544.075	31.89
544.419	32.13
544.762	32.4
545.105	32.63
545.449	32.91
545.792	33.2
546.135	33.49
546.478	33.81
546.821	34.11
547.165	34.4
547.508	34.71
547.851	35.09
548.194	35.39
548.536	35.7
548.879	35.99
549.222	36.28
549.565	36.59
549.908	36.9
550.25	37.19
550.593	37.43
550.936	37.72
551.278	37.98
551.621	38.33
551.963	38.59
552.306	38.89
552.648	39.17
552.991	39.5
553.333	39.74
553.675	39.95
554.017	40.23
554.36	40.48
554.702	40.71
555.044	40.92
555.386	41.22
555.728	41.44
556.07	41.65
556.412	41.87
556.754	42.17
557.096	42.45
557.438	42.73
557.78	43.05
558.121	43.33
558.463	43.61
558.805	43.79
559.147	44.03
559.488	44.27
559.83	44.47
560.171	44.6
560.513	44.78
560.854	45.02
561.196	45.27
561.537	45.53
561.878	45.74
562.22	45.95
562.561	46.2
562.902	46.39
563.243	46.7
563.584	46.95
563.925	47.11
564.266	47.3
564.607	47.48
564.948	47.68
565.289	47.84
565.63	48.03
565.971	48.22
566.312	48.39
566.653	48.59
566.993	48.79
567.334	49
567.675	49.19
568.015	49.27
568.356	49.36
568.696	49.45
569.037	49.65
569.377	49.8
569.718	49.9
570.058	50.05
570.398	50.13
570.739	50.23
571.079	50.38
571.419	50.51
571.759	50.63
572.099	50.69
572.439	50.87
572.779	50.97
573.119	51.13
573.459	51.28
573.799	51.38
574.139	51.48
574.479	51.54
574.819	51.63
575.158	51.82
575.498	51.92
575.838	52.1
576.177	52.13
576.517	52.3
576.856	52.42
577.196	52.55
577.535	52.65
577.875	52.78
578.214	52.92
578.553	53.08
578.893	53.23
579.232	53.42
579.571	53.53
579.91	53.61
580.25	53.72
580.589	53.76
580.928	53.81
581.267	53.89
581.606	54.02
581.945	54.18
582.283	54.23
582.622	54.29
582.961	54.42
583.3	54.56
583.639	54.62
583.977	54.73
584.316	54.83
584.654	54.95
584.993	55.01
585.332	55.08
585.67	55.09
586.008	55.21
586.347	55.27
586.685	55.29
587.024	55.41
587.362	55.48
587.7	55.54
588.038	55.61
588.376	55.76
588.715	55.91
589.053	55.95
589.391	56.05
589.729	56.17
590.067	56.16
590.404	56.21
590.742	56.23
591.08	56.33
591.418	56.31
591.756	56.34
592.093	56.43
592.431	56.51
592.769	56.57
593.106	56.59
593.444	56.7
593.781	56.89
594.119	56.93
594.456	56.97
594.793	57.01
595.131	57.14
595.468	57.19
595.805	57.15
596.143	57.22
596.48	57.23
596.817	57.28
597.154	57.35
597.491	57.4
597.828	57.43
598.165	57.42
598.502	57.53
598.839	57.6
599.176	57.64
599.512	57.69
599.849	57.79
600.186	57.91
600.523	57.83
600.859	57.78
601.196	57.83
601.532	57.83
601.869	57.91
602.205	57.9
602.542	57.89
602.878	57.89
603.215	57.89
603.551	57.93
603.887	57.98
604.223	58.01
604.56	58.01
604.896	58.03
605.232	58.09
605.568	58.12
605.904	58.18
606.24	58.2
606.576	58.24
606.912	58.24
607.248	58.17
607.583	58.2
607.919	58.22
608.255	58.19
608.591	58.21
608.926	58.23
609.262	58.24
609.597	58.23
609.933	58.29
610.268	58.31
610.604	58.39
610.939	58.43
611.275	58.47
611.61	58.56
611.945	58.6
612.281	58.59
612.616	58.6
612.951	58.54
613.286	58.57
613.621	58.56
613.956	58.67
614.291	58.68
614.626	58.74
614.961	58.74
615.296	58.87
615.631	58.97
615.966	58.98
616.3	59.02
616.635	59.13
616.97	59.23
617.304	59.31
617.639	59.32
617.973	59.35
618.308	59.31
618.642	59.26
618.977	59.28
619.311	59.34
619.646	59.39
619.98	59.49
620.314	59.5
620.648	59.53
620.983	59.47
621.317	59.54
621.651	59.59
621.985	59.6
622.319	59.65
622.653	59.64
622.987	59.58
623.321	59.61
623.655	59.55
623.988	59.67
624.322	59.72
624.656	59.79
624.99	59.85
625.323	59.92
625.657	59.96
625.99	59.95
626.324	59.96
626.657	59.91
626.991	59.91
627.324	59.96
627.658	60.03
627.991	60.07
628.324	60.03
628.657	60.02
628.991	60.03
629.324	60.02
629.657	60.03
629.99	60.19
630.323	60.19
630.656	60.27
630.989	60.2
631.322	60.2
631.655	60.15
631.987	60.05
632.32	60.06
632.653	60.1
632.986	60.11
633.318	60.14
633.651	60.3
633.984	60.36
634.316	60.32
634.649	60.3
634.981	60.36
635.313	60.41
635.646	60.5
635.978	60.6
636.31	60.69
636.643	60.69
636.975	60.65
637.307	60.71
637.639	60.69
637.971	60.6
638.303	60.57
638.635	60.61
638.967	60.66
639.299	60.64
639.631	60.67
639.963	60.73
640.295	60.7
640.626	60.68
640.958	60.69
641.29	60.74
641.621	60.7
641.953	60.75
642.285	60.77
642.616	60.78
642.948	60.74
643.279	60.61
643.61	60.66
643.942	60.65
644.273	60.66
644.604	60.71
644.936	60.83
645.267	60.83
645.598	60.84
645.929	60.89
646.26	60.85
646.591	60.88
646.922	60.94
647.253	60.94
647.584	60.92
647.915	60.94
648.245	61.02
648.576	61.05
648.907	61.11
649.238	61.01
649.568	60.99
649.899	60.95
650.229	60.99
650.56	61.02
650.89	61.11
651.221	61.09
651.551	61.11
651.882	61.08
652.212	61.09
652.542	61.12
652.872	61.21
653.203	61.24
653.533	61.21
653.863	61.24
654.193	61.33
654.523	61.17
654.853	61.11
655.183	60.96
655.513	60.93
655.843	60.79
656.172	60.94
656.502	60.98
656.832	61.07
657.162	61.13
657.491	61.14
657.821	61.08
658.15	61.06
658.48	61.06
658.809	61.16
659.139	61.25
659.468	61.22
659.798	61.17
660.127	61.18
660.456	61.22
660.785	61.08
661.115	60.92
661.444	61.1
661.773	61.16
662.102	61.2
662.431	61.32
662.76	61.27
663.089	61.19
663.418	61.11
663.747	61.02
