Data from BA48648_Reflection_00009.txt Node
Date: Tue Nov 19 11:44:39 EST 2019
User: vgr7
Spectrometer: USB2G7710
Scans to average: 3
Trigger mode: 4
Integration Time (sec): 2.000000E-2
Electric dark correction enabled: true
Boxcar width: 10
XAxis mode: Wavelengths
Number of Pixels in Spectrum: 2048
>>>>>Begin Spectral Data<<<<<
177.721	28.57
178.105	46.63
178.488	81.81
178.871	5.88
179.254	-33.9
179.636	-205.19
180.019	-75.68
180.402	166.67
180.785	-352
181.168	379.22
181.55	84.3
181.933	122.94
182.316	52.05
182.698	-31.23
183.081	102.89
183.463	3.4
183.846	-32.65
184.228	-5.78
184.611	-3.37
184.993	-19.62
185.376	-22.24
185.758	-16.45
186.14	-36.58
186.522	-25.47
186.904	-24.86
187.287	-20.97
187.669	-13.17
188.051	-19.88
188.433	-24.24
188.815	-26.36
189.197	-18.04
189.579	-26.29
189.961	-29.94
190.342	-43.12
190.724	-51.95
191.106	-59.02
191.488	-62.38
191.869	-42.04
192.251	-39.13
192.633	-40.77
193.014	-35.65
193.396	-31.14
193.777	-41.37
194.159	-28.97
194.54	-29.18
194.922	-30.44
195.303	-29.31
195.684	-30.35
196.065	-33.83
196.447	-24.24
196.828	-11.09
197.209	-8.65
197.59	-9.54
197.971	-19.91
198.352	-16.61
198.733	-13.76
199.114	-14.08
199.495	-16.46
199.876	-27.11
200.257	-39.26
200.638	-38.61
201.018	-38.94
201.399	-30.15
201.78	-24.86
202.16	-29.16
202.541	-41.4
202.922	-31.73
203.302	-27.83
203.683	-28.76
204.063	-33.28
204.444	-46.37
204.824	-54.29
205.204	-52.35
205.585	-46.74
205.965	-50.83
206.345	-43.71
206.725	-41.35
207.106	-38.63
207.486	-31.61
207.866	-33.76
208.246	-15.29
208.626	-17.1
209.006	-16.48
209.386	-23.25
209.766	-17.32
210.145	-16.3
210.525	-17.32
210.905	-14.36
211.285	-16.74
211.664	-5.63
212.044	4.83
212.424	10.85
212.803	12.93
213.183	15.01
213.562	17.49
213.942	21.61
214.321	19.98
214.701	18.25
215.08	11.13
215.459	18.68
215.838	22.04
216.218	6.91
216.597	7.2
216.976	-2.13
217.355	0.12
217.734	-7.47
218.113	3.67
218.492	5.93
218.871	6.97
219.25	3.68
219.629	-7.81
220.008	-14.3
220.387	-23.58
220.766	-13.7
221.144	-20.49
221.523	-25.35
221.902	-13.41
222.28	-10.75
222.659	1.5
223.037	0.11
223.416	-2.84
223.794	-6.56
224.173	-5.4
224.551	-1.2
224.929	2.82
225.308	-1.11
225.686	-3.98
226.064	-14.63
226.442	-12.34
226.821	-18.95
227.199	-15.4
227.577	-13.77
227.955	-8.5
228.333	-7.24
228.711	-9.48
229.089	-8.93
229.467	-6.31
229.845	-10.17
230.222	-8.87
230.6	-11.75
230.978	-10.32
231.356	-10.25
231.733	-8.89
232.111	-5.99
232.488	-4.48
232.866	-3
233.243	-1.27
233.621	1.11
233.998	3.3
234.376	3.31
234.753	5.73
235.13	5.17
235.508	6.15
235.885	3.36
236.262	2.56
236.639	3.83
237.016	2.9
237.393	3.47
237.77	3.76
238.147	3.29
238.524	3.63
238.901	3.08
239.278	3.08
239.655	2.11
240.032	1.79
240.409	0.75
240.785	-0.02
241.162	0.26
241.539	-0.16
241.915	0.87
242.292	1.24
242.668	1.57
243.045	2.04
243.421	1.9
243.798	2.55
244.174	2.95
244.551	2.84
244.927	2.9
245.303	2.68
245.679	2.82
246.056	2.77
246.432	2.6
246.808	3.03
247.184	2.9
247.56	3.15
247.936	3.43
248.312	3.39
248.688	3.62
249.064	3.35
249.44	3.44
249.815	3.36
250.191	3.35
250.567	3.29
250.943	3.02
251.318	3.01
251.694	2.68
252.069	2.6
252.445	2.57
252.82	2.81
253.196	2.69
253.571	2.7
253.947	2.68
254.322	2.78
254.697	2.44
255.073	2.17
255.448	2.03
255.823	2.06
256.198	2.46
256.573	2.55
256.948	2.79
257.323	2.66
257.698	2.31
258.073	2.25
258.448	2.14
258.823	2.31
259.198	2.42
259.573	2.37
259.948	2.32
260.322	2.3
260.697	2.28
261.072	2.31
261.446	2.33
261.821	2.4
262.195	2.53
262.57	2.54
262.944	2.66
263.319	2.8
263.693	2.53
264.067	2.25
264.442	2.22
264.816	2.1
265.19	2.19
265.564	2.31
265.938	2.28
266.313	2.29
266.687	2.11
267.061	2
267.435	2.23
267.809	2.11
268.183	2.07
268.556	2.13
268.93	2.4
269.304	2.26
269.678	2.24
270.051	2.24
270.425	2.15
270.799	2.08
271.172	1.97
271.546	2.04
271.919	2.13
272.293	1.96
272.666	1.82
273.04	1.76
273.413	1.71
273.787	1.75
274.16	1.81
274.533	1.84
274.906	1.78
275.279	1.58
275.653	1.67
276.026	1.77
276.399	1.73
276.772	1.64
277.145	1.67
277.518	1.63
277.891	1.58
278.263	1.75
278.636	1.86
279.009	1.93
279.382	1.88
279.755	1.93
280.127	2.11
280.5	2.2
280.872	2.21
281.245	2.4
281.617	2.42
281.99	2.48
282.362	2.53
282.735	2.39
283.107	2.42
283.479	2.45
283.852	2.42
284.224	2.34
284.596	2.27
284.968	2.22
285.34	2.23
285.713	2.21
286.085	2.03
286.457	1.95
286.829	1.95
287.201	2.01
287.572	1.99
287.944	2.01
288.316	2.16
288.688	2.24
289.06	2.09
289.431	2.17
289.803	2.18
290.175	2.11
290.546	2.23
290.918	2.27
291.289	2.21
291.661	2.2
292.032	2.37
292.403	2.32
292.775	2.43
293.146	2.56
293.517	2.57
293.889	2.72
294.26	2.9
294.631	2.96
295.002	2.97
295.373	2.91
295.744	2.81
296.115	2.8
296.486	2.77
296.857	2.92
297.228	2.7
297.599	2.65
297.97	2.76
298.34	2.77
298.711	2.82
299.082	2.81
299.452	2.76
299.823	2.59
300.194	2.62
300.564	2.56
300.935	2.45
301.305	2.47
301.676	2.35
302.046	2.28
302.416	2.2
302.787	2.22
303.157	2.3
303.527	2.42
303.897	2.28
304.267	2.34
304.637	2.23
305.008	2.44
305.378	2.59
305.748	2.46
306.117	2.43
306.487	2.31
306.857	2.47
307.227	2.54
307.597	2.74
307.967	2.66
308.336	2.82
308.706	2.76
309.076	2.81
309.445	2.98
309.815	2.89
310.184	2.94
310.554	2.94
310.923	2.98
311.293	2.8
311.662	2.88
312.031	2.83
312.401	2.83
312.77	2.73
313.139	2.61
313.508	2.73
313.877	2.82
314.246	2.93
314.616	2.86
314.985	2.85
315.353	2.84
315.722	3.06
316.091	3.04
316.46	3.09
316.829	3.08
317.198	3.2
317.567	3.47
317.935	3.44
318.304	3.62
318.672	3.55
319.041	3.77
319.41	3.9
319.778	3.96
320.147	4.03
320.515	4.1
320.883	4.07
321.252	4.14
321.62	4.23
321.988	4.26
322.357	4.32
322.725	4.36
323.093	4.23
323.461	4.15
323.829	4.12
324.197	4.1
324.565	4.04
324.933	3.83
325.301	3.75
325.669	3.75
326.037	3.69
326.405	3.83
326.772	3.85
327.14	3.8
327.508	3.79
327.875	3.8
328.243	3.71
328.61	3.68
328.978	3.65
329.346	3.55
329.713	3.64
330.08	3.81
330.448	3.84
330.815	3.89
331.182	3.94
331.55	3.91
331.917	4.03
332.284	4.04
332.651	4.1
333.018	4.08
333.385	4.21
333.752	4.18
334.119	4.11
334.486	4.17
334.853	4.03
335.22	4.07
335.587	3.99
335.954	4.12
336.32	4.28
336.687	4.37
337.054	4.44
337.42	4.4
337.787	4.17
338.153	4.09
338.52	4.24
338.886	4.22
339.253	4.22
339.619	4.35
339.986	4.34
340.352	4.48
340.718	4.45
341.084	4.44
341.451	4.41
341.817	4.46
342.183	4.44
342.549	4.59
342.915	4.56
343.281	4.59
343.647	4.62
344.013	4.59
344.379	4.46
344.745	4.42
345.11	4.45
345.476	4.56
345.842	4.59
346.208	4.59
346.573	4.64
346.939	4.67
347.304	4.59
347.67	4.66
348.035	4.6
348.401	4.69
348.766	4.56
349.132	4.62
349.497	4.61
349.862	4.59
350.228	4.6
350.593	4.59
350.958	4.68
351.323	4.7
351.688	4.73
352.053	4.74
352.418	4.74
352.783	4.7
353.148	4.74
353.513	4.75
353.878	4.72
354.243	4.7
354.608	4.76
354.972	4.78
355.337	4.79
355.702	4.72
356.066	4.59
356.431	4.64
356.795	4.6
357.16	4.53
357.524	4.59
357.889	4.62
358.253	4.59
358.618	4.55
358.982	4.48
359.346	4.49
359.71	4.5
360.075	4.44
360.439	4.43
360.803	4.37
361.167	4.35
361.531	4.35
361.895	4.29
362.259	4.19
362.623	4.17
362.987	4.18
363.351	4.18
363.714	4.27
364.078	4.29
364.442	4.3
364.806	4.34
365.169	4.32
365.533	4.29
365.896	4.3
366.26	4.27
366.623	4.25
366.987	4.15
367.35	4.22
367.714	4.3
368.077	4.3
368.44	4.26
368.803	4.25
369.167	4.11
369.53	4.14
369.893	4.15
370.256	4.05
370.619	3.96
370.982	3.96
371.345	3.88
371.708	3.83
372.071	3.79
372.434	3.73
372.797	3.66
373.159	3.58
373.522	3.53
373.885	3.49
374.247	3.5
374.61	3.44
374.973	3.36
375.335	3.29
375.698	3.24
376.06	3.21
376.423	3.17
376.785	3.23
377.147	3.23
377.51	3.17
377.872	3.19
378.234	3.17
378.596	3.14
378.958	3.15
379.321	3.12
379.683	3.11
380.045	3.13
380.407	3.13
380.769	3.09
381.13	3.11
381.492	3.09
381.854	3.11
382.216	3.2
382.578	3.2
382.939	3.22
383.301	3.19
383.663	3.19
384.024	3.23
384.386	3.28
384.747	3.23
385.109	3.23
385.47	3.23
385.832	3.24
386.193	3.26
386.554	3.2
386.916	3.2
387.277	3.14
387.638	3.14
387.999	3.12
388.36	3.18
388.721	3.15
389.082	3.18
389.443	3.1
389.804	3.08
390.165	3.03
390.526	3.04
390.887	3.03
391.248	2.99
391.609	2.95
391.969	2.9
392.33	2.88
392.691	2.85
393.051	2.85
393.412	2.83
393.772	2.83
394.133	2.84
394.493	2.83
394.854	2.83
395.214	2.81
395.574	2.81
395.935	2.75
396.295	2.75
396.655	2.71
397.015	2.75
397.376	2.69
397.736	2.68
398.096	2.62
398.456	2.64
398.816	2.63
399.176	2.61
399.535	2.59
399.895	2.58
400.255	2.64
400.615	2.61
400.975	2.59
401.334	2.58
401.694	2.6
402.054	2.6
402.413	2.6
402.773	2.57
403.132	2.54
403.492	2.54
403.851	2.52
404.211	2.53
404.57	2.49
404.929	2.5
405.288	2.52
405.648	2.53
406.007	2.51
406.366	2.52
406.725	2.51
407.084	2.51
407.443	2.5
407.802	2.45
408.161	2.46
408.52	2.46
408.879	2.43
409.238	2.4
409.596	2.38
409.955	2.39
410.314	2.42
410.673	2.41
411.031	2.4
411.39	2.39
411.748	2.39
412.107	2.41
412.465	2.44
412.824	2.4
413.182	2.39
413.54	2.39
413.899	2.38
414.257	2.4
414.615	2.39
414.974	2.37
415.332	2.39
415.69	2.35
416.048	2.34
416.406	2.36
416.764	2.36
417.122	2.35
417.48	2.35
417.838	2.31
418.195	2.31
418.553	2.3
418.911	2.3
419.269	2.28
419.626	2.26
419.984	2.24
420.342	2.25
420.699	2.24
421.057	2.24
421.414	2.24
421.772	2.24
422.129	2.23
422.486	2.23
422.844	2.22
423.201	2.22
423.558	2.23
423.915	2.23
424.273	2.24
424.63	2.24
424.987	2.24
425.344	2.24
425.701	2.24
426.058	2.25
426.415	2.26
426.772	2.26
427.128	2.27
427.485	2.27
427.842	2.26
428.199	2.28
428.555	2.27
428.912	2.25
429.269	2.24
429.625	2.26
429.982	2.29
430.338	2.28
430.695	2.3
431.051	2.28
431.407	2.27
431.764	2.24
432.12	2.25
432.476	2.25
432.832	2.24
433.189	2.24
433.545	2.23
433.901	2.22
434.257	2.21
434.613	2.2
434.969	2.2
435.325	2.2
435.681	2.19
436.036	2.21
436.392	2.21
436.748	2.22
437.104	2.24
437.459	2.22
437.815	2.22
438.171	2.21
438.526	2.22
438.882	2.23
439.237	2.24
439.593	2.23
439.948	2.22
440.304	2.22
440.659	2.24
441.014	2.25
441.369	2.25
441.725	2.26
442.08	2.26
442.435	2.26
442.79	2.27
443.145	2.26
443.5	2.23
443.855	2.23
444.21	2.22
444.565	2.2
444.92	2.21
445.275	2.2
445.629	2.21
445.984	2.19
446.339	2.18
446.693	2.18
447.048	2.18
447.403	2.18
447.757	2.19
448.112	2.18
448.466	2.18
448.82	2.17
449.175	2.18
449.529	2.17
449.883	2.17
450.238	2.16
450.592	2.16
450.946	2.17
451.3	2.17
451.654	2.16
452.008	2.16
452.362	2.16
452.716	2.16
453.07	2.15
453.424	2.15
453.778	2.14
454.132	2.13
454.486	2.14
454.839	2.14
455.193	2.15
455.547	2.15
455.9	2.16
456.254	2.16
456.607	2.16
456.961	2.17
457.314	2.16
457.668	2.18
458.021	2.19
458.375	2.19
458.728	2.21
459.081	2.2
459.434	2.18
459.787	2.19
460.141	2.21
460.494	2.21
460.847	2.22
461.2	2.23
461.553	2.24
461.906	2.24
462.259	2.23
462.611	2.22
462.964	2.22
463.317	2.21
463.67	2.22
464.022	2.22
464.375	2.21
464.728	2.21
465.08	2.19
465.433	2.2
465.785	2.21
466.138	2.21
466.49	2.22
466.843	2.25
467.195	2.26
467.547	2.24
467.899	2.22
468.252	2.2
468.604	2.21
468.956	2.2
469.308	2.19
469.66	2.22
470.012	2.22
470.364	2.23
470.716	2.24
471.068	2.24
471.42	2.24
471.772	2.27
472.123	2.27
472.475	2.29
472.827	2.29
473.178	2.27
473.53	2.25
473.882	2.25
474.233	2.24
474.585	2.24
474.936	2.25
475.288	2.25
475.639	2.28
475.99	2.25
476.342	2.25
476.693	2.26
477.044	2.25
477.395	2.25
477.746	2.23
478.097	2.22
478.448	2.2
478.8	2.18
479.15	2.18
479.501	2.19
479.852	2.19
480.203	2.19
480.554	2.22
480.905	2.22
481.255	2.22
481.606	2.22
481.957	2.23
482.307	2.23
482.658	2.24
483.009	2.25
483.359	2.26
483.709	2.27
484.06	2.28
484.41	2.29
484.761	2.29
485.111	2.29
485.461	2.3
485.811	2.31
486.162	2.32
486.512	2.32
486.862	2.33
487.212	2.33
487.562	2.33
487.912	2.33
488.262	2.33
488.612	2.34
488.961	2.35
489.311	2.35
489.661	2.36
490.011	2.35
490.36	2.34
490.71	2.35
491.06	2.35
491.409	2.35
491.759	2.34
492.108	2.34
492.458	2.34
492.807	2.33
493.157	2.34
493.506	2.35
493.855	2.35
494.204	2.34
494.554	2.35
494.903	2.35
495.252	2.36
495.601	2.39
495.95	2.39
496.299	2.4
496.648	2.42
496.997	2.43
497.346	2.47
497.695	2.48
498.043	2.5
498.392	2.51
498.741	2.53
499.09	2.56
499.438	2.57
499.787	2.58
500.135	2.62
500.484	2.64
500.832	2.66
501.181	2.69
501.529	2.72
501.878	2.73
502.226	2.75
502.574	2.77
502.923	2.78
503.271	2.8
503.619	2.82
503.967	2.81
504.315	2.83
504.663	2.85
505.011	2.89
505.359	2.89
505.707	2.92
506.055	2.92
506.403	2.93
506.751	2.96
507.098	2.98
507.446	3.02
507.794	3.04
508.141	3.06
508.489	3.09
508.837	3.1
509.184	3.13
509.531	3.16
509.879	3.18
510.226	3.2
510.574	3.24
510.921	3.27
511.268	3.31
511.616	3.36
511.963	3.38
512.31	3.43
512.657	3.48
513.004	3.49
513.351	3.55
513.698	3.61
514.045	3.65
514.392	3.69
514.739	3.72
515.086	3.77
515.432	3.8
515.779	3.85
516.126	3.94
516.473	4
516.819	4.05
517.166	4.1
517.512	4.14
517.859	4.19
518.205	4.23
518.552	4.27
518.898	4.3
519.245	4.34
519.591	4.35
519.937	4.38
520.283	4.44
520.629	4.49
520.976	4.54
521.322	4.6
521.668	4.66
522.014	4.73
522.36	4.8
522.706	4.87
523.052	4.93
523.398	4.98
523.743	5.08
524.089	5.16
524.435	5.25
524.781	5.33
525.126	5.41
525.472	5.49
525.817	5.56
526.163	5.62
526.509	5.7
526.854	5.77
527.199	5.83
527.545	5.88
527.89	5.93
528.235	5.98
528.581	6.04
528.926	6.09
529.271	6.15
529.616	6.21
529.961	6.29
530.306	6.35
530.651	6.42
530.996	6.49
531.341	6.57
531.686	6.65
532.031	6.73
532.376	6.81
532.721	6.89
533.065	6.98
533.41	7.07
533.755	7.16
534.099	7.26
534.444	7.37
534.788	7.48
535.133	7.6
535.477	7.72
535.822	7.83
536.166	7.97
536.51	8.11
536.855	8.26
537.199	8.4
537.543	8.57
537.887	8.74
538.231	8.92
538.576	9.07
538.92	9.24
539.264	9.39
539.608	9.55
539.951	9.72
540.295	9.87
540.639	10.02
540.983	10.16
541.327	10.3
541.671	10.42
542.014	10.57
542.358	10.71
542.701	10.84
543.045	10.99
543.389	11.12
543.732	11.27
544.075	11.4
544.419	11.57
544.762	11.74
545.105	11.91
545.449	12.06
545.792	12.25
546.135	12.43
546.478	12.63
546.821	12.82
547.165	13
547.508	13.23
547.851	13.43
548.194	13.63
548.536	13.84
548.879	14.08
549.222	14.28
549.565	14.5
549.908	14.73
550.25	14.92
550.593	15.16
550.936	15.37
551.278	15.62
551.621	15.81
551.963	16.05
552.306	16.27
552.648	16.49
552.991	16.69
553.333	16.92
553.675	17.16
554.017	17.4
554.36	17.61
554.702	17.8
555.044	18.04
555.386	18.29
555.728	18.53
556.07	18.74
556.412	18.99
556.754	19.23
557.096	19.48
557.438	19.8
557.78	20.02
558.121	20.33
558.463	20.56
558.805	20.85
559.147	21.07
559.488	21.32
559.83	21.58
560.171	21.84
560.513	22.05
560.854	22.24
561.196	22.52
561.537	22.77
561.878	23.01
562.22	23.23
562.561	23.46
562.902	23.69
563.243	23.88
563.584	24.08
563.925	24.28
564.266	24.49
564.607	24.63
564.948	24.88
565.289	25.03
565.63	25.24
565.971	25.42
566.312	25.62
566.653	25.77
566.993	25.96
567.334	26.16
567.675	26.37
568.015	26.59
568.356	26.77
568.696	26.99
569.037	27.16
569.377	27.37
569.718	27.58
570.058	27.74
570.398	27.96
570.739	28.15
571.079	28.34
571.419	28.51
571.759	28.71
572.099	28.88
572.439	29.05
572.779	29.2
573.119	29.37
573.459	29.55
573.799	29.73
574.139	29.9
574.479	30.09
574.819	30.27
575.158	30.43
575.498	30.59
575.838	30.76
576.177	31.01
576.517	31.18
576.856	31.34
577.196	31.58
577.535	31.81
577.875	32.06
578.214	32.3
578.553	32.5
578.893	32.71
579.232	32.92
579.571	33.13
579.91	33.35
580.25	33.53
580.589	33.7
580.928	33.92
581.267	34.08
581.606	34.21
581.945	34.38
582.283	34.54
582.622	34.67
582.961	34.83
583.3	34.91
583.639	35.09
583.977	35.25
584.316	35.37
584.654	35.51
584.993	35.55
585.332	35.64
585.67	35.78
586.008	35.95
586.347	36.09
586.685	36.18
587.024	36.35
587.362	36.51
587.7	36.69
588.038	36.76
588.376	36.89
588.715	36.97
589.053	37.08
589.391	37.24
589.729	37.37
590.067	37.45
590.404	37.67
590.742	37.76
591.08	37.86
591.418	37.94
591.756	38.03
592.093	38.17
592.431	38.25
592.769	38.38
593.106	38.42
593.444	38.51
593.781	38.62
594.119	38.68
594.456	38.73
594.793	38.77
595.131	38.86
595.468	39
595.805	39.11
596.143	39.22
596.48	39.2
596.817	39.21
597.154	39.35
597.491	39.36
597.828	39.43
598.165	39.52
598.502	39.63
598.839	39.76
599.176	39.81
599.512	39.93
599.849	39.96
600.186	40
600.523	40.09
600.859	40.19
601.196	40.25
601.532	40.38
601.869	40.47
602.205	40.56
602.542	40.61
602.878	40.73
603.215	40.8
603.551	40.94
603.887	41.08
604.223	41.08
604.56	41.11
604.896	41.17
605.232	41.19
605.568	41.26
605.904	41.24
606.24	41.36
606.576	41.39
606.912	41.48
607.248	41.62
607.583	41.71
607.919	41.83
608.255	41.99
608.591	42.08
608.926	42.14
609.262	42.26
609.597	42.34
609.933	42.42
610.268	42.48
610.604	42.57
610.939	42.57
611.275	42.68
611.61	42.78
611.945	42.89
612.281	43
612.616	43.1
612.951	43.24
613.286	43.34
613.621	43.42
613.956	43.54
614.291	43.62
614.626	43.64
614.961	43.65
615.296	43.68
615.631	43.71
615.966	43.78
616.3	43.82
616.635	43.85
616.97	43.87
617.304	43.88
617.639	43.89
617.973	44.04
618.308	44.09
618.642	44.17
618.977	44.19
619.311	44.3
619.646	44.4
619.98	44.46
620.314	44.48
620.648	44.59
620.983	44.61
621.317	44.64
621.651	44.62
621.985	44.71
622.319	44.65
622.653	44.67
622.987	44.74
623.321	44.76
623.655	44.78
623.988	44.86
624.322	44.96
624.656	44.96
624.99	44.96
625.323	44.98
625.657	45.01
625.99	45.04
626.324	45.03
626.657	44.94
626.991	44.88
627.324	44.95
627.658	44.85
627.991	44.91
628.324	44.93
628.657	45.05
628.991	45.05
629.324	45.2
629.657	45.16
629.99	45.2
630.323	45.27
630.656	45.35
630.989	45.35
631.322	45.34
631.655	45.38
631.987	45.35
632.32	45.39
632.653	45.48
632.986	45.43
633.318	45.47
633.651	45.53
633.984	45.6
634.316	45.57
634.649	45.72
634.981	45.69
635.313	45.75
635.646	45.75
635.978	45.8
636.31	45.78
636.643	45.89
636.975	45.95
637.307	45.89
637.639	45.92
637.971	45.95
638.303	45.93
638.635	46
638.967	46.12
639.299	46.09
639.631	46
639.963	46.13
640.295	46.18
640.626	46.28
640.958	46.31
641.29	46.46
641.621	46.44
641.953	46.48
642.285	46.52
642.616	46.62
642.948	46.67
643.279	46.71
643.61	46.87
643.942	46.85
644.273	46.91
644.604	46.88
644.936	46.91
645.267	47.03
645.598	47.03
645.929	47
646.26	47.01
646.591	47.01
646.922	47.04
647.253	47.06
647.584	47.07
647.915	47.15
648.245	47.08
648.576	47.25
648.907	47.2
649.238	47.18
649.568	47.22
649.899	47.25
650.229	47.24
650.56	47.12
650.89	47.18
651.221	47.22
651.551	47.34
651.882	47.42
652.212	47.34
652.542	47.38
652.872	47.39
653.203	47.49
653.533	47.49
653.863	47.54
654.193	47.46
654.523	47.47
654.853	47.49
655.183	47.47
655.513	47.38
655.843	47.38
656.172	47.48
656.502	47.38
656.832	47.3
657.162	47.33
657.491	47.39
657.821	47.28
658.15	47.27
658.48	47.29
658.809	47.2
659.139	47.26
659.468	47.27
659.798	47.34
660.127	47.35
660.456	47.39
660.785	47.36
661.115	47.38
661.444	47.42
661.773	47.42
662.102	47.47
662.431	47.53
662.76	47.66
663.089	47.58
663.418	47.67
663.747	47.7
664.076	47.63
664.404	47.66
664.733	47.7
665.062	47.76
665.39	47.58
665.719	47.6
666.048	47.58
666.376	47.61
666.705	47.6
667.033	47.5
667.362	47.57
667.69	47.61
668.018	47.64
668.347	47.71
668.675	47.7
669.003	47.7
669.331	47.7
