Data from BA48648_Reflection_00013.txt Node
Date: Tue Nov 19 11:44:48 EST 2019
User: vgr7
Spectrometer: USB2G7710
Scans to average: 3
Trigger mode: 4
Integration Time (sec): 2.000000E-2
Electric dark correction enabled: true
Boxcar width: 10
XAxis mode: Wavelengths
Number of Pixels in Spectrum: 2048
>>>>>Begin Spectral Data<<<<<
177.721	-6.16
178.105	-1.12
178.488	32.25
178.871	-58.82
179.254	-32.2
179.636	-162.99
180.019	-386.49
180.402	-166.67
180.785	172
181.168	129.22
181.55	86.55
181.933	320.18
182.316	141.1
182.698	-79.4
183.081	204.05
183.463	35.09
183.846	66.6
184.228	17.21
184.611	-1.15
184.993	13.96
185.376	13.6
185.758	4.78
186.14	-1.19
186.522	1.7
186.904	12.81
187.287	7.74
187.669	11.61
188.051	5.43
188.433	5.19
188.815	7.85
189.197	15.22
189.579	11.74
189.961	17.37
190.342	11.84
190.724	-0.21
191.106	-6.81
191.488	-4.2
191.869	-8.86
192.251	-3.11
192.633	-2.24
193.014	-8.65
193.396	-13.26
193.777	-13.25
194.159	-9.45
194.54	-15.34
194.922	-18.87
195.303	-16.44
195.684	-19.04
196.065	-19.66
196.447	-30.54
196.828	-34.88
197.209	-42.31
197.59	-31.23
197.971	-31.99
198.352	-26.5
198.733	-20.14
199.114	-23.74
199.495	-27.54
199.876	-26.28
200.257	-25.62
200.638	-23.25
201.018	-25.34
201.399	-25.88
201.78	-20.5
202.16	-29.36
202.541	-37.72
202.922	-30.82
203.302	-26.03
203.683	-25.04
204.063	-25.26
204.444	-22.11
204.824	-23.99
205.204	-13.67
205.585	-23.46
205.965	-23.62
206.345	-27.45
206.725	-25.48
207.106	-18.95
207.486	-18.32
207.866	-23.65
208.246	-23.11
208.626	-28.58
209.006	-19.53
209.386	-20.41
209.766	-17.44
210.145	-9.26
210.525	-10.69
210.905	-20.92
211.285	-23.4
211.664	-16.03
212.044	-12.29
212.424	-8.88
212.803	-13.39
213.183	-21.69
213.562	-12.81
213.942	-14.13
214.321	-17.9
214.701	-16.4
215.08	-15.47
215.459	-8.86
215.838	-7.28
216.218	-15.89
216.597	-15.96
216.976	-22.93
217.355	-12.76
217.734	-31.57
218.113	-26.6
218.492	-22.1
218.871	-0.79
219.25	-2.4
219.629	-17.09
220.008	-15.6
220.387	-20
220.766	-7.18
221.144	11.31
221.523	-5.84
221.902	-4.88
222.28	1.7
222.659	1.37
223.037	-1.63
223.416	-7.61
223.794	-7.44
224.173	-6.96
224.551	5.79
224.929	5.71
225.308	1.77
225.686	11.27
226.064	4.32
226.442	9.33
226.821	6.74
227.199	9.6
227.577	10.93
227.955	9.36
228.333	7.94
228.711	6.66
229.089	2.92
229.467	7.75
229.845	4.44
230.222	6.02
230.6	3.13
230.978	7.99
231.356	8.75
231.733	10.09
232.111	10.15
232.488	7.86
232.866	8.53
233.243	9.68
233.621	8.66
233.998	9.74
234.376	8.26
234.753	7.34
235.13	6.38
235.508	6.13
235.885	5.52
236.262	6.44
236.639	6.45
237.016	7.38
237.393	7.12
237.77	8.82
238.147	8.5
238.524	9.08
238.901	7.03
239.278	6.51
239.655	5.59
240.032	5.53
240.409	6.06
240.785	5.59
241.162	5.53
241.539	5.42
241.915	5.74
242.292	6.02
242.668	6.08
243.045	6.06
243.421	6.37
243.798	6.59
244.174	6.21
244.551	6.19
244.927	5.88
245.303	5.67
245.679	5.62
246.056	5.42
246.432	5.31
246.808	5.36
247.184	5.51
247.56	5.63
247.936	5.72
248.312	5.52
248.688	5.63
249.064	5.56
249.44	5.66
249.815	5.41
250.191	5.29
250.567	5.36
250.943	5.44
251.318	5.22
251.694	4.99
252.069	4.84
252.445	4.8
252.82	4.83
253.196	4.91
253.571	4.74
253.947	4.62
254.322	4.57
254.697	4.54
255.073	4.31
255.448	4.38
255.823	4.46
256.198	4.21
256.573	4.12
256.948	4.15
257.323	4.27
257.698	4.38
258.073	4.13
258.448	4.16
258.823	4
259.198	3.95
259.573	3.88
259.948	4.04
260.322	4.05
260.697	4.22
261.072	4.13
261.446	4.2
261.821	4.13
262.195	4.1
262.57	4.28
262.944	4.4
263.319	4.53
263.693	4.46
264.067	4.8
264.442	4.81
264.816	4.77
265.19	4.57
265.564	4.63
265.938	4.72
266.313	4.72
266.687	4.86
267.061	4.85
267.435	4.83
267.809	4.84
268.183	4.82
268.556	4.71
268.93	4.84
269.304	4.76
269.678	4.88
270.051	4.9
270.425	4.78
270.799	4.57
271.172	4.49
271.546	4.54
271.919	4.29
272.293	4.27
272.666	4.36
273.04	4.41
273.413	4.28
273.787	4.2
274.16	4.07
274.533	4.13
274.906	4.2
275.279	4.32
275.653	4.33
276.026	4.36
276.399	4.4
276.772	4.32
277.145	4.35
277.518	4.33
277.891	4.4
278.263	4.42
278.636	4.74
279.009	4.66
279.382	4.52
279.755	4.53
280.127	4.52
280.5	4.52
280.872	4.43
281.245	4.53
281.617	4.7
281.99	4.8
282.362	4.68
282.735	4.73
283.107	4.76
283.479	4.85
283.852	4.89
284.224	4.79
284.596	4.8
284.968	4.74
285.34	4.78
285.713	4.77
286.085	4.7
286.457	4.65
286.829	4.7
287.201	4.78
287.572	4.83
287.944	4.99
288.316	4.98
288.688	5.06
289.06	5.15
289.431	5.19
289.803	5.32
290.175	5.23
290.546	5.2
290.918	5.15
291.289	4.96
291.661	5.07
292.032	5.05
292.403	5.09
292.775	5.21
293.146	5.21
293.517	5.25
293.889	5.46
294.26	5.34
294.631	5.29
295.002	5.33
295.373	5.36
295.744	5.24
296.115	5.33
296.486	5.39
296.857	5.31
297.228	5.34
297.599	5.21
297.97	5.3
298.34	5.27
298.711	5.38
299.082	5.57
299.452	5.57
299.823	5.71
300.194	5.73
300.564	5.68
300.935	5.69
301.305	5.69
301.676	5.44
302.046	5.62
302.416	5.64
302.787	5.56
303.157	5.49
303.527	5.56
303.897	5.44
304.267	5.44
304.637	5.67
305.008	5.78
305.378	5.86
305.748	5.93
306.117	6.16
306.487	6.26
306.857	6.3
307.227	6.29
307.597	6.31
307.967	6.36
308.336	6.52
308.706	6.65
309.076	6.84
309.445	7.07
309.815	7
310.184	7.04
310.554	7.1
310.923	7.27
311.293	7.41
311.662	7.53
312.031	7.55
312.401	7.4
312.77	7.31
313.139	7.49
313.508	7.49
313.877	7.44
314.246	7.47
314.616	7.46
314.985	7.45
315.353	7.52
315.722	7.57
316.091	7.45
316.46	7.48
316.829	7.37
317.198	7.43
317.567	7.61
317.935	7.67
318.304	7.8
318.672	7.8
319.041	7.57
319.41	7.74
319.778	7.8
320.147	7.8
320.515	8.05
320.883	7.92
321.252	8.25
321.62	8.33
321.988	8.37
322.357	8.4
322.725	8.47
323.093	8.45
323.461	8.59
323.829	8.62
324.197	8.64
324.565	8.64
324.933	8.54
325.301	8.51
325.669	8.49
326.037	8.53
326.405	8.5
326.772	8.74
327.14	8.51
327.508	8.57
327.875	8.68
328.243	8.63
328.61	8.66
328.978	8.53
329.346	8.6
329.713	8.64
330.08	8.83
330.448	8.84
330.815	8.9
331.182	8.78
331.55	8.93
331.917	8.91
332.284	9.01
332.651	9.03
333.018	9.17
333.385	9.31
333.752	9.27
334.119	9.4
334.486	9.44
334.853	9.66
335.22	9.66
335.587	9.6
335.954	9.47
336.32	9.4
336.687	9.43
337.054	9.37
337.42	9.25
337.787	9.18
338.153	9.21
338.52	9.36
338.886	9.43
339.253	9.4
339.619	9.45
339.986	9.49
340.352	9.6
340.718	9.52
341.084	9.58
341.451	9.63
341.817	9.61
342.183	9.49
342.549	9.47
342.915	9.45
343.281	9.52
343.647	9.64
344.013	9.75
344.379	9.71
344.745	9.78
345.11	9.84
345.476	9.93
345.842	9.93
346.208	9.86
346.573	9.89
346.939	9.98
347.304	9.95
347.67	9.84
348.035	9.78
348.401	9.8
348.766	9.73
349.132	9.83
349.497	9.9
349.862	9.99
350.228	9.93
350.593	9.99
350.958	10
351.323	9.98
351.688	10.01
352.053	10.03
352.418	9.9
352.783	9.8
353.148	9.77
353.513	9.71
353.878	9.65
354.243	9.59
354.608	9.56
354.972	9.59
355.337	9.68
355.702	9.66
356.066	9.69
356.431	9.77
356.795	9.74
357.16	9.63
357.524	9.56
357.889	9.55
358.253	9.48
358.618	9.46
358.982	9.39
359.346	9.38
359.71	9.42
360.075	9.44
360.439	9.51
360.803	9.42
361.167	9.46
361.531	9.47
361.895	9.48
362.259	9.5
362.623	9.51
362.987	9.47
363.351	9.45
363.714	9.34
364.078	9.19
364.442	9.14
364.806	9.14
365.169	9.21
365.533	9.18
365.896	9.2
366.26	9.18
366.623	9.26
366.987	9.25
367.35	9.2
367.714	9.14
368.077	9.12
368.44	9.16
368.803	9.1
369.167	9.06
369.53	9.09
369.893	8.98
370.256	8.94
370.619	8.95
370.982	8.95
371.345	9
371.708	9.03
372.071	8.95
372.434	8.94
372.797	8.87
373.159	8.83
373.522	8.77
373.885	8.74
374.247	8.6
374.61	8.52
374.973	8.44
375.335	8.42
375.698	8.33
376.06	8.25
376.423	8.23
376.785	8.19
377.147	8.07
377.51	8.05
377.872	8.02
378.234	8.01
378.596	8
378.958	7.93
379.321	7.81
379.683	7.78
380.045	7.72
380.407	7.66
380.769	7.58
381.13	7.54
381.492	7.47
381.854	7.48
382.216	7.46
382.578	7.41
382.939	7.4
383.301	7.37
383.663	7.37
384.024	7.33
384.386	7.32
384.747	7.27
385.109	7.23
385.47	7.15
385.832	7.08
386.193	7.04
386.554	6.99
386.916	6.99
387.277	6.93
387.638	6.91
387.999	6.89
388.36	6.91
388.721	6.87
389.082	6.93
389.443	6.89
389.804	6.86
390.165	6.83
390.526	6.78
390.887	6.73
391.248	6.63
391.609	6.61
391.969	6.54
392.33	6.5
392.691	6.48
393.051	6.44
393.412	6.39
393.772	6.36
394.133	6.32
394.493	6.29
394.854	6.28
395.214	6.23
395.574	6.2
395.935	6.18
396.295	6.13
396.655	6.04
397.015	5.99
397.376	5.95
397.736	5.9
398.096	5.86
398.456	5.84
398.816	5.84
399.176	5.76
399.535	5.75
399.895	5.75
400.255	5.69
400.615	5.67
400.975	5.64
401.334	5.57
401.694	5.58
402.054	5.53
402.413	5.49
402.773	5.46
403.132	5.41
403.492	5.38
403.851	5.34
404.211	5.31
404.57	5.28
404.929	5.25
405.288	5.29
405.648	5.3
406.007	5.28
406.366	5.28
406.725	5.27
407.084	5.25
407.443	5.21
407.802	5.22
408.161	5.2
408.52	5.19
408.879	5.19
409.238	5.15
409.596	5.15
409.955	5.15
410.314	5.15
410.673	5.11
411.031	5.11
411.39	5.14
411.748	5.16
412.107	5.17
412.465	5.13
412.824	5.09
413.182	5.04
413.54	5.03
413.899	5.02
414.257	5.02
414.615	4.98
414.974	4.96
415.332	4.93
415.69	4.92
416.048	4.91
416.406	4.88
416.764	4.85
417.122	4.8
417.48	4.81
417.838	4.78
418.195	4.77
418.553	4.73
418.911	4.69
419.269	4.66
419.626	4.64
419.984	4.64
420.342	4.61
420.699	4.59
421.057	4.57
421.414	4.53
421.772	4.5
422.129	4.49
422.486	4.47
422.844	4.44
423.201	4.42
423.558	4.41
423.915	4.41
424.273	4.41
424.63	4.4
424.987	4.38
425.344	4.38
425.701	4.38
426.058	4.37
426.415	4.34
426.772	4.31
427.128	4.31
427.485	4.29
427.842	4.28
428.199	4.29
428.555	4.27
428.912	4.27
429.269	4.26
429.625	4.29
429.982	4.28
430.338	4.29
430.695	4.28
431.051	4.26
431.407	4.24
431.764	4.22
432.12	4.24
432.476	4.25
432.832	4.24
433.189	4.24
433.545	4.22
433.901	4.25
434.257	4.25
434.613	4.24
434.969	4.24
435.325	4.23
435.681	4.21
436.036	4.21
436.392	4.22
436.748	4.23
437.104	4.21
437.459	4.19
437.815	4.19
438.171	4.19
438.526	4.19
438.882	4.19
439.237	4.19
439.593	4.18
439.948	4.16
440.304	4.15
440.659	4.14
441.014	4.15
441.369	4.14
441.725	4.15
442.08	4.13
442.435	4.13
442.79	4.13
443.145	4.14
443.5	4.13
443.855	4.11
444.21	4.1
444.565	4.09
444.92	4.1
445.275	4.09
445.629	4.08
445.984	4.08
446.339	4.07
446.693	4.07
447.048	4.05
447.403	4.05
447.757	4.03
448.112	4.02
448.466	4
448.82	4.01
449.175	3.99
449.529	4
449.883	3.99
450.238	3.96
450.592	3.94
450.946	3.94
451.3	3.94
451.654	3.93
452.008	3.92
452.362	3.9
452.716	3.9
453.07	3.9
453.424	3.88
453.778	3.88
454.132	3.85
454.486	3.84
454.839	3.84
455.193	3.84
455.547	3.86
455.9	3.87
456.254	3.86
456.607	3.88
456.961	3.86
457.314	3.86
457.668	3.89
458.021	3.89
458.375	3.89
458.728	3.89
459.081	3.91
459.434	3.89
459.787	3.91
460.141	3.92
460.494	3.93
460.847	3.94
461.2	3.96
461.553	3.98
461.906	4.01
462.259	4
462.611	4.02
462.964	4.03
463.317	4.04
463.67	4.04
464.022	4.05
464.375	4.08
464.728	4.09
465.08	4.07
465.433	4.09
465.785	4.12
466.138	4.13
466.49	4.14
466.843	4.16
467.195	4.16
467.547	4.16
467.899	4.18
468.252	4.19
468.604	4.2
468.956	4.22
469.308	4.21
469.66	4.24
470.012	4.24
470.364	4.24
470.716	4.25
471.068	4.26
471.42	4.27
471.772	4.28
472.123	4.27
472.475	4.3
472.827	4.3
473.178	4.29
473.53	4.3
473.882	4.31
474.233	4.3
474.585	4.31
474.936	4.32
475.288	4.3
475.639	4.29
475.99	4.27
476.342	4.24
476.693	4.24
477.044	4.23
477.395	4.22
477.746	4.21
478.097	4.19
478.448	4.18
478.8	4.16
479.15	4.16
479.501	4.16
479.852	4.15
480.203	4.17
480.554	4.16
480.905	4.15
481.255	4.16
481.606	4.16
481.957	4.16
482.307	4.15
482.658	4.17
483.009	4.17
483.359	4.17
483.709	4.19
484.06	4.19
484.41	4.19
484.761	4.21
485.111	4.21
485.461	4.2
485.811	4.2
486.162	4.21
486.512	4.23
486.862	4.23
487.212	4.25
487.562	4.25
487.912	4.25
488.262	4.27
488.612	4.27
488.961	4.28
489.311	4.28
489.661	4.29
490.011	4.28
490.36	4.29
490.71	4.29
491.06	4.3
491.409	4.31
491.759	4.32
492.108	4.32
492.458	4.33
492.807	4.36
493.157	4.39
493.506	4.41
493.855	4.42
494.204	4.43
494.554	4.43
494.903	4.46
495.252	4.49
495.601	4.51
495.95	4.54
496.299	4.57
496.648	4.62
496.997	4.67
497.346	4.73
497.695	4.74
498.043	4.78
498.392	4.8
498.741	4.84
499.09	4.87
499.438	4.91
499.787	4.94
500.135	4.96
500.484	4.99
500.832	5.03
501.181	5.08
501.529	5.12
501.878	5.19
502.226	5.23
502.574	5.28
502.923	5.32
503.271	5.34
503.619	5.38
503.967	5.41
504.315	5.43
504.663	5.45
505.011	5.53
505.359	5.57
505.707	5.63
506.055	5.7
506.403	5.74
506.751	5.8
507.098	5.85
507.446	5.89
507.794	5.95
508.141	6.01
508.489	6.06
508.837	6.12
509.184	6.16
509.531	6.22
509.879	6.28
510.226	6.36
510.574	6.43
510.921	6.49
511.268	6.57
511.616	6.64
511.963	6.71
512.31	6.76
512.657	6.83
513.004	6.89
513.351	6.94
513.698	7.01
514.045	7.09
514.392	7.19
514.739	7.29
515.086	7.37
515.432	7.44
515.779	7.51
516.126	7.61
516.473	7.65
516.819	7.7
517.166	7.75
517.512	7.78
517.859	7.85
518.205	7.89
518.552	7.95
518.898	8
519.245	8.06
519.591	8.11
519.937	8.17
520.283	8.25
520.629	8.34
520.976	8.42
521.322	8.49
521.668	8.55
522.014	8.65
522.36	8.71
522.706	8.8
523.052	8.9
523.398	8.99
523.743	9.16
524.089	9.31
524.435	9.44
524.781	9.57
525.126	9.66
525.472	9.77
525.817	9.87
526.163	9.94
526.509	10.03
526.854	10.12
527.199	10.22
527.545	10.3
527.89	10.37
528.235	10.45
528.581	10.54
528.926	10.62
529.271	10.7
529.616	10.8
529.961	10.89
530.306	10.98
530.651	11.07
530.996	11.16
531.341	11.26
531.686	11.36
532.031	11.47
532.376	11.58
532.721	11.69
533.065	11.81
533.41	11.95
533.755	12.09
534.099	12.22
534.444	12.33
534.788	12.44
535.133	12.58
535.477	12.71
535.822	12.86
536.166	13.02
536.51	13.19
536.855	13.36
537.199	13.52
537.543	13.7
537.887	13.9
538.231	14.07
538.576	14.25
538.92	14.43
539.264	14.6
539.608	14.77
539.951	14.93
540.295	15.12
540.639	15.26
540.983	15.43
541.327	15.58
541.671	15.74
542.014	15.91
542.358	16.07
542.701	16.21
543.045	16.35
543.389	16.5
543.732	16.66
544.075	16.83
544.419	17.02
544.762	17.2
545.105	17.37
545.449	17.56
545.792	17.76
546.135	17.96
546.478	18.16
546.821	18.4
547.165	18.62
547.508	18.82
547.851	19.07
548.194	19.25
548.536	19.51
548.879	19.75
549.222	19.97
549.565	20.18
549.908	20.45
550.25	20.71
550.593	20.95
550.936	21.2
551.278	21.46
551.621	21.69
551.963	21.93
552.306	22.15
552.648	22.39
552.991	22.66
553.333	22.93
553.675	23.22
554.017	23.45
554.36	23.72
554.702	23.97
555.044	24.21
555.386	24.49
555.728	24.75
556.07	24.98
556.412	25.25
556.754	25.56
557.096	25.8
557.438	26.04
557.78	26.33
558.121	26.58
558.463	26.81
558.805	27.03
559.147	27.31
559.488	27.61
559.83	27.91
560.171	28.19
560.513	28.43
560.854	28.69
561.196	28.96
561.537	29.25
561.878	29.52
562.22	29.82
562.561	30.08
562.902	30.33
563.243	30.54
563.584	30.8
563.925	31.01
564.266	31.27
564.607	31.5
564.948	31.68
565.289	31.91
565.63	32.16
565.971	32.4
566.312	32.63
566.653	32.84
566.993	33.02
567.334	33.23
567.675	33.51
568.015	33.72
568.356	34.02
568.696	34.22
569.037	34.41
569.377	34.53
569.718	34.75
570.058	34.98
570.398	35.22
570.739	35.39
571.079	35.63
571.419	35.8
571.759	36.03
572.099	36.25
572.439	36.46
572.779	36.59
573.119	36.79
573.459	36.99
573.799	37.18
574.139	37.35
574.479	37.55
574.819	37.65
575.158	37.83
575.498	37.96
575.838	38.16
576.177	38.35
576.517	38.61
576.856	38.79
577.196	39.02
577.535	39.28
577.875	39.52
578.214	39.71
578.553	39.92
578.893	40.12
579.232	40.3
579.571	40.46
579.91	40.65
580.25	40.9
580.589	41.03
580.928	41.2
581.267	41.4
581.606	41.53
581.945	41.78
582.283	41.96
582.622	42.1
582.961	42.3
583.3	42.46
583.639	42.59
583.977	42.79
584.316	42.85
584.654	43.01
584.993	43.13
585.332	43.33
585.67	43.52
586.008	43.69
586.347	43.87
586.685	44.04
587.024	44.25
587.362	44.38
587.7	44.53
588.038	44.71
588.376	44.87
588.715	44.98
589.053	45.07
589.391	45.17
589.729	45.31
590.067	45.4
590.404	45.56
590.742	45.72
591.08	45.81
591.418	45.92
591.756	45.95
592.093	46.04
592.431	46.11
592.769	46.2
593.106	46.31
593.444	46.44
593.781	46.61
594.119	46.72
594.456	46.85
594.793	46.96
595.131	47.05
595.468	47.2
595.805	47.32
596.143	47.4
596.48	47.47
596.817	47.53
597.154	47.61
597.491	47.68
597.828	47.73
598.165	47.82
598.502	47.96
598.839	48.2
599.176	48.27
599.512	48.37
599.849	48.44
600.186	48.54
600.523	48.62
600.859	48.72
601.196	48.82
601.532	48.89
601.869	49.01
602.205	49.09
602.542	49.1
602.878	49.17
603.215	49.26
603.551	49.36
603.887	49.47
604.223	49.57
604.56	49.67
604.896	49.81
605.232	49.93
605.568	49.96
605.904	49.99
606.24	50.18
606.576	50.28
606.912	50.41
607.248	50.49
607.583	50.61
607.919	50.64
608.255	50.81
608.591	50.86
608.926	50.94
609.262	51.05
609.597	51.19
609.933	51.31
610.268	51.42
610.604	51.47
610.939	51.54
611.275	51.58
611.61	51.61
611.945	51.6
612.281	51.65
612.616	51.77
612.951	51.84
613.286	51.88
613.621	51.95
613.956	52.06
614.291	52.13
614.626	52.16
614.961	52.26
615.296	52.25
615.631	52.32
615.966	52.39
616.3	52.5
616.635	52.55
616.97	52.54
617.304	52.59
617.639	52.75
617.973	52.8
618.308	52.89
618.642	52.97
618.977	53.1
619.311	53.19
619.646	53.34
619.98	53.41
620.314	53.44
620.648	53.53
620.983	53.57
621.317	53.66
621.651	53.79
621.985	53.87
622.319	53.89
622.653	53.98
622.987	54.08
623.321	54.11
623.655	54.2
623.988	54.28
624.322	54.32
624.656	54.35
624.99	54.36
625.323	54.44
625.657	54.54
625.99	54.54
626.324	54.6
626.657	54.5
626.991	54.52
627.324	54.58
627.658	54.53
627.991	54.57
628.324	54.56
628.657	54.6
628.991	54.59
629.324	54.73
629.657	54.79
629.99	54.8
630.323	54.83
630.656	54.79
630.989	54.86
631.322	54.92
631.655	54.98
631.987	55.07
632.32	55.04
632.653	55.11
632.986	55.19
633.318	55.22
633.651	55.28
633.984	55.24
634.316	55.24
634.649	55.4
634.981	55.36
635.313	55.4
635.646	55.47
635.978	55.55
636.31	55.51
636.643	55.49
636.975	55.54
637.307	55.55
637.639	55.64
637.971	55.68
638.303	55.7
638.635	55.75
638.967	55.77
639.299	55.91
639.631	55.88
639.963	55.9
640.295	55.86
640.626	55.97
640.958	56.05
641.29	56.16
641.621	56.05
641.953	56.18
642.285	56.32
642.616	56.28
642.948	56.38
643.279	56.4
643.61	56.46
643.942	56.48
644.273	56.46
644.604	56.47
644.936	56.56
645.267	56.58
645.598	56.55
645.929	56.68
646.26	56.7
646.591	56.66
646.922	56.72
647.253	56.87
647.584	56.82
647.915	56.99
648.245	56.92
648.576	56.99
648.907	56.96
649.238	56.86
649.568	56.83
649.899	56.92
650.229	57.02
650.56	57.07
650.89	57.15
651.221	57.25
651.551	57.36
651.882	57.29
652.212	57.27
652.542	57.31
652.872	57.31
653.203	57.3
653.533	57.36
653.863	57.43
654.193	57.42
654.523	57.53
654.853	57.47
655.183	57.59
655.513	57.81
655.843	57.92
656.172	58.03
656.502	58.19
656.832	58.06
657.162	58
657.491	58.04
657.821	58.04
658.15	58.07
658.48	58.07
658.809	58.11
659.139	58.21
659.468	58.31
659.798	58.36
660.127	58.31
660.456	58.48
660.785	58.5
661.115	58.51
661.444	58.62
661.773	58.7
662.102	58.7
662.431	58.63
662.76	58.62
663.089	58.55
663.418	58.49
663.747	58.47
664.076	58.68
664.404	58.82
664.733	58.83
665.062	58.74
665.39	58.65
665.719	58.76
666.048	58.77
666.376	58.75
666.705	58.73
667.033	58.84
667.362	58.78
667.69	58.76
668.018	58.8
668.347	58.83
668.675	58.84
669.003	58.9
669.331	58.76
