Data from BA48648_Reflection_00012.txt Node
Date: Tue Nov 19 11:44:46 EST 2019
User: vgr7
Spectrometer: USB2G7710
Scans to average: 3
Trigger mode: 4
Integration Time (sec): 2.000000E-2
Electric dark correction enabled: true
Boxcar width: 10
XAxis mode: Wavelengths
Number of Pixels in Spectrum: 2048
>>>>>Begin Spectral Data<<<<<
177.721	82.31
178.105	108.43
178.488	49.18
178.871	-5.88
179.254	54.24
179.636	70.78
180.019	-21.62
180.402	466.67
180.785	-152
181.168	41.56
181.55	133.63
181.933	113.76
182.316	572.6
182.698	114.95
183.081	-255.49
183.463	-134.16
183.846	-158.81
184.228	-138.5
184.611	-79.68
184.993	-55.09
185.376	-63.76
185.758	-41.48
186.14	-57.48
186.522	-33.76
186.904	-26.77
187.287	-33.94
187.669	-20.1
188.051	-15.03
188.433	-10.03
188.815	-4.3
189.197	-10.9
189.579	-13.31
189.961	-20.86
190.342	-14.86
190.724	-21.23
191.106	-28.89
191.488	-12.02
191.869	-8.37
192.251	0.96
192.633	-3.62
193.014	-12.86
193.396	-18.78
193.777	-17.38
194.159	-13.28
194.54	-14.8
194.922	-19.46
195.303	-22.97
195.684	-20.61
196.065	-25.05
196.447	-25.05
196.828	-34.32
197.209	-27.14
197.59	-13.48
197.971	-20.58
198.352	-27.96
198.733	-26.82
199.114	-16.38
199.495	-29.82
199.876	-41.7
200.257	-45.79
200.638	-45.39
201.018	-40.86
201.399	-30.89
201.78	-42.67
202.16	-34.91
202.541	-40.97
202.922	-21.47
203.302	-22.58
203.683	-31.34
204.063	-27.53
204.444	-32.37
204.824	-23.47
205.204	-23.62
205.585	-21.21
205.965	-20.32
206.345	-20.21
206.725	-17.92
207.106	-14
207.486	-10.35
207.866	-7.51
208.246	-5.27
208.626	-5.49
209.006	-11.1
209.386	-10.44
209.766	-6.97
210.145	-14.78
210.525	-14.4
210.905	-21.27
211.285	-18.68
211.664	-23.75
212.044	-28.91
212.424	-24.39
212.803	-29.45
213.183	-31.89
213.562	-30.42
213.942	-35.57
214.321	-37.55
214.701	-49.72
215.08	-59.97
215.459	-56.43
215.838	-56.59
216.218	-72.96
216.597	-79.26
216.976	-76.88
217.355	-81.42
217.734	-95.18
218.113	-97.68
218.492	-102.96
218.871	-97.31
219.25	-103.31
219.629	-117.7
220.008	-108.41
220.387	-136.84
220.766	-119.39
221.144	-104.71
221.523	-100.91
221.902	-91.13
222.28	-74.97
222.659	-57.26
223.037	-57.24
223.416	-56
223.794	-55.49
224.173	-47.07
224.551	-33.25
224.929	-36.96
225.308	-24.13
225.686	-24.61
226.064	-19.21
226.442	-13.11
226.821	-8.59
227.199	-4.16
227.577	-2.56
227.955	-2.87
228.333	0.82
228.711	2.05
229.089	3.99
229.467	2.31
229.845	3.18
230.222	2.63
230.6	3
230.978	4.84
231.356	5.16
231.733	4.57
232.111	3.07
232.488	2.67
232.866	5.48
233.243	3.07
233.621	5.26
233.998	5.27
234.376	4.11
234.753	3.05
235.13	1.35
235.508	1.88
235.885	2.07
236.262	2.29
236.639	2.47
237.016	1.06
237.393	1.48
237.77	2.44
238.147	1.96
238.524	1.39
238.901	0.55
239.278	0.69
239.655	1.5
240.032	1.45
240.409	1.66
240.785	1.68
241.162	1.72
241.539	1.49
241.915	1.36
242.292	1.46
242.668	1.54
243.045	2.52
243.421	2.77
243.798	3.13
244.174	3.2
244.551	3.38
244.927	3.53
245.303	3.51
245.679	3.36
246.056	3.24
246.432	3.32
246.808	3.59
247.184	3.55
247.56	3.41
247.936	3.78
248.312	3.76
248.688	3.69
249.064	3.5
249.44	3.44
249.815	3.7
250.191	3.81
250.567	3.75
250.943	3.46
251.318	3.13
251.694	2.83
252.069	2.56
252.445	2.24
252.82	2.42
253.196	2.42
253.571	2.68
253.947	3.02
254.322	2.97
254.697	2.75
255.073	2.76
255.448	2.9
255.823	2.7
256.198	2.77
256.573	2.77
256.948	2.93
257.323	3.04
257.698	2.9
258.073	2.89
258.448	3.16
258.823	3.03
259.198	3.18
259.573	3.26
259.948	3.26
260.322	3.25
260.697	3.12
261.072	3.3
261.446	3.27
261.821	3.25
262.195	3.26
262.57	3.29
262.944	3.29
263.319	3.37
263.693	3.49
264.067	3.52
264.442	3.42
264.816	3.45
265.19	3.37
265.564	3.28
265.938	3.26
266.313	3.12
266.687	3.11
267.061	3.11
267.435	3.09
267.809	3.15
268.183	3.13
268.556	3.15
268.93	3.05
269.304	3.04
269.678	3.03
270.051	3
270.425	3.07
270.799	2.97
271.172	2.73
271.546	2.65
271.919	2.54
272.293	2.7
272.666	2.87
273.04	2.91
273.413	3
273.787	2.96
274.16	2.95
274.533	2.9
274.906	3
275.279	2.93
275.653	2.99
276.026	2.96
276.399	3.02
276.772	3.02
277.145	3.04
277.518	2.97
277.891	2.94
278.263	2.99
278.636	3.11
279.009	3.33
279.382	3.29
279.755	3.26
280.127	3.26
280.5	3.16
280.872	3.33
281.245	3.38
281.617	3.32
281.99	3.49
282.362	3.75
282.735	3.61
283.107	3.59
283.479	3.59
283.852	3.67
284.224	3.59
284.596	3.44
284.968	3.51
285.34	3.46
285.713	3.47
286.085	3.37
286.457	3.41
286.829	3.28
287.201	3.4
287.572	3.44
287.944	3.5
288.316	3.4
288.688	3.35
289.06	3.33
289.431	3.47
289.803	3.35
290.175	3.28
290.546	3.36
290.918	3.46
291.289	3.42
291.661	3.43
292.032	3.44
292.403	3.59
292.775	3.53
293.146	3.64
293.517	3.63
293.889	3.63
294.26	3.57
294.631	3.66
295.002	3.56
295.373	3.53
295.744	3.54
296.115	3.52
296.486	3.38
296.857	3.39
297.228	3.36
297.599	3.39
297.97	3.4
298.34	3.53
298.711	3.41
299.082	3.41
299.452	3.42
299.823	3.39
300.194	3.33
300.564	3.27
300.935	3.17
301.305	3.1
301.676	3.14
302.046	3.12
302.416	3.09
302.787	3.16
303.157	3.21
303.527	3.16
303.897	3.24
304.267	3.35
304.637	3.43
305.008	3.37
305.378	3.43
305.748	3.32
306.117	3.12
306.487	3.4
306.857	3.5
307.227	3.61
307.597	3.68
307.967	3.67
308.336	3.63
308.706	3.67
309.076	3.86
309.445	3.9
309.815	3.94
310.184	3.97
310.554	3.97
310.923	3.88
311.293	3.78
311.662	3.9
312.031	3.84
312.401	3.78
312.77	3.81
313.139	3.73
313.508	3.78
313.877	3.77
314.246	3.6
314.616	3.58
314.985	3.45
315.353	3.33
315.722	3.45
316.091	3.49
316.46	3.52
316.829	3.4
317.198	3.4
317.567	3.51
317.935	3.57
318.304	3.57
318.672	3.68
319.041	3.69
319.41	3.56
319.778	3.73
320.147	3.62
320.515	3.5
320.883	3.48
321.252	3.55
321.62	3.54
321.988	3.6
322.357	3.55
322.725	3.64
323.093	3.71
323.461	3.69
323.829	3.63
324.197	3.63
324.565	3.49
324.933	3.42
325.301	3.19
325.669	3.08
326.037	3.08
326.405	3.1
326.772	3.19
327.14	3.17
327.508	3
327.875	3.04
328.243	3.05
328.61	3.04
328.978	3.05
329.346	3.06
329.713	3.16
330.08	3.22
330.448	3.18
330.815	3.3
331.182	3.33
331.55	3.4
331.917	3.4
332.284	3.56
332.651	3.53
333.018	3.53
333.385	3.58
333.752	3.62
334.119	3.6
334.486	3.55
334.853	3.53
335.22	3.6
335.587	3.6
335.954	3.61
336.32	3.57
336.687	3.54
337.054	3.6
337.42	3.49
337.787	3.43
338.153	3.41
338.52	3.39
338.886	3.34
339.253	3.28
339.619	3.39
339.986	3.38
340.352	3.44
340.718	3.54
341.084	3.5
341.451	3.46
341.817	3.52
342.183	3.59
342.549	3.66
342.915	3.66
343.281	3.65
343.647	3.72
344.013	3.81
344.379	3.79
344.745	3.74
345.11	3.67
345.476	3.64
345.842	3.61
346.208	3.59
346.573	3.56
346.939	3.58
347.304	3.56
347.67	3.41
348.035	3.35
348.401	3.38
348.766	3.39
349.132	3.43
349.497	3.47
349.862	3.43
350.228	3.44
350.593	3.45
350.958	3.54
351.323	3.53
351.688	3.53
352.053	3.47
352.418	3.54
352.783	3.55
353.148	3.57
353.513	3.61
353.878	3.56
354.243	3.58
354.608	3.6
354.972	3.58
355.337	3.78
355.702	3.73
356.066	3.72
356.431	3.68
356.795	3.67
357.16	3.63
357.524	3.67
357.889	3.66
358.253	3.63
358.618	3.6
358.982	3.62
359.346	3.66
359.71	3.69
360.075	3.68
360.439	3.74
360.803	3.79
361.167	3.73
361.531	3.76
361.895	3.77
362.259	3.84
362.623	3.76
362.987	3.75
363.351	3.83
363.714	3.88
364.078	3.93
364.442	3.92
364.806	3.96
365.169	3.94
365.533	3.94
365.896	4.02
366.26	4.02
366.623	3.98
366.987	3.97
367.35	3.99
367.714	4
368.077	4.02
368.44	4.03
368.803	4.03
369.167	3.98
369.53	3.96
369.893	3.86
370.256	3.91
370.619	3.88
370.982	3.84
371.345	3.88
371.708	3.82
372.071	3.83
372.434	3.8
372.797	3.79
373.159	3.77
373.522	3.68
373.885	3.67
374.247	3.71
374.61	3.65
374.973	3.64
375.335	3.64
375.698	3.62
376.06	3.57
376.423	3.62
376.785	3.66
377.147	3.65
377.51	3.64
377.872	3.63
378.234	3.63
378.596	3.6
378.958	3.52
379.321	3.52
379.683	3.51
380.045	3.47
380.407	3.46
380.769	3.45
381.13	3.5
381.492	3.49
381.854	3.45
382.216	3.47
382.578	3.49
382.939	3.46
383.301	3.4
383.663	3.41
384.024	3.41
384.386	3.42
384.747	3.4
385.109	3.42
385.47	3.45
385.832	3.42
386.193	3.44
386.554	3.4
386.916	3.41
387.277	3.41
387.638	3.41
387.999	3.4
388.36	3.4
388.721	3.41
389.082	3.46
389.443	3.5
389.804	3.53
390.165	3.5
390.526	3.52
390.887	3.53
391.248	3.52
391.609	3.51
391.969	3.48
392.33	3.48
392.691	3.46
393.051	3.42
393.412	3.44
393.772	3.45
394.133	3.48
394.493	3.46
394.854	3.44
395.214	3.41
395.574	3.4
395.935	3.39
396.295	3.35
396.655	3.28
397.015	3.22
397.376	3.22
397.736	3.22
398.096	3.21
398.456	3.21
398.816	3.24
399.176	3.2
399.535	3.19
399.895	3.17
400.255	3.22
400.615	3.2
400.975	3.18
401.334	3.14
401.694	3.12
402.054	3.15
402.413	3.14
402.773	3.16
403.132	3.18
403.492	3.17
403.851	3.15
404.211	3.16
404.57	3.16
404.929	3.1
405.288	3.12
405.648	3.08
406.007	3.07
406.366	3.04
406.725	3.06
407.084	3.05
407.443	3.04
407.802	3.01
408.161	3.03
408.52	3.01
408.879	3.01
409.238	3.02
409.596	3
409.955	2.96
410.314	2.94
410.673	2.89
411.031	2.91
411.39	2.94
411.748	2.98
412.107	2.99
412.465	3.01
412.824	2.98
413.182	3.01
413.54	3.01
413.899	2.99
414.257	2.98
414.615	2.97
414.974	2.99
415.332	2.97
415.69	2.96
416.048	2.98
416.406	2.97
416.764	2.96
417.122	2.97
417.48	3.02
417.838	3.04
418.195	3.05
418.553	3.06
418.911	3.04
419.269	3.05
419.626	3.05
419.984	3.06
420.342	3.05
420.699	3.04
421.057	3.06
421.414	3.08
421.772	3.09
422.129	3.1
422.486	3.1
422.844	3.12
423.201	3.11
423.558	3.11
423.915	3.12
424.273	3.14
424.63	3.13
424.987	3.12
425.344	3.12
425.701	3.12
426.058	3.12
426.415	3.12
426.772	3.11
427.128	3.11
427.485	3.11
427.842	3.1
428.199	3.09
428.555	3.06
428.912	3.06
429.269	3.04
429.625	3.03
429.982	3.02
430.338	3.01
430.695	2.99
431.051	2.97
431.407	2.96
431.764	2.93
432.12	2.95
432.476	2.96
432.832	2.96
433.189	2.96
433.545	2.94
433.901	2.95
434.257	2.92
434.613	2.91
434.969	2.89
435.325	2.91
435.681	2.92
436.036	2.93
436.392	2.92
436.748	2.9
437.104	2.91
437.459	2.9
437.815	2.91
438.171	2.93
438.526	2.94
438.882	2.95
439.237	2.95
439.593	2.94
439.948	2.92
440.304	2.93
440.659	2.92
441.014	2.92
441.369	2.92
441.725	2.94
442.08	2.95
442.435	2.96
442.79	2.96
443.145	2.95
443.5	2.94
443.855	2.94
444.21	2.95
444.565	2.94
444.92	2.94
445.275	2.94
445.629	2.92
445.984	2.94
446.339	2.94
446.693	2.95
447.048	2.94
447.403	2.94
447.757	2.92
448.112	2.92
448.466	2.92
448.82	2.92
449.175	2.91
449.529	2.91
449.883	2.89
450.238	2.86
450.592	2.86
450.946	2.87
451.3	2.85
451.654	2.84
452.008	2.86
452.362	2.86
452.716	2.87
453.07	2.87
453.424	2.83
453.778	2.83
454.132	2.83
454.486	2.83
454.839	2.83
455.193	2.84
455.547	2.84
455.9	2.84
456.254	2.84
456.607	2.83
456.961	2.84
457.314	2.86
457.668	2.88
458.021	2.88
458.375	2.86
458.728	2.88
459.081	2.88
459.434	2.85
459.787	2.86
460.141	2.87
460.494	2.88
460.847	2.87
461.2	2.87
461.553	2.87
461.906	2.87
462.259	2.87
462.611	2.88
462.964	2.89
463.317	2.88
463.67	2.9
464.022	2.89
464.375	2.88
464.728	2.87
465.08	2.86
465.433	2.87
465.785	2.88
466.138	2.88
466.49	2.89
466.843	2.91
467.195	2.9
467.547	2.9
467.899	2.91
468.252	2.93
468.604	2.92
468.956	2.92
469.308	2.92
469.66	2.92
470.012	2.9
470.364	2.92
470.716	2.92
471.068	2.9
471.42	2.92
471.772	2.92
472.123	2.92
472.475	2.94
472.827	2.96
473.178	2.95
473.53	2.97
473.882	2.96
474.233	2.95
474.585	2.98
474.936	2.96
475.288	2.95
475.639	2.94
475.99	2.95
476.342	2.96
476.693	2.96
477.044	2.97
477.395	2.98
477.746	2.96
478.097	2.97
478.448	2.98
478.8	2.97
479.15	2.97
479.501	2.98
479.852	2.99
480.203	2.99
480.554	3
480.905	3.01
481.255	3.02
481.606	3.04
481.957	3.03
482.307	3.05
482.658	3.07
483.009	3.07
483.359	3.07
483.709	3.08
484.06	3.08
484.41	3.08
484.761	3.09
485.111	3.1
485.461	3.1
485.811	3.1
486.162	3.1
486.512	3.11
486.862	3.11
487.212	3.1
487.562	3.09
487.912	3.1
488.262	3.09
488.612	3.09
488.961	3.08
489.311	3.08
489.661	3.07
490.011	3.06
490.36	3.07
490.71	3.07
491.06	3.06
491.409	3.06
491.759	3.06
492.108	3.05
492.458	3.05
492.807	3.05
493.157	3.06
493.506	3.05
493.855	3.05
494.204	3.05
494.554	3.04
494.903	3.05
495.252	3.06
495.601	3.06
495.95	3.07
496.299	3.08
496.648	3.08
496.997	3.08
497.346	3.09
497.695	3.09
498.043	3.11
498.392	3.13
498.741	3.14
499.09	3.15
499.438	3.15
499.787	3.16
500.135	3.18
500.484	3.19
500.832	3.22
501.181	3.23
501.529	3.25
501.878	3.27
502.226	3.27
502.574	3.26
502.923	3.28
503.271	3.31
503.619	3.34
503.967	3.36
504.315	3.38
504.663	3.41
505.011	3.43
505.359	3.43
505.707	3.45
506.055	3.45
506.403	3.45
506.751	3.47
507.098	3.5
507.446	3.5
507.794	3.51
508.141	3.51
508.489	3.55
508.837	3.56
509.184	3.57
509.531	3.59
509.879	3.61
510.226	3.63
510.574	3.62
510.921	3.62
511.268	3.63
511.616	3.63
511.963	3.63
512.31	3.64
512.657	3.67
513.004	3.67
513.351	3.7
513.698	3.74
514.045	3.76
514.392	3.79
514.739	3.83
515.086	3.86
515.432	3.88
515.779	3.9
516.126	3.94
516.473	3.95
516.819	3.98
517.166	4.01
517.512	4.02
517.859	4.05
518.205	4.07
518.552	4.1
518.898	4.11
519.245	4.13
519.591	4.17
519.937	4.18
520.283	4.21
520.629	4.25
520.976	4.28
521.322	4.3
521.668	4.33
522.014	4.35
522.36	4.4
522.706	4.45
523.052	4.49
523.398	4.52
523.743	4.59
524.089	4.64
524.435	4.69
524.781	4.74
525.126	4.78
525.472	4.85
525.817	4.88
526.163	4.92
526.509	4.96
526.854	4.99
527.199	5.05
527.545	5.08
527.89	5.12
528.235	5.17
528.581	5.22
528.926	5.26
529.271	5.3
529.616	5.33
529.961	5.36
530.306	5.41
530.651	5.46
530.996	5.5
531.341	5.55
531.686	5.59
532.031	5.65
532.376	5.71
532.721	5.77
533.065	5.84
533.41	5.92
533.755	5.99
534.099	6.06
534.444	6.12
534.788	6.18
535.133	6.26
535.477	6.33
535.822	6.41
536.166	6.52
536.51	6.61
536.855	6.72
537.199	6.83
537.543	6.94
537.887	7.07
538.231	7.17
538.576	7.29
538.92	7.43
539.264	7.53
539.608	7.64
539.951	7.75
540.295	7.85
540.639	7.96
540.983	8.07
541.327	8.19
541.671	8.29
542.014	8.42
542.358	8.51
542.701	8.6
543.045	8.72
543.389	8.81
543.732	8.93
544.075	9.05
544.419	9.19
544.762	9.32
545.105	9.46
545.449	9.62
545.792	9.78
546.135	9.92
546.478	10.08
546.821	10.27
547.165	10.45
547.508	10.63
547.851	10.8
548.194	10.94
548.536	11.13
548.879	11.34
549.222	11.51
549.565	11.73
549.908	11.92
550.25	12.1
550.593	12.32
550.936	12.52
551.278	12.76
551.621	12.96
551.963	13.15
552.306	13.35
552.648	13.54
552.991	13.76
553.333	14
553.675	14.21
554.017	14.41
554.36	14.6
554.702	14.79
555.044	15
555.386	15.24
555.728	15.47
556.07	15.66
556.412	15.9
556.754	16.1
557.096	16.34
557.438	16.57
557.78	16.82
558.121	17.06
558.463	17.23
558.805	17.48
559.147	17.7
559.488	17.95
559.83	18.21
560.171	18.42
560.513	18.65
560.854	18.89
561.196	19.11
561.537	19.37
561.878	19.67
562.22	19.92
562.561	20.2
562.902	20.43
563.243	20.7
563.584	20.99
563.925	21.26
564.266	21.54
564.607	21.74
564.948	22
565.289	22.21
565.63	22.48
565.971	22.7
566.312	22.97
566.653	23.19
566.993	23.4
567.334	23.64
567.675	23.86
568.015	24.09
568.356	24.31
568.696	24.54
569.037	24.72
569.377	24.94
569.718	25.14
570.058	25.37
570.398	25.6
570.739	25.76
571.079	25.92
571.419	26.09
571.759	26.29
572.099	26.4
572.439	26.61
572.779	26.77
573.119	26.99
573.459	27.14
573.799	27.32
574.139	27.49
574.479	27.69
574.819	27.85
575.158	28.04
575.498	28.24
575.838	28.43
576.177	28.61
576.517	28.78
576.856	28.94
577.196	29.15
577.535	29.32
577.875	29.53
578.214	29.8
578.553	29.96
578.893	30.2
579.232	30.49
579.571	30.74
579.91	30.96
580.25	31.13
580.589	31.33
580.928	31.53
581.267	31.71
581.606	31.85
581.945	32.04
582.283	32.21
582.622	32.38
582.961	32.55
583.3	32.69
583.639	32.87
583.977	33.06
584.316	33.22
584.654	33.43
584.993	33.58
585.332	33.72
585.67	33.96
586.008	34.13
586.347	34.28
586.685	34.37
587.024	34.56
587.362	34.75
587.7	34.94
588.038	35.07
588.376	35.24
588.715	35.47
589.053	35.66
589.391	35.87
589.729	36.01
590.067	36.15
590.404	36.36
590.742	36.54
591.08	36.72
591.418	36.8
591.756	36.9
592.093	37.04
592.431	37.18
592.769	37.33
593.106	37.47
593.444	37.6
593.781	37.8
594.119	37.97
594.456	38.07
594.793	38.13
595.131	38.23
595.468	38.35
595.805	38.42
596.143	38.49
596.48	38.5
596.817	38.58
597.154	38.71
597.491	38.81
597.828	38.85
598.165	38.95
598.502	39.08
598.839	39.24
599.176	39.37
599.512	39.49
599.849	39.58
600.186	39.64
600.523	39.77
600.859	39.86
601.196	39.95
601.532	40.13
601.869	40.3
602.205	40.43
602.542	40.5
602.878	40.57
603.215	40.67
603.551	40.84
603.887	41
604.223	41.08
604.56	41.16
604.896	41.3
605.232	41.38
605.568	41.42
605.904	41.46
606.24	41.5
606.576	41.56
606.912	41.61
607.248	41.75
607.583	41.87
607.919	41.93
608.255	42.05
608.591	42.05
608.926	42.15
609.262	42.24
609.597	42.37
609.933	42.49
610.268	42.56
610.604	42.58
610.939	42.63
611.275	42.73
611.61	42.77
611.945	42.87
612.281	42.93
612.616	43.11
612.951	43.25
613.286	43.38
613.621	43.45
613.956	43.59
614.291	43.71
614.626	43.69
614.961	43.81
615.296	43.87
615.631	44.03
615.966	44.06
616.3	44.1
616.635	44.15
616.97	44.21
617.304	44.29
617.639	44.43
617.973	44.46
618.308	44.5
618.642	44.58
618.977	44.64
619.311	44.75
619.646	44.83
619.98	44.85
620.314	44.89
620.648	44.99
620.983	45.02
621.317	44.99
621.651	45.12
621.985	45.18
622.319	45.22
622.653	45.27
622.987	45.37
623.321	45.46
623.655	45.58
623.988	45.7
624.322	45.82
624.656	45.8
624.99	45.93
625.323	46.05
625.657	46.19
625.99	46.25
626.324	46.27
626.657	46.22
626.991	46.25
627.324	46.33
627.658	46.35
627.991	46.46
628.324	46.58
628.657	46.58
628.991	46.64
629.324	46.69
629.657	46.71
629.99	46.77
630.323	46.85
630.656	46.81
630.989	46.83
631.322	46.9
631.655	47.04
631.987	47.04
632.32	47.04
632.653	47.09
632.986	47.06
633.318	47.06
633.651	47.19
633.984	47.33
634.316	47.29
634.649	47.32
634.981	47.38
635.313	47.37
635.646	47.5
635.978	47.51
636.31	47.56
636.643	47.55
636.975	47.62
637.307	47.62
637.639	47.77
637.971	47.83
638.303	47.85
638.635	47.88
638.967	48.03
639.299	48.05
639.631	47.99
639.963	48.11
640.295	48.26
640.626	48.31
640.958	48.23
641.29	48.42
641.621	48.49
641.953	48.46
642.285	48.48
642.616	48.46
642.948	48.52
643.279	48.52
643.61	48.66
643.942	48.67
644.273	48.7
644.604	48.66
644.936	48.68
645.267	48.69
645.598	48.72
645.929	48.73
646.26	48.76
646.591	48.75
646.922	48.8
647.253	48.77
647.584	48.84
647.915	48.99
648.245	48.93
648.576	49.08
648.907	49.12
649.238	49.17
649.568	49.2
649.899	49.21
650.229	49.25
650.56	49.31
650.89	49.31
651.221	49.43
651.551	49.54
651.882	49.51
652.212	49.49
652.542	49.52
652.872	49.46
653.203	49.48
653.533	49.53
653.863	49.49
654.193	49.6
654.523	49.61
654.853	49.56
655.183	49.69
655.513	49.69
655.843	49.69
656.172	49.65
656.502	49.67
656.832	49.68
657.162	49.75
657.491	49.67
657.821	49.77
658.15	49.79
658.48	49.83
658.809	49.88
659.139	49.98
659.468	50.04
659.798	50.14
660.127	50.11
660.456	50.14
660.785	50.21
661.115	50.19
661.444	50.16
661.773	50.2
662.102	50.12
662.431	50.14
662.76	50.21
663.089	50.28
663.418	50.37
663.747	50.43
664.076	50.49
664.404	50.63
664.733	50.5
665.062	50.54
665.39	50.56
665.719	50.64
666.048	50.66
666.376	50.61
666.705	50.66
667.033	50.77
667.362	50.7
667.69	50.68
668.018	50.76
668.347	50.9
668.675	50.89
669.003	51
669.331	51.08
