Data from BA48287_Reflection_00011.txt Node
Date: Tue Nov 19 11:43:40 EST 2019
User: vgr7
Spectrometer: USB2G7710
Scans to average: 3
Trigger mode: 4
Integration Time (sec): 2.000000E-2
Electric dark correction enabled: true
Boxcar width: 10
XAxis mode: Wavelengths
Number of Pixels in Spectrum: 2048
>>>>>Begin Spectral Data<<<<<
177.721	42.28
178.105	36.17
178.488	15.06
178.871	-21.54
179.254	5.13
179.636	72.76
180.019	42.23
180.402	76.19
180.785	-18.18
181.168	778.57
181.55	167.9
181.933	140.98
182.316	196.03
182.698	-6733.33
183.081	-371.83
183.463	33600
183.846	708.11
184.228	-489.55
184.611	-468.97
184.993	-228.57
185.376	-62.98
185.758	5.41
186.14	-18.87
186.522	-17.33
186.904	-77.97
187.287	-59.52
187.669	-45.33
188.051	-81.11
188.433	-174.57
188.815	-246.15
189.197	-137.56
189.579	-91.21
189.961	-64.25
190.342	-42.53
190.724	-58.72
191.106	-41.06
191.488	-30.71
191.869	-25.76
192.251	-13.05
192.633	-10.83
193.014	-22.26
193.396	-12.4
193.777	-13.04
194.159	-5.39
194.54	-5.28
194.922	0.63
195.303	0.9
195.684	6.6
196.065	5.57
196.447	6.91
196.828	8.92
197.209	19.01
197.59	21.44
197.971	24.31
198.352	28.13
198.733	28.81
199.114	26.63
199.495	24.05
199.876	26.46
200.257	20.16
200.638	9.73
201.018	14.76
201.399	13.47
201.78	11.76
202.16	-6.7
202.541	-7.72
202.922	-10.54
203.302	-2.23
203.683	-16
204.063	-11.38
204.444	-10.68
204.824	-11.97
205.204	-11.21
205.585	-3.71
205.965	-8.19
206.345	-2.72
206.725	33.28
207.106	32.39
207.486	39.37
207.866	37.07
208.246	50.21
208.626	48.63
209.006	49.78
209.386	39.02
209.766	28.57
210.145	48.49
210.525	34.11
210.905	32.82
211.285	35.54
211.664	45.77
212.044	46.55
212.424	50.61
212.803	47.2
213.183	44.34
213.562	46.22
213.942	49.49
214.321	48.49
214.701	18.6
215.08	17.82
215.459	21.65
215.838	3.33
216.218	-7.7
216.597	5.18
216.976	6.84
217.355	23.24
217.734	8.68
218.113	6.29
218.492	14.41
218.871	20.38
219.25	14.11
219.629	11.38
220.008	23.41
220.387	22.36
220.766	29.92
221.144	24.35
221.523	23.02
221.902	24.04
222.28	15.89
222.659	42.84
223.037	36.62
223.416	27.56
223.794	35.39
224.173	34.32
224.551	32.9
224.929	26.85
225.308	14.23
225.686	18.99
226.064	20.87
226.442	17.09
226.821	14.44
227.199	16.63
227.577	11.65
227.955	8.01
228.333	5.34
228.711	2.7
229.089	3.48
229.467	2.28
229.845	1.39
230.222	4.78
230.6	-1.13
230.978	3.52
231.356	3.56
231.733	4.77
232.111	6
232.488	6.55
232.866	8.73
233.243	10.47
233.621	11.34
233.998	8.88
234.376	9.54
234.753	10.2
235.13	9.83
235.508	11.67
235.885	10.83
236.262	10.29
236.639	10.14
237.016	10.51
237.393	11.49
237.77	11.54
238.147	10.68
238.524	11.32
238.901	9.58
239.278	9.63
239.655	9.37
240.032	9.19
240.409	7.89
240.785	7.14
241.162	7.2
241.539	6.74
241.915	6.91
242.292	7.38
242.668	7.32
243.045	7.42
243.421	7.06
243.798	7.08
244.174	6.98
244.551	7.17
244.927	6.99
245.303	6.99
245.679	6.79
246.056	6.84
246.432	6.97
246.808	6.89
247.184	6.72
247.56	6.54
247.936	6.65
248.312	6.83
248.688	6.9
249.064	6.69
249.44	6.49
249.815	6.78
250.191	6.52
250.567	6.31
250.943	6.13
251.318	6.1
251.694	5.98
252.069	6.23
252.445	6.08
252.82	6.4
253.196	6.29
253.571	6.37
253.947	6.14
254.322	5.82
254.697	5.93
255.073	5.62
255.448	5.59
255.823	5.52
256.198	5.35
256.573	5.46
256.948	5.72
257.323	5.98
257.698	5.65
258.073	5.64
258.448	5.78
258.823	5.7
259.198	5.8
259.573	5.66
259.948	5.62
260.322	5.4
260.697	5.28
261.072	5.15
261.446	5.14
261.821	5.2
262.195	5.25
262.57	5.13
262.944	5.2
263.319	5.22
263.693	5.05
264.067	5.11
264.442	4.96
264.816	4.84
265.19	4.74
265.564	4.75
265.938	4.76
266.313	4.57
266.687	4.51
267.061	4.42
267.435	4.69
267.809	4.68
268.183	4.96
268.556	4.89
268.93	4.89
269.304	4.71
269.678	4.72
270.051	4.63
270.425	4.58
270.799	4.61
271.172	4.58
271.546	4.69
271.919	4.62
272.293	4.62
272.666	4.74
273.04	4.74
273.413	4.72
273.787	4.67
274.16	4.73
274.533	4.77
274.906	4.63
275.279	4.44
275.653	4.28
276.026	4.19
276.399	4.13
276.772	4.15
277.145	4.26
277.518	4.14
277.891	4.12
278.263	4.31
278.636	4.38
279.009	4.29
279.382	4.25
279.755	4.43
280.127	4.52
280.5	4.34
280.872	4.5
281.245	4.43
281.617	4.42
281.99	4.38
282.362	4.4
282.735	4.55
283.107	4.49
283.479	4.66
283.852	4.78
284.224	4.98
284.596	4.99
284.968	4.95
285.34	5
285.713	5.12
286.085	5.09
286.457	4.95
286.829	5.12
287.201	5
287.572	4.97
287.944	4.87
288.316	5.03
288.688	5.04
289.06	5.1
289.431	5.18
289.803	5.17
290.175	5.06
290.546	4.95
290.918	5.04
291.289	4.86
291.661	4.8
292.032	4.81
292.403	4.83
292.775	4.9
293.146	5.09
293.517	4.97
293.889	4.95
294.26	5.04
294.631	5.02
295.002	5.09
295.373	5.01
295.744	5.09
296.115	4.93
296.486	4.94
296.857	5.05
297.228	4.98
297.599	5.1
297.97	5.3
298.34	5.4
298.711	5.44
299.082	5.51
299.452	5.54
299.823	5.44
300.194	5.44
300.564	5.43
300.935	5.33
301.305	5.43
301.676	5.42
302.046	5.34
302.416	5.32
302.787	5.27
303.157	5.31
303.527	5.43
303.897	5.56
304.267	5.44
304.637	5.42
305.008	5.46
305.378	5.41
305.748	5.36
306.117	5.38
306.487	5.33
306.857	5.37
307.227	5.49
307.597	5.39
307.967	5.44
308.336	5.51
308.706	5.45
309.076	5.48
309.445	5.61
309.815	5.78
310.184	5.84
310.554	5.86
310.923	5.91
311.293	5.85
311.662	5.85
312.031	5.89
312.401	5.86
312.77	5.88
313.139	5.86
313.508	5.89
313.877	6
314.246	6.04
314.616	6.12
314.985	5.99
315.353	6.18
315.722	6.2
316.091	6.22
316.46	6.2
316.829	6.16
317.198	6.18
317.567	6.12
317.935	6.08
318.304	6.36
318.672	6.47
319.041	6.53
319.41	6.53
319.778	6.71
320.147	6.71
320.515	6.76
320.883	6.81
321.252	6.81
321.62	6.85
321.988	7.11
322.357	7.02
322.725	7.04
323.093	7.04
323.461	7.04
323.829	7.03
324.197	7.07
324.565	7.06
324.933	7
325.301	6.9
325.669	6.89
326.037	6.82
326.405	6.78
326.772	6.84
327.14	6.81
327.508	6.7
327.875	6.72
328.243	6.75
328.61	6.71
328.978	6.63
329.346	6.59
329.713	6.55
330.08	6.81
330.448	6.99
330.815	7.09
331.182	7.02
331.55	7.04
331.917	7.02
332.284	7.24
332.651	7.21
333.018	7.21
333.385	7.28
333.752	7.36
334.119	7.35
334.486	7.22
334.853	7.24
335.22	7.29
335.587	7.36
335.954	7.36
336.32	7.42
336.687	7.49
337.054	7.49
337.42	7.3
337.787	7.17
338.153	7.01
338.52	6.92
338.886	7.05
339.253	7
339.619	7.23
339.986	7.04
340.352	7.12
340.718	7.29
341.084	7.28
341.451	7.28
341.817	7.43
342.183	7.39
342.549	7.58
342.915	7.68
343.281	7.71
343.647	7.77
344.013	7.79
344.379	7.84
344.745	7.8
345.11	7.91
345.476	7.94
345.842	8.02
346.208	8.07
346.573	8.1
346.939	8.15
347.304	8.08
347.67	8.12
348.035	8.14
348.401	8.08
348.766	8.05
349.132	7.98
349.497	7.94
349.862	7.99
350.228	7.87
350.593	7.76
350.958	7.74
351.323	7.72
351.688	7.78
352.053	7.8
352.418	7.85
352.783	7.81
353.148	7.82
353.513	7.82
353.878	7.82
354.243	7.7
354.608	7.63
354.972	7.54
355.337	7.57
355.702	7.45
356.066	7.43
356.431	7.45
356.795	7.49
357.16	7.39
357.524	7.32
357.889	7.38
358.253	7.43
358.618	7.38
358.982	7.37
359.346	7.29
359.71	7.17
360.075	7.09
360.439	7.13
360.803	7.15
361.167	7.13
361.531	7.1
361.895	7.21
362.259	7.3
362.623	7.28
362.987	7.26
363.351	7.28
363.714	7.32
364.078	7.31
364.442	7.25
364.806	7.26
365.169	7.29
365.533	7.27
365.896	7.23
366.26	7.19
366.623	7.15
366.987	7.11
367.35	7.16
367.714	7.2
368.077	7.18
368.44	7.12
368.803	7.04
369.167	6.93
369.53	6.86
369.893	6.71
370.256	6.67
370.619	6.65
370.982	6.54
371.345	6.48
371.708	6.48
372.071	6.48
372.434	6.42
372.797	6.43
373.159	6.28
373.522	6.26
373.885	6.2
374.247	6.19
374.61	6.16
374.973	6.15
375.335	6.11
375.698	6.04
376.06	6
376.423	5.94
376.785	6
377.147	5.95
377.51	5.96
377.872	5.97
378.234	5.92
378.596	5.94
378.958	5.89
379.321	5.85
379.683	5.85
380.045	5.86
380.407	5.82
380.769	5.82
381.13	5.75
381.492	5.76
381.854	5.74
382.216	5.75
382.578	5.7
382.939	5.65
383.301	5.62
383.663	5.6
384.024	5.61
384.386	5.55
384.747	5.53
385.109	5.51
385.47	5.5
385.832	5.45
386.193	5.43
386.554	5.38
386.916	5.41
387.277	5.35
387.638	5.35
387.999	5.35
388.36	5.3
388.721	5.32
389.082	5.32
389.443	5.3
389.804	5.26
390.165	5.28
390.526	5.25
390.887	5.22
391.248	5.16
391.609	5.14
391.969	5.15
392.33	5.14
392.691	5.16
393.051	5.11
393.412	5.17
393.772	5.18
394.133	5.18
394.493	5.07
394.854	5.05
395.214	5.04
395.574	4.99
395.935	5
396.295	4.97
396.655	4.9
397.015	4.87
397.376	4.86
397.736	4.81
398.096	4.78
398.456	4.78
398.816	4.76
399.176	4.74
399.535	4.72
399.895	4.72
400.255	4.7
400.615	4.69
400.975	4.61
401.334	4.58
401.694	4.61
402.054	4.62
402.413	4.65
402.773	4.61
403.132	4.61
403.492	4.61
403.851	4.58
404.211	4.6
404.57	4.6
404.929	4.59
405.288	4.58
405.648	4.61
406.007	4.61
406.366	4.62
406.725	4.61
407.084	4.57
407.443	4.52
407.802	4.49
408.161	4.49
408.52	4.51
408.879	4.5
409.238	4.49
409.596	4.5
409.955	4.47
410.314	4.46
410.673	4.44
411.031	4.43
411.39	4.44
411.748	4.43
412.107	4.4
412.465	4.4
412.824	4.37
413.182	4.33
413.54	4.34
413.899	4.3
414.257	4.29
414.615	4.31
414.974	4.3
415.332	4.26
415.69	4.24
416.048	4.21
416.406	4.19
416.764	4.15
417.122	4.11
417.48	4.08
417.838	4.06
418.195	4.04
418.553	4.04
418.911	4.02
419.269	4
419.626	3.99
419.984	3.98
420.342	3.96
420.699	3.94
421.057	3.92
421.414	3.91
421.772	3.89
422.129	3.86
422.486	3.86
422.844	3.87
423.201	3.87
423.558	3.85
423.915	3.85
424.273	3.83
424.63	3.83
424.987	3.85
425.344	3.85
425.701	3.84
426.058	3.83
426.415	3.82
426.772	3.81
427.128	3.83
427.485	3.82
427.842	3.81
428.199	3.83
428.555	3.84
428.912	3.87
429.269	3.87
429.625	3.88
429.982	3.87
430.338	3.88
430.695	3.87
431.051	3.88
431.407	3.9
431.764	3.9
432.12	3.89
432.476	3.87
432.832	3.85
433.189	3.84
433.545	3.84
433.901	3.84
434.257	3.84
434.613	3.81
434.969	3.83
435.325	3.85
435.681	3.82
436.036	3.79
436.392	3.77
436.748	3.78
437.104	3.78
437.459	3.77
437.815	3.75
438.171	3.73
438.526	3.72
438.882	3.72
439.237	3.72
439.593	3.71
439.948	3.72
440.304	3.73
440.659	3.74
441.014	3.73
441.369	3.72
441.725	3.72
442.08	3.73
442.435	3.7
442.79	3.69
443.145	3.7
443.5	3.68
443.855	3.68
444.21	3.66
444.565	3.65
444.92	3.66
445.275	3.66
445.629	3.65
445.984	3.65
446.339	3.64
446.693	3.65
447.048	3.64
447.403	3.62
447.757	3.61
448.112	3.6
448.466	3.6
448.82	3.61
449.175	3.6
449.529	3.59
449.883	3.6
450.238	3.6
450.592	3.59
450.946	3.62
451.3	3.62
451.654	3.6
452.008	3.6
452.362	3.6
452.716	3.6
453.07	3.61
453.424	3.61
453.778	3.6
454.132	3.59
454.486	3.62
454.839	3.61
455.193	3.61
455.547	3.62
455.9	3.63
456.254	3.64
456.607	3.65
456.961	3.66
457.314	3.66
457.668	3.66
458.021	3.68
458.375	3.65
458.728	3.66
459.081	3.69
459.434	3.7
459.787	3.7
460.141	3.71
460.494	3.72
460.847	3.72
461.2	3.73
461.553	3.75
461.906	3.73
462.259	3.74
462.611	3.74
462.964	3.74
463.317	3.71
463.67	3.71
464.022	3.71
464.375	3.69
464.728	3.69
465.08	3.68
465.433	3.66
465.785	3.69
466.138	3.72
466.49	3.73
466.843	3.75
467.195	3.76
467.547	3.75
467.899	3.74
468.252	3.75
468.604	3.76
468.956	3.75
469.308	3.75
469.66	3.79
470.012	3.8
470.364	3.82
470.716	3.87
471.068	3.88
471.42	3.9
471.772	3.9
472.123	3.9
472.475	3.91
472.827	3.93
473.178	3.93
473.53	3.91
473.882	3.91
474.233	3.9
474.585	3.89
474.936	3.9
475.288	3.89
475.639	3.89
475.99	3.87
476.342	3.88
476.693	3.88
477.044	3.85
477.395	3.85
477.746	3.83
478.097	3.82
478.448	3.81
478.8	3.8
479.15	3.78
479.501	3.78
479.852	3.78
480.203	3.78
480.554	3.77
480.905	3.76
481.255	3.77
481.606	3.76
481.957	3.78
482.307	3.78
482.658	3.79
483.009	3.8
483.359	3.81
483.709	3.81
484.06	3.81
484.41	3.81
484.761	3.82
485.111	3.83
485.461	3.82
485.811	3.83
486.162	3.84
486.512	3.85
486.862	3.86
487.212	3.87
487.562	3.87
487.912	3.89
488.262	3.9
488.612	3.91
488.961	3.92
489.311	3.92
489.661	3.93
490.011	3.93
490.36	3.93
490.71	3.92
491.06	3.93
491.409	3.94
491.759	3.95
492.108	3.96
492.458	3.96
492.807	3.98
493.157	4
493.506	4
493.855	4.01
494.204	4.03
494.554	4.04
494.903	4.06
495.252	4.07
495.601	4.1
495.95	4.11
496.299	4.13
496.648	4.15
496.997	4.16
497.346	4.19
497.695	4.24
498.043	4.3
498.392	4.32
498.741	4.37
499.09	4.39
499.438	4.43
499.787	4.46
500.135	4.5
500.484	4.51
500.832	4.55
501.181	4.58
501.529	4.63
501.878	4.67
502.226	4.72
502.574	4.8
502.923	4.83
503.271	4.87
503.619	4.94
503.967	4.99
504.315	5.04
504.663	5.11
505.011	5.16
505.359	5.19
505.707	5.25
506.055	5.29
506.403	5.35
506.751	5.4
507.098	5.47
507.446	5.52
507.794	5.58
508.141	5.67
508.489	5.72
508.837	5.78
509.184	5.85
509.531	5.91
509.879	5.93
510.226	6
510.574	6.07
510.921	6.12
511.268	6.2
511.616	6.28
511.963	6.36
512.31	6.41
512.657	6.5
513.004	6.57
513.351	6.65
513.698	6.74
514.045	6.82
514.392	6.9
514.739	7
515.086	7.13
515.432	7.19
515.779	7.29
516.126	7.4
516.473	7.48
516.819	7.56
517.166	7.65
517.512	7.73
517.859	7.82
518.205	7.93
518.552	8.02
518.898	8.08
519.245	8.16
519.591	8.26
519.937	8.35
520.283	8.48
520.629	8.6
520.976	8.72
521.322	8.85
521.668	8.98
522.014	9.1
522.36	9.2
522.706	9.37
523.052	9.53
523.398	9.67
523.743	9.88
524.089	10.08
524.435	10.25
524.781	10.44
525.126	10.6
525.472	10.76
525.817	10.91
526.163	11.06
526.509	11.19
526.854	11.32
527.199	11.43
527.545	11.55
527.89	11.65
528.235	11.77
528.581	11.9
528.926	12.03
529.271	12.18
529.616	12.32
529.961	12.46
530.306	12.6
530.651	12.75
530.996	12.9
531.341	13.07
531.686	13.25
532.031	13.43
532.376	13.62
532.721	13.8
533.065	13.98
533.41	14.15
533.755	14.36
534.099	14.55
534.444	14.76
534.788	14.97
535.133	15.21
535.477	15.42
535.822	15.67
536.166	15.92
536.51	16.19
536.855	16.47
537.199	16.76
537.543	17.07
537.887	17.36
538.231	17.67
538.576	17.95
538.92	18.24
539.264	18.52
539.608	18.77
539.951	19.01
540.295	19.24
540.639	19.49
540.983	19.72
541.327	19.97
541.671	20.22
542.014	20.45
542.358	20.68
542.701	20.9
543.045	21.11
543.389	21.34
543.732	21.57
544.075	21.81
544.419	22.05
544.762	22.3
545.105	22.57
545.449	22.81
545.792	23.1
546.135	23.4
546.478	23.71
546.821	24.06
547.165	24.36
547.508	24.71
547.851	25.05
548.194	25.36
548.536	25.68
548.879	25.98
549.222	26.36
549.565	26.67
549.908	27
550.25	27.36
550.593	27.67
550.936	27.99
551.278	28.29
551.621	28.62
551.963	28.94
552.306	29.26
552.648	29.61
552.991	29.96
553.333	30.26
553.675	30.53
554.017	30.85
554.36	31.18
554.702	31.48
555.044	31.78
555.386	32.13
555.728	32.47
556.07	32.77
556.412	33.03
556.754	33.37
557.096	33.72
557.438	33.99
557.78	34.33
558.121	34.65
558.463	35
558.805	35.3
559.147	35.59
559.488	35.86
559.83	36.12
560.171	36.36
560.513	36.59
560.854	36.92
561.196	37.16
561.537	37.46
561.878	37.74
562.22	38.05
562.561	38.34
562.902	38.59
563.243	38.87
563.584	39.1
563.925	39.3
564.266	39.53
564.607	39.78
564.948	40.01
565.289	40.22
565.63	40.41
565.971	40.62
566.312	40.85
566.653	41.06
566.993	41.29
567.334	41.52
567.675	41.71
568.015	41.86
568.356	42.07
568.696	42.21
569.037	42.4
569.377	42.54
569.718	42.71
570.058	42.83
570.398	42.98
570.739	43.15
571.079	43.33
571.419	43.48
571.759	43.6
572.099	43.76
572.439	43.93
572.779	44.07
573.119	44.22
573.459	44.35
573.799	44.51
574.139	44.61
574.479	44.73
574.819	44.91
575.158	45.06
575.498	45.17
575.838	45.4
576.177	45.53
576.517	45.74
576.856	45.89
577.196	46.09
577.535	46.23
577.875	46.44
578.214	46.65
578.553	46.8
578.893	47.07
579.232	47.21
579.571	47.38
579.91	47.58
580.25	47.75
580.589	47.96
580.928	48.05
581.267	48.18
581.606	48.41
581.945	48.59
582.283	48.79
582.622	48.9
582.961	48.99
583.3	49.11
583.639	49.21
583.977	49.37
584.316	49.56
584.654	49.73
584.993	49.87
585.332	49.99
585.67	50.2
586.008	50.32
586.347	50.44
586.685	50.52
587.024	50.72
587.362	50.9
587.7	50.95
588.038	51.15
588.376	51.38
588.715	51.43
589.053	51.61
589.391	51.66
589.729	51.82
590.067	51.89
590.404	51.99
590.742	52.14
591.08	52.22
591.418	52.2
591.756	52.25
592.093	52.32
592.431	52.41
592.769	52.4
593.106	52.48
593.444	52.6
593.781	52.66
594.119	52.74
594.456	52.79
594.793	52.85
595.131	52.91
595.468	52.94
595.805	52.97
596.143	52.95
596.48	53.06
596.817	53.11
597.154	53.2
597.491	53.3
597.828	53.33
598.165	53.38
598.502	53.53
598.839	53.69
599.176	53.73
599.512	53.86
599.849	53.98
600.186	54.04
600.523	54.02
600.859	54.12
601.196	54.17
601.532	54.17
601.869	54.27
602.205	54.33
602.542	54.36
602.878	54.42
603.215	54.48
603.551	54.52
603.887	54.52
604.223	54.62
604.56	54.61
604.896	54.69
605.232	54.71
605.568	54.79
605.904	54.85
606.24	54.94
606.576	54.89
606.912	54.97
607.248	55.02
607.583	55.13
607.919	55.18
608.255	55.21
608.591	55.33
608.926	55.43
609.262	55.45
609.597	55.52
609.933	55.61
610.268	55.65
610.604	55.74
610.939	55.81
611.275	55.8
611.61	55.89
611.945	55.91
612.281	55.97
612.616	56
612.951	56.05
613.286	56.07
613.621	56.24
613.956	56.31
614.291	56.39
614.626	56.49
614.961	56.62
615.296	56.69
615.631	56.79
615.966	56.78
616.3	56.87
616.635	56.99
616.97	57.01
617.304	57.13
617.639	57.2
617.973	57.31
618.308	57.41
618.642	57.52
618.977	57.52
619.311	57.6
619.646	57.53
619.98	57.49
620.314	57.55
620.648	57.54
620.983	57.53
621.317	57.49
621.651	57.47
621.985	57.44
622.319	57.45
622.653	57.43
622.987	57.45
623.321	57.43
623.655	57.32
623.988	57.39
624.322	57.39
624.656	57.35
624.99	57.34
625.323	57.41
625.657	57.44
625.99	57.54
626.324	57.53
626.657	57.63
626.991	57.63
627.324	57.64
627.658	57.68
627.991	57.71
628.324	57.63
628.657	57.7
628.991	57.68
629.324	57.68
629.657	57.7
629.99	57.69
630.323	57.78
630.656	57.91
630.989	57.88
631.322	57.8
631.655	57.82
631.987	57.78
632.32	57.78
632.653	57.78
632.986	57.87
633.318	57.99
633.651	58.07
633.984	58.21
634.316	58.22
634.649	58.13
634.981	58.27
635.313	58.45
635.646	58.47
635.978	58.51
636.31	58.62
636.643	58.58
636.975	58.63
637.307	58.64
637.639	58.69
637.971	58.71
638.303	58.85
638.635	58.94
638.967	59
639.299	58.99
639.631	59.03
639.963	58.95
640.295	58.93
640.626	58.9
640.958	58.79
641.29	58.82
641.621	58.82
641.953	58.78
642.285	58.81
642.616	58.84
642.948	58.94
643.279	58.83
643.61	58.84
643.942	58.98
644.273	59.03
644.604	58.96
644.936	59.13
645.267	59.14
645.598	59.24
645.929	59.34
646.26	59.39
646.591	59.38
646.922	59.45
647.253	59.39
647.584	59.43
647.915	59.52
648.245	59.5
648.576	59.61
648.907	59.58
649.238	59.53
649.568	59.42
649.899	59.36
650.229	59.49
650.56	59.52
650.89	59.55
651.221	59.48
651.551	59.59
651.882	59.5
652.212	59.46
652.542	59.36
652.872	59.32
653.203	59.27
653.533	59.22
653.863	59.21
654.193	59.29
654.523	59.23
654.853	59.31
655.183	59.37
655.513	59.42
655.843	59.35
656.172	59.32
656.502	59.41
656.832	59.48
657.162	59.54
657.491	59.62
657.821	59.51
658.15	59.71
658.48	59.68
658.809	59.75
659.139	59.9
659.468	59.9
659.798	60.03
660.127	60.07
660.456	60.13
660.785	60.11
661.115	60.01
661.444	60.11
661.773	60.11
662.102	60.15
662.431	60.24
662.76	60.24
663.089	60.33
663.418	60.29
663.747	60.24
664.076	60.1
664.404	60.16
664.733	60.31
665.062	60.17
665.39	60.17
665.719	60.13
666.048	60
666.376	60.08
666.705	59.9
667.033	60.02
667.362	59.98
667.69	60.03
668.018	60.18
668.347	60.07
668.675	60.01
669.003	59.99
669.331	59.93
669.659	60.02
669.987	60.17
