Data from BA48287_Reflection_00012.txt Node
Date: Tue Nov 19 11:43:43 EST 2019
User: vgr7
Spectrometer: USB2G7710
Scans to average: 3
Trigger mode: 4
Integration Time (sec): 2.000000E-2
Electric dark correction enabled: true
Boxcar width: 10
XAxis mode: Wavelengths
Number of Pixels in Spectrum: 2048
>>>>>Begin Spectral Data<<<<<
177.721	-14.51
178.105	-36.52
178.488	-72.8
178.871	-75.9
179.254	-117.09
179.636	-43.32
180.019	7.04
180.402	95.24
180.785	47.88
181.168	-84.52
181.55	-19.34
181.933	36.25
182.316	75.72
182.698	-4011.11
183.081	-256.81
183.463	10433.33
183.846	217.12
184.228	-99
184.611	157.47
184.993	176.19
185.376	15.29
185.758	52.38
186.14	15.72
186.522	-16.73
186.904	14.12
187.287	-5.45
187.669	43.11
188.051	55.62
188.433	126.97
188.815	191.17
189.197	112.07
189.579	56.45
189.961	39.5
190.342	60.28
190.724	35.42
191.106	43.38
191.488	33.15
191.869	27.91
192.251	26.51
192.633	18.96
193.014	14.05
193.396	13.66
193.777	11.66
194.159	19.84
194.54	27.88
194.922	18.18
195.303	27.95
195.684	24.99
196.065	41.4
196.447	38.47
196.828	41.55
197.209	37.84
197.59	40.93
197.971	44.57
198.352	38.25
198.733	42.43
199.114	40.34
199.495	43.68
199.876	44.88
200.257	42.61
200.638	45.43
201.018	47.82
201.399	55.48
201.78	50.38
202.16	46
202.541	41.05
202.922	55.59
203.302	42.51
203.683	41.87
204.063	14.91
204.444	13.13
204.824	0.28
205.204	19.64
205.585	8.38
205.965	3.83
206.345	-4.13
206.725	12.54
207.106	25.21
207.486	20.73
207.866	22.08
208.246	26.6
208.626	27.16
209.006	35.03
209.386	36.39
209.766	43.98
210.145	39.25
210.525	35.92
210.905	28.26
211.285	22.96
211.664	25.04
212.044	30.62
212.424	31.95
212.803	35.41
213.183	25.49
213.562	30.37
213.942	37.6
214.321	38.26
214.701	29.9
215.08	31.78
215.459	42.13
215.838	43.24
216.218	55.3
216.597	53.16
216.976	41.28
217.355	51.13
217.734	52.32
218.113	60.9
218.492	60.96
218.871	60.08
219.25	55.25
219.629	58.17
220.008	59.73
220.387	51.14
220.766	52.49
221.144	59
221.523	66.25
221.902	52
222.28	87.64
222.659	91.18
223.037	85.55
223.416	59.7
223.794	63.51
224.173	51.15
224.551	40.58
224.929	37.72
225.308	27.07
225.686	23.14
226.064	16.88
226.442	19.48
226.821	16.27
227.199	15.05
227.577	17.47
227.955	16.45
228.333	12.61
228.711	9.32
229.089	8.22
229.467	8.67
229.845	5.95
230.222	0.05
230.6	-1.62
230.978	-3.95
231.356	-2.67
231.733	-3.62
232.111	-0.88
232.488	0.13
232.866	0.55
233.243	1.18
233.621	3.04
233.998	5.17
234.376	5.34
234.753	4.56
235.13	5.67
235.508	5.61
235.885	6.09
236.262	7.76
236.639	6.95
237.016	6.25
237.393	6.9
237.77	9.06
238.147	10.16
238.524	9.95
238.901	9.41
239.278	9.06
239.655	8.17
240.032	7.51
240.409	6.98
240.785	6.66
241.162	6.74
241.539	6.31
241.915	5.89
242.292	5.71
242.668	5.86
243.045	5.61
243.421	5.13
243.798	4.91
244.174	5.12
244.551	5.4
244.927	5.65
245.303	5.29
245.679	4.86
246.056	4.57
246.432	4.44
246.808	4.27
247.184	4.48
247.56	4.48
247.936	4.49
248.312	4.58
248.688	4.72
249.064	4.74
249.44	4.71
249.815	4.69
250.191	4.67
250.567	4.78
250.943	4.72
251.318	4.93
251.694	4.96
252.069	4.86
252.445	4.78
252.82	4.88
253.196	4.88
253.571	5.34
253.947	5.44
254.322	5.58
254.697	5.85
255.073	5.6
255.448	5.59
255.823	5.32
256.198	5.08
256.573	4.93
256.948	4.74
257.323	4.96
257.698	4.94
258.073	4.83
258.448	4.69
258.823	4.62
259.198	4.53
259.573	4.37
259.948	4.31
260.322	4.12
260.697	4.03
261.072	4.21
261.446	4.1
261.821	4.09
262.195	4.07
262.57	4.14
262.944	4.16
263.319	4.24
263.693	4.42
264.067	4.54
264.442	4.45
264.816	4.36
265.19	4.15
265.564	4.01
265.938	4.02
266.313	4.03
266.687	4.11
267.061	4.11
267.435	4.3
267.809	4.06
268.183	4.2
268.556	3.98
268.93	3.68
269.304	3.6
269.678	3.46
270.051	3.57
270.425	3.52
270.799	3.38
271.172	3.21
271.546	3.2
271.919	3.23
272.293	3.43
272.666	3.65
273.04	3.61
273.413	3.8
273.787	3.87
274.16	3.88
274.533	3.88
274.906	3.87
275.279	3.72
275.653	4.07
276.026	4.08
276.399	4.2
276.772	4.46
277.145	4.55
277.518	4.74
277.891	4.6
278.263	4.55
278.636	4.65
279.009	4.89
279.382	4.77
279.755	4.76
280.127	4.66
280.5	4.67
280.872	4.73
281.245	4.66
281.617	4.64
281.99	4.49
282.362	4.49
282.735	4.44
283.107	4.54
283.479	4.33
283.852	4.32
284.224	4.23
284.596	4.11
284.968	4.11
285.34	4.07
285.713	4.09
286.085	4.02
286.457	3.89
286.829	3.76
287.201	3.95
287.572	4.01
287.944	4.03
288.316	3.99
288.688	4.1
289.06	4.11
289.431	4.03
289.803	4.15
290.175	4.18
290.546	4.17
290.918	4.22
291.289	4.17
291.661	4.13
292.032	4.25
292.403	4.11
292.775	4.24
293.146	4.26
293.517	4.23
293.889	4.24
294.26	4.31
294.631	4.41
295.002	4.37
295.373	4.39
295.744	4.38
296.115	4.39
296.486	4.38
296.857	4.31
297.228	4.3
297.599	4.21
297.97	4.29
298.34	4.28
298.711	4.37
299.082	4.47
299.452	4.46
299.823	4.37
300.194	4.64
300.564	4.42
300.935	4.47
301.305	4.41
301.676	4.37
302.046	4.48
302.416	4.45
302.787	4.33
303.157	4.28
303.527	4.29
303.897	4.33
304.267	4.22
304.637	4.29
305.008	4.35
305.378	4.48
305.748	4.35
306.117	4.48
306.487	4.46
306.857	4.55
307.227	4.63
307.597	4.76
307.967	4.68
308.336	4.8
308.706	4.85
309.076	5.08
309.445	5.35
309.815	5.34
310.184	5.3
310.554	5.34
310.923	5.28
311.293	5.29
311.662	5.27
312.031	5.31
312.401	5.38
312.77	5.38
313.139	5.34
313.508	5.35
313.877	5.36
314.246	5.22
314.616	5.1
314.985	5.1
315.353	5.07
315.722	5.18
316.091	5.23
316.46	5.2
316.829	5.21
317.198	5.07
317.567	5.15
317.935	5.2
318.304	5.31
318.672	5.45
319.041	5.56
319.41	5.6
319.778	5.7
320.147	5.62
320.515	5.56
320.883	5.77
321.252	5.86
321.62	5.92
321.988	6.02
322.357	6.16
322.725	6.27
323.093	6.3
323.461	6.2
323.829	6.27
324.197	6.04
324.565	5.94
324.933	6.1
325.301	6
325.669	6.02
326.037	6.13
326.405	6.05
326.772	6
327.14	6
327.508	6.01
327.875	6.05
328.243	6.17
328.61	6.06
328.978	6.03
329.346	6.02
329.713	6.16
330.08	6.21
330.448	6.11
330.815	6.32
331.182	6.23
331.55	6.17
331.917	6.39
332.284	6.41
332.651	6.38
333.018	6.44
333.385	6.54
333.752	6.47
334.119	6.56
334.486	6.54
334.853	6.48
335.22	6.33
335.587	6.3
335.954	6.28
336.32	6.33
336.687	6.52
337.054	6.47
337.42	6.34
337.787	6.28
338.153	6.34
338.52	6.26
338.886	6.31
339.253	6.35
339.619	6.21
339.986	6.09
340.352	6.07
340.718	6.09
341.084	6.07
341.451	6.04
341.817	5.99
342.183	5.99
342.549	6.1
342.915	6.24
343.281	6.29
343.647	6.37
344.013	6.41
344.379	6.27
344.745	6.28
345.11	6.28
345.476	6.34
345.842	6.33
346.208	6.41
346.573	6.34
346.939	6.33
347.304	6.49
347.67	6.56
348.035	6.55
348.401	6.57
348.766	6.46
349.132	6.51
349.497	6.55
349.862	6.61
350.228	6.51
350.593	6.37
350.958	6.44
351.323	6.35
351.688	6.28
352.053	6.32
352.418	6.39
352.783	6.42
353.148	6.37
353.513	6.33
353.878	6.19
354.243	6.25
354.608	6.24
354.972	6.18
355.337	6.18
355.702	6.13
356.066	6.08
356.431	6.2
356.795	6.18
357.16	6.16
357.524	6.12
357.889	6.07
358.253	6.16
358.618	6.03
358.982	6.06
359.346	6.07
359.71	6.03
360.075	6.02
360.439	6.02
360.803	6.06
361.167	6.09
361.531	6.11
361.895	6.11
362.259	6.09
362.623	6.12
362.987	6.18
363.351	6.17
363.714	6.17
364.078	6.1
364.442	6.04
364.806	6.03
365.169	6.02
365.533	6.05
365.896	6.06
366.26	6.07
366.623	5.98
366.987	5.97
367.35	5.96
367.714	5.89
368.077	5.81
368.44	5.81
368.803	5.81
369.167	5.77
369.53	5.79
369.893	5.82
370.256	5.78
370.619	5.67
370.982	5.61
371.345	5.56
371.708	5.59
372.071	5.55
372.434	5.51
372.797	5.51
373.159	5.48
373.522	5.39
373.885	5.41
374.247	5.41
374.61	5.37
374.973	5.32
375.335	5.32
375.698	5.31
376.06	5.24
376.423	5.16
376.785	5.14
377.147	5.07
377.51	5.05
377.872	5
378.234	5.01
378.596	5.03
378.958	5.05
379.321	5
379.683	5.05
380.045	5.01
380.407	4.99
380.769	4.96
381.13	4.96
381.492	4.98
381.854	4.98
382.216	4.96
382.578	5
382.939	4.93
383.301	4.88
383.663	4.88
384.024	4.86
384.386	4.83
384.747	4.81
385.109	4.76
385.47	4.76
385.832	4.68
386.193	4.64
386.554	4.6
386.916	4.55
387.277	4.52
387.638	4.51
387.999	4.47
388.36	4.45
388.721	4.44
389.082	4.38
389.443	4.31
389.804	4.3
390.165	4.32
390.526	4.34
390.887	4.32
391.248	4.25
391.609	4.25
391.969	4.24
392.33	4.21
392.691	4.19
393.051	4.15
393.412	4.19
393.772	4.2
394.133	4.16
394.493	4.14
394.854	4.09
395.214	4.09
395.574	4.07
395.935	4.05
396.295	4.02
396.655	3.99
397.015	4.01
397.376	4
397.736	3.92
398.096	3.9
398.456	3.88
398.816	3.89
399.176	3.82
399.535	3.79
399.895	3.78
400.255	3.76
400.615	3.78
400.975	3.73
401.334	3.67
401.694	3.65
402.054	3.64
402.413	3.61
402.773	3.6
403.132	3.61
403.492	3.61
403.851	3.57
404.211	3.55
404.57	3.53
404.929	3.51
405.288	3.5
405.648	3.47
406.007	3.45
406.366	3.44
406.725	3.43
407.084	3.41
407.443	3.39
407.802	3.34
408.161	3.34
408.52	3.34
408.879	3.34
409.238	3.35
409.596	3.34
409.955	3.35
410.314	3.33
410.673	3.31
411.031	3.3
411.39	3.3
411.748	3.3
412.107	3.3
412.465	3.29
412.824	3.27
413.182	3.25
413.54	3.27
413.899	3.27
414.257	3.29
414.615	3.3
414.974	3.32
415.332	3.31
415.69	3.24
416.048	3.21
416.406	3.18
416.764	3.17
417.122	3.16
417.48	3.15
417.838	3.14
418.195	3.11
418.553	3.1
418.911	3.09
419.269	3.08
419.626	3.07
419.984	3.05
420.342	3.05
420.699	3.04
421.057	3.02
421.414	3.03
421.772	3
422.129	2.98
422.486	2.97
422.844	2.96
423.201	2.98
423.558	2.99
423.915	3.02
424.273	3.03
424.63	3.03
424.987	3.01
425.344	3.01
425.701	3.02
426.058	3.02
426.415	3.01
426.772	2.99
427.128	2.97
427.485	2.97
427.842	2.97
428.199	2.97
428.555	2.95
428.912	2.95
429.269	2.96
429.625	2.97
429.982	2.96
430.338	2.99
430.695	2.97
431.051	2.95
431.407	2.93
431.764	2.91
432.12	2.9
432.476	2.93
432.832	2.93
433.189	2.94
433.545	2.95
433.901	2.96
434.257	2.98
434.613	2.98
434.969	2.99
435.325	2.98
435.681	2.97
436.036	2.98
436.392	2.97
436.748	2.96
437.104	2.96
437.459	2.96
437.815	2.94
438.171	2.94
438.526	2.93
438.882	2.92
439.237	2.91
439.593	2.92
439.948	2.9
440.304	2.9
440.659	2.9
441.014	2.87
441.369	2.87
441.725	2.87
442.08	2.87
442.435	2.88
442.79	2.86
443.145	2.87
443.5	2.85
443.855	2.84
444.21	2.83
444.565	2.82
444.92	2.82
445.275	2.83
445.629	2.83
445.984	2.83
446.339	2.82
446.693	2.83
447.048	2.81
447.403	2.81
447.757	2.78
448.112	2.77
448.466	2.77
448.82	2.76
449.175	2.76
449.529	2.76
449.883	2.75
450.238	2.76
450.592	2.75
450.946	2.76
451.3	2.76
451.654	2.75
452.008	2.76
452.362	2.76
452.716	2.75
453.07	2.75
453.424	2.76
453.778	2.76
454.132	2.74
454.486	2.76
454.839	2.75
455.193	2.76
455.547	2.78
455.9	2.79
456.254	2.81
456.607	2.8
456.961	2.8
457.314	2.8
457.668	2.81
458.021	2.81
458.375	2.81
458.728	2.83
459.081	2.85
459.434	2.84
459.787	2.86
460.141	2.88
460.494	2.89
460.847	2.88
461.2	2.88
461.553	2.89
461.906	2.89
462.259	2.9
462.611	2.91
462.964	2.92
463.317	2.93
463.67	2.94
464.022	2.95
464.375	2.96
464.728	2.97
465.08	2.98
465.433	2.99
465.785	2.99
466.138	3
466.49	3
466.843	3.01
467.195	3
467.547	3.01
467.899	3.01
468.252	3.02
468.604	3.04
468.956	3.05
469.308	3.06
469.66	3.08
470.012	3.07
470.364	3.07
470.716	3.06
471.068	3.05
471.42	3.03
471.772	3.04
472.123	3.05
472.475	3.05
472.827	3.07
473.178	3.08
473.53	3.06
473.882	3.06
474.233	3.05
474.585	3.05
474.936	3.05
475.288	3.04
475.639	3.05
475.99	3.03
476.342	3.05
476.693	3.05
477.044	3.04
477.395	3.03
477.746	3.01
478.097	3
478.448	3
478.8	3
479.15	2.99
479.501	2.95
479.852	2.94
480.203	2.94
480.554	2.94
480.905	2.94
481.255	2.94
481.606	2.96
481.957	2.95
482.307	2.93
482.658	2.93
483.009	2.93
483.359	2.93
483.709	2.92
484.06	2.92
484.41	2.91
484.761	2.93
485.111	2.94
485.461	2.93
485.811	2.93
486.162	2.94
486.512	2.95
486.862	2.97
487.212	2.98
487.562	2.99
487.912	3
488.262	3
488.612	3.01
488.961	3.01
489.311	3.01
489.661	3.02
490.011	3.03
490.36	3.04
490.71	3.05
491.06	3.06
491.409	3.08
491.759	3.1
492.108	3.12
492.458	3.13
492.807	3.16
493.157	3.17
493.506	3.19
493.855	3.2
494.204	3.21
494.554	3.23
494.903	3.23
495.252	3.26
495.601	3.28
495.95	3.3
496.299	3.34
496.648	3.38
496.997	3.4
497.346	3.44
497.695	3.48
498.043	3.5
498.392	3.52
498.741	3.54
499.09	3.57
499.438	3.6
499.787	3.61
500.135	3.65
500.484	3.69
500.832	3.69
501.181	3.73
501.529	3.76
501.878	3.82
502.226	3.87
502.574	3.91
502.923	3.93
503.271	3.96
503.619	4.02
503.967	4.07
504.315	4.13
504.663	4.17
505.011	4.24
505.359	4.28
505.707	4.33
506.055	4.39
506.403	4.45
506.751	4.48
507.098	4.57
507.446	4.62
507.794	4.67
508.141	4.74
508.489	4.79
508.837	4.85
509.184	4.9
509.531	4.96
509.879	5.02
510.226	5.08
510.574	5.15
510.921	5.19
511.268	5.25
511.616	5.34
511.963	5.4
512.31	5.44
512.657	5.54
513.004	5.61
513.351	5.68
513.698	5.76
514.045	5.85
514.392	5.92
514.739	6
515.086	6.08
515.432	6.17
515.779	6.27
516.126	6.38
516.473	6.45
516.819	6.54
517.166	6.62
517.512	6.74
517.859	6.82
518.205	6.89
518.552	6.99
518.898	7.05
519.245	7.13
519.591	7.24
519.937	7.3
520.283	7.4
520.629	7.51
520.976	7.63
521.322	7.74
521.668	7.85
522.014	7.98
522.36	8.12
522.706	8.26
523.052	8.4
523.398	8.56
523.743	8.75
524.089	8.92
524.435	9.07
524.781	9.2
525.126	9.35
525.472	9.5
525.817	9.61
526.163	9.73
526.509	9.82
526.854	9.94
527.199	10.06
527.545	10.18
527.89	10.27
528.235	10.38
528.581	10.51
528.926	10.62
529.271	10.74
529.616	10.87
529.961	11
530.306	11.13
530.651	11.24
530.996	11.38
531.341	11.54
531.686	11.69
532.031	11.86
532.376	12.01
532.721	12.17
533.065	12.37
533.41	12.57
533.755	12.79
534.099	12.99
534.444	13.18
534.788	13.37
535.133	13.59
535.477	13.77
535.822	13.97
536.166	14.21
536.51	14.46
536.855	14.69
537.199	14.94
537.543	15.21
537.887	15.49
538.231	15.77
538.576	16.03
538.92	16.29
539.264	16.56
539.608	16.79
539.951	17.03
540.295	17.27
540.639	17.47
540.983	17.68
541.327	17.91
541.671	18.12
542.014	18.35
542.358	18.53
542.701	18.75
543.045	18.98
543.389	19.21
543.732	19.43
544.075	19.69
544.419	19.93
544.762	20.18
545.105	20.44
545.449	20.69
545.792	20.97
546.135	21.26
546.478	21.59
546.821	21.95
547.165	22.3
547.508	22.62
547.851	22.99
548.194	23.34
548.536	23.64
548.879	24.01
549.222	24.35
549.565	24.7
549.908	25.03
550.25	25.36
550.593	25.68
550.936	25.98
551.278	26.28
551.621	26.66
551.963	26.99
552.306	27.28
552.648	27.62
552.991	27.95
553.333	28.24
553.675	28.5
554.017	28.8
554.36	29.04
554.702	29.31
555.044	29.58
555.386	29.87
555.728	30.19
556.07	30.41
556.412	30.7
556.754	31.05
557.096	31.35
557.438	31.62
557.78	31.94
558.121	32.28
558.463	32.57
558.805	32.83
559.147	33.11
559.488	33.36
559.83	33.6
560.171	33.82
560.513	34.08
560.854	34.34
561.196	34.53
561.537	34.78
561.878	34.99
562.22	35.24
562.561	35.47
562.902	35.74
563.243	35.97
563.584	36.16
563.925	36.3
564.266	36.57
564.607	36.76
564.948	36.99
565.289	37.19
565.63	37.38
565.971	37.55
566.312	37.75
566.653	37.96
566.993	38.12
567.334	38.26
567.675	38.44
568.015	38.64
568.356	38.82
568.696	38.96
569.037	39.18
569.377	39.32
569.718	39.5
570.058	39.63
570.398	39.83
570.739	39.99
571.079	40.15
571.419	40.22
571.759	40.38
572.099	40.46
572.439	40.58
572.779	40.71
573.119	40.89
573.459	41.02
573.799	41.2
574.139	41.39
574.479	41.6
574.819	41.76
575.158	41.95
575.498	42.12
575.838	42.37
576.177	42.52
576.517	42.76
576.856	42.92
577.196	43.12
577.535	43.29
577.875	43.56
578.214	43.86
578.553	44.15
578.893	44.37
579.232	44.6
579.571	44.82
579.91	45.06
580.25	45.23
580.589	45.47
580.928	45.58
581.267	45.72
581.606	45.94
581.945	46.18
582.283	46.3
582.622	46.47
582.961	46.58
583.3	46.75
583.639	46.83
583.977	47.06
584.316	47.19
584.654	47.32
584.993	47.36
585.332	47.38
585.67	47.46
586.008	47.59
586.347	47.67
586.685	47.72
587.024	47.86
587.362	47.93
587.7	48.02
588.038	48.1
588.376	48.31
588.715	48.39
589.053	48.53
589.391	48.59
589.729	48.65
590.067	48.69
590.404	48.75
590.742	48.81
591.08	48.79
591.418	48.9
591.756	48.95
592.093	49.01
592.431	49.1
592.769	49.19
593.106	49.26
593.444	49.38
593.781	49.53
594.119	49.55
594.456	49.59
594.793	49.6
595.131	49.68
595.468	49.69
595.805	49.78
596.143	49.78
596.48	49.8
596.817	49.84
597.154	49.94
597.491	50.01
597.828	50.07
598.165	50.19
598.502	50.26
598.839	50.34
599.176	50.41
599.512	50.46
599.849	50.55
600.186	50.59
600.523	50.55
600.859	50.47
601.196	50.48
601.532	50.51
601.869	50.57
602.205	50.6
602.542	50.62
602.878	50.6
603.215	50.58
603.551	50.59
603.887	50.63
604.223	50.68
604.56	50.67
604.896	50.76
605.232	50.72
605.568	50.74
605.904	50.76
606.24	50.79
606.576	50.89
606.912	50.89
607.248	50.86
607.583	50.98
607.919	51.13
608.255	51.2
608.591	51.3
608.926	51.43
609.262	51.51
609.597	51.62
609.933	51.69
610.268	51.82
610.604	52.03
610.939	52.14
611.275	52.19
611.61	52.38
611.945	52.37
612.281	52.5
612.616	52.59
612.951	52.66
613.286	52.84
613.621	52.93
613.956	53.1
614.291	53.33
614.626	53.44
614.961	53.55
615.296	53.75
615.631	53.91
615.966	54.01
616.3	54.1
616.635	54.17
616.97	54.2
617.304	54.32
617.639	54.28
617.973	54.32
618.308	54.35
618.642	54.36
618.977	54.43
619.311	54.49
619.646	54.51
619.98	54.56
620.314	54.59
620.648	54.62
620.983	54.62
621.317	54.64
621.651	54.61
621.985	54.62
622.319	54.56
622.653	54.55
622.987	54.49
623.321	54.52
623.655	54.42
623.988	54.45
624.322	54.41
624.656	54.31
624.99	54.27
625.323	54.27
625.657	54.23
625.99	54.21
626.324	54.15
626.657	54.02
626.991	54.05
627.324	54
627.658	53.96
627.991	54.05
628.324	53.96
628.657	54.06
628.991	54.1
629.324	54.15
629.657	54.13
629.99	54.13
630.323	54.14
630.656	54.24
630.989	54.22
631.322	54.27
631.655	54.42
631.987	54.52
632.32	54.64
632.653	54.65
632.986	54.71
633.318	54.83
633.651	55.08
633.984	55.12
634.316	55.21
634.649	55.28
634.981	55.29
635.313	55.45
635.646	55.45
635.978	55.51
636.31	55.66
636.643	55.75
636.975	55.81
637.307	55.88
637.639	55.92
637.971	56.02
638.303	56.04
638.635	56.1
638.967	56.16
639.299	56.17
639.631	56.34
639.963	56.46
640.295	56.43
640.626	56.49
640.958	56.57
641.29	56.59
641.621	56.57
641.953	56.55
642.285	56.54
642.616	56.6
642.948	56.68
643.279	56.64
643.61	56.61
643.942	56.73
644.273	56.72
644.604	56.72
644.936	56.84
645.267	56.86
645.598	56.83
645.929	56.88
646.26	56.9
646.591	56.84
646.922	56.9
647.253	56.9
647.584	56.85
647.915	56.76
648.245	56.67
648.576	56.69
648.907	56.79
649.238	56.8
649.568	56.66
649.899	56.55
650.229	56.53
650.56	56.49
650.89	56.4
651.221	56.38
651.551	56.47
651.882	56.34
652.212	56.33
652.542	56.33
652.872	56.33
653.203	56.29
653.533	56.25
653.863	56.12
654.193	56.22
654.523	56.18
654.853	56.17
655.183	56.19
655.513	56.11
655.843	55.88
656.172	55.8
656.502	55.79
656.832	55.67
657.162	55.66
657.491	55.78
657.821	55.81
658.15	55.94
658.48	55.79
658.809	55.82
659.139	55.91
659.468	55.96
659.798	55.98
660.127	55.99
660.456	56.06
660.785	55.99
661.115	55.87
661.444	55.91
661.773	55.96
662.102	56.09
662.431	56.3
662.76	56.47
663.089	56.53
663.418	56.7
663.747	56.82
664.076	56.74
664.404	56.77
664.733	56.82
665.062	56.78
665.39	56.96
665.719	56.96
666.048	56.89
666.376	56.78
666.705	56.7
667.033	56.74
667.362	56.74
667.69	56.93
668.018	57.02
668.347	56.96
668.675	57.09
669.003	57.13
669.331	56.94
669.659	56.85
669.987	57.01
670.315	57
