Data from BA48648_Reflection_00004.txt Node
Date: Tue Nov 19 11:44:29 EST 2019
User: vgr7
Spectrometer: USB2G7710
Scans to average: 3
Trigger mode: 4
Integration Time (sec): 2.000000E-2
Electric dark correction enabled: true
Boxcar width: 10
XAxis mode: Wavelengths
Number of Pixels in Spectrum: 2048
>>>>>Begin Spectral Data<<<<<
177.721	-33.03
178.105	26.97
178.488	9.03
178.871	-21.18
179.254	-122.03
179.636	-286.36
180.019	-1021.62
180.402	1033.33
180.785	-216
181.168	327.27
181.55	223.32
181.933	820.18
182.316	1339.73
182.698	350.83
183.081	-596.53
183.463	-146.52
183.846	-179.22
184.228	-109.59
184.611	-54.84
184.993	-76.98
185.376	-85.2
185.758	-45.06
186.14	-61.28
186.522	-54.5
186.904	-49.33
187.287	-40.24
187.669	-46.79
188.051	-52.02
188.433	-52.36
188.815	-50.94
189.197	-45.73
189.579	-44.05
189.961	-47.82
190.342	-40.01
190.724	-44.2
191.106	-68.61
191.488	-78.36
191.869	-72.77
192.251	-70.18
192.633	-77.92
193.014	-78.11
193.396	-89.61
193.777	-103.11
194.159	-99.38
194.54	-99.6
194.922	-117.93
195.303	-109.31
195.684	-93.35
196.065	-97.65
196.447	-99.06
196.828	-87.9
197.209	-80.15
197.59	-71.21
197.971	-52
198.352	-49.04
198.733	-40.76
199.114	-30.8
199.495	-19.5
199.876	-23.47
200.257	-29.27
200.638	-34.22
201.018	-27.83
201.399	-33.87
201.78	-35.47
202.16	-29.57
202.541	-30.14
202.922	-24.4
203.302	-29.14
203.683	-24.23
204.063	-25.42
204.444	-31.06
204.824	-32.57
205.204	-26.14
205.585	-31.72
205.965	-44.54
206.345	-40.17
206.725	-46.99
207.106	-44.34
207.486	-41.96
207.866	-36.39
208.246	-28.12
208.626	-30.12
209.006	-33.59
209.386	-30.88
209.766	-31.72
210.145	-34.73
210.525	-35.77
210.905	-32.48
211.285	-27.87
211.664	-24.97
212.044	-27.92
212.424	-26.08
212.803	-35.79
213.183	-46.42
213.562	-44.55
213.942	-44.05
214.321	-51.94
214.701	-43.83
215.08	-45.75
215.459	-47.04
215.838	-50.01
216.218	-67.44
216.597	-61.26
216.976	-70
217.355	-61.11
217.734	-70.9
218.113	-63.09
218.492	-60.84
218.871	-51.35
219.25	-61.63
219.629	-78.67
220.008	-63.58
220.387	-65.68
220.766	-40.86
221.144	-37.33
221.523	-39.71
221.902	-35.37
222.28	-29.88
222.659	-29.82
223.037	-28.17
223.416	-32.52
223.794	-33.29
224.173	-31.66
224.551	-33.04
224.929	-28.41
225.308	-30.48
225.686	-27.17
226.064	-28.55
226.442	-22.67
226.821	-19.99
227.199	-21.28
227.577	-20.55
227.955	-21.02
228.333	-23.25
228.711	-25.78
229.089	-23.38
229.467	-21.09
229.845	-20.69
230.222	-19.83
230.6	-18.38
230.978	-17.7
231.356	-15.28
231.733	-12.02
232.111	-11.23
232.488	-10.74
232.866	-7.91
233.243	-7.24
233.621	-7.11
233.998	-7.24
234.376	-7.27
234.753	-8.77
235.13	-7.41
235.508	-6.37
235.885	-7.65
236.262	-5.63
236.639	-2.93
237.016	-2.97
237.393	-2.42
237.77	-0.37
238.147	-1.07
238.524	-0.54
238.901	0.02
239.278	0.12
239.655	0.65
240.032	1.18
240.409	1.41
240.785	0.28
241.162	1.02
241.539	1.17
241.915	1.54
242.292	1.43
242.668	2.02
243.045	2.45
243.421	2.44
243.798	3.04
244.174	3.04
244.551	3.08
244.927	3.3
245.303	3.19
245.679	3.1
246.056	3.29
246.432	3.18
246.808	3.31
247.184	3.3
247.56	2.88
247.936	3.03
248.312	3.26
248.688	3.52
249.064	3.44
249.44	3.45
249.815	3.53
250.191	3.59
250.567	3.47
250.943	3.42
251.318	3.63
251.694	3.44
252.069	3.44
252.445	3.28
252.82	3.17
253.196	3.32
253.571	3.32
253.947	3.26
254.322	3.22
254.697	3.29
255.073	2.94
255.448	3.02
255.823	2.95
256.198	2.83
256.573	3.1
256.948	3.23
257.323	3.22
257.698	3.08
258.073	3.01
258.448	3
258.823	2.92
259.198	2.87
259.573	2.74
259.948	2.67
260.322	2.49
260.697	2.62
261.072	2.66
261.446	2.59
261.821	2.57
262.195	2.63
262.57	2.57
262.944	2.83
263.319	2.94
263.693	2.92
264.067	2.99
264.442	2.83
264.816	2.69
265.19	2.57
265.564	2.51
265.938	2.56
266.313	2.27
266.687	2.21
267.061	2.22
267.435	2.72
267.809	2.63
268.183	2.76
268.556	2.63
268.93	2.65
269.304	2.64
269.678	2.63
270.051	2.67
270.425	2.61
270.799	2.33
271.172	2.25
271.546	2.31
271.919	2.26
272.293	2.35
272.666	2.35
273.04	2.51
273.413	2.54
273.787	2.45
274.16	2.56
274.533	2.78
274.906	2.68
275.279	2.35
275.653	2.47
276.026	2.43
276.399	2.39
276.772	2.27
277.145	2.41
277.518	2.39
277.891	2.27
278.263	2.52
278.636	2.81
279.009	2.89
279.382	2.86
279.755	2.87
280.127	2.77
280.5	2.95
280.872	3.05
281.245	3.17
281.617	3.25
281.99	3.31
282.362	3.12
282.735	3.18
283.107	3.32
283.479	3.44
283.852	3.52
284.224	3.63
284.596	3.73
284.968	3.54
285.34	3.58
285.713	3.63
286.085	3.41
286.457	3.33
286.829	3.3
287.201	3.35
287.572	3.41
287.944	3.5
288.316	3.3
288.688	3.24
289.06	3.21
289.431	3.17
289.803	3.3
290.175	3.34
290.546	3.22
290.918	3.15
291.289	3.06
291.661	3.04
292.032	3.09
292.403	3.02
292.775	3.2
293.146	3.28
293.517	3.27
293.889	3.4
294.26	3.43
294.631	3.47
295.002	3.5
295.373	3.44
295.744	3.34
296.115	3.39
296.486	3.43
296.857	3.41
297.228	3.46
297.599	3.44
297.97	3.51
298.34	3.57
298.711	3.61
299.082	3.63
299.452	3.58
299.823	3.44
300.194	3.4
300.564	3.24
300.935	3.22
301.305	3.23
301.676	3.09
302.046	2.94
302.416	2.92
302.787	2.92
303.157	2.89
303.527	3.04
303.897	2.91
304.267	2.92
304.637	2.96
305.008	2.94
305.378	2.91
305.748	2.85
306.117	2.9
306.487	2.88
306.857	2.86
307.227	3.09
307.597	3.03
307.967	3.09
308.336	3.18
308.706	3.16
309.076	3.19
309.445	3.3
309.815	3.36
310.184	3.34
310.554	3.23
310.923	3.29
311.293	3.15
311.662	3.24
312.031	3.05
312.401	3.03
312.77	3.05
313.139	3.1
313.508	3.07
313.877	3.03
314.246	3.04
314.616	3.08
314.985	2.87
315.353	2.99
315.722	3.12
316.091	3.11
316.46	3.1
316.829	2.99
317.198	2.93
317.567	3.02
317.935	2.94
318.304	2.94
318.672	2.82
319.041	2.87
319.41	3.01
319.778	3.09
320.147	3.06
320.515	3.04
320.883	2.9
321.252	3
321.62	3.09
321.988	3.06
322.357	2.92
322.725	2.9
323.093	2.82
323.461	2.62
323.829	2.64
324.197	2.6
324.565	2.76
324.933	2.73
325.301	2.55
325.669	2.55
326.037	2.59
326.405	2.74
326.772	2.68
327.14	2.6
327.508	2.57
327.875	2.6
328.243	2.54
328.61	2.62
328.978	2.54
329.346	2.59
329.713	2.7
330.08	2.86
330.448	2.96
330.815	2.98
331.182	3.09
331.55	3.09
331.917	2.99
332.284	2.91
332.651	2.89
333.018	3.1
333.385	3.07
333.752	3.09
334.119	3.04
334.486	3.13
334.853	3.18
335.22	3.22
335.587	3.12
335.954	3.2
336.32	3.05
336.687	3.15
337.054	3.11
337.42	2.96
337.787	2.84
338.153	2.87
338.52	3
338.886	2.98
339.253	2.98
339.619	3.08
339.986	3.07
340.352	3.17
340.718	3.12
341.084	3.28
341.451	3.29
341.817	3.17
342.183	3.09
342.549	3.15
342.915	3.24
343.281	3.26
343.647	3.26
344.013	3.47
344.379	3.4
344.745	3.39
345.11	3.36
345.476	3.4
345.842	3.32
346.208	3.21
346.573	3.18
346.939	3.14
347.304	3.13
347.67	3.15
348.035	3.05
348.401	3.06
348.766	2.96
349.132	2.98
349.497	3.14
349.862	3.27
350.228	3.21
350.593	3.16
350.958	3.19
351.323	3.1
351.688	3.07
352.053	3.09
352.418	3.06
352.783	3.14
353.148	3.22
353.513	3.25
353.878	3.17
354.243	3.16
354.608	3.31
354.972	3.32
355.337	3.35
355.702	3.42
356.066	3.45
356.431	3.52
356.795	3.51
357.16	3.49
357.524	3.42
357.889	3.36
358.253	3.3
358.618	3.34
358.982	3.4
359.346	3.4
359.71	3.35
360.075	3.45
360.439	3.47
360.803	3.44
361.167	3.48
361.531	3.46
361.895	3.51
362.259	3.43
362.623	3.44
362.987	3.4
363.351	3.38
363.714	3.38
364.078	3.34
364.442	3.29
364.806	3.28
365.169	3.26
365.533	3.31
365.896	3.41
366.26	3.4
366.623	3.41
366.987	3.37
367.35	3.47
367.714	3.36
368.077	3.33
368.44	3.33
368.803	3.3
369.167	3.39
369.53	3.33
369.893	3.3
370.256	3.3
370.619	3.29
370.982	3.28
371.345	3.34
371.708	3.37
372.071	3.36
372.434	3.3
372.797	3.33
373.159	3.31
373.522	3.25
373.885	3.25
374.247	3.26
374.61	3.29
374.973	3.22
375.335	3.26
375.698	3.28
376.06	3.27
376.423	3.28
376.785	3.31
377.147	3.34
377.51	3.38
377.872	3.41
378.234	3.52
378.596	3.54
378.958	3.5
379.321	3.46
379.683	3.52
380.045	3.51
380.407	3.47
380.769	3.49
381.13	3.49
381.492	3.49
381.854	3.49
382.216	3.47
382.578	3.47
382.939	3.44
383.301	3.44
383.663	3.45
384.024	3.41
384.386	3.37
384.747	3.39
385.109	3.34
385.47	3.31
385.832	3.23
386.193	3.21
386.554	3.19
386.916	3.2
387.277	3.21
387.638	3.19
387.999	3.21
388.36	3.22
388.721	3.21
389.082	3.28
389.443	3.3
389.804	3.3
390.165	3.33
390.526	3.33
390.887	3.32
391.248	3.29
391.609	3.34
391.969	3.38
392.33	3.35
392.691	3.39
393.051	3.42
393.412	3.47
393.772	3.48
394.133	3.46
394.493	3.43
394.854	3.45
395.214	3.47
395.574	3.49
395.935	3.48
396.295	3.49
396.655	3.45
397.015	3.39
397.376	3.4
397.736	3.37
398.096	3.38
398.456	3.37
398.816	3.4
399.176	3.34
399.535	3.33
399.895	3.36
400.255	3.35
400.615	3.32
400.975	3.28
401.334	3.27
401.694	3.27
402.054	3.32
402.413	3.28
402.773	3.29
403.132	3.28
403.492	3.29
403.851	3.29
404.211	3.28
404.57	3.3
404.929	3.29
405.288	3.35
405.648	3.35
406.007	3.38
406.366	3.35
406.725	3.38
407.084	3.38
407.443	3.37
407.802	3.38
408.161	3.39
408.52	3.42
408.879	3.42
409.238	3.42
409.596	3.43
409.955	3.42
410.314	3.42
410.673	3.4
411.031	3.37
411.39	3.39
411.748	3.37
412.107	3.38
412.465	3.39
412.824	3.36
413.182	3.39
413.54	3.38
413.899	3.38
414.257	3.37
414.615	3.37
414.974	3.38
415.332	3.38
415.69	3.37
416.048	3.37
416.406	3.36
416.764	3.37
417.122	3.33
417.48	3.35
417.838	3.35
418.195	3.37
418.553	3.38
418.911	3.38
419.269	3.39
419.626	3.39
419.984	3.39
420.342	3.38
420.699	3.37
421.057	3.36
421.414	3.36
421.772	3.38
422.129	3.37
422.486	3.36
422.844	3.35
423.201	3.36
423.558	3.36
423.915	3.36
424.273	3.37
424.63	3.39
424.987	3.39
425.344	3.38
425.701	3.38
426.058	3.39
426.415	3.37
426.772	3.38
427.128	3.38
427.485	3.37
427.842	3.36
428.199	3.36
428.555	3.39
428.912	3.37
429.269	3.36
429.625	3.37
429.982	3.4
430.338	3.4
430.695	3.4
431.051	3.4
431.407	3.41
431.764	3.4
432.12	3.42
432.476	3.42
432.832	3.43
433.189	3.44
433.545	3.44
433.901	3.46
434.257	3.44
434.613	3.44
434.969	3.43
435.325	3.45
435.681	3.46
436.036	3.44
436.392	3.45
436.748	3.47
437.104	3.47
437.459	3.46
437.815	3.48
438.171	3.49
438.526	3.49
438.882	3.48
439.237	3.49
439.593	3.48
439.948	3.49
440.304	3.47
440.659	3.47
441.014	3.47
441.369	3.47
441.725	3.49
442.08	3.5
442.435	3.52
442.79	3.52
443.145	3.49
443.5	3.49
443.855	3.49
444.21	3.47
444.565	3.48
444.92	3.48
445.275	3.46
445.629	3.44
445.984	3.44
446.339	3.44
446.693	3.44
447.048	3.43
447.403	3.42
447.757	3.43
448.112	3.44
448.466	3.43
448.82	3.43
449.175	3.41
449.529	3.41
449.883	3.4
450.238	3.39
450.592	3.41
450.946	3.42
451.3	3.43
451.654	3.42
452.008	3.43
452.362	3.43
452.716	3.44
453.07	3.45
453.424	3.44
453.778	3.44
454.132	3.42
454.486	3.42
454.839	3.42
455.193	3.44
455.547	3.42
455.9	3.43
456.254	3.42
456.607	3.44
456.961	3.45
457.314	3.45
457.668	3.44
458.021	3.45
458.375	3.44
458.728	3.42
459.081	3.42
459.434	3.41
459.787	3.41
460.141	3.42
460.494	3.43
460.847	3.45
461.2	3.46
461.553	3.48
461.906	3.5
462.259	3.5
462.611	3.5
462.964	3.5
463.317	3.5
463.67	3.5
464.022	3.49
464.375	3.47
464.728	3.48
465.08	3.48
465.433	3.48
465.785	3.49
466.138	3.52
466.49	3.52
466.843	3.53
467.195	3.55
467.547	3.53
467.899	3.52
468.252	3.49
468.604	3.49
468.956	3.51
469.308	3.49
469.66	3.51
470.012	3.5
470.364	3.5
470.716	3.51
471.068	3.52
471.42	3.54
471.772	3.56
472.123	3.57
472.475	3.56
472.827	3.57
473.178	3.57
473.53	3.55
473.882	3.55
474.233	3.55
474.585	3.53
474.936	3.53
475.288	3.53
475.639	3.54
475.99	3.53
476.342	3.5
476.693	3.51
477.044	3.5
477.395	3.5
477.746	3.52
478.097	3.51
478.448	3.51
478.8	3.51
479.15	3.52
479.501	3.51
479.852	3.53
480.203	3.53
480.554	3.54
480.905	3.55
481.255	3.55
481.606	3.56
481.957	3.57
482.307	3.58
482.658	3.59
483.009	3.61
483.359	3.61
483.709	3.62
484.06	3.63
484.41	3.63
484.761	3.64
485.111	3.64
485.461	3.64
485.811	3.64
486.162	3.64
486.512	3.64
486.862	3.65
487.212	3.65
487.562	3.65
487.912	3.65
488.262	3.65
488.612	3.66
488.961	3.67
489.311	3.67
489.661	3.66
490.011	3.66
490.36	3.65
490.71	3.66
491.06	3.66
491.409	3.67
491.759	3.67
492.108	3.65
492.458	3.65
492.807	3.65
493.157	3.65
493.506	3.65
493.855	3.66
494.204	3.67
494.554	3.66
494.903	3.67
495.252	3.67
495.601	3.68
495.95	3.68
496.299	3.68
496.648	3.69
496.997	3.68
497.346	3.7
497.695	3.71
498.043	3.7
498.392	3.72
498.741	3.71
499.09	3.72
499.438	3.73
499.787	3.75
500.135	3.75
500.484	3.75
500.832	3.76
501.181	3.75
501.529	3.75
501.878	3.77
502.226	3.76
502.574	3.75
502.923	3.76
503.271	3.76
503.619	3.77
503.967	3.78
504.315	3.83
504.663	3.82
505.011	3.81
505.359	3.8
505.707	3.8
506.055	3.82
506.403	3.8
506.751	3.79
507.098	3.81
507.446	3.81
507.794	3.82
508.141	3.84
508.489	3.86
508.837	3.85
509.184	3.85
509.531	3.87
509.879	3.89
510.226	3.87
510.574	3.89
510.921	3.91
511.268	3.91
511.616	3.91
511.963	3.92
512.31	3.92
512.657	3.94
513.004	3.95
513.351	3.93
513.698	3.97
514.045	3.96
514.392	3.98
514.739	3.99
515.086	4.01
515.432	4.01
515.779	4.02
516.126	4.04
516.473	4.04
516.819	4.05
517.166	4.04
517.512	4.04
517.859	4.04
518.205	4.02
518.552	4.04
518.898	4.04
519.245	4.06
519.591	4.07
519.937	4.07
520.283	4.07
520.629	4.07
520.976	4.06
521.322	4.09
521.668	4.08
522.014	4.07
522.36	4.07
522.706	4.06
523.052	4.07
523.398	4.08
523.743	4.1
524.089	4.13
524.435	4.15
524.781	4.16
525.126	4.18
525.472	4.2
525.817	4.19
526.163	4.18
526.509	4.2
526.854	4.21
527.199	4.22
527.545	4.22
527.89	4.24
528.235	4.25
528.581	4.25
528.926	4.26
529.271	4.28
529.616	4.27
529.961	4.29
530.306	4.28
530.651	4.28
530.996	4.28
531.341	4.27
531.686	4.27
532.031	4.28
532.376	4.27
532.721	4.27
533.065	4.28
533.41	4.29
533.755	4.28
534.099	4.29
534.444	4.28
534.788	4.29
535.133	4.3
535.477	4.29
535.822	4.29
536.166	4.29
536.51	4.3
536.855	4.33
537.199	4.33
537.543	4.35
537.887	4.35
538.231	4.36
538.576	4.37
538.92	4.38
539.264	4.4
539.608	4.42
539.951	4.4
540.295	4.4
540.639	4.42
540.983	4.42
541.327	4.41
541.671	4.42
542.014	4.43
542.358	4.43
542.701	4.44
543.045	4.44
543.389	4.45
543.732	4.43
544.075	4.43
544.419	4.43
544.762	4.44
545.105	4.43
545.449	4.43
545.792	4.42
546.135	4.42
546.478	4.42
546.821	4.4
547.165	4.41
547.508	4.42
547.851	4.4
548.194	4.39
548.536	4.4
548.879	4.38
549.222	4.39
549.565	4.38
549.908	4.39
550.25	4.4
550.593	4.4
550.936	4.39
551.278	4.4
551.621	4.41
551.963	4.39
552.306	4.39
552.648	4.37
552.991	4.36
553.333	4.35
553.675	4.36
554.017	4.35
554.36	4.36
554.702	4.36
555.044	4.36
555.386	4.39
555.728	4.4
556.07	4.42
556.412	4.41
556.754	4.4
557.096	4.39
557.438	4.4
557.78	4.41
558.121	4.43
558.463	4.42
558.805	4.39
559.147	4.42
559.488	4.42
559.83	4.43
560.171	4.43
560.513	4.42
560.854	4.4
561.196	4.41
561.537	4.43
561.878	4.46
562.22	4.45
562.561	4.43
562.902	4.44
563.243	4.43
563.584	4.45
563.925	4.49
564.266	4.48
564.607	4.5
564.948	4.48
565.289	4.47
565.63	4.48
565.971	4.5
566.312	4.49
566.653	4.51
566.993	4.49
567.334	4.51
567.675	4.53
568.015	4.51
568.356	4.53
568.696	4.5
569.037	4.45
569.377	4.46
569.718	4.48
570.058	4.48
570.398	4.49
570.739	4.48
571.079	4.47
571.419	4.48
571.759	4.45
572.099	4.47
572.439	4.47
572.779	4.46
573.119	4.46
573.459	4.46
573.799	4.47
574.139	4.48
574.479	4.51
574.819	4.48
575.158	4.5
575.498	4.49
575.838	4.51
576.177	4.57
576.517	4.6
576.856	4.59
577.196	4.6
577.535	4.6
577.875	4.6
578.214	4.62
578.553	4.62
578.893	4.65
579.232	4.68
579.571	4.71
579.91	4.71
580.25	4.76
580.589	4.76
580.928	4.76
581.267	4.77
581.606	4.74
581.945	4.76
582.283	4.78
582.622	4.78
582.961	4.78
583.3	4.75
583.639	4.71
583.977	4.71
584.316	4.71
584.654	4.72
584.993	4.71
585.332	4.72
585.67	4.71
586.008	4.68
586.347	4.63
586.685	4.59
587.024	4.6
587.362	4.55
587.7	4.58
588.038	4.62
588.376	4.63
588.715	4.62
589.053	4.65
589.391	4.67
589.729	4.67
590.067	4.66
590.404	4.69
590.742	4.66
591.08	4.69
591.418	4.66
591.756	4.66
592.093	4.68
592.431	4.69
592.769	4.69
593.106	4.69
593.444	4.73
593.781	4.72
594.119	4.68
594.456	4.72
594.793	4.71
595.131	4.63
595.468	4.62
595.805	4.64
596.143	4.62
596.48	4.6
596.817	4.62
597.154	4.65
597.491	4.64
597.828	4.68
598.165	4.67
598.502	4.69
598.839	4.7
599.176	4.69
599.512	4.65
599.849	4.65
600.186	4.63
600.523	4.61
600.859	4.65
601.196	4.69
601.532	4.67
601.869	4.66
602.205	4.71
602.542	4.72
602.878	4.72
603.215	4.7
603.551	4.67
603.887	4.65
604.223	4.63
604.56	4.66
604.896	4.67
605.232	4.63
605.568	4.66
605.904	4.66
606.24	4.63
606.576	4.65
606.912	4.63
607.248	4.66
607.583	4.65
607.919	4.66
608.255	4.66
608.591	4.67
608.926	4.68
609.262	4.68
609.597	4.72
609.933	4.74
610.268	4.78
610.604	4.79
610.939	4.82
611.275	4.79
611.61	4.74
611.945	4.72
612.281	4.77
612.616	4.75
612.951	4.79
613.286	4.78
613.621	4.79
613.956	4.84
614.291	4.81
614.626	4.82
614.961	4.79
615.296	4.82
615.631	4.81
615.966	4.83
616.3	4.82
616.635	4.79
616.97	4.77
617.304	4.74
617.639	4.76
617.973	4.71
618.308	4.76
618.642	4.76
618.977	4.74
619.311	4.74
619.646	4.77
619.98	4.75
620.314	4.8
620.648	4.76
620.983	4.75
621.317	4.8
621.651	4.85
621.985	4.83
622.319	4.81
622.653	4.82
622.987	4.82
623.321	4.87
623.655	4.89
623.988	4.93
624.322	4.96
624.656	4.97
624.99	5
625.323	4.98
625.657	5.02
625.99	5.07
626.324	5.09
626.657	5.03
626.991	5.03
627.324	4.98
627.658	4.97
627.991	5
628.324	4.97
628.657	4.94
628.991	4.96
629.324	4.93
629.657	4.88
629.99	4.89
630.323	4.82
630.656	4.84
630.989	4.77
631.322	4.75
631.655	4.76
631.987	4.77
632.32	4.79
632.653	4.78
632.986	4.77
633.318	4.76
633.651	4.8
633.984	4.78
634.316	4.84
634.649	4.87
634.981	4.83
635.313	4.85
635.646	4.87
635.978	4.92
636.31	4.95
636.643	4.97
636.975	4.94
637.307	5.01
637.639	4.97
637.971	5.02
638.303	5.01
638.635	5
638.967	4.93
639.299	4.93
639.631	4.96
639.963	4.94
640.295	4.91
640.626	4.91
640.958	4.92
641.29	4.95
641.621	4.95
641.953	4.94
642.285	4.92
642.616	4.91
642.948	4.87
643.279	4.85
643.61	4.9
643.942	4.88
644.273	4.85
644.604	4.8
644.936	4.79
645.267	4.8
645.598	4.77
645.929	4.8
646.26	4.83
646.591	4.79
646.922	4.83
647.253	4.86
647.584	4.84
647.915	4.84
648.245	4.85
648.576	4.85
648.907	4.89
649.238	4.91
649.568	4.87
649.899	4.88
650.229	4.95
650.56	4.93
650.89	4.96
651.221	4.99
651.551	5.04
651.882	5.01
652.212	5.05
652.542	5.07
652.872	5.05
653.203	4.99
653.533	4.96
653.863	4.95
654.193	4.91
654.523	4.94
654.853	4.91
655.183	4.85
655.513	4.87
655.843	4.86
656.172	4.89
656.502	4.87
656.832	4.92
657.162	4.97
657.491	4.97
657.821	4.97
658.15	4.94
658.48	4.95
658.809	5
659.139	4.97
659.468	4.96
659.798	5.05
660.127	5.1
660.456	5.12
660.785	5.1
661.115	5.16
661.444	5.16
661.773	5.23
662.102	5.27
662.431	5.23
662.76	5.28
663.089	5.27
663.418	5.38
663.747	5.32
664.076	5.24
664.404	5.29
664.733	5.26
665.062	5.33
665.39	5.32
665.719	5.36
666.048	5.36
666.376	5.41
666.705	5.4
667.033	5.45
667.362	5.49
667.69	5.54
668.018	5.53
668.347	5.49
668.675	5.45
669.003	5.38
669.331	5.36
669.659	5.34
669.987	5.31
670.315	5.25
670.643	5.2
670.971	5.19
671.299	5.15
671.627	5.16
671.955	5.08
672.283	5.12
672.61	5.06
672.938	5.13
673.266	5.09
673.593	5.09
673.921	5
674.249	4.95
674.576	4.87
674.904	4.8
675.231	4.85
675.558	4.79
675.886	4.9
676.213	4.95
