Data from BA48648_Reflection_00005.txt Node
Date: Tue Nov 19 11:44:31 EST 2019
User: vgr7
Spectrometer: USB2G7710
Scans to average: 3
Trigger mode: 4
Integration Time (sec): 2.000000E-2
Electric dark correction enabled: true
Boxcar width: 10
XAxis mode: Wavelengths
Number of Pixels in Spectrum: 2048
>>>>>Begin Spectral Data<<<<<
177.721	-17.96
178.105	57.87
178.488	20.95
178.871	-80
179.254	-62.71
179.636	-221.43
180.019	-1359.46
180.402	800
180.785	316
181.168	158.44
181.55	274.89
181.933	760.55
182.316	1497.26
182.698	179.73
183.081	-281.5
183.463	-104.02
183.846	-122.63
184.228	-73.46
184.611	-59.72
184.993	-63.02
185.376	-68.79
185.758	-48.86
186.14	-73.87
186.522	-51.8
186.904	-36.52
187.287	-40.05
187.669	-27.9
188.051	-27.31
188.433	-35.69
188.815	-28.18
189.197	-25.04
189.579	-12.11
189.961	-18.66
190.342	-17.83
190.724	-21.68
191.106	-20.16
191.488	-14.62
191.869	-12.78
192.251	-15.77
192.633	-16.06
193.014	-12.39
193.396	-14.27
193.777	-19.15
194.159	-10.54
194.54	-7.8
194.922	-5.92
195.303	-3.37
195.684	-15.91
196.065	-16.07
196.447	-14.68
196.828	-32.63
197.209	-28.71
197.59	-32.31
197.971	-17.1
198.352	-17.74
198.733	-16.58
199.114	-19.41
199.495	-21.17
199.876	-23.3
200.257	-30.23
200.638	-38.81
201.018	-47.18
201.399	-42.59
201.78	-27.32
202.16	-35.52
202.541	-41.62
202.922	-42.91
203.302	-40.79
203.683	-36.67
204.063	-42.51
204.444	-44.58
204.824	-45.01
205.204	-35.46
205.585	-31.57
205.965	-37.78
206.345	-34.21
206.725	-34.38
207.106	-36.98
207.486	-34.27
207.866	-33.89
208.246	-21.71
208.626	-21.48
209.006	-18.06
209.386	-17.46
209.766	-21.48
210.145	-23.56
210.525	-25.53
210.905	-23.78
211.285	-23.4
211.664	-21.91
212.044	-13.03
212.424	-12.68
212.803	-20.6
213.183	-28.02
213.562	-21.44
213.942	-22.12
214.321	-27.15
214.701	-30.85
215.08	-24.3
215.459	-26.36
215.838	-32.53
216.218	-42.03
216.597	-41.63
216.976	-52.02
217.355	-54.59
217.734	-60.93
218.113	-46.32
218.492	-52.09
218.871	-45.48
219.25	-45.72
219.629	-59.15
220.008	-62.28
220.387	-57.89
220.766	-36.21
221.144	-30.97
221.523	-40.49
221.902	-33.49
222.28	-29.75
222.659	-18.04
223.037	-26.43
223.416	-18.45
223.794	-12.74
224.173	-14.19
224.551	-9.7
224.929	-9.21
225.308	-8.95
225.686	-11.19
226.064	-17.36
226.442	-14.26
226.821	-12.81
227.199	-11.35
227.577	-8.66
227.955	-9.94
228.333	-15.24
228.711	-14.62
229.089	-14.79
229.467	-13.41
229.845	-15.57
230.222	-11.09
230.6	-12.05
230.978	-10.37
231.356	-12.03
231.733	-9.87
232.111	-9.17
232.488	-10.7
232.866	-8.71
233.243	-7.82
233.621	-7.47
233.998	-6.06
234.376	-6.32
234.753	-6.91
235.13	-6.32
235.508	-7.04
235.885	-4.25
236.262	-2.51
236.639	-3.37
237.016	-2.51
237.393	-1.85
237.77	-0.23
238.147	-1.16
238.524	-1.65
238.901	-1.29
239.278	-0.47
239.655	-1.08
240.032	-0.5
240.409	-0.7
240.785	-0.87
241.162	-1.01
241.539	-0.57
241.915	-0.15
242.292	0.44
242.668	0.74
243.045	1.48
243.421	1.74
243.798	1.64
244.174	2.11
244.551	2.52
244.927	2.55
245.303	2.59
245.679	2.74
246.056	2.82
246.432	3.08
246.808	3.22
247.184	3.02
247.56	3.03
247.936	2.98
248.312	3.59
248.688	3.82
249.064	4.07
249.44	3.97
249.815	4.09
250.191	4.2
250.567	4.24
250.943	3.98
251.318	4.01
251.694	4.1
252.069	3.84
252.445	3.8
252.82	3.98
253.196	4.07
253.571	4.19
253.947	4.36
254.322	4.03
254.697	4.07
255.073	4.25
255.448	4.27
255.823	4.25
256.198	3.76
256.573	3.72
256.948	3.77
257.323	3.91
257.698	3.88
258.073	3.71
258.448	3.64
258.823	3.57
259.198	3.61
259.573	3.42
259.948	3.59
260.322	3.76
260.697	3.88
261.072	3.92
261.446	3.71
261.821	3.57
262.195	3.63
262.57	3.66
262.944	3.77
263.319	3.87
263.693	3.89
264.067	4
264.442	3.9
264.816	3.71
265.19	3.77
265.564	3.67
265.938	3.65
266.313	3.55
266.687	3.48
267.061	3.43
267.435	3.58
267.809	3.36
268.183	3.14
268.556	2.99
268.93	2.91
269.304	2.95
269.678	3.06
270.051	3.19
270.425	3.11
270.799	2.88
271.172	2.8
271.546	2.87
271.919	2.78
272.293	2.98
272.666	3.23
273.04	3.26
273.413	3.2
273.787	3.31
274.16	3.43
274.533	3.48
274.906	3.47
275.279	3.44
275.653	3.67
276.026	3.62
276.399	3.7
276.772	3.63
277.145	3.79
277.518	3.72
277.891	3.61
278.263	3.74
278.636	3.87
279.009	3.88
279.382	3.99
279.755	4.08
280.127	4.06
280.5	3.84
280.872	3.76
281.245	3.81
281.617	3.71
281.99	3.6
282.362	3.63
282.735	3.63
283.107	3.6
283.479	3.57
283.852	3.75
284.224	3.67
284.596	3.72
284.968	3.64
285.34	3.58
285.713	3.63
286.085	3.48
286.457	3.42
286.829	3.45
287.201	3.33
287.572	3.15
287.944	3.05
288.316	3.11
288.688	3.11
289.06	3.15
289.431	3.22
289.803	3.34
290.175	3.33
290.546	3.35
290.918	3.32
291.289	2.98
291.661	2.97
292.032	2.94
292.403	3.05
292.775	2.98
293.146	3.16
293.517	3.07
293.889	3.06
294.26	3.13
294.631	3.07
295.002	3.05
295.373	3.13
295.744	3.11
296.115	3.15
296.486	3.26
296.857	3.32
297.228	3.25
297.599	3.23
297.97	3.26
298.34	3.28
298.711	3.44
299.082	3.63
299.452	3.51
299.823	3.49
300.194	3.46
300.564	3.49
300.935	3.47
301.305	3.51
301.676	3.41
302.046	3.26
302.416	3.36
302.787	3.56
303.157	3.6
303.527	3.81
303.897	3.78
304.267	3.72
304.637	3.7
305.008	3.76
305.378	3.77
305.748	3.78
306.117	3.76
306.487	3.63
306.857	3.75
307.227	3.8
307.597	3.79
307.967	3.68
308.336	3.69
308.706	3.75
309.076	3.83
309.445	4.07
309.815	4.1
310.184	4.17
310.554	4.01
310.923	3.96
311.293	3.86
311.662	3.82
312.031	3.73
312.401	3.54
312.77	3.49
313.139	3.45
313.508	3.37
313.877	3.36
314.246	3.4
314.616	3.37
314.985	3.33
315.353	3.34
315.722	3.43
316.091	3.44
316.46	3.4
316.829	3.25
317.198	3.14
317.567	3.3
317.935	3.11
318.304	3.23
318.672	3.36
319.041	3.5
319.41	3.49
319.778	3.55
320.147	3.71
320.515	3.72
320.883	3.73
321.252	3.73
321.62	3.73
321.988	3.56
322.357	3.54
322.725	3.68
323.093	3.58
323.461	3.64
323.829	3.74
324.197	3.72
324.565	3.86
324.933	4.01
325.301	3.8
325.669	3.88
326.037	3.93
326.405	3.92
326.772	3.91
327.14	3.93
327.508	3.86
327.875	3.85
328.243	3.85
328.61	3.83
328.978	3.81
329.346	3.75
329.713	3.82
330.08	3.89
330.448	3.81
330.815	4.04
331.182	3.96
331.55	3.85
331.917	3.83
332.284	3.88
332.651	3.72
333.018	3.85
333.385	3.73
333.752	3.56
334.119	3.52
334.486	3.4
334.853	3.34
335.22	3.3
335.587	3.28
335.954	3.29
336.32	3.31
336.687	3.4
337.054	3.46
337.42	3.55
337.787	3.38
338.153	3.4
338.52	3.44
338.886	3.48
339.253	3.44
339.619	3.41
339.986	3.33
340.352	3.28
340.718	3.29
341.084	3.43
341.451	3.51
341.817	3.56
342.183	3.64
342.549	3.74
342.915	3.8
343.281	3.9
343.647	3.83
344.013	3.88
344.379	3.83
344.745	3.79
345.11	3.76
345.476	3.86
345.842	3.8
346.208	3.68
346.573	3.66
346.939	3.76
347.304	3.71
347.67	3.71
348.035	3.68
348.401	3.63
348.766	3.52
349.132	3.49
349.497	3.48
349.862	3.39
350.228	3.41
350.593	3.5
350.958	3.44
351.323	3.49
351.688	3.39
352.053	3.44
352.418	3.52
352.783	3.54
353.148	3.53
353.513	3.52
353.878	3.54
354.243	3.51
354.608	3.53
354.972	3.59
355.337	3.59
355.702	3.67
356.066	3.78
356.431	3.84
356.795	3.75
357.16	3.77
357.524	3.77
357.889	3.76
358.253	3.74
358.618	3.78
358.982	3.77
359.346	3.84
359.71	3.87
360.075	3.83
360.439	3.81
360.803	3.87
361.167	3.85
361.531	3.84
361.895	3.91
362.259	3.89
362.623	3.94
362.987	3.94
363.351	3.95
363.714	3.95
364.078	3.95
364.442	4.03
364.806	4.04
365.169	4.07
365.533	4.11
365.896	4.15
366.26	4.12
366.623	4.12
366.987	4.15
367.35	4.14
367.714	4.15
368.077	4.2
368.44	4.15
368.803	4.14
369.167	4.14
369.53	4.12
369.893	4.1
370.256	4.03
370.619	4.05
370.982	4.02
371.345	4.03
371.708	4.08
372.071	4.05
372.434	4.08
372.797	4.09
373.159	4.06
373.522	3.96
373.885	3.95
374.247	3.96
374.61	3.91
374.973	3.86
375.335	3.83
375.698	3.82
376.06	3.78
376.423	3.84
376.785	3.9
377.147	3.91
377.51	3.93
377.872	3.94
378.234	3.99
378.596	4.03
378.958	4.06
379.321	4.02
379.683	4.01
380.045	3.96
380.407	3.99
380.769	4.01
381.13	4.03
381.492	4.04
381.854	4.04
382.216	4.09
382.578	4.12
382.939	4.14
383.301	4.15
383.663	4.16
384.024	4.14
384.386	4.13
384.747	4.1
385.109	4.1
385.47	4.11
385.832	4.07
386.193	4.08
386.554	3.98
386.916	3.98
387.277	4.02
387.638	4.04
387.999	4.02
388.36	4
388.721	4.06
389.082	4.07
389.443	4.1
389.804	4.1
390.165	4.11
390.526	4.13
390.887	4.16
391.248	4.17
391.609	4.18
391.969	4.18
392.33	4.17
392.691	4.17
393.051	4.16
393.412	4.19
393.772	4.18
394.133	4.23
394.493	4.21
394.854	4.17
395.214	4.17
395.574	4.18
395.935	4.18
396.295	4.14
396.655	4.16
397.015	4.14
397.376	4.12
397.736	4.13
398.096	4.11
398.456	4.1
398.816	4.12
399.176	4.14
399.535	4.12
399.895	4.12
400.255	4.12
400.615	4.14
400.975	4.11
401.334	4.13
401.694	4.12
402.054	4.16
402.413	4.22
402.773	4.19
403.132	4.18
403.492	4.18
403.851	4.18
404.211	4.17
404.57	4.18
404.929	4.2
405.288	4.2
405.648	4.2
406.007	4.16
406.366	4.16
406.725	4.13
407.084	4.13
407.443	4.13
407.802	4.1
408.161	4.12
408.52	4.1
408.879	4.1
409.238	4.11
409.596	4.11
409.955	4.09
410.314	4.1
410.673	4.13
411.031	4.14
411.39	4.17
411.748	4.19
412.107	4.17
412.465	4.15
412.824	4.15
413.182	4.14
413.54	4.18
413.899	4.17
414.257	4.2
414.615	4.2
414.974	4.24
415.332	4.27
415.69	4.24
416.048	4.26
416.406	4.22
416.764	4.22
417.122	4.18
417.48	4.18
417.838	4.17
418.195	4.16
418.553	4.15
418.911	4.13
419.269	4.12
419.626	4.12
419.984	4.12
420.342	4.12
420.699	4.12
421.057	4.12
421.414	4.12
421.772	4.12
422.129	4.12
422.486	4.1
422.844	4.09
423.201	4.09
423.558	4.09
423.915	4.1
424.273	4.12
424.63	4.12
424.987	4.14
425.344	4.15
425.701	4.13
426.058	4.14
426.415	4.14
426.772	4.13
427.128	4.13
427.485	4.14
427.842	4.14
428.199	4.13
428.555	4.11
428.912	4.11
429.269	4.1
429.625	4.11
429.982	4.1
430.338	4.13
430.695	4.13
431.051	4.14
431.407	4.13
431.764	4.1
432.12	4.13
432.476	4.12
432.832	4.09
433.189	4.11
433.545	4.1
433.901	4.1
434.257	4.12
434.613	4.11
434.969	4.1
435.325	4.1
435.681	4.1
436.036	4.12
436.392	4.14
436.748	4.15
437.104	4.15
437.459	4.15
437.815	4.13
438.171	4.15
438.526	4.15
438.882	4.15
439.237	4.15
439.593	4.15
439.948	4.16
440.304	4.17
440.659	4.18
441.014	4.16
441.369	4.17
441.725	4.16
442.08	4.15
442.435	4.18
442.79	4.17
443.145	4.19
443.5	4.19
443.855	4.17
444.21	4.16
444.565	4.15
444.92	4.17
445.275	4.17
445.629	4.15
445.984	4.13
446.339	4.13
446.693	4.13
447.048	4.12
447.403	4.1
447.757	4.08
448.112	4.08
448.466	4.11
448.82	4.09
449.175	4.08
449.529	4.09
449.883	4.07
450.238	4.08
450.592	4.07
450.946	4.07
451.3	4.08
451.654	4.08
452.008	4.08
452.362	4.07
452.716	4.06
453.07	4.07
453.424	4.07
453.778	4.07
454.132	4.07
454.486	4.06
454.839	4.06
455.193	4.08
455.547	4.09
455.9	4.08
456.254	4.1
456.607	4.12
456.961	4.12
457.314	4.11
457.668	4.1
458.021	4.1
458.375	4.1
458.728	4.1
459.081	4.1
459.434	4.1
459.787	4.11
460.141	4.12
460.494	4.13
460.847	4.13
461.2	4.12
461.553	4.15
461.906	4.17
462.259	4.16
462.611	4.17
462.964	4.17
463.317	4.15
463.67	4.16
464.022	4.17
464.375	4.18
464.728	4.18
465.08	4.18
465.433	4.19
465.785	4.21
466.138	4.2
466.49	4.22
466.843	4.21
467.195	4.21
467.547	4.21
467.899	4.21
468.252	4.22
468.604	4.24
468.956	4.24
469.308	4.21
469.66	4.25
470.012	4.24
470.364	4.24
470.716	4.27
471.068	4.27
471.42	4.28
471.772	4.26
472.123	4.28
472.475	4.3
472.827	4.29
473.178	4.26
473.53	4.27
473.882	4.26
474.233	4.28
474.585	4.3
474.936	4.31
475.288	4.29
475.639	4.3
475.99	4.29
476.342	4.28
476.693	4.31
477.044	4.29
477.395	4.29
477.746	4.27
478.097	4.26
478.448	4.25
478.8	4.26
479.15	4.27
479.501	4.27
479.852	4.27
480.203	4.29
480.554	4.31
480.905	4.31
481.255	4.32
481.606	4.33
481.957	4.32
482.307	4.33
482.658	4.36
483.009	4.36
483.359	4.38
483.709	4.39
484.06	4.39
484.41	4.41
484.761	4.41
485.111	4.42
485.461	4.43
485.811	4.44
486.162	4.45
486.512	4.45
486.862	4.46
487.212	4.46
487.562	4.47
487.912	4.46
488.262	4.46
488.612	4.46
488.961	4.45
489.311	4.45
489.661	4.45
490.011	4.45
490.36	4.43
490.71	4.42
491.06	4.43
491.409	4.42
491.759	4.42
492.108	4.41
492.458	4.41
492.807	4.4
493.157	4.4
493.506	4.39
493.855	4.39
494.204	4.39
494.554	4.4
494.903	4.4
495.252	4.42
495.601	4.45
495.95	4.45
496.299	4.49
496.648	4.48
496.997	4.49
497.346	4.5
497.695	4.52
498.043	4.55
498.392	4.54
498.741	4.53
499.09	4.52
499.438	4.55
499.787	4.57
500.135	4.58
500.484	4.58
500.832	4.58
501.181	4.59
501.529	4.6
501.878	4.6
502.226	4.63
502.574	4.63
502.923	4.64
503.271	4.64
503.619	4.64
503.967	4.63
504.315	4.63
504.663	4.6
505.011	4.6
505.359	4.58
505.707	4.59
506.055	4.6
506.403	4.63
506.751	4.64
507.098	4.64
507.446	4.65
507.794	4.68
508.141	4.69
508.489	4.7
508.837	4.7
509.184	4.7
509.531	4.69
509.879	4.7
510.226	4.69
510.574	4.7
510.921	4.69
511.268	4.72
511.616	4.72
511.963	4.73
512.31	4.76
512.657	4.77
513.004	4.78
513.351	4.79
513.698	4.79
514.045	4.78
514.392	4.78
514.739	4.76
515.086	4.76
515.432	4.77
515.779	4.78
516.126	4.78
516.473	4.77
516.819	4.75
517.166	4.75
517.512	4.77
517.859	4.78
518.205	4.79
518.552	4.79
518.898	4.79
519.245	4.81
519.591	4.8
519.937	4.8
520.283	4.82
520.629	4.83
520.976	4.82
521.322	4.84
521.668	4.84
522.014	4.86
522.36	4.87
522.706	4.86
523.052	4.87
523.398	4.87
523.743	4.88
524.089	4.93
524.435	4.94
524.781	4.95
525.126	4.97
525.472	5
525.817	5.01
526.163	5.03
526.509	5.04
526.854	5.05
527.199	5.07
527.545	5.07
527.89	5.07
528.235	5.08
528.581	5.09
528.926	5.1
529.271	5.11
529.616	5.1
529.961	5.11
530.306	5.12
530.651	5.12
530.996	5.14
531.341	5.13
531.686	5.14
532.031	5.13
532.376	5.13
532.721	5.12
533.065	5.11
533.41	5.11
533.755	5.1
534.099	5.1
534.444	5.08
534.788	5.09
535.133	5.1
535.477	5.09
535.822	5.08
536.166	5.09
536.51	5.1
536.855	5.11
537.199	5.11
537.543	5.12
537.887	5.12
538.231	5.13
538.576	5.14
538.92	5.14
539.264	5.15
539.608	5.15
539.951	5.14
540.295	5.15
540.639	5.17
540.983	5.19
541.327	5.2
541.671	5.21
542.014	5.21
542.358	5.19
542.701	5.2
543.045	5.21
543.389	5.21
543.732	5.2
544.075	5.19
544.419	5.19
544.762	5.17
545.105	5.18
545.449	5.17
545.792	5.17
546.135	5.18
546.478	5.17
546.821	5.2
547.165	5.23
547.508	5.23
547.851	5.21
548.194	5.2
548.536	5.17
548.879	5.17
549.222	5.19
549.565	5.2
549.908	5.19
550.25	5.19
550.593	5.19
550.936	5.22
551.278	5.24
551.621	5.26
551.963	5.28
552.306	5.29
552.648	5.26
552.991	5.28
553.333	5.27
553.675	5.27
554.017	5.25
554.36	5.23
554.702	5.22
555.044	5.24
555.386	5.24
555.728	5.26
556.07	5.25
556.412	5.23
556.754	5.24
557.096	5.28
557.438	5.29
557.78	5.28
558.121	5.24
558.463	5.22
558.805	5.24
559.147	5.22
559.488	5.21
559.83	5.26
560.171	5.24
560.513	5.24
560.854	5.22
561.196	5.22
561.537	5.21
561.878	5.23
562.22	5.25
562.561	5.27
562.902	5.29
563.243	5.3
563.584	5.3
563.925	5.31
564.266	5.28
564.607	5.29
564.948	5.3
565.289	5.33
565.63	5.31
565.971	5.31
566.312	5.32
566.653	5.36
566.993	5.34
567.334	5.37
567.675	5.39
568.015	5.4
568.356	5.4
568.696	5.43
569.037	5.44
569.377	5.44
569.718	5.43
570.058	5.41
570.398	5.4
570.739	5.4
571.079	5.36
571.419	5.37
571.759	5.36
572.099	5.35
572.439	5.34
572.779	5.37
573.119	5.36
573.459	5.35
573.799	5.32
574.139	5.32
574.479	5.31
574.819	5.33
575.158	5.33
575.498	5.34
575.838	5.34
576.177	5.3
576.517	5.29
576.856	5.31
577.196	5.33
577.535	5.34
577.875	5.36
578.214	5.41
578.553	5.4
578.893	5.43
579.232	5.42
579.571	5.43
579.91	5.43
580.25	5.43
580.589	5.45
580.928	5.42
581.267	5.41
581.606	5.42
581.945	5.39
582.283	5.42
582.622	5.4
582.961	5.38
583.3	5.38
583.639	5.38
583.977	5.34
584.316	5.36
584.654	5.41
584.993	5.41
585.332	5.39
585.67	5.42
586.008	5.42
586.347	5.43
586.685	5.4
587.024	5.38
587.362	5.42
587.7	5.41
588.038	5.49
588.376	5.48
588.715	5.5
589.053	5.48
589.391	5.47
589.729	5.5
590.067	5.52
590.404	5.55
590.742	5.56
591.08	5.6
591.418	5.62
591.756	5.57
592.093	5.57
592.431	5.6
592.769	5.58
593.106	5.56
593.444	5.59
593.781	5.61
594.119	5.61
594.456	5.59
594.793	5.6
595.131	5.58
595.468	5.62
595.805	5.62
596.143	5.63
596.48	5.62
596.817	5.61
597.154	5.65
597.491	5.63
597.828	5.63
598.165	5.59
598.502	5.52
598.839	5.54
599.176	5.56
599.512	5.52
599.849	5.54
600.186	5.55
600.523	5.54
600.859	5.57
601.196	5.59
601.532	5.59
601.869	5.58
602.205	5.58
602.542	5.57
602.878	5.59
603.215	5.6
603.551	5.61
603.887	5.6
604.223	5.55
604.56	5.57
604.896	5.56
605.232	5.55
605.568	5.57
605.904	5.58
606.24	5.56
606.576	5.63
606.912	5.6
607.248	5.65
607.583	5.63
607.919	5.59
608.255	5.56
608.591	5.58
608.926	5.59
609.262	5.58
609.597	5.59
609.933	5.56
610.268	5.61
610.604	5.59
610.939	5.62
611.275	5.62
611.61	5.62
611.945	5.64
612.281	5.69
612.616	5.71
612.951	5.69
613.286	5.7
613.621	5.65
613.956	5.7
614.291	5.68
614.626	5.68
614.961	5.72
615.296	5.79
615.631	5.79
615.966	5.79
616.3	5.81
616.635	5.79
616.97	5.77
617.304	5.72
617.639	5.73
617.973	5.72
618.308	5.76
618.642	5.77
618.977	5.74
619.311	5.71
619.646	5.76
619.98	5.74
620.314	5.72
620.648	5.74
620.983	5.72
621.317	5.71
621.651	5.7
621.985	5.73
622.319	5.66
622.653	5.66
622.987	5.69
623.321	5.7
623.655	5.72
623.988	5.71
624.322	5.72
624.656	5.69
624.99	5.68
625.323	5.67
625.657	5.68
625.99	5.71
626.324	5.71
626.657	5.69
626.991	5.73
627.324	5.73
627.658	5.7
627.991	5.71
628.324	5.67
628.657	5.72
628.991	5.73
629.324	5.76
629.657	5.76
629.99	5.78
630.323	5.76
630.656	5.72
630.989	5.72
631.322	5.76
631.655	5.79
631.987	5.81
632.32	5.76
632.653	5.75
632.986	5.72
633.318	5.72
633.651	5.68
633.984	5.66
634.316	5.68
634.649	5.71
634.981	5.65
635.313	5.66
635.646	5.63
635.978	5.62
636.31	5.65
636.643	5.62
636.975	5.57
637.307	5.58
637.639	5.57
637.971	5.54
638.303	5.47
638.635	5.42
638.967	5.43
639.299	5.5
639.631	5.48
639.963	5.5
640.295	5.55
640.626	5.6
640.958	5.58
641.29	5.62
641.621	5.61
641.953	5.6
642.285	5.63
642.616	5.66
642.948	5.67
643.279	5.63
643.61	5.69
643.942	5.7
644.273	5.7
644.604	5.7
644.936	5.78
645.267	5.84
645.598	5.91
645.929	5.85
646.26	5.83
646.591	5.86
646.922	5.86
647.253	5.85
647.584	5.82
647.915	5.89
648.245	5.83
648.576	5.86
648.907	5.93
649.238	5.95
649.568	5.89
649.899	5.88
650.229	5.87
650.56	5.84
650.89	5.82
651.221	5.84
651.551	5.87
651.882	5.78
652.212	5.78
652.542	5.78
652.872	5.85
653.203	5.84
653.533	5.83
653.863	5.78
654.193	5.76
654.523	5.72
654.853	5.73
655.183	5.73
655.513	5.69
655.843	5.67
656.172	5.68
656.502	5.7
656.832	5.67
657.162	5.65
657.491	5.69
657.821	5.74
658.15	5.75
658.48	5.78
658.809	5.81
659.139	5.83
659.468	5.84
659.798	5.88
660.127	5.88
660.456	5.84
660.785	5.84
661.115	5.87
661.444	5.94
661.773	5.89
662.102	5.91
662.431	5.89
662.76	5.85
663.089	5.87
663.418	5.9
663.747	5.89
664.076	5.92
664.404	5.97
664.733	5.9
665.062	5.82
665.39	5.86
665.719	5.95
666.048	5.91
666.376	5.92
666.705	5.87
667.033	5.91
667.362	5.99
667.69	5.97
668.018	6.06
668.347	6.03
668.675	6.03
669.003	5.98
669.331	6
669.659	6
669.987	5.92
670.315	5.95
670.643	6.01
670.971	5.99
671.299	5.94
671.627	5.95
671.955	5.99
672.283	5.94
672.61	5.92
672.938	5.92
673.266	5.8
673.593	5.81
673.921	5.75
674.249	5.77
674.576	5.89
674.904	5.88
675.231	5.97
675.558	5.99
675.886	6.06
676.213	6.05
676.54	6.13
