Data from BA48287_Reflection_00013.txt Node
Date: Tue Nov 19 11:43:45 EST 2019
User: vgr7
Spectrometer: USB2G7710
Scans to average: 3
Trigger mode: 4
Integration Time (sec): 2.000000E-2
Electric dark correction enabled: true
Boxcar width: 10
XAxis mode: Wavelengths
Number of Pixels in Spectrum: 2048
>>>>>Begin Spectral Data<<<<<
177.721	66.39
178.105	29.08
178.488	33.74
178.871	3.59
179.254	-13.68
179.636	-36.84
180.019	-16.2
180.402	-33.33
180.785	-16.97
181.168	445.24
181.55	126.75
181.933	100.91
182.316	74.61
182.698	-2955.56
183.081	-57.28
183.463	2266.67
183.846	131.53
184.228	7.96
184.611	163.22
184.993	695.24
185.376	121.18
185.758	114.8
186.14	61.64
186.522	81.35
186.904	65.54
187.287	24.49
187.669	16.89
188.051	40.66
188.433	70.13
188.815	149.86
189.197	108.3
189.579	56.85
189.961	37.99
190.342	18.3
190.724	16.29
191.106	11.13
191.488	8.48
191.869	11.1
192.251	25.57
192.633	25.26
193.014	9.45
193.396	18.44
193.777	16.88
194.159	31.14
194.54	29.67
194.922	34.94
195.303	49.63
195.684	43.38
196.065	49.38
196.447	49.59
196.828	40.16
197.209	38.68
197.59	35.1
197.971	38.73
198.352	40.69
198.733	43.41
199.114	40.49
199.495	38.13
199.876	42.41
200.257	39.19
200.638	37.17
201.018	45
201.399	52.19
201.78	56.58
202.16	38.36
202.541	47.49
202.922	49.98
203.302	45.53
203.683	64.53
204.063	55.83
204.444	47.93
204.824	75.78
205.204	87.83
205.585	109.84
205.965	119.17
206.345	123.49
206.725	114.74
207.106	117.58
207.486	121.78
207.866	98.39
208.246	91.35
208.626	98.31
209.006	96.75
209.386	89.72
209.766	109.8
210.145	94.98
210.525	64.08
210.905	49.86
211.285	61.48
211.664	51.08
212.044	51.59
212.424	49.98
212.803	42.91
213.183	34.69
213.562	32.3
213.942	35.9
214.321	32.19
214.701	27.03
215.08	38.32
215.459	47.95
215.838	57.53
216.218	61.25
216.597	67.03
216.976	63.03
217.355	65.19
217.734	56.36
218.113	70.78
218.492	85.63
218.871	69.21
219.25	48.62
219.629	36.39
220.008	26.32
220.387	27.74
220.766	36.2
221.144	43.21
221.523	49.84
221.902	56.19
222.28	60.04
222.659	60.09
223.037	42.4
223.416	38.52
223.794	46.36
224.173	45.2
224.551	43.45
224.929	34.03
225.308	29.28
225.686	28.31
226.064	23.58
226.442	25.56
226.821	27.72
227.199	24.22
227.577	30.18
227.955	33.64
228.333	35.39
228.711	34.96
229.089	31.36
229.467	26.46
229.845	23.17
230.222	22.6
230.6	20.93
230.978	20.18
231.356	16.69
231.733	13.52
232.111	13
232.488	12.19
232.866	14.85
233.243	14.35
233.621	15.16
233.998	14.28
234.376	12.29
234.753	12.15
235.13	12.62
235.508	10.66
235.885	9.02
236.262	6.99
236.639	3.76
237.016	4.13
237.393	6
237.77	5.27
238.147	5.41
238.524	5.83
238.901	5.55
239.278	5.85
239.655	5.92
240.032	6.53
240.409	6
240.785	5.86
241.162	5.7
241.539	5.17
241.915	5.48
242.292	5.52
242.668	5.38
243.045	5.95
243.421	6.09
243.798	6.35
244.174	6.37
244.551	6.72
244.927	6.85
245.303	6.32
245.679	6.62
246.056	6.22
246.432	5.93
246.808	5.95
247.184	5.92
247.56	5.71
247.936	5.53
248.312	5.74
248.688	5.68
249.064	5.82
249.44	5.76
249.815	5.92
250.191	5.88
250.567	5.66
250.943	5.63
251.318	5.52
251.694	5.13
252.069	5.12
252.445	5.11
252.82	5.13
253.196	5.5
253.571	5.55
253.947	5.36
254.322	5.59
254.697	5.18
255.073	5.2
255.448	5.16
255.823	5.24
256.198	4.69
256.573	4.63
256.948	4.34
257.323	4.43
257.698	4.35
258.073	4.63
258.448	4.82
258.823	4.64
259.198	4.6
259.573	4.68
259.948	4.78
260.322	4.68
260.697	4.78
261.072	4.72
261.446	4.55
261.821	4.79
262.195	4.77
262.57	5.07
262.944	5.09
263.319	5.12
263.693	4.98
264.067	5.22
264.442	5.36
264.816	5.51
265.19	5.32
265.564	5.24
265.938	5.02
266.313	4.98
266.687	4.81
267.061	4.8
267.435	4.9
267.809	4.85
268.183	4.75
268.556	4.35
268.93	4.25
269.304	4.33
269.678	4.43
270.051	4.46
270.425	4.44
270.799	4.39
271.172	4.48
271.546	4.55
271.919	4.61
272.293	4.82
272.666	4.81
273.04	4.95
273.413	4.87
273.787	4.88
274.16	4.87
274.533	5
274.906	5.17
275.279	5.12
275.653	5.26
276.026	5.48
276.399	5.59
276.772	5.76
277.145	5.68
277.518	5.53
277.891	5.33
278.263	5.42
278.636	5.35
279.009	5.29
279.382	5.19
279.755	5.12
280.127	4.82
280.5	4.72
280.872	4.7
281.245	4.81
281.617	4.78
281.99	4.76
282.362	4.73
282.735	4.63
283.107	4.55
283.479	4.31
283.852	4.26
284.224	4.34
284.596	4.3
284.968	4.29
285.34	4.31
285.713	4.51
286.085	4.44
286.457	4.42
286.829	4.36
287.201	4.45
287.572	4.4
287.944	4.47
288.316	4.49
288.688	4.48
289.06	4.49
289.431	4.52
289.803	4.77
290.175	4.77
290.546	4.83
290.918	4.86
291.289	4.96
291.661	4.9
292.032	4.7
292.403	4.75
292.775	4.92
293.146	4.97
293.517	4.93
293.889	4.79
294.26	4.8
294.631	4.92
295.002	4.93
295.373	5.03
295.744	4.99
296.115	5.12
296.486	5.21
296.857	5.17
297.228	5.2
297.599	4.93
297.97	4.96
298.34	4.95
298.711	5.04
299.082	5.08
299.452	5.1
299.823	5.24
300.194	5.15
300.564	4.97
300.935	4.91
301.305	4.84
301.676	4.83
302.046	4.92
302.416	4.92
302.787	4.99
303.157	4.77
303.527	4.89
303.897	4.64
304.267	4.61
304.637	4.69
305.008	4.63
305.378	4.73
305.748	4.68
306.117	4.66
306.487	4.67
306.857	4.59
307.227	4.65
307.597	4.69
307.967	4.78
308.336	4.9
308.706	4.93
309.076	5.07
309.445	5.26
309.815	5.4
310.184	5.38
310.554	5.21
310.923	5.21
311.293	5.03
311.662	5.16
312.031	5.12
312.401	5.06
312.77	5.04
313.139	5.05
313.508	4.95
313.877	5
314.246	4.85
314.616	4.96
314.985	4.88
315.353	4.98
315.722	5.16
316.091	5.1
316.46	5.11
316.829	5.1
317.198	5.17
317.567	5.04
317.935	4.97
318.304	5.2
318.672	5.43
319.041	5.58
319.41	5.5
319.778	5.53
320.147	5.54
320.515	5.51
320.883	5.6
321.252	5.79
321.62	5.81
321.988	5.9
322.357	5.8
322.725	5.82
323.093	5.68
323.461	5.55
323.829	5.71
324.197	5.71
324.565	5.67
324.933	5.47
325.301	5.41
325.669	5.38
326.037	5.27
326.405	5.16
326.772	5.12
327.14	5.11
327.508	5.15
327.875	5.23
328.243	5.38
328.61	5.34
328.978	5.35
329.346	5.25
329.713	5.35
330.08	5.53
330.448	5.67
330.815	5.75
331.182	5.67
331.55	5.6
331.917	5.57
332.284	5.56
332.651	5.69
333.018	5.66
333.385	5.69
333.752	5.73
334.119	5.85
334.486	5.94
334.853	6.02
335.22	5.97
335.587	5.86
335.954	5.78
336.32	5.69
336.687	5.67
337.054	5.76
337.42	5.69
337.787	5.55
338.153	5.55
338.52	5.69
338.886	5.82
339.253	5.75
339.619	5.87
339.986	5.73
340.352	5.74
340.718	5.83
341.084	5.82
341.451	5.88
341.817	5.92
342.183	5.75
342.549	5.91
342.915	5.95
343.281	6.01
343.647	5.99
344.013	6.12
344.379	6.1
344.745	6.1
345.11	6.02
345.476	6.09
345.842	6
346.208	5.91
346.573	5.88
346.939	5.95
347.304	5.93
347.67	6.05
348.035	5.97
348.401	5.89
348.766	5.93
349.132	5.85
349.497	5.78
349.862	5.83
350.228	5.67
350.593	5.6
350.958	5.73
351.323	5.76
351.688	5.68
352.053	5.72
352.418	5.72
352.783	5.79
353.148	5.74
353.513	5.74
353.878	5.62
354.243	5.55
354.608	5.48
354.972	5.45
355.337	5.45
355.702	5.52
356.066	5.55
356.431	5.55
356.795	5.56
357.16	5.56
357.524	5.52
357.889	5.56
358.253	5.62
358.618	5.48
358.982	5.47
359.346	5.45
359.71	5.46
360.075	5.49
360.439	5.49
360.803	5.54
361.167	5.53
361.531	5.56
361.895	5.5
362.259	5.54
362.623	5.5
362.987	5.47
363.351	5.49
363.714	5.52
364.078	5.57
364.442	5.54
364.806	5.57
365.169	5.65
365.533	5.62
365.896	5.61
366.26	5.61
366.623	5.56
366.987	5.59
367.35	5.55
367.714	5.52
368.077	5.5
368.44	5.41
368.803	5.34
369.167	5.29
369.53	5.4
369.893	5.38
370.256	5.28
370.619	5.23
370.982	5.16
371.345	5.16
371.708	5.06
372.071	5.09
372.434	5.05
372.797	5.01
373.159	4.99
373.522	5
373.885	5.01
374.247	5.03
374.61	4.97
374.973	4.98
375.335	4.91
375.698	4.85
376.06	4.84
376.423	4.83
376.785	4.85
377.147	4.76
377.51	4.71
377.872	4.76
378.234	4.8
378.596	4.78
378.958	4.71
379.321	4.72
379.683	4.72
380.045	4.66
380.407	4.63
380.769	4.61
381.13	4.53
381.492	4.48
381.854	4.51
382.216	4.54
382.578	4.49
382.939	4.48
383.301	4.44
383.663	4.48
384.024	4.5
384.386	4.5
384.747	4.49
385.109	4.49
385.47	4.49
385.832	4.42
386.193	4.38
386.554	4.35
386.916	4.36
387.277	4.32
387.638	4.29
387.999	4.31
388.36	4.33
388.721	4.35
389.082	4.33
389.443	4.27
389.804	4.26
390.165	4.23
390.526	4.26
390.887	4.25
391.248	4.22
391.609	4.21
391.969	4.17
392.33	4.13
392.691	4.12
393.051	4.1
393.412	4.09
393.772	4.11
394.133	4.1
394.493	4.07
394.854	4.08
395.214	4.08
395.574	4.02
395.935	3.94
396.295	3.9
396.655	3.87
397.015	3.85
397.376	3.83
397.736	3.82
398.096	3.78
398.456	3.79
398.816	3.76
399.176	3.71
399.535	3.68
399.895	3.69
400.255	3.67
400.615	3.65
400.975	3.66
401.334	3.61
401.694	3.6
402.054	3.57
402.413	3.53
402.773	3.54
403.132	3.54
403.492	3.58
403.851	3.6
404.211	3.61
404.57	3.63
404.929	3.64
405.288	3.67
405.648	3.67
406.007	3.66
406.366	3.65
406.725	3.67
407.084	3.68
407.443	3.7
407.802	3.68
408.161	3.69
408.52	3.7
408.879	3.73
409.238	3.74
409.596	3.78
409.955	3.77
410.314	3.74
410.673	3.78
411.031	3.74
411.39	3.74
411.748	3.75
412.107	3.7
412.465	3.67
412.824	3.64
413.182	3.6
413.54	3.58
413.899	3.59
414.257	3.55
414.615	3.54
414.974	3.54
415.332	3.55
415.69	3.51
416.048	3.49
416.406	3.47
416.764	3.43
417.122	3.39
417.48	3.39
417.838	3.39
418.195	3.37
418.553	3.36
418.911	3.34
419.269	3.34
419.626	3.36
419.984	3.36
420.342	3.37
420.699	3.37
421.057	3.36
421.414	3.37
421.772	3.38
422.129	3.37
422.486	3.36
422.844	3.36
423.201	3.37
423.558	3.36
423.915	3.37
424.273	3.38
424.63	3.39
424.987	3.39
425.344	3.39
425.701	3.39
426.058	3.4
426.415	3.41
426.772	3.39
427.128	3.38
427.485	3.38
427.842	3.36
428.199	3.38
428.555	3.41
428.912	3.4
429.269	3.4
429.625	3.42
429.982	3.43
430.338	3.44
430.695	3.43
431.051	3.45
431.407	3.45
431.764	3.44
432.12	3.44
432.476	3.43
432.832	3.44
433.189	3.44
433.545	3.43
433.901	3.42
434.257	3.45
434.613	3.44
434.969	3.43
435.325	3.45
435.681	3.42
436.036	3.4
436.392	3.4
436.748	3.38
437.104	3.36
437.459	3.35
437.815	3.35
438.171	3.34
438.526	3.33
438.882	3.32
439.237	3.34
439.593	3.35
439.948	3.34
440.304	3.33
440.659	3.32
441.014	3.32
441.369	3.33
441.725	3.31
442.08	3.31
442.435	3.31
442.79	3.29
443.145	3.28
443.5	3.27
443.855	3.25
444.21	3.26
444.565	3.26
444.92	3.27
445.275	3.26
445.629	3.25
445.984	3.25
446.339	3.26
446.693	3.23
447.048	3.22
447.403	3.22
447.757	3.23
448.112	3.23
448.466	3.24
448.82	3.22
449.175	3.23
449.529	3.23
449.883	3.22
450.238	3.22
450.592	3.22
450.946	3.23
451.3	3.23
451.654	3.21
452.008	3.2
452.362	3.18
452.716	3.17
453.07	3.19
453.424	3.2
453.778	3.19
454.132	3.21
454.486	3.22
454.839	3.23
455.193	3.23
455.547	3.22
455.9	3.22
456.254	3.22
456.607	3.23
456.961	3.24
457.314	3.25
457.668	3.28
458.021	3.3
458.375	3.29
458.728	3.31
459.081	3.33
459.434	3.35
459.787	3.36
460.141	3.37
460.494	3.36
460.847	3.36
461.2	3.38
461.553	3.38
461.906	3.37
462.259	3.37
462.611	3.37
462.964	3.39
463.317	3.38
463.67	3.38
464.022	3.38
464.375	3.37
464.728	3.39
465.08	3.38
465.433	3.37
465.785	3.39
466.138	3.4
466.49	3.4
466.843	3.39
467.195	3.41
467.547	3.42
467.899	3.42
468.252	3.43
468.604	3.41
468.956	3.41
469.308	3.43
469.66	3.44
470.012	3.43
470.364	3.43
470.716	3.45
471.068	3.49
471.42	3.48
471.772	3.49
472.123	3.47
472.475	3.47
472.827	3.47
473.178	3.49
473.53	3.48
473.882	3.46
474.233	3.44
474.585	3.43
474.936	3.44
475.288	3.45
475.639	3.43
475.99	3.44
476.342	3.44
476.693	3.42
477.044	3.42
477.395	3.42
477.746	3.4
478.097	3.4
478.448	3.38
478.8	3.36
479.15	3.36
479.501	3.35
479.852	3.33
480.203	3.33
480.554	3.33
480.905	3.33
481.255	3.34
481.606	3.35
481.957	3.34
482.307	3.34
482.658	3.35
483.009	3.36
483.359	3.36
483.709	3.35
484.06	3.36
484.41	3.36
484.761	3.35
485.111	3.36
485.461	3.36
485.811	3.36
486.162	3.37
486.512	3.37
486.862	3.39
487.212	3.41
487.562	3.4
487.912	3.4
488.262	3.4
488.612	3.42
488.961	3.43
489.311	3.44
489.661	3.44
490.011	3.43
490.36	3.43
490.71	3.44
491.06	3.43
491.409	3.44
491.759	3.45
492.108	3.47
492.458	3.48
492.807	3.49
493.157	3.5
493.506	3.51
493.855	3.52
494.204	3.53
494.554	3.52
494.903	3.54
495.252	3.57
495.601	3.59
495.95	3.6
496.299	3.61
496.648	3.62
496.997	3.63
497.346	3.67
497.695	3.69
498.043	3.7
498.392	3.72
498.741	3.74
499.09	3.76
499.438	3.79
499.787	3.81
500.135	3.85
500.484	3.86
500.832	3.88
501.181	3.9
501.529	3.95
501.878	3.97
502.226	3.99
502.574	4.02
502.923	4.04
503.271	4.06
503.619	4.08
503.967	4.11
504.315	4.15
504.663	4.13
505.011	4.17
505.359	4.21
505.707	4.24
506.055	4.28
506.403	4.3
506.751	4.31
507.098	4.35
507.446	4.37
507.794	4.4
508.141	4.44
508.489	4.47
508.837	4.47
509.184	4.51
509.531	4.56
509.879	4.57
510.226	4.61
510.574	4.65
510.921	4.66
511.268	4.72
511.616	4.76
511.963	4.82
512.31	4.85
512.657	4.87
513.004	4.91
513.351	4.94
513.698	4.99
514.045	5.04
514.392	5.07
514.739	5.12
515.086	5.17
515.432	5.2
515.779	5.24
516.126	5.3
516.473	5.34
516.819	5.39
517.166	5.43
517.512	5.48
517.859	5.52
518.205	5.57
518.552	5.62
518.898	5.65
519.245	5.69
519.591	5.73
519.937	5.78
520.283	5.83
520.629	5.87
520.976	5.93
521.322	5.98
521.668	6.06
522.014	6.13
522.36	6.21
522.706	6.28
523.052	6.39
523.398	6.49
523.743	6.58
524.089	6.68
524.435	6.77
524.781	6.86
525.126	6.94
525.472	7.02
525.817	7.1
526.163	7.18
526.509	7.27
526.854	7.34
527.199	7.42
527.545	7.5
527.89	7.57
528.235	7.65
528.581	7.73
528.926	7.8
529.271	7.87
529.616	7.95
529.961	8.05
530.306	8.14
530.651	8.2
530.996	8.31
531.341	8.4
531.686	8.52
532.031	8.62
532.376	8.75
532.721	8.88
533.065	9.01
533.41	9.15
533.755	9.28
534.099	9.4
534.444	9.53
534.788	9.66
535.133	9.8
535.477	9.94
535.822	10.1
536.166	10.27
536.51	10.46
536.855	10.66
537.199	10.83
537.543	11.02
537.887	11.24
538.231	11.45
538.576	11.66
538.92	11.88
539.264	12.09
539.608	12.27
539.951	12.44
540.295	12.63
540.639	12.8
540.983	12.97
541.327	13.16
541.671	13.35
542.014	13.54
542.358	13.71
542.701	13.88
543.045	14.06
543.389	14.25
543.732	14.42
544.075	14.61
544.419	14.84
544.762	15.04
545.105	15.27
545.449	15.49
545.792	15.74
546.135	15.96
546.478	16.24
546.821	16.54
547.165	16.81
547.508	17.07
547.851	17.35
548.194	17.63
548.536	17.93
548.879	18.2
549.222	18.48
549.565	18.8
549.908	19.11
550.25	19.4
550.593	19.67
550.936	19.95
551.278	20.25
551.621	20.52
551.963	20.85
552.306	21.13
552.648	21.41
552.991	21.73
553.333	22.01
553.675	22.24
554.017	22.51
554.36	22.81
554.702	23.1
555.044	23.41
555.386	23.7
555.728	24.01
556.07	24.29
556.412	24.63
556.754	24.93
557.096	25.28
557.438	25.57
557.78	25.93
558.121	26.26
558.463	26.55
558.805	26.87
559.147	27.12
559.488	27.38
559.83	27.67
560.171	27.9
560.513	28.14
560.854	28.47
561.196	28.74
561.537	29.02
561.878	29.26
562.22	29.52
562.561	29.81
562.902	30.02
563.243	30.31
563.584	30.5
563.925	30.75
564.266	30.97
564.607	31.25
564.948	31.47
565.289	31.68
565.63	31.88
565.971	32.07
566.312	32.34
566.653	32.58
566.993	32.8
567.334	33.04
567.675	33.28
568.015	33.46
568.356	33.7
568.696	33.89
569.037	34.09
569.377	34.33
569.718	34.56
570.058	34.75
570.398	34.94
570.739	35.16
571.079	35.35
571.419	35.53
571.759	35.68
572.099	35.88
572.439	36.1
572.779	36.29
573.119	36.49
573.459	36.67
573.799	36.86
574.139	37.05
574.479	37.24
574.819	37.46
575.158	37.64
575.498	37.8
575.838	38.04
576.177	38.25
576.517	38.42
576.856	38.58
577.196	38.83
577.535	38.97
577.875	39.19
578.214	39.38
578.553	39.6
578.893	39.82
579.232	39.99
579.571	40.22
579.91	40.44
580.25	40.63
580.589	40.78
580.928	40.99
581.267	41.19
581.606	41.36
581.945	41.55
582.283	41.73
582.622	41.85
582.961	41.95
583.3	42.11
583.639	42.24
583.977	42.46
584.316	42.65
584.654	42.89
584.993	43.06
585.332	43.19
585.67	43.36
586.008	43.56
586.347	43.62
586.685	43.66
587.024	43.82
587.362	44
587.7	44.15
588.038	44.26
588.376	44.4
588.715	44.57
589.053	44.68
589.391	44.82
589.729	44.98
590.067	45.06
590.404	45.17
590.742	45.29
591.08	45.38
591.418	45.44
591.756	45.51
592.093	45.57
592.431	45.71
592.769	45.77
593.106	45.85
593.444	46.08
593.781	46.22
594.119	46.33
594.456	46.4
594.793	46.48
595.131	46.63
595.468	46.7
595.805	46.76
596.143	46.78
596.48	46.79
596.817	46.82
597.154	46.92
597.491	47.02
597.828	47.12
598.165	47.22
598.502	47.31
598.839	47.42
599.176	47.47
599.512	47.53
599.849	47.65
600.186	47.68
600.523	47.69
600.859	47.78
601.196	47.82
601.532	47.91
601.869	47.99
602.205	48.01
602.542	48.06
602.878	48.11
603.215	48.26
603.551	48.33
603.887	48.39
604.223	48.49
604.56	48.5
604.896	48.53
605.232	48.53
605.568	48.63
605.904	48.65
606.24	48.77
606.576	48.86
606.912	48.85
607.248	48.96
607.583	49.02
607.919	49.08
608.255	49.11
608.591	49.18
608.926	49.25
609.262	49.24
609.597	49.35
609.933	49.46
610.268	49.49
610.604	49.63
610.939	49.73
611.275	49.74
611.61	49.88
611.945	49.91
612.281	50.05
612.616	50.09
612.951	50.16
613.286	50.2
613.621	50.25
613.956	50.43
614.291	50.53
614.626	50.65
614.961	50.75
615.296	51.02
615.631	51.12
615.966	51.25
616.3	51.42
616.635	51.45
616.97	51.49
617.304	51.6
617.639	51.65
617.973	51.65
618.308	51.73
618.642	51.8
618.977	51.88
619.311	51.83
619.646	51.89
619.98	51.97
620.314	52.07
620.648	52.16
620.983	52.21
621.317	52.15
621.651	52.18
621.985	52.19
622.319	52.11
622.653	52.1
622.987	52.1
623.321	52.09
623.655	52.14
623.988	52.12
624.322	52.06
624.656	51.96
624.99	51.98
625.323	52.12
625.657	52.11
625.99	52.21
626.324	52.25
626.657	52.24
626.991	52.21
627.324	52.18
627.658	52.14
627.991	52.15
628.324	52.19
628.657	52.21
628.991	52.2
629.324	52.23
629.657	52.23
629.99	52.22
630.323	52.2
630.656	52.26
630.989	52.32
631.322	52.42
631.655	52.58
631.987	52.62
632.32	52.63
632.653	52.65
632.986	52.68
633.318	52.86
633.651	52.88
633.984	52.98
634.316	53.09
634.649	53.21
634.981	53.28
635.313	53.37
635.646	53.4
635.978	53.56
636.31	53.64
636.643	53.67
636.975	53.67
637.307	53.85
637.639	53.82
637.971	53.73
638.303	53.73
638.635	53.76
638.967	53.89
639.299	53.91
639.631	54.03
639.963	54.08
640.295	54.06
640.626	54.14
640.958	54.19
641.29	54.16
641.621	54.09
641.953	54.03
642.285	53.9
642.616	53.95
642.948	53.91
643.279	53.87
643.61	53.9
643.942	54.09
644.273	54.07
644.604	54.12
644.936	54.21
645.267	54.28
645.598	54.31
645.929	54.23
646.26	54.22
646.591	54.21
646.922	54.18
647.253	54.07
647.584	53.97
647.915	54.05
648.245	54.11
648.576	54.22
648.907	54.4
649.238	54.49
649.568	54.45
649.899	54.49
650.229	54.55
650.56	54.61
650.89	54.47
651.221	54.5
651.551	54.55
651.882	54.75
652.212	54.65
652.542	54.72
652.872	54.82
653.203	54.89
653.533	54.82
653.863	54.77
654.193	54.8
654.523	54.89
654.853	54.9
655.183	54.88
655.513	54.84
655.843	54.62
656.172	54.63
656.502	54.65
656.832	54.61
657.162	54.6
657.491	54.62
657.821	54.68
658.15	54.69
658.48	54.66
658.809	54.49
659.139	54.61
659.468	54.6
659.798	54.64
660.127	54.68
660.456	54.78
660.785	54.82
661.115	54.77
661.444	54.82
661.773	54.82
662.102	54.94
662.431	55.01
662.76	55.22
663.089	55.29
663.418	55.36
663.747	55.4
664.076	55.43
664.404	55.46
664.733	55.4
665.062	55.44
665.39	55.46
665.719	55.6
666.048	55.51
666.376	55.42
666.705	55.44
667.033	55.49
667.362	55.43
667.69	55.5
668.018	55.6
668.347	55.62
668.675	55.66
669.003	55.57
669.331	55.5
669.659	55.37
669.987	55.41
