Data from BA48287_Reflection_00001.txt Node
Date: Tue Nov 19 11:43:14 EST 2019
User: vgr7
Spectrometer: USB2G7710
Scans to average: 3
Trigger mode: 4
Integration Time (sec): 2.000000E-2
Electric dark correction enabled: true
Boxcar width: 10
XAxis mode: Wavelengths
Number of Pixels in Spectrum: 2048
>>>>>Begin Spectral Data<<<<<
177.721	65
178.105	55.67
178.488	46
178.871	34.36
179.254	52.99
179.636	52.66
180.019	3.72
180.402	80.95
180.785	55.76
181.168	-108.33
181.55	3.29
181.933	29.87
182.316	87.86
182.698	-6955.56
183.081	-310.8
183.463	13266.67
183.846	320.72
184.228	-111.44
184.611	59.77
184.993	180.95
185.376	71.45
185.758	83.91
186.14	88.05
186.522	113.84
186.904	126.55
187.287	123.68
187.669	152.89
188.051	161.4
188.433	347.59
188.815	525.93
189.197	289.29
189.579	158.99
189.961	106.96
190.342	111.81
190.724	110.18
191.106	120.43
191.488	116.37
191.869	118.02
192.251	112.19
192.633	101.87
193.014	94.13
193.396	90.6
193.777	80.38
194.159	84.06
194.54	66.83
194.922	65.03
195.303	74.74
195.684	62.5
196.065	60.69
196.447	48.02
196.828	43.94
197.209	40.84
197.59	44.78
197.971	52.15
198.352	48.37
198.733	46.78
199.114	47.27
199.495	45.44
199.876	38.06
200.257	40.98
200.638	50.27
201.018	52.97
201.399	56.83
201.78	54.18
202.16	47.3
202.541	62.43
202.922	71.94
203.302	63.61
203.683	69.33
204.063	65.58
204.444	63.63
204.824	89.46
205.204	111.6
205.585	106.46
205.965	107.47
206.345	94.62
206.725	99.75
207.106	93.81
207.486	107.61
207.866	102.54
208.246	95.56
208.626	80.95
209.006	86.26
209.386	98.33
209.766	118.21
210.145	118.75
210.525	93.54
210.905	67.7
211.285	64.96
211.664	62.02
212.044	67.68
212.424	70.68
212.803	52.1
213.183	50.98
213.562	51.85
213.942	48.87
214.321	57.16
214.701	50.29
215.08	60.59
215.459	53.59
215.838	47.29
216.218	52.69
216.597	56.12
216.976	45.29
217.355	38.91
217.734	32.1
218.113	38.13
218.492	53.45
218.871	55.2
219.25	49.75
219.629	46.74
220.008	36.28
220.387	42.65
220.766	49.16
221.144	38.29
221.523	38.74
221.902	53.54
222.28	54.75
222.659	57.68
223.037	39.15
223.416	37.63
223.794	42.25
224.173	35.33
224.551	24.18
224.929	23.9
225.308	21.31
225.686	22.21
226.064	10.86
226.442	10.78
226.821	11.52
227.199	8.08
227.577	12.93
227.955	13.96
228.333	13.39
228.711	13.87
229.089	14.97
229.467	16.64
229.845	12.93
230.222	14.16
230.6	16.11
230.978	19.41
231.356	18.69
231.733	17.61
232.111	20.38
232.488	22.22
232.866	23.06
233.243	22.83
233.621	23.49
233.998	25.73
234.376	24.02
234.753	21.78
235.13	21.53
235.508	19.96
235.885	19.41
236.262	18.33
236.639	18.31
237.016	17.7
237.393	17.6
237.77	17.89
238.147	16.46
238.524	15.39
238.901	13.04
239.278	12.8
239.655	12.94
240.032	12.04
240.409	11.55
240.785	10.44
241.162	9.85
241.539	9.5
241.915	8.47
242.292	8.21
242.668	8.44
243.045	8.8
243.421	8.62
243.798	8.21
244.174	7.51
244.551	7.33
244.927	7
245.303	6.51
245.679	6.41
246.056	6.42
246.432	6.3
246.808	6.5
247.184	6.28
247.56	6.17
247.936	6.13
248.312	6.25
248.688	6.43
249.064	6.5
249.44	6.37
249.815	6.83
250.191	6.93
250.567	6.81
250.943	6.73
251.318	6.43
251.694	6.5
252.069	6.71
252.445	6.71
252.82	7.07
253.196	7.08
253.571	7.01
253.947	6.59
254.322	6.15
254.697	6.21
255.073	6
255.448	5.73
255.823	5.24
256.198	4.74
256.573	4.61
256.948	4.67
257.323	4.63
257.698	4.47
258.073	4.53
258.448	4.73
258.823	4.59
259.198	4.86
259.573	4.75
259.948	4.9
260.322	4.71
260.697	4.64
261.072	4.81
261.446	4.89
261.821	4.99
262.195	5.07
262.57	5.03
262.944	5.19
263.319	5.24
263.693	5.41
264.067	5.65
264.442	5.6
264.816	5.52
265.19	5.7
265.564	5.61
265.938	5.46
266.313	5.38
266.687	5.37
267.061	5.28
267.435	5.4
267.809	5.12
268.183	5.25
268.556	5.02
268.93	4.96
269.304	4.85
269.678	4.95
270.051	5.04
270.425	5.02
270.799	4.91
271.172	4.96
271.546	5.1
271.919	4.96
272.293	5.14
272.666	5.24
273.04	5.21
273.413	5.17
273.787	5.25
274.16	5.1
274.533	5.21
274.906	5.02
275.279	5.12
275.653	5.17
276.026	5.22
276.399	5.41
276.772	5.33
277.145	5.32
277.518	5.14
277.891	5.11
278.263	5.12
278.636	5.28
279.009	5.12
279.382	5.06
279.755	5.01
280.127	4.91
280.5	4.66
280.872	4.55
281.245	4.66
281.617	4.64
281.99	4.69
282.362	4.59
282.735	4.54
283.107	4.43
283.479	4.4
283.852	4.35
284.224	4.4
284.596	4.52
284.968	4.59
285.34	4.55
285.713	4.63
286.085	4.65
286.457	4.52
286.829	4.65
287.201	4.65
287.572	4.81
287.944	4.82
288.316	4.93
288.688	5.04
289.06	4.94
289.431	5.04
289.803	5.07
290.175	5.13
290.546	5.29
290.918	5.33
291.289	5.29
291.661	5.3
292.032	5.11
292.403	5.04
292.775	5.22
293.146	5.28
293.517	5.07
293.889	5.01
294.26	5
294.631	5.01
295.002	5.02
295.373	5.04
295.744	5.01
296.115	5.04
296.486	4.98
296.857	5.12
297.228	5.05
297.599	4.96
297.97	4.95
298.34	4.89
298.711	4.9
299.082	4.86
299.452	4.88
299.823	4.93
300.194	4.87
300.564	4.6
300.935	4.67
301.305	4.61
301.676	4.56
302.046	4.61
302.416	4.49
302.787	4.44
303.157	4.24
303.527	4.39
303.897	4.37
304.267	4.26
304.637	4.12
305.008	4.07
305.378	4.06
305.748	4.1
306.117	4.2
306.487	4.18
306.857	4.33
307.227	4.34
307.597	4.34
307.967	4.45
308.336	4.47
308.706	4.43
309.076	4.61
309.445	4.69
309.815	4.65
310.184	4.61
310.554	4.59
310.923	4.69
311.293	4.58
311.662	4.56
312.031	4.59
312.401	4.69
312.77	4.59
313.139	4.68
313.508	4.6
313.877	4.5
314.246	4.49
314.616	4.47
314.985	4.4
315.353	4.48
315.722	4.42
316.091	4.4
316.46	4.3
316.829	4.38
317.198	4.2
317.567	4.42
317.935	4.43
318.304	4.54
318.672	4.53
319.041	4.58
319.41	4.64
319.778	4.78
320.147	4.77
320.515	5
320.883	5.15
321.252	5.12
321.62	5.29
321.988	5.29
322.357	5.39
322.725	5.57
323.093	5.47
323.461	5.44
323.829	5.49
324.197	5.62
324.565	5.49
324.933	5.58
325.301	5.44
325.669	5.62
326.037	5.54
326.405	5.66
326.772	5.7
327.14	5.73
327.508	5.62
327.875	5.6
328.243	5.62
328.61	5.41
328.978	5.51
329.346	5.49
329.713	5.51
330.08	5.58
330.448	5.35
330.815	5.4
331.182	5.39
331.55	5.35
331.917	5.29
332.284	5.51
332.651	5.53
333.018	5.43
333.385	5.35
333.752	5.34
334.119	5.3
334.486	5.27
334.853	5.32
335.22	5.31
335.587	5.31
335.954	5.22
336.32	5.29
336.687	5.27
337.054	5.2
337.42	5.24
337.787	5.16
338.153	5.31
338.52	5.42
338.886	5.42
339.253	5.44
339.619	5.53
339.986	5.31
340.352	5.35
340.718	5.37
341.084	5.3
341.451	5.35
341.817	5.27
342.183	5.28
342.549	5.23
342.915	5.28
343.281	5.3
343.647	5.34
344.013	5.31
344.379	5.24
344.745	5.29
345.11	5.17
345.476	5.1
345.842	5.06
346.208	5
346.573	5.03
346.939	5.06
347.304	4.93
347.67	4.96
348.035	4.91
348.401	4.94
348.766	4.97
349.132	5.04
349.497	5.06
349.862	4.97
350.228	4.91
350.593	4.92
350.958	4.92
351.323	4.9
351.688	4.95
352.053	4.95
352.418	5
352.783	5.06
353.148	5.1
353.513	5.1
353.878	5.08
354.243	4.95
354.608	4.9
354.972	4.95
355.337	4.89
355.702	4.87
356.066	4.89
356.431	4.92
356.795	4.85
357.16	4.9
357.524	4.92
357.889	4.92
358.253	4.89
358.618	4.84
358.982	4.86
359.346	4.81
359.71	4.79
360.075	4.65
360.439	4.66
360.803	4.67
361.167	4.69
361.531	4.69
361.895	4.79
362.259	4.83
362.623	4.85
362.987	4.9
363.351	4.9
363.714	4.87
364.078	4.83
364.442	4.75
364.806	4.71
365.169	4.74
365.533	4.75
365.896	4.78
366.26	4.74
366.623	4.75
366.987	4.81
367.35	4.89
367.714	4.95
368.077	4.94
368.44	4.96
368.803	4.88
369.167	4.81
369.53	4.87
369.893	4.83
370.256	4.84
370.619	4.79
370.982	4.82
371.345	4.79
371.708	4.79
372.071	4.85
372.434	4.77
372.797	4.76
373.159	4.73
373.522	4.68
373.885	4.75
374.247	4.67
374.61	4.62
374.973	4.54
375.335	4.6
375.698	4.57
376.06	4.54
376.423	4.59
376.785	4.59
377.147	4.51
377.51	4.51
377.872	4.5
378.234	4.54
378.596	4.51
378.958	4.56
379.321	4.5
379.683	4.55
380.045	4.56
380.407	4.53
380.769	4.46
381.13	4.48
381.492	4.49
381.854	4.51
382.216	4.56
382.578	4.6
382.939	4.55
383.301	4.55
383.663	4.57
384.024	4.55
384.386	4.55
384.747	4.49
385.109	4.55
385.47	4.56
385.832	4.52
386.193	4.54
386.554	4.45
386.916	4.49
387.277	4.46
387.638	4.49
387.999	4.48
388.36	4.53
388.721	4.53
389.082	4.47
389.443	4.48
389.804	4.43
390.165	4.44
390.526	4.42
390.887	4.43
391.248	4.41
391.609	4.43
391.969	4.45
392.33	4.48
392.691	4.46
393.051	4.43
393.412	4.48
393.772	4.48
394.133	4.51
394.493	4.51
394.854	4.47
395.214	4.45
395.574	4.45
395.935	4.44
396.295	4.43
396.655	4.46
397.015	4.45
397.376	4.44
397.736	4.42
398.096	4.46
398.456	4.44
398.816	4.46
399.176	4.41
399.535	4.4
399.895	4.38
400.255	4.35
400.615	4.34
400.975	4.29
401.334	4.32
401.694	4.34
402.054	4.34
402.413	4.36
402.773	4.38
403.132	4.39
403.492	4.4
403.851	4.41
404.211	4.4
404.57	4.4
404.929	4.37
405.288	4.36
405.648	4.36
406.007	4.36
406.366	4.36
406.725	4.36
407.084	4.38
407.443	4.4
407.802	4.41
408.161	4.45
408.52	4.46
408.879	4.41
409.238	4.42
409.596	4.42
409.955	4.41
410.314	4.4
410.673	4.37
411.031	4.35
411.39	4.34
411.748	4.34
412.107	4.34
412.465	4.34
412.824	4.38
413.182	4.38
413.54	4.38
413.899	4.37
414.257	4.39
414.615	4.37
414.974	4.37
415.332	4.36
415.69	4.36
416.048	4.35
416.406	4.34
416.764	4.35
417.122	4.34
417.48	4.33
417.838	4.35
418.195	4.35
418.553	4.34
418.911	4.34
419.269	4.33
419.626	4.31
419.984	4.32
420.342	4.31
420.699	4.29
421.057	4.29
421.414	4.29
421.772	4.28
422.129	4.27
422.486	4.29
422.844	4.27
423.201	4.26
423.558	4.26
423.915	4.26
424.273	4.24
424.63	4.25
424.987	4.27
425.344	4.24
425.701	4.24
426.058	4.24
426.415	4.24
426.772	4.23
427.128	4.24
427.485	4.24
427.842	4.23
428.199	4.24
428.555	4.23
428.912	4.22
429.269	4.21
429.625	4.19
429.982	4.18
430.338	4.2
430.695	4.18
431.051	4.2
431.407	4.21
431.764	4.22
432.12	4.2
432.476	4.21
432.832	4.21
433.189	4.21
433.545	4.21
433.901	4.22
434.257	4.24
434.613	4.25
434.969	4.22
435.325	4.22
435.681	4.21
436.036	4.22
436.392	4.23
436.748	4.26
437.104	4.27
437.459	4.25
437.815	4.26
438.171	4.28
438.526	4.26
438.882	4.27
439.237	4.24
439.593	4.25
439.948	4.23
440.304	4.24
440.659	4.26
441.014	4.24
441.369	4.24
441.725	4.24
442.08	4.23
442.435	4.25
442.79	4.26
443.145	4.28
443.5	4.26
443.855	4.25
444.21	4.24
444.565	4.24
444.92	4.25
445.275	4.25
445.629	4.23
445.984	4.24
446.339	4.24
446.693	4.26
447.048	4.25
447.403	4.25
447.757	4.25
448.112	4.23
448.466	4.25
448.82	4.24
449.175	4.23
449.529	4.24
449.883	4.24
450.238	4.23
450.592	4.22
450.946	4.21
451.3	4.23
451.654	4.21
452.008	4.24
452.362	4.22
452.716	4.21
453.07	4.21
453.424	4.21
453.778	4.19
454.132	4.17
454.486	4.16
454.839	4.17
455.193	4.17
455.547	4.18
455.9	4.18
456.254	4.19
456.607	4.19
456.961	4.18
457.314	4.2
457.668	4.21
458.021	4.2
458.375	4.2
458.728	4.2
459.081	4.21
459.434	4.2
459.787	4.21
460.141	4.2
460.494	4.22
460.847	4.22
461.2	4.23
461.553	4.25
461.906	4.26
462.259	4.27
462.611	4.28
462.964	4.27
463.317	4.29
463.67	4.29
464.022	4.3
464.375	4.31
464.728	4.33
465.08	4.35
465.433	4.35
465.785	4.37
466.138	4.39
466.49	4.4
466.843	4.42
467.195	4.42
467.547	4.45
467.899	4.45
468.252	4.45
468.604	4.47
468.956	4.48
469.308	4.49
469.66	4.51
470.012	4.5
470.364	4.54
470.716	4.53
471.068	4.54
471.42	4.53
471.772	4.53
472.123	4.51
472.475	4.5
472.827	4.5
473.178	4.49
473.53	4.47
473.882	4.47
474.233	4.45
474.585	4.45
474.936	4.45
475.288	4.42
475.639	4.43
475.99	4.41
476.342	4.4
476.693	4.4
477.044	4.37
477.395	4.37
477.746	4.35
478.097	4.35
478.448	4.34
478.8	4.32
479.15	4.31
479.501	4.3
479.852	4.3
480.203	4.32
480.554	4.33
480.905	4.34
481.255	4.35
481.606	4.36
481.957	4.37
482.307	4.37
482.658	4.38
483.009	4.38
483.359	4.38
483.709	4.39
484.06	4.38
484.41	4.39
484.761	4.41
485.111	4.4
485.461	4.4
485.811	4.41
486.162	4.42
486.512	4.43
486.862	4.43
487.212	4.44
487.562	4.42
487.912	4.42
488.262	4.42
488.612	4.42
488.961	4.42
489.311	4.41
489.661	4.41
490.011	4.4
490.36	4.4
490.71	4.41
491.06	4.41
491.409	4.42
491.759	4.43
492.108	4.41
492.458	4.41
492.807	4.43
493.157	4.44
493.506	4.44
493.855	4.46
494.204	4.47
494.554	4.48
494.903	4.49
495.252	4.5
495.601	4.51
495.95	4.51
496.299	4.51
496.648	4.53
496.997	4.54
497.346	4.56
497.695	4.57
498.043	4.58
498.392	4.57
498.741	4.58
499.09	4.59
499.438	4.6
499.787	4.61
500.135	4.6
500.484	4.59
500.832	4.59
501.181	4.6
501.529	4.61
501.878	4.63
502.226	4.65
502.574	4.68
502.923	4.68
503.271	4.67
503.619	4.68
503.967	4.65
504.315	4.67
504.663	4.68
505.011	4.68
505.359	4.67
505.707	4.66
506.055	4.66
506.403	4.65
506.751	4.65
507.098	4.66
507.446	4.66
507.794	4.67
508.141	4.68
508.489	4.69
508.837	4.68
509.184	4.68
509.531	4.69
509.879	4.69
510.226	4.7
510.574	4.72
510.921	4.73
511.268	4.74
511.616	4.76
511.963	4.78
512.31	4.78
512.657	4.8
513.004	4.81
513.351	4.81
513.698	4.82
514.045	4.84
514.392	4.85
514.739	4.85
515.086	4.86
515.432	4.87
515.779	4.87
516.126	4.88
516.473	4.88
516.819	4.87
517.166	4.87
517.512	4.88
517.859	4.9
518.205	4.91
518.552	4.92
518.898	4.91
519.245	4.9
519.591	4.9
519.937	4.9
520.283	4.91
520.629	4.91
520.976	4.92
521.322	4.91
521.668	4.92
522.014	4.93
522.36	4.92
522.706	4.92
523.052	4.92
523.398	4.91
523.743	4.9
524.089	4.93
524.435	4.94
524.781	4.94
525.126	4.92
525.472	4.94
525.817	4.93
526.163	4.92
526.509	4.93
526.854	4.94
527.199	4.95
527.545	4.96
527.89	4.97
528.235	4.97
528.581	4.98
528.926	4.98
529.271	4.99
529.616	4.99
529.961	5
530.306	5
530.651	5.01
530.996	5.02
531.341	5.02
531.686	5.02
532.031	5.02
532.376	5.03
532.721	5.02
533.065	5.03
533.41	5.04
533.755	5.04
534.099	5.05
534.444	5.05
534.788	5.06
535.133	5.05
535.477	5.06
535.822	5.05
536.166	5.07
536.51	5.07
536.855	5.08
537.199	5.07
537.543	5.07
537.887	5.08
538.231	5.08
538.576	5.08
538.92	5.08
539.264	5.07
539.608	5.07
539.951	5.09
540.295	5.1
540.639	5.11
540.983	5.11
541.327	5.12
541.671	5.13
542.014	5.12
542.358	5.12
542.701	5.12
543.045	5.12
543.389	5.11
543.732	5.12
544.075	5.13
544.419	5.14
544.762	5.14
545.105	5.16
545.449	5.17
545.792	5.17
546.135	5.17
546.478	5.2
546.821	5.2
547.165	5.22
547.508	5.24
547.851	5.24
548.194	5.23
548.536	5.21
548.879	5.19
549.222	5.2
549.565	5.22
549.908	5.21
550.25	5.22
550.593	5.21
550.936	5.22
551.278	5.22
551.621	5.21
551.963	5.22
552.306	5.21
552.648	5.21
552.991	5.24
553.333	5.24
553.675	5.24
554.017	5.22
554.36	5.2
554.702	5.19
555.044	5.17
555.386	5.22
555.728	5.25
556.07	5.25
556.412	5.24
556.754	5.2
557.096	5.23
557.438	5.25
557.78	5.26
558.121	5.26
558.463	5.25
558.805	5.28
559.147	5.3
559.488	5.26
559.83	5.25
560.171	5.21
560.513	5.24
560.854	5.22
561.196	5.27
561.537	5.29
561.878	5.3
562.22	5.31
562.561	5.31
562.902	5.32
563.243	5.35
563.584	5.38
563.925	5.42
564.266	5.4
564.607	5.42
564.948	5.42
565.289	5.44
565.63	5.44
565.971	5.44
566.312	5.41
566.653	5.44
566.993	5.43
567.334	5.46
567.675	5.46
568.015	5.45
568.356	5.42
568.696	5.41
569.037	5.38
569.377	5.39
569.718	5.39
570.058	5.37
570.398	5.34
570.739	5.33
571.079	5.31
571.419	5.32
571.759	5.3
572.099	5.28
572.439	5.28
572.779	5.28
573.119	5.29
573.459	5.33
573.799	5.33
574.139	5.37
574.479	5.36
574.819	5.36
575.158	5.42
575.498	5.45
575.838	5.44
576.177	5.45
576.517	5.46
576.856	5.43
577.196	5.41
577.535	5.39
577.875	5.4
578.214	5.41
578.553	5.41
578.893	5.43
579.232	5.47
579.571	5.5
579.91	5.51
580.25	5.5
580.589	5.48
580.928	5.48
581.267	5.45
581.606	5.49
581.945	5.47
582.283	5.43
582.622	5.4
582.961	5.42
583.3	5.44
583.639	5.41
583.977	5.46
584.316	5.52
584.654	5.57
584.993	5.55
585.332	5.58
585.67	5.58
586.008	5.58
586.347	5.57
586.685	5.54
587.024	5.54
587.362	5.53
587.7	5.53
588.038	5.56
588.376	5.57
588.715	5.56
589.053	5.59
589.391	5.6
589.729	5.63
590.067	5.61
590.404	5.62
590.742	5.6
591.08	5.59
591.418	5.62
591.756	5.63
592.093	5.63
592.431	5.61
592.769	5.64
593.106	5.61
593.444	5.61
593.781	5.63
594.119	5.63
594.456	5.63
594.793	5.61
595.131	5.57
595.468	5.58
595.805	5.61
596.143	5.6
596.48	5.63
596.817	5.61
597.154	5.65
597.491	5.67
597.828	5.71
598.165	5.69
598.502	5.63
598.839	5.61
599.176	5.69
599.512	5.69
599.849	5.7
600.186	5.68
600.523	5.72
600.859	5.71
601.196	5.71
601.532	5.71
601.869	5.74
602.205	5.75
602.542	5.75
602.878	5.74
603.215	5.75
603.551	5.73
603.887	5.75
604.223	5.73
604.56	5.7
604.896	5.72
605.232	5.71
605.568	5.73
605.904	5.71
606.24	5.69
606.576	5.71
606.912	5.69
607.248	5.73
607.583	5.73
607.919	5.71
608.255	5.72
608.591	5.72
608.926	5.72
609.262	5.72
609.597	5.7
609.933	5.69
610.268	5.7
610.604	5.68
610.939	5.67
611.275	5.68
611.61	5.71
611.945	5.68
612.281	5.7
612.616	5.69
612.951	5.73
613.286	5.71
613.621	5.75
613.956	5.81
614.291	5.81
614.626	5.78
614.961	5.82
615.296	5.82
615.631	5.89
615.966	5.88
616.3	5.92
616.635	5.96
616.97	5.94
617.304	6
617.639	6.05
617.973	6.06
618.308	6.08
618.642	6.06
618.977	6.09
619.311	6.15
619.646	6.25
619.98	6.26
620.314	6.26
620.648	6.23
620.983	6.18
621.317	6.14
621.651	6.2
621.985	6.18
622.319	6.17
622.653	6.16
622.987	6.18
623.321	6.14
623.655	6.16
623.988	6.19
624.322	6.15
624.656	6.16
624.99	6.13
625.323	6.16
625.657	6.19
625.99	6.2
626.324	6.17
626.657	6.12
626.991	6.08
627.324	6.08
627.658	6.08
627.991	6.12
628.324	6.14
628.657	6.14
628.991	6.14
629.324	6.17
629.657	6.15
629.99	6.11
630.323	6.08
630.656	6.09
630.989	6.09
631.322	6.08
631.655	6.03
631.987	6.03
632.32	6
632.653	5.99
632.986	5.97
633.318	5.99
633.651	5.95
633.984	6.03
634.316	6.07
634.649	6.02
634.981	5.97
635.313	6.02
635.646	6.01
635.978	6.05
636.31	6.06
636.643	6.04
636.975	6.11
637.307	6.17
637.639	6.14
637.971	6.18
638.303	6.13
638.635	6.17
638.967	6.19
639.299	6.2
639.631	6.19
639.963	6.21
640.295	6.22
640.626	6.25
640.958	6.2
641.29	6.21
641.621	6.27
641.953	6.34
642.285	6.29
642.616	6.32
642.948	6.3
643.279	6.26
643.61	6.32
643.942	6.38
644.273	6.38
644.604	6.44
644.936	6.43
645.267	6.49
645.598	6.52
645.929	6.45
646.26	6.5
646.591	6.52
646.922	6.57
647.253	6.52
647.584	6.6
647.915	6.65
648.245	6.64
648.576	6.68
648.907	6.69
649.238	6.69
649.568	6.63
649.899	6.63
650.229	6.68
650.56	6.63
650.89	6.6
651.221	6.6
651.551	6.56
651.882	6.54
652.212	6.48
652.542	6.47
652.872	6.56
653.203	6.53
653.533	6.59
653.863	6.58
654.193	6.65
654.523	6.57
654.853	6.55
655.183	6.6
655.513	6.59
655.843	6.56
656.172	6.56
656.502	6.6
656.832	6.56
657.162	6.55
657.491	6.56
657.821	6.56
658.15	6.57
658.48	6.58
658.809	6.62
659.139	6.67
659.468	6.64
659.798	6.68
660.127	6.66
660.456	6.58
660.785	6.55
661.115	6.53
661.444	6.56
661.773	6.56
662.102	6.51
662.431	6.46
662.76	6.48
663.089	6.55
663.418	6.52
663.747	6.59
664.076	6.63
664.404	6.7
664.733	6.66
665.062	6.67
665.39	6.65
665.719	6.67
666.048	6.63
666.376	6.67
666.705	6.62
667.033	6.72
667.362	6.82
667.69	6.85
668.018	6.88
668.347	6.93
668.675	6.89
669.003	6.97
669.331	7
669.659	7.03
669.987	7
670.315	7.09
670.643	7.07
670.971	7.12
671.299	7.05
671.627	7.13
671.955	7.16
672.283	7.21
672.61	7.21
672.938	7.26
673.266	7.26
673.593	7.32
673.921	7.22
674.249	7.12
674.576	7.13
674.904	7.14
675.231	7.15
675.558	7.24
675.886	7.27
676.213	7.29
676.54	7.28
676.867	7.21
677.195	7.15
677.522	7.14
677.849	7.12
678.176	7.2
678.503	7.16
678.83	7.16
679.157	7.18
679.484	7.09
