Data from BA51068_Reflection_00010.txt Node
Date: Tue Nov 19 11:59:08 EST 2019
User: vgr7
Spectrometer: USB2G7710
Scans to average: 3
Trigger mode: 4
Integration Time (sec): 2.000000E-2
Electric dark correction enabled: true
Boxcar width: 10
XAxis mode: Wavelengths
Number of Pixels in Spectrum: 2048
>>>>>Begin Spectral Data<<<<<
177.721	32.92
178.105	-115.52
178.488	56.1
178.871	-1.82
179.254	800
179.636	992.86
180.019	-129.24
180.402	116.67
180.785	80
181.168	83.05
181.55	1907.69
181.933	167.57
182.316	90.62
182.698	76.55
183.081	151.26
183.463	143.42
183.846	534.43
184.228	-44.79
184.611	-22.73
184.993	-78.15
185.376	-73.45
185.758	-35.69
186.14	-92.17
186.522	-120.93
186.904	-175.82
187.287	-74.55
187.669	-6.62
188.051	-8.5
188.433	-62.03
188.815	-126.68
189.197	-96.27
189.579	-43.9
189.961	-27.67
190.342	-34.6
190.724	-39.1
191.106	-36.75
191.488	-64.56
191.869	-82.04
192.251	-117.16
192.633	-230.47
193.014	-215.7
193.396	-3008.7
193.777	-297.83
194.159	-205.1
194.54	-205.46
194.922	-140.67
195.303	-308.86
195.684	-442.49
196.065	-436.86
196.447	-338.3
196.828	-246.76
197.209	-326.29
197.59	-802.68
197.971	1362.89
198.352	362.21
198.733	290.21
199.114	469.26
199.495	899.36
199.876	457.14
200.257	220.56
200.638	314.52
201.018	686.38
201.399	858.06
201.78	3042.62
202.16	-5371.43
202.541	-3603.39
202.922	-776.57
203.302	-1381.31
203.683	820.69
204.063	393.22
204.444	674.24
204.824	621.28
205.204	596.05
205.585	1236.36
205.965	2501.64
206.345	-948.22
206.725	-651
207.106	-1282.35
207.486	-257.73
207.866	-187.06
208.246	-28.22
208.626	-38.26
209.006	-29.25
209.386	-49.5
209.766	-50.21
210.145	-42.12
210.525	-48.78
210.905	-63.51
211.285	-73.54
211.664	-54.73
212.044	-59.5
212.424	-42.15
212.803	-50.62
213.183	-34.83
213.562	-28.02
213.942	-27.29
214.321	-30.82
214.701	-30.41
215.08	-29.17
215.459	-27.76
215.838	-41.37
216.218	-60.19
216.597	-41.03
216.976	-41.2
217.355	-38.49
217.734	-44.75
218.113	-38.04
218.492	-28.38
218.871	-20.84
219.25	-17.3
219.629	-35.82
220.008	-32.48
220.387	-35.92
220.766	-31.62
221.144	-37.79
221.523	-45.79
221.902	-42.44
222.28	-12.71
222.659	-0.09
223.037	3.87
223.416	6.26
223.794	14.16
224.173	13.9
224.551	10.27
224.929	12.54
225.308	7.26
225.686	4.64
226.064	-11.76
226.442	-16.23
226.821	-17.71
227.199	-14.85
227.577	-12.05
227.955	-5.82
228.333	-8.91
228.711	-4.63
229.089	-7.74
229.467	-6.81
229.845	-6.85
230.222	-5.84
230.6	-9.55
230.978	-9.11
231.356	-11.98
231.733	-10.09
232.111	-11.58
232.488	-11.77
232.866	-10.53
233.243	-7.51
233.621	-7.1
233.998	-3.57
234.376	-2.43
234.753	-2.96
235.13	-3.16
235.508	-2.86
235.885	-4.88
236.262	-2.26
236.639	-3.72
237.016	-2.1
237.393	-1.11
237.77	-0.77
238.147	-1.26
238.524	0.7
238.901	0.27
239.278	1.5
239.655	0.83
240.032	1.88
240.409	2.17
240.785	2.02
241.162	1.95
241.539	2.97
241.915	2.55
242.292	2.74
242.668	3.17
243.045	3.54
243.421	3.7
243.798	3.94
244.174	4.02
244.551	4.29
244.927	4.09
245.303	3.63
245.679	3.71
246.056	3.57
246.432	3.41
246.808	3.67
247.184	3.71
247.56	4.02
247.936	4.17
248.312	4.25
248.688	3.91
249.064	3.85
249.44	3.36
249.815	3.44
250.191	3.42
250.567	3.47
250.943	3.32
251.318	3.36
251.694	3.11
252.069	2.84
252.445	2.47
252.82	2.78
253.196	3.14
253.571	3.18
253.947	3.12
254.322	3.22
254.697	3.3
255.073	3.43
255.448	3.15
255.823	3.1
256.198	3.06
256.573	3.25
256.948	3.23
257.323	3.74
257.698	3.92
258.073	4.05
258.448	3.95
258.823	3.98
259.198	4.03
259.573	4.05
259.948	4.12
260.322	4.02
260.697	4
261.072	3.99
261.446	4.04
261.821	4.18
262.195	4.16
262.57	4.03
262.944	3.95
263.319	4.03
263.693	3.98
264.067	4.16
264.442	4.23
264.816	4.34
265.19	4.11
265.564	3.81
265.938	3.54
266.313	3.51
266.687	3.39
267.061	3.25
267.435	3.21
267.809	2.86
268.183	3.1
268.556	2.97
268.93	2.98
269.304	2.9
269.678	3.02
270.051	3.09
270.425	3.14
270.799	2.92
271.172	2.85
271.546	2.8
271.919	2.6
272.293	2.63
272.666	2.64
273.04	2.64
273.413	2.69
273.787	2.74
274.16	2.75
274.533	2.86
274.906	3.03
275.279	2.97
275.653	3.23
276.026	3.24
276.399	3.32
276.772	3.3
277.145	3.34
277.518	3.14
277.891	3.04
278.263	2.89
278.636	3.05
279.009	3.24
279.382	3.35
279.755	3.38
280.127	3.41
280.5	3.42
280.872	3.51
281.245	3.67
281.617	3.74
281.99	3.73
282.362	3.73
282.735	3.57
283.107	3.6
283.479	3.58
283.852	3.57
284.224	3.5
284.596	3.47
284.968	3.41
285.34	3.42
285.713	3.52
286.085	3.54
286.457	3.6
286.829	3.59
287.201	3.59
287.572	3.76
287.944	3.86
288.316	3.79
288.688	3.78
289.06	3.79
289.431	3.81
289.803	3.88
290.175	3.9
290.546	3.93
290.918	4
291.289	3.99
291.661	4
292.032	4.07
292.403	4.23
292.775	4.13
293.146	4.27
293.517	4.23
293.889	4.23
294.26	4.25
294.631	4.23
295.002	4.26
295.373	4.11
295.744	4.05
296.115	4.07
296.486	4.15
296.857	4.21
297.228	4.31
297.599	4.2
297.97	4.23
298.34	4.25
298.711	4.34
299.082	4.39
299.452	4.38
299.823	4.37
300.194	4.45
300.564	4.55
300.935	4.6
301.305	4.56
301.676	4.58
302.046	4.59
302.416	4.69
302.787	4.67
303.157	4.72
303.527	4.71
303.897	4.71
304.267	4.64
304.637	4.56
305.008	4.52
305.378	4.56
305.748	4.59
306.117	4.76
306.487	4.69
306.857	4.74
307.227	5.01
307.597	4.97
307.967	4.98
308.336	5.18
308.706	5.11
309.076	5.35
309.445	5.58
309.815	5.62
310.184	5.59
310.554	5.72
310.923	5.82
311.293	5.88
311.662	6.09
312.031	6.04
312.401	6.1
312.77	6.13
313.139	6.25
313.508	6.32
313.877	6.32
314.246	6.39
314.616	6.4
314.985	6.25
315.353	6.44
315.722	6.42
316.091	6.42
316.46	6.57
316.829	6.43
317.198	6.41
317.567	6.51
317.935	6.41
318.304	6.59
318.672	6.93
319.041	7.03
319.41	6.97
319.778	7.19
320.147	7.22
320.515	7.27
320.883	7.4
321.252	7.37
321.62	7.54
321.988	7.67
322.357	7.75
322.725	7.78
323.093	7.84
323.461	7.94
323.829	8.05
324.197	8.12
324.565	8.15
324.933	8.02
325.301	8.02
325.669	8.17
326.037	8.01
326.405	7.86
326.772	7.87
327.14	7.88
327.508	7.85
327.875	7.96
328.243	8.02
328.61	7.98
328.978	7.95
329.346	7.85
329.713	8.04
330.08	8.24
330.448	8.23
330.815	8.25
331.182	8.05
331.55	7.96
331.917	7.98
332.284	8.06
332.651	8.27
333.018	8.25
333.385	8.26
333.752	8.28
334.119	8.21
334.486	8.22
334.853	8.16
335.22	8.2
335.587	8.22
335.954	8.29
336.32	8.26
336.687	8.35
337.054	8.39
337.42	8.23
337.787	8.25
338.153	8.31
338.52	8.31
338.886	8.56
339.253	8.55
339.619	8.55
339.986	8.5
340.352	8.56
340.718	8.67
341.084	8.72
341.451	8.85
341.817	8.87
342.183	8.78
342.549	8.9
342.915	8.86
343.281	8.83
343.647	8.84
344.013	8.86
344.379	8.87
344.745	8.87
345.11	8.92
345.476	8.8
345.842	8.83
346.208	8.99
346.573	8.96
346.939	9
347.304	9.12
347.67	9.22
348.035	9.17
348.401	9.16
348.766	9.15
349.132	9.1
349.497	9.19
349.862	9.36
350.228	9.36
350.593	9.4
350.958	9.6
351.323	9.45
351.688	9.49
352.053	9.49
352.418	9.4
352.783	9.39
353.148	9.51
353.513	9.54
353.878	9.34
354.243	9.22
354.608	9.19
354.972	9.02
355.337	8.91
355.702	8.88
356.066	8.83
356.431	8.88
356.795	8.87
357.16	8.82
357.524	8.68
357.889	8.61
358.253	8.54
358.618	8.41
358.982	8.45
359.346	8.38
359.71	8.43
360.075	8.4
360.439	8.34
360.803	8.22
361.167	8.13
361.531	8.18
361.895	8.21
362.259	8.2
362.623	8.21
362.987	8.21
363.351	8.15
363.714	8.11
364.078	8.02
364.442	7.93
364.806	7.95
365.169	7.92
365.533	7.96
365.896	7.93
366.26	7.86
366.623	7.78
366.987	7.78
367.35	7.75
367.714	7.74
368.077	7.72
368.44	7.74
368.803	7.74
369.167	7.59
369.53	7.5
369.893	7.47
370.256	7.37
370.619	7.26
370.982	7.23
371.345	7.28
371.708	7.21
372.071	7.21
372.434	7.08
372.797	7.08
373.159	7.01
373.522	6.97
373.885	6.85
374.247	6.77
374.61	6.69
374.973	6.59
375.335	6.48
375.698	6.39
376.06	6.32
376.423	6.26
376.785	6.28
377.147	6.25
377.51	6.21
377.872	6.25
378.234	6.23
378.596	6.21
378.958	6.12
379.321	6.12
379.683	6.1
380.045	6.07
380.407	6.01
380.769	5.96
381.13	5.91
381.492	5.92
381.854	5.94
382.216	5.95
382.578	5.95
382.939	6.01
383.301	6
383.663	5.97
384.024	5.96
384.386	5.91
384.747	5.95
385.109	5.87
385.47	5.84
385.832	5.81
386.193	5.8
386.554	5.74
386.916	5.7
387.277	5.64
387.638	5.65
387.999	5.62
388.36	5.57
388.721	5.59
389.082	5.59
389.443	5.55
389.804	5.52
390.165	5.47
390.526	5.44
390.887	5.4
391.248	5.37
391.609	5.33
391.969	5.3
392.33	5.21
392.691	5.19
393.051	5.13
393.412	5.15
393.772	5.11
394.133	5.09
394.493	5.07
394.854	5.06
395.214	5.02
395.574	4.97
395.935	4.96
396.295	4.93
396.655	4.88
397.015	4.86
397.376	4.85
397.736	4.83
398.096	4.78
398.456	4.77
398.816	4.77
399.176	4.74
399.535	4.74
399.895	4.75
400.255	4.74
400.615	4.73
400.975	4.66
401.334	4.62
401.694	4.6
402.054	4.57
402.413	4.53
402.773	4.5
403.132	4.47
403.492	4.43
403.851	4.38
404.211	4.37
404.57	4.38
404.929	4.34
405.288	4.31
405.648	4.32
406.007	4.33
406.366	4.29
406.725	4.27
407.084	4.24
407.443	4.23
407.802	4.24
408.161	4.25
408.52	4.25
408.879	4.24
409.238	4.22
409.596	4.2
409.955	4.2
410.314	4.2
410.673	4.18
411.031	4.17
411.39	4.15
411.748	4.17
412.107	4.11
412.465	4.1
412.824	4.07
413.182	4.03
413.54	4
413.899	3.96
414.257	3.99
414.615	3.99
414.974	3.97
415.332	3.93
415.69	3.9
416.048	3.89
416.406	3.87
416.764	3.87
417.122	3.87
417.48	3.86
417.838	3.85
418.195	3.85
418.553	3.83
418.911	3.82
419.269	3.79
419.626	3.79
419.984	3.78
420.342	3.78
420.699	3.79
421.057	3.78
421.414	3.79
421.772	3.78
422.129	3.75
422.486	3.74
422.844	3.73
423.201	3.71
423.558	3.69
423.915	3.69
424.273	3.67
424.63	3.66
424.987	3.63
425.344	3.62
425.701	3.61
426.058	3.6
426.415	3.6
426.772	3.6
427.128	3.58
427.485	3.59
427.842	3.56
428.199	3.54
428.555	3.52
428.912	3.49
429.269	3.46
429.625	3.47
429.982	3.47
430.338	3.46
430.695	3.46
431.051	3.45
431.407	3.44
431.764	3.44
432.12	3.43
432.476	3.43
432.832	3.43
433.189	3.43
433.545	3.43
433.901	3.45
434.257	3.43
434.613	3.43
434.969	3.42
435.325	3.43
435.681	3.43
436.036	3.42
436.392	3.44
436.748	3.45
437.104	3.44
437.459	3.41
437.815	3.43
438.171	3.44
438.526	3.46
438.882	3.46
439.237	3.45
439.593	3.44
439.948	3.45
440.304	3.45
440.659	3.43
441.014	3.45
441.369	3.44
441.725	3.46
442.08	3.44
442.435	3.44
442.79	3.43
443.145	3.43
443.5	3.43
443.855	3.41
444.21	3.39
444.565	3.4
444.92	3.41
445.275	3.39
445.629	3.39
445.984	3.37
446.339	3.36
446.693	3.36
447.048	3.35
447.403	3.35
447.757	3.33
448.112	3.34
448.466	3.32
448.82	3.32
449.175	3.3
449.529	3.31
449.883	3.29
450.238	3.28
450.592	3.28
450.946	3.28
451.3	3.29
451.654	3.27
452.008	3.26
452.362	3.24
452.716	3.21
453.07	3.21
453.424	3.21
453.778	3.22
454.132	3.23
454.486	3.22
454.839	3.2
455.193	3.21
455.547	3.21
455.9	3.21
456.254	3.22
456.607	3.24
456.961	3.25
457.314	3.28
457.668	3.27
458.021	3.27
458.375	3.25
458.728	3.26
459.081	3.27
459.434	3.28
459.787	3.32
460.141	3.34
460.494	3.37
460.847	3.37
461.2	3.39
461.553	3.4
461.906	3.42
462.259	3.43
462.611	3.45
462.964	3.45
463.317	3.45
463.67	3.47
464.022	3.44
464.375	3.45
464.728	3.46
465.08	3.48
465.433	3.47
465.785	3.49
466.138	3.49
466.49	3.48
466.843	3.5
467.195	3.48
467.547	3.49
467.899	3.49
468.252	3.5
468.604	3.51
468.956	3.49
469.308	3.49
469.66	3.53
470.012	3.53
470.364	3.54
470.716	3.56
471.068	3.57
471.42	3.6
471.772	3.61
472.123	3.62
472.475	3.65
472.827	3.64
473.178	3.64
473.53	3.64
473.882	3.65
474.233	3.62
474.585	3.63
474.936	3.62
475.288	3.61
475.639	3.58
475.99	3.55
476.342	3.57
476.693	3.55
477.044	3.52
477.395	3.52
477.746	3.52
478.097	3.49
478.448	3.47
478.8	3.45
479.15	3.44
479.501	3.42
479.852	3.4
480.203	3.41
480.554	3.41
480.905	3.41
481.255	3.42
481.606	3.42
481.957	3.42
482.307	3.42
482.658	3.42
483.009	3.43
483.359	3.45
483.709	3.46
484.06	3.47
484.41	3.48
484.761	3.48
485.111	3.47
485.461	3.48
485.811	3.49
486.162	3.5
486.512	3.51
486.862	3.5
487.212	3.51
487.562	3.52
487.912	3.52
488.262	3.53
488.612	3.54
488.961	3.54
489.311	3.55
489.661	3.55
490.011	3.55
490.36	3.55
490.71	3.55
491.06	3.54
491.409	3.53
491.759	3.53
492.108	3.54
492.458	3.55
492.807	3.58
493.157	3.6
493.506	3.6
493.855	3.59
494.204	3.61
494.554	3.63
494.903	3.64
495.252	3.66
495.601	3.68
495.95	3.7
496.299	3.72
496.648	3.74
496.997	3.76
497.346	3.81
497.695	3.83
498.043	3.86
498.392	3.91
498.741	3.94
499.09	3.98
499.438	4.02
499.787	4.04
500.135	4.07
500.484	4.07
500.832	4.1
501.181	4.14
501.529	4.19
501.878	4.21
502.226	4.26
502.574	4.28
502.923	4.3
503.271	4.32
503.619	4.38
503.967	4.41
504.315	4.46
504.663	4.49
505.011	4.52
505.359	4.54
505.707	4.56
506.055	4.6
506.403	4.64
506.751	4.66
507.098	4.7
507.446	4.74
507.794	4.81
508.141	4.87
508.489	4.9
508.837	4.94
509.184	5.01
509.531	5.05
509.879	5.1
510.226	5.14
510.574	5.21
510.921	5.23
511.268	5.27
511.616	5.32
511.963	5.38
512.31	5.44
512.657	5.51
513.004	5.59
513.351	5.65
513.698	5.73
514.045	5.79
514.392	5.87
514.739	5.94
515.086	6
515.432	6.06
515.779	6.12
516.126	6.21
516.473	6.28
516.819	6.34
517.166	6.41
517.512	6.48
517.859	6.55
518.205	6.61
518.552	6.67
518.898	6.74
519.245	6.78
519.591	6.86
519.937	6.9
520.283	6.98
520.629	7.04
520.976	7.09
521.322	7.18
521.668	7.26
522.014	7.35
522.36	7.44
522.706	7.53
523.052	7.67
523.398	7.77
523.743	7.9
524.089	8.03
524.435	8.17
524.781	8.33
525.126	8.43
525.472	8.56
525.817	8.68
526.163	8.78
526.509	8.89
526.854	8.97
527.199	9.07
527.545	9.17
527.89	9.28
528.235	9.41
528.581	9.5
528.926	9.61
529.271	9.72
529.616	9.82
529.961	9.92
530.306	10.03
530.651	10.16
530.996	10.29
531.341	10.43
531.686	10.57
532.031	10.71
532.376	10.87
532.721	11.01
533.065	11.16
533.41	11.34
533.755	11.5
534.099	11.68
534.444	11.87
534.788	12.03
535.133	12.2
535.477	12.37
535.822	12.57
536.166	12.81
536.51	13.04
536.855	13.3
537.199	13.56
537.543	13.83
537.887	14.1
538.231	14.37
538.576	14.63
538.92	14.89
539.264	15.14
539.608	15.38
539.951	15.61
540.295	15.84
540.639	16.08
540.983	16.3
541.327	16.54
541.671	16.72
542.014	16.95
542.358	17.17
542.701	17.38
543.045	17.62
543.389	17.83
543.732	18.06
544.075	18.3
544.419	18.55
544.762	18.81
545.105	19.08
545.449	19.38
545.792	19.67
546.135	19.97
546.478	20.27
546.821	20.63
547.165	21
547.508	21.38
547.851	21.7
548.194	22.07
548.536	22.42
548.879	22.86
549.222	23.21
549.565	23.55
549.908	23.92
550.25	24.27
550.593	24.67
550.936	25.02
551.278	25.38
551.621	25.79
551.963	26.17
552.306	26.51
552.648	26.83
552.991	27.21
553.333	27.58
553.675	27.89
554.017	28.18
554.36	28.51
554.702	28.82
555.044	29.18
555.386	29.49
555.728	29.81
556.07	30.13
556.412	30.47
556.754	30.81
557.096	31.18
557.438	31.52
557.78	31.79
558.121	32.2
558.463	32.56
558.805	32.86
559.147	33.16
559.488	33.47
559.83	33.79
560.171	34.14
560.513	34.42
560.854	34.8
561.196	35.14
561.537	35.47
561.878	35.79
562.22	36.19
562.561	36.52
562.902	36.85
563.243	37.14
563.584	37.47
563.925	37.85
564.266	38.14
564.607	38.46
564.948	38.82
565.289	39.08
565.63	39.32
565.971	39.58
566.312	39.91
566.653	40.25
566.993	40.55
567.334	40.79
567.675	41.12
568.015	41.43
568.356	41.68
568.696	41.96
569.037	42.21
569.377	42.4
569.718	42.66
570.058	42.91
570.398	43.17
570.739	43.4
571.079	43.59
571.419	43.82
571.759	44.07
572.099	44.29
572.439	44.49
572.779	44.72
573.119	44.95
573.459	45.09
573.799	45.26
574.139	45.45
574.479	45.65
574.819	45.8
575.158	45.96
575.498	46.2
575.838	46.45
576.177	46.61
576.517	46.72
576.856	46.88
577.196	47.06
577.535	47.23
577.875	47.44
578.214	47.67
578.553	47.86
578.893	47.98
579.232	48.1
579.571	48.32
579.91	48.48
580.25	48.67
580.589	48.89
580.928	49.05
581.267	49.26
581.606	49.39
581.945	49.61
582.283	49.72
582.622	49.88
582.961	49.96
583.3	50.13
583.639	50.39
583.977	50.64
584.316	50.8
584.654	51.05
584.993	51.15
585.332	51.25
585.67	51.39
586.008	51.56
586.347	51.8
586.685	51.91
587.024	52.04
587.362	52.13
587.7	52.23
588.038	52.34
588.376	52.47
588.715	52.58
589.053	52.65
589.391	52.77
589.729	52.85
590.067	52.9
590.404	53.12
590.742	53.33
591.08	53.35
591.418	53.46
591.756	53.46
592.093	53.62
592.431	53.85
592.769	54.07
593.106	54.19
593.444	54.23
593.781	54.4
594.119	54.51
594.456	54.6
594.793	54.79
595.131	54.94
595.468	55
595.805	55.18
596.143	55.24
596.48	55.36
596.817	55.49
597.154	55.64
597.491	55.68
597.828	55.71
598.165	55.88
598.502	56.04
598.839	56.22
599.176	56.21
599.512	56.19
599.849	56.25
600.186	56.29
600.523	56.42
600.859	56.45
601.196	56.58
601.532	56.78
601.869	56.77
602.205	56.86
602.542	56.95
602.878	56.91
603.215	57.05
603.551	57.05
603.887	57.08
604.223	57.09
604.56	57.15
604.896	57.18
605.232	57.16
605.568	57.16
605.904	57.27
606.24	57.43
606.576	57.57
606.912	57.6
607.248	57.74
607.583	57.86
607.919	58
608.255	58.01
608.591	58.03
608.926	58.14
609.262	58.19
609.597	58.26
609.933	58.39
610.268	58.42
610.604	58.53
610.939	58.6
611.275	58.7
611.61	58.75
611.945	58.8
612.281	58.92
612.616	59
612.951	58.9
613.286	59.02
613.621	59
613.956	59
614.291	58.97
614.626	58.91
614.961	58.91
615.296	58.93
615.631	59.03
615.966	59.05
616.3	58.97
616.635	58.97
616.97	59.01
617.304	59.09
617.639	59.22
617.973	59.35
618.308	59.29
618.642	59.31
618.977	59.3
619.311	59.32
619.646	59.37
619.98	59.47
620.314	59.48
620.648	59.56
620.983	59.67
621.317	59.74
621.651	59.7
621.985	59.66
622.319	59.74
622.653	59.73
622.987	59.72
623.321	59.91
623.655	59.91
623.988	59.97
624.322	59.99
624.656	59.94
624.99	59.93
625.323	59.99
625.657	60.08
625.99	60.32
626.324	60.32
626.657	60.28
626.991	60.37
627.324	60.27
627.658	60.31
627.991	60.36
628.324	60.35
628.657	60.39
628.991	60.48
629.324	60.45
629.657	60.49
629.99	60.71
630.323	60.7
630.656	60.83
630.989	60.92
631.322	60.9
631.655	61.03
631.987	61.15
632.32	61.19
632.653	61.2
632.986	61.06
633.318	61.13
633.651	61.32
633.984	61.23
634.316	61.27
634.649	61.24
634.981	61.25
635.313	61.47
635.646	61.56
635.978	61.5
636.31	61.63
636.643	61.68
636.975	61.5
637.307	61.44
637.639	61.34
637.971	61.31
638.303	61.37
638.635	61.39
638.967	61.24
639.299	61.23
639.631	61.3
639.963	61.28
640.295	61.28
640.626	61.21
640.958	61.22
641.29	61.42
641.621	61.49
641.953	61.46
642.285	61.43
642.616	61.47
642.948	61.59
643.279	61.56
643.61	61.54
643.942	61.62
644.273	61.64
644.604	61.75
644.936	61.83
645.267	61.82
645.598	61.89
645.929	61.84
646.26	61.99
646.591	62
646.922	62.14
647.253	62.26
647.584	62.14
647.915	62.23
648.245	62.15
648.576	62.05
648.907	62
649.238	61.84
649.568	61.86
649.899	61.84
650.229	61.83
650.56	61.96
650.89	61.99
651.221	61.98
651.551	61.96
651.882	61.94
652.212	62.01
652.542	61.84
652.872	61.83
653.203	61.87
653.533	61.9
653.863	61.87
654.193	61.87
654.523	62.07
654.853	62.2
655.183	62.21
655.513	62.38
655.843	62.46
656.172	62.76
656.502	62.81
656.832	62.87
657.162	63.01
657.491	63.1
657.821	63
658.15	63.11
658.48	63.2
658.809	63.15
659.139	63.12
659.468	63.27
659.798	63.43
660.127	63.42
660.456	63.32
660.785	63.37
661.115	63.46
661.444	63.45
661.773	63.4
662.102	63.44
662.431	63.41
662.76	63.46
663.089	63.31
663.418	63.22
663.747	63.2
664.076	63.2
664.404	63.09
664.733	63.15
665.062	63.06
665.39	62.98
665.719	63.03
666.048	63.08
666.376	63.12
666.705	63.21
667.033	63.16
