Data from BA51068_Reflection_00014.txt Node
Date: Tue Nov 19 11:59:15 EST 2019
User: vgr7
Spectrometer: USB2G7710
Scans to average: 3
Trigger mode: 4
Integration Time (sec): 2.000000E-2
Electric dark correction enabled: true
Boxcar width: 10
XAxis mode: Wavelengths
Number of Pixels in Spectrum: 2048
>>>>>Begin Spectral Data<<<<<
177.721	175.54
178.105	-331.03
178.488	-167.67
178.871	-49.09
179.254	-300
179.636	707.14
180.019	-250.18
180.402	172.22
180.785	-116.47
181.168	-270.76
181.55	3484.62
181.933	177.22
182.316	113.4
182.698	75.79
183.081	121.28
183.463	164.52
183.846	1067.21
184.228	-74.04
184.611	-18.5
184.993	17.88
185.376	3.36
185.758	44.03
186.14	49.57
186.522	27.5
186.904	-9.89
187.287	-52.99
187.669	1.99
188.051	-12.29
188.433	-65.51
188.815	-119.09
189.197	-90.05
189.579	-50.06
189.961	-57.68
190.342	-52.83
190.724	-55.16
191.106	-69.35
191.488	-47.88
191.869	-43.28
192.251	-51.47
192.633	-118.67
193.014	-254.95
193.396	-3117.39
193.777	-194.12
194.159	-169.14
194.54	-285.67
194.922	-169.16
195.303	-186.08
195.684	-245.61
196.065	-280.84
196.447	-275.32
196.828	-163.26
197.209	-170.27
197.59	-537.58
197.971	677.32
198.352	243.32
198.733	193.39
199.114	372.08
199.495	953.5
199.876	464.43
200.257	201.59
200.638	303.92
201.018	545.18
201.399	731.34
201.78	2837.7
202.16	-5100
202.541	-2883.05
202.922	-636.4
203.302	-1628.97
203.683	1334.48
204.063	523.73
204.444	567.25
204.824	555.32
205.204	487.35
205.585	1009.09
205.965	2198.36
206.345	-641.12
206.725	-386.06
207.106	-597.48
207.486	-95.88
207.866	-129.65
208.246	-76.36
208.626	-67.72
209.006	-90.53
209.386	-58.34
209.766	-90.64
210.145	-91.99
210.525	-98.05
210.905	-76.26
211.285	-36.51
211.664	-25.32
212.044	-28.44
212.424	-30.4
212.803	-36.23
213.183	-32.29
213.562	-26.8
213.942	-21.04
214.321	-12.22
214.701	-15.58
215.08	-18.46
215.459	-23.2
215.838	-28.92
216.218	-23.6
216.597	-19.12
216.976	-21.83
217.355	-27.82
217.734	-30.57
218.113	-31.31
218.492	-34.74
218.871	-43.87
219.25	-45.56
219.629	-55.86
220.008	-49.69
220.387	-56.14
220.766	-42.24
221.144	-47.95
221.523	-58.27
221.902	-77.45
222.28	-74.08
222.659	-61.39
223.037	-56.44
223.416	-40.51
223.794	-34.51
224.173	-45.5
224.551	-37.88
224.929	-37.51
225.308	-32.78
225.686	-30.02
226.064	-25.91
226.442	-18.02
226.821	-14.73
227.199	-15.78
227.577	-11.98
227.955	-13.28
228.333	-15.56
228.711	-17.88
229.089	-15.67
229.467	-15.95
229.845	-14.82
230.222	-13.69
230.6	-14.71
230.978	-13.23
231.356	-17.48
231.733	-15.98
232.111	-13.92
232.488	-14.72
232.866	-12.02
233.243	-10.88
233.621	-11
233.998	-11.61
234.376	-12.06
234.753	-13.81
235.13	-12.8
235.508	-11.54
235.885	-11.46
236.262	-9.4
236.639	-8.02
237.016	-6.43
237.393	-5.37
237.77	-4.71
238.147	-5.12
238.524	-3.52
238.901	-4.01
239.278	-3.15
239.655	-3.06
240.032	-2.14
240.409	-2.24
240.785	-2.88
241.162	-2.82
241.539	-2.33
241.915	-2.05
242.292	-1.98
242.668	-1.12
243.045	-0.89
243.421	-0.7
243.798	-0.34
244.174	-0.29
244.551	-0.08
244.927	-0.45
245.303	-0.31
245.679	-0.54
246.056	-0.33
246.432	-0.37
246.808	0.21
247.184	0.27
247.56	0.24
247.936	0.13
248.312	0.32
248.688	0.49
249.064	0.59
249.44	0.47
249.815	0.69
250.191	0.69
250.567	0.75
250.943	0.75
251.318	0.43
251.694	0.46
252.069	0.69
252.445	0.62
252.82	0.95
253.196	1.09
253.571	1.4
253.947	1.36
254.322	1.24
254.697	0.92
255.073	1.02
255.448	0.88
255.823	0.89
256.198	0.8
256.573	0.72
256.948	0.72
257.323	0.97
257.698	0.74
258.073	0.7
258.448	0.81
258.823	0.64
259.198	0.78
259.573	0.52
259.948	0.52
260.322	0.36
260.697	0.31
261.072	0.27
261.446	0.34
261.821	0.24
262.195	0.27
262.57	0.17
262.944	0.13
263.319	0.46
263.693	0.38
264.067	0.33
264.442	0.31
264.816	0.24
265.19	0.15
265.564	0.45
265.938	0.5
266.313	0.21
266.687	0.34
267.061	0.24
267.435	0.6
267.809	0.53
268.183	0.67
268.556	0.77
268.93	0.83
269.304	0.85
269.678	1.01
270.051	1.17
270.425	1.3
270.799	1.1
271.172	0.97
271.546	1.13
271.919	1.25
272.293	1.44
272.666	1.46
273.04	1.57
273.413	1.31
273.787	1.33
274.16	1.51
274.533	1.68
274.906	1.8
275.279	1.89
275.653	1.85
276.026	1.92
276.399	1.9
276.772	2.03
277.145	2.06
277.518	2.12
277.891	1.97
278.263	2.03
278.636	2.36
279.009	2.46
279.382	2.45
279.755	2.25
280.127	2.13
280.5	2.28
280.872	2.31
281.245	2.22
281.617	2.2
281.99	1.96
282.362	1.77
282.735	1.71
283.107	1.49
283.479	1.65
283.852	1.66
284.224	1.54
284.596	1.42
284.968	1.35
285.34	1.23
285.713	1.36
286.085	1.33
286.457	1.15
286.829	1.02
287.201	0.94
287.572	1.07
287.944	1
288.316	0.91
288.688	0.94
289.06	1.09
289.431	1.21
289.803	1.36
290.175	1.5
290.546	1.55
290.918	1.57
291.289	1.45
291.661	1.43
292.032	1.54
292.403	1.59
292.775	1.58
293.146	1.58
293.517	1.5
293.889	1.51
294.26	1.63
294.631	1.76
295.002	1.83
295.373	1.77
295.744	1.91
296.115	1.98
296.486	1.99
296.857	1.99
297.228	1.91
297.599	1.84
297.97	1.77
298.34	1.78
298.711	1.85
299.082	1.8
299.452	1.81
299.823	1.75
300.194	1.87
300.564	1.86
300.935	2.07
301.305	2.08
301.676	2.03
302.046	2.15
302.416	2.04
302.787	2
303.157	2.12
303.527	2.05
303.897	1.91
304.267	1.92
304.637	1.93
305.008	2.13
305.378	2.21
305.748	2.13
306.117	2.21
306.487	2.26
306.857	2.38
307.227	2.42
307.597	2.56
307.967	2.55
308.336	2.64
308.706	2.5
309.076	2.64
309.445	2.81
309.815	2.86
310.184	3.12
310.554	3.06
310.923	3.01
311.293	3.08
311.662	3.21
312.031	3.12
312.401	3.23
312.77	3.13
313.139	3.3
313.508	3.48
313.877	3.45
314.246	3.53
314.616	3.63
314.985	3.59
315.353	3.52
315.722	3.67
316.091	3.77
316.46	3.96
316.829	3.92
317.198	3.87
317.567	3.96
317.935	3.91
318.304	4.13
318.672	4.12
319.041	4.21
319.41	4.02
319.778	4.13
320.147	4.16
320.515	4.21
320.883	4.07
321.252	4.1
321.62	4.23
321.988	4.14
322.357	4.16
322.725	4.39
323.093	4.34
323.461	4.23
323.829	4.32
324.197	4.4
324.565	4.58
324.933	4.63
325.301	4.4
325.669	4.41
326.037	4.5
326.405	4.65
326.772	4.77
327.14	4.91
327.508	4.8
327.875	4.76
328.243	4.8
328.61	4.7
328.978	4.75
329.346	4.82
329.713	5.05
330.08	5.04
330.448	5
330.815	5.17
331.182	5.08
331.55	5.11
331.917	4.97
332.284	5.01
332.651	4.99
333.018	5.16
333.385	5.07
333.752	5.18
334.119	5.15
334.486	5.15
334.853	5.22
335.22	5.34
335.587	5.41
335.954	5.44
336.32	5.61
336.687	5.62
337.054	5.66
337.42	5.5
337.787	5.61
338.153	5.78
338.52	5.86
338.886	5.9
339.253	5.76
339.619	5.78
339.986	5.6
340.352	5.56
340.718	5.63
341.084	5.67
341.451	5.56
341.817	5.66
342.183	5.59
342.549	5.71
342.915	5.69
343.281	5.65
343.647	5.72
344.013	5.84
344.379	5.75
344.745	5.66
345.11	5.78
345.476	5.75
345.842	5.58
346.208	5.63
346.573	5.71
346.939	5.86
347.304	5.81
347.67	5.85
348.035	5.86
348.401	5.77
348.766	5.8
349.132	5.8
349.497	5.75
349.862	5.84
350.228	5.84
350.593	5.85
350.958	5.94
351.323	5.92
351.688	5.87
352.053	5.97
352.418	5.92
352.783	5.99
353.148	5.91
353.513	5.94
353.878	5.87
354.243	5.64
354.608	5.63
354.972	5.62
355.337	5.54
355.702	5.58
356.066	5.59
356.431	5.58
356.795	5.53
357.16	5.5
357.524	5.35
357.889	5.31
358.253	5.36
358.618	5.29
358.982	5.18
359.346	5.1
359.71	5.09
360.075	5.12
360.439	5.02
360.803	5.05
361.167	4.97
361.531	4.97
361.895	5.05
362.259	5.04
362.623	5.07
362.987	5.16
363.351	5.15
363.714	5.19
364.078	5.12
364.442	5.12
364.806	5.13
365.169	5.14
365.533	5.09
365.896	5.03
366.26	4.98
366.623	4.96
366.987	4.98
367.35	4.92
367.714	4.95
368.077	4.94
368.44	4.92
368.803	4.88
369.167	4.76
369.53	4.74
369.893	4.66
370.256	4.59
370.619	4.51
370.982	4.38
371.345	4.32
371.708	4.27
372.071	4.22
372.434	4.21
372.797	4.27
373.159	4.25
373.522	4.27
373.885	4.21
374.247	4.26
374.61	4.15
374.973	4.12
375.335	4.01
375.698	3.9
376.06	3.88
376.423	3.92
376.785	3.95
377.147	3.93
377.51	3.93
377.872	3.91
378.234	3.89
378.596	3.94
378.958	3.94
379.321	3.94
379.683	3.96
380.045	3.87
380.407	3.76
380.769	3.69
381.13	3.65
381.492	3.6
381.854	3.54
382.216	3.58
382.578	3.57
382.939	3.57
383.301	3.58
383.663	3.51
384.024	3.46
384.386	3.44
384.747	3.42
385.109	3.36
385.47	3.36
385.832	3.33
386.193	3.29
386.554	3.21
386.916	3.17
387.277	3.12
387.638	3.08
387.999	3.06
388.36	3.09
388.721	3.07
389.082	3.08
389.443	3.09
389.804	3.02
390.165	2.97
390.526	2.94
390.887	2.95
391.248	2.94
391.609	2.93
391.969	2.93
392.33	2.93
392.691	2.92
393.051	2.86
393.412	2.83
393.772	2.84
394.133	2.82
394.493	2.84
394.854	2.81
395.214	2.83
395.574	2.83
395.935	2.79
396.295	2.75
396.655	2.74
397.015	2.69
397.376	2.68
397.736	2.66
398.096	2.67
398.456	2.61
398.816	2.61
399.176	2.56
399.535	2.51
399.895	2.46
400.255	2.46
400.615	2.44
400.975	2.42
401.334	2.4
401.694	2.4
402.054	2.38
402.413	2.36
402.773	2.35
403.132	2.34
403.492	2.36
403.851	2.37
404.211	2.37
404.57	2.36
404.929	2.34
405.288	2.34
405.648	2.32
406.007	2.31
406.366	2.33
406.725	2.33
407.084	2.34
407.443	2.35
407.802	2.32
408.161	2.36
408.52	2.37
408.879	2.36
409.238	2.37
409.596	2.36
409.955	2.33
410.314	2.36
410.673	2.34
411.031	2.3
411.39	2.29
411.748	2.28
412.107	2.25
412.465	2.25
412.824	2.24
413.182	2.23
413.54	2.26
413.899	2.21
414.257	2.2
414.615	2.17
414.974	2.18
415.332	2.18
415.69	2.14
416.048	2.11
416.406	2.1
416.764	2.05
417.122	2.01
417.48	2.02
417.838	1.99
418.195	1.96
418.553	1.93
418.911	1.91
419.269	1.9
419.626	1.93
419.984	1.96
420.342	1.95
420.699	1.95
421.057	1.92
421.414	1.94
421.772	1.94
422.129	1.94
422.486	1.92
422.844	1.91
423.201	1.93
423.558	1.93
423.915	1.94
424.273	1.96
424.63	1.96
424.987	1.98
425.344	2
425.701	2.01
426.058	2.04
426.415	2.05
426.772	2.04
427.128	2.02
427.485	2
427.842	1.99
428.199	1.98
428.555	1.96
428.912	1.94
429.269	1.93
429.625	1.93
429.982	1.92
430.338	1.92
430.695	1.9
431.051	1.91
431.407	1.9
431.764	1.86
432.12	1.88
432.476	1.85
432.832	1.84
433.189	1.83
433.545	1.83
433.901	1.81
434.257	1.8
434.613	1.82
434.969	1.83
435.325	1.85
435.681	1.83
436.036	1.85
436.392	1.84
436.748	1.84
437.104	1.84
437.459	1.85
437.815	1.84
438.171	1.85
438.526	1.84
438.882	1.84
439.237	1.85
439.593	1.85
439.948	1.87
440.304	1.86
440.659	1.89
441.014	1.87
441.369	1.87
441.725	1.88
442.08	1.86
442.435	1.86
442.79	1.84
443.145	1.85
443.5	1.85
443.855	1.86
444.21	1.86
444.565	1.85
444.92	1.85
445.275	1.86
445.629	1.84
445.984	1.83
446.339	1.83
446.693	1.83
447.048	1.82
447.403	1.81
447.757	1.8
448.112	1.8
448.466	1.8
448.82	1.79
449.175	1.79
449.529	1.8
449.883	1.79
450.238	1.8
450.592	1.82
450.946	1.78
451.3	1.78
451.654	1.76
452.008	1.75
452.362	1.74
452.716	1.72
453.07	1.74
453.424	1.75
453.778	1.75
454.132	1.75
454.486	1.75
454.839	1.74
455.193	1.74
455.547	1.72
455.9	1.77
456.254	1.76
456.607	1.75
456.961	1.76
457.314	1.76
457.668	1.75
458.021	1.74
458.375	1.76
458.728	1.76
459.081	1.79
459.434	1.8
459.787	1.81
460.141	1.82
460.494	1.82
460.847	1.82
461.2	1.8
461.553	1.81
461.906	1.83
462.259	1.82
462.611	1.83
462.964	1.85
463.317	1.84
463.67	1.83
464.022	1.84
464.375	1.83
464.728	1.83
465.08	1.82
465.433	1.83
465.785	1.86
466.138	1.87
466.49	1.87
466.843	1.88
467.195	1.88
467.547	1.89
467.899	1.91
468.252	1.93
468.604	1.94
468.956	1.93
469.308	1.91
469.66	1.94
470.012	1.94
470.364	1.93
470.716	1.95
471.068	1.97
471.42	1.97
471.772	1.97
472.123	2
472.475	2.02
472.827	2.02
473.178	2
473.53	1.99
473.882	1.99
474.233	1.97
474.585	1.99
474.936	1.99
475.288	1.97
475.639	1.98
475.99	1.98
476.342	1.99
476.693	1.98
477.044	1.98
477.395	1.97
477.746	1.95
478.097	1.95
478.448	1.92
478.8	1.92
479.15	1.91
479.501	1.89
479.852	1.89
480.203	1.9
480.554	1.91
480.905	1.9
481.255	1.9
481.606	1.9
481.957	1.89
482.307	1.89
482.658	1.9
483.009	1.9
483.359	1.9
483.709	1.9
484.06	1.91
484.41	1.91
484.761	1.9
485.111	1.91
485.461	1.91
485.811	1.92
486.162	1.92
486.512	1.93
486.862	1.94
487.212	1.94
487.562	1.93
487.912	1.93
488.262	1.93
488.612	1.93
488.961	1.94
489.311	1.94
489.661	1.95
490.011	1.93
490.36	1.93
490.71	1.94
491.06	1.95
491.409	1.95
491.759	1.95
492.108	1.95
492.458	1.95
492.807	1.96
493.157	1.96
493.506	1.96
493.855	1.97
494.204	1.99
494.554	2
494.903	2.02
495.252	2.04
495.601	2.06
495.95	2.07
496.299	2.08
496.648	2.12
496.997	2.13
497.346	2.17
497.695	2.18
498.043	2.19
498.392	2.21
498.741	2.23
499.09	2.25
499.438	2.3
499.787	2.33
500.135	2.33
500.484	2.35
500.832	2.36
501.181	2.4
501.529	2.43
501.878	2.45
502.226	2.47
502.574	2.48
502.923	2.5
503.271	2.53
503.619	2.52
503.967	2.51
504.315	2.52
504.663	2.53
505.011	2.56
505.359	2.58
505.707	2.59
506.055	2.62
506.403	2.67
506.751	2.7
507.098	2.73
507.446	2.79
507.794	2.8
508.141	2.84
508.489	2.85
508.837	2.89
509.184	2.93
509.531	2.96
509.879	3.01
510.226	3.07
510.574	3.11
510.921	3.18
511.268	3.23
511.616	3.28
511.963	3.29
512.31	3.35
512.657	3.38
513.004	3.43
513.351	3.46
513.698	3.5
514.045	3.5
514.392	3.56
514.739	3.61
515.086	3.69
515.432	3.76
515.779	3.81
516.126	3.85
516.473	3.91
516.819	3.97
517.166	4.01
517.512	4.04
517.859	4.06
518.205	4.11
518.552	4.17
518.898	4.22
519.245	4.29
519.591	4.34
519.937	4.39
520.283	4.45
520.629	4.5
520.976	4.57
521.322	4.67
521.668	4.71
522.014	4.77
522.36	4.83
522.706	4.88
523.052	4.98
523.398	5.05
523.743	5.12
524.089	5.21
524.435	5.3
524.781	5.4
525.126	5.49
525.472	5.55
525.817	5.61
526.163	5.67
526.509	5.73
526.854	5.79
527.199	5.86
527.545	5.92
527.89	5.98
528.235	6.04
528.581	6.11
528.926	6.2
529.271	6.28
529.616	6.35
529.961	6.43
530.306	6.5
530.651	6.59
530.996	6.69
531.341	6.78
531.686	6.88
532.031	6.99
532.376	7.12
532.721	7.26
533.065	7.39
533.41	7.53
533.755	7.67
534.099	7.82
534.444	7.99
534.788	8.14
535.133	8.31
535.477	8.46
535.822	8.63
536.166	8.78
536.51	8.98
536.855	9.17
537.199	9.36
537.543	9.56
537.887	9.76
538.231	9.98
538.576	10.17
538.92	10.39
539.264	10.6
539.608	10.76
539.951	10.93
540.295	11.13
540.639	11.3
540.983	11.47
541.327	11.65
541.671	11.83
542.014	12.03
542.358	12.23
542.701	12.44
543.045	12.64
543.389	12.87
543.732	13.09
544.075	13.33
544.419	13.58
544.762	13.85
545.105	14.16
545.449	14.47
545.792	14.81
546.135	15.15
546.478	15.51
546.821	15.92
547.165	16.36
547.508	16.76
547.851	17.2
548.194	17.65
548.536	18.04
548.879	18.45
549.222	18.87
549.565	19.31
549.908	19.74
550.25	20.19
550.593	20.56
550.936	20.98
551.278	21.41
551.621	21.88
551.963	22.38
552.306	22.83
552.648	23.28
552.991	23.69
553.333	24.14
553.675	24.58
554.017	25
554.36	25.39
554.702	25.8
555.044	26.22
555.386	26.68
555.728	27.15
556.07	27.6
556.412	28.08
556.754	28.51
557.096	28.92
557.438	29.4
557.78	29.91
558.121	30.38
558.463	30.87
558.805	31.33
559.147	31.78
559.488	32.19
559.83	32.57
560.171	32.97
560.513	33.34
560.854	33.65
561.196	33.98
561.537	34.38
561.878	34.72
562.22	35.02
562.561	35.34
562.902	35.61
563.243	35.91
563.584	36.19
563.925	36.5
564.266	36.79
564.607	37.06
564.948	37.32
565.289	37.62
565.63	37.85
565.971	38.07
566.312	38.28
566.653	38.49
566.993	38.73
567.334	38.96
567.675	39.15
568.015	39.42
568.356	39.66
568.696	39.86
569.037	40.02
569.377	40.25
569.718	40.45
570.058	40.68
570.398	40.87
570.739	41.1
571.079	41.27
571.419	41.52
571.759	41.78
572.099	42.03
572.439	42.21
572.779	42.45
573.119	42.72
573.459	43.01
573.799	43.32
574.139	43.59
574.479	43.89
574.819	44.28
575.158	44.57
575.498	44.98
575.838	45.43
576.177	45.9
576.517	46.26
576.856	46.7
577.196	47.18
577.535	47.74
577.875	48.25
578.214	48.82
578.553	49.35
578.893	49.89
579.232	50.39
579.571	50.94
579.91	51.46
580.25	52.03
580.589	52.53
580.928	52.96
581.267	53.44
581.606	53.9
581.945	54.29
582.283	54.72
582.622	55.04
582.961	55.34
583.3	55.59
583.639	55.99
583.977	56.32
584.316	56.61
584.654	56.81
584.993	56.94
585.332	57.03
585.67	57.1
586.008	57.13
586.347	57.22
586.685	57.27
587.024	57.35
587.362	57.23
587.7	57.27
588.038	57.37
588.376	57.47
588.715	57.55
589.053	57.58
589.391	57.58
589.729	57.69
590.067	57.66
590.404	57.75
590.742	57.78
591.08	57.76
591.418	57.7
591.756	57.66
592.093	57.64
592.431	57.61
592.769	57.65
593.106	57.64
593.444	57.6
593.781	57.6
594.119	57.55
594.456	57.6
594.793	57.57
595.131	57.54
595.468	57.52
595.805	57.6
596.143	57.62
596.48	57.77
596.817	57.81
597.154	57.97
597.491	58.06
597.828	58.26
598.165	58.4
598.502	58.61
598.839	58.69
599.176	58.82
599.512	58.92
599.849	58.96
600.186	58.99
600.523	59.07
600.859	59.13
601.196	59.17
601.532	59.23
601.869	59.32
602.205	59.33
602.542	59.42
602.878	59.32
603.215	59.43
603.551	59.31
603.887	59.21
604.223	59.18
604.56	59.17
604.896	59.09
605.232	59.03
605.568	58.93
605.904	58.92
606.24	58.96
606.576	59.08
606.912	59.22
607.248	59.35
607.583	59.55
607.919	59.78
608.255	59.98
608.591	60.17
608.926	60.42
609.262	60.71
609.597	60.95
609.933	61.27
610.268	61.44
610.604	61.75
610.939	62.14
611.275	62.43
611.61	62.71
611.945	63.02
612.281	63.41
612.616	63.86
612.951	64.26
613.286	64.7
613.621	65.03
613.956	65.37
614.291	65.79
614.626	66.17
614.961	66.46
615.296	66.84
615.631	67.19
615.966	67.33
616.3	67.59
616.635	67.77
616.97	67.95
617.304	68.25
617.639	68.6
617.973	68.79
618.308	68.83
618.642	68.97
618.977	69.04
619.311	69.13
619.646	69.12
619.98	69.16
620.314	69.18
620.648	69.25
620.983	69.22
621.317	69.22
621.651	69
621.985	68.96
622.319	68.81
622.653	68.51
622.987	68.32
623.321	68.1
623.655	67.76
623.988	67.48
624.322	67.13
624.656	66.71
624.99	66.36
625.323	66.12
625.657	65.85
625.99	65.69
626.324	65.47
626.657	65.39
626.991	65.34
627.324	65.24
627.658	65.26
627.991	65.41
628.324	65.33
628.657	65.36
628.991	65.4
629.324	65.53
629.657	65.71
629.99	65.85
630.323	65.97
630.656	66.24
630.989	66.42
631.322	66.65
631.655	66.88
631.987	67.21
632.32	67.46
632.653	67.69
632.986	67.87
633.318	68.08
633.651	68.22
633.984	68.4
634.316	68.59
634.649	68.62
634.981	68.71
635.313	69.03
635.646	69.29
635.978	69.36
636.31	69.52
636.643	69.74
636.975	69.79
637.307	69.99
637.639	70.13
637.971	70.46
638.303	70.6
638.635	70.85
638.967	70.9
639.299	71.03
639.631	71.33
639.963	71.37
640.295	71.46
640.626	71.64
640.958	71.7
641.29	71.85
641.621	72
641.953	71.93
642.285	71.87
642.616	72.02
642.948	72.12
643.279	72.12
643.61	72.02
643.942	72.22
644.273	72.28
644.604	72.35
644.936	72.28
645.267	72.16
645.598	72.03
645.929	72
646.26	72.06
646.591	71.87
646.922	71.85
647.253	71.86
647.584	71.61
647.915	71.46
648.245	71.21
648.576	71.06
648.907	70.92
649.238	70.83
649.568	70.68
649.899	70.64
650.229	70.56
650.56	70.58
650.89	70.42
651.221	70.31
651.551	70.1
651.882	69.99
652.212	70
652.542	69.81
652.872	69.65
653.203	69.45
653.533	69.36
653.863	69.32
654.193	69.05
654.523	68.95
654.853	68.76
655.183	68.5
655.513	68.25
655.843	68.09
656.172	67.98
656.502	67.73
656.832	67.45
657.162	67.18
657.491	67.02
657.821	66.86
658.15	66.8
658.48	66.79
658.809	66.79
659.139	66.81
659.468	66.85
659.798	66.96
660.127	67.02
660.456	67.13
660.785	67.24
661.115	67.5
661.444	67.62
661.773	67.97
662.102	68.39
662.431	68.66
662.76	68.98
663.089	69.19
663.418	69.44
663.747	69.76
664.076	70.12
664.404	70.33
664.733	70.53
665.062	70.6
665.39	70.63
665.719	70.6
666.048	70.52
666.376	70.73
