Data from BA51068_Reflection_00008.txt Node
Date: Tue Nov 19 11:59:04 EST 2019
User: vgr7
Spectrometer: USB2G7710
Scans to average: 3
Trigger mode: 4
Integration Time (sec): 2.000000E-2
Electric dark correction enabled: true
Boxcar width: 10
XAxis mode: Wavelengths
Number of Pixels in Spectrum: 2048
>>>>>Begin Spectral Data<<<<<
177.721	10.37
178.105	74.14
178.488	26.12
178.871	138.18
179.254	-2000
179.636	126.79
180.019	-2.89
180.402	172.22
180.785	61.18
181.168	11.02
181.55	-15.38
181.933	36.29
182.316	-32.71
182.698	-2.12
183.081	-18.96
183.463	-30.27
183.846	-318.03
184.228	3.71
184.611	29.26
184.993	50.33
185.376	34.38
185.758	31.89
186.14	-12.17
186.522	32.28
186.904	-61.54
187.287	-31.43
187.669	14.57
188.051	-16.08
188.433	-10.57
188.815	5.64
189.197	-14.56
189.579	-9.18
189.961	-5.29
190.342	5.74
190.724	14.9
191.106	4.74
191.488	-17.67
191.869	-25.12
192.251	9.58
192.633	111.06
193.014	125.6
193.396	2773.91
193.777	234.67
194.159	187.01
194.54	248.46
194.922	191.36
195.303	194.94
195.684	180.74
196.065	111.06
196.447	73.01
196.828	44.01
197.209	96.31
197.59	291.28
197.971	-348.45
198.352	-2.61
198.733	62.41
199.114	94.7
199.495	128.66
199.876	165.6
200.257	87.15
200.638	244.37
201.018	473.75
201.399	798.16
201.78	2927.87
202.16	-4142.86
202.541	-2874.58
202.922	-784.94
203.302	-1596.26
203.683	1103.45
204.063	430.51
204.444	512.66
204.824	514.89
205.204	485.38
205.585	1277.69
205.965	2780.33
206.345	-821.32
206.725	-563.35
207.106	-1198.32
207.486	-268.04
207.866	-228.81
208.246	-107.34
208.626	-86.31
209.006	-111.64
209.386	-87.93
209.766	-95.32
210.145	-122.27
210.525	-100.49
210.905	-49.67
211.285	-40.05
211.664	-34.27
212.044	-36.62
212.424	-40.44
212.803	-38.59
213.183	-33.27
213.562	-10.86
213.942	-9.54
214.321	-11.19
214.701	-9.74
215.08	-12.63
215.459	-13.35
215.838	-17.35
216.218	-14.33
216.597	-8.5
216.976	-22.53
217.355	-25.04
217.734	-31.35
218.113	-21.75
218.492	-24.34
218.871	-35.63
219.25	-35.93
219.629	-56.8
220.008	-50.6
220.387	-45.75
220.766	-46.38
221.144	-42.01
221.523	-58.06
221.902	-40.3
222.28	-32.76
222.659	-22.38
223.037	-14.24
223.416	-26.22
223.794	-21.59
224.173	-29.92
224.551	-41.06
224.929	-20.24
225.308	-16.55
225.686	-12.09
226.064	-25.78
226.442	-23.6
226.821	-15.78
227.199	-14.69
227.577	-7.22
227.955	-6.48
228.333	-6.92
228.711	-8.11
229.089	-13.95
229.467	-11.46
229.845	-15.66
230.222	-12.52
230.6	-11.38
230.978	-7.73
231.356	-6.85
231.733	-3.34
232.111	-1.75
232.488	-0.67
232.866	0.45
233.243	2.78
233.621	2.91
233.998	4.98
234.376	4.28
234.753	3.36
235.13	3.96
235.508	1.16
235.885	0.83
236.262	0.75
236.639	0.32
237.016	1.98
237.393	2.65
237.77	4.46
238.147	3.41
238.524	2.46
238.901	2.08
239.278	1.82
239.655	1.37
240.032	1.91
240.409	1.74
240.785	1.55
241.162	1.44
241.539	1.45
241.915	1.94
242.292	1.9
242.668	2.35
243.045	2.88
243.421	3.67
243.798	3.76
244.174	4.11
244.551	4.27
244.927	4.29
245.303	4.03
245.679	3.64
246.056	3.58
246.432	3.74
246.808	3.83
247.184	4.18
247.56	3.87
247.936	3.68
248.312	3.78
248.688	3.67
249.064	3.69
249.44	3.56
249.815	3.45
250.191	3.72
250.567	3.55
250.943	3.51
251.318	3.55
251.694	3.54
252.069	3.31
252.445	3.16
252.82	3.28
253.196	3.36
253.571	3.66
253.947	3.77
254.322	3.37
254.697	3.06
255.073	2.87
255.448	2.92
255.823	3.2
256.198	3.2
256.573	3.28
256.948	3.3
257.323	3.5
257.698	3.5
258.073	3.34
258.448	3.28
258.823	3.15
259.198	3.01
259.573	2.9
259.948	2.9
260.322	2.97
260.697	2.98
261.072	2.95
261.446	2.76
261.821	2.59
262.195	2.71
262.57	2.63
262.944	2.71
263.319	2.81
263.693	2.59
264.067	2.74
264.442	2.71
264.816	2.54
265.19	2.77
265.564	2.75
265.938	2.72
266.313	2.71
266.687	2.63
267.061	2.57
267.435	2.86
267.809	2.65
268.183	2.7
268.556	2.73
268.93	2.63
269.304	2.67
269.678	2.87
270.051	2.73
270.425	3
270.799	3.02
271.172	3.07
271.546	3.22
271.919	3.01
272.293	3.04
272.666	3.17
273.04	3.04
273.413	2.96
273.787	2.96
274.16	3.01
274.533	3.28
274.906	3.3
275.279	3.17
275.653	3.37
276.026	3.3
276.399	3.31
276.772	3.45
277.145	3.48
277.518	3.36
277.891	3.48
278.263	3.31
278.636	3.21
279.009	3.09
279.382	3.04
279.755	2.96
280.127	3.07
280.5	3.04
280.872	3.14
281.245	3.2
281.617	3.18
281.99	3.23
282.362	3.1
282.735	3.12
283.107	3.07
283.479	3.13
283.852	3.14
284.224	3.04
284.596	3.05
284.968	3.05
285.34	3.06
285.713	3.15
286.085	3.07
286.457	3.11
286.829	3.21
287.201	3.18
287.572	3.4
287.944	3.36
288.316	3.37
288.688	3.37
289.06	3.33
289.431	3.49
289.803	3.45
290.175	3.38
290.546	3.37
290.918	3.4
291.289	3.3
291.661	3.31
292.032	3.36
292.403	3.16
292.775	3.29
293.146	3.31
293.517	3.26
293.889	3.33
294.26	3.34
294.631	3.31
295.002	3.4
295.373	3.27
295.744	3.34
296.115	3.38
296.486	3.25
296.857	3.29
297.228	3.13
297.599	3.1
297.97	3.19
298.34	3.17
298.711	3.28
299.082	3.27
299.452	3.33
299.823	3.31
300.194	3.44
300.564	3.41
300.935	3.47
301.305	3.44
301.676	3.35
302.046	3.32
302.416	3.35
302.787	3.37
303.157	3.34
303.527	3.32
303.897	3.17
304.267	3.16
304.637	3.19
305.008	3.29
305.378	3.56
305.748	3.7
306.117	3.7
306.487	3.64
306.857	3.7
307.227	3.72
307.597	3.75
307.967	3.79
308.336	3.72
308.706	3.61
309.076	3.63
309.445	3.72
309.815	3.74
310.184	3.65
310.554	3.63
310.923	3.61
311.293	3.54
311.662	3.5
312.031	3.56
312.401	3.47
312.77	3.43
313.139	3.22
313.508	3.09
313.877	3.21
314.246	3.16
314.616	3.24
314.985	3.27
315.353	3.23
315.722	3.26
316.091	3.25
316.46	3.41
316.829	3.62
317.198	3.65
317.567	3.79
317.935	3.89
318.304	4
318.672	4.14
319.041	4.22
319.41	4.34
319.778	4.37
320.147	4.51
320.515	4.58
320.883	4.62
321.252	4.6
321.62	4.4
321.988	4.54
322.357	4.5
322.725	4.44
323.093	4.56
323.461	4.62
323.829	4.68
324.197	4.64
324.565	4.54
324.933	4.55
325.301	4.35
325.669	4.43
326.037	4.32
326.405	4.34
326.772	4.32
327.14	4.38
327.508	4.3
327.875	4.37
328.243	4.34
328.61	4.22
328.978	4.24
329.346	4.34
329.713	4.25
330.08	4.33
330.448	4.32
330.815	4.46
331.182	4.27
331.55	4.33
331.917	4.3
332.284	4.4
332.651	4.46
333.018	4.57
333.385	4.53
333.752	4.53
334.119	4.51
334.486	4.54
334.853	4.51
335.22	4.6
335.587	4.52
335.954	4.56
336.32	4.58
336.687	4.67
337.054	4.84
337.42	4.97
337.787	4.89
338.153	4.93
338.52	4.9
338.886	5.01
339.253	4.89
339.619	4.92
339.986	4.89
340.352	4.91
340.718	5.04
341.084	5.21
341.451	5.28
341.817	5.34
342.183	5.25
342.549	5.37
342.915	5.34
343.281	5.35
343.647	5.39
344.013	5.46
344.379	5.41
344.745	5.29
345.11	5.13
345.476	5.16
345.842	5.19
346.208	5.21
346.573	5.22
346.939	5.32
347.304	5.4
347.67	5.41
348.035	5.43
348.401	5.32
348.766	5.17
349.132	5.24
349.497	5.25
349.862	5.38
350.228	5.32
350.593	5.28
350.958	5.32
351.323	5.3
351.688	5.33
352.053	5.39
352.418	5.43
352.783	5.54
353.148	5.56
353.513	5.53
353.878	5.36
354.243	5.25
354.608	5.17
354.972	5.1
355.337	5.14
355.702	5.03
356.066	5.05
356.431	4.99
356.795	4.87
357.16	4.79
357.524	4.82
357.889	4.87
358.253	4.94
358.618	4.9
358.982	4.88
359.346	4.9
359.71	4.8
360.075	4.81
360.439	4.75
360.803	4.73
361.167	4.7
361.531	4.78
361.895	4.82
362.259	4.83
362.623	4.83
362.987	4.74
363.351	4.78
363.714	4.79
364.078	4.75
364.442	4.8
364.806	4.81
365.169	4.74
365.533	4.66
365.896	4.6
366.26	4.53
366.623	4.46
366.987	4.41
367.35	4.45
367.714	4.36
368.077	4.36
368.44	4.37
368.803	4.4
369.167	4.25
369.53	4.25
369.893	4.27
370.256	4.18
370.619	4.17
370.982	4.12
371.345	4.07
371.708	4.11
372.071	4.05
372.434	4.04
372.797	4.07
373.159	3.98
373.522	3.98
373.885	4.01
374.247	4.03
374.61	3.99
374.973	3.95
375.335	3.96
375.698	3.88
376.06	3.8
376.423	3.76
376.785	3.75
377.147	3.68
377.51	3.61
377.872	3.65
378.234	3.59
378.596	3.54
378.958	3.46
379.321	3.4
379.683	3.4
380.045	3.34
380.407	3.32
380.769	3.39
381.13	3.36
381.492	3.34
381.854	3.36
382.216	3.36
382.578	3.41
382.939	3.37
383.301	3.39
383.663	3.35
384.024	3.31
384.386	3.33
384.747	3.37
385.109	3.42
385.47	3.42
385.832	3.38
386.193	3.41
386.554	3.4
386.916	3.44
387.277	3.36
387.638	3.4
387.999	3.35
388.36	3.32
388.721	3.3
389.082	3.32
389.443	3.32
389.804	3.33
390.165	3.31
390.526	3.29
390.887	3.3
391.248	3.33
391.609	3.34
391.969	3.34
392.33	3.3
392.691	3.25
393.051	3.24
393.412	3.35
393.772	3.34
394.133	3.39
394.493	3.36
394.854	3.37
395.214	3.34
395.574	3.36
395.935	3.32
396.295	3.36
396.655	3.32
397.015	3.27
397.376	3.22
397.736	3.19
398.096	3.2
398.456	3.2
398.816	3.19
399.176	3.15
399.535	3.14
399.895	3.11
400.255	3.08
400.615	3.05
400.975	2.97
401.334	2.93
401.694	2.94
402.054	2.94
402.413	2.96
402.773	2.95
403.132	2.92
403.492	2.94
403.851	2.88
404.211	2.89
404.57	2.9
404.929	2.91
405.288	2.91
405.648	2.91
406.007	2.87
406.366	2.88
406.725	2.87
407.084	2.87
407.443	2.87
407.802	2.89
408.161	2.87
408.52	2.91
408.879	2.91
409.238	2.88
409.596	2.85
409.955	2.84
410.314	2.83
410.673	2.8
411.031	2.8
411.39	2.78
411.748	2.79
412.107	2.76
412.465	2.77
412.824	2.74
413.182	2.76
413.54	2.8
413.899	2.76
414.257	2.79
414.615	2.8
414.974	2.85
415.332	2.86
415.69	2.85
416.048	2.85
416.406	2.82
416.764	2.81
417.122	2.81
417.48	2.8
417.838	2.79
418.195	2.8
418.553	2.79
418.911	2.78
419.269	2.78
419.626	2.78
419.984	2.78
420.342	2.79
420.699	2.78
421.057	2.76
421.414	2.79
421.772	2.78
422.129	2.75
422.486	2.74
422.844	2.73
423.201	2.73
423.558	2.7
423.915	2.72
424.273	2.72
424.63	2.72
424.987	2.71
425.344	2.71
425.701	2.7
426.058	2.69
426.415	2.7
426.772	2.68
427.128	2.7
427.485	2.69
427.842	2.69
428.199	2.67
428.555	2.66
428.912	2.63
429.269	2.61
429.625	2.64
429.982	2.63
430.338	2.61
430.695	2.6
431.051	2.61
431.407	2.61
431.764	2.6
432.12	2.62
432.476	2.65
432.832	2.64
433.189	2.64
433.545	2.65
433.901	2.65
434.257	2.67
434.613	2.65
434.969	2.64
435.325	2.63
435.681	2.64
436.036	2.64
436.392	2.64
436.748	2.65
437.104	2.65
437.459	2.65
437.815	2.66
438.171	2.68
438.526	2.67
438.882	2.68
439.237	2.69
439.593	2.69
439.948	2.68
440.304	2.68
440.659	2.69
441.014	2.68
441.369	2.68
441.725	2.67
442.08	2.68
442.435	2.68
442.79	2.68
443.145	2.68
443.5	2.68
443.855	2.69
444.21	2.69
444.565	2.69
444.92	2.71
445.275	2.7
445.629	2.7
445.984	2.71
446.339	2.7
446.693	2.7
447.048	2.69
447.403	2.68
447.757	2.68
448.112	2.68
448.466	2.69
448.82	2.69
449.175	2.69
449.529	2.67
449.883	2.68
450.238	2.69
450.592	2.68
450.946	2.67
451.3	2.68
451.654	2.66
452.008	2.66
452.362	2.64
452.716	2.65
453.07	2.64
453.424	2.63
453.778	2.63
454.132	2.6
454.486	2.61
454.839	2.62
455.193	2.63
455.547	2.61
455.9	2.62
456.254	2.62
456.607	2.63
456.961	2.65
457.314	2.63
457.668	2.63
458.021	2.63
458.375	2.62
458.728	2.61
459.081	2.63
459.434	2.61
459.787	2.63
460.141	2.61
460.494	2.62
460.847	2.62
461.2	2.64
461.553	2.67
461.906	2.67
462.259	2.67
462.611	2.66
462.964	2.68
463.317	2.68
463.67	2.67
464.022	2.66
464.375	2.65
464.728	2.68
465.08	2.67
465.433	2.67
465.785	2.69
466.138	2.67
466.49	2.68
466.843	2.68
467.195	2.69
467.547	2.69
467.899	2.68
468.252	2.67
468.604	2.65
468.956	2.63
469.308	2.61
469.66	2.63
470.012	2.64
470.364	2.65
470.716	2.65
471.068	2.67
471.42	2.69
471.772	2.68
472.123	2.68
472.475	2.7
472.827	2.72
473.178	2.71
473.53	2.76
473.882	2.74
474.233	2.75
474.585	2.73
474.936	2.74
475.288	2.74
475.639	2.76
475.99	2.74
476.342	2.75
476.693	2.75
477.044	2.76
477.395	2.76
477.746	2.75
478.097	2.73
478.448	2.7
478.8	2.68
479.15	2.69
479.501	2.69
479.852	2.7
480.203	2.7
480.554	2.69
480.905	2.68
481.255	2.68
481.606	2.68
481.957	2.67
482.307	2.67
482.658	2.67
483.009	2.67
483.359	2.69
483.709	2.69
484.06	2.7
484.41	2.7
484.761	2.71
485.111	2.7
485.461	2.71
485.811	2.72
486.162	2.73
486.512	2.74
486.862	2.74
487.212	2.73
487.562	2.72
487.912	2.73
488.262	2.73
488.612	2.75
488.961	2.76
489.311	2.77
489.661	2.77
490.011	2.79
490.36	2.79
490.71	2.79
491.06	2.79
491.409	2.78
491.759	2.79
492.108	2.77
492.458	2.8
492.807	2.8
493.157	2.81
493.506	2.82
493.855	2.82
494.204	2.81
494.554	2.82
494.903	2.84
495.252	2.83
495.601	2.84
495.95	2.85
496.299	2.87
496.648	2.85
496.997	2.86
497.346	2.88
497.695	2.88
498.043	2.9
498.392	2.9
498.741	2.92
499.09	2.95
499.438	2.97
499.787	2.95
500.135	2.95
500.484	2.97
500.832	2.99
501.181	3
501.529	3.04
501.878	3.06
502.226	3.07
502.574	3.1
502.923	3.1
503.271	3.09
503.619	3.1
503.967	3.13
504.315	3.15
504.663	3.15
505.011	3.13
505.359	3.14
505.707	3.18
506.055	3.19
506.403	3.18
506.751	3.19
507.098	3.23
507.446	3.24
507.794	3.25
508.141	3.26
508.489	3.28
508.837	3.28
509.184	3.31
509.531	3.32
509.879	3.33
510.226	3.36
510.574	3.4
510.921	3.4
511.268	3.44
511.616	3.46
511.963	3.48
512.31	3.53
512.657	3.56
513.004	3.55
513.351	3.59
513.698	3.61
514.045	3.64
514.392	3.67
514.739	3.72
515.086	3.76
515.432	3.77
515.779	3.78
516.126	3.83
516.473	3.84
516.819	3.88
517.166	3.9
517.512	3.92
517.859	3.95
518.205	3.98
518.552	4.01
518.898	4.02
519.245	4.06
519.591	4.1
519.937	4.12
520.283	4.17
520.629	4.19
520.976	4.24
521.322	4.28
521.668	4.31
522.014	4.35
522.36	4.37
522.706	4.44
523.052	4.5
523.398	4.53
523.743	4.6
524.089	4.67
524.435	4.72
524.781	4.78
525.126	4.81
525.472	4.87
525.817	4.9
526.163	4.94
526.509	4.97
526.854	5.02
527.199	5.08
527.545	5.13
527.89	5.17
528.235	5.21
528.581	5.26
528.926	5.32
529.271	5.37
529.616	5.43
529.961	5.47
530.306	5.54
530.651	5.6
530.996	5.68
531.341	5.74
531.686	5.82
532.031	5.89
532.376	5.96
532.721	6.04
533.065	6.14
533.41	6.25
533.755	6.35
534.099	6.42
534.444	6.51
534.788	6.61
535.133	6.7
535.477	6.8
535.822	6.91
536.166	7.03
536.51	7.17
536.855	7.29
537.199	7.42
537.543	7.57
537.887	7.74
538.231	7.89
538.576	8.06
538.92	8.24
539.264	8.41
539.608	8.57
539.951	8.7
540.295	8.84
540.639	8.98
540.983	9.13
541.327	9.28
541.671	9.43
542.014	9.58
542.358	9.73
542.701	9.89
543.045	10.06
543.389	10.2
543.732	10.34
544.075	10.51
544.419	10.69
544.762	10.86
545.105	11.05
545.449	11.22
545.792	11.4
546.135	11.63
546.478	11.85
546.821	12.08
547.165	12.32
547.508	12.58
547.851	12.84
548.194	13.09
548.536	13.38
548.879	13.66
549.222	13.9
549.565	14.15
549.908	14.41
550.25	14.66
550.593	14.95
550.936	15.25
551.278	15.57
551.621	15.9
551.963	16.18
552.306	16.48
552.648	16.78
552.991	17.13
553.333	17.39
553.675	17.72
554.017	18.01
554.36	18.34
554.702	18.62
555.044	18.9
555.386	19.19
555.728	19.49
556.07	19.82
556.412	20.14
556.754	20.46
557.096	20.79
557.438	21.1
557.78	21.42
558.121	21.8
558.463	22.15
558.805	22.47
559.147	22.79
559.488	23.14
559.83	23.46
560.171	23.78
560.513	24.13
560.854	24.45
561.196	24.8
561.537	25.16
561.878	25.49
562.22	25.83
562.561	26.17
562.902	26.5
563.243	26.79
563.584	27.14
563.925	27.47
564.266	27.82
564.607	28.11
564.948	28.44
565.289	28.7
565.63	28.96
565.971	29.22
566.312	29.57
566.653	29.88
566.993	30.26
567.334	30.52
567.675	30.8
568.015	31.05
568.356	31.32
568.696	31.6
569.037	31.86
569.377	32.13
569.718	32.43
570.058	32.72
570.398	33
570.739	33.28
571.079	33.54
571.419	33.78
571.759	34.1
572.099	34.33
572.439	34.61
572.779	34.94
573.119	35.21
573.459	35.42
573.799	35.63
574.139	35.79
574.479	36.02
574.819	36.23
575.158	36.43
575.498	36.66
575.838	36.89
576.177	37.2
576.517	37.43
576.856	37.67
577.196	37.9
577.535	38.19
577.875	38.4
578.214	38.68
578.553	38.96
578.893	39.2
579.232	39.43
579.571	39.69
579.91	39.81
580.25	40.02
580.589	40.24
580.928	40.41
581.267	40.65
581.606	40.92
581.945	41.2
582.283	41.45
582.622	41.71
582.961	41.86
583.3	42
583.639	42.27
583.977	42.43
584.316	42.68
584.654	42.91
584.993	43.12
585.332	43.31
585.67	43.39
586.008	43.5
586.347	43.77
586.685	43.95
587.024	44.19
587.362	44.34
587.7	44.55
588.038	44.76
588.376	44.94
588.715	45.09
589.053	45.2
589.391	45.39
589.729	45.51
590.067	45.67
590.404	45.86
590.742	46.03
591.08	46.22
591.418	46.34
591.756	46.46
592.093	46.64
592.431	46.82
592.769	47.12
593.106	47.29
593.444	47.41
593.781	47.58
594.119	47.72
594.456	47.82
594.793	47.98
595.131	48.16
595.468	48.32
595.805	48.54
596.143	48.71
596.48	48.85
596.817	49.03
597.154	49.16
597.491	49.27
597.828	49.37
598.165	49.44
598.502	49.6
598.839	49.71
599.176	49.87
599.512	50.02
599.849	50.1
600.186	50.25
600.523	50.41
600.859	50.5
601.196	50.65
601.532	50.84
601.869	50.99
602.205	51.14
602.542	51.29
602.878	51.23
603.215	51.33
603.551	51.32
603.887	51.39
604.223	51.52
604.56	51.64
604.896	51.74
605.232	51.84
605.568	51.81
605.904	51.93
606.24	52
606.576	52.04
606.912	52.17
607.248	52.26
607.583	52.4
607.919	52.53
608.255	52.58
608.591	52.67
608.926	52.72
609.262	52.75
609.597	52.71
609.933	52.92
610.268	52.96
610.604	53.16
610.939	53.17
611.275	53.2
611.61	53.21
611.945	53.19
612.281	53.33
612.616	53.6
612.951	53.6
613.286	53.65
613.621	53.72
613.956	53.76
614.291	53.89
614.626	53.89
614.961	53.93
615.296	53.98
615.631	54.05
615.966	54.13
616.3	54.19
616.635	54.28
616.97	54.28
617.304	54.39
617.639	54.46
617.973	54.72
618.308	54.71
618.642	54.8
618.977	54.92
619.311	54.91
619.646	54.92
619.98	54.97
620.314	55.03
620.648	55.16
620.983	55.19
621.317	55.24
621.651	55.22
621.985	55.31
622.319	55.45
622.653	55.49
622.987	55.38
623.321	55.51
623.655	55.58
623.988	55.64
624.322	55.69
624.656	55.71
624.99	55.62
625.323	55.74
625.657	55.81
625.99	55.89
626.324	55.99
626.657	55.99
626.991	56.05
627.324	56.13
627.658	56.11
627.991	56.19
628.324	56.18
628.657	56.24
628.991	56.29
629.324	56.35
629.657	56.4
629.99	56.6
630.323	56.61
630.656	56.7
630.989	56.76
631.322	56.82
631.655	56.89
631.987	57.05
632.32	57.13
632.653	57.13
632.986	57.17
633.318	57.17
633.651	57.11
633.984	57.2
634.316	57.22
634.649	57.31
634.981	57.38
635.313	57.38
635.646	57.49
635.978	57.42
636.31	57.56
636.643	57.64
636.975	57.68
637.307	57.73
637.639	57.57
637.971	57.66
638.303	57.64
638.635	57.76
638.967	57.67
639.299	57.58
639.631	57.7
639.963	57.68
640.295	57.78
640.626	58.02
640.958	57.97
641.29	58.09
641.621	58.08
641.953	58
642.285	58.35
642.616	58.43
642.948	58.59
643.279	58.45
643.61	58.42
643.942	58.36
644.273	58.47
644.604	58.63
644.936	58.64
645.267	58.73
645.598	58.67
645.929	58.81
646.26	58.94
646.591	59.03
646.922	59.1
647.253	59.02
647.584	58.96
647.915	58.97
648.245	58.85
648.576	58.93
648.907	58.96
649.238	58.72
649.568	58.71
649.899	58.66
650.229	58.64
650.56	58.66
650.89	58.76
651.221	58.59
651.551	58.61
651.882	58.5
652.212	58.61
652.542	58.54
652.872	58.51
653.203	58.61
653.533	58.58
653.863	58.69
654.193	58.75
654.523	58.75
654.853	58.94
655.183	58.99
655.513	59.02
655.843	59.17
656.172	59.31
656.502	59.34
656.832	59.38
657.162	59.5
657.491	59.62
657.821	59.59
658.15	59.89
658.48	59.94
658.809	59.99
659.139	59.85
659.468	59.9
659.798	59.96
660.127	59.97
660.456	59.92
660.785	59.87
661.115	60.01
661.444	60.05
661.773	59.95
662.102	60.01
662.431	59.86
662.76	59.8
663.089	59.73
663.418	59.66
663.747	59.74
664.076	59.8
664.404	59.68
664.733	59.71
665.062	59.63
665.39	59.58
665.719	59.61
666.048	59.72
666.376	59.91
666.705	59.96
667.033	59.93
667.362	60.05
667.69	60.24
668.018	60.2
668.347	60.23
668.675	60.33
