Data from BA51245_Reflection_00002.txt Node
Date: Tue Nov 19 11:51:34 EST 2019
User: vgr7
Spectrometer: USB2G7710
Scans to average: 3
Trigger mode: 4
Integration Time (sec): 2.000000E-2
Electric dark correction enabled: true
Boxcar width: 10
XAxis mode: Wavelengths
Number of Pixels in Spectrum: 2048
>>>>>Begin Spectral Data<<<<<
177.721	-197.1
178.105	123.81
178.488	455.07
178.871	-172.22
179.254	0
179.636	27.35
180.019	552.38
180.402	69.05
180.785	-444.44
181.168	-506.06
181.55	-206.45
181.933	28.57
182.316	-19.05
182.698	1.02
183.081	-48.4
183.463	-33.51
183.846	-69.29
184.228	-122.89
184.611	-201.65
184.993	-480
185.376	60.99
185.758	27.14
186.14	44.44
186.522	-14.21
186.904	-19.05
187.287	4.26
187.669	6.06
188.051	30.03
188.433	17.3
188.815	-3.7
189.197	-22.56
189.579	-13.31
189.961	6.42
190.342	15.01
190.724	9.17
191.106	-12.06
191.488	-14.11
191.869	-10.39
192.251	-16.84
192.633	-14.79
193.014	9.18
193.396	12.07
193.777	27.55
194.159	12.48
194.54	27.17
194.922	36.76
195.303	65.35
195.684	88.32
196.065	66.92
196.447	65.21
196.828	70.59
197.209	66.34
197.59	72.95
197.971	62.76
198.352	47.4
198.733	57.26
199.114	46.73
199.495	62.56
199.876	63.65
200.257	69.12
200.638	61.54
201.018	49.03
201.399	50.61
201.78	47.01
202.16	68.39
202.541	68.44
202.922	60.54
203.302	38.05
203.683	38.85
204.063	41.13
204.444	43.46
204.824	51.7
205.204	55.57
205.585	54.55
205.965	53.02
206.345	52.07
206.725	47.88
207.106	69.49
207.486	68.57
207.866	67.31
208.246	65.46
208.626	56.64
209.006	46.18
209.386	48.96
209.766	58.54
210.145	60.47
210.525	59.59
210.905	58.44
211.285	62.92
211.664	57.44
212.044	56.9
212.424	65.12
212.803	71.7
213.183	72.89
213.562	71.13
213.942	66.21
214.321	66.23
214.701	66.8
215.08	51.21
215.459	49.83
215.838	42.66
216.218	32.36
216.597	33.81
216.976	61.54
217.355	54.55
217.734	41.54
218.113	12.06
218.492	-3.85
218.871	-5.83
219.25	-27.45
219.629	-65.72
220.008	-55.98
220.387	-65.06
220.766	-32.18
221.144	-22.1
221.523	-30.46
221.902	-16.69
222.28	-12.15
222.659	-8.07
223.037	4.03
223.416	9.57
223.794	14.47
224.173	15.52
224.551	17.33
224.929	15.15
225.308	14.6
225.686	8.76
226.064	13.84
226.442	17.52
226.821	21.33
227.199	23.98
227.577	21.9
227.955	17.41
228.333	15.93
228.711	13.48
229.089	12.46
229.467	17.56
229.845	16.5
230.222	18.64
230.6	20.21
230.978	18.73
231.356	12.24
231.733	12.54
232.111	10.48
232.488	12.81
232.866	14.32
233.243	12.48
233.621	13.65
233.998	11.85
234.376	9.93
234.753	10.62
235.13	8.82
235.508	8.75
235.885	8.46
236.262	8.67
236.639	6.88
237.016	7.16
237.393	6.01
237.77	7.32
238.147	6.49
238.524	5.99
238.901	4.87
239.278	3.99
239.655	3.42
240.032	5.06
240.409	5.1
240.785	4.25
241.162	5.03
241.539	4.91
241.915	4.53
242.292	4.6
242.668	4.09
243.045	4.87
243.421	5.4
243.798	5.28
244.174	5.6
244.551	5.74
244.927	5.53
245.303	5.72
245.679	5.15
246.056	5.36
246.432	5.18
246.808	5.53
247.184	5.82
247.56	5.62
247.936	5.35
248.312	5.38
248.688	5.43
249.064	5.13
249.44	5.06
249.815	5.09
250.191	5.23
250.567	5.52
250.943	5.21
251.318	4.98
251.694	4.98
252.069	4.9
252.445	4.72
252.82	5.01
253.196	4.77
253.571	4.83
253.947	4.56
254.322	4.56
254.697	4.5
255.073	4.48
255.448	4.65
255.823	4.69
256.198	4.01
256.573	4.05
256.948	4.22
257.323	4.36
257.698	4.42
258.073	4.38
258.448	4.25
258.823	4.24
259.198	4.31
259.573	4.3
259.948	4.07
260.322	4.1
260.697	4.28
261.072	4.34
261.446	4.46
261.821	4.5
262.195	4.51
262.57	4.46
262.944	4.67
263.319	4.74
263.693	4.58
264.067	4.96
264.442	5.01
264.816	4.9
265.19	4.8
265.564	4.91
265.938	4.7
266.313	4.59
266.687	4.47
267.061	4.29
267.435	4.5
267.809	4.57
268.183	4.67
268.556	4.16
268.93	4.08
269.304	4.03
269.678	4.07
270.051	4.23
270.425	4.02
270.799	3.88
271.172	3.84
271.546	4.1
271.919	3.83
272.293	3.79
272.666	3.86
273.04	3.86
273.413	3.76
273.787	3.81
274.16	3.75
274.533	3.91
274.906	3.95
275.279	3.83
275.653	3.72
276.026	3.74
276.399	3.86
276.772	3.96
277.145	3.82
277.518	3.55
277.891	3.29
278.263	3.55
278.636	3.64
279.009	3.55
279.382	3.51
279.755	3.4
280.127	3.3
280.5	2.99
280.872	2.85
281.245	2.9
281.617	3.08
281.99	3.11
282.362	3.02
282.735	2.93
283.107	2.87
283.479	3.08
283.852	2.95
284.224	3.06
284.596	2.95
284.968	2.8
285.34	2.91
285.713	3.03
286.085	2.93
286.457	2.91
286.829	3.04
287.201	2.96
287.572	3.12
287.944	3.27
288.316	3.51
288.688	3.79
289.06	3.8
289.431	3.81
289.803	3.87
290.175	3.89
290.546	3.92
290.918	3.94
291.289	3.9
291.661	4.07
292.032	3.92
292.403	3.91
292.775	4.22
293.146	4.32
293.517	4.31
293.889	4.31
294.26	4.26
294.631	4.11
295.002	4.08
295.373	3.91
295.744	3.83
296.115	3.9
296.486	3.77
296.857	3.81
297.228	3.57
297.599	3.5
297.97	3.63
298.34	3.79
298.711	3.79
299.082	3.8
299.452	3.7
299.823	3.78
300.194	3.79
300.564	3.69
300.935	3.61
301.305	3.56
301.676	3.43
302.046	3.34
302.416	3.41
302.787	3.39
303.157	3.51
303.527	3.52
303.897	3.4
304.267	3.42
304.637	3.41
305.008	3.73
305.378	3.69
305.748	3.59
306.117	3.45
306.487	3.55
306.857	3.55
307.227	3.54
307.597	3.5
307.967	3.46
308.336	3.43
308.706	3.47
309.076	3.57
309.445	3.74
309.815	3.78
310.184	3.73
310.554	3.86
310.923	3.79
311.293	3.84
311.662	3.92
312.031	3.87
312.401	3.64
312.77	3.49
313.139	3.62
313.508	3.51
313.877	3.65
314.246	3.66
314.616	3.58
314.985	3.54
315.353	3.58
315.722	3.72
316.091	3.86
316.46	3.68
316.829	3.6
317.198	3.67
317.567	3.86
317.935	3.94
318.304	3.97
318.672	4.25
319.041	4.15
319.41	4.02
319.778	4.04
320.147	4.24
320.515	4.25
320.883	4.04
321.252	4.17
321.62	4.12
321.988	4
322.357	4.12
322.725	4.07
323.093	3.89
323.461	3.84
323.829	3.81
324.197	3.92
324.565	3.97
324.933	3.8
325.301	3.51
325.669	3.55
326.037	3.52
326.405	3.44
326.772	3.4
327.14	3.56
327.508	3.47
327.875	3.46
328.243	3.28
328.61	3.43
328.978	3.42
329.346	3.29
329.713	3.52
330.08	3.4
330.448	3.58
330.815	3.99
331.182	3.82
331.55	3.74
331.917	3.78
332.284	3.7
332.651	3.64
333.018	3.69
333.385	3.59
333.752	3.53
334.119	3.48
334.486	3.53
334.853	3.41
335.22	3.45
335.587	3.37
335.954	3.61
336.32	3.53
336.687	3.64
337.054	3.65
337.42	3.54
337.787	3.48
338.153	3.44
338.52	3.34
338.886	3.59
339.253	3.57
339.619	3.54
339.986	3.5
340.352	3.61
340.718	3.69
341.084	3.67
341.451	3.71
341.817	3.74
342.183	3.66
342.549	3.73
342.915	3.76
343.281	3.79
343.647	3.83
344.013	3.91
344.379	3.76
344.745	3.87
345.11	3.83
345.476	3.93
345.842	3.95
346.208	3.85
346.573	3.66
346.939	3.62
347.304	3.63
347.67	3.55
348.035	3.51
348.401	3.5
348.766	3.48
349.132	3.47
349.497	3.4
349.862	3.47
350.228	3.55
350.593	3.53
350.958	3.6
351.323	3.47
351.688	3.43
352.053	3.51
352.418	3.45
352.783	3.51
353.148	3.46
353.513	3.37
353.878	3.39
354.243	3.41
354.608	3.43
354.972	3.41
355.337	3.48
355.702	3.52
356.066	3.56
356.431	3.63
356.795	3.66
357.16	3.63
357.524	3.56
357.889	3.42
358.253	3.42
358.618	3.34
358.982	3.4
359.346	3.47
359.71	3.43
360.075	3.45
360.439	3.38
360.803	3.46
361.167	3.47
361.531	3.44
361.895	3.38
362.259	3.43
362.623	3.51
362.987	3.54
363.351	3.5
363.714	3.47
364.078	3.44
364.442	3.4
364.806	3.47
365.169	3.5
365.533	3.51
365.896	3.49
366.26	3.53
366.623	3.5
366.987	3.51
367.35	3.51
367.714	3.44
368.077	3.41
368.44	3.36
368.803	3.34
369.167	3.32
369.53	3.38
369.893	3.35
370.256	3.27
370.619	3.19
370.982	3.18
371.345	3.16
371.708	3.19
372.071	3.14
372.434	3.03
372.797	3.03
373.159	2.97
373.522	2.96
373.885	2.95
374.247	2.91
374.61	2.83
374.973	2.88
375.335	2.89
375.698	2.94
376.06	2.94
376.423	3
376.785	3.07
377.147	3.15
377.51	3.17
377.872	3.22
378.234	3.29
378.596	3.29
378.958	3.3
379.321	3.24
379.683	3.3
380.045	3.42
380.407	3.44
380.769	3.42
381.13	3.44
381.492	3.45
381.854	3.51
382.216	3.62
382.578	3.61
382.939	3.65
383.301	3.61
383.663	3.6
384.024	3.52
384.386	3.5
384.747	3.44
385.109	3.42
385.47	3.39
385.832	3.38
386.193	3.35
386.554	3.3
386.916	3.31
387.277	3.24
387.638	3.16
387.999	3.18
388.36	3.24
388.721	3.23
389.082	3.24
389.443	3.22
389.804	3.13
390.165	3.14
390.526	3.15
390.887	3.16
391.248	3.16
391.609	3.17
391.969	3.15
392.33	3.13
392.691	3.11
393.051	3.08
393.412	3.12
393.772	3.17
394.133	3.19
394.493	3.17
394.854	3.17
395.214	3.2
395.574	3.16
395.935	3.19
396.295	3.18
396.655	3.15
397.015	3.15
397.376	3.18
397.736	3.15
398.096	3.15
398.456	3.15
398.816	3.15
399.176	3.15
399.535	3.12
399.895	3.17
400.255	3.19
400.615	3.21
400.975	3.19
401.334	3.18
401.694	3.21
402.054	3.28
402.413	3.29
402.773	3.3
403.132	3.32
403.492	3.3
403.851	3.32
404.211	3.32
404.57	3.31
404.929	3.28
405.288	3.28
405.648	3.26
406.007	3.27
406.366	3.26
406.725	3.26
407.084	3.3
407.443	3.27
407.802	3.27
408.161	3.27
408.52	3.28
408.879	3.27
409.238	3.25
409.596	3.23
409.955	3.23
410.314	3.23
410.673	3.23
411.031	3.23
411.39	3.27
411.748	3.3
412.107	3.31
412.465	3.34
412.824	3.33
413.182	3.35
413.54	3.35
413.899	3.39
414.257	3.42
414.615	3.39
414.974	3.4
415.332	3.39
415.69	3.37
416.048	3.36
416.406	3.33
416.764	3.33
417.122	3.3
417.48	3.3
417.838	3.27
418.195	3.25
418.553	3.24
418.911	3.21
419.269	3.19
419.626	3.17
419.984	3.15
420.342	3.14
420.699	3.12
421.057	3.13
421.414	3.12
421.772	3.11
422.129	3.11
422.486	3.1
422.844	3.09
423.201	3.09
423.558	3.07
423.915	3.07
424.273	3.05
424.63	3.08
424.987	3.07
425.344	3.09
425.701	3.09
426.058	3.09
426.415	3.09
426.772	3.1
427.128	3.12
427.485	3.13
427.842	3.13
428.199	3.13
428.555	3.11
428.912	3.11
429.269	3.08
429.625	3.09
429.982	3.09
430.338	3.11
430.695	3.1
431.051	3.13
431.407	3.16
431.764	3.18
432.12	3.17
432.476	3.17
432.832	3.15
433.189	3.16
433.545	3.16
433.901	3.17
434.257	3.16
434.613	3.14
434.969	3.14
435.325	3.15
435.681	3.16
436.036	3.18
436.392	3.18
436.748	3.19
437.104	3.18
437.459	3.19
437.815	3.18
438.171	3.19
438.526	3.2
438.882	3.19
439.237	3.18
439.593	3.15
439.948	3.16
440.304	3.15
440.659	3.14
441.014	3.15
441.369	3.13
441.725	3.13
442.08	3.14
442.435	3.17
442.79	3.15
443.145	3.15
443.5	3.13
443.855	3.12
444.21	3.1
444.565	3.11
444.92	3.1
445.275	3.09
445.629	3.08
445.984	3.08
446.339	3.07
446.693	3.06
447.048	3.07
447.403	3.07
447.757	3.07
448.112	3.07
448.466	3.08
448.82	3.08
449.175	3.07
449.529	3.08
449.883	3.03
450.238	3.04
450.592	3.03
450.946	3.03
451.3	3.05
451.654	3.06
452.008	3.06
452.362	3.06
452.716	3.06
453.07	3.07
453.424	3.07
453.778	3.09
454.132	3.1
454.486	3.12
454.839	3.11
455.193	3.11
455.547	3.13
455.9	3.12
456.254	3.14
456.607	3.14
456.961	3.14
457.314	3.18
457.668	3.18
458.021	3.18
458.375	3.17
458.728	3.16
459.081	3.18
459.434	3.17
459.787	3.18
460.141	3.18
460.494	3.19
460.847	3.17
461.2	3.17
461.553	3.17
461.906	3.16
462.259	3.16
462.611	3.18
462.964	3.18
463.317	3.17
463.67	3.17
464.022	3.19
464.375	3.18
464.728	3.17
465.08	3.15
465.433	3.17
465.785	3.18
466.138	3.2
466.49	3.18
466.843	3.19
467.195	3.2
467.547	3.22
467.899	3.23
468.252	3.24
468.604	3.23
468.956	3.25
469.308	3.26
469.66	3.27
470.012	3.26
470.364	3.24
470.716	3.25
471.068	3.24
471.42	3.22
471.772	3.23
472.123	3.23
472.475	3.23
472.827	3.23
473.178	3.24
473.53	3.22
473.882	3.23
474.233	3.22
474.585	3.22
474.936	3.21
475.288	3.19
475.639	3.21
475.99	3.19
476.342	3.21
476.693	3.21
477.044	3.22
477.395	3.22
477.746	3.21
478.097	3.21
478.448	3.21
478.8	3.22
479.15	3.19
479.501	3.17
479.852	3.17
480.203	3.17
480.554	3.15
480.905	3.17
481.255	3.19
481.606	3.19
481.957	3.19
482.307	3.17
482.658	3.18
483.009	3.19
483.359	3.19
483.709	3.18
484.06	3.17
484.41	3.18
484.761	3.18
485.111	3.19
485.461	3.19
485.811	3.19
486.162	3.19
486.512	3.2
486.862	3.22
487.212	3.23
487.562	3.22
487.912	3.24
488.262	3.23
488.612	3.22
488.961	3.22
489.311	3.23
489.661	3.24
490.011	3.22
490.36	3.22
490.71	3.23
491.06	3.24
491.409	3.25
491.759	3.25
492.108	3.26
492.458	3.25
492.807	3.26
493.157	3.27
493.506	3.27
493.855	3.28
494.204	3.27
494.554	3.27
494.903	3.28
495.252	3.28
495.601	3.28
495.95	3.28
496.299	3.3
496.648	3.29
496.997	3.31
497.346	3.34
497.695	3.34
498.043	3.35
498.392	3.33
498.741	3.34
499.09	3.33
499.438	3.33
499.787	3.34
500.135	3.33
500.484	3.32
500.832	3.34
501.181	3.35
501.529	3.37
501.878	3.39
502.226	3.38
502.574	3.41
502.923	3.41
503.271	3.4
503.619	3.41
503.967	3.39
504.315	3.39
504.663	3.39
505.011	3.41
505.359	3.37
505.707	3.37
506.055	3.38
506.403	3.35
506.751	3.34
507.098	3.33
507.446	3.34
507.794	3.37
508.141	3.37
508.489	3.36
508.837	3.34
509.184	3.34
509.531	3.34
509.879	3.32
510.226	3.34
510.574	3.35
510.921	3.35
511.268	3.36
511.616	3.37
511.963	3.35
512.31	3.38
512.657	3.38
513.004	3.37
513.351	3.35
513.698	3.38
514.045	3.38
514.392	3.41
514.739	3.42
515.086	3.42
515.432	3.42
515.779	3.43
516.126	3.45
516.473	3.45
516.819	3.43
517.166	3.45
517.512	3.43
517.859	3.42
518.205	3.42
518.552	3.42
518.898	3.42
519.245	3.45
519.591	3.43
519.937	3.46
520.283	3.49
520.629	3.5
520.976	3.52
521.322	3.54
521.668	3.53
522.014	3.54
522.36	3.52
522.706	3.52
523.052	3.53
523.398	3.52
523.743	3.53
524.089	3.55
524.435	3.55
524.781	3.56
525.126	3.57
525.472	3.57
525.817	3.56
526.163	3.57
526.509	3.57
526.854	3.57
527.199	3.58
527.545	3.58
527.89	3.59
528.235	3.58
528.581	3.57
528.926	3.56
529.271	3.56
529.616	3.56
529.961	3.55
530.306	3.55
530.651	3.56
530.996	3.56
531.341	3.58
531.686	3.58
532.031	3.59
532.376	3.59
532.721	3.58
533.065	3.59
533.41	3.59
533.755	3.58
534.099	3.59
534.444	3.58
534.788	3.57
535.133	3.59
535.477	3.59
535.822	3.61
536.166	3.61
536.51	3.61
536.855	3.61
537.199	3.6
537.543	3.62
537.887	3.61
538.231	3.59
538.576	3.58
538.92	3.57
539.264	3.56
539.608	3.57
539.951	3.57
540.295	3.57
540.639	3.59
540.983	3.6
541.327	3.58
541.671	3.58
542.014	3.58
542.358	3.56
542.701	3.57
543.045	3.58
543.389	3.58
543.732	3.59
544.075	3.6
544.419	3.61
544.762	3.6
545.105	3.6
545.449	3.61
545.792	3.64
546.135	3.64
546.478	3.66
546.821	3.67
547.165	3.68
547.508	3.7
547.851	3.69
548.194	3.7
548.536	3.72
548.879	3.74
549.222	3.75
549.565	3.75
549.908	3.74
550.25	3.72
550.593	3.73
550.936	3.74
551.278	3.76
551.621	3.76
551.963	3.79
552.306	3.79
552.648	3.79
552.991	3.77
553.333	3.76
553.675	3.76
554.017	3.76
554.36	3.77
554.702	3.75
555.044	3.75
555.386	3.73
555.728	3.71
556.07	3.68
556.412	3.68
556.754	3.69
557.096	3.71
557.438	3.7
557.78	3.73
558.121	3.71
558.463	3.71
558.805	3.72
559.147	3.71
559.488	3.74
559.83	3.73
560.171	3.74
560.513	3.75
560.854	3.73
561.196	3.76
561.537	3.77
561.878	3.8
562.22	3.8
562.561	3.78
562.902	3.8
563.243	3.79
563.584	3.8
563.925	3.83
564.266	3.78
564.607	3.78
564.948	3.74
565.289	3.76
565.63	3.75
565.971	3.77
566.312	3.78
566.653	3.77
566.993	3.74
567.334	3.73
567.675	3.73
568.015	3.72
568.356	3.72
568.696	3.74
569.037	3.72
569.377	3.7
569.718	3.72
570.058	3.71
570.398	3.74
570.739	3.74
571.079	3.72
571.419	3.74
571.759	3.75
572.099	3.76
572.439	3.75
572.779	3.77
573.119	3.73
573.459	3.7
573.799	3.7
574.139	3.73
574.479	3.73
574.819	3.74
575.158	3.75
575.498	3.72
575.838	3.69
576.177	3.7
576.517	3.69
576.856	3.7
577.196	3.73
577.535	3.7
577.875	3.7
578.214	3.72
578.553	3.7
578.893	3.7
579.232	3.73
579.571	3.77
579.91	3.76
580.25	3.8
580.589	3.86
580.928	3.84
581.267	3.81
581.606	3.83
581.945	3.84
582.283	3.83
582.622	3.85
582.961	3.84
583.3	3.84
583.639	3.92
583.977	3.94
584.316	3.91
584.654	3.96
584.993	3.92
585.332	3.87
585.67	3.91
586.008	3.91
586.347	3.86
586.685	3.81
587.024	3.83
587.362	3.78
587.7	3.78
588.038	3.83
588.376	3.86
588.715	3.84
589.053	3.82
589.391	3.83
589.729	3.84
590.067	3.87
590.404	3.86
590.742	3.87
591.08	3.88
591.418	3.88
591.756	3.87
592.093	3.92
592.431	3.97
592.769	3.97
593.106	3.92
593.444	3.97
593.781	3.98
594.119	3.96
594.456	3.99
594.793	3.96
595.131	3.92
595.468	3.93
595.805	3.93
596.143	3.95
596.48	3.94
596.817	3.93
597.154	3.91
597.491	3.9
597.828	3.88
598.165	3.85
598.502	3.88
598.839	3.86
599.176	3.83
599.512	3.81
599.849	3.81
600.186	3.85
600.523	3.86
600.859	3.86
601.196	3.87
601.532	3.87
601.869	3.84
602.205	3.84
602.542	3.86
602.878	3.88
603.215	3.88
603.551	3.87
603.887	3.9
604.223	3.88
604.56	3.92
604.896	3.96
605.232	3.97
605.568	3.96
605.904	3.94
606.24	3.93
606.576	3.95
606.912	3.95
607.248	3.98
607.583	3.99
607.919	3.99
608.255	4.02
608.591	4.07
608.926	4.12
609.262	4.14
609.597	4.12
609.933	4.11
610.268	4.14
610.604	4.17
610.939	4.17
611.275	4.18
611.61	4.13
611.945	4.08
612.281	4.09
612.616	4.13
612.951	4.18
613.286	4.21
613.621	4.24
613.956	4.31
614.291	4.29
614.626	4.29
614.961	4.31
615.296	4.27
615.631	4.24
615.966	4.2
616.3	4.22
616.635	4.26
616.97	4.28
617.304	4.29
617.639	4.29
617.973	4.28
618.308	4.29
618.642	4.32
618.977	4.33
619.311	4.31
619.646	4.3
619.98	4.3
620.314	4.33
620.648	4.3
620.983	4.2
621.317	4.23
621.651	4.18
621.985	4.15
622.319	4.14
622.653	4.18
622.987	4.19
623.321	4.19
623.655	4.2
623.988	4.22
624.322	4.19
624.656	4.23
624.99	4.22
625.323	4.28
625.657	4.32
625.99	4.34
626.324	4.36
626.657	4.35
626.991	4.37
627.324	4.34
627.658	4.36
627.991	4.45
628.324	4.45
628.657	4.49
628.991	4.5
629.324	4.53
629.657	4.46
629.99	4.47
630.323	4.44
630.656	4.42
630.989	4.4
631.322	4.35
631.655	4.3
631.987	4.34
632.32	4.31
632.653	4.3
632.986	4.31
633.318	4.25
633.651	4.22
633.984	4.2
634.316	4.23
634.649	4.22
634.981	4.18
635.313	4.15
635.646	4.08
635.978	4.09
636.31	4.08
636.643	4.09
636.975	4.1
637.307	4.14
637.639	4.15
637.971	4.15
638.303	4.16
638.635	4.16
638.967	4.13
639.299	4.16
639.631	4.15
639.963	4.15
640.295	4.15
640.626	4.22
640.958	4.21
641.29	4.23
641.621	4.23
641.953	4.11
642.285	4.21
642.616	4.28
642.948	4.26
643.279	4.28
643.61	4.36
643.942	4.34
644.273	4.34
644.604	4.38
644.936	4.42
645.267	4.48
645.598	4.47
645.929	4.44
646.26	4.39
646.591	4.41
646.922	4.42
647.253	4.49
647.584	4.39
647.915	4.38
648.245	4.37
648.576	4.4
648.907	4.46
649.238	4.38
649.568	4.38
649.899	4.41
650.229	4.42
650.56	4.39
650.89	4.44
651.221	4.45
651.551	4.4
651.882	4.3
652.212	4.28
652.542	4.32
652.872	4.37
653.203	4.41
653.533	4.44
653.863	4.46
654.193	4.37
654.523	4.36
654.853	4.42
655.183	4.38
655.513	4.37
655.843	4.45
656.172	4.56
656.502	4.51
656.832	4.43
657.162	4.36
657.491	4.35
657.821	4.26
658.15	4.22
658.48	4.18
658.809	4.26
659.139	4.27
659.468	4.24
659.798	4.25
660.127	4.25
660.456	4.28
660.785	4.2
661.115	4.23
661.444	4.31
661.773	4.33
662.102	4.28
662.431	4.33
662.76	4.28
663.089	4.24
663.418	4.25
663.747	4.32
664.076	4.3
664.404	4.36
664.733	4.44
665.062	4.48
665.39	4.55
665.719	4.53
666.048	4.56
666.376	4.59
666.705	4.58
667.033	4.53
667.362	4.42
667.69	4.45
668.018	4.54
668.347	4.45
668.675	4.39
669.003	4.49
669.331	4.42
669.659	4.42
669.987	4.48
670.315	4.47
670.643	4.48
670.971	4.62
671.299	4.64
671.627	4.7
671.955	4.67
672.283	4.57
672.61	4.63
672.938	4.66
673.266	4.66
673.593	4.51
673.921	4.53
674.249	4.59
674.576	4.63
674.904	4.61
675.231	4.64
675.558	4.68
675.886	4.65
676.213	4.68
676.54	4.61
676.867	4.51
677.195	4.61
677.522	4.63
677.849	4.64
678.176	4.57
678.503	4.49
678.83	4.54
