Data from BA51245_Reflection_00009.txt Node
Date: Tue Nov 19 11:51:50 EST 2019
User: vgr7
Spectrometer: USB2G7710
Scans to average: 3
Trigger mode: 4
Integration Time (sec): 2.000000E-2
Electric dark correction enabled: true
Boxcar width: 10
XAxis mode: Wavelengths
Number of Pixels in Spectrum: 2048
>>>>>Begin Spectral Data<<<<<
177.721	-187.44
178.105	-3.17
178.488	87.92
178.871	-79.63
179.254	38.6
179.636	101.42
180.019	-320.63
180.402	23.81
180.785	-770.37
181.168	-405.05
181.55	-34.41
181.933	53.63
182.316	43
182.698	12.86
183.081	21.61
183.463	-0.35
183.846	-19.42
184.228	-82.73
184.611	-116.25
184.993	-146.67
185.376	8.98
185.758	-9.72
186.14	-54.32
186.522	-61.59
186.904	-42.33
187.287	-17.81
187.669	-2.69
188.051	-19.17
188.433	-1.36
188.815	-16.7
189.197	-27.62
189.579	-22.31
189.961	-6.65
190.342	-11.54
190.724	-33.93
191.106	-28.03
191.488	-43.61
191.869	-35.4
192.251	-33.28
192.633	-39.96
193.014	-49.37
193.396	-67.54
193.777	-46.87
194.159	-0.23
194.54	0.44
194.922	-19.45
195.303	-26.4
195.684	-48.27
196.065	-54.69
196.447	-66.67
196.828	-92.36
197.209	-68.86
197.59	-72.48
197.971	-66.14
198.352	-55.57
198.733	-49.03
199.114	-52.55
199.495	-43.66
199.876	-47.92
200.257	-50.9
200.638	-52.42
201.018	-55.59
201.399	-58.53
201.78	-70.86
202.16	-104.95
202.541	-118.56
202.922	-89.95
203.302	-82.52
203.683	-88.25
204.063	-89.83
204.444	-77.68
204.824	-64.4
205.204	-67.61
205.585	-45.5
205.965	-37.21
206.345	-31.38
206.725	-23.34
207.106	-15.61
207.486	-18.67
207.866	-18.79
208.246	-8.53
208.626	-15.08
209.006	-10.24
209.386	-2.83
209.766	8.46
210.145	13.26
210.525	20.14
210.905	17.86
211.285	18.16
211.664	26.07
212.044	27.94
212.424	26.61
212.803	25.49
213.183	33.48
213.562	24.83
213.942	19.73
214.321	25.22
214.701	26.83
215.08	9.93
215.459	4.26
215.838	11.43
216.218	0.34
216.597	7.16
216.976	-8.83
217.355	-9.49
217.734	-20.13
218.113	-20.32
218.492	-34.55
218.871	-41.42
219.25	-45.61
219.629	-89.33
220.008	-62.78
220.387	-36.95
220.766	-22.88
221.144	-25.28
221.523	-28.38
221.902	-31.6
222.28	-37.94
222.659	-18.96
223.037	-10.11
223.416	-0.32
223.794	-6.24
224.173	-13.85
224.551	-6.22
224.929	1.4
225.308	2.99
225.686	2.01
226.064	0.46
226.442	3.42
226.821	2.11
227.199	2.53
227.577	1.45
227.955	2.83
228.333	1.46
228.711	3.48
229.089	3.31
229.467	3.52
229.845	4.98
230.222	7.25
230.6	0.96
230.978	5.69
231.356	4.69
231.733	3.06
232.111	5.44
232.488	4.74
232.866	8.54
233.243	8.26
233.621	7.57
233.998	5.97
234.376	5.42
234.753	7.83
235.13	6.54
235.508	6.56
235.885	7.14
236.262	6.26
236.639	4.41
237.016	4
237.393	5.17
237.77	5.86
238.147	5.68
238.524	5.72
238.901	3.75
239.278	3.86
239.655	4.31
240.032	4.86
240.409	5.15
240.785	4.37
241.162	4.09
241.539	4.16
241.915	4.01
242.292	4.34
242.668	4.29
243.045	5
243.421	5.25
243.798	4.8
244.174	5.16
244.551	5.33
244.927	5.25
245.303	4.93
245.679	4.55
246.056	4.39
246.432	4.62
246.808	5.04
247.184	5.28
247.56	5.19
247.936	5.01
248.312	5.21
248.688	5.23
249.064	5.25
249.44	5.31
249.815	5.84
250.191	5.75
250.567	5.67
250.943	5.45
251.318	5.43
251.694	5.37
252.069	5.12
252.445	5.23
252.82	5.6
253.196	5.71
253.571	6.32
253.947	6.51
254.322	6.25
254.697	6.1
255.073	5.56
255.448	5.69
255.823	5.56
256.198	5.23
256.573	5.17
256.948	5.39
257.323	5.38
257.698	5.07
258.073	5.09
258.448	5.23
258.823	5.28
259.198	5.17
259.573	5.05
259.948	5.23
260.322	4.9
260.697	4.79
261.072	4.52
261.446	4.49
261.821	4.44
262.195	4.6
262.57	4.61
262.944	4.73
263.319	4.91
263.693	5.09
264.067	5.03
264.442	5.14
264.816	5.03
265.19	5.07
265.564	4.98
265.938	4.78
266.313	4.54
266.687	4.66
267.061	4.63
267.435	4.9
267.809	4.54
268.183	4.79
268.556	4.83
268.93	5.22
269.304	5.06
269.678	5.14
270.051	4.9
270.425	5.04
270.799	4.81
271.172	4.58
271.546	4.62
271.919	4.68
272.293	4.59
272.666	4.62
273.04	4.62
273.413	4.68
273.787	4.66
274.16	4.6
274.533	4.45
274.906	4.38
275.279	4.07
275.653	4.21
276.026	4.18
276.399	4.17
276.772	4.28
277.145	4.33
277.518	4.31
277.891	4.35
278.263	4.36
278.636	4.48
279.009	4.62
279.382	4.26
279.755	4.3
280.127	4.44
280.5	4.34
280.872	4.36
281.245	4.49
281.617	4.58
281.99	4.64
282.362	4.7
282.735	4.74
283.107	4.8
283.479	4.9
283.852	4.85
284.224	4.83
284.596	4.67
284.968	4.53
285.34	4.54
285.713	4.69
286.085	4.53
286.457	4.71
286.829	4.7
287.201	4.91
287.572	4.88
287.944	4.7
288.316	4.86
288.688	5.03
289.06	4.99
289.431	5.17
289.803	5.28
290.175	5.22
290.546	5.24
290.918	5.22
291.289	5.07
291.661	5.15
292.032	5.25
292.403	5.38
292.775	5.46
293.146	5.49
293.517	5.54
293.889	5.52
294.26	5.6
294.631	5.73
295.002	5.74
295.373	5.69
295.744	5.77
296.115	5.68
296.486	5.65
296.857	5.63
297.228	5.52
297.599	5.63
297.97	5.75
298.34	5.83
298.711	6.09
299.082	6.18
299.452	6.34
299.823	6.33
300.194	6.31
300.564	6.52
300.935	6.67
301.305	6.68
301.676	6.86
302.046	6.8
302.416	6.83
302.787	7.02
303.157	7.33
303.527	7.58
303.897	7.59
304.267	7.66
304.637	7.82
305.008	8.01
305.378	8.11
305.748	8.13
306.117	8.14
306.487	8.16
306.857	8.39
307.227	8.45
307.597	8.7
307.967	8.83
308.336	8.78
308.706	8.97
309.076	9.08
309.445	9.19
309.815	9.36
310.184	9.42
310.554	9.42
310.923	9.47
311.293	9.51
311.662	9.87
312.031	9.86
312.401	10.02
312.77	9.99
313.139	9.92
313.508	10.06
313.877	10.3
314.246	10.31
314.616	10.47
314.985	10.43
315.353	10.4
315.722	10.59
316.091	10.72
316.46	10.73
316.829	10.84
317.198	10.87
317.567	10.98
317.935	11.06
318.304	11.33
318.672	11.38
319.041	11.59
319.41	11.37
319.778	11.72
320.147	11.82
320.515	12.12
320.883	12.17
321.252	12.21
321.62	12.28
321.988	12.58
322.357	12.76
322.725	12.92
323.093	13.02
323.461	13.08
323.829	13.17
324.197	13.24
324.565	13.37
324.933	13.58
325.301	13.43
325.669	13.55
326.037	13.75
326.405	13.78
326.772	13.76
327.14	13.84
327.508	13.73
327.875	13.8
328.243	13.7
328.61	13.89
328.978	13.83
329.346	13.79
329.713	13.9
330.08	13.89
330.448	14.04
330.815	14.18
331.182	14.12
331.55	14.19
331.917	14.28
332.284	14.23
332.651	14.2
333.018	14.34
333.385	14.35
333.752	14.14
334.119	14.22
334.486	14.16
334.853	14.38
335.22	14.4
335.587	14.34
335.954	14.42
336.32	14.41
336.687	14.61
337.054	14.63
337.42	14.48
337.787	14.34
338.153	14.33
338.52	14.3
338.886	14.26
339.253	14.23
339.619	14.22
339.986	14.29
340.352	14.38
340.718	14.36
341.084	14.3
341.451	14.45
341.817	14.39
342.183	14.45
342.549	14.41
342.915	14.46
343.281	14.5
343.647	14.48
344.013	14.59
344.379	14.53
344.745	14.56
345.11	14.62
345.476	14.81
345.842	14.8
346.208	14.82
346.573	14.94
346.939	15.06
347.304	15.06
347.67	14.9
348.035	14.76
348.401	14.9
348.766	14.86
349.132	14.86
349.497	14.91
349.862	14.82
350.228	14.81
350.593	14.78
350.958	14.91
351.323	14.94
351.688	14.84
352.053	14.89
352.418	14.97
352.783	14.99
353.148	14.8
353.513	14.9
353.878	14.89
354.243	14.77
354.608	14.65
354.972	14.56
355.337	14.8
355.702	14.86
356.066	14.73
356.431	14.73
356.795	14.6
357.16	14.52
357.524	14.57
357.889	14.56
358.253	14.51
358.618	14.29
358.982	14.34
359.346	14.35
359.71	14.36
360.075	14.32
360.439	14.31
360.803	14.32
361.167	14.14
361.531	14.03
361.895	14.01
362.259	13.99
362.623	13.95
362.987	13.75
363.351	13.69
363.714	13.7
364.078	13.75
364.442	13.68
364.806	13.69
365.169	13.65
365.533	13.59
365.896	13.57
366.26	13.52
366.623	13.4
366.987	13.33
367.35	13.21
367.714	13.16
368.077	13.12
368.44	13.08
368.803	13.09
369.167	13.05
369.53	13.02
369.893	12.93
370.256	12.8
370.619	12.77
370.982	12.68
371.345	12.64
371.708	12.59
372.071	12.5
372.434	12.34
372.797	12.32
373.159	12.08
373.522	12
373.885	11.92
374.247	11.88
374.61	11.75
374.973	11.62
375.335	11.5
375.698	11.3
376.06	11.21
376.423	11.09
376.785	11.05
377.147	10.96
377.51	10.86
377.872	10.8
378.234	10.68
378.596	10.62
378.958	10.58
379.321	10.44
379.683	10.41
380.045	10.37
380.407	10.28
380.769	10.28
381.13	10.17
381.492	10.11
381.854	10.07
382.216	10.12
382.578	10.09
382.939	10.04
383.301	10.04
383.663	10
384.024	9.99
384.386	9.95
384.747	9.93
385.109	9.94
385.47	9.97
385.832	9.93
386.193	9.91
386.554	9.77
386.916	9.73
387.277	9.65
387.638	9.57
387.999	9.5
388.36	9.46
388.721	9.49
389.082	9.49
389.443	9.42
389.804	9.31
390.165	9.23
390.526	9.19
390.887	9.13
391.248	9.05
391.609	8.92
391.969	8.84
392.33	8.71
392.691	8.66
393.051	8.57
393.412	8.53
393.772	8.43
394.133	8.37
394.493	8.29
394.854	8.2
395.214	8.19
395.574	8.15
395.935	8.08
396.295	7.98
396.655	7.91
397.015	7.85
397.376	7.79
397.736	7.75
398.096	7.63
398.456	7.51
398.816	7.42
399.176	7.4
399.535	7.32
399.895	7.3
400.255	7.23
400.615	7.17
400.975	7.13
401.334	7.1
401.694	7.12
402.054	7.07
402.413	7.05
402.773	6.99
403.132	6.91
403.492	6.9
403.851	6.86
404.211	6.81
404.57	6.8
404.929	6.73
405.288	6.7
405.648	6.7
406.007	6.73
406.366	6.74
406.725	6.7
407.084	6.71
407.443	6.72
407.802	6.65
408.161	6.6
408.52	6.59
408.879	6.57
409.238	6.52
409.596	6.49
409.955	6.48
410.314	6.48
410.673	6.5
411.031	6.45
411.39	6.41
411.748	6.39
412.107	6.37
412.465	6.35
412.824	6.33
413.182	6.3
413.54	6.22
413.899	6.16
414.257	6.13
414.615	6.1
414.974	6.04
415.332	6.06
415.69	6.04
416.048	6.01
416.406	5.95
416.764	5.91
417.122	5.87
417.48	5.84
417.838	5.81
418.195	5.78
418.553	5.76
418.911	5.73
419.269	5.69
419.626	5.65
419.984	5.62
420.342	5.61
420.699	5.57
421.057	5.55
421.414	5.55
421.772	5.53
422.129	5.48
422.486	5.45
422.844	5.42
423.201	5.4
423.558	5.37
423.915	5.35
424.273	5.34
424.63	5.34
424.987	5.33
425.344	5.29
425.701	5.25
426.058	5.23
426.415	5.23
426.772	5.21
427.128	5.2
427.485	5.18
427.842	5.13
428.199	5.13
428.555	5.13
428.912	5.12
429.269	5.1
429.625	5.1
429.982	5.1
430.338	5.08
430.695	5.07
431.051	5.09
431.407	5.09
431.764	5.07
432.12	5.06
432.476	5.03
432.832	5.05
433.189	5.03
433.545	5.04
433.901	5.03
434.257	5.01
434.613	4.99
434.969	5
435.325	5.03
435.681	5.04
436.036	5.03
436.392	5.02
436.748	5.02
437.104	5.02
437.459	5.02
437.815	5.02
438.171	5
438.526	4.98
438.882	4.99
439.237	5
439.593	4.99
439.948	4.97
440.304	4.95
440.659	4.97
441.014	4.94
441.369	4.93
441.725	4.95
442.08	4.95
442.435	4.93
442.79	4.9
443.145	4.88
443.5	4.85
443.855	4.84
444.21	4.84
444.565	4.82
444.92	4.8
445.275	4.79
445.629	4.78
445.984	4.76
446.339	4.73
446.693	4.71
447.048	4.69
447.403	4.68
447.757	4.67
448.112	4.66
448.466	4.66
448.82	4.64
449.175	4.62
449.529	4.61
449.883	4.59
450.238	4.58
450.592	4.58
450.946	4.58
451.3	4.57
451.654	4.54
452.008	4.54
452.362	4.54
452.716	4.52
453.07	4.51
453.424	4.51
453.778	4.51
454.132	4.5
454.486	4.52
454.839	4.55
455.193	4.55
455.547	4.55
455.9	4.56
456.254	4.58
456.607	4.61
456.961	4.61
457.314	4.62
457.668	4.63
458.021	4.64
458.375	4.63
458.728	4.64
459.081	4.66
459.434	4.68
459.787	4.69
460.141	4.69
460.494	4.72
460.847	4.71
461.2	4.71
461.553	4.73
461.906	4.74
462.259	4.73
462.611	4.76
462.964	4.77
463.317	4.8
463.67	4.82
464.022	4.81
464.375	4.82
464.728	4.85
465.08	4.86
465.433	4.87
465.785	4.92
466.138	4.94
466.49	4.95
466.843	4.97
467.195	5
467.547	5.01
467.899	5.05
468.252	5.07
468.604	5.11
468.956	5.12
469.308	5.14
469.66	5.17
470.012	5.19
470.364	5.2
470.716	5.18
471.068	5.19
471.42	5.18
471.772	5.22
472.123	5.23
472.475	5.23
472.827	5.23
473.178	5.21
473.53	5.22
473.882	5.21
474.233	5.19
474.585	5.18
474.936	5.17
475.288	5.14
475.639	5.14
475.99	5.11
476.342	5.11
476.693	5.09
477.044	5.05
477.395	5.02
477.746	5
478.097	5.01
478.448	4.98
478.8	4.98
479.15	4.95
479.501	4.91
479.852	4.94
480.203	4.95
480.554	4.95
480.905	4.94
481.255	4.95
481.606	4.96
481.957	4.97
482.307	4.98
482.658	4.98
483.009	4.99
483.359	5
483.709	5
484.06	5.01
484.41	5.02
484.761	5.03
485.111	5.03
485.461	5.03
485.811	5.04
486.162	5.04
486.512	5.06
486.862	5.08
487.212	5.08
487.562	5.09
487.912	5.09
488.262	5.1
488.612	5.09
488.961	5.1
489.311	5.09
489.661	5.09
490.011	5.11
490.36	5.11
490.71	5.13
491.06	5.15
491.409	5.15
491.759	5.16
492.108	5.17
492.458	5.19
492.807	5.21
493.157	5.23
493.506	5.26
493.855	5.26
494.204	5.3
494.554	5.32
494.903	5.34
495.252	5.39
495.601	5.44
495.95	5.49
496.299	5.54
496.648	5.58
496.997	5.64
497.346	5.69
497.695	5.75
498.043	5.81
498.392	5.83
498.741	5.89
499.09	5.94
499.438	5.99
499.787	6.08
500.135	6.14
500.484	6.21
500.832	6.26
501.181	6.34
501.529	6.39
501.878	6.46
502.226	6.54
502.574	6.59
502.923	6.64
503.271	6.73
503.619	6.8
503.967	6.87
504.315	6.95
504.663	7.04
505.011	7.13
505.359	7.18
505.707	7.29
506.055	7.37
506.403	7.48
506.751	7.6
507.098	7.67
507.446	7.74
507.794	7.8
508.141	7.9
508.489	7.99
508.837	8.06
509.184	8.15
509.531	8.23
509.879	8.33
510.226	8.41
510.574	8.52
510.921	8.61
511.268	8.68
511.616	8.77
511.963	8.84
512.31	8.91
512.657	9.01
513.004	9.09
513.351	9.21
513.698	9.29
514.045	9.37
514.392	9.48
514.739	9.59
515.086	9.72
515.432	9.83
515.779	9.93
516.126	10.05
516.473	10.13
516.819	10.21
517.166	10.32
517.512	10.4
517.859	10.48
518.205	10.58
518.552	10.7
518.898	10.8
519.245	10.88
519.591	10.96
519.937	11.05
520.283	11.16
520.629	11.24
520.976	11.36
521.322	11.5
521.668	11.61
522.014	11.73
522.36	11.84
522.706	11.97
523.052	12.12
523.398	12.23
523.743	12.4
524.089	12.59
524.435	12.74
524.781	12.91
525.126	13.03
525.472	13.17
525.817	13.25
526.163	13.36
526.509	13.47
526.854	13.56
527.199	13.65
527.545	13.72
527.89	13.83
528.235	13.92
528.581	13.98
528.926	14.07
529.271	14.15
529.616	14.24
529.961	14.33
530.306	14.43
530.651	14.53
530.996	14.66
531.341	14.74
531.686	14.84
532.031	14.93
532.376	15.03
532.721	15.13
533.065	15.27
533.41	15.4
533.755	15.52
534.099	15.68
534.444	15.79
534.788	15.94
535.133	16.04
535.477	16.18
535.822	16.32
536.166	16.48
536.51	16.65
536.855	16.81
537.199	16.97
537.543	17.15
537.887	17.32
538.231	17.47
538.576	17.65
538.92	17.79
539.264	17.97
539.608	18.11
539.951	18.25
540.295	18.37
540.639	18.52
540.983	18.64
541.327	18.75
541.671	18.88
542.014	19.01
542.358	19.15
542.701	19.26
543.045	19.39
543.389	19.5
543.732	19.61
544.075	19.75
544.419	19.88
544.762	20.01
545.105	20.15
545.449	20.28
545.792	20.46
546.135	20.63
546.478	20.81
546.821	21.01
547.165	21.21
547.508	21.39
547.851	21.57
548.194	21.77
548.536	21.92
548.879	22.13
549.222	22.31
549.565	22.54
549.908	22.72
550.25	22.96
550.593	23.14
550.936	23.32
551.278	23.5
551.621	23.72
551.963	23.94
552.306	24.15
552.648	24.35
552.991	24.51
553.333	24.7
553.675	24.88
554.017	25.06
554.36	25.26
554.702	25.47
555.044	25.65
555.386	25.83
555.728	26.09
556.07	26.26
556.412	26.46
556.754	26.6
557.096	26.87
557.438	27.01
557.78	27.25
558.121	27.52
558.463	27.72
558.805	27.92
559.147	28.17
559.488	28.37
559.83	28.61
560.171	28.85
560.513	29.07
560.854	29.32
561.196	29.53
561.537	29.73
561.878	29.93
562.22	30.17
562.561	30.42
562.902	30.62
563.243	30.85
563.584	31.06
563.925	31.32
564.266	31.5
564.607	31.7
564.948	31.89
565.289	32.04
565.63	32.26
565.971	32.49
566.312	32.64
566.653	32.85
566.993	33.09
567.334	33.3
567.675	33.53
568.015	33.72
568.356	33.95
568.696	34.19
569.037	34.42
569.377	34.62
569.718	34.84
570.058	35.11
570.398	35.34
570.739	35.56
571.079	35.79
571.419	35.99
571.759	36.25
572.099	36.45
572.439	36.67
572.779	36.88
573.119	37.08
573.459	37.28
573.799	37.48
574.139	37.62
574.479	37.85
574.819	38.02
575.158	38.23
575.498	38.42
575.838	38.58
576.177	38.79
576.517	39.02
576.856	39.22
577.196	39.39
577.535	39.58
577.875	39.77
578.214	39.97
578.553	40.13
578.893	40.29
579.232	40.49
579.571	40.73
579.91	40.99
580.25	41.2
580.589	41.37
580.928	41.56
581.267	41.81
581.606	41.95
581.945	42.16
582.283	42.33
582.622	42.45
582.961	42.6
583.3	42.77
583.639	42.92
583.977	43.16
584.316	43.32
584.654	43.54
584.993	43.73
585.332	43.86
585.67	44.12
586.008	44.3
586.347	44.48
586.685	44.65
587.024	44.75
587.362	44.84
587.7	45.07
588.038	45.32
588.376	45.47
588.715	45.68
589.053	45.85
589.391	45.9
589.729	46.11
590.067	46.31
590.404	46.43
590.742	46.5
591.08	46.54
591.418	46.65
591.756	46.71
592.093	46.87
592.431	47.05
592.769	47.17
593.106	47.27
593.444	47.49
593.781	47.63
594.119	47.74
594.456	47.83
594.793	47.91
595.131	47.96
595.468	48.03
595.805	48.08
596.143	48.19
596.48	48.36
596.817	48.46
597.154	48.51
597.491	48.6
597.828	48.71
598.165	48.87
598.502	48.94
598.839	49.14
599.176	49.18
599.512	49.25
599.849	49.33
600.186	49.48
600.523	49.53
600.859	49.59
601.196	49.7
601.532	49.85
601.869	49.96
602.205	50.08
602.542	50.1
602.878	50.17
603.215	50.21
603.551	50.21
603.887	50.22
604.223	50.27
604.56	50.34
604.896	50.46
605.232	50.49
605.568	50.62
605.904	50.67
606.24	50.75
606.576	50.77
606.912	50.83
607.248	50.91
607.583	50.97
607.919	50.99
608.255	51.08
608.591	51.12
608.926	51.07
609.262	51.06
609.597	51.15
609.933	51.29
610.268	51.3
610.604	51.41
610.939	51.54
611.275	51.64
611.61	51.75
611.945	51.76
612.281	51.8
612.616	51.78
612.951	51.73
613.286	51.71
613.621	51.91
613.956	52.02
614.291	52.05
614.626	52.01
614.961	52.1
615.296	52.13
615.631	52.19
615.966	52.33
616.3	52.47
616.635	52.45
616.97	52.47
617.304	52.56
617.639	52.64
617.973	52.62
618.308	52.63
618.642	52.56
618.977	52.63
619.311	52.64
619.646	52.6
619.98	52.74
620.314	52.83
620.648	52.7
620.983	52.7
621.317	52.68
621.651	52.75
621.985	52.71
622.319	52.66
622.653	52.72
622.987	52.74
623.321	52.71
623.655	52.91
623.988	52.93
624.322	52.9
624.656	52.95
624.99	53
625.323	53.07
625.657	53.11
625.99	53.09
626.324	53.22
626.657	53.43
626.991	53.51
627.324	53.5
627.658	53.59
627.991	53.63
628.324	53.67
628.657	53.65
628.991	53.74
629.324	53.83
629.657	53.82
629.99	53.89
630.323	53.89
630.656	53.86
630.989	53.82
631.322	53.89
631.655	53.86
631.987	53.91
632.32	53.89
632.653	53.92
632.986	53.94
633.318	53.85
633.651	53.72
633.984	53.71
634.316	53.77
634.649	53.73
634.981	53.69
635.313	53.71
635.646	53.79
635.978	53.79
636.31	53.76
636.643	53.69
636.975	53.66
637.307	53.68
637.639	53.7
637.971	53.7
638.303	53.74
638.635	53.65
638.967	53.57
639.299	53.62
639.631	53.63
639.963	53.61
640.295	53.69
640.626	53.74
640.958	53.75
641.29	53.79
641.621	53.86
641.953	53.81
642.285	53.78
642.616	53.82
642.948	53.85
643.279	53.97
643.61	54.04
643.942	54.06
644.273	54.18
644.604	54.17
644.936	54.26
645.267	54.26
645.598	54.41
645.929	54.52
646.26	54.61
646.591	54.58
646.922	54.65
647.253	54.59
647.584	54.58
647.915	54.59
648.245	54.6
648.576	54.66
648.907	54.75
649.238	54.71
649.568	54.68
649.899	54.61
650.229	54.62
650.56	54.68
650.89	54.7
651.221	54.56
651.551	54.62
651.882	54.64
652.212	54.64
652.542	54.6
652.872	54.63
653.203	54.7
653.533	54.88
653.863	54.91
654.193	54.9
654.523	54.98
654.853	54.92
655.183	54.86
655.513	54.96
655.843	54.93
656.172	55.17
656.502	55.17
656.832	55.26
657.162	55.32
657.491	55.29
657.821	55.24
658.15	55.4
658.48	55.36
658.809	55.35
659.139	55.35
659.468	55.31
659.798	55.31
660.127	55.17
660.456	55.02
660.785	54.91
661.115	55.03
661.444	55.05
661.773	55.02
662.102	54.98
662.431	54.82
662.76	54.93
663.089	54.81
663.418	54.83
663.747	54.81
