Data from BA51245_Reflection_00005.txt Node
Date: Tue Nov 19 11:51:40 EST 2019
User: vgr7
Spectrometer: USB2G7710
Scans to average: 3
Trigger mode: 4
Integration Time (sec): 2.000000E-2
Electric dark correction enabled: true
Boxcar width: 10
XAxis mode: Wavelengths
Number of Pixels in Spectrum: 2048
>>>>>Begin Spectral Data<<<<<
177.721	467.15
178.105	-273.02
178.488	104.83
178.871	-31.48
179.254	19.3
179.636	68.66
180.019	639.68
180.402	35.71
180.785	-551.85
181.168	-197.98
181.55	24.73
181.933	37.34
182.316	-1.01
182.698	-89.51
183.081	-102.44
183.463	-90.23
183.846	-91.6
184.228	-217.27
184.611	-125.9
184.993	-873.33
185.376	81.09
185.758	86.6
186.14	102.47
186.522	15.4
186.904	24.87
187.287	20.41
187.669	25.93
188.051	37.23
188.433	37.23
188.815	12.39
189.197	24.8
189.579	13.37
189.961	4.34
190.342	-0.56
190.724	-22.2
191.106	-21.59
191.488	-8.81
191.869	-17.85
192.251	-8.37
192.633	-8.89
193.014	-17.1
193.396	-14.61
193.777	8.16
194.159	12.19
194.54	10.53
194.922	2.75
195.303	3.63
195.684	-5.45
196.065	-12.79
196.447	-14.65
196.828	-31.17
197.209	-35.74
197.59	-18.09
197.971	-11.99
198.352	-7.41
198.733	-13.52
199.114	-13.82
199.495	-11.11
199.876	-21.63
200.257	-36.22
200.638	-40.01
201.018	-30.2
201.399	-28.38
201.78	-31.86
202.16	-40.22
202.541	-46.8
202.922	-47.05
203.302	-33.5
203.683	-39.09
204.063	-35.7
204.444	-40.62
204.824	-36.96
205.204	-18.01
205.585	-16.4
205.965	-18.75
206.345	-26.85
206.725	-19.26
207.106	-7.93
207.486	-16.19
207.866	4.97
208.246	7.51
208.626	4.87
209.006	0.95
209.386	4.55
209.766	-0.16
210.145	7.33
210.525	3.95
210.905	8.76
211.285	-1.22
211.664	0.58
212.044	-2.78
212.424	3.48
212.803	4.29
213.183	-6.37
213.562	-7.67
213.942	-8.35
214.321	-7.92
214.701	-3.73
215.08	-15.08
215.459	-7.68
215.838	-25.36
216.218	-28.53
216.597	-30.62
216.976	-40.73
217.355	-40.08
217.734	-32.05
218.113	-31.77
218.492	-59.89
218.871	-50.81
219.25	-49.6
219.629	-86.02
220.008	-71.04
220.387	-53.41
220.766	-32.46
221.144	-38.7
221.523	-45.65
221.902	-50.75
222.28	-46.59
222.659	-37.05
223.037	-38.56
223.416	-36.52
223.794	-29.08
224.173	-34.73
224.551	-26.49
224.929	-32.3
225.308	-37.75
225.686	-31.24
226.064	-34.03
226.442	-23.67
226.821	-26.61
227.199	-23.34
227.577	-14.99
227.955	-14.51
228.333	-19.12
228.711	-19.47
229.089	-13.02
229.467	-9.52
229.845	-9.17
230.222	-3.95
230.6	-5.22
230.978	-2.3
231.356	-3.37
231.733	-0.77
232.111	0.26
232.488	1.25
232.866	5.18
233.243	5.01
233.621	2.41
233.998	1.41
234.376	2.66
234.753	4.48
235.13	4.37
235.508	3.83
235.885	5.09
236.262	4.93
236.639	7.22
237.016	6.1
237.393	5.67
237.77	8
238.147	6.22
238.524	7.02
238.901	7.22
239.278	6.84
239.655	6.62
240.032	7.27
240.409	7.01
240.785	7.02
241.162	6.79
241.539	6.9
241.915	6.6
242.292	7.04
242.668	6.52
243.045	6.5
243.421	6.72
243.798	6.46
244.174	6.76
244.551	6.43
244.927	6.21
245.303	6.2
245.679	5.83
246.056	5.89
246.432	5.46
246.808	5.36
247.184	5.57
247.56	5.39
247.936	5.32
248.312	5.48
248.688	5.03
249.064	5.13
249.44	5.1
249.815	5.19
250.191	5.02
250.567	5.17
250.943	5.02
251.318	5.03
251.694	5.18
252.069	4.86
252.445	4.78
252.82	5.04
253.196	4.9
253.571	5.1
253.947	5.01
254.322	5.44
254.697	5.69
255.073	5.57
255.448	5.59
255.823	5.34
256.198	5.21
256.573	5.25
256.948	5.52
257.323	5.31
257.698	5.38
258.073	5.11
258.448	5.06
258.823	5.22
259.198	5
259.573	4.78
259.948	4.93
260.322	4.94
260.697	5.07
261.072	5.07
261.446	4.92
261.821	4.91
262.195	4.67
262.57	4.55
262.944	4.43
263.319	4.45
263.693	4.75
264.067	4.75
264.442	4.95
264.816	4.8
265.19	4.86
265.564	4.7
265.938	5.12
266.313	4.93
266.687	4.84
267.061	4.85
267.435	4.91
267.809	4.85
268.183	4.69
268.556	4.59
268.93	4.86
269.304	4.85
269.678	4.86
270.051	4.77
270.425	4.64
270.799	4.6
271.172	4.68
271.546	4.63
271.919	4.56
272.293	4.66
272.666	4.7
273.04	4.69
273.413	4.71
273.787	4.47
274.16	4.48
274.533	4.54
274.906	4.61
275.279	4.67
275.653	4.67
276.026	4.77
276.399	4.46
276.772	4.32
277.145	4.35
277.518	4.41
277.891	4.59
278.263	4.71
278.636	4.73
279.009	4.59
279.382	4.34
279.755	4.39
280.127	4.28
280.5	4.22
280.872	4.19
281.245	4.23
281.617	4.36
281.99	4.54
282.362	4.41
282.735	4.24
283.107	4.1
283.479	4.06
283.852	4.07
284.224	4.46
284.596	4.41
284.968	4.44
285.34	4.52
285.713	4.52
286.085	4.36
286.457	4.62
286.829	4.7
287.201	4.68
287.572	4.66
287.944	4.72
288.316	4.69
288.688	4.75
289.06	4.67
289.431	4.63
289.803	4.56
290.175	4.74
290.546	4.7
290.918	4.88
291.289	4.81
291.661	4.91
292.032	4.67
292.403	4.73
292.775	4.71
293.146	4.64
293.517	4.44
293.889	4.46
294.26	4.23
294.631	4.27
295.002	4.52
295.373	4.46
295.744	4.49
296.115	4.56
296.486	4.51
296.857	4.69
297.228	4.4
297.599	4.34
297.97	4.38
298.34	4.4
298.711	4.25
299.082	4.28
299.452	4.1
299.823	4.08
300.194	4.14
300.564	4.03
300.935	4.06
301.305	4.28
301.676	4.34
302.046	4.44
302.416	4.45
302.787	4.3
303.157	4.44
303.527	4.39
303.897	4.34
304.267	4.3
304.637	4.02
305.008	4.23
305.378	4.33
305.748	4.28
306.117	4.41
306.487	4.54
306.857	4.59
307.227	4.67
307.597	4.69
307.967	4.48
308.336	4.56
308.706	4.55
309.076	4.55
309.445	4.59
309.815	4.6
310.184	4.5
310.554	4.53
310.923	4.33
311.293	4.3
311.662	4.25
312.031	4.25
312.401	4.28
312.77	4.45
313.139	4.46
313.508	4.39
313.877	4.42
314.246	4.3
314.616	4.25
314.985	4.22
315.353	4.15
315.722	4.35
316.091	4.32
316.46	4.21
316.829	4.02
317.198	4.11
317.567	4.11
317.935	4
318.304	4.02
318.672	4.12
319.041	4.12
319.41	4.05
319.778	4.2
320.147	4.37
320.515	4.28
320.883	4.12
321.252	4.12
321.62	4.08
321.988	4.26
322.357	4.35
322.725	4.42
323.093	4.45
323.461	4.46
323.829	4.59
324.197	4.73
324.565	4.79
324.933	4.67
325.301	4.49
325.669	4.48
326.037	4.51
326.405	4.44
326.772	4.44
327.14	4.49
327.508	4.22
327.875	4.18
328.243	4.11
328.61	4.1
328.978	4.14
329.346	4.12
329.713	4.12
330.08	4.13
330.448	4.1
330.815	4.07
331.182	3.95
331.55	3.75
331.917	3.64
332.284	3.79
332.651	3.73
333.018	3.7
333.385	3.79
333.752	3.68
334.119	3.79
334.486	3.75
334.853	3.86
335.22	3.95
335.587	3.85
335.954	3.91
336.32	3.97
336.687	4.01
337.054	4
337.42	4.01
337.787	3.93
338.153	3.92
338.52	4.03
338.886	4
339.253	4
339.619	4.06
339.986	3.9
340.352	3.95
340.718	4.06
341.084	4.08
341.451	4.16
341.817	4.25
342.183	4.3
342.549	4.28
342.915	4.52
343.281	4.61
343.647	4.56
344.013	4.46
344.379	4.34
344.745	4.41
345.11	4.18
345.476	4.32
345.842	4.21
346.208	4.21
346.573	4.18
346.939	4.26
347.304	4.17
347.67	4.19
348.035	4.1
348.401	4.16
348.766	4.18
349.132	4.17
349.497	4.17
349.862	4.06
350.228	4.03
350.593	3.84
350.958	3.9
351.323	3.88
351.688	4.05
352.053	4.04
352.418	4
352.783	4.01
353.148	3.91
353.513	4.05
353.878	3.99
354.243	4
354.608	4
354.972	4.05
355.337	4.14
355.702	4.27
356.066	4.26
356.431	4.21
356.795	4.16
357.16	4.07
357.524	4.1
357.889	4.07
358.253	4.14
358.618	4.11
358.982	4.18
359.346	4.21
359.71	4.19
360.075	4.24
360.439	4.32
360.803	4.31
361.167	4.22
361.531	4.31
361.895	4.4
362.259	4.43
362.623	4.44
362.987	4.39
363.351	4.33
363.714	4.29
364.078	4.29
364.442	4.33
364.806	4.34
365.169	4.3
365.533	4.39
365.896	4.36
366.26	4.29
366.623	4.25
366.987	4.17
367.35	4.23
367.714	4.27
368.077	4.22
368.44	4.25
368.803	4.28
369.167	4.25
369.53	4.17
369.893	4.16
370.256	4.13
370.619	4.16
370.982	4.15
371.345	4.18
371.708	4.19
372.071	4.11
372.434	4.1
372.797	4.12
373.159	4.03
373.522	3.99
373.885	4.02
374.247	3.94
374.61	3.93
374.973	3.89
375.335	3.85
375.698	3.86
376.06	3.87
376.423	3.93
376.785	3.87
377.147	3.87
377.51	3.83
377.872	3.85
378.234	3.84
378.596	3.86
378.958	3.89
379.321	3.91
379.683	3.97
380.045	3.98
380.407	4.03
380.769	4.02
381.13	4.03
381.492	4.01
381.854	4.11
382.216	4.16
382.578	4.24
382.939	4.25
383.301	4.28
383.663	4.23
384.024	4.19
384.386	4.26
384.747	4.25
385.109	4.29
385.47	4.3
385.832	4.29
386.193	4.29
386.554	4.2
386.916	4.2
387.277	4.12
387.638	4.17
387.999	4.16
388.36	4.21
388.721	4.25
389.082	4.28
389.443	4.24
389.804	4.2
390.165	4.15
390.526	4.15
390.887	4.16
391.248	4.19
391.609	4.18
391.969	4.14
392.33	4.15
392.691	4.09
393.051	4.06
393.412	4.04
393.772	4.04
394.133	4.04
394.493	4
394.854	4.03
395.214	3.99
395.574	3.97
395.935	3.96
396.295	3.91
396.655	3.87
397.015	3.89
397.376	3.92
397.736	3.91
398.096	3.87
398.456	3.84
398.816	3.81
399.176	3.78
399.535	3.78
399.895	3.79
400.255	3.83
400.615	3.88
400.975	3.85
401.334	3.86
401.694	3.91
402.054	3.97
402.413	3.97
402.773	3.97
403.132	3.96
403.492	3.97
403.851	3.98
404.211	3.99
404.57	3.97
404.929	3.94
405.288	3.98
405.648	3.98
406.007	4
406.366	4.01
406.725	4.02
407.084	4.02
407.443	4.01
407.802	4.02
408.161	3.98
408.52	4.03
408.879	4.01
409.238	4
409.596	3.96
409.955	3.94
410.314	3.96
410.673	3.97
411.031	3.92
411.39	3.94
411.748	3.95
412.107	3.97
412.465	3.94
412.824	3.87
413.182	3.86
413.54	3.87
413.899	3.86
414.257	3.88
414.615	3.85
414.974	3.88
415.332	3.88
415.69	3.88
416.048	3.89
416.406	3.89
416.764	3.88
417.122	3.88
417.48	3.92
417.838	3.89
418.195	3.9
418.553	3.91
418.911	3.9
419.269	3.88
419.626	3.88
419.984	3.91
420.342	3.93
420.699	3.91
421.057	3.91
421.414	3.92
421.772	3.93
422.129	3.93
422.486	3.92
422.844	3.91
423.201	3.92
423.558	3.92
423.915	3.93
424.273	3.93
424.63	3.96
424.987	3.94
425.344	3.95
425.701	3.95
426.058	3.96
426.415	3.95
426.772	3.98
427.128	4
427.485	3.98
427.842	3.99
428.199	4.01
428.555	3.98
428.912	3.97
429.269	3.96
429.625	3.98
429.982	3.98
430.338	3.98
430.695	3.96
431.051	3.95
431.407	3.93
431.764	3.92
432.12	3.9
432.476	3.89
432.832	3.9
433.189	3.87
433.545	3.85
433.901	3.86
434.257	3.87
434.613	3.83
434.969	3.82
435.325	3.83
435.681	3.83
436.036	3.84
436.392	3.86
436.748	3.86
437.104	3.86
437.459	3.84
437.815	3.85
438.171	3.85
438.526	3.85
438.882	3.84
439.237	3.83
439.593	3.83
439.948	3.85
440.304	3.85
440.659	3.87
441.014	3.88
441.369	3.87
441.725	3.86
442.08	3.87
442.435	3.88
442.79	3.87
443.145	3.88
443.5	3.88
443.855	3.86
444.21	3.85
444.565	3.84
444.92	3.85
445.275	3.83
445.629	3.84
445.984	3.84
446.339	3.85
446.693	3.87
447.048	3.86
447.403	3.85
447.757	3.84
448.112	3.82
448.466	3.84
448.82	3.85
449.175	3.84
449.529	3.85
449.883	3.83
450.238	3.83
450.592	3.81
450.946	3.81
451.3	3.83
451.654	3.84
452.008	3.84
452.362	3.85
452.716	3.84
453.07	3.81
453.424	3.81
453.778	3.8
454.132	3.82
454.486	3.84
454.839	3.83
455.193	3.82
455.547	3.83
455.9	3.79
456.254	3.8
456.607	3.79
456.961	3.79
457.314	3.76
457.668	3.77
458.021	3.76
458.375	3.75
458.728	3.76
459.081	3.75
459.434	3.76
459.787	3.78
460.141	3.78
460.494	3.8
460.847	3.8
461.2	3.79
461.553	3.79
461.906	3.77
462.259	3.76
462.611	3.77
462.964	3.76
463.317	3.79
463.67	3.79
464.022	3.81
464.375	3.83
464.728	3.86
465.08	3.88
465.433	3.89
465.785	3.91
466.138	3.89
466.49	3.91
466.843	3.93
467.195	3.9
467.547	3.93
467.899	3.95
468.252	3.96
468.604	3.97
468.956	3.96
469.308	3.97
469.66	4
470.012	3.99
470.364	4.01
470.716	4.03
471.068	4.02
471.42	4
471.772	3.99
472.123	3.99
472.475	4
472.827	4.02
473.178	4.03
473.53	4.02
473.882	4.01
474.233	4
474.585	4.01
474.936	4
475.288	3.96
475.639	3.98
475.99	3.99
476.342	4
476.693	4.01
477.044	3.99
477.395	3.98
477.746	3.97
478.097	3.92
478.448	3.93
478.8	3.93
479.15	3.92
479.501	3.92
479.852	3.92
480.203	3.9
480.554	3.89
480.905	3.91
481.255	3.91
481.606	3.91
481.957	3.91
482.307	3.9
482.658	3.92
483.009	3.92
483.359	3.93
483.709	3.93
484.06	3.94
484.41	3.94
484.761	3.95
485.111	3.95
485.461	3.95
485.811	3.95
486.162	3.96
486.512	3.96
486.862	3.97
487.212	3.97
487.562	3.97
487.912	3.98
488.262	3.98
488.612	3.98
488.961	3.99
489.311	3.98
489.661	3.98
490.011	3.98
490.36	3.98
490.71	3.98
491.06	3.97
491.409	3.95
491.759	3.97
492.108	3.98
492.458	3.98
492.807	4
493.157	4.02
493.506	4
493.855	3.99
494.204	3.98
494.554	3.99
494.903	3.98
495.252	3.98
495.601	3.98
495.95	3.98
496.299	3.98
496.648	4
496.997	4.02
497.346	4
497.695	4
498.043	4.02
498.392	4.03
498.741	4.07
499.09	4.05
499.438	4.06
499.787	4.07
500.135	4.05
500.484	4.06
500.832	4.11
501.181	4.13
501.529	4.16
501.878	4.16
502.226	4.2
502.574	4.2
502.923	4.22
503.271	4.21
503.619	4.22
503.967	4.2
504.315	4.17
504.663	4.17
505.011	4.18
505.359	4.16
505.707	4.16
506.055	4.15
506.403	4.14
506.751	4.14
507.098	4.16
507.446	4.14
507.794	4.13
508.141	4.13
508.489	4.13
508.837	4.11
509.184	4.08
509.531	4.06
509.879	4.07
510.226	4.05
510.574	4.06
510.921	4.06
511.268	4.08
511.616	4.1
511.963	4.11
512.31	4.11
512.657	4.11
513.004	4.1
513.351	4.11
513.698	4.11
514.045	4.11
514.392	4.08
514.739	4.1
515.086	4.1
515.432	4.1
515.779	4.1
516.126	4.13
516.473	4.16
516.819	4.16
517.166	4.18
517.512	4.18
517.859	4.17
518.205	4.16
518.552	4.18
518.898	4.18
519.245	4.2
519.591	4.21
519.937	4.2
520.283	4.23
520.629	4.22
520.976	4.23
521.322	4.23
521.668	4.25
522.014	4.28
522.36	4.29
522.706	4.28
523.052	4.29
523.398	4.28
523.743	4.27
524.089	4.31
524.435	4.31
524.781	4.34
525.126	4.36
525.472	4.37
525.817	4.38
526.163	4.4
526.509	4.4
526.854	4.4
527.199	4.41
527.545	4.41
527.89	4.4
528.235	4.41
528.581	4.42
528.926	4.43
529.271	4.41
529.616	4.41
529.961	4.42
530.306	4.42
530.651	4.42
530.996	4.43
531.341	4.43
531.686	4.44
532.031	4.45
532.376	4.45
532.721	4.47
533.065	4.47
533.41	4.45
533.755	4.47
534.099	4.47
534.444	4.46
534.788	4.46
535.133	4.47
535.477	4.46
535.822	4.46
536.166	4.47
536.51	4.47
536.855	4.46
537.199	4.46
537.543	4.44
537.887	4.45
538.231	4.44
538.576	4.44
538.92	4.44
539.264	4.43
539.608	4.42
539.951	4.42
540.295	4.42
540.639	4.44
540.983	4.43
541.327	4.46
541.671	4.47
542.014	4.49
542.358	4.48
542.701	4.49
543.045	4.48
543.389	4.48
543.732	4.48
544.075	4.5
544.419	4.51
544.762	4.52
545.105	4.52
545.449	4.53
545.792	4.53
546.135	4.54
546.478	4.54
546.821	4.55
547.165	4.54
547.508	4.55
547.851	4.52
548.194	4.5
548.536	4.46
548.879	4.47
549.222	4.46
549.565	4.48
549.908	4.47
550.25	4.49
550.593	4.5
550.936	4.53
551.278	4.52
551.621	4.53
551.963	4.56
552.306	4.56
552.648	4.54
552.991	4.54
553.333	4.53
553.675	4.55
554.017	4.53
554.36	4.55
554.702	4.51
555.044	4.5
555.386	4.51
555.728	4.55
556.07	4.53
556.412	4.52
556.754	4.52
557.096	4.54
557.438	4.52
557.78	4.5
558.121	4.49
558.463	4.53
558.805	4.51
559.147	4.47
559.488	4.46
559.83	4.52
560.171	4.52
560.513	4.51
560.854	4.52
561.196	4.54
561.537	4.5
561.878	4.55
562.22	4.59
562.561	4.59
562.902	4.56
563.243	4.58
563.584	4.58
563.925	4.61
564.266	4.6
564.607	4.62
564.948	4.63
565.289	4.62
565.63	4.58
565.971	4.63
566.312	4.64
566.653	4.65
566.993	4.6
567.334	4.63
567.675	4.66
568.015	4.62
568.356	4.57
568.696	4.6
569.037	4.61
569.377	4.6
569.718	4.6
570.058	4.6
570.398	4.61
570.739	4.62
571.079	4.59
571.419	4.57
571.759	4.58
572.099	4.56
572.439	4.55
572.779	4.57
573.119	4.53
573.459	4.53
573.799	4.56
574.139	4.56
574.479	4.53
574.819	4.5
575.158	4.56
575.498	4.61
575.838	4.62
576.177	4.59
576.517	4.58
576.856	4.58
577.196	4.61
577.535	4.58
577.875	4.55
578.214	4.56
578.553	4.58
578.893	4.6
579.232	4.6
579.571	4.64
579.91	4.64
580.25	4.64
580.589	4.61
580.928	4.62
581.267	4.64
581.606	4.63
581.945	4.64
582.283	4.62
582.622	4.62
582.961	4.57
583.3	4.6
583.639	4.61
583.977	4.62
584.316	4.57
584.654	4.6
584.993	4.59
585.332	4.59
585.67	4.56
586.008	4.49
586.347	4.51
586.685	4.48
587.024	4.47
587.362	4.47
587.7	4.51
588.038	4.52
588.376	4.48
588.715	4.53
589.053	4.46
589.391	4.5
589.729	4.48
590.067	4.46
590.404	4.46
590.742	4.44
591.08	4.43
591.418	4.46
591.756	4.48
592.093	4.5
592.431	4.51
592.769	4.56
593.106	4.6
593.444	4.6
593.781	4.61
594.119	4.61
594.456	4.62
594.793	4.59
595.131	4.6
595.468	4.61
595.805	4.62
596.143	4.7
596.48	4.67
596.817	4.72
597.154	4.76
597.491	4.75
597.828	4.74
598.165	4.75
598.502	4.71
598.839	4.71
599.176	4.72
599.512	4.73
599.849	4.73
600.186	4.71
600.523	4.7
600.859	4.72
601.196	4.71
601.532	4.73
601.869	4.75
602.205	4.73
602.542	4.76
602.878	4.79
603.215	4.75
603.551	4.74
603.887	4.68
604.223	4.66
604.56	4.65
604.896	4.66
605.232	4.66
605.568	4.7
605.904	4.66
606.24	4.68
606.576	4.7
606.912	4.66
607.248	4.69
607.583	4.7
607.919	4.69
608.255	4.66
608.591	4.67
608.926	4.66
609.262	4.67
609.597	4.66
609.933	4.61
610.268	4.66
610.604	4.67
610.939	4.76
611.275	4.8
611.61	4.81
611.945	4.81
612.281	4.82
612.616	4.85
612.951	4.9
613.286	4.87
613.621	4.85
613.956	4.91
614.291	4.91
614.626	4.86
614.961	4.83
615.296	4.88
615.631	4.9
615.966	4.9
616.3	4.9
616.635	4.9
616.97	4.88
617.304	4.82
617.639	4.8
617.973	4.68
618.308	4.65
618.642	4.61
618.977	4.66
619.311	4.7
619.646	4.68
619.98	4.69
620.314	4.7
620.648	4.72
620.983	4.72
621.317	4.76
621.651	4.81
621.985	4.85
622.319	4.86
622.653	4.86
622.987	4.84
623.321	4.82
623.655	4.82
623.988	4.81
624.322	4.82
624.656	4.81
624.99	4.86
625.323	4.85
625.657	4.9
625.99	4.88
626.324	4.86
626.657	4.84
626.991	4.78
627.324	4.74
627.658	4.75
627.991	4.79
628.324	4.73
628.657	4.7
628.991	4.7
629.324	4.68
629.657	4.65
629.99	4.66
630.323	4.68
630.656	4.63
630.989	4.67
631.322	4.65
631.655	4.63
631.987	4.59
632.32	4.62
632.653	4.6
632.986	4.56
633.318	4.59
633.651	4.61
633.984	4.63
634.316	4.68
634.649	4.64
634.981	4.56
635.313	4.56
635.646	4.59
635.978	4.62
636.31	4.61
636.643	4.63
636.975	4.62
637.307	4.63
637.639	4.67
637.971	4.62
638.303	4.6
638.635	4.66
638.967	4.75
639.299	4.76
639.631	4.78
639.963	4.81
640.295	4.8
640.626	4.73
640.958	4.77
641.29	4.69
641.621	4.69
641.953	4.7
642.285	4.73
642.616	4.73
642.948	4.71
643.279	4.73
643.61	4.76
643.942	4.82
644.273	4.86
644.604	4.93
644.936	4.97
645.267	5.06
645.598	5.11
645.929	5.11
646.26	5.13
646.591	5.18
646.922	5.23
647.253	5.17
647.584	5.25
647.915	5.22
648.245	5.31
648.576	5.35
648.907	5.36
649.238	5.3
649.568	5.22
649.899	5.15
650.229	5.13
650.56	5.07
650.89	5.02
651.221	4.93
651.551	4.86
651.882	4.88
652.212	4.85
652.542	4.83
652.872	4.74
653.203	4.71
653.533	4.71
653.863	4.68
654.193	4.72
654.523	4.71
654.853	4.75
655.183	4.69
655.513	4.76
655.843	4.74
656.172	4.78
656.502	4.79
656.832	4.89
657.162	4.85
657.491	4.9
657.821	4.88
658.15	4.98
658.48	5.09
658.809	5.1
659.139	5.13
659.468	5.13
659.798	5.23
660.127	5.24
660.456	5.16
660.785	5.15
661.115	5.12
661.444	5.11
661.773	5.17
662.102	5.17
662.431	5.19
662.76	5.2
663.089	5.26
663.418	5.31
663.747	5.29
664.076	5.29
664.404	5.34
664.733	5.42
665.062	5.42
665.39	5.34
665.719	5.32
666.048	5.32
666.376	5.36
666.705	5.27
667.033	5.25
667.362	5.25
667.69	5.31
668.018	5.42
668.347	5.43
668.675	5.39
669.003	5.46
669.331	5.45
669.659	5.57
669.987	5.53
670.315	5.58
670.643	5.56
670.971	5.58
671.299	5.54
671.627	5.53
671.955	5.39
672.283	5.37
672.61	5.4
672.938	5.44
673.266	5.43
673.593	5.43
673.921	5.51
674.249	5.5
674.576	5.44
674.904	5.34
675.231	5.42
675.558	5.43
675.886	5.35
676.213	5.28
676.54	5.28
676.867	5.25
677.195	5.29
677.522	5.22
677.849	5.34
678.176	5.36
678.503	5.27
678.83	5.32
679.157	5.27
679.484	5.19
