Data from BA51068_Reflection_00005.txt Node
Date: Tue Nov 19 11:58:58 EST 2019
User: vgr7
Spectrometer: USB2G7710
Scans to average: 3
Trigger mode: 4
Integration Time (sec): 2.000000E-2
Electric dark correction enabled: true
Boxcar width: 10
XAxis mode: Wavelengths
Number of Pixels in Spectrum: 2048
>>>>>Begin Spectral Data<<<<<
177.721	-7.1
178.105	31.03
178.488	25.05
178.871	65.45
179.254	-2700
179.636	64.29
180.019	-185.2
180.402	133.33
180.785	-31.76
181.168	-22.88
181.55	253.85
181.933	96.14
182.316	-31.37
182.698	-28.59
183.081	-87.62
183.463	-96.03
183.846	-801.64
184.228	84.31
184.611	93.95
184.993	73.51
185.376	21.67
185.758	9.19
186.14	44.35
186.522	11.08
186.904	16.48
187.287	26.29
187.669	45.7
188.051	78.76
188.433	34.63
188.815	82.65
189.197	75.13
189.579	44.01
189.961	52.19
190.342	21.64
190.724	6.36
191.106	4.32
191.488	30.57
191.869	56.82
192.251	129.37
192.633	168.8
193.014	267.24
193.396	3665.22
193.777	326.01
194.159	241.53
194.54	441.3
194.922	237.52
195.303	292.41
195.684	298.3
196.065	271.99
196.447	349.36
196.828	261.1
197.209	242.51
197.59	912.08
197.971	-1611.34
198.352	-567.75
198.733	-414.81
199.114	-592.58
199.495	-900
199.876	-366.47
200.257	-110.53
200.638	-175.69
201.018	-371.76
201.399	-526.73
201.78	-1637.7
202.16	2700
202.541	1744.07
202.922	405.44
203.302	670.09
203.683	-589.66
204.063	-300
204.444	-428.38
204.824	-504.26
205.204	-615.42
205.585	-999.17
205.965	-1736.07
206.345	531.47
206.725	450.6
207.106	1091.6
207.486	287.63
207.866	233.61
208.246	140.99
208.626	111.79
209.006	122.66
209.386	63.87
209.766	80.43
210.145	84.16
210.525	83.41
210.905	78.88
211.285	79.39
211.664	65.22
212.044	58.43
212.424	46.56
212.803	38.55
213.183	41.68
213.562	41.51
213.942	32.21
214.321	28.22
214.701	27.66
215.08	29.52
215.459	33.25
215.838	37.01
216.218	29.24
216.597	33.32
216.976	35.04
217.355	52.03
217.734	62.92
218.113	53.31
218.492	43.5
218.871	43.87
219.25	46.32
219.629	52.04
220.008	51.43
220.387	47.07
220.766	53.91
221.144	53.24
221.523	48.37
221.902	76.48
222.28	90.22
222.659	79.05
223.037	53.48
223.416	44.03
223.794	37.7
224.173	43.85
224.551	49.79
224.929	42.64
225.308	22.6
225.686	12.06
226.064	20.65
226.442	24.34
226.821	22.81
227.199	19.51
227.577	16.16
227.955	15.66
228.333	17.65
228.711	15.58
229.089	13.61
229.467	14.17
229.845	10.13
230.222	6.07
230.6	3.64
230.978	8.34
231.356	8.75
231.733	9.46
232.111	11.54
232.488	8.7
232.866	11.32
233.243	12.54
233.621	14.28
233.998	13.63
234.376	13.51
234.753	13.2
235.13	13.4
235.508	14.98
235.885	14.42
236.262	12.31
236.639	10.34
237.016	10.49
237.393	9.58
237.77	9.08
238.147	8.9
238.524	10.71
238.901	9.29
239.278	8.28
239.655	8.11
240.032	7.39
240.409	7.5
240.785	6.03
241.162	5.87
241.539	5.33
241.915	4.81
242.292	4.9
242.668	5.31
243.045	5.36
243.421	5.04
243.798	5.25
244.174	5.42
244.551	5.6
244.927	5.45
245.303	5.28
245.679	5.31
246.056	5.3
246.432	4.88
246.808	5.24
247.184	5.37
247.56	5.33
247.936	5.29
248.312	5.46
248.688	5.75
249.064	5.77
249.44	5.88
249.815	6.17
250.191	6.11
250.567	6.03
250.943	6.03
251.318	6.18
251.694	5.93
252.069	6
252.445	6.11
252.82	6.39
253.196	6.86
253.571	7.19
253.947	7.2
254.322	7.53
254.697	6.96
255.073	7.19
255.448	7.1
255.823	6.84
256.198	6.5
256.573	6.13
256.948	6.17
257.323	5.79
257.698	5.49
258.073	5.36
258.448	5.21
258.823	5.07
259.198	5.01
259.573	5.07
259.948	5.08
260.322	4.98
260.697	4.81
261.072	4.87
261.446	4.78
261.821	4.77
262.195	4.49
262.57	4.68
262.944	4.6
263.319	4.65
263.693	4.74
264.067	4.87
264.442	4.99
264.816	4.99
265.19	4.92
265.564	5.02
265.938	5.19
266.313	5.09
266.687	5.07
267.061	5.08
267.435	5.11
267.809	5.01
268.183	4.94
268.556	4.71
268.93	4.73
269.304	4.63
269.678	4.8
270.051	4.93
270.425	4.65
270.799	4.45
271.172	4.36
271.546	4.31
271.919	4.28
272.293	4.24
272.666	4.21
273.04	4.33
273.413	4.34
273.787	4.17
274.16	4.2
274.533	4.35
274.906	4.24
275.279	4.23
275.653	4.19
276.026	4.23
276.399	4.37
276.772	4.11
277.145	4.13
277.518	3.96
277.891	3.89
278.263	4.09
278.636	4.36
279.009	4.33
279.382	4.32
279.755	4.35
280.127	4.5
280.5	4.52
280.872	4.56
281.245	4.63
281.617	4.59
281.99	4.7
282.362	4.48
282.735	4.65
283.107	4.52
283.479	4.69
283.852	4.79
284.224	4.9
284.596	4.93
284.968	4.91
285.34	4.98
285.713	5.11
286.085	4.93
286.457	4.89
286.829	4.92
287.201	4.98
287.572	4.94
287.944	4.99
288.316	4.9
288.688	4.93
289.06	4.95
289.431	5.04
289.803	5.11
290.175	5.26
290.546	5.19
290.918	5.26
291.289	5.12
291.661	5.1
292.032	5
292.403	4.9
292.775	4.92
293.146	4.95
293.517	4.88
293.889	5.06
294.26	5.13
294.631	5.13
295.002	5.15
295.373	5.08
295.744	5.07
296.115	5.09
296.486	5.05
296.857	5.1
297.228	5.09
297.599	4.88
297.97	5.03
298.34	4.98
298.711	5.11
299.082	5.1
299.452	5.13
299.823	5.21
300.194	5.3
300.564	5.07
300.935	5.03
301.305	5.06
301.676	4.95
302.046	4.95
302.416	4.95
302.787	4.9
303.157	4.98
303.527	4.98
303.897	4.85
304.267	5.05
304.637	5.03
305.008	5.09
305.378	5.1
305.748	4.8
306.117	4.86
306.487	4.78
306.857	4.92
307.227	4.77
307.597	4.74
307.967	4.81
308.336	4.94
308.706	4.89
309.076	4.99
309.445	5.08
309.815	5.03
310.184	5.04
310.554	5.07
310.923	4.97
311.293	4.85
311.662	4.94
312.031	4.79
312.401	4.69
312.77	4.65
313.139	4.84
313.508	4.97
313.877	4.95
314.246	4.86
314.616	4.79
314.985	4.77
315.353	4.71
315.722	4.79
316.091	4.88
316.46	4.88
316.829	4.75
317.198	4.8
317.567	4.86
317.935	4.97
318.304	4.97
318.672	5.08
319.041	5.2
319.41	5.04
319.778	5.15
320.147	5.27
320.515	5.33
320.883	5.09
321.252	5.05
321.62	5.11
321.988	5.32
322.357	5.32
322.725	5.48
323.093	5.51
323.461	5.41
323.829	5.36
324.197	5.42
324.565	5.39
324.933	5.32
325.301	5.14
325.669	5.1
326.037	4.98
326.405	5.08
326.772	5.08
327.14	5.2
327.508	5.15
327.875	5.09
328.243	5.09
328.61	5.24
328.978	5.27
329.346	5.26
329.713	5.22
330.08	5.25
330.448	5.22
330.815	5.16
331.182	5.12
331.55	5.19
331.917	5.14
332.284	5.31
332.651	5.36
333.018	5.35
333.385	5.37
333.752	5.49
334.119	5.38
334.486	5.44
334.853	5.43
335.22	5.37
335.587	5.25
335.954	5.19
336.32	5.06
336.687	4.95
337.054	4.78
337.42	4.63
337.787	4.56
338.153	4.46
338.52	4.71
338.886	4.78
339.253	4.7
339.619	4.74
339.986	4.6
340.352	4.48
340.718	4.45
341.084	4.35
341.451	4.35
341.817	4.31
342.183	4.2
342.549	4.3
342.915	4.34
343.281	4.36
343.647	4.3
344.013	4.37
344.379	4.55
344.745	4.64
345.11	4.71
345.476	4.84
345.842	4.77
346.208	4.64
346.573	4.61
346.939	4.59
347.304	4.59
347.67	4.49
348.035	4.45
348.401	4.5
348.766	4.55
349.132	4.51
349.497	4.62
349.862	4.69
350.228	4.68
350.593	4.57
350.958	4.71
351.323	4.79
351.688	4.73
352.053	4.63
352.418	4.55
352.783	4.56
353.148	4.5
353.513	4.59
353.878	4.51
354.243	4.41
354.608	4.47
354.972	4.4
355.337	4.56
355.702	4.62
356.066	4.7
356.431	4.75
356.795	4.84
357.16	4.78
357.524	4.77
357.889	4.73
358.253	4.85
358.618	4.76
358.982	4.78
359.346	4.83
359.71	4.79
360.075	4.93
360.439	4.96
360.803	4.95
361.167	4.85
361.531	4.86
361.895	4.9
362.259	4.85
362.623	4.95
362.987	4.88
363.351	4.83
363.714	4.9
364.078	4.91
364.442	4.76
364.806	4.78
365.169	4.7
365.533	4.65
365.896	4.64
366.26	4.65
366.623	4.59
366.987	4.66
367.35	4.66
367.714	4.64
368.077	4.66
368.44	4.67
368.803	4.76
369.167	4.74
369.53	4.77
369.893	4.81
370.256	4.71
370.619	4.71
370.982	4.72
371.345	4.66
371.708	4.62
372.071	4.62
372.434	4.57
372.797	4.56
373.159	4.58
373.522	4.55
373.885	4.54
374.247	4.55
374.61	4.49
374.973	4.54
375.335	4.5
375.698	4.44
376.06	4.43
376.423	4.44
376.785	4.49
377.147	4.53
377.51	4.46
377.872	4.52
378.234	4.53
378.596	4.57
378.958	4.55
379.321	4.51
379.683	4.58
380.045	4.59
380.407	4.63
380.769	4.63
381.13	4.56
381.492	4.54
381.854	4.52
382.216	4.54
382.578	4.53
382.939	4.52
383.301	4.49
383.663	4.46
384.024	4.46
384.386	4.42
384.747	4.39
385.109	4.4
385.47	4.39
385.832	4.4
386.193	4.34
386.554	4.31
386.916	4.34
387.277	4.35
387.638	4.39
387.999	4.34
388.36	4.27
388.721	4.28
389.082	4.31
389.443	4.36
389.804	4.36
390.165	4.33
390.526	4.3
390.887	4.32
391.248	4.33
391.609	4.33
391.969	4.38
392.33	4.34
392.691	4.35
393.051	4.35
393.412	4.35
393.772	4.41
394.133	4.4
394.493	4.35
394.854	4.31
395.214	4.29
395.574	4.3
395.935	4.34
396.295	4.38
396.655	4.33
397.015	4.29
397.376	4.28
397.736	4.26
398.096	4.28
398.456	4.29
398.816	4.29
399.176	4.27
399.535	4.27
399.895	4.27
400.255	4.28
400.615	4.27
400.975	4.24
401.334	4.22
401.694	4.23
402.054	4.23
402.413	4.22
402.773	4.18
403.132	4.2
403.492	4.2
403.851	4.17
404.211	4.2
404.57	4.2
404.929	4.2
405.288	4.23
405.648	4.22
406.007	4.18
406.366	4.2
406.725	4.21
407.084	4.17
407.443	4.2
407.802	4.19
408.161	4.21
408.52	4.21
408.879	4.2
409.238	4.2
409.596	4.21
409.955	4.24
410.314	4.27
410.673	4.27
411.031	4.28
411.39	4.32
411.748	4.32
412.107	4.3
412.465	4.27
412.824	4.26
413.182	4.26
413.54	4.26
413.899	4.22
414.257	4.2
414.615	4.17
414.974	4.14
415.332	4.12
415.69	4.11
416.048	4.1
416.406	4.09
416.764	4.1
417.122	4.07
417.48	4.05
417.838	4.04
418.195	4.02
418.553	4.02
418.911	3.96
419.269	3.96
419.626	3.97
419.984	3.97
420.342	3.97
420.699	3.96
421.057	3.96
421.414	3.97
421.772	3.97
422.129	3.95
422.486	3.96
422.844	3.96
423.201	3.94
423.558	3.94
423.915	3.94
424.273	3.93
424.63	3.96
424.987	3.96
425.344	3.98
425.701	3.95
426.058	3.93
426.415	3.97
426.772	3.96
427.128	3.97
427.485	3.96
427.842	3.96
428.199	3.95
428.555	3.93
428.912	3.91
429.269	3.91
429.625	3.94
429.982	3.92
430.338	3.93
430.695	3.93
431.051	3.96
431.407	3.95
431.764	3.95
432.12	3.91
432.476	3.92
432.832	3.9
433.189	3.95
433.545	3.95
433.901	3.92
434.257	3.92
434.613	3.89
434.969	3.88
435.325	3.88
435.681	3.87
436.036	3.89
436.392	3.89
436.748	3.91
437.104	3.91
437.459	3.91
437.815	3.9
438.171	3.9
438.526	3.89
438.882	3.89
439.237	3.9
439.593	3.91
439.948	3.9
440.304	3.89
440.659	3.88
441.014	3.89
441.369	3.9
441.725	3.9
442.08	3.9
442.435	3.92
442.79	3.92
443.145	3.93
443.5	3.9
443.855	3.89
444.21	3.87
444.565	3.86
444.92	3.85
445.275	3.86
445.629	3.85
445.984	3.84
446.339	3.84
446.693	3.81
447.048	3.8
447.403	3.79
447.757	3.78
448.112	3.76
448.466	3.78
448.82	3.76
449.175	3.76
449.529	3.77
449.883	3.75
450.238	3.74
450.592	3.73
450.946	3.75
451.3	3.77
451.654	3.76
452.008	3.77
452.362	3.78
452.716	3.78
453.07	3.78
453.424	3.76
453.778	3.77
454.132	3.76
454.486	3.77
454.839	3.79
455.193	3.8
455.547	3.79
455.9	3.78
456.254	3.79
456.607	3.78
456.961	3.79
457.314	3.79
457.668	3.79
458.021	3.78
458.375	3.77
458.728	3.76
459.081	3.79
459.434	3.78
459.787	3.77
460.141	3.76
460.494	3.79
460.847	3.81
461.2	3.81
461.553	3.84
461.906	3.84
462.259	3.83
462.611	3.85
462.964	3.87
463.317	3.87
463.67	3.87
464.022	3.89
464.375	3.88
464.728	3.86
465.08	3.85
465.433	3.87
465.785	3.89
466.138	3.9
466.49	3.91
466.843	3.93
467.195	3.94
467.547	3.95
467.899	3.91
468.252	3.92
468.604	3.92
468.956	3.9
469.308	3.88
469.66	3.89
470.012	3.89
470.364	3.87
470.716	3.87
471.068	3.88
471.42	3.88
471.772	3.9
472.123	3.92
472.475	3.94
472.827	3.93
473.178	3.93
473.53	3.92
473.882	3.91
474.233	3.91
474.585	3.9
474.936	3.92
475.288	3.94
475.639	3.94
475.99	3.94
476.342	3.94
476.693	3.95
477.044	3.96
477.395	3.96
477.746	3.96
478.097	3.97
478.448	3.93
478.8	3.93
479.15	3.92
479.501	3.94
479.852	3.93
480.203	3.93
480.554	3.94
480.905	3.95
481.255	3.95
481.606	3.95
481.957	3.94
482.307	3.93
482.658	3.93
483.009	3.94
483.359	3.93
483.709	3.94
484.06	3.94
484.41	3.93
484.761	3.94
485.111	3.94
485.461	3.93
485.811	3.94
486.162	3.94
486.512	3.94
486.862	3.94
487.212	3.95
487.562	3.96
487.912	3.95
488.262	3.94
488.612	3.94
488.961	3.94
489.311	3.95
489.661	3.96
490.011	3.96
490.36	3.94
490.71	3.94
491.06	3.95
491.409	3.95
491.759	3.95
492.108	3.93
492.458	3.95
492.807	3.95
493.157	3.96
493.506	3.96
493.855	3.97
494.204	3.96
494.554	3.95
494.903	3.96
495.252	3.96
495.601	3.99
495.95	3.99
496.299	3.98
496.648	4
496.997	4
497.346	4.01
497.695	4.03
498.043	4.06
498.392	4.05
498.741	4.07
499.09	4.11
499.438	4.14
499.787	4.15
500.135	4.15
500.484	4.16
500.832	4.17
501.181	4.19
501.529	4.2
501.878	4.22
502.226	4.21
502.574	4.22
502.923	4.22
503.271	4.24
503.619	4.26
503.967	4.23
504.315	4.25
504.663	4.26
505.011	4.26
505.359	4.27
505.707	4.28
506.055	4.28
506.403	4.27
506.751	4.25
507.098	4.29
507.446	4.3
507.794	4.31
508.141	4.31
508.489	4.31
508.837	4.32
509.184	4.31
509.531	4.31
509.879	4.32
510.226	4.34
510.574	4.33
510.921	4.34
511.268	4.38
511.616	4.38
511.963	4.39
512.31	4.42
512.657	4.42
513.004	4.42
513.351	4.43
513.698	4.45
514.045	4.44
514.392	4.43
514.739	4.46
515.086	4.5
515.432	4.5
515.779	4.52
516.126	4.55
516.473	4.56
516.819	4.56
517.166	4.57
517.512	4.56
517.859	4.56
518.205	4.54
518.552	4.56
518.898	4.56
519.245	4.57
519.591	4.57
519.937	4.57
520.283	4.58
520.629	4.57
520.976	4.58
521.322	4.6
521.668	4.61
522.014	4.62
522.36	4.61
522.706	4.63
523.052	4.65
523.398	4.64
523.743	4.65
524.089	4.68
524.435	4.71
524.781	4.74
525.126	4.75
525.472	4.79
525.817	4.79
526.163	4.81
526.509	4.82
526.854	4.83
527.199	4.84
527.545	4.85
527.89	4.87
528.235	4.87
528.581	4.88
528.926	4.89
529.271	4.88
529.616	4.89
529.961	4.89
530.306	4.89
530.651	4.9
530.996	4.92
531.341	4.92
531.686	4.93
532.031	4.93
532.376	4.94
532.721	4.94
533.065	4.94
533.41	4.94
533.755	4.95
534.099	4.94
534.444	4.95
534.788	4.94
535.133	4.95
535.477	4.96
535.822	4.97
536.166	4.97
536.51	4.97
536.855	4.98
537.199	4.99
537.543	5.01
537.887	5.03
538.231	5.03
538.576	5.04
538.92	5.05
539.264	5.07
539.608	5.08
539.951	5.08
540.295	5.08
540.639	5.09
540.983	5.1
541.327	5.13
541.671	5.14
542.014	5.15
542.358	5.17
542.701	5.17
543.045	5.18
543.389	5.2
543.732	5.2
544.075	5.22
544.419	5.21
544.762	5.22
545.105	5.23
545.449	5.24
545.792	5.23
546.135	5.23
546.478	5.23
546.821	5.22
547.165	5.25
547.508	5.28
547.851	5.28
548.194	5.28
548.536	5.28
548.879	5.28
549.222	5.29
549.565	5.26
549.908	5.27
550.25	5.25
550.593	5.29
550.936	5.29
551.278	5.3
551.621	5.3
551.963	5.3
552.306	5.29
552.648	5.3
552.991	5.35
553.333	5.39
553.675	5.42
554.017	5.4
554.36	5.4
554.702	5.39
555.044	5.38
555.386	5.42
555.728	5.4
556.07	5.38
556.412	5.38
556.754	5.39
557.096	5.4
557.438	5.43
557.78	5.36
558.121	5.38
558.463	5.37
558.805	5.38
559.147	5.4
559.488	5.42
559.83	5.41
560.171	5.35
560.513	5.35
560.854	5.33
561.196	5.4
561.537	5.43
561.878	5.44
562.22	5.46
562.561	5.43
562.902	5.42
563.243	5.46
563.584	5.49
563.925	5.51
564.266	5.5
564.607	5.48
564.948	5.51
565.289	5.53
565.63	5.52
565.971	5.54
566.312	5.52
566.653	5.53
566.993	5.54
567.334	5.57
567.675	5.57
568.015	5.57
568.356	5.54
568.696	5.52
569.037	5.52
569.377	5.49
569.718	5.48
570.058	5.52
570.398	5.52
570.739	5.51
571.079	5.47
571.419	5.49
571.759	5.51
572.099	5.5
572.439	5.47
572.779	5.45
573.119	5.44
573.459	5.44
573.799	5.4
574.139	5.41
574.479	5.41
574.819	5.39
575.158	5.41
575.498	5.43
575.838	5.42
576.177	5.43
576.517	5.45
576.856	5.48
577.196	5.44
577.535	5.43
577.875	5.43
578.214	5.48
578.553	5.48
578.893	5.51
579.232	5.52
579.571	5.6
579.91	5.64
580.25	5.69
580.589	5.68
580.928	5.74
581.267	5.71
581.606	5.72
581.945	5.74
582.283	5.71
582.622	5.69
582.961	5.71
583.3	5.7
583.639	5.72
583.977	5.72
584.316	5.76
584.654	5.77
584.993	5.78
585.332	5.78
585.67	5.78
586.008	5.74
586.347	5.77
586.685	5.69
587.024	5.72
587.362	5.7
587.7	5.74
588.038	5.76
588.376	5.79
588.715	5.77
589.053	5.77
589.391	5.78
589.729	5.79
590.067	5.8
590.404	5.84
590.742	5.82
591.08	5.86
591.418	5.88
591.756	5.88
592.093	5.86
592.431	5.85
592.769	5.86
593.106	5.86
593.444	5.88
593.781	5.93
594.119	5.96
594.456	5.94
594.793	5.93
595.131	5.93
595.468	5.95
595.805	5.94
596.143	5.92
596.48	5.94
596.817	5.94
597.154	5.93
597.491	5.88
597.828	5.89
598.165	5.82
598.502	5.78
598.839	5.75
599.176	5.8
599.512	5.82
599.849	5.82
600.186	5.81
600.523	5.8
600.859	5.78
601.196	5.72
601.532	5.72
601.869	5.71
602.205	5.7
602.542	5.69
602.878	5.71
603.215	5.72
603.551	5.72
603.887	5.77
604.223	5.77
604.56	5.82
604.896	5.82
605.232	5.86
605.568	5.85
605.904	5.89
606.24	5.89
606.576	5.9
606.912	5.9
607.248	5.93
607.583	5.94
607.919	5.94
608.255	5.97
608.591	5.99
608.926	5.99
609.262	5.98
609.597	5.99
609.933	6.05
610.268	6.13
610.604	6.09
610.939	6.07
611.275	6.09
611.61	6.08
611.945	6.07
612.281	6.08
612.616	6.13
612.951	6.12
613.286	6.08
613.621	6.07
613.956	6.07
614.291	6.1
614.626	6.08
614.961	6.11
615.296	6.13
615.631	6.11
615.966	6.13
616.3	6.19
616.635	6.19
616.97	6.17
617.304	6.14
617.639	6.19
617.973	6.19
618.308	6.15
618.642	6.17
618.977	6.19
619.311	6.19
619.646	6.19
619.98	6.22
620.314	6.25
620.648	6.22
620.983	6.26
621.317	6.28
621.651	6.27
621.985	6.26
622.319	6.25
622.653	6.3
622.987	6.28
623.321	6.23
623.655	6.23
623.988	6.19
624.322	6.18
624.656	6.22
624.99	6.2
625.323	6.24
625.657	6.25
625.99	6.32
626.324	6.32
626.657	6.34
626.991	6.29
627.324	6.25
627.658	6.25
627.991	6.25
628.324	6.19
628.657	6.18
628.991	6.18
629.324	6.16
629.657	6.13
629.99	6.16
630.323	6.15
630.656	6.14
630.989	6.14
631.322	6.11
631.655	6.08
631.987	6.08
632.32	6.11
632.653	6.03
632.986	5.95
633.318	6
633.651	5.99
633.984	6.05
634.316	6.14
634.649	6.19
634.981	6.18
635.313	6.23
635.646	6.27
635.978	6.27
636.31	6.32
636.643	6.37
636.975	6.39
637.307	6.43
637.639	6.47
637.971	6.45
638.303	6.52
638.635	6.52
638.967	6.59
639.299	6.51
639.631	6.61
639.963	6.59
640.295	6.62
640.626	6.61
640.958	6.55
641.29	6.52
641.621	6.46
641.953	6.42
642.285	6.44
642.616	6.49
642.948	6.51
643.279	6.46
643.61	6.43
643.942	6.43
644.273	6.36
644.604	6.36
644.936	6.44
645.267	6.41
645.598	6.46
645.929	6.41
646.26	6.45
646.591	6.45
646.922	6.54
647.253	6.42
647.584	6.47
647.915	6.56
648.245	6.53
648.576	6.48
648.907	6.54
649.238	6.48
649.568	6.42
649.899	6.43
650.229	6.44
650.56	6.46
650.89	6.51
651.221	6.52
651.551	6.54
651.882	6.51
652.212	6.45
652.542	6.49
652.872	6.41
653.203	6.43
653.533	6.49
653.863	6.5
654.193	6.52
654.523	6.44
654.853	6.42
655.183	6.47
655.513	6.6
655.843	6.6
656.172	6.67
656.502	6.66
656.832	6.53
657.162	6.6
657.491	6.59
657.821	6.5
658.15	6.59
658.48	6.6
658.809	6.57
659.139	6.62
659.468	6.53
659.798	6.64
660.127	6.64
660.456	6.58
660.785	6.53
661.115	6.57
661.444	6.64
661.773	6.66
662.102	6.66
662.431	6.61
662.76	6.55
663.089	6.54
663.418	6.57
663.747	6.69
664.076	6.72
664.404	6.74
664.733	6.82
665.062	6.74
665.39	6.79
665.719	6.82
666.048	6.83
666.376	6.88
666.705	6.86
667.033	6.88
667.362	6.86
667.69	6.87
668.018	6.87
668.347	6.9
668.675	6.91
669.003	6.93
669.331	6.98
669.659	7.07
669.987	7.06
670.315	7
670.643	7.02
670.971	7.01
671.299	7.08
671.627	7.14
671.955	7.16
672.283	7.05
672.61	7.01
672.938	7.02
673.266	6.99
673.593	6.92
673.921	6.92
674.249	6.96
674.576	7.02
674.904	7.02
675.231	6.94
675.558	7
675.886	7.04
676.213	6.94
676.54	6.88
676.867	6.88
677.195	6.99
677.522	6.94
677.849	7.03
678.176	7.02
