Data from BA51068_Reflection_00001.txt Node
Date: Tue Nov 19 11:58:50 EST 2019
User: vgr7
Spectrometer: USB2G7710
Scans to average: 3
Trigger mode: 4
Integration Time (sec): 2.000000E-2
Electric dark correction enabled: true
Boxcar width: 10
XAxis mode: Wavelengths
Number of Pixels in Spectrum: 2048
>>>>>Begin Spectral Data<<<<<
177.721	-35.29
178.105	229.31
178.488	112.85
178.871	7.27
179.254	700
179.636	287.5
180.019	-149.1
180.402	44.44
180.785	92.94
181.168	-8.05
181.55	1484.62
181.933	76.83
182.316	132.17
182.698	54.61
183.081	30.37
183.463	85.11
183.846	936.07
184.228	-88.3
184.611	-81.38
184.993	-82.78
185.376	-43.44
185.758	-64.73
186.14	-124.35
186.522	-64.16
186.904	-58.24
187.287	-25.17
187.669	-3.31
188.051	-4.7
188.433	-29.35
188.815	-88.72
189.197	-65.19
189.579	-34.38
189.961	-22.08
190.342	-11.71
190.724	-23.03
191.106	-44.79
191.488	-62.31
191.869	-23.65
192.251	-57.65
192.633	-62.16
193.014	-22.87
193.396	-1334.78
193.777	7.12
194.159	-32.25
194.54	18.09
194.922	-0.2
195.303	-13.92
195.684	-69.97
196.065	-25.31
196.447	-0.26
196.828	-6.09
197.209	55.77
197.59	240.94
197.971	-332.99
198.352	-56.35
198.733	-43.51
199.114	-80.21
199.495	-91.08
199.876	47.52
200.257	8.2
200.638	16.8
201.018	109.97
201.399	141.47
201.78	591.8
202.16	-842.86
202.541	-1476.27
202.922	-326.78
203.302	-544.86
203.683	162.07
204.063	59.32
204.444	139.3
204.824	100
205.204	218.58
205.585	273.55
205.965	542.62
206.345	-82.74
206.725	-103.19
207.106	175.63
207.486	112.37
207.866	150.1
208.246	65.68
208.626	34.72
209.006	84.55
209.386	58.49
209.766	54.04
210.145	77.63
210.525	94.15
210.905	67.23
211.285	38.18
211.664	23.27
212.044	10.32
212.424	16.63
212.803	16.2
213.183	20.16
213.562	10.68
213.942	-0.38
214.321	-1.08
214.701	4.54
215.08	-11.41
215.459	-13.79
215.838	-20.42
216.218	-20.26
216.597	-12.13
216.976	-29.63
217.355	-28.11
217.734	-26.21
218.113	-28.8
218.492	-32.26
218.871	-38.15
219.25	-33.56
219.629	-51.74
220.008	-43.53
220.387	-49.72
220.766	-43.68
221.144	-54.08
221.523	-56.16
221.902	-73.17
222.28	-67.24
222.659	-43.11
223.037	-35.86
223.416	-29.16
223.794	-23.19
224.173	-31.46
224.551	-23.64
224.929	-16.49
225.308	-14.32
225.686	-18.96
226.064	-24.66
226.442	-13.17
226.821	-9.72
227.199	-7.88
227.577	-7.01
227.955	-3.11
228.333	-5.24
228.711	-5.77
229.089	-0.48
229.467	-2.1
229.845	1.12
230.222	1.18
230.6	-2.48
230.978	-1.36
231.356	-3.44
231.733	-1.74
232.111	-0.2
232.488	-2.62
232.866	-1.18
233.243	-0.94
233.621	-0.3
233.998	0.03
234.376	-3.47
234.753	-4.4
235.13	-5.21
235.508	-4.48
235.885	-5.88
236.262	-4.13
236.639	-4.96
237.016	-4.39
237.393	-3.65
237.77	-4.48
238.147	-3.53
238.524	-2.3
238.901	-2.69
239.278	-2.33
239.655	-2.48
240.032	-1.76
240.409	-0.99
240.785	-0.87
241.162	-0.39
241.539	0.55
241.915	1.74
242.292	2.73
242.668	2.92
243.045	3.35
243.421	3.9
243.798	4.01
244.174	3.98
244.551	4.42
244.927	4.4
245.303	4.25
245.679	4.42
246.056	4.44
246.432	4.44
246.808	4.63
247.184	5.05
247.56	5.22
247.936	5.28
248.312	5.17
248.688	5.22
249.064	5.13
249.44	4.85
249.815	4.48
250.191	4.42
250.567	4.43
250.943	4.37
251.318	4.2
251.694	4.06
252.069	4
252.445	3.93
252.82	3.94
253.196	4.13
253.571	4.43
253.947	4.49
254.322	4.3
254.697	4.23
255.073	3.8
255.448	3.83
255.823	3.7
256.198	3.96
256.573	4.03
256.948	4.15
257.323	4.08
257.698	4.11
258.073	4.17
258.448	4.26
258.823	4.05
259.198	4.06
259.573	4.01
259.948	4.03
260.322	3.97
260.697	3.93
261.072	3.88
261.446	3.74
261.821	3.68
262.195	3.75
262.57	3.85
262.944	3.87
263.319	3.68
263.693	3.56
264.067	3.4
264.442	3.38
264.816	3.18
265.19	3.24
265.564	3.17
265.938	3.11
266.313	2.98
266.687	3.36
267.061	3.39
267.435	3.31
267.809	3.23
268.183	3.12
268.556	3.16
268.93	3.25
269.304	3.19
269.678	3.18
270.051	3.12
270.425	2.88
270.799	2.81
271.172	2.93
271.546	3.13
271.919	3.15
272.293	2.91
272.666	2.81
273.04	2.82
273.413	2.92
273.787	2.79
274.16	2.89
274.533	2.75
274.906	2.78
275.279	2.85
275.653	3.03
276.026	3.21
276.399	3.1
276.772	3.07
277.145	3.22
277.518	3.24
277.891	3.29
278.263	3.57
278.636	3.74
279.009	3.79
279.382	3.75
279.755	3.83
280.127	3.95
280.5	4.02
280.872	3.97
281.245	3.94
281.617	4.04
281.99	3.92
282.362	3.94
282.735	3.78
283.107	3.83
283.479	3.68
283.852	3.61
284.224	3.76
284.596	3.73
284.968	3.62
285.34	3.74
285.713	3.76
286.085	3.62
286.457	3.6
286.829	3.57
287.201	3.56
287.572	3.49
287.944	3.67
288.316	3.72
288.688	3.97
289.06	4.11
289.431	4.21
289.803	4.18
290.175	4.12
290.546	4
290.918	3.92
291.289	3.84
291.661	3.83
292.032	3.71
292.403	3.82
292.775	3.99
293.146	3.9
293.517	3.8
293.889	3.88
294.26	3.96
294.631	3.9
295.002	3.89
295.373	3.87
295.744	3.74
296.115	3.77
296.486	3.46
296.857	3.29
297.228	3.2
297.599	3.19
297.97	3.35
298.34	3.53
298.711	3.48
299.082	3.57
299.452	3.5
299.823	3.47
300.194	3.31
300.564	2.96
300.935	3.01
301.305	3.05
301.676	2.93
302.046	2.83
302.416	2.76
302.787	2.8
303.157	2.7
303.527	2.78
303.897	2.73
304.267	2.9
304.637	2.86
305.008	3.02
305.378	3.19
305.748	2.94
306.117	2.88
306.487	3.09
306.857	3.02
307.227	3.18
307.597	3.19
307.967	3.31
308.336	3.57
308.706	3.51
309.076	3.48
309.445	3.69
309.815	3.75
310.184	3.88
310.554	3.8
310.923	3.92
311.293	3.83
311.662	3.89
312.031	3.85
312.401	3.93
312.77	3.74
313.139	3.7
313.508	3.85
313.877	3.92
314.246	3.84
314.616	4.02
314.985	4.15
315.353	4.21
315.722	4.24
316.091	4.15
316.46	3.98
316.829	3.96
317.198	3.94
317.567	3.86
317.935	3.83
318.304	3.95
318.672	3.85
319.041	3.89
319.41	3.77
319.778	3.75
320.147	3.68
320.515	3.83
320.883	3.8
321.252	3.74
321.62	3.72
321.988	3.77
322.357	3.69
322.725	3.58
323.093	3.45
323.461	3.33
323.829	3.49
324.197	3.62
324.565	3.77
324.933	3.7
325.301	3.64
325.669	3.61
326.037	3.45
326.405	3.46
326.772	3.39
327.14	3.36
327.508	3.5
327.875	3.43
328.243	3.43
328.61	3.47
328.978	3.3
329.346	3.25
329.713	3.23
330.08	3.25
330.448	3.18
330.815	3.25
331.182	3.28
331.55	3.23
331.917	3.21
332.284	3.08
332.651	3.13
333.018	3.14
333.385	3.14
333.752	3.35
334.119	3.42
334.486	3.43
334.853	3.37
335.22	3.24
335.587	3.17
335.954	3.17
336.32	3.07
336.687	3.11
337.054	3.07
337.42	3.07
337.787	3.13
338.153	3.12
338.52	3.14
338.886	3.19
339.253	3.13
339.619	3.05
339.986	3.03
340.352	2.9
340.718	2.96
341.084	2.98
341.451	2.91
341.817	2.94
342.183	2.88
342.549	3.05
342.915	3.12
343.281	3.16
343.647	3.1
344.013	3.18
344.379	3.33
344.745	3.4
345.11	3.42
345.476	3.3
345.842	3.18
346.208	3.13
346.573	3.06
346.939	3.1
347.304	3.21
347.67	3.22
348.035	3.3
348.401	3.32
348.766	3.31
349.132	3.35
349.497	3.25
349.862	3.32
350.228	3.21
350.593	3.22
350.958	3.33
351.323	3.39
351.688	3.28
352.053	3.23
352.418	3.27
352.783	3.22
353.148	3.19
353.513	3.29
353.878	3.24
354.243	3.27
354.608	3.35
354.972	3.31
355.337	3.38
355.702	3.4
356.066	3.38
356.431	3.42
356.795	3.43
357.16	3.44
357.524	3.46
357.889	3.49
358.253	3.43
358.618	3.4
358.982	3.33
359.346	3.43
359.71	3.46
360.075	3.44
360.439	3.53
360.803	3.64
361.167	3.67
361.531	3.73
361.895	3.73
362.259	3.69
362.623	3.71
362.987	3.69
363.351	3.61
363.714	3.62
364.078	3.55
364.442	3.48
364.806	3.55
365.169	3.47
365.533	3.52
365.896	3.58
366.26	3.56
366.623	3.62
366.987	3.72
367.35	3.7
367.714	3.7
368.077	3.6
368.44	3.58
368.803	3.5
369.167	3.5
369.53	3.54
369.893	3.51
370.256	3.46
370.619	3.45
370.982	3.45
371.345	3.43
371.708	3.46
372.071	3.43
372.434	3.38
372.797	3.44
373.159	3.39
373.522	3.34
373.885	3.41
374.247	3.37
374.61	3.3
374.973	3.26
375.335	3.2
375.698	3.19
376.06	3.18
376.423	3.22
376.785	3.27
377.147	3.25
377.51	3.27
377.872	3.31
378.234	3.31
378.596	3.36
378.958	3.41
379.321	3.41
379.683	3.47
380.045	3.48
380.407	3.45
380.769	3.49
381.13	3.49
381.492	3.45
381.854	3.43
382.216	3.38
382.578	3.38
382.939	3.38
383.301	3.36
383.663	3.35
384.024	3.34
384.386	3.28
384.747	3.26
385.109	3.27
385.47	3.26
385.832	3.27
386.193	3.24
386.554	3.17
386.916	3.22
387.277	3.22
387.638	3.19
387.999	3.26
388.36	3.26
388.721	3.28
389.082	3.31
389.443	3.35
389.804	3.38
390.165	3.4
390.526	3.43
390.887	3.47
391.248	3.48
391.609	3.51
391.969	3.55
392.33	3.53
392.691	3.5
393.051	3.49
393.412	3.51
393.772	3.56
394.133	3.6
394.493	3.53
394.854	3.54
395.214	3.59
395.574	3.55
395.935	3.57
396.295	3.56
396.655	3.5
397.015	3.49
397.376	3.45
397.736	3.43
398.096	3.44
398.456	3.4
398.816	3.41
399.176	3.36
399.535	3.34
399.895	3.36
400.255	3.38
400.615	3.44
400.975	3.42
401.334	3.41
401.694	3.4
402.054	3.44
402.413	3.44
402.773	3.45
403.132	3.48
403.492	3.48
403.851	3.47
404.211	3.51
404.57	3.52
404.929	3.53
405.288	3.58
405.648	3.6
406.007	3.64
406.366	3.63
406.725	3.67
407.084	3.68
407.443	3.67
407.802	3.66
408.161	3.62
408.52	3.66
408.879	3.65
409.238	3.67
409.596	3.65
409.955	3.66
410.314	3.61
410.673	3.62
411.031	3.59
411.39	3.57
411.748	3.58
412.107	3.56
412.465	3.55
412.824	3.5
413.182	3.46
413.54	3.46
413.899	3.48
414.257	3.49
414.615	3.47
414.974	3.48
415.332	3.48
415.69	3.48
416.048	3.43
416.406	3.41
416.764	3.42
417.122	3.4
417.48	3.39
417.838	3.39
418.195	3.36
418.553	3.36
418.911	3.38
419.269	3.37
419.626	3.38
419.984	3.4
420.342	3.41
420.699	3.41
421.057	3.42
421.414	3.43
421.772	3.42
422.129	3.41
422.486	3.41
422.844	3.41
423.201	3.42
423.558	3.45
423.915	3.46
424.273	3.45
424.63	3.46
424.987	3.46
425.344	3.48
425.701	3.5
426.058	3.51
426.415	3.51
426.772	3.51
427.128	3.49
427.485	3.5
427.842	3.5
428.199	3.5
428.555	3.48
428.912	3.46
429.269	3.46
429.625	3.47
429.982	3.47
430.338	3.47
430.695	3.48
431.051	3.45
431.407	3.44
431.764	3.4
432.12	3.42
432.476	3.42
432.832	3.4
433.189	3.36
433.545	3.35
433.901	3.35
434.257	3.34
434.613	3.36
434.969	3.35
435.325	3.34
435.681	3.34
436.036	3.36
436.392	3.38
436.748	3.38
437.104	3.38
437.459	3.39
437.815	3.36
438.171	3.36
438.526	3.38
438.882	3.4
439.237	3.42
439.593	3.41
439.948	3.43
440.304	3.43
440.659	3.45
441.014	3.46
441.369	3.46
441.725	3.46
442.08	3.45
442.435	3.47
442.79	3.48
443.145	3.48
443.5	3.44
443.855	3.43
444.21	3.43
444.565	3.44
444.92	3.43
445.275	3.44
445.629	3.43
445.984	3.41
446.339	3.39
446.693	3.4
447.048	3.39
447.403	3.35
447.757	3.35
448.112	3.35
448.466	3.33
448.82	3.32
449.175	3.32
449.529	3.32
449.883	3.29
450.238	3.3
450.592	3.3
450.946	3.34
451.3	3.35
451.654	3.31
452.008	3.29
452.362	3.31
452.716	3.31
453.07	3.31
453.424	3.31
453.778	3.3
454.132	3.29
454.486	3.31
454.839	3.34
455.193	3.35
455.547	3.37
455.9	3.39
456.254	3.42
456.607	3.42
456.961	3.42
457.314	3.43
457.668	3.42
458.021	3.43
458.375	3.41
458.728	3.41
459.081	3.44
459.434	3.45
459.787	3.44
460.141	3.45
460.494	3.47
460.847	3.5
461.2	3.51
461.553	3.52
461.906	3.52
462.259	3.5
462.611	3.5
462.964	3.49
463.317	3.49
463.67	3.49
464.022	3.49
464.375	3.49
464.728	3.5
465.08	3.49
465.433	3.47
465.785	3.47
466.138	3.45
466.49	3.47
466.843	3.48
467.195	3.48
467.547	3.47
467.899	3.46
468.252	3.46
468.604	3.45
468.956	3.44
469.308	3.45
469.66	3.48
470.012	3.47
470.364	3.47
470.716	3.46
471.068	3.47
471.42	3.46
471.772	3.47
472.123	3.48
472.475	3.48
472.827	3.5
473.178	3.49
473.53	3.49
473.882	3.47
474.233	3.46
474.585	3.45
474.936	3.46
475.288	3.45
475.639	3.42
475.99	3.41
476.342	3.41
476.693	3.41
477.044	3.39
477.395	3.4
477.746	3.39
478.097	3.4
478.448	3.39
478.8	3.4
479.15	3.4
479.501	3.39
479.852	3.4
480.203	3.4
480.554	3.42
480.905	3.44
481.255	3.45
481.606	3.46
481.957	3.47
482.307	3.47
482.658	3.49
483.009	3.49
483.359	3.5
483.709	3.5
484.06	3.51
484.41	3.51
484.761	3.53
485.111	3.54
485.461	3.55
485.811	3.55
486.162	3.55
486.512	3.56
486.862	3.58
487.212	3.58
487.562	3.58
487.912	3.58
488.262	3.58
488.612	3.57
488.961	3.57
489.311	3.56
489.661	3.56
490.011	3.55
490.36	3.56
490.71	3.56
491.06	3.57
491.409	3.57
491.759	3.57
492.108	3.55
492.458	3.54
492.807	3.54
493.157	3.55
493.506	3.54
493.855	3.52
494.204	3.52
494.554	3.54
494.903	3.55
495.252	3.55
495.601	3.55
495.95	3.56
496.299	3.57
496.648	3.59
496.997	3.59
497.346	3.58
497.695	3.58
498.043	3.58
498.392	3.57
498.741	3.57
499.09	3.58
499.438	3.57
499.787	3.59
500.135	3.58
500.484	3.59
500.832	3.6
501.181	3.6
501.529	3.62
501.878	3.6
502.226	3.59
502.574	3.57
502.923	3.56
503.271	3.57
503.619	3.57
503.967	3.56
504.315	3.56
504.663	3.56
505.011	3.57
505.359	3.57
505.707	3.56
506.055	3.56
506.403	3.56
506.751	3.56
507.098	3.57
507.446	3.59
507.794	3.57
508.141	3.57
508.489	3.58
508.837	3.54
509.184	3.55
509.531	3.55
509.879	3.56
510.226	3.56
510.574	3.55
510.921	3.54
511.268	3.55
511.616	3.55
511.963	3.57
512.31	3.55
512.657	3.57
513.004	3.57
513.351	3.56
513.698	3.56
514.045	3.55
514.392	3.54
514.739	3.56
515.086	3.57
515.432	3.57
515.779	3.57
516.126	3.61
516.473	3.59
516.819	3.59
517.166	3.62
517.512	3.61
517.859	3.62
518.205	3.62
518.552	3.62
518.898	3.63
519.245	3.62
519.591	3.64
519.937	3.63
520.283	3.62
520.629	3.65
520.976	3.66
521.322	3.68
521.668	3.68
522.014	3.66
522.36	3.67
522.706	3.68
523.052	3.69
523.398	3.69
523.743	3.68
524.089	3.71
524.435	3.71
524.781	3.73
525.126	3.71
525.472	3.72
525.817	3.74
526.163	3.73
526.509	3.75
526.854	3.75
527.199	3.76
527.545	3.77
527.89	3.76
528.235	3.77
528.581	3.76
528.926	3.76
529.271	3.77
529.616	3.77
529.961	3.76
530.306	3.76
530.651	3.75
530.996	3.77
531.341	3.77
531.686	3.78
532.031	3.78
532.376	3.79
532.721	3.8
533.065	3.78
533.41	3.79
533.755	3.77
534.099	3.77
534.444	3.76
534.788	3.76
535.133	3.78
535.477	3.78
535.822	3.8
536.166	3.81
536.51	3.81
536.855	3.81
537.199	3.79
537.543	3.8
537.887	3.82
538.231	3.8
538.576	3.8
538.92	3.78
539.264	3.8
539.608	3.79
539.951	3.79
540.295	3.82
540.639	3.82
540.983	3.84
541.327	3.86
541.671	3.87
542.014	3.88
542.358	3.86
542.701	3.85
543.045	3.83
543.389	3.84
543.732	3.83
544.075	3.84
544.419	3.86
544.762	3.86
545.105	3.87
545.449	3.88
545.792	3.88
546.135	3.88
546.478	3.87
546.821	3.89
547.165	3.91
547.508	3.89
547.851	3.89
548.194	3.87
548.536	3.86
548.879	3.85
549.222	3.85
549.565	3.86
549.908	3.87
550.25	3.85
550.593	3.85
550.936	3.85
551.278	3.83
551.621	3.84
551.963	3.85
552.306	3.85
552.648	3.86
552.991	3.83
553.333	3.82
553.675	3.82
554.017	3.79
554.36	3.79
554.702	3.76
555.044	3.77
555.386	3.82
555.728	3.81
556.07	3.8
556.412	3.8
556.754	3.76
557.096	3.73
557.438	3.78
557.78	3.77
558.121	3.77
558.463	3.8
558.805	3.78
559.147	3.78
559.488	3.75
559.83	3.74
560.171	3.77
560.513	3.77
560.854	3.77
561.196	3.81
561.537	3.8
561.878	3.84
562.22	3.83
562.561	3.8
562.902	3.81
563.243	3.82
563.584	3.82
563.925	3.86
564.266	3.88
564.607	3.91
564.948	3.91
565.289	3.94
565.63	3.93
565.971	3.94
566.312	3.91
566.653	3.91
566.993	3.89
567.334	3.9
567.675	3.95
568.015	3.95
568.356	3.94
568.696	3.97
569.037	3.92
569.377	3.91
569.718	3.93
570.058	3.94
570.398	3.94
570.739	3.96
571.079	3.95
571.419	3.95
571.759	3.9
572.099	3.88
572.439	3.85
572.779	3.86
573.119	3.88
573.459	3.89
573.799	3.87
574.139	3.88
574.479	3.91
574.819	3.89
575.158	3.9
575.498	3.91
575.838	3.86
576.177	3.89
576.517	3.9
576.856	3.88
577.196	3.87
577.535	3.87
577.875	3.85
578.214	3.83
578.553	3.85
578.893	3.86
579.232	3.86
579.571	3.86
579.91	3.83
580.25	3.84
580.589	3.8
580.928	3.82
581.267	3.81
581.606	3.76
581.945	3.74
582.283	3.75
582.622	3.7
582.961	3.77
583.3	3.77
583.639	3.79
583.977	3.78
584.316	3.81
584.654	3.83
584.993	3.8
585.332	3.82
585.67	3.83
586.008	3.85
586.347	3.84
586.685	3.83
587.024	3.83
587.362	3.8
587.7	3.85
588.038	3.89
588.376	3.91
588.715	3.92
589.053	3.92
589.391	3.91
589.729	3.94
590.067	3.93
590.404	3.94
590.742	3.94
591.08	3.94
591.418	3.92
591.756	3.91
592.093	3.96
592.431	3.99
592.769	4
593.106	3.99
593.444	4.01
593.781	4.04
594.119	4.04
594.456	4.04
594.793	4.04
595.131	4.04
595.468	4.04
595.805	4.05
596.143	4.03
596.48	4.05
596.817	4.05
597.154	4.06
597.491	4.07
597.828	4.05
598.165	4.06
598.502	4.06
598.839	4.02
599.176	4.03
599.512	4.01
599.849	4.01
600.186	4.01
600.523	4.05
600.859	4.07
601.196	4.11
601.532	4.11
601.869	4.14
602.205	4.13
602.542	4.12
602.878	4.12
603.215	4.14
603.551	4.1
603.887	4.09
604.223	4.11
604.56	4.1
604.896	4.12
605.232	4.14
605.568	4.15
605.904	4.19
606.24	4.18
606.576	4.18
606.912	4.18
607.248	4.21
607.583	4.2
607.919	4.18
608.255	4.16
608.591	4.17
608.926	4.15
609.262	4.11
609.597	4.14
609.933	4.12
610.268	4.12
610.604	4.13
610.939	4.18
611.275	4.13
611.61	4.14
611.945	4.12
612.281	4.14
612.616	4.11
612.951	4.09
613.286	4.13
613.621	4.09
613.956	4.12
614.291	4.07
614.626	4.08
614.961	4.08
615.296	4.07
615.631	4.09
615.966	4.11
616.3	4.18
616.635	4.16
616.97	4.19
617.304	4.2
617.639	4.26
617.973	4.2
618.308	4.25
618.642	4.21
618.977	4.22
619.311	4.21
619.646	4.22
619.98	4.2
620.314	4.19
620.648	4.22
620.983	4.13
621.317	4.2
621.651	4.2
621.985	4.17
622.319	4.17
622.653	4.16
622.987	4.16
623.321	4.13
623.655	4.12
623.988	4.17
624.322	4.18
624.656	4.19
624.99	4.18
625.323	4.13
625.657	4.16
625.99	4.14
626.324	4.11
626.657	4.09
626.991	4.1
627.324	4.06
627.658	4.05
627.991	4.11
628.324	4.09
628.657	4.06
628.991	4.13
629.324	4.14
629.657	4.1
629.99	4.14
630.323	4.13
630.656	4.07
630.989	3.98
631.322	3.95
631.655	3.93
631.987	3.93
632.32	3.96
632.653	3.95
632.986	3.96
633.318	3.99
633.651	4
633.984	4.05
634.316	4.09
634.649	4.1
634.981	4.12
635.313	4.15
635.646	4.17
635.978	4.05
636.31	4
636.643	4.03
636.975	4.02
637.307	4.06
637.639	4.13
637.971	4.14
638.303	4.15
638.635	4.11
638.967	4.07
639.299	4.01
639.631	4.03
639.963	3.98
640.295	4.04
640.626	4.03
640.958	3.97
641.29	4
641.621	3.97
641.953	3.95
642.285	3.88
642.616	3.92
642.948	4.07
643.279	4.14
643.61	4.14
643.942	4.11
644.273	4.06
644.604	4.06
644.936	4.06
645.267	4.02
645.598	3.99
645.929	4
646.26	4.04
646.591	4.02
646.922	4.06
647.253	4
647.584	3.99
647.915	4.03
648.245	3.99
648.576	4.02
648.907	4.01
649.238	3.97
649.568	3.92
649.899	3.91
650.229	3.95
650.56	3.94
650.89	4
651.221	3.93
651.551	3.94
651.882	3.97
652.212	4.04
652.542	4.14
652.872	4.17
653.203	4.24
653.533	4.32
653.863	4.35
654.193	4.34
654.523	4.39
654.853	4.39
655.183	4.39
655.513	4.38
655.843	4.4
656.172	4.44
656.502	4.44
656.832	4.43
657.162	4.35
657.491	4.41
657.821	4.35
658.15	4.43
658.48	4.43
658.809	4.43
659.139	4.41
659.468	4.39
659.798	4.43
660.127	4.45
660.456	4.41
660.785	4.41
661.115	4.37
661.444	4.35
661.773	4.41
662.102	4.41
662.431	4.39
662.76	4.29
663.089	4.32
663.418	4.41
663.747	4.36
664.076	4.38
664.404	4.31
664.733	4.34
665.062	4.3
665.39	4.27
665.719	4.32
666.048	4.32
666.376	4.33
666.705	4.36
667.033	4.29
667.362	4.3
667.69	4.33
668.018	4.45
668.347	4.48
668.675	4.44
669.003	4.38
669.331	4.39
669.659	4.46
669.987	4.5
670.315	4.39
670.643	4.35
670.971	4.38
671.299	4.41
671.627	4.37
671.955	4.36
672.283	4.38
672.61	4.3
672.938	4.3
673.266	4.29
673.593	4.13
673.921	4.07
674.249	4
674.576	3.95
674.904	3.86
675.231	3.82
675.558	3.89
675.886	3.98
676.213	3.93
676.54	4
676.867	3.92
677.195	3.92
677.522	3.95
677.849	3.89
