Data from BA51245_Reflection_00013.txt Node
Date: Tue Nov 19 11:52:03 EST 2019
User: vgr7
Spectrometer: USB2G7710
Scans to average: 3
Trigger mode: 4
Integration Time (sec): 2.000000E-2
Electric dark correction enabled: true
Boxcar width: 10
XAxis mode: Wavelengths
Number of Pixels in Spectrum: 2048
>>>>>Begin Spectral Data<<<<<
177.721	571.01
178.105	-209.52
178.488	-298.55
178.871	72.22
179.254	52.63
179.636	121.37
180.019	790.48
180.402	14.29
180.785	-422.22
181.168	24.24
181.55	212.9
181.933	88.72
182.316	50.22
182.698	51.78
183.081	38.36
183.463	86.91
183.846	151.18
184.228	190.36
184.611	128.93
184.993	360
185.376	-59.57
185.758	-33.17
186.14	-51.85
186.522	-24.37
186.904	-12.7
187.287	6.62
187.669	38.38
188.051	42.75
188.433	4.58
188.815	-16.02
189.197	-5.21
189.579	-0.83
189.961	-4.28
190.342	-1.84
190.724	-3.93
191.106	6.49
191.488	6.64
191.869	8.37
192.251	-0.87
192.633	2.16
193.014	-8.78
193.396	-29.92
193.777	-10.45
194.159	-13.52
194.54	-15.38
194.922	-32.38
195.303	-37.62
195.684	-58.17
196.065	-78.64
196.447	-67.99
196.828	-65.31
197.209	-51.89
197.59	-52.71
197.971	-35.5
198.352	-40.48
198.733	-58.07
199.114	-76.51
199.495	-63.73
199.876	-51.58
200.257	-54.4
200.638	-43.47
201.018	-42.61
201.399	-31.52
201.78	-24.34
202.16	-30.97
202.541	-28.33
202.922	-14.49
203.302	-8.26
203.683	-15.83
204.063	1.42
204.444	6.61
204.824	13.61
205.204	16.08
205.585	17.03
205.965	19.35
206.345	39.2
206.725	49.16
207.106	59.53
207.486	40
207.866	36.23
208.246	39.41
208.626	16.03
209.006	21.34
209.386	15.54
209.766	4.88
210.145	0.52
210.525	-0.82
210.905	-3.69
211.285	-11.24
211.664	-5.54
212.044	1.54
212.424	3.6
212.803	-2.13
213.183	0.89
213.562	5.86
213.942	2.91
214.321	2.41
214.701	-4.56
215.08	-0.21
215.459	4.63
215.838	6.91
216.218	15.93
216.597	41.68
216.976	27.55
217.355	37.39
217.734	36.3
218.113	40.54
218.492	49.68
218.871	52.43
219.25	57.52
219.629	64.59
220.008	54.81
220.387	12.05
220.766	25.29
221.144	24.28
221.523	13.23
221.902	-3.39
222.28	-2.21
222.659	9.22
223.037	5.09
223.416	11.48
223.794	5.11
224.173	-1.46
224.551	-1.6
224.929	5.68
225.308	3.22
225.686	2.22
226.064	4.15
226.442	4.83
226.821	3.46
227.199	3.22
227.577	2.08
227.955	2.97
228.333	6.66
228.711	8.55
229.089	5.9
229.467	5.24
229.845	6.75
230.222	5.44
230.6	5.77
230.978	8.95
231.356	1.76
231.733	5.75
232.111	7.4
232.488	5.43
232.866	5.51
233.243	4.51
233.621	7.14
233.998	6.29
234.376	5.73
234.753	6.78
235.13	7.06
235.508	6.63
235.885	5.33
236.262	3.2
236.639	0.41
237.016	-0.41
237.393	1.6
237.77	3.1
238.147	2.52
238.524	2.06
238.901	0.78
239.278	2.21
239.655	1.77
240.032	2.23
240.409	2.77
240.785	2.36
241.162	2.98
241.539	3.05
241.915	2.64
242.292	2.61
242.668	2.2
243.045	2.38
243.421	2.55
243.798	2.48
244.174	3.22
244.551	3.34
244.927	3.59
245.303	3.25
245.679	3.39
246.056	3.75
246.432	3.84
246.808	3.88
247.184	3.86
247.56	3.73
247.936	3.52
248.312	3.54
248.688	3.67
249.064	3.7
249.44	3.82
249.815	3.91
250.191	4.13
250.567	4.37
250.943	4.49
251.318	4.46
251.694	4.5
252.069	4.52
252.445	4.75
252.82	5.04
253.196	5.3
253.571	5.21
253.947	5.16
254.322	4.88
254.697	4.85
255.073	4.51
255.448	4.85
255.823	4.79
256.198	4.6
256.573	4.65
256.948	4.35
257.323	4.16
257.698	4.19
258.073	3.93
258.448	3.91
258.823	3.7
259.198	3.67
259.573	3.53
259.948	3.47
260.322	3.41
260.697	3.28
261.072	3.25
261.446	3.07
261.821	2.96
262.195	2.96
262.57	3.06
262.944	3.26
263.319	3.09
263.693	3.26
264.067	3.25
264.442	3.23
264.816	3.28
265.19	3.28
265.564	3.25
265.938	3.4
266.313	3.22
266.687	3.08
267.061	3.04
267.435	3.17
267.809	3.15
268.183	3.07
268.556	2.94
268.93	3.1
269.304	3.2
269.678	3.19
270.051	3.3
270.425	3.25
270.799	3.17
271.172	3.28
271.546	3.3
271.919	3.3
272.293	3.33
272.666	3.53
273.04	3.37
273.413	3.41
273.787	3.2
274.16	3.35
274.533	3.58
274.906	3.72
275.279	3.76
275.653	3.78
276.026	3.88
276.399	3.96
276.772	3.76
277.145	3.69
277.518	3.66
277.891	3.64
278.263	3.62
278.636	3.68
279.009	3.54
279.382	3.4
279.755	3.57
280.127	3.53
280.5	3.37
280.872	3.65
281.245	3.72
281.617	3.96
281.99	4.03
282.362	3.77
282.735	3.65
283.107	3.62
283.479	3.56
283.852	3.47
284.224	3.41
284.596	3.38
284.968	3.46
285.34	3.6
285.713	3.54
286.085	3.67
286.457	3.64
286.829	3.64
287.201	3.66
287.572	3.63
287.944	3.69
288.316	3.81
288.688	3.7
289.06	3.68
289.431	3.67
289.803	3.52
290.175	3.65
290.546	3.69
290.918	3.84
291.289	3.8
291.661	3.95
292.032	4.03
292.403	4.23
292.775	4.18
293.146	4.07
293.517	4.06
293.889	3.99
294.26	4.25
294.631	4.38
295.002	4.4
295.373	4.31
295.744	4.23
296.115	4.19
296.486	4.21
296.857	4.22
297.228	4.11
297.599	4.28
297.97	4.39
298.34	4.36
298.711	4.18
299.082	4.19
299.452	4.12
299.823	4.18
300.194	4.11
300.564	4.21
300.935	4.5
301.305	4.53
301.676	4.44
302.046	4.19
302.416	3.96
302.787	3.98
303.157	3.86
303.527	3.95
303.897	3.97
304.267	3.92
304.637	3.85
305.008	3.93
305.378	3.72
305.748	3.63
306.117	3.7
306.487	3.72
306.857	3.87
307.227	3.9
307.597	3.87
307.967	3.97
308.336	3.96
308.706	3.68
309.076	3.81
309.445	3.92
309.815	4.09
310.184	4.11
310.554	4.04
310.923	4.19
311.293	4.33
311.662	4.22
312.031	4.2
312.401	4.12
312.77	4.11
313.139	4.16
313.508	4.23
313.877	4.23
314.246	4.28
314.616	4.39
314.985	4.32
315.353	4.34
315.722	4.44
316.091	4.41
316.46	4.63
316.829	4.67
317.198	4.7
317.567	4.66
317.935	4.86
318.304	5.02
318.672	5.15
319.041	4.92
319.41	5.14
319.778	5.21
320.147	5.48
320.515	5.51
320.883	5.51
321.252	5.56
321.62	5.73
321.988	5.91
322.357	5.75
322.725	5.96
323.093	5.84
323.461	5.71
323.829	5.78
324.197	5.72
324.565	5.72
324.933	5.78
325.301	5.71
325.669	5.8
326.037	5.8
326.405	5.67
326.772	5.66
327.14	5.62
327.508	5.74
327.875	5.78
328.243	5.84
328.61	5.76
328.978	5.69
329.346	5.65
329.713	5.61
330.08	5.82
330.448	5.79
330.815	5.93
331.182	5.87
331.55	5.9
331.917	5.8
332.284	5.75
332.651	5.83
333.018	5.96
333.385	5.79
333.752	5.8
334.119	5.87
334.486	5.92
334.853	5.95
335.22	5.95
335.587	5.83
335.954	5.81
336.32	5.77
336.687	5.87
337.054	5.88
337.42	5.87
337.787	5.63
338.153	5.64
338.52	5.68
338.886	5.76
339.253	5.79
339.619	5.95
339.986	5.99
340.352	5.89
340.718	5.86
341.084	5.99
341.451	5.94
341.817	5.94
342.183	5.96
342.549	6.01
342.915	5.9
343.281	5.95
343.647	6.02
344.013	6.12
344.379	6.15
344.745	6.15
345.11	6.07
345.476	6.23
345.842	6.14
346.208	6.2
346.573	6.15
346.939	6.18
347.304	6.08
347.67	6.12
348.035	5.99
348.401	6.02
348.766	5.99
349.132	6.09
349.497	6.07
349.862	6.1
350.228	6.02
350.593	6.12
350.958	6.16
351.323	6.09
351.688	6.18
352.053	6.17
352.418	6.21
352.783	6.27
353.148	6.23
353.513	6.25
353.878	6.13
354.243	6.08
354.608	6.11
354.972	6.12
355.337	6.07
355.702	6.18
356.066	6.23
356.431	6.16
356.795	6.11
357.16	6.17
357.524	6.16
357.889	6.2
358.253	6.1
358.618	6.03
358.982	6.01
359.346	5.96
359.71	5.91
360.075	5.83
360.439	5.82
360.803	5.83
361.167	5.79
361.531	5.86
361.895	5.84
362.259	5.78
362.623	5.79
362.987	5.82
363.351	5.81
363.714	5.73
364.078	5.78
364.442	5.72
364.806	5.63
365.169	5.62
365.533	5.58
365.896	5.62
366.26	5.59
366.623	5.55
366.987	5.51
367.35	5.53
367.714	5.54
368.077	5.58
368.44	5.59
368.803	5.62
369.167	5.5
369.53	5.57
369.893	5.51
370.256	5.45
370.619	5.34
370.982	5.21
371.345	5.2
371.708	5.12
372.071	5.12
372.434	5.1
372.797	5.09
373.159	5.04
373.522	5.01
373.885	5.04
374.247	5.01
374.61	5.03
374.973	4.95
375.335	4.89
375.698	4.75
376.06	4.65
376.423	4.59
376.785	4.59
377.147	4.56
377.51	4.55
377.872	4.52
378.234	4.59
378.596	4.61
378.958	4.58
379.321	4.55
379.683	4.51
380.045	4.49
380.407	4.39
380.769	4.35
381.13	4.29
381.492	4.24
381.854	4.21
382.216	4.2
382.578	4.15
382.939	4.17
383.301	4.16
383.663	4.16
384.024	4.18
384.386	4.16
384.747	4.12
385.109	4.1
385.47	4.09
385.832	4.02
386.193	4
386.554	3.97
386.916	3.99
387.277	3.99
387.638	3.99
387.999	3.99
388.36	3.99
388.721	4.02
389.082	4.01
389.443	4.03
389.804	4.06
390.165	4.04
390.526	4.05
390.887	4.07
391.248	4.03
391.609	4.02
391.969	4.03
392.33	3.98
392.691	3.96
393.051	3.94
393.412	3.95
393.772	3.95
394.133	3.92
394.493	3.9
394.854	3.9
395.214	3.9
395.574	3.91
395.935	3.88
396.295	3.84
396.655	3.8
397.015	3.78
397.376	3.73
397.736	3.72
398.096	3.69
398.456	3.68
398.816	3.72
399.176	3.66
399.535	3.6
399.895	3.61
400.255	3.63
400.615	3.64
400.975	3.6
401.334	3.56
401.694	3.61
402.054	3.61
402.413	3.55
402.773	3.55
403.132	3.53
403.492	3.53
403.851	3.55
404.211	3.55
404.57	3.55
404.929	3.53
405.288	3.56
405.648	3.55
406.007	3.55
406.366	3.52
406.725	3.56
407.084	3.57
407.443	3.58
407.802	3.55
408.161	3.5
408.52	3.5
408.879	3.51
409.238	3.46
409.596	3.45
409.955	3.45
410.314	3.44
410.673	3.43
411.031	3.42
411.39	3.4
411.748	3.41
412.107	3.36
412.465	3.36
412.824	3.31
413.182	3.29
413.54	3.27
413.899	3.23
414.257	3.21
414.615	3.2
414.974	3.18
415.332	3.2
415.69	3.2
416.048	3.19
416.406	3.16
416.764	3.16
417.122	3.15
417.48	3.15
417.838	3.13
418.195	3.13
418.553	3.14
418.911	3.13
419.269	3.12
419.626	3.12
419.984	3.11
420.342	3.09
420.699	3.08
421.057	3.06
421.414	3.06
421.772	3.04
422.129	3.03
422.486	3.03
422.844	3.01
423.201	3.02
423.558	3.02
423.915	3.05
424.273	3.06
424.63	3.07
424.987	3.05
425.344	3.04
425.701	3.03
426.058	3.02
426.415	3
426.772	2.99
427.128	2.98
427.485	2.98
427.842	2.98
428.199	3.02
428.555	3.04
428.912	3.03
429.269	3.06
429.625	3.06
429.982	3.04
430.338	3.04
430.695	3.02
431.051	3.02
431.407	2.97
431.764	2.94
432.12	2.95
432.476	2.95
432.832	2.97
433.189	2.97
433.545	2.96
433.901	2.98
434.257	2.99
434.613	2.99
434.969	2.99
435.325	2.98
435.681	2.93
436.036	2.92
436.392	2.93
436.748	2.93
437.104	2.94
437.459	2.96
437.815	2.96
438.171	2.97
438.526	2.96
438.882	2.99
439.237	2.99
439.593	2.99
439.948	3
440.304	3
440.659	2.99
441.014	2.99
441.369	2.99
441.725	2.99
442.08	3
442.435	3
442.79	3
443.145	3.01
443.5	3
443.855	3.01
444.21	3
444.565	2.99
444.92	2.99
445.275	2.97
445.629	2.95
445.984	2.94
446.339	2.92
446.693	2.93
447.048	2.91
447.403	2.9
447.757	2.92
448.112	2.92
448.466	2.92
448.82	2.9
449.175	2.9
449.529	2.9
449.883	2.89
450.238	2.89
450.592	2.9
450.946	2.88
451.3	2.87
451.654	2.87
452.008	2.89
452.362	2.88
452.716	2.9
453.07	2.92
453.424	2.93
453.778	2.92
454.132	2.94
454.486	2.93
454.839	2.92
455.193	2.9
455.547	2.89
455.9	2.87
456.254	2.88
456.607	2.86
456.961	2.88
457.314	2.9
457.668	2.89
458.021	2.9
458.375	2.91
458.728	2.92
459.081	2.93
459.434	2.93
459.787	2.93
460.141	2.92
460.494	2.93
460.847	2.93
461.2	2.92
461.553	2.91
461.906	2.93
462.259	2.94
462.611	2.95
462.964	2.97
463.317	2.97
463.67	2.98
464.022	3
464.375	2.99
464.728	2.99
465.08	2.99
465.433	2.98
465.785	3.01
466.138	3
466.49	3
466.843	2.99
467.195	3.01
467.547	3.02
467.899	3.02
468.252	3.04
468.604	3.08
468.956	3.09
469.308	3.09
469.66	3.08
470.012	3.08
470.364	3.05
470.716	3.05
471.068	3.05
471.42	3.06
471.772	3.06
472.123	3.07
472.475	3.07
472.827	3.08
473.178	3.07
473.53	3.07
473.882	3.07
474.233	3.06
474.585	3.05
474.936	3.05
475.288	3.04
475.639	3.04
475.99	3.01
476.342	3.02
476.693	3.03
477.044	3.04
477.395	3.05
477.746	3.08
478.097	3.07
478.448	3.07
478.8	3.04
479.15	3.02
479.501	3.01
479.852	3
480.203	3.01
480.554	3.01
480.905	3
481.255	2.99
481.606	3
481.957	2.99
482.307	2.99
482.658	2.99
483.009	2.99
483.359	2.99
483.709	2.98
484.06	2.98
484.41	2.97
484.761	2.97
485.111	2.96
485.461	2.97
485.811	2.97
486.162	2.98
486.512	2.98
486.862	2.98
487.212	2.99
487.562	2.97
487.912	2.97
488.262	2.97
488.612	2.98
488.961	2.98
489.311	2.98
489.661	2.99
490.011	2.99
490.36	2.98
490.71	2.98
491.06	3
491.409	3.01
491.759	3.03
492.108	3.03
492.458	3.03
492.807	3.04
493.157	3.05
493.506	3.05
493.855	3.07
494.204	3.07
494.554	3.07
494.903	3.09
495.252	3.09
495.601	3.11
495.95	3.15
496.299	3.16
496.648	3.18
496.997	3.19
497.346	3.22
497.695	3.26
498.043	3.28
498.392	3.29
498.741	3.3
499.09	3.33
499.438	3.37
499.787	3.39
500.135	3.4
500.484	3.42
500.832	3.43
501.181	3.47
501.529	3.5
501.878	3.54
502.226	3.58
502.574	3.61
502.923	3.63
503.271	3.64
503.619	3.68
503.967	3.68
504.315	3.71
504.663	3.74
505.011	3.74
505.359	3.77
505.707	3.79
506.055	3.83
506.403	3.84
506.751	3.83
507.098	3.86
507.446	3.91
507.794	3.93
508.141	3.98
508.489	3.99
508.837	4.01
509.184	4.03
509.531	4.04
509.879	4.06
510.226	4.08
510.574	4.11
510.921	4.12
511.268	4.17
511.616	4.19
511.963	4.2
512.31	4.24
512.657	4.27
513.004	4.28
513.351	4.31
513.698	4.36
514.045	4.39
514.392	4.43
514.739	4.47
515.086	4.53
515.432	4.54
515.779	4.6
516.126	4.65
516.473	4.7
516.819	4.75
517.166	4.8
517.512	4.84
517.859	4.88
518.205	4.91
518.552	4.94
518.898	4.97
519.245	5.04
519.591	5.06
519.937	5.08
520.283	5.13
520.629	5.15
520.976	5.19
521.322	5.27
521.668	5.32
522.014	5.38
522.36	5.4
522.706	5.46
523.052	5.51
523.398	5.57
523.743	5.61
524.089	5.67
524.435	5.73
524.781	5.8
525.126	5.86
525.472	5.93
525.817	5.99
526.163	6.04
526.509	6.1
526.854	6.16
527.199	6.23
527.545	6.27
527.89	6.32
528.235	6.36
528.581	6.4
528.926	6.45
529.271	6.49
529.616	6.54
529.961	6.61
530.306	6.66
530.651	6.72
530.996	6.8
531.341	6.87
531.686	6.94
532.031	7.01
532.376	7.08
532.721	7.16
533.065	7.23
533.41	7.32
533.755	7.39
534.099	7.46
534.444	7.55
534.788	7.65
535.133	7.74
535.477	7.84
535.822	7.93
536.166	8.03
536.51	8.15
536.855	8.27
537.199	8.38
537.543	8.5
537.887	8.61
538.231	8.74
538.576	8.89
538.92	9.01
539.264	9.14
539.608	9.25
539.951	9.37
540.295	9.49
540.639	9.6
540.983	9.71
541.327	9.82
541.671	9.91
542.014	10.04
542.358	10.15
542.701	10.27
543.045	10.37
543.389	10.49
543.732	10.59
544.075	10.71
544.419	10.84
544.762	10.97
545.105	11.13
545.449	11.26
545.792	11.37
546.135	11.51
546.478	11.67
546.821	11.86
547.165	12.04
547.508	12.2
547.851	12.38
548.194	12.58
548.536	12.74
548.879	12.9
549.222	13.05
549.565	13.24
549.908	13.43
550.25	13.63
550.593	13.81
550.936	14.04
551.278	14.26
551.621	14.46
551.963	14.71
552.306	14.92
552.648	15.13
552.991	15.34
553.333	15.57
553.675	15.79
554.017	15.99
554.36	16.17
554.702	16.35
555.044	16.53
555.386	16.72
555.728	16.95
556.07	17.21
556.412	17.43
556.754	17.63
557.096	17.88
557.438	18.11
557.78	18.38
558.121	18.59
558.463	18.83
558.805	19.07
559.147	19.3
559.488	19.52
559.83	19.78
560.171	20.05
560.513	20.27
560.854	20.53
561.196	20.79
561.537	21.05
561.878	21.36
562.22	21.64
562.561	21.92
562.902	22.17
563.243	22.44
563.584	22.73
563.925	23.03
564.266	23.24
564.607	23.51
564.948	23.78
565.289	24.03
565.63	24.26
565.971	24.52
566.312	24.76
566.653	25.01
566.993	25.24
567.334	25.52
567.675	25.83
568.015	26.05
568.356	26.3
568.696	26.57
569.037	26.85
569.377	27.1
569.718	27.34
570.058	27.61
570.398	27.84
570.739	28.12
571.079	28.42
571.419	28.67
571.759	28.95
572.099	29.16
572.439	29.42
572.779	29.66
573.119	29.87
573.459	30.11
573.799	30.31
574.139	30.61
574.479	30.82
574.819	31.04
575.158	31.28
575.498	31.56
575.838	31.81
576.177	32.02
576.517	32.29
576.856	32.56
577.196	32.86
577.535	33.15
577.875	33.44
578.214	33.67
578.553	33.94
578.893	34.14
579.232	34.39
579.571	34.7
579.91	35
580.25	35.32
580.589	35.57
580.928	35.89
581.267	36.1
581.606	36.34
581.945	36.59
582.283	36.88
582.622	37.1
582.961	37.34
583.3	37.61
583.639	37.83
583.977	38.1
584.316	38.3
584.654	38.5
584.993	38.65
585.332	38.81
585.67	39.07
586.008	39.3
586.347	39.54
586.685	39.67
587.024	39.89
587.362	40.07
587.7	40.26
588.038	40.52
588.376	40.7
588.715	40.94
589.053	41.17
589.391	41.33
589.729	41.54
590.067	41.67
590.404	41.84
590.742	42
591.08	42.12
591.418	42.31
591.756	42.5
592.093	42.76
592.431	42.94
592.769	43.12
593.106	43.26
593.444	43.5
593.781	43.65
594.119	43.79
594.456	43.92
594.793	44.05
595.131	44.21
595.468	44.31
595.805	44.4
596.143	44.52
596.48	44.65
596.817	44.75
597.154	44.87
597.491	45
597.828	45.13
598.165	45.28
598.502	45.44
598.839	45.58
599.176	45.67
599.512	45.84
599.849	46.01
600.186	46.18
600.523	46.3
600.859	46.54
601.196	46.67
601.532	46.79
601.869	46.98
602.205	47.11
602.542	47.28
602.878	47.5
603.215	47.56
603.551	47.63
603.887	47.74
604.223	47.86
604.56	47.96
604.896	48.1
605.232	48.19
605.568	48.26
605.904	48.38
606.24	48.42
606.576	48.51
606.912	48.62
607.248	48.77
607.583	48.85
607.919	48.92
608.255	49.06
608.591	49.17
608.926	49.21
609.262	49.27
609.597	49.38
609.933	49.39
610.268	49.5
610.604	49.67
610.939	49.83
611.275	49.94
611.61	50.06
611.945	50.12
612.281	50.18
612.616	50.26
612.951	50.3
613.286	50.46
613.621	50.56
613.956	50.65
614.291	50.71
614.626	50.8
614.961	50.91
615.296	51.04
615.631	51.15
615.966	51.28
616.3	51.42
616.635	51.46
616.97	51.53
617.304	51.64
617.639	51.76
617.973	51.75
618.308	51.84
618.642	51.84
618.977	51.93
619.311	52.12
619.646	52.19
619.98	52.31
620.314	52.37
620.648	52.54
620.983	52.54
621.317	52.65
621.651	52.66
621.985	52.68
622.319	52.61
622.653	52.69
622.987	52.78
623.321	52.87
623.655	53
623.988	53.1
624.322	53.1
624.656	53.06
624.99	53.08
625.323	53.2
625.657	53.3
625.99	53.24
626.324	53.21
626.657	53.22
626.991	53.3
627.324	53.27
627.658	53.22
627.991	53.33
628.324	53.4
628.657	53.49
628.991	53.59
629.324	53.71
629.657	53.74
629.99	53.75
630.323	53.68
630.656	53.69
630.989	53.65
631.322	53.71
631.655	53.75
631.987	53.87
632.32	53.86
632.653	53.88
632.986	53.98
633.318	53.99
633.651	54.09
633.984	54.16
634.316	54.3
634.649	54.34
634.981	54.4
635.313	54.37
635.646	54.41
635.978	54.5
636.31	54.45
636.643	54.51
636.975	54.52
637.307	54.65
637.639	54.68
637.971	54.79
638.303	54.87
638.635	54.85
638.967	54.9
639.299	55.03
639.631	55.06
639.963	55.23
640.295	55.37
640.626	55.41
640.958	55.28
641.29	55.31
641.621	55.4
641.953	55.25
642.285	55.38
642.616	55.37
642.948	55.42
643.279	55.64
643.61	55.67
643.942	55.66
644.273	55.68
644.604	55.81
644.936	55.87
645.267	55.9
645.598	56.12
645.929	56.2
646.26	56.19
646.591	56.24
646.922	56.19
647.253	56.17
647.584	56.19
647.915	56.47
648.245	56.41
648.576	56.47
648.907	56.67
649.238	56.68
649.568	56.79
649.899	56.68
650.229	56.6
650.56	56.63
650.89	56.65
651.221	56.7
651.551	56.66
651.882	56.62
652.212	56.61
652.542	56.56
652.872	56.56
653.203	56.58
653.533	56.72
653.863	56.77
654.193	56.71
654.523	56.6
654.853	56.51
655.183	56.61
655.513	56.66
655.843	56.62
656.172	56.56
656.502	56.47
656.832	56.52
657.162	56.63
657.491	56.63
657.821	56.71
658.15	56.75
658.48	56.82
658.809	56.9
659.139	56.83
659.468	56.71
659.798	56.64
660.127	56.67
660.456	56.54
660.785	56.55
661.115	56.63
661.444	56.89
661.773	56.93
662.102	56.9
662.431	56.86
662.76	56.89
663.089	56.95
663.418	57.02
663.747	57.11
664.076	57
664.404	57.21
664.733	57.26
665.062	57.26
665.39	57.17
665.719	57.14
666.048	57.3
666.376	57.5
666.705	57.57
667.033	57.36
667.362	57.46
667.69	57.47
668.018	57.45
668.347	57.39
668.675	57.33
669.003	57.4
669.331	57.37
669.659	57.34
669.987	57.32
670.315	57.41
670.643	57.4
670.971	57.55
671.299	57.29
671.627	57.37
671.955	57.38
