Data from BA51068_Reflection_00004.txt Node
Date: Tue Nov 19 11:58:56 EST 2019
User: vgr7
Spectrometer: USB2G7710
Scans to average: 3
Trigger mode: 4
Integration Time (sec): 2.000000E-2
Electric dark correction enabled: true
Boxcar width: 10
XAxis mode: Wavelengths
Number of Pixels in Spectrum: 2048
>>>>>Begin Spectral Data<<<<<
177.721	18.83
178.105	74.14
178.488	292.72
178.871	100
179.254	-2300
179.636	-542.86
180.019	35.02
180.402	-5.56
180.785	-27.06
181.168	-90.68
181.55	2638.46
181.933	157.92
182.316	27.61
182.698	54.61
183.081	53.58
183.463	77.67
183.846	493.44
184.228	-45.51
184.611	-30.59
184.993	16.56
185.376	11.5
185.758	23.97
186.14	0.87
186.522	-31.33
186.904	40.66
187.287	66.62
187.669	56.29
188.051	90.9
188.433	87.48
188.815	139.05
189.197	153.29
189.579	120.16
189.961	103.05
190.342	69.74
190.724	75.39
191.106	77.14
191.488	83.77
191.869	97.06
192.251	127.82
192.633	166.34
193.014	151.19
193.396	3100
193.777	155.73
194.159	148.72
194.54	222.87
194.922	117.68
195.303	107.59
195.684	159.49
196.065	203.19
196.447	223.39
196.828	164.83
197.209	129.48
197.59	261.07
197.971	-54.64
198.352	21.82
198.733	113.67
199.114	78.8
199.495	23.57
199.876	3.79
200.257	0.86
200.638	-46.82
201.018	-199
201.399	-231.8
201.78	-440.98
202.16	357.14
202.541	49.15
202.922	-0.42
203.302	296.26
203.683	-65.52
204.063	100
204.444	165.5
204.824	151.06
205.204	28.85
205.585	-172.73
205.965	-981.97
206.345	328.43
206.725	530.28
207.106	1108.4
207.486	229.9
207.866	206.47
208.246	157.2
208.626	113.6
209.006	103.09
209.386	65.41
209.766	94.89
210.145	111.18
210.525	91.22
210.905	82.52
211.285	47.84
211.664	52.43
212.044	45.35
212.424	35.87
212.803	47.14
213.183	37.77
213.562	32.75
213.942	18.82
214.321	13.86
214.701	-0.35
215.08	-0.03
215.459	8.26
215.838	-0.21
216.218	-13.88
216.597	-6.48
216.976	-4.54
217.355	-3.54
217.734	-3.77
218.113	-2.48
218.492	5.93
218.871	5.21
219.25	0.54
219.629	-12.4
220.008	3.23
220.387	8.13
220.766	11.42
221.144	10.31
221.523	2.24
221.902	11.81
222.28	17.85
222.659	35.8
223.037	33.31
223.416	29.55
223.794	35.22
224.173	32.21
224.551	42.68
224.929	23.05
225.308	25.87
225.686	26.36
226.064	26.41
226.442	24.76
226.821	19.15
227.199	21.86
227.577	22.84
227.955	22.27
228.333	21.63
228.711	20.13
229.089	17.82
229.467	18.51
229.845	15.97
230.222	18.68
230.6	15.88
230.978	14.49
231.356	13.46
231.733	16.54
232.111	13.37
232.488	14.36
232.866	18.01
233.243	15.88
233.621	14.83
233.998	13.36
234.376	12.03
234.753	11.92
235.13	10.11
235.508	8.98
235.885	7.35
236.262	5.81
236.639	4.05
237.016	4.31
237.393	4.94
237.77	5.9
238.147	3.98
238.524	4.36
238.901	3.92
239.278	3.96
239.655	2.63
240.032	2.68
240.409	2.16
240.785	1.51
241.162	2
241.539	1.91
241.915	1.8
242.292	2.41
242.668	2.47
243.045	3.03
243.421	3.32
243.798	3.32
244.174	3.41
244.551	3.48
244.927	3.7
245.303	3.38
245.679	3.34
246.056	3.42
246.432	3.67
246.808	3.85
247.184	3.83
247.56	3.83
247.936	3.97
248.312	3.92
248.688	3.93
249.064	4.02
249.44	3.99
249.815	4.41
250.191	4.17
250.567	4.13
250.943	4.04
251.318	4.05
251.694	3.95
252.069	4
252.445	4.04
252.82	3.91
253.196	3.98
253.571	4.49
253.947	4.46
254.322	3.74
254.697	3.72
255.073	3.51
255.448	3.77
255.823	3.87
256.198	3.64
256.573	3.9
256.948	3.72
257.323	3.9
257.698	3.53
258.073	3.72
258.448	3.71
258.823	3.33
259.198	3.33
259.573	3.34
259.948	3.42
260.322	3.16
260.697	3.26
261.072	3.4
261.446	3.22
261.821	3.28
262.195	3.49
262.57	3.49
262.944	3.56
263.319	3.41
263.693	3.44
264.067	3.74
264.442	3.61
264.816	3.67
265.19	3.65
265.564	3.73
265.938	3.71
266.313	3.63
266.687	3.86
267.061	3.71
267.435	3.77
267.809	3.73
268.183	4.06
268.556	4.05
268.93	3.87
269.304	3.74
269.678	3.82
270.051	3.91
270.425	3.85
270.799	3.74
271.172	3.83
271.546	3.81
271.919	3.73
272.293	3.77
272.666	3.81
273.04	3.72
273.413	3.72
273.787	3.45
274.16	3.46
274.533	3.59
274.906	3.66
275.279	3.62
275.653	3.59
276.026	3.71
276.399	3.57
276.772	3.75
277.145	3.88
277.518	3.65
277.891	3.47
278.263	3.44
278.636	3.72
279.009	3.7
279.382	3.66
279.755	3.45
280.127	3.45
280.5	3.4
280.872	3.56
281.245	3.53
281.617	3.64
281.99	3.68
282.362	3.65
282.735	3.52
283.107	3.67
283.479	3.75
283.852	3.64
284.224	3.73
284.596	3.56
284.968	3.41
285.34	3.53
285.713	3.53
286.085	3.44
286.457	3.43
286.829	3.22
287.201	3.29
287.572	3.31
287.944	3.3
288.316	3.39
288.688	3.26
289.06	3.31
289.431	3.4
289.803	3.52
290.175	3.59
290.546	3.64
290.918	3.5
291.289	3.41
291.661	3.33
292.032	3.3
292.403	3.26
292.775	3.4
293.146	3.5
293.517	3.55
293.889	3.52
294.26	3.31
294.631	3.47
295.002	3.44
295.373	3.45
295.744	3.47
296.115	3.43
296.486	3.41
296.857	3.37
297.228	3.41
297.599	3.27
297.97	3.28
298.34	3.39
298.711	3.51
299.082	3.55
299.452	3.61
299.823	3.66
300.194	3.68
300.564	3.65
300.935	3.61
301.305	3.59
301.676	3.71
302.046	3.91
302.416	3.92
302.787	4.13
303.157	4.27
303.527	4.38
303.897	4.35
304.267	4.38
304.637	4.39
305.008	4.42
305.378	4.6
305.748	4.6
306.117	4.5
306.487	4.43
306.857	4.47
307.227	4.42
307.597	4.43
307.967	4.56
308.336	4.59
308.706	4.51
309.076	4.68
309.445	4.76
309.815	4.72
310.184	4.7
310.554	4.39
310.923	4.25
311.293	4.18
311.662	4.22
312.031	4.29
312.401	4.37
312.77	4.43
313.139	4.45
313.508	4.37
313.877	4.35
314.246	4.34
314.616	4.5
314.985	4.53
315.353	4.39
315.722	4.44
316.091	4.42
316.46	4.5
316.829	4.42
317.198	4.23
317.567	4.18
317.935	4.26
318.304	4.37
318.672	4.54
319.041	4.62
319.41	4.35
319.778	4.33
320.147	4.33
320.515	4.13
320.883	4.11
321.252	4
321.62	4.11
321.988	4.15
322.357	3.89
322.725	3.84
323.093	3.81
323.461	3.76
323.829	3.8
324.197	3.79
324.565	3.61
324.933	3.69
325.301	3.64
325.669	3.54
326.037	3.71
326.405	3.57
326.772	3.45
327.14	3.56
327.508	3.45
327.875	3.31
328.243	3.39
328.61	3.35
328.978	3.38
329.346	3.21
329.713	3.23
330.08	3.32
330.448	3.28
330.815	3.41
331.182	3.22
331.55	3.15
331.917	3.03
332.284	3.19
332.651	3.19
333.018	3.18
333.385	3.34
333.752	3.31
334.119	3.38
334.486	3.35
334.853	3.39
335.22	3.5
335.587	3.47
335.954	3.43
336.32	3.35
336.687	3.41
337.054	3.48
337.42	3.35
337.787	3.27
338.153	3.33
338.52	3.34
338.886	3.39
339.253	3.44
339.619	3.51
339.986	3.4
340.352	3.4
340.718	3.47
341.084	3.49
341.451	3.51
341.817	3.48
342.183	3.55
342.549	3.69
342.915	3.67
343.281	3.85
343.647	3.84
344.013	3.96
344.379	3.99
344.745	4.04
345.11	4.02
345.476	4.04
345.842	4.01
346.208	4.02
346.573	4.2
346.939	4.2
347.304	4.17
347.67	4.24
348.035	4.2
348.401	4.23
348.766	4.11
349.132	4.08
349.497	4.15
349.862	4.11
350.228	4.04
350.593	4.04
350.958	4.02
351.323	3.99
351.688	3.91
352.053	3.87
352.418	3.9
352.783	4.06
353.148	3.99
353.513	4.05
353.878	4.01
354.243	3.88
354.608	3.93
354.972	3.94
355.337	3.89
355.702	3.92
356.066	3.96
356.431	4.04
356.795	4.02
357.16	3.98
357.524	3.95
357.889	3.92
358.253	3.87
358.618	3.85
358.982	3.89
359.346	3.9
359.71	3.88
360.075	3.88
360.439	3.87
360.803	3.94
361.167	3.93
361.531	3.91
361.895	3.94
362.259	3.97
362.623	3.96
362.987	3.94
363.351	3.91
363.714	3.86
364.078	3.81
364.442	3.84
364.806	3.87
365.169	3.88
365.533	3.84
365.896	3.87
366.26	3.83
366.623	3.8
366.987	3.77
367.35	3.83
367.714	3.78
368.077	3.78
368.44	3.79
368.803	3.76
369.167	3.78
369.53	3.79
369.893	3.7
370.256	3.71
370.619	3.74
370.982	3.78
371.345	3.81
371.708	3.88
372.071	3.8
372.434	3.76
372.797	3.8
373.159	3.83
373.522	3.78
373.885	3.77
374.247	3.73
374.61	3.73
374.973	3.76
375.335	3.79
375.698	3.68
376.06	3.63
376.423	3.71
376.785	3.74
377.147	3.71
377.51	3.69
377.872	3.68
378.234	3.71
378.596	3.7
378.958	3.67
379.321	3.63
379.683	3.66
380.045	3.66
380.407	3.66
380.769	3.73
381.13	3.71
381.492	3.68
381.854	3.7
382.216	3.67
382.578	3.57
382.939	3.52
383.301	3.55
383.663	3.61
384.024	3.57
384.386	3.61
384.747	3.6
385.109	3.61
385.47	3.63
385.832	3.63
386.193	3.57
386.554	3.53
386.916	3.56
387.277	3.54
387.638	3.57
387.999	3.55
388.36	3.5
388.721	3.54
389.082	3.6
389.443	3.65
389.804	3.74
390.165	3.75
390.526	3.78
390.887	3.78
391.248	3.77
391.609	3.77
391.969	3.7
392.33	3.68
392.691	3.72
393.051	3.7
393.412	3.65
393.772	3.7
394.133	3.72
394.493	3.65
394.854	3.69
395.214	3.67
395.574	3.69
395.935	3.68
396.295	3.67
396.655	3.65
397.015	3.6
397.376	3.58
397.736	3.59
398.096	3.58
398.456	3.59
398.816	3.55
399.176	3.52
399.535	3.53
399.895	3.56
400.255	3.57
400.615	3.61
400.975	3.66
401.334	3.64
401.694	3.65
402.054	3.68
402.413	3.63
402.773	3.64
403.132	3.59
403.492	3.62
403.851	3.65
404.211	3.63
404.57	3.67
404.929	3.65
405.288	3.67
405.648	3.67
406.007	3.7
406.366	3.7
406.725	3.71
407.084	3.72
407.443	3.71
407.802	3.63
408.161	3.61
408.52	3.6
408.879	3.59
409.238	3.6
409.596	3.58
409.955	3.6
410.314	3.56
410.673	3.6
411.031	3.56
411.39	3.54
411.748	3.57
412.107	3.54
412.465	3.51
412.824	3.48
413.182	3.48
413.54	3.49
413.899	3.49
414.257	3.51
414.615	3.51
414.974	3.5
415.332	3.54
415.69	3.54
416.048	3.52
416.406	3.54
416.764	3.54
417.122	3.56
417.48	3.55
417.838	3.55
418.195	3.54
418.553	3.55
418.911	3.54
419.269	3.54
419.626	3.54
419.984	3.55
420.342	3.56
420.699	3.56
421.057	3.54
421.414	3.54
421.772	3.54
422.129	3.53
422.486	3.54
422.844	3.54
423.201	3.55
423.558	3.55
423.915	3.53
424.273	3.53
424.63	3.52
424.987	3.54
425.344	3.55
425.701	3.54
426.058	3.53
426.415	3.54
426.772	3.55
427.128	3.56
427.485	3.56
427.842	3.57
428.199	3.57
428.555	3.56
428.912	3.55
429.269	3.55
429.625	3.56
429.982	3.54
430.338	3.54
430.695	3.51
431.051	3.5
431.407	3.52
431.764	3.53
432.12	3.55
432.476	3.53
432.832	3.53
433.189	3.51
433.545	3.52
433.901	3.52
434.257	3.49
434.613	3.46
434.969	3.46
435.325	3.44
435.681	3.43
436.036	3.44
436.392	3.45
436.748	3.44
437.104	3.44
437.459	3.43
437.815	3.44
438.171	3.46
438.526	3.45
438.882	3.43
439.237	3.41
439.593	3.39
439.948	3.4
440.304	3.4
440.659	3.42
441.014	3.41
441.369	3.44
441.725	3.46
442.08	3.48
442.435	3.49
442.79	3.49
443.145	3.49
443.5	3.48
443.855	3.47
444.21	3.49
444.565	3.49
444.92	3.53
445.275	3.52
445.629	3.5
445.984	3.51
446.339	3.52
446.693	3.54
447.048	3.53
447.403	3.53
447.757	3.52
448.112	3.52
448.466	3.52
448.82	3.47
449.175	3.46
449.529	3.46
449.883	3.45
450.238	3.47
450.592	3.46
450.946	3.46
451.3	3.47
451.654	3.45
452.008	3.45
452.362	3.4
452.716	3.4
453.07	3.42
453.424	3.42
453.778	3.41
454.132	3.4
454.486	3.4
454.839	3.4
455.193	3.41
455.547	3.41
455.9	3.41
456.254	3.43
456.607	3.45
456.961	3.45
457.314	3.46
457.668	3.45
458.021	3.44
458.375	3.43
458.728	3.43
459.081	3.44
459.434	3.44
459.787	3.46
460.141	3.48
460.494	3.48
460.847	3.48
461.2	3.49
461.553	3.51
461.906	3.5
462.259	3.48
462.611	3.48
462.964	3.48
463.317	3.47
463.67	3.48
464.022	3.46
464.375	3.45
464.728	3.45
465.08	3.43
465.433	3.46
465.785	3.5
466.138	3.49
466.49	3.48
466.843	3.49
467.195	3.5
467.547	3.48
467.899	3.47
468.252	3.47
468.604	3.46
468.956	3.46
469.308	3.47
469.66	3.49
470.012	3.49
470.364	3.5
470.716	3.52
471.068	3.53
471.42	3.54
471.772	3.53
472.123	3.56
472.475	3.57
472.827	3.56
473.178	3.55
473.53	3.54
473.882	3.55
474.233	3.54
474.585	3.53
474.936	3.51
475.288	3.53
475.639	3.54
475.99	3.54
476.342	3.54
476.693	3.54
477.044	3.55
477.395	3.54
477.746	3.52
478.097	3.52
478.448	3.51
478.8	3.51
479.15	3.51
479.501	3.5
479.852	3.5
480.203	3.49
480.554	3.49
480.905	3.49
481.255	3.5
481.606	3.5
481.957	3.5
482.307	3.52
482.658	3.51
483.009	3.51
483.359	3.53
483.709	3.53
484.06	3.54
484.41	3.53
484.761	3.54
485.111	3.56
485.461	3.56
485.811	3.57
486.162	3.57
486.512	3.57
486.862	3.57
487.212	3.58
487.562	3.58
487.912	3.6
488.262	3.61
488.612	3.62
488.961	3.61
489.311	3.61
489.661	3.61
490.011	3.62
490.36	3.62
490.71	3.62
491.06	3.62
491.409	3.6
491.759	3.62
492.108	3.62
492.458	3.61
492.807	3.62
493.157	3.61
493.506	3.61
493.855	3.61
494.204	3.62
494.554	3.62
494.903	3.62
495.252	3.61
495.601	3.63
495.95	3.63
496.299	3.63
496.648	3.64
496.997	3.67
497.346	3.69
497.695	3.67
498.043	3.7
498.392	3.71
498.741	3.73
499.09	3.74
499.438	3.74
499.787	3.74
500.135	3.73
500.484	3.73
500.832	3.75
501.181	3.75
501.529	3.77
501.878	3.8
502.226	3.82
502.574	3.82
502.923	3.8
503.271	3.81
503.619	3.81
503.967	3.81
504.315	3.77
504.663	3.76
505.011	3.78
505.359	3.74
505.707	3.76
506.055	3.77
506.403	3.77
506.751	3.77
507.098	3.79
507.446	3.8
507.794	3.82
508.141	3.83
508.489	3.85
508.837	3.82
509.184	3.81
509.531	3.8
509.879	3.8
510.226	3.81
510.574	3.82
510.921	3.83
511.268	3.85
511.616	3.9
511.963	3.9
512.31	3.91
512.657	3.92
513.004	3.92
513.351	3.93
513.698	3.94
514.045	3.96
514.392	3.95
514.739	3.97
515.086	3.98
515.432	4
515.779	4
516.126	4.04
516.473	4.03
516.819	4.06
517.166	4.09
517.512	4.1
517.859	4.11
518.205	4.11
518.552	4.11
518.898	4.1
519.245	4.11
519.591	4.12
519.937	4.13
520.283	4.14
520.629	4.15
520.976	4.15
521.322	4.14
521.668	4.15
522.014	4.15
522.36	4.14
522.706	4.13
523.052	4.14
523.398	4.14
523.743	4.15
524.089	4.13
524.435	4.11
524.781	4.13
525.126	4.12
525.472	4.13
525.817	4.12
526.163	4.12
526.509	4.11
526.854	4.12
527.199	4.12
527.545	4.12
527.89	4.13
528.235	4.13
528.581	4.14
528.926	4.15
529.271	4.15
529.616	4.15
529.961	4.16
530.306	4.17
530.651	4.16
530.996	4.18
531.341	4.2
531.686	4.21
532.031	4.21
532.376	4.22
532.721	4.23
533.065	4.25
533.41	4.24
533.755	4.27
534.099	4.27
534.444	4.27
534.788	4.27
535.133	4.29
535.477	4.3
535.822	4.31
536.166	4.32
536.51	4.32
536.855	4.33
537.199	4.32
537.543	4.34
537.887	4.35
538.231	4.34
538.576	4.33
538.92	4.34
539.264	4.34
539.608	4.33
539.951	4.34
540.295	4.36
540.639	4.37
540.983	4.38
541.327	4.39
541.671	4.4
542.014	4.41
542.358	4.4
542.701	4.41
543.045	4.41
543.389	4.4
543.732	4.41
544.075	4.43
544.419	4.44
544.762	4.42
545.105	4.42
545.449	4.42
545.792	4.45
546.135	4.45
546.478	4.46
546.821	4.5
547.165	4.51
547.508	4.49
547.851	4.48
548.194	4.48
548.536	4.47
548.879	4.48
549.222	4.48
549.565	4.47
549.908	4.45
550.25	4.44
550.593	4.47
550.936	4.47
551.278	4.44
551.621	4.47
551.963	4.48
552.306	4.48
552.648	4.47
552.991	4.44
553.333	4.46
553.675	4.45
554.017	4.42
554.36	4.41
554.702	4.41
555.044	4.4
555.386	4.39
555.728	4.42
556.07	4.39
556.412	4.37
556.754	4.35
557.096	4.36
557.438	4.38
557.78	4.38
558.121	4.39
558.463	4.42
558.805	4.43
559.147	4.42
559.488	4.46
559.83	4.5
560.171	4.49
560.513	4.47
560.854	4.47
561.196	4.5
561.537	4.5
561.878	4.52
562.22	4.52
562.561	4.51
562.902	4.47
563.243	4.48
563.584	4.53
563.925	4.57
564.266	4.55
564.607	4.57
564.948	4.55
565.289	4.56
565.63	4.53
565.971	4.53
566.312	4.54
566.653	4.51
566.993	4.49
567.334	4.51
567.675	4.52
568.015	4.54
568.356	4.52
568.696	4.55
569.037	4.54
569.377	4.57
569.718	4.57
570.058	4.58
570.398	4.63
570.739	4.58
571.079	4.6
571.419	4.62
571.759	4.57
572.099	4.56
572.439	4.56
572.779	4.58
573.119	4.6
573.459	4.61
573.799	4.61
574.139	4.61
574.479	4.61
574.819	4.62
575.158	4.62
575.498	4.63
575.838	4.61
576.177	4.61
576.517	4.59
576.856	4.59
577.196	4.61
577.535	4.56
577.875	4.6
578.214	4.58
578.553	4.57
578.893	4.59
579.232	4.61
579.571	4.61
579.91	4.6
580.25	4.58
580.589	4.58
580.928	4.57
581.267	4.57
581.606	4.55
581.945	4.54
582.283	4.54
582.622	4.49
582.961	4.51
583.3	4.45
583.639	4.45
583.977	4.49
584.316	4.52
584.654	4.54
584.993	4.53
585.332	4.56
585.67	4.6
586.008	4.63
586.347	4.65
586.685	4.61
587.024	4.61
587.362	4.56
587.7	4.59
588.038	4.6
588.376	4.64
588.715	4.66
589.053	4.67
589.391	4.66
589.729	4.7
590.067	4.63
590.404	4.68
590.742	4.68
591.08	4.68
591.418	4.69
591.756	4.7
592.093	4.72
592.431	4.7
592.769	4.69
593.106	4.67
593.444	4.65
593.781	4.69
594.119	4.69
594.456	4.69
594.793	4.66
595.131	4.65
595.468	4.65
595.805	4.68
596.143	4.73
596.48	4.75
596.817	4.75
597.154	4.82
597.491	4.83
597.828	4.83
598.165	4.8
598.502	4.79
598.839	4.79
599.176	4.77
599.512	4.74
599.849	4.75
600.186	4.79
600.523	4.79
600.859	4.79
601.196	4.81
601.532	4.88
601.869	4.88
602.205	4.86
602.542	4.87
602.878	4.85
603.215	4.79
603.551	4.78
603.887	4.76
604.223	4.75
604.56	4.74
604.896	4.76
605.232	4.79
605.568	4.77
605.904	4.78
606.24	4.77
606.576	4.83
606.912	4.8
607.248	4.76
607.583	4.76
607.919	4.75
608.255	4.74
608.591	4.73
608.926	4.77
609.262	4.81
609.597	4.76
609.933	4.78
610.268	4.82
610.604	4.78
610.939	4.84
611.275	4.86
611.61	4.84
611.945	4.85
612.281	4.85
612.616	4.89
612.951	4.91
613.286	4.91
613.621	4.88
613.956	4.9
614.291	4.96
614.626	4.97
614.961	5.02
615.296	5.05
615.631	5.01
615.966	4.93
616.3	4.94
616.635	4.99
616.97	4.94
617.304	4.89
617.639	4.94
617.973	4.86
618.308	4.82
618.642	4.88
618.977	4.86
619.311	4.88
619.646	4.87
619.98	4.88
620.314	4.91
620.648	4.9
620.983	4.96
621.317	4.95
621.651	4.97
621.985	4.98
622.319	4.97
622.653	5
622.987	5.04
623.321	5.01
623.655	5.01
623.988	5.04
624.322	5.09
624.656	5.07
624.99	5.13
625.323	5.15
625.657	5.15
625.99	5.18
626.324	5.18
626.657	5.17
626.991	5.18
627.324	5.17
627.658	5.17
627.991	5.13
628.324	5.12
628.657	5.1
628.991	5.06
629.324	5.03
629.657	5.04
629.99	5.01
630.323	5.03
630.656	5.04
630.989	5.04
631.322	5.02
631.655	5.05
631.987	5.02
632.32	5.05
632.653	5.04
632.986	5
633.318	5.01
633.651	5.04
633.984	4.99
634.316	4.96
634.649	4.96
634.981	4.9
635.313	4.97
635.646	5.01
635.978	5.08
636.31	5.12
636.643	5.11
636.975	5.16
637.307	5.2
637.639	5.14
637.971	5.16
638.303	5.11
638.635	5.11
638.967	5.14
639.299	5.1
639.631	5.07
639.963	5.05
640.295	5.06
640.626	5.04
640.958	5.03
641.29	5.02
641.621	5.01
641.953	5.07
642.285	4.96
642.616	4.99
642.948	4.94
643.279	4.92
643.61	4.93
643.942	4.95
644.273	4.98
644.604	5.03
644.936	5.01
645.267	5.12
645.598	5.13
645.929	5.11
646.26	5.11
646.591	5.21
646.922	5.27
647.253	5.17
647.584	5.11
647.915	5.17
648.245	5.19
648.576	5.24
648.907	5.26
649.238	5.26
649.568	5.21
649.899	5.19
650.229	5.19
650.56	5.26
650.89	5.24
651.221	5.21
651.551	5.26
651.882	5.27
652.212	5.22
652.542	5.19
652.872	5.15
653.203	5.15
653.533	5.15
653.863	5.19
654.193	5.23
654.523	5.24
654.853	5.22
655.183	5.31
655.513	5.34
655.843	5.34
656.172	5.45
656.502	5.41
656.832	5.37
657.162	5.39
657.491	5.32
657.821	5.37
658.15	5.36
658.48	5.38
658.809	5.31
659.139	5.36
659.468	5.3
659.798	5.38
660.127	5.4
660.456	5.33
660.785	5.32
661.115	5.41
661.444	5.53
661.773	5.52
662.102	5.44
662.431	5.39
662.76	5.43
663.089	5.46
663.418	5.53
663.747	5.6
664.076	5.72
664.404	5.76
664.733	5.72
665.062	5.67
665.39	5.58
665.719	5.67
666.048	5.6
666.376	5.67
666.705	5.68
667.033	5.72
667.362	5.72
667.69	5.73
668.018	5.67
668.347	5.58
668.675	5.51
669.003	5.53
669.331	5.55
669.659	5.5
669.987	5.48
670.315	5.53
670.643	5.48
670.971	5.4
671.299	5.28
671.627	5.37
671.955	5.33
672.283	5.37
672.61	5.33
672.938	5.38
673.266	5.41
673.593	5.39
673.921	5.41
674.249	5.44
674.576	5.44
674.904	5.44
675.231	5.48
675.558	5.58
675.886	5.67
676.213	5.66
676.54	5.67
676.867	5.56
677.195	5.51
677.522	5.63
677.849	5.55
678.176	5.67
678.503	5.6
678.83	5.65
