Data from BA51245_Reflection_00008.txt Node
Date: Tue Nov 19 11:51:48 EST 2019
User: vgr7
Spectrometer: USB2G7710
Scans to average: 3
Trigger mode: 4
Integration Time (sec): 2.000000E-2
Electric dark correction enabled: true
Boxcar width: 10
XAxis mode: Wavelengths
Number of Pixels in Spectrum: 2048
>>>>>Begin Spectral Data<<<<<
177.721	-73.91
178.105	290.48
178.488	360.87
178.871	-166.67
179.254	-78.95
179.636	-15.38
180.019	-42.86
180.402	-0
180.785	433.33
181.168	236.36
181.55	293.55
181.933	77.44
182.316	35.06
182.698	64.47
183.081	26.94
183.463	0.52
183.846	5.51
184.228	112.05
184.611	58.68
184.993	100
185.376	-48.94
185.758	-0.5
186.14	-62.96
186.522	-16.75
186.904	-4.76
187.287	-11.11
187.669	17.17
188.051	18.58
188.433	26.21
188.815	30.18
189.197	41.43
189.579	45.95
189.961	41.18
190.342	37.21
190.724	44.35
191.106	38.18
191.488	36.38
191.869	40.84
192.251	47.75
192.633	53.78
193.014	64.07
193.396	81.63
193.777	69.12
194.159	34.14
194.54	49.26
194.922	49.41
195.303	70.3
195.684	55.41
196.065	52.74
196.447	40.36
196.828	43.2
197.209	22.82
197.59	7.5
197.971	6.5
198.352	5.46
198.733	-0.41
199.114	-1.41
199.495	-14.54
199.876	-22.09
200.257	-26.15
200.638	-29.43
201.018	-42.04
201.399	-43.17
201.78	-39.56
202.16	-40.65
202.541	-62.69
202.922	-66.88
203.302	-75.22
203.683	-76.98
204.063	-75.89
204.444	-57.56
204.824	-53.74
205.204	-55.15
205.585	-24.1
205.965	-27.63
206.345	-35.91
206.725	-29.99
207.106	-19.55
207.486	-10.86
207.866	-8.25
208.246	-0.79
208.626	2.31
209.006	15.36
209.386	17.8
209.766	28.78
210.145	31.36
210.525	34.69
210.905	42.07
211.285	46.14
211.664	40.48
212.044	34.83
212.424	27.23
212.803	19.61
213.183	25.33
213.562	15.48
213.942	11.04
214.321	8.42
214.701	2.87
215.08	6.61
215.459	7.39
215.838	2.59
216.218	-15.04
216.597	-10.09
216.976	-18.07
217.355	-18.35
217.734	-34.38
218.113	-42.38
218.492	-62.74
218.871	-39.81
219.25	-48.15
219.629	-106.8
220.008	-51.6
220.387	10.84
220.766	34.32
221.144	22.24
221.523	18.85
221.902	25.03
222.28	42.54
222.659	51.97
223.037	46.98
223.416	40.67
223.794	37.87
224.173	36.94
224.551	30.81
224.929	26.98
225.308	29
225.686	24.79
226.064	25.26
226.442	25.68
226.821	15.85
227.199	14.37
227.577	18.83
227.955	15.92
228.333	13.19
228.711	8.34
229.089	6.93
229.467	8.62
229.845	5.32
230.222	2.91
230.6	-1.83
230.978	-1.01
231.356	1.25
231.733	6.56
232.111	6.32
232.488	6.76
232.866	8.5
233.243	9.59
233.621	12.48
233.998	10.76
234.376	9.11
234.753	8.47
235.13	6.28
235.508	8.22
235.885	7.73
236.262	6.43
236.639	9.75
237.016	10.51
237.393	10.96
237.77	11.75
238.147	11.18
238.524	11.14
238.901	10.09
239.278	9.77
239.655	9.07
240.032	9.47
240.409	8.75
240.785	8.28
241.162	7.9
241.539	7.54
241.915	7.71
242.292	7.61
242.668	7.52
243.045	8.38
243.421	7.95
243.798	7.8
244.174	7.61
244.551	6.96
244.927	6.78
245.303	6.12
245.679	5.79
246.056	6.09
246.432	6.18
246.808	6.54
247.184	6.56
247.56	6.27
247.936	6.13
248.312	6.21
248.688	6.11
249.064	6.36
249.44	6.02
249.815	5.97
250.191	5.96
250.567	6.03
250.943	5.85
251.318	5.57
251.694	5.31
252.069	5.5
252.445	5.5
252.82	6.01
253.196	6.16
253.571	6.96
253.947	6.68
254.322	6.42
254.697	6.34
255.073	6.24
255.448	6.17
255.823	6.3
256.198	6.2
256.573	6.02
256.948	5.69
257.323	5.82
257.698	5.89
258.073	5.84
258.448	5.78
258.823	5.7
259.198	5.71
259.573	5.71
259.948	5.66
260.322	5.61
260.697	5.5
261.072	5.46
261.446	5.17
261.821	4.99
262.195	5.03
262.57	5
262.944	4.96
263.319	5.02
263.693	4.96
264.067	5.08
264.442	5.04
264.816	4.95
265.19	4.91
265.564	4.61
265.938	4.52
266.313	4.51
266.687	4.44
267.061	4.54
267.435	4.57
267.809	4.41
268.183	4.31
268.556	4.27
268.93	4.37
269.304	4.39
269.678	4.6
270.051	4.61
270.425	4.36
270.799	4.14
271.172	4.17
271.546	4.39
271.919	4.22
272.293	4.18
272.666	4.27
273.04	4.37
273.413	4.59
273.787	4.59
274.16	4.74
274.533	4.62
274.906	4.62
275.279	4.5
275.653	4.44
276.026	4.53
276.399	4.39
276.772	4.35
277.145	4.34
277.518	4.05
277.891	3.89
278.263	4.09
278.636	4.35
279.009	4.3
279.382	4.07
279.755	4.26
280.127	4.51
280.5	4.63
280.872	4.54
281.245	4.73
281.617	4.78
281.99	4.73
282.362	4.81
282.735	4.65
283.107	4.66
283.479	4.76
283.852	4.81
284.224	4.76
284.596	4.77
284.968	4.75
285.34	4.86
285.713	5.08
286.085	4.94
286.457	4.92
286.829	5.06
287.201	5.05
287.572	5.09
287.944	5.13
288.316	5.12
288.688	5.18
289.06	5.13
289.431	5.3
289.803	5.35
290.175	5.41
290.546	5.53
290.918	5.71
291.289	5.7
291.661	5.65
292.032	5.81
292.403	5.92
292.775	6.02
293.146	6.06
293.517	6.16
293.889	6.37
294.26	6.48
294.631	6.44
295.002	6.47
295.373	6.32
295.744	6.22
296.115	6.3
296.486	6.42
296.857	6.54
297.228	6.39
297.599	6.41
297.97	6.59
298.34	6.74
298.711	6.84
299.082	6.99
299.452	7.11
299.823	7.23
300.194	7.25
300.564	7.2
300.935	7.39
301.305	7.28
301.676	7.19
302.046	7.3
302.416	7.42
302.787	7.6
303.157	7.84
303.527	8.09
303.897	8.12
304.267	8.28
304.637	8.17
305.008	8.32
305.378	8.55
305.748	8.64
306.117	8.68
306.487	8.71
306.857	8.86
307.227	9.19
307.597	9.14
307.967	9.14
308.336	9.38
308.706	9.56
309.076	9.96
309.445	10.21
309.815	10.2
310.184	10.27
310.554	10.32
310.923	10.32
311.293	10.37
311.662	10.52
312.031	10.57
312.401	10.63
312.77	10.92
313.139	10.87
313.508	10.91
313.877	11.03
314.246	10.99
314.616	10.97
314.985	10.91
315.353	11.13
315.722	11.47
316.091	11.57
316.46	11.51
316.829	11.37
317.198	11.5
317.567	11.68
317.935	11.7
318.304	11.82
318.672	12.08
319.041	12.15
319.41	12.28
319.778	12.32
320.147	12.6
320.515	12.46
320.883	12.62
321.252	12.56
321.62	12.62
321.988	12.87
322.357	12.94
322.725	12.94
323.093	12.85
323.461	12.85
323.829	12.87
324.197	13.06
324.565	13.04
324.933	13.08
325.301	12.99
325.669	13.1
326.037	13.21
326.405	13.16
326.772	13.33
327.14	13.19
327.508	13.18
327.875	13.09
328.243	13.14
328.61	13.15
328.978	13.25
329.346	13.28
329.713	13.38
330.08	13.51
330.448	13.64
330.815	13.77
331.182	13.77
331.55	13.82
331.917	13.81
332.284	13.92
332.651	13.99
333.018	14.02
333.385	14.12
333.752	14.21
334.119	14.33
334.486	14.19
334.853	14.22
335.22	14.25
335.587	14.31
335.954	14.37
336.32	14.33
336.687	14.37
337.054	14.4
337.42	14.32
337.787	14.23
338.153	14.38
338.52	14.49
338.886	14.56
339.253	14.6
339.619	14.46
339.986	14.39
340.352	14.47
340.718	14.5
341.084	14.55
341.451	14.47
341.817	14.47
342.183	14.56
342.549	14.75
342.915	14.83
343.281	14.88
343.647	14.89
344.013	14.96
344.379	15
344.745	15.11
345.11	15.04
345.476	15.17
345.842	14.95
346.208	14.93
346.573	14.99
346.939	15.07
347.304	15.19
347.67	15.32
348.035	15.3
348.401	15.38
348.766	15.31
349.132	15.43
349.497	15.47
349.862	15.46
350.228	15.26
350.593	15.16
350.958	15.3
351.323	15.27
351.688	15.39
352.053	15.31
352.418	15.25
352.783	15.25
353.148	15.27
353.513	15.33
353.878	15.31
354.243	15.34
354.608	15.34
354.972	15.38
355.337	15.39
355.702	15.27
356.066	15.18
356.431	15.09
356.795	14.89
357.16	14.81
357.524	14.79
357.889	14.82
358.253	14.77
358.618	14.69
358.982	14.76
359.346	14.7
359.71	14.77
360.075	14.74
360.439	14.84
360.803	14.78
361.167	14.75
361.531	14.72
361.895	14.64
362.259	14.61
362.623	14.59
362.987	14.55
363.351	14.55
363.714	14.59
364.078	14.56
364.442	14.55
364.806	14.57
365.169	14.5
365.533	14.48
365.896	14.55
366.26	14.43
366.623	14.35
366.987	14.28
367.35	14.21
367.714	14.1
368.077	14.02
368.44	13.93
368.803	13.87
369.167	13.71
369.53	13.66
369.893	13.66
370.256	13.55
370.619	13.46
370.982	13.37
371.345	13.31
371.708	13.28
372.071	13.19
372.434	13.04
372.797	13.06
373.159	13.02
373.522	12.83
373.885	12.79
374.247	12.58
374.61	12.48
374.973	12.42
375.335	12.35
375.698	12.22
376.06	12.2
376.423	12.14
376.785	12.13
377.147	12.02
377.51	11.85
377.872	11.71
378.234	11.64
378.596	11.6
378.958	11.53
379.321	11.43
379.683	11.41
380.045	11.35
380.407	11.24
380.769	11.16
381.13	11.12
381.492	11.08
381.854	11.08
382.216	11.04
382.578	10.96
382.939	10.91
383.301	10.89
383.663	10.82
384.024	10.7
384.386	10.64
384.747	10.6
385.109	10.55
385.47	10.53
385.832	10.39
386.193	10.32
386.554	10.18
386.916	10.16
387.277	10.09
387.638	10.04
387.999	9.95
388.36	9.89
388.721	9.82
389.082	9.82
389.443	9.76
389.804	9.71
390.165	9.65
390.526	9.61
390.887	9.5
391.248	9.45
391.609	9.44
391.969	9.38
392.33	9.27
392.691	9.18
393.051	9.09
393.412	9.1
393.772	9.07
394.133	9.02
394.493	8.97
394.854	8.91
395.214	8.85
395.574	8.81
395.935	8.74
396.295	8.69
396.655	8.57
397.015	8.5
397.376	8.45
397.736	8.34
398.096	8.27
398.456	8.21
398.816	8.12
399.176	8.04
399.535	7.99
399.895	7.95
400.255	7.95
400.615	7.92
400.975	7.85
401.334	7.77
401.694	7.74
402.054	7.69
402.413	7.68
402.773	7.63
403.132	7.58
403.492	7.55
403.851	7.54
404.211	7.51
404.57	7.49
404.929	7.41
405.288	7.43
405.648	7.4
406.007	7.43
406.366	7.43
406.725	7.43
407.084	7.4
407.443	7.4
407.802	7.37
408.161	7.38
408.52	7.37
408.879	7.37
409.238	7.36
409.596	7.32
409.955	7.3
410.314	7.28
410.673	7.28
411.031	7.24
411.39	7.23
411.748	7.23
412.107	7.22
412.465	7.23
412.824	7.2
413.182	7.18
413.54	7.12
413.899	7.05
414.257	7.02
414.615	6.97
414.974	6.95
415.332	6.91
415.69	6.86
416.048	6.82
416.406	6.77
416.764	6.74
417.122	6.7
417.48	6.67
417.838	6.65
418.195	6.62
418.553	6.62
418.911	6.58
419.269	6.53
419.626	6.49
419.984	6.46
420.342	6.44
420.699	6.38
421.057	6.35
421.414	6.35
421.772	6.32
422.129	6.29
422.486	6.28
422.844	6.27
423.201	6.24
423.558	6.22
423.915	6.21
424.273	6.2
424.63	6.21
424.987	6.19
425.344	6.17
425.701	6.14
426.058	6.11
426.415	6.09
426.772	6.08
427.128	6.07
427.485	6.05
427.842	6.01
428.199	6.04
428.555	6.04
428.912	6.02
429.269	6
429.625	6
429.982	5.98
430.338	5.96
430.695	5.97
431.051	5.96
431.407	5.93
431.764	5.91
432.12	5.88
432.476	5.88
432.832	5.86
433.189	5.88
433.545	5.87
433.901	5.86
434.257	5.83
434.613	5.83
434.969	5.85
435.325	5.86
435.681	5.86
436.036	5.87
436.392	5.86
436.748	5.87
437.104	5.86
437.459	5.84
437.815	5.83
438.171	5.83
438.526	5.82
438.882	5.85
439.237	5.84
439.593	5.84
439.948	5.83
440.304	5.83
440.659	5.82
441.014	5.83
441.369	5.83
441.725	5.85
442.08	5.83
442.435	5.8
442.79	5.77
443.145	5.76
443.5	5.72
443.855	5.71
444.21	5.69
444.565	5.68
444.92	5.67
445.275	5.66
445.629	5.64
445.984	5.63
446.339	5.6
446.693	5.59
447.048	5.59
447.403	5.56
447.757	5.54
448.112	5.53
448.466	5.5
448.82	5.48
449.175	5.46
449.529	5.44
449.883	5.44
450.238	5.45
450.592	5.44
450.946	5.44
451.3	5.42
451.654	5.41
452.008	5.39
452.362	5.4
452.716	5.37
453.07	5.37
453.424	5.35
453.778	5.37
454.132	5.37
454.486	5.38
454.839	5.43
455.193	5.46
455.547	5.47
455.9	5.49
456.254	5.51
456.607	5.5
456.961	5.52
457.314	5.52
457.668	5.51
458.021	5.53
458.375	5.52
458.728	5.53
459.081	5.54
459.434	5.54
459.787	5.56
460.141	5.59
460.494	5.6
460.847	5.62
461.2	5.62
461.553	5.64
461.906	5.64
462.259	5.62
462.611	5.61
462.964	5.59
463.317	5.58
463.67	5.59
464.022	5.62
464.375	5.63
464.728	5.64
465.08	5.63
465.433	5.62
465.785	5.66
466.138	5.7
466.49	5.73
466.843	5.76
467.195	5.78
467.547	5.77
467.899	5.79
468.252	5.81
468.604	5.82
468.956	5.85
469.308	5.84
469.66	5.88
470.012	5.9
470.364	5.93
470.716	5.96
471.068	5.96
471.42	5.97
471.772	5.99
472.123	6.01
472.475	6.06
472.827	6.1
473.178	6.09
473.53	6.06
473.882	6.05
474.233	6.04
474.585	6.02
474.936	6.04
475.288	6
475.639	6.01
475.99	5.99
476.342	5.97
476.693	5.97
477.044	5.96
477.395	5.96
477.746	5.93
478.097	5.92
478.448	5.93
478.8	5.92
479.15	5.9
479.501	5.89
479.852	5.87
480.203	5.86
480.554	5.85
480.905	5.85
481.255	5.83
481.606	5.83
481.957	5.84
482.307	5.81
482.658	5.82
483.009	5.83
483.359	5.84
483.709	5.85
484.06	5.85
484.41	5.84
484.761	5.84
485.111	5.85
485.461	5.86
485.811	5.87
486.162	5.87
486.512	5.88
486.862	5.88
487.212	5.89
487.562	5.9
487.912	5.91
488.262	5.92
488.612	5.94
488.961	5.96
489.311	5.96
489.661	5.98
490.011	5.99
490.36	5.98
490.71	5.99
491.06	5.99
491.409	6.02
491.759	6.04
492.108	6.07
492.458	6.08
492.807	6.08
493.157	6.11
493.506	6.15
493.855	6.18
494.204	6.2
494.554	6.24
494.903	6.27
495.252	6.31
495.601	6.36
495.95	6.4
496.299	6.45
496.648	6.53
496.997	6.57
497.346	6.63
497.695	6.71
498.043	6.74
498.392	6.78
498.741	6.82
499.09	6.86
499.438	6.92
499.787	6.98
500.135	7.04
500.484	7.08
500.832	7.13
501.181	7.19
501.529	7.28
501.878	7.33
502.226	7.42
502.574	7.47
502.923	7.53
503.271	7.62
503.619	7.69
503.967	7.74
504.315	7.85
504.663	7.94
505.011	8.03
505.359	8.13
505.707	8.23
506.055	8.33
506.403	8.4
506.751	8.49
507.098	8.58
507.446	8.68
507.794	8.78
508.141	8.86
508.489	8.94
508.837	9.01
509.184	9.07
509.531	9.13
509.879	9.24
510.226	9.33
510.574	9.42
510.921	9.51
511.268	9.6
511.616	9.7
511.963	9.77
512.31	9.86
512.657	9.97
513.004	10.06
513.351	10.17
513.698	10.28
514.045	10.36
514.392	10.48
514.739	10.6
515.086	10.69
515.432	10.81
515.779	10.94
516.126	11.07
516.473	11.19
516.819	11.33
517.166	11.42
517.512	11.52
517.859	11.61
518.205	11.69
518.552	11.79
518.898	11.87
519.245	11.96
519.591	12.06
519.937	12.14
520.283	12.24
520.629	12.34
520.976	12.47
521.322	12.6
521.668	12.69
522.014	12.8
522.36	12.95
522.706	13.08
523.052	13.21
523.398	13.35
523.743	13.52
524.089	13.69
524.435	13.82
524.781	13.95
525.126	14.1
525.472	14.23
525.817	14.35
526.163	14.45
526.509	14.58
526.854	14.67
527.199	14.76
527.545	14.85
527.89	14.92
528.235	15.02
528.581	15.11
528.926	15.2
529.271	15.3
529.616	15.4
529.961	15.5
530.306	15.61
530.651	15.7
530.996	15.81
531.341	15.9
531.686	16.07
532.031	16.21
532.376	16.33
532.721	16.46
533.065	16.61
533.41	16.76
533.755	16.89
534.099	17.03
534.444	17.19
534.788	17.35
535.133	17.53
535.477	17.67
535.822	17.81
536.166	17.99
536.51	18.17
536.855	18.34
537.199	18.54
537.543	18.72
537.887	18.92
538.231	19.13
538.576	19.33
538.92	19.49
539.264	19.68
539.608	19.84
539.951	19.98
540.295	20.13
540.639	20.28
540.983	20.42
541.327	20.58
541.671	20.72
542.014	20.87
542.358	21
542.701	21.16
543.045	21.3
543.389	21.43
543.732	21.59
544.075	21.73
544.419	21.9
544.762	22.03
545.105	22.18
545.449	22.34
545.792	22.54
546.135	22.71
546.478	22.88
546.821	23.1
547.165	23.29
547.508	23.49
547.851	23.67
548.194	23.87
548.536	24.06
548.879	24.27
549.222	24.46
549.565	24.66
549.908	24.83
550.25	25.08
550.593	25.3
550.936	25.5
551.278	25.74
551.621	25.93
551.963	26.2
552.306	26.46
552.648	26.67
552.991	26.84
553.333	27.01
553.675	27.25
554.017	27.42
554.36	27.66
554.702	27.88
555.044	28.06
555.386	28.3
555.728	28.53
556.07	28.76
556.412	29.03
556.754	29.25
557.096	29.52
557.438	29.77
557.78	30.04
558.121	30.27
558.463	30.51
558.805	30.82
559.147	31.09
559.488	31.29
559.83	31.54
560.171	31.82
560.513	32.05
560.854	32.29
561.196	32.59
561.537	32.79
561.878	33.1
562.22	33.37
562.561	33.63
562.902	33.87
563.243	34.06
563.584	34.21
563.925	34.49
564.266	34.74
564.607	34.91
564.948	35.17
565.289	35.4
565.63	35.61
565.971	35.8
566.312	35.95
566.653	36.17
566.993	36.37
567.334	36.58
567.675	36.83
568.015	37.01
568.356	37.21
568.696	37.5
569.037	37.71
569.377	37.98
569.718	38.18
570.058	38.37
570.398	38.64
570.739	38.88
571.079	39.08
571.419	39.27
571.759	39.48
572.099	39.66
572.439	39.88
572.779	40.11
573.119	40.28
573.459	40.48
573.799	40.67
574.139	40.87
574.479	41.04
574.819	41.27
575.158	41.5
575.498	41.73
575.838	41.92
576.177	42.09
576.517	42.25
576.856	42.5
577.196	42.72
577.535	42.92
577.875	43.17
578.214	43.4
578.553	43.62
578.893	43.84
579.232	44.04
579.571	44.28
579.91	44.45
580.25	44.66
580.589	44.91
580.928	45.08
581.267	45.28
581.606	45.55
581.945	45.68
582.283	45.83
582.622	45.98
582.961	46.09
583.3	46.28
583.639	46.49
583.977	46.63
584.316	46.82
584.654	47.02
584.993	47.15
585.332	47.27
585.67	47.46
586.008	47.63
586.347	47.73
586.685	47.76
587.024	47.92
587.362	48.05
587.7	48.25
588.038	48.43
588.376	48.56
588.715	48.67
589.053	48.84
589.391	48.94
589.729	49.15
590.067	49.33
590.404	49.42
590.742	49.5
591.08	49.61
591.418	49.66
591.756	49.74
592.093	49.83
592.431	50.01
592.769	50.11
593.106	50.23
593.444	50.47
593.781	50.55
594.119	50.69
594.456	50.75
594.793	50.87
595.131	51.03
595.468	51.19
595.805	51.29
596.143	51.38
596.48	51.48
596.817	51.49
597.154	51.59
597.491	51.71
597.828	51.79
598.165	51.94
598.502	52.09
598.839	52.19
599.176	52.4
599.512	52.48
599.849	52.62
600.186	52.71
600.523	52.76
600.859	52.91
601.196	52.96
601.532	53.08
601.869	53.09
602.205	53.2
602.542	53.21
602.878	53.29
603.215	53.37
603.551	53.38
603.887	53.44
604.223	53.47
604.56	53.52
604.896	53.59
605.232	53.52
605.568	53.56
605.904	53.6
606.24	53.64
606.576	53.66
606.912	53.73
607.248	53.79
607.583	53.88
607.919	53.98
608.255	54.08
608.591	54.16
608.926	54.16
609.262	54.09
609.597	54.2
609.933	54.23
610.268	54.35
610.604	54.49
610.939	54.53
611.275	54.54
611.61	54.59
611.945	54.66
612.281	54.83
612.616	54.97
612.951	55.06
613.286	55.08
613.621	55.21
613.956	55.32
614.291	55.46
614.626	55.46
614.961	55.54
615.296	55.62
615.631	55.67
615.966	55.76
616.3	55.9
616.635	55.88
616.97	55.95
617.304	55.95
617.639	56.1
617.973	56.21
618.308	56.36
618.642	56.45
618.977	56.59
619.311	56.58
619.646	56.6
619.98	56.62
620.314	56.7
620.648	56.71
620.983	56.71
621.317	56.71
621.651	56.82
621.985	56.86
622.319	56.82
622.653	56.9
622.987	57.03
623.321	57.14
623.655	57.29
623.988	57.29
624.322	57.26
624.656	57.2
624.99	57.29
625.323	57.4
625.657	57.44
625.99	57.45
626.324	57.62
626.657	57.63
626.991	57.73
627.324	57.61
627.658	57.61
627.991	57.7
628.324	57.73
628.657	57.73
628.991	57.74
629.324	57.8
629.657	57.85
629.99	57.88
630.323	57.9
630.656	57.86
630.989	57.95
631.322	58.03
631.655	58.05
631.987	58.09
632.32	58
632.653	58.05
632.986	58.09
633.318	57.99
633.651	58.13
633.984	58.11
634.316	58.31
634.649	58.33
634.981	58.27
635.313	58.33
635.646	58.35
635.978	58.38
636.31	58.41
636.643	58.4
636.975	58.42
637.307	58.41
637.639	58.47
637.971	58.41
638.303	58.48
638.635	58.44
638.967	58.37
639.299	58.54
639.631	58.53
639.963	58.53
640.295	58.54
640.626	58.4
640.958	58.48
641.29	58.42
641.621	58.5
641.953	58.45
642.285	58.47
642.616	58.49
642.948	58.54
643.279	58.68
643.61	58.78
643.942	58.79
644.273	58.82
644.604	58.84
644.936	58.93
645.267	58.91
645.598	59.08
645.929	59.16
646.26	59.16
646.591	59.16
646.922	59.17
647.253	59.31
647.584	59.41
647.915	59.53
648.245	59.59
648.576	59.75
648.907	59.9
649.238	59.88
649.568	59.88
649.899	60.01
650.229	60.02
650.56	59.97
650.89	59.98
651.221	60.08
651.551	60.13
651.882	60.18
652.212	60.23
652.542	60.26
652.872	60.33
653.203	60.21
653.533	60.35
653.863	60.37
654.193	60.32
654.523	60.35
654.853	60.22
655.183	60.17
655.513	60.07
655.843	60.01
656.172	60.13
656.502	60.15
656.832	60.17
657.162	60.11
657.491	60.16
657.821	60.22
658.15	60.21
658.48	60.29
658.809	60.24
659.139	60.24
659.468	60.2
659.798	60.15
660.127	60.21
660.456	60.14
660.785	60.01
661.115	60.09
661.444	60.18
661.773	60.28
662.102	60.45
662.431	60.38
662.76	60.5
663.089	60.47
663.418	60.56
