Data from BA51245_Reflection_00014.txt Node
Date: Tue Nov 19 11:52:04 EST 2019
User: vgr7
Spectrometer: USB2G7710
Scans to average: 3
Trigger mode: 4
Integration Time (sec): 2.000000E-2
Electric dark correction enabled: true
Boxcar width: 10
XAxis mode: Wavelengths
Number of Pixels in Spectrum: 2048
>>>>>Begin Spectral Data<<<<<
177.721	834.3
178.105	-360.32
178.488	-194.69
178.871	137.04
179.254	96.49
179.636	114.25
180.019	1465.08
180.402	33.33
180.785	462.96
181.168	640.4
181.55	691.4
181.933	215.29
182.316	127.42
182.698	203.21
183.081	174.58
183.463	243.11
183.846	456.96
184.228	597.99
184.611	367.22
184.993	1313.33
185.376	-178.96
185.758	-132.83
186.14	-206.17
186.522	-191.03
186.904	-97.88
187.287	-52.09
187.669	-62.29
188.051	-71.33
188.433	-81.51
188.815	-62.9
189.197	-56.91
189.579	-23.35
189.961	-14.68
190.342	-1.58
190.724	-0.38
191.106	2.11
191.488	11.02
191.869	34.58
192.251	34.2
192.633	48.64
193.014	77.38
193.396	88.63
193.777	96.83
194.159	61.29
194.54	56.9
194.922	47.16
195.303	33.99
195.684	61.08
196.065	54
196.447	47.65
196.828	54.7
197.209	58.4
197.59	54.04
197.971	55.1
198.352	38.3
198.733	46.63
199.114	45.66
199.495	45.18
199.876	18.61
200.257	22.03
200.638	10.46
201.018	1.11
201.399	4.18
201.78	-1.08
202.16	-3.66
202.541	-15.47
202.922	-11.69
203.302	-9.3
203.683	-18.47
204.063	-32.39
204.444	-28.76
204.824	-28.34
205.204	-42.92
205.585	-50.55
205.965	-61.76
206.345	-63.57
206.725	-53.58
207.106	-54.84
207.486	-45.52
207.866	-35.41
208.246	-43.07
208.626	-49.65
209.006	-49.34
209.386	-53.87
209.766	-57.4
210.145	-46.25
210.525	-39.86
210.905	-40.5
211.285	-38.43
211.664	-31.03
212.044	-22.17
212.424	-23.28
212.803	-28.25
213.183	-38.07
213.562	-34.17
213.942	-28.6
214.321	-39.07
214.701	-47.01
215.08	-49.35
215.459	-41.49
215.838	-45.91
216.218	-38.22
216.597	-24.95
216.976	-40.13
217.355	-37.79
217.734	-43.69
218.113	-44.61
218.492	-57.03
218.871	-48.22
219.25	-44.52
219.629	-53.92
220.008	-75.9
220.387	-79.12
220.766	-45.05
221.144	-32.79
221.523	-32.75
221.902	-28.58
222.28	-7.55
222.659	-0.22
223.037	6.33
223.416	-8.45
223.794	-1.56
224.173	-9.4
224.551	-11.68
224.929	-7.73
225.308	-4.71
225.686	-2.9
226.064	-3.34
226.442	1.91
226.821	1.83
227.199	-1.37
227.577	-1.15
227.955	0.92
228.333	2.94
228.711	2.86
229.089	7.2
229.467	6.11
229.845	2.75
230.222	4.72
230.6	3.11
230.978	0.62
231.356	2.83
231.733	-2.27
232.111	-1.8
232.488	-0.13
232.866	-0.12
233.243	2.9
233.621	1.45
233.998	2.46
234.376	2.28
234.753	1.17
235.13	0.26
235.508	0.93
235.885	0.58
236.262	0.31
236.639	-0.12
237.016	-0.9
237.393	0.84
237.77	1.43
238.147	-0.16
238.524	0.57
238.901	0.04
239.278	0.15
239.655	1.23
240.032	1.39
240.409	1.18
240.785	0.57
241.162	-0.06
241.539	0.46
241.915	0.2
242.292	-0.13
242.668	0.59
243.045	1.44
243.421	1.64
243.798	2.28
244.174	2.44
244.551	2.81
244.927	2.71
245.303	2.47
245.679	2.56
246.056	2.53
246.432	2.4
246.808	2.64
247.184	2.74
247.56	2.66
247.936	2.73
248.312	3.01
248.688	3.27
249.064	3.46
249.44	3.29
249.815	3.33
250.191	3.63
250.567	3.5
250.943	3.44
251.318	3.11
251.694	2.78
252.069	2.76
252.445	2.43
252.82	2.8
253.196	2.68
253.571	3.04
253.947	3.1
254.322	3.04
254.697	2.99
255.073	3.12
255.448	3.64
255.823	3.42
256.198	3.28
256.573	3.45
256.948	3.47
257.323	3.72
257.698	3.77
258.073	3.89
258.448	3.94
258.823	3.73
259.198	3.89
259.573	3.69
259.948	3.7
260.322	3.67
260.697	3.67
261.072	3.87
261.446	3.81
261.821	3.93
262.195	3.98
262.57	3.79
262.944	3.76
263.319	3.5
263.693	3.62
264.067	3.68
264.442	3.58
264.816	3.51
265.19	3.51
265.564	3.44
265.938	3.39
266.313	3.39
266.687	3.49
267.061	3.46
267.435	3.63
267.809	3.56
268.183	3.67
268.556	3.42
268.93	3.36
269.304	3.15
269.678	3.14
270.051	3.25
270.425	3.47
270.799	3.35
271.172	3.32
271.546	3.27
271.919	3.25
272.293	3.33
272.666	3.39
273.04	3.36
273.413	3.19
273.787	3.07
274.16	2.94
274.533	2.99
274.906	2.9
275.279	3
275.653	2.9
276.026	2.94
276.399	3.09
276.772	3.19
277.145	3.2
277.518	3
277.891	2.98
278.263	3.07
278.636	3.18
279.009	3.35
279.382	3.33
279.755	3.2
280.127	3.25
280.5	3.19
280.872	3.16
281.245	3.41
281.617	3.42
281.99	3.46
282.362	3.48
282.735	3.54
283.107	3.4
283.479	3.48
283.852	3.51
284.224	3.53
284.596	3.42
284.968	3.39
285.34	3.42
285.713	3.43
286.085	3.31
286.457	3.36
286.829	3.27
287.201	3.41
287.572	3.57
287.944	3.6
288.316	3.73
288.688	3.79
289.06	3.9
289.431	3.96
289.803	3.9
290.175	3.83
290.546	3.86
290.918	3.99
291.289	4.04
291.661	3.96
292.032	3.9
292.403	3.85
292.775	3.98
293.146	4.17
293.517	4.17
293.889	4.17
294.26	4.07
294.631	4.14
295.002	4.23
295.373	4.19
295.744	4.19
296.115	4.1
296.486	4.05
296.857	4
297.228	3.99
297.599	4.05
297.97	4.2
298.34	4.24
298.711	4.11
299.082	4.13
299.452	4.27
299.823	4.33
300.194	4.5
300.564	4.37
300.935	4.43
301.305	4.43
301.676	4.47
302.046	4.59
302.416	4.63
302.787	4.47
303.157	4.39
303.527	4.39
303.897	4.3
304.267	4.36
304.637	4.43
305.008	4.34
305.378	4.53
305.748	4.45
306.117	4.41
306.487	4.58
306.857	4.69
307.227	4.73
307.597	4.85
307.967	4.81
308.336	4.87
308.706	4.75
309.076	4.84
309.445	4.98
309.815	4.95
310.184	4.86
310.554	5.09
310.923	5.04
311.293	5
311.662	5.02
312.031	4.9
312.401	4.78
312.77	4.87
313.139	4.92
313.508	4.88
313.877	4.88
314.246	4.84
314.616	4.72
314.985	4.7
315.353	4.72
315.722	4.86
316.091	5
316.46	5
316.829	4.8
317.198	4.76
317.567	4.86
317.935	4.91
318.304	4.69
318.672	4.96
319.041	5.16
319.41	5.24
319.778	5.48
320.147	5.5
320.515	5.54
320.883	5.49
321.252	5.47
321.62	5.5
321.988	5.62
322.357	5.72
322.725	5.6
323.093	5.39
323.461	5.25
323.829	5.11
324.197	5.18
324.565	5.44
324.933	5.4
325.301	5.36
325.669	5.34
326.037	5.52
326.405	5.53
326.772	5.4
327.14	5.35
327.508	5.31
327.875	5.38
328.243	5.25
328.61	5.28
328.978	5.35
329.346	5.39
329.713	5.45
330.08	5.41
330.448	5.46
330.815	5.54
331.182	5.52
331.55	5.63
331.917	5.67
332.284	5.57
332.651	5.58
333.018	5.58
333.385	5.72
333.752	5.7
334.119	5.71
334.486	5.76
334.853	5.83
335.22	5.68
335.587	5.64
335.954	5.72
336.32	5.66
336.687	5.84
337.054	5.8
337.42	5.86
337.787	5.76
338.153	5.85
338.52	5.95
338.886	6.13
339.253	6
339.619	6.01
339.986	6.05
340.352	6.02
340.718	6.13
341.084	6.16
341.451	6.11
341.817	5.98
342.183	6
342.549	6.02
342.915	6.21
343.281	6.29
343.647	6.33
344.013	6.39
344.379	6.27
344.745	6.37
345.11	6.23
345.476	6.34
345.842	6.22
346.208	6.19
346.573	6.15
346.939	6.18
347.304	6.19
347.67	6.13
348.035	6.1
348.401	6.02
348.766	6
349.132	6
349.497	6.16
349.862	6.2
350.228	6.15
350.593	6.17
350.958	6.18
351.323	6.15
351.688	6.17
352.053	6.21
352.418	6.18
352.783	6.12
353.148	6.11
353.513	6.12
353.878	6.15
354.243	6
354.608	6.08
354.972	6.08
355.337	6.07
355.702	6.1
356.066	6.17
356.431	6.07
356.795	6.02
357.16	5.86
357.524	5.8
357.889	5.91
358.253	5.91
358.618	5.84
358.982	5.85
359.346	5.78
359.71	5.74
360.075	5.68
360.439	5.7
360.803	5.78
361.167	5.73
361.531	5.68
361.895	5.71
362.259	5.73
362.623	5.74
362.987	5.79
363.351	5.82
363.714	5.83
364.078	5.87
364.442	5.8
364.806	5.83
365.169	5.8
365.533	5.75
365.896	5.75
366.26	5.69
366.623	5.66
366.987	5.71
367.35	5.73
367.714	5.78
368.077	5.75
368.44	5.65
368.803	5.7
369.167	5.62
369.53	5.61
369.893	5.61
370.256	5.57
370.619	5.46
370.982	5.41
371.345	5.4
371.708	5.32
372.071	5.34
372.434	5.32
372.797	5.29
373.159	5.27
373.522	5.18
373.885	5.23
374.247	5.22
374.61	5.16
374.973	5.11
375.335	5.04
375.698	5.03
376.06	5.01
376.423	5
376.785	5.04
377.147	5.06
377.51	5.04
377.872	5.03
378.234	5.05
378.596	5.06
378.958	4.98
379.321	5.03
379.683	5.02
380.045	4.96
380.407	5
380.769	4.92
381.13	4.82
381.492	4.75
381.854	4.71
382.216	4.69
382.578	4.65
382.939	4.58
383.301	4.57
383.663	4.58
384.024	4.58
384.386	4.53
384.747	4.44
385.109	4.36
385.47	4.3
385.832	4.23
386.193	4.19
386.554	4.14
386.916	4.11
387.277	4.06
387.638	4.05
387.999	4
388.36	4
388.721	4.04
389.082	4.05
389.443	4.03
389.804	4.04
390.165	4.07
390.526	4.08
390.887	4.07
391.248	4.07
391.609	4.05
391.969	4.06
392.33	4.06
392.691	4.04
393.051	4.05
393.412	4.04
393.772	3.98
394.133	3.95
394.493	3.91
394.854	3.92
395.214	3.91
395.574	3.88
395.935	3.88
396.295	3.82
396.655	3.8
397.015	3.81
397.376	3.76
397.736	3.68
398.096	3.65
398.456	3.64
398.816	3.6
399.176	3.55
399.535	3.51
399.895	3.51
400.255	3.56
400.615	3.49
400.975	3.53
401.334	3.56
401.694	3.56
402.054	3.54
402.413	3.53
402.773	3.52
403.132	3.52
403.492	3.53
403.851	3.56
404.211	3.56
404.57	3.57
404.929	3.55
405.288	3.58
405.648	3.59
406.007	3.55
406.366	3.54
406.725	3.5
407.084	3.52
407.443	3.52
407.802	3.47
408.161	3.49
408.52	3.42
408.879	3.41
409.238	3.42
409.596	3.42
409.955	3.38
410.314	3.35
410.673	3.32
411.031	3.25
411.39	3.26
411.748	3.24
412.107	3.2
412.465	3.2
412.824	3.16
413.182	3.13
413.54	3.15
413.899	3.15
414.257	3.18
414.615	3.12
414.974	3.12
415.332	3.13
415.69	3.1
416.048	3.12
416.406	3.1
416.764	3.07
417.122	3.06
417.48	3.1
417.838	3.11
418.195	3.11
418.553	3.11
418.911	3.08
419.269	3.06
419.626	3.04
419.984	3.04
420.342	3.04
420.699	3.04
421.057	3.04
421.414	3.02
421.772	3
422.129	3
422.486	2.99
422.844	2.97
423.201	2.98
423.558	2.97
423.915	2.99
424.273	2.98
424.63	3.01
424.987	2.99
425.344	2.99
425.701	2.98
426.058	2.99
426.415	2.98
426.772	2.97
427.128	2.96
427.485	2.96
427.842	2.97
428.199	2.98
428.555	2.97
428.912	2.97
429.269	2.96
429.625	2.99
429.982	3.01
430.338	3.02
430.695	2.99
431.051	3
431.407	2.94
431.764	2.95
432.12	2.93
432.476	2.94
432.832	2.94
433.189	2.93
433.545	2.92
433.901	2.93
434.257	2.96
434.613	2.97
434.969	2.94
435.325	2.94
435.681	2.93
436.036	2.93
436.392	2.93
436.748	2.94
437.104	2.92
437.459	2.89
437.815	2.9
438.171	2.9
438.526	2.91
438.882	2.93
439.237	2.92
439.593	2.91
439.948	2.91
440.304	2.9
440.659	2.9
441.014	2.91
441.369	2.91
441.725	2.9
442.08	2.88
442.435	2.9
442.79	2.88
443.145	2.87
443.5	2.88
443.855	2.88
444.21	2.89
444.565	2.9
444.92	2.89
445.275	2.89
445.629	2.88
445.984	2.88
446.339	2.89
446.693	2.87
447.048	2.88
447.403	2.87
447.757	2.87
448.112	2.88
448.466	2.89
448.82	2.87
449.175	2.87
449.529	2.9
449.883	2.89
450.238	2.89
450.592	2.88
450.946	2.86
451.3	2.86
451.654	2.83
452.008	2.84
452.362	2.84
452.716	2.83
453.07	2.85
453.424	2.82
453.778	2.8
454.132	2.81
454.486	2.81
454.839	2.82
455.193	2.83
455.547	2.82
455.9	2.83
456.254	2.83
456.607	2.84
456.961	2.86
457.314	2.87
457.668	2.9
458.021	2.91
458.375	2.92
458.728	2.92
459.081	2.94
459.434	2.91
459.787	2.89
460.141	2.9
460.494	2.92
460.847	2.92
461.2	2.92
461.553	2.93
461.906	2.95
462.259	2.95
462.611	2.95
462.964	2.96
463.317	2.94
463.67	2.95
464.022	2.95
464.375	2.94
464.728	2.94
465.08	2.95
465.433	2.94
465.785	2.93
466.138	2.95
466.49	2.96
466.843	2.98
467.195	3.03
467.547	3.02
467.899	3.02
468.252	3.04
468.604	3.06
468.956	3.04
469.308	3.03
469.66	3.04
470.012	3.04
470.364	3.04
470.716	3.07
471.068	3.09
471.42	3.07
471.772	3.08
472.123	3.08
472.475	3.08
472.827	3.09
473.178	3.1
473.53	3.08
473.882	3.06
474.233	3.07
474.585	3.05
474.936	3.05
475.288	3.03
475.639	3.02
475.99	2.99
476.342	3.03
476.693	3
477.044	3
477.395	3.01
477.746	2.98
478.097	2.94
478.448	2.94
478.8	2.95
479.15	2.93
479.501	2.92
479.852	2.9
480.203	2.9
480.554	2.91
480.905	2.91
481.255	2.91
481.606	2.93
481.957	2.93
482.307	2.94
482.658	2.94
483.009	2.94
483.359	2.95
483.709	2.95
484.06	2.96
484.41	2.95
484.761	2.96
485.111	2.96
485.461	2.98
485.811	2.97
486.162	2.98
486.512	2.98
486.862	2.99
487.212	3
487.562	3
487.912	3.02
488.262	3.02
488.612	3.02
488.961	3.02
489.311	3.02
489.661	3.02
490.011	3.03
490.36	3.04
490.71	3.05
491.06	3.04
491.409	3.05
491.759	3.06
492.108	3.06
492.458	3.06
492.807	3.06
493.157	3.07
493.506	3.08
493.855	3.1
494.204	3.1
494.554	3.12
494.903	3.13
495.252	3.12
495.601	3.14
495.95	3.16
496.299	3.18
496.648	3.22
496.997	3.22
497.346	3.24
497.695	3.24
498.043	3.26
498.392	3.29
498.741	3.29
499.09	3.32
499.438	3.34
499.787	3.37
500.135	3.39
500.484	3.42
500.832	3.45
501.181	3.46
501.529	3.48
501.878	3.48
502.226	3.55
502.574	3.57
502.923	3.57
503.271	3.59
503.619	3.61
503.967	3.59
504.315	3.62
504.663	3.62
505.011	3.63
505.359	3.63
505.707	3.67
506.055	3.72
506.403	3.75
506.751	3.77
507.098	3.8
507.446	3.81
507.794	3.83
508.141	3.87
508.489	3.91
508.837	3.93
509.184	3.94
509.531	3.96
509.879	3.97
510.226	4.02
510.574	4.05
510.921	4.07
511.268	4.12
511.616	4.17
511.963	4.22
512.31	4.25
512.657	4.32
513.004	4.33
513.351	4.36
513.698	4.38
514.045	4.42
514.392	4.45
514.739	4.51
515.086	4.56
515.432	4.57
515.779	4.59
516.126	4.66
516.473	4.72
516.819	4.74
517.166	4.79
517.512	4.82
517.859	4.86
518.205	4.87
518.552	4.91
518.898	4.92
519.245	4.97
519.591	5.03
519.937	5.05
520.283	5.09
520.629	5.15
520.976	5.19
521.322	5.24
521.668	5.3
522.014	5.34
522.36	5.38
522.706	5.46
523.052	5.54
523.398	5.58
523.743	5.66
524.089	5.74
524.435	5.82
524.781	5.91
525.126	5.98
525.472	6.06
525.817	6.11
526.163	6.17
526.509	6.22
526.854	6.28
527.199	6.33
527.545	6.38
527.89	6.42
528.235	6.47
528.581	6.53
528.926	6.58
529.271	6.63
529.616	6.71
529.961	6.77
530.306	6.83
530.651	6.89
530.996	6.96
531.341	7.02
531.686	7.11
532.031	7.17
532.376	7.24
532.721	7.33
533.065	7.42
533.41	7.49
533.755	7.57
534.099	7.65
534.444	7.75
534.788	7.84
535.133	7.94
535.477	8.04
535.822	8.14
536.166	8.26
536.51	8.39
536.855	8.47
537.199	8.57
537.543	8.68
537.887	8.82
538.231	8.94
538.576	9.08
538.92	9.22
539.264	9.35
539.608	9.47
539.951	9.58
540.295	9.69
540.639	9.81
540.983	9.93
541.327	10.05
541.671	10.14
542.014	10.25
542.358	10.35
542.701	10.47
543.045	10.56
543.389	10.67
543.732	10.77
544.075	10.9
544.419	11.06
544.762	11.21
545.105	11.34
545.449	11.46
545.792	11.61
546.135	11.73
546.478	11.89
546.821	12.06
547.165	12.26
547.508	12.45
547.851	12.64
548.194	12.78
548.536	12.94
548.879	13.13
549.222	13.31
549.565	13.49
549.908	13.68
550.25	13.89
550.593	14.1
550.936	14.3
551.278	14.5
551.621	14.64
551.963	14.81
552.306	15.03
552.648	15.21
552.991	15.41
553.333	15.61
553.675	15.8
554.017	16
554.36	16.16
554.702	16.34
555.044	16.51
555.386	16.74
555.728	16.97
556.07	17.19
556.412	17.43
556.754	17.68
557.096	17.9
557.438	18.11
557.78	18.34
558.121	18.58
558.463	18.78
558.805	19.05
559.147	19.34
559.488	19.58
559.83	19.84
560.171	20.1
560.513	20.34
560.854	20.62
561.196	20.91
561.537	21.15
561.878	21.44
562.22	21.75
562.561	22.07
562.902	22.38
563.243	22.64
563.584	22.92
563.925	23.21
564.266	23.45
564.607	23.72
564.948	23.99
565.289	24.25
565.63	24.55
565.971	24.79
566.312	25.01
566.653	25.26
566.993	25.54
567.334	25.8
567.675	26.07
568.015	26.28
568.356	26.55
568.696	26.88
569.037	27.15
569.377	27.4
569.718	27.62
570.058	27.87
570.398	28.14
570.739	28.4
571.079	28.63
571.419	28.87
571.759	29.13
572.099	29.39
572.439	29.64
572.779	29.88
573.119	30.13
573.459	30.38
573.799	30.62
574.139	30.87
574.479	31.08
574.819	31.33
575.158	31.6
575.498	31.78
575.838	31.93
576.177	32.12
576.517	32.37
576.856	32.68
577.196	32.92
577.535	33.19
577.875	33.45
578.214	33.76
578.553	33.99
578.893	34.24
579.232	34.49
579.571	34.74
579.91	35.01
580.25	35.27
580.589	35.5
580.928	35.74
581.267	36.02
581.606	36.31
581.945	36.5
582.283	36.74
582.622	37.03
582.961	37.31
583.3	37.65
583.639	37.96
583.977	38.12
584.316	38.27
584.654	38.61
584.993	38.82
585.332	39.04
585.67	39.35
586.008	39.58
586.347	39.79
586.685	40.03
587.024	40.24
587.362	40.43
587.7	40.76
588.038	41.04
588.376	41.23
588.715	41.37
589.053	41.6
589.391	41.83
589.729	42.03
590.067	42.21
590.404	42.34
590.742	42.49
591.08	42.63
591.418	42.82
591.756	42.9
592.093	43.1
592.431	43.29
592.769	43.47
593.106	43.63
593.444	43.89
593.781	44.04
594.119	44.21
594.456	44.38
594.793	44.48
595.131	44.6
595.468	44.65
595.805	44.87
596.143	45.09
596.48	45.25
596.817	45.38
597.154	45.51
597.491	45.66
597.828	45.78
598.165	45.94
598.502	46.08
598.839	46.26
599.176	46.37
599.512	46.53
599.849	46.67
600.186	46.82
600.523	46.96
600.859	47.04
601.196	47.18
601.532	47.38
601.869	47.53
602.205	47.67
602.542	47.84
602.878	47.9
603.215	47.95
603.551	48.01
603.887	48.13
604.223	48.24
604.56	48.31
604.896	48.43
605.232	48.52
605.568	48.61
605.904	48.72
606.24	48.88
606.576	48.87
606.912	48.99
607.248	49.07
607.583	49.13
607.919	49.26
608.255	49.32
608.591	49.35
608.926	49.38
609.262	49.42
609.597	49.56
609.933	49.66
610.268	49.74
610.604	49.84
610.939	49.91
611.275	50.02
611.61	50.13
611.945	50.2
612.281	50.31
612.616	50.46
612.951	50.55
613.286	50.54
613.621	50.73
613.956	50.82
614.291	50.97
614.626	51.07
614.961	51.28
615.296	51.47
615.631	51.62
615.966	51.71
616.3	51.78
616.635	51.81
616.97	51.89
617.304	51.96
617.639	52.12
617.973	52.14
618.308	52.17
618.642	52.17
618.977	52.21
619.311	52.33
619.646	52.35
619.98	52.34
620.314	52.55
620.648	52.66
620.983	52.75
621.317	52.76
621.651	52.81
621.985	52.84
622.319	52.82
622.653	52.83
622.987	52.94
623.321	53.1
623.655	53.29
623.988	53.42
624.322	53.42
624.656	53.44
624.99	53.53
625.323	53.61
625.657	53.71
625.99	53.8
626.324	53.82
626.657	53.89
626.991	53.96
627.324	53.83
627.658	53.76
627.991	53.86
628.324	53.87
628.657	53.95
628.991	53.99
629.324	54.04
629.657	54.12
629.99	54.16
630.323	54.13
630.656	54.1
630.989	54.03
631.322	54.2
631.655	54.24
631.987	54.29
632.32	54.31
632.653	54.39
632.986	54.42
633.318	54.44
633.651	54.54
633.984	54.62
634.316	54.81
634.649	54.89
634.981	54.78
635.313	54.88
635.646	54.79
635.978	54.8
636.31	54.72
636.643	54.75
636.975	54.75
637.307	54.85
637.639	54.86
637.971	55.04
638.303	54.99
638.635	54.99
638.967	55.04
639.299	55.13
639.631	55.23
639.963	55.21
640.295	55.22
640.626	55.2
640.958	55.15
641.29	55.05
641.621	55.08
641.953	55.12
642.285	55.19
642.616	55.38
642.948	55.42
643.279	55.65
643.61	55.54
643.942	55.62
644.273	55.72
644.604	55.84
644.936	55.81
645.267	55.9
645.598	56.04
645.929	56.09
646.26	56.18
646.591	56.21
646.922	56.22
647.253	56.24
647.584	56.29
647.915	56.38
648.245	56.49
648.576	56.63
648.907	56.78
649.238	56.84
649.568	56.8
649.899	56.72
650.229	56.74
650.56	56.83
650.89	56.76
651.221	56.68
651.551	56.64
651.882	56.62
652.212	56.6
652.542	56.56
652.872	56.54
653.203	56.45
653.533	56.53
653.863	56.7
654.193	56.69
654.523	56.66
654.853	56.63
655.183	56.6
655.513	56.68
655.843	56.64
656.172	56.68
656.502	56.81
656.832	57.02
657.162	57.03
657.491	57.06
657.821	57.18
658.15	57.23
658.48	57.21
658.809	57.33
659.139	57.37
659.468	57.26
659.798	57.33
660.127	57.44
660.456	57.31
660.785	57.24
661.115	57.38
661.444	57.49
661.773	57.53
662.102	57.57
662.431	57.4
662.76	57.42
663.089	57.39
663.418	57.3
663.747	57.16
664.076	57.09
664.404	57.22
664.733	57.35
665.062	57.41
665.39	57.44
665.719	57.33
666.048	57.22
666.376	57.33
666.705	57.3
667.033	57.12
667.362	57.11
667.69	57.15
668.018	57.15
668.347	57.2
668.675	57.15
669.003	57.15
669.331	57.28
669.659	57.33
669.987	57.37
