Data from BA51068_Reflection_00015.txt Node
Date: Tue Nov 19 11:59:16 EST 2019
User: vgr7
Spectrometer: USB2G7710
Scans to average: 3
Trigger mode: 4
Integration Time (sec): 2.000000E-2
Electric dark correction enabled: true
Boxcar width: 10
XAxis mode: Wavelengths
Number of Pixels in Spectrum: 2048
>>>>>Begin Spectral Data<<<<<
177.721	-66.29
178.105	186.21
178.488	163.17
178.871	136.36
179.254	-4200
179.636	412.5
180.019	-93.14
180.402	16.67
180.785	120
181.168	40.68
181.55	-2400
181.933	-37.07
182.316	-11.26
182.698	-8.17
183.081	-38.3
183.463	34.24
183.846	501.64
184.228	-11.98
184.611	1.45
184.993	63.58
185.376	44.56
185.758	55.12
186.14	83.48
186.522	78.8
186.904	138.46
187.287	132.68
187.669	190.73
188.051	240.36
188.433	186.93
188.815	190.02
189.197	147.07
189.579	69.2
189.961	56.77
190.342	55.39
190.724	54.55
191.106	76.71
191.488	96.84
191.869	137.78
192.251	224.42
192.633	415.72
193.014	456.66
193.396	6208.7
193.777	451.39
194.159	314.62
194.54	466.89
194.922	234.58
195.303	212.66
195.684	260.06
196.065	231.45
196.447	276.09
196.828	328.88
197.209	452.58
197.59	1163.76
197.971	-2028.87
198.352	-699.67
198.733	-431.89
199.114	-587.28
199.495	-1081.53
199.876	-484.55
200.257	-189.47
200.638	-212.4
201.018	-446.51
201.399	-727.19
201.78	-2350.82
202.16	4200
202.541	2735.59
202.922	750.63
203.302	1693.46
203.683	-1241.38
204.063	-508.47
204.444	-775.55
204.824	-638.3
205.204	-597.63
205.585	-1333.88
205.965	-2547.54
206.345	737.06
206.725	683.67
207.106	1557.98
207.486	334.02
207.866	299.37
208.246	113.82
208.626	99.55
209.006	93.31
209.386	46.58
209.766	25.53
210.145	71.58
210.525	38.05
210.905	14.42
211.285	16.61
211.664	26.09
212.044	31.11
212.424	21.55
212.803	17.28
213.183	5.87
213.562	8.41
213.942	6.46
214.321	0.53
214.701	-2.12
215.08	-10.73
215.459	3.7
215.838	5.8
216.218	10.57
216.597	11.94
216.976	22.08
217.355	27.9
217.734	32.53
218.113	26.51
218.492	39.3
218.871	47.39
219.25	51.53
219.629	48.11
220.008	47.63
220.387	40.83
220.766	52.29
221.144	60.71
221.523	62.97
221.902	83.7
222.28	93.89
222.659	83.73
223.037	87.44
223.416	71.62
223.794	66.9
224.173	63.88
224.551	75.08
224.929	62.42
225.308	46.26
225.686	51.31
226.064	42.05
226.442	36.04
226.821	34.65
227.199	25.81
227.577	19.78
227.955	21.02
228.333	21.94
228.711	16.48
229.089	16.44
229.467	12.11
229.845	8.2
230.222	5.65
230.6	7.34
230.978	6.65
231.356	6.11
231.733	6.37
232.111	5.95
232.488	4.22
232.866	5.98
233.243	6.9
233.621	8.58
233.998	10.91
234.376	8.98
234.753	8.26
235.13	8.26
235.508	9.74
235.885	8.88
236.262	7.98
236.639	8.52
237.016	8.31
237.393	10.25
237.77	10.52
238.147	10.72
238.524	9.39
238.901	8.61
239.278	8.33
239.655	7.46
240.032	7.67
240.409	8.21
240.785	7.04
241.162	6.9
241.539	5.73
241.915	5.19
242.292	5.3
242.668	5.33
243.045	5.56
243.421	5.31
243.798	5.27
244.174	5.19
244.551	5.32
244.927	5.08
245.303	4.84
245.679	4.96
246.056	5.07
246.432	4.97
246.808	5.05
247.184	5.04
247.56	5.19
247.936	5.25
248.312	5.35
248.688	5.47
249.064	5.32
249.44	5.33
249.815	5.43
250.191	5.39
250.567	5.19
250.943	5.11
251.318	5.07
251.694	4.76
252.069	4.87
252.445	4.83
252.82	5.18
253.196	5.09
253.571	5.08
253.947	4.93
254.322	4.97
254.697	4.78
255.073	4.73
255.448	4.57
255.823	4.32
256.198	3.72
256.573	3.85
256.948	4.15
257.323	4.32
257.698	4.05
258.073	4.05
258.448	4.2
258.823	4.03
259.198	4.19
259.573	4.22
259.948	4.33
260.322	4.28
260.697	4.28
261.072	4.4
261.446	4.46
261.821	4.4
262.195	4.39
262.57	4.54
262.944	4.49
263.319	4.46
263.693	4.51
264.067	4.79
264.442	4.66
264.816	4.51
265.19	4.34
265.564	4.52
265.938	4.51
266.313	4.26
266.687	4.42
267.061	4.18
267.435	4.35
267.809	4.12
268.183	4.03
268.556	3.88
268.93	3.77
269.304	3.7
269.678	3.58
270.051	3.66
270.425	3.47
270.799	3.65
271.172	3.76
271.546	3.74
271.919	3.66
272.293	3.95
272.666	3.91
273.04	3.98
273.413	3.88
273.787	3.86
274.16	4.08
274.533	4.04
274.906	4.11
275.279	4.12
275.653	4.18
276.026	4.25
276.399	4.35
276.772	4.53
277.145	4.39
277.518	4.44
277.891	4.42
278.263	4.64
278.636	4.52
279.009	4.5
279.382	4.37
279.755	4.13
280.127	4.05
280.5	3.99
280.872	3.8
281.245	3.73
281.617	3.72
281.99	3.72
282.362	3.74
282.735	3.7
283.107	3.56
283.479	3.59
283.852	3.65
284.224	3.6
284.596	3.6
284.968	3.89
285.34	3.83
285.713	3.9
286.085	3.9
286.457	3.89
286.829	3.9
287.201	3.98
287.572	4.18
287.944	4.25
288.316	4.33
288.688	4.51
289.06	4.65
289.431	4.71
289.803	4.73
290.175	4.81
290.546	4.91
290.918	5.05
291.289	4.97
291.661	4.9
292.032	4.95
292.403	5.01
292.775	4.89
293.146	5.02
293.517	5.13
293.889	5.08
294.26	5.14
294.631	5.15
295.002	5.22
295.373	5.31
295.744	5.12
296.115	5.16
296.486	5.11
296.857	5.09
297.228	5
297.599	4.87
297.97	4.85
298.34	4.86
298.711	4.89
299.082	5.07
299.452	5.05
299.823	4.97
300.194	5.04
300.564	5
300.935	5.14
301.305	4.94
301.676	4.85
302.046	4.89
302.416	5
302.787	5.06
303.157	5.02
303.527	5.18
303.897	5.07
304.267	5.14
304.637	5.23
305.008	5.35
305.378	5.66
305.748	5.74
306.117	5.73
306.487	5.87
306.857	5.82
307.227	5.98
307.597	6.01
307.967	5.86
308.336	5.99
308.706	5.84
309.076	6.06
309.445	6.28
309.815	6.26
310.184	6.13
310.554	6.06
310.923	6.06
311.293	6.12
311.662	6.33
312.031	6.41
312.401	6.34
312.77	6.49
313.139	6.46
313.508	6.49
313.877	6.52
314.246	6.39
314.616	6.54
314.985	6.38
315.353	6.67
315.722	6.75
316.091	6.63
316.46	6.71
316.829	6.64
317.198	6.63
317.567	6.69
317.935	6.85
318.304	7.02
318.672	7.25
319.041	7.47
319.41	7.29
319.778	7.43
320.147	7.61
320.515	7.55
320.883	7.6
321.252	7.68
321.62	7.75
321.988	7.92
322.357	7.99
322.725	8.12
323.093	7.96
323.461	8.12
323.829	8.36
324.197	8.39
324.565	8.38
324.933	8.38
325.301	8.36
325.669	8.44
326.037	8.41
326.405	8.31
326.772	8.16
327.14	8.37
327.508	8.16
327.875	8.24
328.243	8.24
328.61	8.2
328.978	8.08
329.346	8.05
329.713	8.05
330.08	7.96
330.448	8.11
330.815	8.08
331.182	8.02
331.55	7.99
331.917	7.85
332.284	7.94
332.651	8.03
333.018	8.09
333.385	8.04
333.752	8.18
334.119	8.19
334.486	8.11
334.853	8.1
335.22	8.18
335.587	8.2
335.954	8.36
336.32	8.39
336.687	8.56
337.054	8.7
337.42	8.63
337.787	8.72
338.153	8.72
338.52	8.97
338.886	9.11
339.253	8.96
339.619	9.23
339.986	9.22
340.352	9.1
340.718	9.12
341.084	9.03
341.451	8.96
341.817	8.85
342.183	9.03
342.549	9.04
342.915	9.18
343.281	9.11
343.647	9.05
344.013	8.99
344.379	8.88
344.745	8.83
345.11	8.84
345.476	8.83
345.842	8.81
346.208	8.69
346.573	8.59
346.939	8.65
347.304	8.57
347.67	8.56
348.035	8.62
348.401	8.58
348.766	8.61
349.132	8.63
349.497	8.8
349.862	8.67
350.228	8.67
350.593	8.63
350.958	8.86
351.323	8.85
351.688	8.91
352.053	8.93
352.418	8.91
352.783	8.84
353.148	8.72
353.513	8.67
353.878	8.64
354.243	8.55
354.608	8.62
354.972	8.65
355.337	8.66
355.702	8.6
356.066	8.59
356.431	8.57
356.795	8.51
357.16	8.45
357.524	8.45
357.889	8.38
358.253	8.25
358.618	8.05
358.982	8.05
359.346	8.03
359.71	7.96
360.075	7.98
360.439	8.04
360.803	8.11
361.167	8.12
361.531	8.1
361.895	8.12
362.259	8.08
362.623	8.01
362.987	8.04
363.351	8.06
363.714	8.08
364.078	8.11
364.442	8.09
364.806	8.02
365.169	7.97
365.533	8.03
365.896	8.11
366.26	7.99
366.623	7.88
366.987	7.82
367.35	7.86
367.714	7.78
368.077	7.72
368.44	7.58
368.803	7.53
369.167	7.43
369.53	7.39
369.893	7.45
370.256	7.4
370.619	7.31
370.982	7.2
371.345	7.2
371.708	7.12
372.071	7.05
372.434	7
372.797	6.94
373.159	6.72
373.522	6.63
373.885	6.7
374.247	6.65
374.61	6.68
374.973	6.63
375.335	6.62
375.698	6.53
376.06	6.51
376.423	6.47
376.785	6.47
377.147	6.39
377.51	6.28
377.872	6.25
378.234	6.2
378.596	6.16
378.958	6.08
379.321	5.96
379.683	5.95
380.045	5.9
380.407	5.86
380.769	5.9
381.13	5.83
381.492	5.77
381.854	5.8
382.216	5.73
382.578	5.66
382.939	5.51
383.301	5.46
383.663	5.43
384.024	5.37
384.386	5.38
384.747	5.37
385.109	5.34
385.47	5.31
385.832	5.28
386.193	5.26
386.554	5.19
386.916	5.23
387.277	5.16
387.638	5.15
387.999	5.1
388.36	5.11
388.721	5.11
389.082	5.05
389.443	4.97
389.804	4.91
390.165	4.91
390.526	4.97
390.887	4.95
391.248	4.94
391.609	4.94
391.969	4.86
392.33	4.84
392.691	4.76
393.051	4.7
393.412	4.66
393.772	4.63
394.133	4.61
394.493	4.53
394.854	4.47
395.214	4.47
395.574	4.43
395.935	4.35
396.295	4.29
396.655	4.3
397.015	4.28
397.376	4.27
397.736	4.17
398.096	4.1
398.456	4.1
398.816	4.07
399.176	4
399.535	4.01
399.895	3.98
400.255	4
400.615	3.99
400.975	3.97
401.334	3.96
401.694	3.95
402.054	3.94
402.413	3.92
402.773	3.88
403.132	3.9
403.492	3.87
403.851	3.84
404.211	3.8
404.57	3.78
404.929	3.75
405.288	3.81
405.648	3.8
406.007	3.75
406.366	3.72
406.725	3.74
407.084	3.69
407.443	3.67
407.802	3.64
408.161	3.64
408.52	3.61
408.879	3.59
409.238	3.59
409.596	3.6
409.955	3.58
410.314	3.59
410.673	3.58
411.031	3.61
411.39	3.62
411.748	3.6
412.107	3.57
412.465	3.57
412.824	3.52
413.182	3.52
413.54	3.57
413.899	3.55
414.257	3.52
414.615	3.51
414.974	3.52
415.332	3.49
415.69	3.46
416.048	3.45
416.406	3.44
416.764	3.41
417.122	3.4
417.48	3.42
417.838	3.39
418.195	3.36
418.553	3.31
418.911	3.3
419.269	3.3
419.626	3.3
419.984	3.26
420.342	3.27
420.699	3.25
421.057	3.22
421.414	3.22
421.772	3.2
422.129	3.21
422.486	3.2
422.844	3.19
423.201	3.19
423.558	3.19
423.915	3.18
424.273	3.17
424.63	3.15
424.987	3.15
425.344	3.14
425.701	3.15
426.058	3.18
426.415	3.16
426.772	3.15
427.128	3.15
427.485	3.19
427.842	3.16
428.199	3.15
428.555	3.14
428.912	3.14
429.269	3.15
429.625	3.13
429.982	3.14
430.338	3.14
430.695	3.11
431.051	3.11
431.407	3.09
431.764	3.07
432.12	3.08
432.476	3.1
432.832	3.09
433.189	3.08
433.545	3.06
433.901	3.08
434.257	3.08
434.613	3.08
434.969	3.07
435.325	3.1
435.681	3.09
436.036	3.09
436.392	3.08
436.748	3.1
437.104	3.07
437.459	3.05
437.815	3.04
438.171	3.05
438.526	3.04
438.882	3.06
439.237	3.09
439.593	3.1
439.948	3.08
440.304	3.08
440.659	3.08
441.014	3.08
441.369	3.07
441.725	3.06
442.08	3.04
442.435	3.03
442.79	3
443.145	3
443.5	2.99
443.855	2.98
444.21	2.96
444.565	2.97
444.92	2.98
445.275	2.98
445.629	2.96
445.984	2.95
446.339	2.93
446.693	2.92
447.048	2.88
447.403	2.87
447.757	2.85
448.112	2.85
448.466	2.86
448.82	2.86
449.175	2.85
449.529	2.86
449.883	2.84
450.238	2.84
450.592	2.85
450.946	2.85
451.3	2.85
451.654	2.86
452.008	2.84
452.362	2.84
452.716	2.83
453.07	2.84
453.424	2.84
453.778	2.84
454.132	2.83
454.486	2.85
454.839	2.86
455.193	2.86
455.547	2.88
455.9	2.86
456.254	2.86
456.607	2.88
456.961	2.89
457.314	2.89
457.668	2.9
458.021	2.89
458.375	2.91
458.728	2.9
459.081	2.88
459.434	2.89
459.787	2.9
460.141	2.9
460.494	2.91
460.847	2.93
461.2	2.94
461.553	2.95
461.906	2.96
462.259	2.94
462.611	2.94
462.964	2.94
463.317	2.96
463.67	2.96
464.022	2.96
464.375	2.95
464.728	2.96
465.08	2.96
465.433	2.96
465.785	2.97
466.138	3
466.49	3.02
466.843	3.06
467.195	3.06
467.547	3.08
467.899	3.07
468.252	3.06
468.604	3.06
468.956	3.04
469.308	3.04
469.66	3.08
470.012	3.1
470.364	3.08
470.716	3.07
471.068	3.05
471.42	3.06
471.772	3.09
472.123	3.09
472.475	3.1
472.827	3.11
473.178	3.1
473.53	3.1
473.882	3.11
474.233	3.08
474.585	3.07
474.936	3.09
475.288	3.08
475.639	3.12
475.99	3.11
476.342	3.14
476.693	3.15
477.044	3.14
477.395	3.12
477.746	3.1
478.097	3.11
478.448	3.13
478.8	3.11
479.15	3.07
479.501	3.09
479.852	3.07
480.203	3.06
480.554	3.05
480.905	3.05
481.255	3.05
481.606	3.06
481.957	3.06
482.307	3.03
482.658	3.03
483.009	3.01
483.359	3.01
483.709	3
484.06	3
484.41	3.01
484.761	3.01
485.111	3.03
485.461	3.03
485.811	3.03
486.162	3.03
486.512	3.04
486.862	3.03
487.212	3.04
487.562	3.04
487.912	3.04
488.262	3.04
488.612	3.03
488.961	3.04
489.311	3.04
489.661	3.06
490.011	3.07
490.36	3.07
490.71	3.09
491.06	3.11
491.409	3.13
491.759	3.12
492.108	3.13
492.458	3.13
492.807	3.12
493.157	3.13
493.506	3.15
493.855	3.17
494.204	3.18
494.554	3.19
494.903	3.22
495.252	3.24
495.601	3.26
495.95	3.29
496.299	3.3
496.648	3.35
496.997	3.36
497.346	3.4
497.695	3.41
498.043	3.43
498.392	3.45
498.741	3.47
499.09	3.52
499.438	3.56
499.787	3.58
500.135	3.62
500.484	3.67
500.832	3.7
501.181	3.72
501.529	3.74
501.878	3.79
502.226	3.83
502.574	3.85
502.923	3.88
503.271	3.86
503.619	3.9
503.967	3.89
504.315	3.93
504.663	3.95
505.011	4
505.359	4.03
505.707	4.05
506.055	4.1
506.403	4.15
506.751	4.15
507.098	4.21
507.446	4.25
507.794	4.27
508.141	4.3
508.489	4.36
508.837	4.39
509.184	4.43
509.531	4.46
509.879	4.51
510.226	4.55
510.574	4.61
510.921	4.65
511.268	4.71
511.616	4.77
511.963	4.82
512.31	4.87
512.657	4.91
513.004	4.97
513.351	4.98
513.698	5.01
514.045	5.1
514.392	5.15
514.739	5.21
515.086	5.29
515.432	5.37
515.779	5.41
516.126	5.5
516.473	5.55
516.819	5.61
517.166	5.68
517.512	5.74
517.859	5.81
518.205	5.85
518.552	5.91
518.898	5.94
519.245	5.99
519.591	6.05
519.937	6.12
520.283	6.17
520.629	6.25
520.976	6.32
521.322	6.38
521.668	6.45
522.014	6.55
522.36	6.62
522.706	6.7
523.052	6.83
523.398	6.92
523.743	7.04
524.089	7.17
524.435	7.28
524.781	7.37
525.126	7.48
525.472	7.6
525.817	7.69
526.163	7.81
526.509	7.9
526.854	8
527.199	8.07
527.545	8.17
527.89	8.26
528.235	8.35
528.581	8.42
528.926	8.5
529.271	8.57
529.616	8.66
529.961	8.76
530.306	8.85
530.651	8.97
530.996	9.08
531.341	9.19
531.686	9.31
532.031	9.47
532.376	9.6
532.721	9.72
533.065	9.88
533.41	10.02
533.755	10.17
534.099	10.32
534.444	10.49
534.788	10.64
535.133	10.79
535.477	10.98
535.822	11.17
536.166	11.37
536.51	11.61
536.855	11.83
537.199	12.04
537.543	12.28
537.887	12.51
538.231	12.76
538.576	13.01
538.92	13.25
539.264	13.48
539.608	13.71
539.951	13.92
540.295	14.14
540.639	14.35
540.983	14.54
541.327	14.75
541.671	14.94
542.014	15.16
542.358	15.36
542.701	15.55
543.045	15.77
543.389	16
543.732	16.22
544.075	16.46
544.419	16.7
544.762	16.96
545.105	17.22
545.449	17.48
545.792	17.77
546.135	18.07
546.478	18.38
546.821	18.72
547.165	19.06
547.508	19.37
547.851	19.7
548.194	20.06
548.536	20.41
548.879	20.77
549.222	21.12
549.565	21.49
549.908	21.86
550.25	22.2
550.593	22.57
550.936	22.91
551.278	23.3
551.621	23.71
551.963	24.08
552.306	24.47
552.648	24.86
552.991	25.21
553.333	25.55
553.675	25.93
554.017	26.28
554.36	26.65
554.702	26.98
555.044	27.35
555.386	27.69
555.728	28.05
556.07	28.45
556.412	28.83
556.754	29.23
557.096	29.62
557.438	30
557.78	30.36
558.121	30.77
558.463	31.17
558.805	31.56
559.147	31.92
559.488	32.26
559.83	32.64
560.171	32.96
560.513	33.36
560.854	33.66
561.196	33.99
561.537	34.39
561.878	34.81
562.22	35.17
562.561	35.53
562.902	35.86
563.243	36.21
563.584	36.59
563.925	36.9
564.266	37.21
564.607	37.54
564.948	37.83
565.289	38.1
565.63	38.35
565.971	38.6
566.312	38.9
566.653	39.18
566.993	39.49
567.334	39.77
567.675	40.07
568.015	40.44
568.356	40.7
568.696	40.99
569.037	41.25
569.377	41.48
569.718	41.75
570.058	42.06
570.398	42.31
570.739	42.51
571.079	42.72
571.419	42.96
571.759	43.27
572.099	43.48
572.439	43.68
572.779	43.96
573.119	44.21
573.459	44.43
573.799	44.72
574.139	44.92
574.479	45.17
574.819	45.36
575.158	45.53
575.498	45.8
575.838	46.05
576.177	46.27
576.517	46.48
576.856	46.75
577.196	46.98
577.535	47.22
577.875	47.52
578.214	47.8
578.553	48.05
578.893	48.25
579.232	48.56
579.571	48.95
579.91	49.16
580.25	49.49
580.589	49.74
580.928	49.94
581.267	50.19
581.606	50.43
581.945	50.72
582.283	50.96
582.622	51.19
582.961	51.4
583.3	51.62
583.639	51.84
583.977	52.06
584.316	52.23
584.654	52.38
584.993	52.5
585.332	52.67
585.67	52.91
586.008	53.08
586.347	53.33
586.685	53.39
587.024	53.63
587.362	53.65
587.7	53.77
588.038	53.84
588.376	53.96
588.715	54.05
589.053	54.15
589.391	54.27
589.729	54.36
590.067	54.36
590.404	54.48
590.742	54.69
591.08	54.76
591.418	54.81
591.756	54.9
592.093	55.04
592.431	55.23
592.769	55.34
593.106	55.41
593.444	55.43
593.781	55.61
594.119	55.66
594.456	55.78
594.793	55.94
595.131	56.13
595.468	56.23
595.805	56.38
596.143	56.46
596.48	56.58
596.817	56.64
597.154	56.83
597.491	56.88
597.828	56.98
598.165	57.08
598.502	57.27
598.839	57.45
599.176	57.58
599.512	57.64
599.849	57.71
600.186	57.87
600.523	57.97
600.859	57.99
601.196	58.07
601.532	58.21
601.869	58.27
602.205	58.32
602.542	58.39
602.878	58.38
603.215	58.5
603.551	58.53
603.887	58.61
604.223	58.6
604.56	58.66
604.896	58.74
605.232	58.75
605.568	58.79
605.904	58.88
606.24	58.94
606.576	59.09
606.912	59.16
607.248	59.2
607.583	59.39
607.919	59.53
608.255	59.63
608.591	59.71
608.926	59.81
609.262	59.88
609.597	60.01
609.933	60.16
610.268	60.2
610.604	60.3
610.939	60.38
611.275	60.5
611.61	60.6
611.945	60.63
612.281	60.87
612.616	61.03
612.951	61
613.286	61.05
613.621	61.04
613.956	61.05
614.291	61.14
614.626	61.18
614.961	61.2
615.296	61.19
615.631	61.29
615.966	61.33
616.3	61.43
616.635	61.55
616.97	61.64
617.304	61.73
617.639	61.89
617.973	62.02
618.308	62.02
618.642	62.09
618.977	62.21
619.311	62.19
619.646	62.22
619.98	62.25
620.314	62.37
620.648	62.4
620.983	62.58
621.317	62.62
621.651	62.54
621.985	62.64
622.319	62.87
622.653	62.87
622.987	62.77
623.321	62.83
623.655	62.76
623.988	62.69
624.322	62.75
624.656	62.63
624.99	62.56
625.323	62.61
625.657	62.68
625.99	62.73
626.324	62.74
626.657	62.76
626.991	62.8
627.324	62.79
627.658	62.8
627.991	62.78
628.324	62.85
628.657	62.88
628.991	62.94
629.324	62.84
629.657	62.86
629.99	63.03
630.323	63.05
630.656	63.14
630.989	63.21
631.322	63.28
631.655	63.39
631.987	63.52
632.32	63.57
632.653	63.48
632.986	63.49
633.318	63.5
633.651	63.48
633.984	63.56
634.316	63.63
634.649	63.74
634.981	63.77
635.313	63.89
635.646	63.96
635.978	63.88
636.31	63.91
636.643	63.92
636.975	63.91
637.307	63.95
637.639	63.91
637.971	64.03
638.303	64.03
638.635	64.17
638.967	64.03
639.299	64.06
639.631	64.24
639.963	64.31
640.295	64.34
640.626	64.41
640.958	64.44
641.29	64.63
641.621	64.7
641.953	64.76
642.285	64.81
642.616	65.02
642.948	65.13
643.279	65.11
643.61	65.18
643.942	65.15
644.273	65.07
644.604	65.07
644.936	65.06
645.267	64.91
645.598	64.8
645.929	64.97
646.26	65.01
646.591	65.06
646.922	64.99
647.253	65.06
647.584	64.99
647.915	64.98
648.245	64.71
648.576	64.6
648.907	64.54
649.238	64.46
649.568	64.34
649.899	64.43
650.229	64.54
650.56	64.49
650.89	64.57
651.221	64.7
651.551	64.84
651.882	64.85
652.212	64.96
652.542	64.94
652.872	64.92
653.203	65.06
653.533	65
653.863	65.03
654.193	65.04
654.523	65.09
654.853	65.13
655.183	65.13
655.513	65.24
655.843	65.29
656.172	65.34
656.502	65.28
656.832	65.13
657.162	65.15
657.491	65.28
657.821	65.25
658.15	65.29
658.48	65.29
658.809	65.33
659.139	65.31
659.468	65.29
659.798	65.26
660.127	65.21
660.456	65.24
660.785	65.26
661.115	65.33
661.444	65.38
661.773	65.39
662.102	65.49
662.431	65.35
662.76	65.37
663.089	65.32
663.418	65.36
663.747	65.41
664.076	65.5
664.404	65.5
664.733	65.52
665.062	65.52
665.39	65.38
665.719	65.47
666.048	65.76
666.376	65.92
666.705	66.09
667.033	66
667.362	66.11
667.69	66.1
668.018	66.15
668.347	66.22
668.675	66.23
669.003	66.3
669.331	66.48
