Data from BA51245_Reflection_00001.txt Node
Date: Tue Nov 19 11:51:31 EST 2019
User: vgr7
Spectrometer: USB2G7710
Scans to average: 3
Trigger mode: 4
Integration Time (sec): 2.000000E-2
Electric dark correction enabled: true
Boxcar width: 10
XAxis mode: Wavelengths
Number of Pixels in Spectrum: 2048
>>>>>Begin Spectral Data<<<<<
177.721	92.75
178.105	28.57
178.488	-81.16
178.871	22.22
179.254	31.58
179.636	57.26
180.019	219.05
180.402	-30.95
180.785	311.11
181.168	524.24
181.55	406.45
181.933	156.39
182.316	58.87
182.698	117.77
183.081	134.25
183.463	144.5
183.846	277.17
184.228	467.47
184.611	319.01
184.993	1320
185.376	-229.79
185.758	-143.72
186.14	-214.81
186.522	-110.66
186.904	-66.67
187.287	-59.57
187.669	-28.28
188.051	-48.85
188.433	-74.3
188.815	-32.44
189.197	-5.21
189.579	1.25
189.961	15.33
190.342	15.01
190.724	10.8
191.106	12.67
191.488	16.32
191.869	31.46
192.251	31.06
192.633	32.97
193.014	37.13
193.396	46.19
193.777	53.68
194.159	31.54
194.54	20.62
194.922	23.27
195.303	39.6
195.684	26.75
196.065	27.22
196.447	61.23
196.828	54.36
197.209	31.86
197.59	25.83
197.971	4.12
198.352	-3.2
198.733	5.7
199.114	-4.62
199.495	-3.52
199.876	-4.94
200.257	-1.84
200.638	-4.4
201.018	-11.68
201.399	-13.76
201.78	-11.75
202.16	-15.48
202.541	-12.9
202.922	-28.72
203.302	-40.8
203.683	-64.75
204.063	-63.83
204.444	-68.36
204.824	-92.52
205.204	-72.78
205.585	-75.32
205.965	-63.39
206.345	-65.24
206.725	-52.51
207.106	-37.61
207.486	-35.43
207.866	-31.3
208.246	-25.14
208.626	-37.76
209.006	-24.66
209.386	-25.11
209.766	-34.15
210.145	-28.15
210.525	-26.94
210.905	-15.45
211.285	-4.22
211.664	0.69
212.044	5.75
212.424	5.1
212.803	10.17
213.183	-3.56
213.562	-2.51
213.942	-3.93
214.321	2.41
214.701	0.4
215.08	0.84
215.459	0.22
215.838	0.74
216.218	-13.15
216.597	1.05
216.976	-17.17
217.355	-20.93
217.734	-21.29
218.113	-13.07
218.492	-16.7
218.871	-31.07
219.25	-53.59
219.629	-68.56
220.008	-96.79
220.387	-65.06
220.766	-37.11
221.144	-28.92
221.523	-25.47
221.902	-19.11
222.28	-26.52
222.659	-24.4
223.037	-32.03
223.416	-31.58
223.794	-30.64
224.173	-26.52
224.551	-29.28
224.929	-24.07
225.308	-16.21
225.686	-12.82
226.064	-24.22
226.442	-22.96
226.821	-20.17
227.199	-17.02
227.577	-10.67
227.955	-8.92
228.333	-12.31
228.711	-11.18
229.089	-11.32
229.467	-11.84
229.845	-12.35
230.222	-10.1
230.6	-11.39
230.978	-5.03
231.356	-4.67
231.733	-1.03
232.111	0.31
232.488	4.54
232.866	7.5
233.243	6.98
233.621	7.66
233.998	11.12
234.376	11.79
234.753	10.4
235.13	9.92
235.508	6.63
235.885	7.21
236.262	5.35
236.639	3.37
237.016	3.03
237.393	4.12
237.77	3.8
238.147	3.16
238.524	3.91
238.901	2.07
239.278	1.42
239.655	1.21
240.032	1.03
240.409	1.33
240.785	1.01
241.162	1.28
241.539	1.25
241.915	0.88
242.292	1.91
242.668	2.64
243.045	2.98
243.421	3.7
243.798	3.5
244.174	3.92
244.551	4.18
244.927	4.37
245.303	4.35
245.679	4.26
246.056	4.55
246.432	4.48
246.808	4.56
247.184	4.87
247.56	4.29
247.936	4.47
248.312	4.27
248.688	4.2
249.064	4.15
249.44	4.03
249.815	4.27
250.191	4.05
250.567	4.03
250.943	4.08
251.318	3.71
251.694	3.74
252.069	3.75
252.445	3.65
252.82	3.58
253.196	3.52
253.571	3.88
253.947	3.83
254.322	3.89
254.697	3.9
255.073	3.59
255.448	4.26
255.823	4.41
256.198	4.27
256.573	4.46
256.948	4.61
257.323	4.56
257.698	4.4
258.073	4.31
258.448	4.4
258.823	4.26
259.198	4.53
259.573	4.48
259.948	4.61
260.322	4.74
260.697	4.83
261.072	4.92
261.446	4.68
261.821	4.57
262.195	4.48
262.57	4.59
262.944	4.86
263.319	4.99
263.693	4.8
264.067	4.87
264.442	4.86
264.816	4.68
265.19	4.68
265.564	4.56
265.938	4.47
266.313	4.29
266.687	4.32
267.061	4.22
267.435	4.32
267.809	4.31
268.183	4.06
268.556	3.85
268.93	3.68
269.304	3.85
269.678	4.05
270.051	4
270.425	3.87
270.799	3.58
271.172	3.41
271.546	3.51
271.919	3.69
272.293	3.94
272.666	4
273.04	4.03
273.413	4.28
273.787	4.39
274.16	4.4
274.533	4.45
274.906	4.46
275.279	4.32
275.653	4.23
276.026	4.52
276.399	4.54
276.772	4.69
277.145	4.65
277.518	4.38
277.891	4.5
278.263	4.77
278.636	4.99
279.009	5
279.382	4.91
279.755	4.78
280.127	4.44
280.5	4.33
280.872	4.42
281.245	4.37
281.617	4.35
281.99	4.39
282.362	4.44
282.735	4.37
283.107	4.51
283.479	4.65
283.852	4.51
284.224	4.59
284.596	4.5
284.968	4.52
285.34	4.59
285.713	4.67
286.085	4.53
286.457	4.62
286.829	4.69
287.201	4.62
287.572	4.65
287.944	4.76
288.316	4.95
288.688	5.02
289.06	5.02
289.431	5.02
289.803	5.02
290.175	5
290.546	4.94
290.918	4.77
291.289	4.6
291.661	4.69
292.032	4.66
292.403	4.46
292.775	4.55
293.146	4.63
293.517	4.52
293.889	4.54
294.26	4.44
294.631	4.38
295.002	4.52
295.373	4.57
295.744	4.61
296.115	4.6
296.486	4.42
296.857	4.36
297.228	4.33
297.599	4.34
297.97	4.43
298.34	4.57
298.711	4.73
299.082	4.7
299.452	4.7
299.823	4.66
300.194	4.82
300.564	4.58
300.935	4.64
301.305	4.62
301.676	4.57
302.046	4.61
302.416	4.48
302.787	4.48
303.157	4.33
303.527	4.27
303.897	4.14
304.267	4.22
304.637	4.28
305.008	4.31
305.378	4.3
305.748	4.19
306.117	4.02
306.487	3.98
306.857	4.15
307.227	4.29
307.597	4.3
307.967	4.55
308.336	4.66
308.706	4.56
309.076	4.7
309.445	4.76
309.815	4.74
310.184	4.68
310.554	4.66
310.923	4.63
311.293	4.57
311.662	4.51
312.031	4.44
312.401	4.4
312.77	4.4
313.139	4.44
313.508	4.52
313.877	4.7
314.246	4.64
314.616	4.44
314.985	4.18
315.353	4.25
315.722	4.02
316.091	4.06
316.46	4.09
316.829	4.01
317.198	4.07
317.567	4.18
317.935	4.42
318.304	4.58
318.672	4.86
319.041	5
319.41	5.09
319.778	5.21
320.147	5.2
320.515	5.23
320.883	5.05
321.252	4.89
321.62	4.7
321.988	4.92
322.357	5.06
322.725	5.14
323.093	5.03
323.461	5.12
323.829	5.17
324.197	5.09
324.565	5.09
324.933	4.91
325.301	4.74
325.669	4.75
326.037	4.47
326.405	4.39
326.772	4.19
327.14	4.1
327.508	4.02
327.875	4.05
328.243	4.08
328.61	4.18
328.978	4.25
329.346	4.39
329.713	4.33
330.08	4.4
330.448	4.39
330.815	4.41
331.182	4.2
331.55	4.23
331.917	4.29
332.284	4.19
332.651	4.32
333.018	4.29
333.385	4.2
333.752	4.25
334.119	4.14
334.486	4.29
334.853	4.24
335.22	4.28
335.587	4.14
335.954	4.07
336.32	4.01
336.687	4.05
337.054	4.13
337.42	4.07
337.787	4.1
338.153	4.06
338.52	4.17
338.886	4.34
339.253	4.26
339.619	4.23
339.986	4.23
340.352	4.23
340.718	4.25
341.084	4.36
341.451	4.5
341.817	4.58
342.183	4.47
342.549	4.5
342.915	4.57
343.281	4.58
343.647	4.59
344.013	4.54
344.379	4.48
344.745	4.44
345.11	4.46
345.476	4.43
345.842	4.4
346.208	4.38
346.573	4.34
346.939	4.42
347.304	4.48
347.67	4.5
348.035	4.48
348.401	4.53
348.766	4.5
349.132	4.54
349.497	4.55
349.862	4.6
350.228	4.7
350.593	4.74
350.958	4.85
351.323	4.85
351.688	4.98
352.053	4.95
352.418	5.03
352.783	5.12
353.148	5.11
353.513	5.23
353.878	5.25
354.243	5.18
354.608	5.2
354.972	5.12
355.337	5.21
355.702	5.13
356.066	5.17
356.431	5.13
356.795	5.01
357.16	5.04
357.524	5.1
357.889	5.08
358.253	5.05
358.618	5.01
358.982	4.99
359.346	4.9
359.71	4.92
360.075	4.83
360.439	4.84
360.803	4.82
361.167	4.75
361.531	4.68
361.895	4.76
362.259	4.69
362.623	4.72
362.987	4.73
363.351	4.78
363.714	4.77
364.078	4.79
364.442	4.78
364.806	4.79
365.169	4.72
365.533	4.8
365.896	4.77
366.26	4.77
366.623	4.79
366.987	4.88
367.35	4.92
367.714	4.93
368.077	4.89
368.44	4.92
368.803	4.92
369.167	4.9
369.53	4.88
369.893	4.91
370.256	4.84
370.619	4.79
370.982	4.81
371.345	4.82
371.708	4.8
372.071	4.88
372.434	4.79
372.797	4.83
373.159	4.73
373.522	4.65
373.885	4.7
374.247	4.7
374.61	4.68
374.973	4.66
375.335	4.65
375.698	4.63
376.06	4.65
376.423	4.73
376.785	4.78
377.147	4.77
377.51	4.81
377.872	4.85
378.234	4.87
378.596	4.85
378.958	4.82
379.321	4.82
379.683	4.77
380.045	4.76
380.407	4.71
380.769	4.73
381.13	4.74
381.492	4.74
381.854	4.72
382.216	4.72
382.578	4.7
382.939	4.7
383.301	4.76
383.663	4.69
384.024	4.61
384.386	4.64
384.747	4.65
385.109	4.57
385.47	4.62
385.832	4.59
386.193	4.58
386.554	4.5
386.916	4.55
387.277	4.55
387.638	4.59
387.999	4.61
388.36	4.59
388.721	4.67
389.082	4.66
389.443	4.66
389.804	4.69
390.165	4.76
390.526	4.78
390.887	4.71
391.248	4.76
391.609	4.77
391.969	4.78
392.33	4.78
392.691	4.76
393.051	4.74
393.412	4.72
393.772	4.73
394.133	4.77
394.493	4.7
394.854	4.75
395.214	4.77
395.574	4.78
395.935	4.78
396.295	4.75
396.655	4.77
397.015	4.79
397.376	4.74
397.736	4.67
398.096	4.67
398.456	4.67
398.816	4.64
399.176	4.62
399.535	4.58
399.895	4.56
400.255	4.6
400.615	4.62
400.975	4.63
401.334	4.6
401.694	4.62
402.054	4.67
402.413	4.61
402.773	4.56
403.132	4.53
403.492	4.54
403.851	4.52
404.211	4.5
404.57	4.49
404.929	4.53
405.288	4.56
405.648	4.53
406.007	4.57
406.366	4.59
406.725	4.61
407.084	4.62
407.443	4.64
407.802	4.64
408.161	4.64
408.52	4.64
408.879	4.64
409.238	4.64
409.596	4.62
409.955	4.63
410.314	4.66
410.673	4.67
411.031	4.65
411.39	4.69
411.748	4.71
412.107	4.71
412.465	4.68
412.824	4.66
413.182	4.68
413.54	4.68
413.899	4.65
414.257	4.67
414.615	4.66
414.974	4.68
415.332	4.67
415.69	4.66
416.048	4.69
416.406	4.68
416.764	4.68
417.122	4.68
417.48	4.7
417.838	4.67
418.195	4.67
418.553	4.68
418.911	4.66
419.269	4.64
419.626	4.64
419.984	4.64
420.342	4.63
420.699	4.63
421.057	4.62
421.414	4.62
421.772	4.6
422.129	4.59
422.486	4.56
422.844	4.56
423.201	4.54
423.558	4.51
423.915	4.53
424.273	4.53
424.63	4.55
424.987	4.54
425.344	4.54
425.701	4.54
426.058	4.54
426.415	4.52
426.772	4.52
427.128	4.53
427.485	4.52
427.842	4.52
428.199	4.53
428.555	4.54
428.912	4.55
429.269	4.54
429.625	4.53
429.982	4.56
430.338	4.56
430.695	4.57
431.051	4.59
431.407	4.59
431.764	4.56
432.12	4.55
432.476	4.57
432.832	4.58
433.189	4.56
433.545	4.55
433.901	4.55
434.257	4.55
434.613	4.53
434.969	4.53
435.325	4.54
435.681	4.52
436.036	4.5
436.392	4.49
436.748	4.51
437.104	4.53
437.459	4.53
437.815	4.52
438.171	4.53
438.526	4.54
438.882	4.52
439.237	4.51
439.593	4.52
439.948	4.52
440.304	4.53
440.659	4.55
441.014	4.56
441.369	4.57
441.725	4.58
442.08	4.56
442.435	4.55
442.79	4.53
443.145	4.53
443.5	4.53
443.855	4.53
444.21	4.51
444.565	4.52
444.92	4.52
445.275	4.52
445.629	4.52
445.984	4.52
446.339	4.53
446.693	4.51
447.048	4.49
447.403	4.48
447.757	4.45
448.112	4.43
448.466	4.42
448.82	4.4
449.175	4.4
449.529	4.43
449.883	4.43
450.238	4.44
450.592	4.44
450.946	4.44
451.3	4.44
451.654	4.43
452.008	4.41
452.362	4.41
452.716	4.42
453.07	4.4
453.424	4.39
453.778	4.38
454.132	4.4
454.486	4.42
454.839	4.42
455.193	4.46
455.547	4.48
455.9	4.49
456.254	4.5
456.607	4.49
456.961	4.5
457.314	4.52
457.668	4.54
458.021	4.55
458.375	4.54
458.728	4.55
459.081	4.56
459.434	4.58
459.787	4.58
460.141	4.57
460.494	4.58
460.847	4.57
461.2	4.58
461.553	4.59
461.906	4.58
462.259	4.58
462.611	4.58
462.964	4.59
463.317	4.61
463.67	4.61
464.022	4.63
464.375	4.62
464.728	4.59
465.08	4.58
465.433	4.59
465.785	4.61
466.138	4.61
466.49	4.61
466.843	4.6
467.195	4.63
467.547	4.63
467.899	4.63
468.252	4.63
468.604	4.63
468.956	4.64
469.308	4.63
469.66	4.65
470.012	4.65
470.364	4.64
470.716	4.63
471.068	4.64
471.42	4.65
471.772	4.65
472.123	4.67
472.475	4.68
472.827	4.68
473.178	4.67
473.53	4.68
473.882	4.68
474.233	4.69
474.585	4.68
474.936	4.69
475.288	4.68
475.639	4.69
475.99	4.68
476.342	4.7
476.693	4.71
477.044	4.7
477.395	4.68
477.746	4.65
478.097	4.65
478.448	4.63
478.8	4.62
479.15	4.61
479.501	4.59
479.852	4.59
480.203	4.61
480.554	4.62
480.905	4.63
481.255	4.64
481.606	4.64
481.957	4.63
482.307	4.62
482.658	4.64
483.009	4.62
483.359	4.64
483.709	4.64
484.06	4.65
484.41	4.65
484.761	4.66
485.111	4.67
485.461	4.69
485.811	4.69
486.162	4.7
486.512	4.7
486.862	4.71
487.212	4.72
487.562	4.72
487.912	4.72
488.262	4.71
488.612	4.71
488.961	4.71
489.311	4.72
489.661	4.73
490.011	4.72
490.36	4.74
490.71	4.73
491.06	4.74
491.409	4.74
491.759	4.75
492.108	4.74
492.458	4.72
492.807	4.72
493.157	4.72
493.506	4.72
493.855	4.71
494.204	4.71
494.554	4.71
494.903	4.71
495.252	4.71
495.601	4.72
495.95	4.73
496.299	4.74
496.648	4.76
496.997	4.76
497.346	4.78
497.695	4.79
498.043	4.8
498.392	4.8
498.741	4.8
499.09	4.82
499.438	4.85
499.787	4.87
500.135	4.87
500.484	4.87
500.832	4.88
501.181	4.89
501.529	4.92
501.878	4.94
502.226	4.93
502.574	4.95
502.923	4.95
503.271	4.95
503.619	4.97
503.967	4.96
504.315	4.98
504.663	4.97
505.011	4.97
505.359	4.95
505.707	4.94
506.055	4.96
506.403	4.96
506.751	4.96
507.098	4.98
507.446	4.99
507.794	5.02
508.141	5.04
508.489	5.05
508.837	5.04
509.184	5.05
509.531	5.06
509.879	5.07
510.226	5.08
510.574	5.09
510.921	5.09
511.268	5.1
511.616	5.1
511.963	5.12
512.31	5.12
512.657	5.15
513.004	5.14
513.351	5.13
513.698	5.16
514.045	5.17
514.392	5.16
514.739	5.17
515.086	5.16
515.432	5.15
515.779	5.16
516.126	5.18
516.473	5.18
516.819	5.19
517.166	5.18
517.512	5.18
517.859	5.19
518.205	5.18
518.552	5.2
518.898	5.17
519.245	5.16
519.591	5.17
519.937	5.16
520.283	5.18
520.629	5.17
520.976	5.16
521.322	5.16
521.668	5.17
522.014	5.15
522.36	5.14
522.706	5.14
523.052	5.14
523.398	5.13
523.743	5.14
524.089	5.13
524.435	5.13
524.781	5.14
525.126	5.14
525.472	5.15
525.817	5.13
526.163	5.15
526.509	5.15
526.854	5.16
527.199	5.17
527.545	5.18
527.89	5.19
528.235	5.21
528.581	5.2
528.926	5.2
529.271	5.21
529.616	5.23
529.961	5.22
530.306	5.21
530.651	5.22
530.996	5.21
531.341	5.22
531.686	5.23
532.031	5.23
532.376	5.24
532.721	5.23
533.065	5.25
533.41	5.26
533.755	5.28
534.099	5.27
534.444	5.27
534.788	5.26
535.133	5.26
535.477	5.26
535.822	5.25
536.166	5.25
536.51	5.25
536.855	5.24
537.199	5.26
537.543	5.26
537.887	5.27
538.231	5.26
538.576	5.26
538.92	5.27
539.264	5.26
539.608	5.24
539.951	5.24
540.295	5.24
540.639	5.24
540.983	5.25
541.327	5.28
541.671	5.3
542.014	5.31
542.358	5.32
542.701	5.33
543.045	5.33
543.389	5.32
543.732	5.32
544.075	5.33
544.419	5.33
544.762	5.33
545.105	5.34
545.449	5.35
545.792	5.38
546.135	5.39
546.478	5.4
546.821	5.44
547.165	5.46
547.508	5.46
547.851	5.45
548.194	5.43
548.536	5.41
548.879	5.37
549.222	5.38
549.565	5.36
549.908	5.34
550.25	5.33
550.593	5.35
550.936	5.34
551.278	5.33
551.621	5.36
551.963	5.4
552.306	5.37
552.648	5.36
552.991	5.33
553.333	5.33
553.675	5.37
554.017	5.36
554.36	5.37
554.702	5.34
555.044	5.34
555.386	5.35
555.728	5.39
556.07	5.39
556.412	5.37
556.754	5.35
557.096	5.38
557.438	5.39
557.78	5.34
558.121	5.35
558.463	5.37
558.805	5.38
559.147	5.37
559.488	5.36
559.83	5.38
560.171	5.36
560.513	5.38
560.854	5.37
561.196	5.37
561.537	5.37
561.878	5.39
562.22	5.43
562.561	5.44
562.902	5.43
563.243	5.45
563.584	5.47
563.925	5.52
564.266	5.55
564.607	5.59
564.948	5.61
565.289	5.64
565.63	5.63
565.971	5.61
566.312	5.61
566.653	5.62
566.993	5.64
567.334	5.65
567.675	5.63
568.015	5.61
568.356	5.6
568.696	5.65
569.037	5.64
569.377	5.61
569.718	5.61
570.058	5.59
570.398	5.61
570.739	5.59
571.079	5.53
571.419	5.51
571.759	5.48
572.099	5.5
572.439	5.49
572.779	5.49
573.119	5.51
573.459	5.53
573.799	5.54
574.139	5.52
574.479	5.52
574.819	5.55
575.158	5.58
575.498	5.58
575.838	5.51
576.177	5.51
576.517	5.53
576.856	5.52
577.196	5.53
577.535	5.49
577.875	5.5
578.214	5.56
578.553	5.57
578.893	5.6
579.232	5.61
579.571	5.62
579.91	5.6
580.25	5.58
580.589	5.55
580.928	5.52
581.267	5.49
581.606	5.49
581.945	5.46
582.283	5.44
582.622	5.43
582.961	5.49
583.3	5.47
583.639	5.47
583.977	5.51
584.316	5.49
584.654	5.53
584.993	5.52
585.332	5.49
585.67	5.51
586.008	5.51
586.347	5.51
586.685	5.52
587.024	5.54
587.362	5.55
587.7	5.58
588.038	5.62
588.376	5.66
588.715	5.67
589.053	5.67
589.391	5.67
589.729	5.73
590.067	5.74
590.404	5.79
590.742	5.78
591.08	5.78
591.418	5.79
591.756	5.77
592.093	5.78
592.431	5.8
592.769	5.77
593.106	5.77
593.444	5.81
593.781	5.81
594.119	5.83
594.456	5.82
594.793	5.83
595.131	5.85
595.468	5.87
595.805	5.82
596.143	5.83
596.48	5.83
596.817	5.8
597.154	5.79
597.491	5.74
597.828	5.71
598.165	5.68
598.502	5.68
598.839	5.71
599.176	5.76
599.512	5.74
599.849	5.75
600.186	5.71
600.523	5.67
600.859	5.69
601.196	5.69
601.532	5.68
601.869	5.68
602.205	5.61
602.542	5.57
602.878	5.57
603.215	5.58
603.551	5.58
603.887	5.59
604.223	5.56
604.56	5.61
604.896	5.63
605.232	5.61
605.568	5.62
605.904	5.59
606.24	5.56
606.576	5.57
606.912	5.55
607.248	5.6
607.583	5.6
607.919	5.57
608.255	5.56
608.591	5.6
608.926	5.57
609.262	5.62
609.597	5.67
609.933	5.69
610.268	5.71
610.604	5.7
610.939	5.72
611.275	5.74
611.61	5.74
611.945	5.74
612.281	5.8
612.616	5.83
612.951	5.85
613.286	5.85
613.621	5.91
613.956	5.95
614.291	5.94
614.626	5.93
614.961	5.95
615.296	5.99
615.631	5.99
615.966	6.01
616.3	5.98
616.635	5.92
616.97	5.96
617.304	5.89
617.639	5.88
617.973	5.88
618.308	5.88
618.642	5.86
618.977	5.86
619.311	5.85
619.646	5.84
619.98	5.85
620.314	5.84
620.648	5.81
620.983	5.81
621.317	5.76
621.651	5.75
621.985	5.77
622.319	5.69
622.653	5.66
622.987	5.66
623.321	5.71
623.655	5.82
623.988	5.92
624.322	5.97
624.656	6.03
624.99	6.04
625.323	6.07
625.657	6.05
625.99	6.07
626.324	6.06
626.657	6.07
626.991	6.09
627.324	6.07
627.658	6.06
627.991	6.1
628.324	6.15
628.657	6.19
628.991	6.2
629.324	6.27
629.657	6.27
629.99	6.26
630.323	6.28
630.656	6.27
630.989	6.18
631.322	6.18
631.655	6.16
631.987	6.12
632.32	6.06
632.653	6.03
632.986	6.08
633.318	6.08
633.651	6.06
633.984	6.03
634.316	6.07
634.649	6.05
634.981	5.98
635.313	5.98
635.646	6
635.978	5.99
636.31	5.99
636.643	6.03
636.975	6.05
637.307	5.97
637.639	5.91
637.971	5.9
638.303	5.85
638.635	5.82
638.967	5.85
639.299	5.87
639.631	5.93
639.963	5.88
640.295	5.92
640.626	5.91
640.958	5.88
641.29	5.89
641.621	5.99
641.953	5.99
642.285	6.04
642.616	5.98
642.948	5.98
643.279	6.03
643.61	5.98
643.942	6.03
644.273	6.09
644.604	6.12
644.936	6.16
645.267	6.19
645.598	6.22
645.929	6.24
646.26	6.26
646.591	6.28
646.922	6.27
647.253	6.22
647.584	6.31
647.915	6.29
648.245	6.26
648.576	6.16
648.907	6.2
649.238	6.04
649.568	6.14
649.899	6.05
650.229	6
650.56	6.04
650.89	6.01
651.221	5.97
651.551	5.95
651.882	5.95
652.212	6.03
652.542	6.07
652.872	6.05
653.203	6.09
653.533	6.06
653.863	6.06
654.193	6.01
654.523	5.94
654.853	6.03
655.183	6.06
655.513	6.08
655.843	6.07
656.172	6.25
656.502	6.14
656.832	6.22
657.162	6.2
657.491	6.23
657.821	6.22
658.15	6.25
658.48	6.27
658.809	6.25
659.139	6.22
659.468	6.13
659.798	6.17
660.127	6.16
660.456	6.21
660.785	6.23
661.115	6.27
661.444	6.3
661.773	6.25
662.102	6.31
662.431	6.36
662.76	6.34
663.089	6.33
663.418	6.31
663.747	6.33
664.076	6.28
664.404	6.36
664.733	6.37
665.062	6.34
665.39	6.3
665.719	6.31
666.048	6.29
666.376	6.31
666.705	6.27
667.033	6.22
667.362	6.18
667.69	6.16
668.018	6.19
668.347	6.18
668.675	6.21
669.003	6.16
669.331	6.13
669.659	6.17
669.987	6.13
670.315	6.13
670.643	6.13
670.971	6.18
671.299	6.16
671.627	6.25
671.955	6.34
672.283	6.34
672.61	6.28
672.938	6.28
673.266	6.26
673.593	6.29
673.921	6.36
674.249	6.32
674.576	6.36
674.904	6.34
675.231	6.33
675.558	6.46
675.886	6.4
676.213	6.4
676.54	6.47
676.867	6.46
677.195	6.63
677.522	6.65
677.849	6.67
