Data from BA51068_Reflection_00011.txt Node
Date: Tue Nov 19 11:59:09 EST 2019
User: vgr7
Spectrometer: USB2G7710
Scans to average: 3
Trigger mode: 4
Integration Time (sec): 2.000000E-2
Electric dark correction enabled: true
Boxcar width: 10
XAxis mode: Wavelengths
Number of Pixels in Spectrum: 2048
>>>>>Begin Spectral Data<<<<<
177.721	-70.8
178.105	384.48
178.488	199.57
178.871	154.55
179.254	-2600
179.636	448.21
180.019	-2.89
180.402	-27.78
180.785	18.82
181.168	-65.25
181.55	1369.23
181.933	128.96
182.316	79.89
182.698	29.65
183.081	68.09
183.463	51.61
183.846	419.67
184.228	-56.21
184.611	-39.66
184.993	-76.82
185.376	-54.12
185.758	-66.31
186.14	-168.7
186.522	-127.77
186.904	-173.63
187.287	-77.33
187.669	-33.11
188.051	-61.61
188.433	-52.29
188.815	-111.5
189.197	-73.18
189.579	-52.86
189.961	-51.07
190.342	-31.5
190.724	-48.67
191.106	-35.9
191.488	-63.66
191.869	-72.23
192.251	-83.15
192.633	-139.56
193.014	-89.42
193.396	-1530.43
193.777	-108.98
194.159	-63.57
194.54	-48.46
194.922	-79.76
195.303	-131.65
195.684	-252.69
196.065	-205.9
196.447	-266.32
196.828	-215.32
197.209	-264.86
197.59	-735.57
197.971	1105.15
198.352	358.96
198.733	246.92
199.114	539.93
199.495	969.43
199.876	393
200.257	156.92
200.638	151.39
201.018	384.05
201.399	576.96
201.78	1747.54
202.16	-2942.86
202.541	-1705.08
202.922	-345.61
203.302	-923.36
203.683	565.52
204.063	318.64
204.444	237.55
204.824	4.26
205.204	-107.51
205.585	-309.09
205.965	-514.75
206.345	305.58
206.725	356.97
207.106	994.96
207.486	301.03
207.866	322.34
208.246	138.61
208.626	101.36
209.006	107.72
209.386	108.07
209.766	108.94
210.145	118.17
210.525	124.88
210.905	101.09
211.285	112.56
211.664	103.84
212.044	97.9
212.424	81.4
212.803	56.81
213.183	34.83
213.562	41.68
213.942	38.46
214.321	24.85
214.701	14.74
215.08	14.2
215.459	21.93
215.838	9.9
216.218	6.62
216.597	8.44
216.976	0.06
217.355	3.04
217.734	-3.3
218.113	-1.07
218.492	-1.99
218.871	-1.34
219.25	-4.67
219.629	-10.72
220.008	-8.19
220.387	-1.51
220.766	15.2
221.144	22.38
221.523	33.35
221.902	33.46
222.28	49.39
222.659	65.89
223.037	64.8
223.416	61.84
223.794	60.18
224.173	54.3
224.551	62.35
224.929	77.02
225.308	51.32
225.686	51.04
226.064	38.8
226.442	37.09
226.821	29.26
227.199	24.13
227.577	20.49
227.955	20.89
228.333	15.47
228.711	13.48
229.089	12.66
229.467	9.79
229.845	10.18
230.222	9.22
230.6	6.98
230.978	7.61
231.356	3.25
231.733	6.54
232.111	6.11
232.488	5.53
232.866	4.16
233.243	5.76
233.621	6.02
233.998	6.6
234.376	4.68
234.753	3.56
235.13	2.35
235.508	3.14
235.885	3.36
236.262	5.35
236.639	5
237.016	4.23
237.393	2.65
237.77	2.28
238.147	2.16
238.524	2.35
238.901	0.2
239.278	0.29
239.655	0.51
240.032	1.35
240.409	1.59
240.785	1.69
241.162	1.77
241.539	1.45
241.915	1.48
242.292	1.73
242.668	2.5
243.045	3.37
243.421	3.34
243.798	3.19
244.174	2.82
244.551	3.03
244.927	3.24
245.303	3.07
245.679	3.18
246.056	2.97
246.432	3.04
246.808	3.73
247.184	4.21
247.56	3.82
247.936	3.78
248.312	3.83
248.688	3.84
249.064	3.91
249.44	4.05
249.815	4.15
250.191	3.94
250.567	3.85
250.943	3.58
251.318	3.73
251.694	3.78
252.069	3.96
252.445	4
252.82	4.04
253.196	4.45
253.571	4.38
253.947	4.57
254.322	4.41
254.697	4.06
255.073	3.72
255.448	3.78
255.823	3.71
256.198	3.57
256.573	3.61
256.948	3.62
257.323	3.59
257.698	3.58
258.073	3.67
258.448	3.85
258.823	3.7
259.198	3.5
259.573	3.35
259.948	3.41
260.322	3.2
260.697	3.2
261.072	3.27
261.446	3.2
261.821	3.11
262.195	3.19
262.57	3.4
262.944	3.45
263.319	3.49
263.693	3.48
264.067	3.41
264.442	3.16
264.816	3.12
265.19	3.05
265.564	3.22
265.938	3.16
266.313	2.99
266.687	3.19
267.061	3.28
267.435	3.32
267.809	3.2
268.183	3.17
268.556	3.05
268.93	2.83
269.304	2.8
269.678	3.03
270.051	3.1
270.425	2.8
270.799	2.72
271.172	2.64
271.546	2.64
271.919	2.86
272.293	3.21
272.666	3.28
273.04	3.32
273.413	3.14
273.787	3.25
274.16	3.05
274.533	2.98
274.906	2.95
275.279	2.89
275.653	2.95
276.026	2.98
276.399	3.11
276.772	3.2
277.145	3.46
277.518	3.12
277.891	3.25
278.263	3.28
278.636	3.47
279.009	3.68
279.382	3.74
279.755	3.47
280.127	3.39
280.5	3.22
280.872	3.27
281.245	3.28
281.617	3.28
281.99	3.39
282.362	3.38
282.735	3.36
283.107	3.54
283.479	3.6
283.852	3.66
284.224	3.67
284.596	3.56
284.968	3.47
285.34	3.56
285.713	3.28
286.085	3.34
286.457	3.15
286.829	3.02
287.201	3.05
287.572	3.11
287.944	3.13
288.316	3.13
288.688	3.16
289.06	3.2
289.431	3.2
289.803	3.28
290.175	3.34
290.546	3.3
290.918	3.2
291.289	3.08
291.661	3.11
292.032	3.05
292.403	3.2
292.775	3.32
293.146	3.62
293.517	3.63
293.889	3.58
294.26	3.78
294.631	3.85
295.002	3.85
295.373	3.81
295.744	3.94
296.115	4.05
296.486	4.19
296.857	4.34
297.228	4.41
297.599	4.41
297.97	4.5
298.34	4.55
298.711	4.66
299.082	4.77
299.452	4.85
299.823	4.94
300.194	4.93
300.564	4.81
300.935	4.69
301.305	4.82
301.676	4.88
302.046	4.83
302.416	4.9
302.787	4.92
303.157	5.11
303.527	5.11
303.897	5.04
304.267	5
304.637	4.95
305.008	4.92
305.378	4.98
305.748	4.9
306.117	5.01
306.487	5.04
306.857	5.11
307.227	5.1
307.597	4.99
307.967	5.06
308.336	5.19
308.706	5.28
309.076	5.35
309.445	5.49
309.815	5.59
310.184	5.62
310.554	5.64
310.923	5.61
311.293	5.56
311.662	5.67
312.031	5.63
312.401	5.65
312.77	5.77
313.139	5.81
313.508	5.77
313.877	5.85
314.246	5.79
314.616	5.87
314.985	5.93
315.353	6.17
315.722	6.27
316.091	6.32
316.46	6.18
316.829	6.25
317.198	6.21
317.567	6.4
317.935	6.58
318.304	6.81
318.672	6.91
319.041	7.11
319.41	7.15
319.778	7.21
320.147	7.21
320.515	7.23
320.883	7.25
321.252	7.52
321.62	7.55
321.988	7.69
322.357	7.61
322.725	7.76
323.093	7.72
323.461	7.73
323.829	7.92
324.197	8.12
324.565	8.04
324.933	8.03
325.301	7.79
325.669	7.64
326.037	7.49
326.405	7.45
326.772	7.37
327.14	7.34
327.508	7.32
327.875	7.44
328.243	7.47
328.61	7.54
328.978	7.49
329.346	7.44
329.713	7.45
330.08	7.48
330.448	7.45
330.815	7.48
331.182	7.45
331.55	7.43
331.917	7.51
332.284	7.62
332.651	7.7
333.018	7.83
333.385	8.11
333.752	8.31
334.119	8.49
334.486	8.49
334.853	8.58
335.22	8.59
335.587	8.53
335.954	8.44
336.32	8.37
336.687	8.49
337.054	8.66
337.42	8.64
337.787	8.65
338.153	8.67
338.52	8.85
338.886	8.86
339.253	8.8
339.619	8.72
339.986	8.65
340.352	8.71
340.718	8.72
341.084	8.59
341.451	8.68
341.817	8.67
342.183	8.71
342.549	8.78
342.915	8.83
343.281	8.85
343.647	8.92
344.013	8.88
344.379	8.96
344.745	8.89
345.11	8.92
345.476	8.94
345.842	8.85
346.208	8.72
346.573	8.66
346.939	8.64
347.304	8.64
347.67	8.73
348.035	8.77
348.401	8.82
348.766	8.83
349.132	8.85
349.497	8.82
349.862	8.77
350.228	8.67
350.593	8.68
350.958	8.69
351.323	8.64
351.688	8.72
352.053	8.59
352.418	8.57
352.783	8.6
353.148	8.64
353.513	8.66
353.878	8.66
354.243	8.68
354.608	8.78
354.972	8.68
355.337	8.66
355.702	8.53
356.066	8.48
356.431	8.4
356.795	8.27
357.16	8.16
357.524	8.16
357.889	8.07
358.253	8.09
358.618	8.05
358.982	8.12
359.346	8.03
359.71	8.08
360.075	8.06
360.439	8.07
360.803	8.08
361.167	8.06
361.531	8.09
361.895	8.14
362.259	8.11
362.623	8.14
362.987	8.1
363.351	8.05
363.714	7.98
364.078	7.96
364.442	7.91
364.806	7.96
365.169	7.94
365.533	8
365.896	7.97
366.26	7.86
366.623	7.85
366.987	7.88
367.35	7.78
367.714	7.71
368.077	7.63
368.44	7.59
368.803	7.46
369.167	7.33
369.53	7.3
369.893	7.24
370.256	7.17
370.619	7.13
370.982	7.1
371.345	7.15
371.708	7.15
372.071	7.07
372.434	6.99
372.797	6.9
373.159	6.84
373.522	6.85
373.885	6.91
374.247	6.81
374.61	6.8
374.973	6.72
375.335	6.69
375.698	6.68
376.06	6.53
376.423	6.56
376.785	6.56
377.147	6.49
377.51	6.45
377.872	6.45
378.234	6.36
378.596	6.34
378.958	6.25
379.321	6.2
379.683	6.2
380.045	6.15
380.407	6.09
380.769	6.02
381.13	5.92
381.492	5.84
381.854	5.8
382.216	5.79
382.578	5.73
382.939	5.68
383.301	5.62
383.663	5.59
384.024	5.56
384.386	5.53
384.747	5.46
385.109	5.41
385.47	5.41
385.832	5.39
386.193	5.37
386.554	5.36
386.916	5.31
387.277	5.28
387.638	5.23
387.999	5.22
388.36	5.19
388.721	5.2
389.082	5.19
389.443	5.17
389.804	5.12
390.165	5.13
390.526	5.12
390.887	5.1
391.248	5.1
391.609	5.04
391.969	4.99
392.33	4.98
392.691	4.9
393.051	4.87
393.412	4.86
393.772	4.88
394.133	4.84
394.493	4.82
394.854	4.78
395.214	4.78
395.574	4.74
395.935	4.74
396.295	4.72
396.655	4.65
397.015	4.63
397.376	4.57
397.736	4.55
398.096	4.51
398.456	4.48
398.816	4.48
399.176	4.44
399.535	4.44
399.895	4.43
400.255	4.46
400.615	4.44
400.975	4.39
401.334	4.34
401.694	4.31
402.054	4.31
402.413	4.29
402.773	4.27
403.132	4.26
403.492	4.24
403.851	4.2
404.211	4.24
404.57	4.18
404.929	4.18
405.288	4.17
405.648	4.16
406.007	4.1
406.366	4.06
406.725	4.04
407.084	4
407.443	3.95
407.802	3.92
408.161	3.88
408.52	3.88
408.879	3.89
409.238	3.89
409.596	3.88
409.955	3.88
410.314	3.89
410.673	3.91
411.031	3.87
411.39	3.84
411.748	3.84
412.107	3.84
412.465	3.84
412.824	3.8
413.182	3.8
413.54	3.81
413.899	3.79
414.257	3.8
414.615	3.8
414.974	3.8
415.332	3.78
415.69	3.76
416.048	3.74
416.406	3.71
416.764	3.7
417.122	3.69
417.48	3.68
417.838	3.65
418.195	3.63
418.553	3.63
418.911	3.62
419.269	3.58
419.626	3.56
419.984	3.55
420.342	3.54
420.699	3.55
421.057	3.54
421.414	3.54
421.772	3.55
422.129	3.53
422.486	3.53
422.844	3.52
423.201	3.53
423.558	3.52
423.915	3.5
424.273	3.48
424.63	3.48
424.987	3.49
425.344	3.51
425.701	3.5
426.058	3.5
426.415	3.5
426.772	3.52
427.128	3.54
427.485	3.54
427.842	3.53
428.199	3.51
428.555	3.49
428.912	3.46
429.269	3.42
429.625	3.44
429.982	3.43
430.338	3.44
430.695	3.42
431.051	3.43
431.407	3.43
431.764	3.42
432.12	3.42
432.476	3.4
432.832	3.37
433.189	3.37
433.545	3.37
433.901	3.36
434.257	3.34
434.613	3.33
434.969	3.33
435.325	3.33
435.681	3.31
436.036	3.32
436.392	3.34
436.748	3.35
437.104	3.35
437.459	3.35
437.815	3.35
438.171	3.36
438.526	3.36
438.882	3.37
439.237	3.36
439.593	3.36
439.948	3.36
440.304	3.35
440.659	3.33
441.014	3.32
441.369	3.35
441.725	3.34
442.08	3.33
442.435	3.33
442.79	3.31
443.145	3.31
443.5	3.31
443.855	3.29
444.21	3.29
444.565	3.27
444.92	3.27
445.275	3.26
445.629	3.26
445.984	3.24
446.339	3.24
446.693	3.22
447.048	3.21
447.403	3.21
447.757	3.21
448.112	3.22
448.466	3.23
448.82	3.21
449.175	3.22
449.529	3.23
449.883	3.23
450.238	3.24
450.592	3.25
450.946	3.25
451.3	3.27
451.654	3.27
452.008	3.27
452.362	3.24
452.716	3.24
453.07	3.23
453.424	3.23
453.778	3.22
454.132	3.23
454.486	3.24
454.839	3.22
455.193	3.23
455.547	3.24
455.9	3.25
456.254	3.22
456.607	3.21
456.961	3.22
457.314	3.21
457.668	3.21
458.021	3.2
458.375	3.2
458.728	3.18
459.081	3.19
459.434	3.19
459.787	3.23
460.141	3.23
460.494	3.23
460.847	3.23
461.2	3.23
461.553	3.23
461.906	3.21
462.259	3.22
462.611	3.23
462.964	3.2
463.317	3.2
463.67	3.23
464.022	3.23
464.375	3.23
464.728	3.21
465.08	3.25
465.433	3.25
465.785	3.26
466.138	3.29
466.49	3.28
466.843	3.28
467.195	3.29
467.547	3.3
467.899	3.32
468.252	3.33
468.604	3.33
468.956	3.37
469.308	3.39
469.66	3.4
470.012	3.42
470.364	3.44
470.716	3.43
471.068	3.45
471.42	3.44
471.772	3.44
472.123	3.47
472.475	3.47
472.827	3.48
473.178	3.47
473.53	3.45
473.882	3.44
474.233	3.45
474.585	3.43
474.936	3.43
475.288	3.46
475.639	3.46
475.99	3.46
476.342	3.43
476.693	3.44
477.044	3.46
477.395	3.42
477.746	3.4
478.097	3.39
478.448	3.37
478.8	3.4
479.15	3.39
479.501	3.38
479.852	3.37
480.203	3.36
480.554	3.37
480.905	3.37
481.255	3.37
481.606	3.37
481.957	3.38
482.307	3.37
482.658	3.36
483.009	3.37
483.359	3.37
483.709	3.37
484.06	3.37
484.41	3.36
484.761	3.38
485.111	3.39
485.461	3.4
485.811	3.4
486.162	3.4
486.512	3.42
486.862	3.43
487.212	3.43
487.562	3.43
487.912	3.42
488.262	3.43
488.612	3.43
488.961	3.44
489.311	3.44
489.661	3.45
490.011	3.46
490.36	3.46
490.71	3.47
491.06	3.46
491.409	3.47
491.759	3.49
492.108	3.48
492.458	3.48
492.807	3.49
493.157	3.52
493.506	3.52
493.855	3.49
494.204	3.5
494.554	3.52
494.903	3.54
495.252	3.57
495.601	3.61
495.95	3.64
496.299	3.65
496.648	3.68
496.997	3.68
497.346	3.71
497.695	3.73
498.043	3.74
498.392	3.78
498.741	3.81
499.09	3.84
499.438	3.89
499.787	3.92
500.135	3.92
500.484	3.92
500.832	3.95
501.181	4
501.529	4.03
501.878	4.05
502.226	4.09
502.574	4.13
502.923	4.12
503.271	4.16
503.619	4.22
503.967	4.23
504.315	4.25
504.663	4.28
505.011	4.32
505.359	4.37
505.707	4.4
506.055	4.44
506.403	4.46
506.751	4.47
507.098	4.52
507.446	4.55
507.794	4.62
508.141	4.65
508.489	4.72
508.837	4.75
509.184	4.81
509.531	4.83
509.879	4.85
510.226	4.9
510.574	4.97
510.921	5.03
511.268	5.08
511.616	5.14
511.963	5.2
512.31	5.25
512.657	5.31
513.004	5.36
513.351	5.41
513.698	5.47
514.045	5.54
514.392	5.61
514.739	5.68
515.086	5.76
515.432	5.83
515.779	5.91
516.126	5.97
516.473	6.02
516.819	6.09
517.166	6.17
517.512	6.23
517.859	6.27
518.205	6.29
518.552	6.35
518.898	6.41
519.245	6.49
519.591	6.56
519.937	6.61
520.283	6.67
520.629	6.76
520.976	6.83
521.322	6.91
521.668	6.98
522.014	7.08
522.36	7.15
522.706	7.24
523.052	7.33
523.398	7.44
523.743	7.59
524.089	7.73
524.435	7.83
524.781	7.92
525.126	8.04
525.472	8.19
525.817	8.28
526.163	8.39
526.509	8.46
526.854	8.55
527.199	8.64
527.545	8.73
527.89	8.81
528.235	8.91
528.581	9.01
528.926	9.11
529.271	9.2
529.616	9.29
529.961	9.4
530.306	9.52
530.651	9.64
530.996	9.76
531.341	9.88
531.686	10.03
532.031	10.18
532.376	10.32
532.721	10.44
533.065	10.61
533.41	10.77
533.755	10.94
534.099	11.11
534.444	11.28
534.788	11.45
535.133	11.61
535.477	11.77
535.822	11.96
536.166	12.17
536.51	12.42
536.855	12.67
537.199	12.91
537.543	13.16
537.887	13.43
538.231	13.68
538.576	13.98
538.92	14.22
539.264	14.51
539.608	14.76
539.951	14.98
540.295	15.21
540.639	15.45
540.983	15.66
541.327	15.91
541.671	16.13
542.014	16.37
542.358	16.6
542.701	16.83
543.045	17.06
543.389	17.28
543.732	17.48
544.075	17.72
544.419	17.97
544.762	18.22
545.105	18.49
545.449	18.78
545.792	19.04
546.135	19.35
546.478	19.64
546.821	19.98
547.165	20.34
547.508	20.69
547.851	21.02
548.194	21.41
548.536	21.72
548.879	22.08
549.222	22.43
549.565	22.78
549.908	23.14
550.25	23.51
550.593	23.9
550.936	24.27
551.278	24.65
551.621	25.08
551.963	25.46
552.306	25.87
552.648	26.3
552.991	26.68
553.333	27.09
553.675	27.44
554.017	27.82
554.36	28.17
554.702	28.5
555.044	28.84
555.386	29.17
555.728	29.58
556.07	29.96
556.412	30.32
556.754	30.68
557.096	31.1
557.438	31.45
557.78	31.85
558.121	32.26
558.463	32.62
558.805	32.9
559.147	33.31
559.488	33.62
559.83	33.91
560.171	34.2
560.513	34.53
560.854	34.9
561.196	35.2
561.537	35.57
561.878	35.9
562.22	36.29
562.561	36.64
562.902	36.93
563.243	37.24
563.584	37.58
563.925	37.93
564.266	38.23
564.607	38.6
564.948	38.86
565.289	39.18
565.63	39.48
565.971	39.81
566.312	40.04
566.653	40.32
566.993	40.56
567.334	40.85
567.675	41.15
568.015	41.39
568.356	41.7
568.696	42
569.037	42.21
569.377	42.4
569.718	42.66
570.058	42.93
570.398	43.14
570.739	43.37
571.079	43.6
571.419	43.84
571.759	44.05
572.099	44.31
572.439	44.51
572.779	44.71
573.119	44.9
573.459	45.13
573.799	45.35
574.139	45.63
574.479	45.85
574.819	46.01
575.158	46.24
575.498	46.45
575.838	46.62
576.177	46.88
576.517	47.05
576.856	47.26
577.196	47.44
577.535	47.72
577.875	47.93
578.214	48.23
578.553	48.48
578.893	48.73
579.232	48.94
579.571	49.2
579.91	49.39
580.25	49.65
580.589	49.92
580.928	50
581.267	50.1
581.606	50.34
581.945	50.61
582.283	50.72
582.622	50.87
582.961	51.02
583.3	51.22
583.639	51.44
583.977	51.61
584.316	51.81
584.654	51.92
584.993	52.07
585.332	52.16
585.67	52.36
586.008	52.44
586.347	52.55
586.685	52.65
587.024	52.84
587.362	52.9
587.7	53
588.038	53.2
588.376	53.4
588.715	53.4
589.053	53.44
589.391	53.59
589.729	53.66
590.067	53.82
590.404	53.98
590.742	54.14
591.08	54.14
591.418	54.26
591.756	54.41
592.093	54.55
592.431	54.71
592.769	54.82
593.106	55.01
593.444	55.14
593.781	55.24
594.119	55.38
594.456	55.5
594.793	55.58
595.131	55.69
595.468	55.74
595.805	55.97
596.143	56.06
596.48	56.2
596.817	56.34
597.154	56.42
597.491	56.43
597.828	56.5
598.165	56.69
598.502	56.81
598.839	56.89
599.176	57.04
599.512	57.09
599.849	57.12
600.186	57.21
600.523	57.33
600.859	57.32
601.196	57.35
601.532	57.48
601.869	57.6
602.205	57.69
602.542	57.8
602.878	57.77
603.215	57.82
603.551	57.78
603.887	57.81
604.223	57.84
604.56	57.99
604.896	58.04
605.232	58.11
605.568	58.14
605.904	58.21
606.24	58.26
606.576	58.3
606.912	58.41
607.248	58.43
607.583	58.57
607.919	58.8
608.255	58.91
608.591	58.98
608.926	58.97
609.262	59.04
609.597	59.09
609.933	59.2
610.268	59.29
610.604	59.39
610.939	59.49
611.275	59.55
611.61	59.59
611.945	59.65
612.281	59.75
612.616	59.92
612.951	59.97
613.286	60
613.621	60.07
613.956	60.08
614.291	60.19
614.626	60.18
614.961	60.13
615.296	60.17
615.631	60.17
615.966	60.32
616.3	60.36
616.635	60.42
616.97	60.51
617.304	60.58
617.639	60.74
617.973	60.89
618.308	60.94
618.642	60.91
618.977	61.03
619.311	61.07
619.646	61.03
619.98	61.04
620.314	61.11
620.648	61.32
620.983	61.39
621.317	61.39
621.651	61.32
621.985	61.43
622.319	61.44
622.653	61.47
622.987	61.36
623.321	61.49
623.655	61.49
623.988	61.44
624.322	61.59
624.656	61.54
624.99	61.5
625.323	61.56
625.657	61.61
625.99	61.74
626.324	61.81
626.657	61.86
626.991	61.86
627.324	61.82
627.658	61.68
627.991	61.72
628.324	61.71
628.657	61.75
628.991	61.81
629.324	61.76
629.657	61.78
629.99	61.96
630.323	61.94
630.656	62.09
630.989	62.25
631.322	62.05
631.655	62.09
631.987	62.2
632.32	62.18
632.653	62.22
632.986	62.16
633.318	62.08
633.651	61.96
633.984	62.04
634.316	62
634.649	62.08
634.981	62.16
635.313	62.25
635.646	62.38
635.978	62.37
636.31	62.55
636.643	62.63
636.975	62.57
637.307	62.53
637.639	62.51
637.971	62.47
638.303	62.61
638.635	62.7
638.967	62.54
639.299	62.54
639.631	62.63
639.963	62.5
640.295	62.54
640.626	62.76
640.958	62.65
641.29	62.89
641.621	62.91
641.953	62.91
642.285	62.89
642.616	62.96
642.948	62.97
643.279	62.9
643.61	62.81
643.942	62.82
644.273	62.94
644.604	62.95
644.936	62.98
645.267	62.94
645.598	62.97
645.929	63.08
646.26	63.2
646.591	63.34
646.922	63.56
647.253	63.59
647.584	63.4
647.915	63.56
648.245	63.5
648.576	63.48
648.907	63.45
649.238	63.47
649.568	63.45
649.899	63.48
650.229	63.51
650.56	63.67
650.89	63.81
651.221	63.8
651.551	63.82
651.882	63.83
652.212	63.97
652.542	63.84
652.872	63.89
653.203	63.94
653.533	63.89
653.863	63.93
654.193	64.01
654.523	64.12
654.853	64.29
655.183	64.3
655.513	64.43
655.843	64.49
656.172	64.58
656.502	64.6
656.832	64.62
657.162	64.7
657.491	64.8
657.821	64.75
658.15	64.78
658.48	64.76
658.809	64.76
659.139	64.72
659.468	64.88
659.798	64.81
660.127	64.87
660.456	64.86
660.785	64.83
661.115	64.89
661.444	64.91
661.773	64.86
662.102	64.84
662.431	64.75
662.76	64.74
663.089	64.59
663.418	64.48
663.747	64.41
664.076	64.47
664.404	64.5
664.733	64.48
665.062	64.43
665.39	64.51
665.719	64.59
666.048	64.69
666.376	64.79
666.705	64.95
667.033	64.94
667.362	65.1
667.69	65.19
668.018	65.25
668.347	65.31
668.675	65.27
