Data from BA51068_Reflection_00012.txt Node
Date: Tue Nov 19 11:59:11 EST 2019
User: vgr7
Spectrometer: USB2G7710
Scans to average: 3
Trigger mode: 4
Integration Time (sec): 2.000000E-2
Electric dark correction enabled: true
Boxcar width: 10
XAxis mode: Wavelengths
Number of Pixels in Spectrum: 2048
>>>>>Begin Spectral Data<<<<<
177.721	-69.67
178.105	108.62
178.488	-170.88
178.871	-87.27
179.254	600
179.636	600
180.019	-114.8
180.402	183.33
180.785	134.12
181.168	199.58
181.55	-2630.77
181.933	-106.56
182.316	-131.9
182.698	-58.09
183.081	-44.1
183.463	-47.64
183.846	-39.34
184.228	-3.42
184.611	26.84
184.993	87.42
185.376	108.65
185.758	127.98
186.14	224.35
186.522	275.79
186.904	501.1
187.287	282.89
187.669	298.01
188.051	299.54
188.433	224.48
188.815	333.19
189.197	269.63
189.579	193.51
189.961	166.63
190.342	118.23
190.724	91.46
191.106	127.52
191.488	115.78
191.869	117.17
192.251	233.69
192.633	349.39
193.014	395.22
193.396	2947.83
193.777	284.21
194.159	245.01
194.54	282.59
194.922	81.34
195.303	98.73
195.684	124.08
196.065	84.03
196.447	98.71
196.828	10.61
197.209	-19.16
197.59	-265.77
197.971	630.93
198.352	209.12
198.733	107.97
199.114	175.97
199.495	198.73
199.876	127.7
200.257	96.94
200.638	95.92
201.018	191.36
201.399	74.65
201.78	354.1
202.16	-1285.71
202.541	-518.64
202.922	-77.82
203.302	-72.9
203.683	0
204.063	-193.22
204.444	-317.03
204.824	-485.11
205.204	-431.62
205.585	-986.78
205.965	-2055.74
206.345	630.46
206.725	492.43
207.106	1205.04
207.486	265.98
207.866	318.16
208.246	185.32
208.626	151.22
209.006	158.19
209.386	108.84
209.766	104.68
210.145	121.9
210.525	84.88
210.905	62.49
211.285	78.43
211.664	72.12
212.044	57.73
212.424	75.42
212.803	58.53
213.183	52.84
213.562	49.39
213.942	37.88
214.321	35.69
214.701	28.88
215.08	30.74
215.459	33.7
215.838	35.69
216.218	26.97
216.597	24.85
216.976	17.06
217.355	18.25
217.734	25.05
218.113	30.27
218.492	42.1
218.871	41.34
219.25	30.69
219.629	25.63
220.008	16.09
220.387	3.4
220.766	23.12
221.144	19.32
221.523	12.19
221.902	19.56
222.28	36.67
222.659	55.64
223.037	33.1
223.416	31.7
223.794	23.36
224.173	18.69
224.551	16.64
224.929	29.28
225.308	28.4
225.686	25.41
226.064	24.03
226.442	18.34
226.821	17.9
227.199	12.7
227.577	9.98
227.955	14.28
228.333	12.24
228.711	10
229.089	12.78
229.467	13.06
229.845	14.73
230.222	11.01
230.6	7.89
230.978	10.81
231.356	11.91
231.733	14.03
232.111	14.52
232.488	15.01
232.866	14.92
233.243	13.71
233.621	11.89
233.998	9.9
234.376	9.18
234.753	8.46
235.13	9.27
235.508	9.54
235.885	8.29
236.262	8.35
236.639	6.1
237.016	5.09
237.393	4.47
237.77	3.55
238.147	4.71
238.524	4.45
238.901	4
239.278	3.85
239.655	3.31
240.032	4.12
240.409	3.79
240.785	2.97
241.162	2.79
241.539	3.88
241.915	3.75
242.292	4.06
242.668	4.25
243.045	4.57
243.421	4.68
243.798	4.7
244.174	4.62
244.551	4.85
244.927	4.9
245.303	5.14
245.679	5.24
246.056	4.93
246.432	4.97
246.808	5.12
247.184	5.3
247.56	5.12
247.936	4.95
248.312	5.3
248.688	5.32
249.064	5.32
249.44	5.04
249.815	5.19
250.191	5.34
250.567	5.31
250.943	5.26
251.318	5.14
251.694	5
252.069	4.87
252.445	4.71
252.82	5.07
253.196	4.97
253.571	5.17
253.947	5.29
254.322	5.24
254.697	4.91
255.073	4.51
255.448	4.54
255.823	4.8
256.198	4.47
256.573	4.55
256.948	4.51
257.323	4.62
257.698	4.63
258.073	4.38
258.448	4.45
258.823	4.34
259.198	4.28
259.573	4.4
259.948	4.57
260.322	4.66
260.697	4.52
261.072	4.49
261.446	4.39
261.821	4.35
262.195	4.32
262.57	4.3
262.944	4.31
263.319	4.37
263.693	4.11
264.067	4.22
264.442	4.24
264.816	4.22
265.19	4.1
265.564	3.77
265.938	3.86
266.313	3.72
266.687	3.7
267.061	3.65
267.435	3.71
267.809	3.57
268.183	3.6
268.556	3.48
268.93	3.62
269.304	3.59
269.678	3.78
270.051	3.84
270.425	3.99
270.799	4.02
271.172	4.03
271.546	4.15
271.919	3.94
272.293	4.08
272.666	4.01
273.04	4.01
273.413	4.43
273.787	4.31
274.16	4.48
274.533	4.5
274.906	4.6
275.279	4.52
275.653	4.42
276.026	4.25
276.399	4.35
276.772	4.36
277.145	4.48
277.518	4.18
277.891	4.24
278.263	4.14
278.636	4.1
279.009	4.17
279.382	3.93
279.755	4.1
280.127	3.98
280.5	4.1
280.872	4.1
281.245	4.04
281.617	4.23
281.99	4.16
282.362	4.03
282.735	4.04
283.107	4.14
283.479	4.24
283.852	4.47
284.224	4.55
284.596	4.43
284.968	4.32
285.34	4.42
285.713	4.41
286.085	4.41
286.457	4.43
286.829	4.41
287.201	4.45
287.572	4.34
287.944	4.38
288.316	4.19
288.688	4.21
289.06	4.2
289.431	4.14
289.803	4.17
290.175	4.22
290.546	4.31
290.918	4.36
291.289	4.32
291.661	4.15
292.032	4.1
292.403	4.26
292.775	4.34
293.146	4.3
293.517	4.2
293.889	4.22
294.26	4.22
294.631	4.3
295.002	4.39
295.373	4.51
295.744	4.44
296.115	4.79
296.486	4.96
296.857	4.92
297.228	4.71
297.599	4.6
297.97	4.76
298.34	4.69
298.711	4.7
299.082	4.75
299.452	4.88
299.823	4.9
300.194	4.96
300.564	5
300.935	5.24
301.305	5.4
301.676	5.39
302.046	5.57
302.416	5.51
302.787	5.62
303.157	5.75
303.527	5.89
303.897	5.82
304.267	5.74
304.637	5.79
305.008	6.23
305.378	6.38
305.748	6.41
306.117	6.58
306.487	6.54
306.857	6.71
307.227	6.79
307.597	6.93
307.967	6.87
308.336	6.85
308.706	6.75
309.076	6.85
309.445	6.9
309.815	6.78
310.184	6.92
310.554	6.89
310.923	6.68
311.293	6.65
311.662	6.64
312.031	6.57
312.401	6.52
312.77	6.44
313.139	6.52
313.508	6.55
313.877	6.38
314.246	6.32
314.616	6.3
314.985	6.14
315.353	6.01
315.722	6.07
316.091	6.19
316.46	6.2
316.829	6.03
317.198	6.21
317.567	6.39
317.935	6.27
318.304	6.4
318.672	6.65
319.041	6.65
319.41	6.71
319.778	6.81
320.147	6.94
320.515	7.06
320.883	7.14
321.252	7.29
321.62	7.44
321.988	7.5
322.357	7.47
322.725	7.69
323.093	7.69
323.461	7.86
323.829	7.88
324.197	8.05
324.565	8.19
324.933	8.12
325.301	8.02
325.669	8.21
326.037	8.11
326.405	8.23
326.772	8.32
327.14	8.39
327.508	8.36
327.875	8.38
328.243	8.23
328.61	8.23
328.978	8.16
329.346	8.27
329.713	8.39
330.08	8.5
330.448	8.51
330.815	8.71
331.182	8.61
331.55	8.59
331.917	8.61
332.284	8.73
332.651	8.83
333.018	8.93
333.385	8.86
333.752	8.95
334.119	8.94
334.486	9
334.853	8.96
335.22	9.01
335.587	9.06
335.954	9.18
336.32	9.17
336.687	9.32
337.054	9.34
337.42	9.21
337.787	9.18
338.153	9.33
338.52	9.34
338.886	9.28
339.253	9.33
339.619	9.22
339.986	9.22
340.352	9.17
340.718	9.08
341.084	9.05
341.451	9.08
341.817	9.12
342.183	9.06
342.549	9.22
342.915	9.29
343.281	9.29
343.647	9.33
344.013	9.45
344.379	9.32
344.745	9.29
345.11	9.44
345.476	9.62
345.842	9.43
346.208	9.48
346.573	9.49
346.939	9.44
347.304	9.54
347.67	9.47
348.035	9.47
348.401	9.5
348.766	9.43
349.132	9.44
349.497	9.38
349.862	9.41
350.228	9.26
350.593	9.21
350.958	9.24
351.323	9.14
351.688	8.95
352.053	8.92
352.418	8.92
352.783	8.86
353.148	8.73
353.513	8.75
353.878	8.55
354.243	8.59
354.608	8.66
354.972	8.56
355.337	8.5
355.702	8.45
356.066	8.48
356.431	8.56
356.795	8.56
357.16	8.58
357.524	8.54
357.889	8.55
358.253	8.52
358.618	8.5
358.982	8.53
359.346	8.59
359.71	8.55
360.075	8.51
360.439	8.52
360.803	8.54
361.167	8.51
361.531	8.51
361.895	8.45
362.259	8.48
362.623	8.42
362.987	8.43
363.351	8.46
363.714	8.42
364.078	8.41
364.442	8.37
364.806	8.29
365.169	8.37
365.533	8.4
365.896	8.38
366.26	8.31
366.623	8.29
366.987	8.27
367.35	8.32
367.714	8.25
368.077	8.23
368.44	8.18
368.803	8.14
369.167	8.02
369.53	8.06
369.893	7.97
370.256	7.92
370.619	7.89
370.982	7.82
371.345	7.83
371.708	7.77
372.071	7.6
372.434	7.58
372.797	7.53
373.159	7.41
373.522	7.37
373.885	7.35
374.247	7.29
374.61	7.23
374.973	7.16
375.335	7.2
375.698	7.12
376.06	7
376.423	7.03
376.785	7.12
377.147	7.06
377.51	6.94
377.872	6.96
378.234	6.93
378.596	6.93
378.958	6.9
379.321	6.8
379.683	6.94
380.045	6.87
380.407	6.76
380.769	6.73
381.13	6.73
381.492	6.64
381.854	6.61
382.216	6.6
382.578	6.5
382.939	6.44
383.301	6.43
383.663	6.39
384.024	6.34
384.386	6.25
384.747	6.16
385.109	6.17
385.47	6.16
385.832	6.06
386.193	6.01
386.554	5.92
386.916	5.91
387.277	5.75
387.638	5.77
387.999	5.72
388.36	5.67
388.721	5.61
389.082	5.62
389.443	5.58
389.804	5.55
390.165	5.61
390.526	5.59
390.887	5.55
391.248	5.54
391.609	5.49
391.969	5.48
392.33	5.46
392.691	5.44
393.051	5.4
393.412	5.47
393.772	5.4
394.133	5.41
394.493	5.36
394.854	5.37
395.214	5.32
395.574	5.3
395.935	5.28
396.295	5.25
396.655	5.22
397.015	5.17
397.376	5.11
397.736	4.99
398.096	4.95
398.456	4.88
398.816	4.88
399.176	4.83
399.535	4.8
399.895	4.78
400.255	4.75
400.615	4.75
400.975	4.71
401.334	4.7
401.694	4.65
402.054	4.63
402.413	4.61
402.773	4.64
403.132	4.61
403.492	4.57
403.851	4.55
404.211	4.55
404.57	4.55
404.929	4.53
405.288	4.53
405.648	4.52
406.007	4.53
406.366	4.49
406.725	4.49
407.084	4.49
407.443	4.49
407.802	4.49
408.161	4.43
408.52	4.41
408.879	4.43
409.238	4.46
409.596	4.46
409.955	4.46
410.314	4.42
410.673	4.41
411.031	4.42
411.39	4.42
411.748	4.41
412.107	4.42
412.465	4.41
412.824	4.4
413.182	4.4
413.54	4.36
413.899	4.35
414.257	4.33
414.615	4.29
414.974	4.26
415.332	4.23
415.69	4.23
416.048	4.21
416.406	4.17
416.764	4.13
417.122	4.08
417.48	4.06
417.838	4.02
418.195	4
418.553	3.97
418.911	3.95
419.269	3.95
419.626	3.92
419.984	3.89
420.342	3.89
420.699	3.86
421.057	3.87
421.414	3.86
421.772	3.87
422.129	3.86
422.486	3.85
422.844	3.82
423.201	3.82
423.558	3.8
423.915	3.81
424.273	3.81
424.63	3.84
424.987	3.82
425.344	3.83
425.701	3.83
426.058	3.84
426.415	3.84
426.772	3.81
427.128	3.81
427.485	3.81
427.842	3.79
428.199	3.78
428.555	3.77
428.912	3.75
429.269	3.74
429.625	3.74
429.982	3.74
430.338	3.76
430.695	3.75
431.051	3.76
431.407	3.73
431.764	3.72
432.12	3.7
432.476	3.72
432.832	3.71
433.189	3.7
433.545	3.7
433.901	3.71
434.257	3.73
434.613	3.71
434.969	3.71
435.325	3.71
435.681	3.72
436.036	3.72
436.392	3.73
436.748	3.74
437.104	3.75
437.459	3.76
437.815	3.73
438.171	3.72
438.526	3.7
438.882	3.69
439.237	3.68
439.593	3.69
439.948	3.68
440.304	3.66
440.659	3.65
441.014	3.65
441.369	3.65
441.725	3.63
442.08	3.62
442.435	3.62
442.79	3.61
443.145	3.59
443.5	3.58
443.855	3.55
444.21	3.52
444.565	3.5
444.92	3.48
445.275	3.49
445.629	3.49
445.984	3.49
446.339	3.48
446.693	3.47
447.048	3.44
447.403	3.42
447.757	3.43
448.112	3.42
448.466	3.41
448.82	3.38
449.175	3.38
449.529	3.38
449.883	3.37
450.238	3.37
450.592	3.38
450.946	3.38
451.3	3.4
451.654	3.4
452.008	3.39
452.362	3.38
452.716	3.38
453.07	3.38
453.424	3.37
453.778	3.36
454.132	3.37
454.486	3.38
454.839	3.4
455.193	3.42
455.547	3.43
455.9	3.45
456.254	3.47
456.607	3.47
456.961	3.48
457.314	3.48
457.668	3.47
458.021	3.45
458.375	3.44
458.728	3.43
459.081	3.43
459.434	3.43
459.787	3.44
460.141	3.44
460.494	3.44
460.847	3.47
461.2	3.48
461.553	3.51
461.906	3.51
462.259	3.52
462.611	3.52
462.964	3.53
463.317	3.52
463.67	3.52
464.022	3.53
464.375	3.54
464.728	3.56
465.08	3.6
465.433	3.62
465.785	3.61
466.138	3.64
466.49	3.68
466.843	3.69
467.195	3.71
467.547	3.71
467.899	3.72
468.252	3.73
468.604	3.75
468.956	3.74
469.308	3.73
469.66	3.74
470.012	3.73
470.364	3.73
470.716	3.74
471.068	3.75
471.42	3.74
471.772	3.76
472.123	3.76
472.475	3.73
472.827	3.74
473.178	3.76
473.53	3.73
473.882	3.72
474.233	3.72
474.585	3.73
474.936	3.74
475.288	3.73
475.639	3.71
475.99	3.71
476.342	3.7
476.693	3.7
477.044	3.68
477.395	3.68
477.746	3.66
478.097	3.66
478.448	3.63
478.8	3.62
479.15	3.62
479.501	3.6
479.852	3.59
480.203	3.59
480.554	3.6
480.905	3.6
481.255	3.6
481.606	3.6
481.957	3.6
482.307	3.61
482.658	3.62
483.009	3.63
483.359	3.62
483.709	3.63
484.06	3.62
484.41	3.62
484.761	3.63
485.111	3.63
485.461	3.63
485.811	3.64
486.162	3.66
486.512	3.66
486.862	3.68
487.212	3.68
487.562	3.68
487.912	3.69
488.262	3.7
488.612	3.71
488.961	3.71
489.311	3.71
489.661	3.71
490.011	3.7
490.36	3.7
490.71	3.7
491.06	3.72
491.409	3.75
491.759	3.77
492.108	3.77
492.458	3.78
492.807	3.8
493.157	3.81
493.506	3.82
493.855	3.83
494.204	3.83
494.554	3.85
494.903	3.88
495.252	3.88
495.601	3.92
495.95	3.94
496.299	3.97
496.648	3.98
496.997	4.03
497.346	4.07
497.695	4.11
498.043	4.16
498.392	4.19
498.741	4.22
499.09	4.25
499.438	4.29
499.787	4.32
500.135	4.34
500.484	4.37
500.832	4.41
501.181	4.44
501.529	4.49
501.878	4.54
502.226	4.6
502.574	4.64
502.923	4.67
503.271	4.71
503.619	4.76
503.967	4.81
504.315	4.83
504.663	4.87
505.011	4.92
505.359	4.93
505.707	4.95
506.055	5.01
506.403	5.05
506.751	5.1
507.098	5.15
507.446	5.19
507.794	5.25
508.141	5.31
508.489	5.36
508.837	5.4
509.184	5.46
509.531	5.49
509.879	5.53
510.226	5.56
510.574	5.61
510.921	5.65
511.268	5.7
511.616	5.75
511.963	5.79
512.31	5.84
512.657	5.9
513.004	5.93
513.351	5.99
513.698	6.05
514.045	6.1
514.392	6.16
514.739	6.26
515.086	6.32
515.432	6.4
515.779	6.47
516.126	6.54
516.473	6.57
516.819	6.65
517.166	6.72
517.512	6.8
517.859	6.88
518.205	6.95
518.552	7.02
518.898	7.08
519.245	7.17
519.591	7.22
519.937	7.29
520.283	7.39
520.629	7.47
520.976	7.56
521.322	7.67
521.668	7.77
522.014	7.84
522.36	7.92
522.706	8.01
523.052	8.15
523.398	8.27
523.743	8.41
524.089	8.56
524.435	8.68
524.781	8.78
525.126	8.88
525.472	9
525.817	9.1
526.163	9.22
526.509	9.3
526.854	9.4
527.199	9.49
527.545	9.59
527.89	9.69
528.235	9.76
528.581	9.84
528.926	9.95
529.271	10.07
529.616	10.19
529.961	10.3
530.306	10.39
530.651	10.49
530.996	10.62
531.341	10.74
531.686	10.88
532.031	11.03
532.376	11.18
532.721	11.34
533.065	11.5
533.41	11.64
533.755	11.82
534.099	11.98
534.444	12.15
534.788	12.3
535.133	12.49
535.477	12.7
535.822	12.91
536.166	13.08
536.51	13.29
536.855	13.51
537.199	13.73
537.543	13.99
537.887	14.23
538.231	14.5
538.576	14.74
538.92	15.01
539.264	15.28
539.608	15.52
539.951	15.73
540.295	15.97
540.639	16.21
540.983	16.44
541.327	16.67
541.671	16.86
542.014	17.06
542.358	17.27
542.701	17.45
543.045	17.66
543.389	17.92
543.732	18.12
544.075	18.34
544.419	18.6
544.762	18.84
545.105	19.14
545.449	19.43
545.792	19.72
546.135	20.01
546.478	20.31
546.821	20.63
547.165	20.97
547.508	21.29
547.851	21.6
548.194	21.93
548.536	22.24
548.879	22.63
549.222	22.99
549.565	23.3
549.908	23.64
550.25	23.99
550.593	24.33
550.936	24.69
551.278	25.03
551.621	25.39
551.963	25.74
552.306	26.11
552.648	26.38
552.991	26.73
553.333	27.11
553.675	27.47
554.017	27.83
554.36	28.19
554.702	28.55
555.044	28.91
555.386	29.25
555.728	29.63
556.07	29.97
556.412	30.33
556.754	30.65
557.096	31.06
557.438	31.4
557.78	31.77
558.121	32.13
558.463	32.5
558.805	32.85
559.147	33.25
559.488	33.53
559.83	33.89
560.171	34.2
560.513	34.47
560.854	34.77
561.196	35.07
561.537	35.44
561.878	35.78
562.22	36.11
562.561	36.4
562.902	36.69
563.243	37.01
563.584	37.37
563.925	37.73
564.266	38.05
564.607	38.39
564.948	38.65
565.289	38.95
565.63	39.23
565.971	39.52
566.312	39.82
566.653	40.16
566.993	40.45
567.334	40.7
567.675	41.02
568.015	41.27
568.356	41.55
568.696	41.8
569.037	41.97
569.377	42.18
569.718	42.5
570.058	42.79
570.398	42.99
570.739	43.18
571.079	43.4
571.419	43.62
571.759	43.86
572.099	44.09
572.439	44.36
572.779	44.6
573.119	44.78
573.459	44.96
573.799	45.13
574.139	45.33
574.479	45.56
574.819	45.73
575.158	45.92
575.498	46.1
575.838	46.3
576.177	46.57
576.517	46.76
576.856	46.95
577.196	47.16
577.535	47.42
577.875	47.65
578.214	47.83
578.553	48.06
578.893	48.28
579.232	48.48
579.571	48.67
579.91	48.79
580.25	48.99
580.589	49.17
580.928	49.39
581.267	49.63
581.606	49.8
581.945	50.01
582.283	50.22
582.622	50.35
582.961	50.52
583.3	50.63
583.639	50.89
583.977	51.06
584.316	51.24
584.654	51.32
584.993	51.46
585.332	51.67
585.67	51.78
586.008	51.89
586.347	52.09
586.685	52.22
587.024	52.41
587.362	52.52
587.7	52.63
588.038	52.78
588.376	52.78
588.715	52.95
589.053	53.06
589.391	53.13
589.729	53.26
590.067	53.37
590.404	53.49
590.742	53.63
591.08	53.63
591.418	53.7
591.756	53.88
592.093	54.01
592.431	54.16
592.769	54.29
593.106	54.43
593.444	54.47
593.781	54.51
594.119	54.59
594.456	54.8
594.793	54.96
595.131	55.03
595.468	55.13
595.805	55.28
596.143	55.3
596.48	55.46
596.817	55.59
597.154	55.7
597.491	55.78
597.828	55.79
598.165	55.9
598.502	56.04
598.839	56.14
599.176	56.24
599.512	56.3
599.849	56.37
600.186	56.46
600.523	56.63
600.859	56.79
601.196	56.95
601.532	56.9
601.869	57
602.205	57.1
602.542	57.23
602.878	57.21
603.215	57.34
603.551	57.29
603.887	57.28
604.223	57.3
604.56	57.38
604.896	57.47
605.232	57.59
605.568	57.65
605.904	57.75
606.24	57.82
606.576	57.92
606.912	58.03
607.248	58.07
607.583	58.12
607.919	58.21
608.255	58.26
608.591	58.44
608.926	58.45
609.262	58.47
609.597	58.59
609.933	58.69
610.268	58.74
610.604	58.83
610.939	58.85
611.275	58.95
611.61	58.96
611.945	58.96
612.281	59.03
612.616	59.02
612.951	58.97
613.286	59.01
613.621	58.94
613.956	58.97
614.291	59.1
614.626	59.17
614.961	59.23
615.296	59.3
615.631	59.3
615.966	59.31
616.3	59.5
616.635	59.41
616.97	59.44
617.304	59.47
617.639	59.72
617.973	59.91
618.308	59.97
618.642	60.13
618.977	60.28
619.311	60.26
619.646	60.35
619.98	60.38
620.314	60.47
620.648	60.62
620.983	60.62
621.317	60.65
621.651	60.57
621.985	60.53
622.319	60.54
622.653	60.62
622.987	60.77
623.321	60.78
623.655	60.9
623.988	60.88
624.322	60.91
624.656	60.75
624.99	60.8
625.323	60.77
625.657	60.75
625.99	60.82
626.324	60.88
626.657	60.96
626.991	60.98
627.324	60.98
627.658	61
627.991	61.08
628.324	61.01
628.657	61.12
628.991	61.17
629.324	61.15
629.657	61.1
629.99	61.12
630.323	61.09
630.656	61.22
630.989	61.29
631.322	61.4
631.655	61.52
631.987	61.53
632.32	61.57
632.653	61.62
632.986	61.61
633.318	61.7
633.651	61.61
633.984	61.67
634.316	61.58
634.649	61.65
634.981	61.71
635.313	61.86
635.646	61.87
635.978	61.8
636.31	61.88
636.643	61.98
636.975	61.9
637.307	61.89
637.639	61.72
637.971	61.76
638.303	61.77
638.635	61.79
638.967	61.83
639.299	61.72
639.631	61.79
639.963	61.82
640.295	61.76
640.626	61.86
640.958	61.94
641.29	62.22
641.621	62.24
641.953	62.23
642.285	62.2
642.616	62.27
642.948	62.4
643.279	62.4
643.61	62.41
643.942	62.49
644.273	62.65
644.604	62.66
644.936	62.79
645.267	62.56
645.598	62.62
645.929	62.64
646.26	62.8
646.591	62.78
646.922	62.81
647.253	62.84
647.584	62.74
647.915	62.66
648.245	62.55
648.576	62.44
648.907	62.35
649.238	62.36
649.568	62.38
649.899	62.37
650.229	62.32
650.56	62.32
650.89	62.44
651.221	62.29
651.551	62.43
651.882	62.34
652.212	62.56
652.542	62.47
652.872	62.4
653.203	62.54
653.533	62.66
653.863	62.75
654.193	62.81
654.523	62.9
654.853	63.02
655.183	63.04
655.513	63.03
655.843	63.17
656.172	63.31
656.502	63.37
656.832	63.44
657.162	63.54
657.491	63.68
657.821	63.61
658.15	63.85
658.48	63.91
658.809	64.02
659.139	64.03
659.468	64.01
659.798	64.08
660.127	64.02
660.456	63.93
660.785	63.88
661.115	63.92
661.444	64.03
661.773	64.03
662.102	64.08
662.431	64.16
662.76	64.15
663.089	64.13
663.418	64.01
663.747	64.09
664.076	64.26
664.404	64.17
664.733	64.24
665.062	64.13
665.39	63.99
665.719	63.93
666.048	63.87
666.376	64.07
666.705	64.18
667.033	64.21
667.362	64.34
667.69	64.39
668.018	64.55
668.347	64.51
668.675	64.57
669.003	64.65
