Data from BA53509_Reflection_00001.txt Node
Date: Tue Nov 19 11:46:15 EST 2019
User: vgr7
Spectrometer: USB2G7710
Scans to average: 3
Trigger mode: 4
Integration Time (sec): 2.000000E-2
Electric dark correction enabled: true
Boxcar width: 10
XAxis mode: Wavelengths
Number of Pixels in Spectrum: 2048
>>>>>Begin Spectral Data<<<<<
177.721	129.59
178.105	725
178.488	290.84
178.871	642.86
179.254	660
179.636	106.1
180.019	-125.81
180.402	125
180.785	-17.65
181.168	175.47
181.55	57.45
181.933	132.68
182.316	105.85
182.698	105.99
183.081	303.39
183.463	417.07
183.846	-312.7
184.228	-410.64
184.611	736.36
184.993	21.74
185.376	-36.65
185.758	8.26
186.14	17.65
186.522	-8.28
186.904	33.33
187.287	24.53
187.669	-23.81
188.051	-74.86
188.433	-115.69
188.815	-135.29
189.197	-55.76
189.579	-50.94
189.961	-52.12
190.342	-32.64
190.724	-36.8
191.106	-49.25
191.488	-45.23
191.869	-35.55
192.251	-43.78
192.633	-34.91
193.014	-25.51
193.396	-33.14
193.777	-20.89
194.159	-29.74
194.54	-11.11
194.922	-3.06
195.303	-10.18
195.684	-16.93
196.065	-2.63
196.447	-0.94
196.828	12.03
197.209	13.96
197.59	23.28
197.971	37.41
198.352	21.57
198.733	35.4
199.114	31.66
199.495	10.39
199.876	-14.23
200.257	-24.29
200.638	-10.02
201.018	-16.15
201.399	5.66
201.78	-16.15
202.16	-29.41
202.541	-102.8
202.922	-124.22
203.302	-84.74
203.683	-85.45
204.063	-208.57
204.444	-82.07
204.824	-84
205.204	-83.37
205.585	-112.77
205.965	-107.04
206.345	-80.36
206.725	-68.76
207.106	-66.35
207.486	-66.97
207.866	-47
208.246	-24.33
208.626	-47.79
209.006	-68.19
209.386	-74.15
209.766	-59.29
210.145	-36.16
210.525	-28.14
210.905	-23.3
211.285	-18.37
211.664	-29.66
212.044	-16.69
212.424	-21.99
212.803	-30.73
213.183	-38.05
213.562	-7.56
213.942	-3.57
214.321	0.17
214.701	-12.47
215.08	-5.07
215.459	15.19
215.838	-15.32
216.218	-22.41
216.597	-10.58
216.976	-3.57
217.355	-7.79
217.734	-28.87
218.113	-16.7
218.492	-25.26
218.871	-13.13
219.25	-12.7
219.629	0.56
220.008	-19.71
220.387	-22.12
220.766	-7.21
221.144	-6.14
221.523	-19.23
221.902	-11.26
222.28	-4.35
222.659	6.28
223.037	1.36
223.416	4.48
223.794	7.46
224.173	-3.12
224.551	-1.54
224.929	-7.51
225.308	-3.21
225.686	-1.72
226.064	-14.8
226.442	-9.21
226.821	-11.25
227.199	-11.49
227.577	-12.18
227.955	-10.2
228.333	-12.72
228.711	-16.86
229.089	-17.95
229.467	-16.67
229.845	-18.46
230.222	-20.67
230.6	-21.05
230.978	-16.89
231.356	-18.97
231.733	-16.61
232.111	-11.87
232.488	-12.4
232.866	-9.95
233.243	-10.5
233.621	-9.61
233.998	-7.68
234.376	-7.25
234.753	-5.45
235.13	-5.33
235.508	-5.26
235.885	-3.5
236.262	-3.1
236.639	-1.87
237.016	-0.16
237.393	-0.52
237.77	0.22
238.147	1.32
238.524	2.19
238.901	0.51
239.278	1.29
239.655	0.89
240.032	0.64
240.409	1.29
240.785	1.5
241.162	1.87
241.539	2.68
241.915	2.48
242.292	2.39
242.668	1.96
243.045	2.24
243.421	3.06
243.798	3.64
244.174	4.25
244.551	4.48
244.927	4.72
245.303	4.65
245.679	5.07
246.056	5.13
246.432	5.4
246.808	5.78
247.184	5.98
247.56	5.8
247.936	5.93
248.312	5.81
248.688	5.85
249.064	5.94
249.44	5.69
249.815	5.97
250.191	6.06
250.567	6.31
250.943	6.46
251.318	6.34
251.694	6
252.069	5.72
252.445	5.75
252.82	6.02
253.196	6.63
253.571	6.52
253.947	6.27
254.322	5.98
254.697	6.22
255.073	5.96
255.448	6.05
255.823	5.9
256.198	5.94
256.573	5.92
256.948	6.04
257.323	6.14
257.698	6.03
258.073	6
258.448	5.9
258.823	5.58
259.198	5.64
259.573	5.51
259.948	5.62
260.322	5.59
260.697	5.49
261.072	5.17
261.446	5.17
261.821	5.38
262.195	5.22
262.57	5.1
262.944	4.98
263.319	5.07
263.693	5.13
264.067	5.19
264.442	5.1
264.816	5
265.19	4.93
265.564	4.63
265.938	4.62
266.313	4.54
266.687	4.61
267.061	4.48
267.435	4.65
267.809	4.54
268.183	4.73
268.556	4.56
268.93	4.79
269.304	4.59
269.678	4.39
270.051	4.69
270.425	4.51
270.799	4.42
271.172	4.44
271.546	4.66
271.919	4.55
272.293	4.7
272.666	4.59
273.04	4.64
273.413	4.81
273.787	4.83
274.16	4.76
274.533	4.75
274.906	4.75
275.279	4.71
275.653	4.85
276.026	4.83
276.399	4.85
276.772	4.8
277.145	4.95
277.518	4.98
277.891	4.84
278.263	5.04
278.636	5.42
279.009	5.48
279.382	5.24
279.755	5.46
280.127	5.28
280.5	5.35
280.872	5.33
281.245	5.38
281.617	5.37
281.99	5.64
282.362	5.76
282.735	5.82
283.107	5.98
283.479	5.88
283.852	5.8
284.224	5.87
284.596	5.85
284.968	5.76
285.34	5.86
285.713	5.97
286.085	5.96
286.457	5.89
286.829	5.97
287.201	5.96
287.572	5.91
287.944	6.07
288.316	6.06
288.688	6.16
289.06	6.15
289.431	6.29
289.803	6.25
290.175	6.29
290.546	6.16
290.918	6.04
291.289	6.08
291.661	6.11
292.032	5.95
292.403	5.91
292.775	6.09
293.146	6.13
293.517	6.17
293.889	6.07
294.26	6.07
294.631	6.07
295.002	6.09
295.373	5.99
295.744	5.96
296.115	5.92
296.486	5.83
296.857	6.06
297.228	5.8
297.599	5.75
297.97	5.74
298.34	5.85
298.711	5.95
299.082	6.08
299.452	6.13
299.823	6.29
300.194	6.42
300.564	6.27
300.935	6.22
301.305	6.09
301.676	5.99
302.046	5.86
302.416	5.8
302.787	5.89
303.157	6.03
303.527	6.12
303.897	6.17
304.267	6.22
304.637	6.11
305.008	6.32
305.378	6.45
305.748	6.24
306.117	6.17
306.487	6.14
306.857	6.13
307.227	6.11
307.597	6.09
307.967	5.97
308.336	6.1
308.706	6.15
309.076	6.32
309.445	6.58
309.815	6.69
310.184	6.65
310.554	6.62
310.923	6.48
311.293	6.49
311.662	6.6
312.031	6.55
312.401	6.46
312.77	6.39
313.139	6.26
313.508	6.37
313.877	6.43
314.246	6.23
314.616	6.21
314.985	6.28
315.353	6.25
315.722	6.43
316.091	6.35
316.46	6.19
316.829	5.89
317.198	5.87
317.567	6.04
317.935	6.26
318.304	6.27
318.672	6.52
319.041	6.46
319.41	6.35
319.778	6.37
320.147	6.36
320.515	6.41
320.883	6.35
321.252	6.52
321.62	6.59
321.988	6.86
322.357	6.8
322.725	6.72
323.093	6.61
323.461	6.55
323.829	6.61
324.197	6.73
324.565	7
324.933	6.9
325.301	6.65
325.669	6.52
326.037	6.66
326.405	6.51
326.772	6.54
327.14	6.48
327.508	6.55
327.875	6.63
328.243	6.74
328.61	6.75
328.978	6.67
329.346	6.59
329.713	6.66
330.08	6.74
330.448	6.89
330.815	7.01
331.182	7.04
331.55	7.03
331.917	6.91
332.284	6.73
332.651	6.87
333.018	6.94
333.385	6.88
333.752	6.78
334.119	6.78
334.486	6.7
334.853	6.79
335.22	6.72
335.587	6.6
335.954	6.47
336.32	6.43
336.687	6.48
337.054	6.52
337.42	6.33
337.787	6.38
338.153	6.34
338.52	6.32
338.886	6.39
339.253	6.38
339.619	6.47
339.986	6.47
340.352	6.48
340.718	6.56
341.084	6.55
341.451	6.58
341.817	6.67
342.183	6.65
342.549	6.7
342.915	6.81
343.281	6.81
343.647	6.86
344.013	6.89
344.379	6.83
344.745	6.88
345.11	6.96
345.476	6.85
345.842	6.76
346.208	6.81
346.573	6.69
346.939	6.66
347.304	6.74
347.67	6.8
348.035	6.68
348.401	6.62
348.766	6.66
349.132	6.62
349.497	6.69
349.862	6.78
350.228	6.69
350.593	6.6
350.958	6.75
351.323	6.73
351.688	6.78
352.053	6.83
352.418	6.82
352.783	6.91
353.148	6.89
353.513	6.93
353.878	6.93
354.243	6.88
354.608	6.96
354.972	6.85
355.337	6.87
355.702	6.94
356.066	6.9
356.431	6.91
356.795	6.94
357.16	6.93
357.524	6.91
357.889	6.96
358.253	6.94
358.618	6.91
358.982	6.89
359.346	6.94
359.71	6.93
360.075	6.93
360.439	6.85
360.803	6.93
361.167	6.86
361.531	6.82
361.895	6.82
362.259	6.84
362.623	6.91
362.987	6.88
363.351	6.86
363.714	6.85
364.078	6.82
364.442	6.73
364.806	6.7
365.169	6.7
365.533	6.67
365.896	6.75
366.26	6.65
366.623	6.74
366.987	6.75
367.35	6.79
367.714	6.8
368.077	6.89
368.44	6.8
368.803	6.8
369.167	6.74
369.53	6.8
369.893	6.8
370.256	6.72
370.619	6.72
370.982	6.66
371.345	6.71
371.708	6.71
372.071	6.72
372.434	6.74
372.797	6.76
373.159	6.77
373.522	6.77
373.885	6.87
374.247	6.82
374.61	6.77
374.973	6.8
375.335	6.76
375.698	6.74
376.06	6.79
376.423	6.87
376.785	6.96
377.147	6.88
377.51	6.81
377.872	6.88
378.234	6.95
378.596	7.01
378.958	6.99
379.321	7
379.683	7.05
380.045	7.03
380.407	7.04
380.769	7.02
381.13	6.96
381.492	6.93
381.854	6.91
382.216	6.94
382.578	6.92
382.939	6.95
383.301	6.97
383.663	6.98
384.024	6.95
384.386	7.01
384.747	7.05
385.109	7.08
385.47	7.1
385.832	7.03
386.193	7.01
386.554	6.97
386.916	6.99
387.277	6.98
387.638	7.02
387.999	6.99
388.36	7.01
388.721	7.01
389.082	7.03
389.443	7.04
389.804	7.04
390.165	7
390.526	7
390.887	7
391.248	6.96
391.609	7
391.969	6.91
392.33	6.95
392.691	6.96
393.051	6.92
393.412	6.96
393.772	6.99
394.133	6.99
394.493	6.98
394.854	7.02
395.214	6.98
395.574	6.95
395.935	6.94
396.295	6.96
396.655	6.94
397.015	6.97
397.376	6.96
397.736	6.98
398.096	6.95
398.456	6.92
398.816	6.92
399.176	6.88
399.535	6.9
399.895	6.83
400.255	6.83
400.615	6.88
400.975	6.85
401.334	6.85
401.694	6.85
402.054	6.86
402.413	6.79
402.773	6.79
403.132	6.83
403.492	6.81
403.851	6.8
404.211	6.81
404.57	6.79
404.929	6.8
405.288	6.77
405.648	6.8
406.007	6.81
406.366	6.79
406.725	6.82
407.084	6.83
407.443	6.87
407.802	6.85
408.161	6.81
408.52	6.82
408.879	6.82
409.238	6.85
409.596	6.82
409.955	6.86
410.314	6.88
410.673	6.87
411.031	6.86
411.39	6.91
411.748	6.92
412.107	6.92
412.465	6.92
412.824	6.91
413.182	6.92
413.54	6.91
413.899	6.93
414.257	6.89
414.615	6.88
414.974	6.89
415.332	6.88
415.69	6.88
416.048	6.91
416.406	6.9
416.764	6.9
417.122	6.9
417.48	6.91
417.838	6.91
418.195	6.92
418.553	6.94
418.911	6.92
419.269	6.91
419.626	6.9
419.984	6.89
420.342	6.89
420.699	6.88
421.057	6.89
421.414	6.9
421.772	6.9
422.129	6.9
422.486	6.93
422.844	6.94
423.201	6.96
423.558	6.95
423.915	6.95
424.273	6.94
424.63	6.96
424.987	6.96
425.344	6.96
425.701	6.96
426.058	6.95
426.415	6.94
426.772	6.94
427.128	6.95
427.485	6.96
427.842	6.98
428.199	6.98
428.555	6.98
428.912	6.98
429.269	7
429.625	7
429.982	6.98
430.338	6.96
430.695	6.95
431.051	6.98
431.407	6.98
431.764	7
432.12	6.98
432.476	6.96
432.832	6.99
433.189	6.98
433.545	6.99
433.901	7
434.257	7.01
434.613	7
434.969	7
435.325	6.99
435.681	6.98
436.036	7
436.392	6.99
436.748	6.99
437.104	7
437.459	7.02
437.815	7.04
438.171	7.04
438.526	7.03
438.882	7.03
439.237	7.03
439.593	7.02
439.948	7.02
440.304	7.01
440.659	7.02
441.014	7.01
441.369	7.02
441.725	7.02
442.08	7
442.435	7.01
442.79	6.99
443.145	7
443.5	6.98
443.855	6.99
444.21	7
444.565	7
444.92	6.99
445.275	6.99
445.629	6.97
445.984	6.96
446.339	6.97
446.693	6.97
447.048	6.97
447.403	6.99
447.757	6.99
448.112	6.98
448.466	7.01
448.82	7.01
449.175	7
449.529	7.02
449.883	7.03
450.238	7.06
450.592	7.09
450.946	7.11
451.3	7.12
451.654	7.1
452.008	7.1
452.362	7.1
452.716	7.09
453.07	7.14
453.424	7.12
453.778	7.12
454.132	7.1
454.486	7.14
454.839	7.15
455.193	7.14
455.547	7.18
455.9	7.16
456.254	7.17
456.607	7.19
456.961	7.19
457.314	7.2
457.668	7.19
458.021	7.19
458.375	7.17
458.728	7.17
459.081	7.18
459.434	7.19
459.787	7.17
460.141	7.19
460.494	7.18
460.847	7.19
461.2	7.19
461.553	7.21
461.906	7.19
462.259	7.19
462.611	7.21
462.964	7.18
463.317	7.17
463.67	7.19
464.022	7.16
464.375	7.17
464.728	7.14
465.08	7.16
465.433	7.16
465.785	7.17
466.138	7.16
466.49	7.16
466.843	7.16
467.195	7.18
467.547	7.17
467.899	7.16
468.252	7.16
468.604	7.19
468.956	7.21
469.308	7.21
469.66	7.2
470.012	7.18
470.364	7.21
470.716	7.25
471.068	7.24
471.42	7.29
471.772	7.3
472.123	7.3
472.475	7.3
472.827	7.32
473.178	7.31
473.53	7.32
473.882	7.31
474.233	7.3
474.585	7.31
474.936	7.32
475.288	7.32
475.639	7.32
475.99	7.31
476.342	7.3
476.693	7.29
477.044	7.31
477.395	7.34
477.746	7.31
478.097	7.3
478.448	7.28
478.8	7.25
479.15	7.27
479.501	7.27
479.852	7.27
480.203	7.28
480.554	7.31
480.905	7.32
481.255	7.33
481.606	7.36
481.957	7.37
482.307	7.38
482.658	7.39
483.009	7.41
483.359	7.42
483.709	7.43
484.06	7.45
484.41	7.44
484.761	7.45
485.111	7.45
485.461	7.46
485.811	7.47
486.162	7.47
486.512	7.47
486.862	7.49
487.212	7.49
487.562	7.49
487.912	7.47
488.262	7.48
488.612	7.48
488.961	7.47
489.311	7.46
489.661	7.45
490.011	7.44
490.36	7.44
490.71	7.42
491.06	7.42
491.409	7.41
491.759	7.43
492.108	7.41
492.458	7.41
492.807	7.41
493.157	7.41
493.506	7.42
493.855	7.41
494.204	7.39
494.554	7.39
494.903	7.39
495.252	7.41
495.601	7.4
495.95	7.41
496.299	7.4
496.648	7.44
496.997	7.43
497.346	7.45
497.695	7.46
498.043	7.47
498.392	7.46
498.741	7.47
499.09	7.44
499.438	7.47
499.787	7.48
500.135	7.45
500.484	7.45
500.832	7.46
501.181	7.5
501.529	7.51
501.878	7.53
502.226	7.52
502.574	7.54
502.923	7.57
503.271	7.55
503.619	7.58
503.967	7.52
504.315	7.53
504.663	7.54
505.011	7.53
505.359	7.5
505.707	7.51
506.055	7.49
506.403	7.49
506.751	7.5
507.098	7.52
507.446	7.56
507.794	7.56
508.141	7.55
508.489	7.53
508.837	7.51
509.184	7.51
509.531	7.52
509.879	7.5
510.226	7.5
510.574	7.52
510.921	7.52
511.268	7.57
511.616	7.57
511.963	7.58
512.31	7.58
512.657	7.62
513.004	7.61
513.351	7.63
513.698	7.65
514.045	7.62
514.392	7.61
514.739	7.63
515.086	7.63
515.432	7.64
515.779	7.66
516.126	7.71
516.473	7.72
516.819	7.75
517.166	7.77
517.512	7.76
517.859	7.78
518.205	7.76
518.552	7.79
518.898	7.81
519.245	7.83
519.591	7.83
519.937	7.83
520.283	7.82
520.629	7.82
520.976	7.81
521.322	7.83
521.668	7.84
522.014	7.82
522.36	7.83
522.706	7.82
523.052	7.81
523.398	7.81
523.743	7.82
524.089	7.8
524.435	7.81
524.781	7.81
525.126	7.8
525.472	7.82
525.817	7.8
526.163	7.79
526.509	7.77
526.854	7.76
527.199	7.77
527.545	7.8
527.89	7.81
528.235	7.82
528.581	7.83
528.926	7.84
529.271	7.86
529.616	7.87
529.961	7.88
530.306	7.88
530.651	7.87
530.996	7.86
531.341	7.87
531.686	7.87
532.031	7.88
532.376	7.89
532.721	7.9
533.065	7.91
533.41	7.92
533.755	7.93
534.099	7.96
534.444	7.95
534.788	7.93
535.133	7.94
535.477	7.96
535.822	7.95
536.166	7.93
536.51	7.92
536.855	7.93
537.199	7.92
537.543	7.95
537.887	7.97
538.231	7.99
538.576	7.98
538.92	8
539.264	7.99
539.608	8
539.951	7.98
540.295	7.99
540.639	7.99
540.983	7.99
541.327	8.02
541.671	8.02
542.014	8.04
542.358	8.03
542.701	8.03
543.045	8.03
543.389	8.05
543.732	8.06
544.075	8.05
544.419	8.06
544.762	8.06
545.105	8.06
545.449	8.08
545.792	8.1
546.135	8.09
546.478	8.09
546.821	8.11
547.165	8.14
547.508	8.1
547.851	8.12
548.194	8.12
548.536	8.07
548.879	8.08
549.222	8.07
549.565	8.09
549.908	8.12
550.25	8.13
550.593	8.12
550.936	8.14
551.278	8.14
551.621	8.12
551.963	8.15
552.306	8.13
552.648	8.1
552.991	8.09
553.333	8.1
553.675	8.14
554.017	8.14
554.36	8.13
554.702	8.14
555.044	8.13
555.386	8.13
555.728	8.2
556.07	8.19
556.412	8.22
556.754	8.21
557.096	8.19
557.438	8.2
557.78	8.2
558.121	8.17
558.463	8.18
558.805	8.19
559.147	8.2
559.488	8.22
559.83	8.23
560.171	8.22
560.513	8.22
560.854	8.19
561.196	8.18
561.537	8.16
561.878	8.19
562.22	8.21
562.561	8.22
562.902	8.18
563.243	8.17
563.584	8.14
563.925	8.12
564.266	8.11
564.607	8.08
564.948	8.12
565.289	8.12
565.63	8.14
565.971	8.15
566.312	8.14
566.653	8.14
566.993	8.15
567.334	8.16
567.675	8.16
568.015	8.17
568.356	8.16
568.696	8.19
569.037	8.16
569.377	8.16
569.718	8.17
570.058	8.17
570.398	8.22
570.739	8.22
571.079	8.22
571.419	8.25
571.759	8.25
572.099	8.24
572.439	8.24
572.779	8.28
573.119	8.3
573.459	8.28
573.799	8.26
574.139	8.27
574.479	8.29
574.819	8.28
575.158	8.27
575.498	8.26
575.838	8.24
576.177	8.25
576.517	8.27
576.856	8.28
577.196	8.26
577.535	8.24
577.875	8.23
578.214	8.27
578.553	8.29
578.893	8.36
579.232	8.35
579.571	8.36
579.91	8.33
580.25	8.3
580.589	8.32
580.928	8.35
581.267	8.3
581.606	8.28
581.945	8.32
582.283	8.36
582.622	8.36
582.961	8.4
583.3	8.39
583.639	8.36
583.977	8.37
584.316	8.42
584.654	8.43
584.993	8.44
585.332	8.46
585.67	8.48
586.008	8.44
586.347	8.45
586.685	8.44
587.024	8.42
587.362	8.43
587.7	8.45
588.038	8.46
588.376	8.53
588.715	8.53
589.053	8.51
589.391	8.51
589.729	8.53
590.067	8.56
590.404	8.64
590.742	8.65
591.08	8.67
591.418	8.65
591.756	8.65
592.093	8.69
592.431	8.63
592.769	8.65
593.106	8.65
593.444	8.63
593.781	8.67
594.119	8.65
594.456	8.66
594.793	8.63
595.131	8.64
595.468	8.64
595.805	8.66
596.143	8.68
596.48	8.69
596.817	8.7
597.154	8.68
597.491	8.61
597.828	8.62
598.165	8.57
598.502	8.57
598.839	8.59
599.176	8.61
599.512	8.66
599.849	8.62
600.186	8.64
600.523	8.63
600.859	8.64
601.196	8.69
601.532	8.7
601.869	8.71
602.205	8.69
602.542	8.69
602.878	8.71
603.215	8.73
603.551	8.7
603.887	8.74
604.223	8.77
604.56	8.77
604.896	8.79
605.232	8.82
605.568	8.84
605.904	8.82
606.24	8.8
606.576	8.83
606.912	8.82
607.248	8.82
607.583	8.86
607.919	8.89
608.255	8.87
608.591	8.88
608.926	8.92
609.262	8.97
609.597	8.97
609.933	8.93
610.268	8.92
610.604	8.95
610.939	8.93
611.275	8.85
611.61	8.87
611.945	8.89
612.281	8.96
612.616	8.98
612.951	8.96
613.286	8.95
613.621	8.92
613.956	8.96
614.291	8.96
614.626	8.93
614.961	8.94
615.296	8.95
615.631	8.96
615.966	8.91
616.3	8.9
616.635	8.92
616.97	8.93
617.304	8.88
617.639	8.88
617.973	8.91
618.308	9.01
618.642	9.03
618.977	9.02
619.311	8.99
619.646	8.99
619.98	9
620.314	9
620.648	9.02
620.983	8.99
621.317	8.98
621.651	9.01
621.985	8.91
622.319	8.96
622.653	9.02
622.987	9.05
623.321	9.04
623.655	9.01
623.988	9.04
624.322	9.08
624.656	9.09
624.99	9.04
625.323	9
625.657	9.06
625.99	9.03
626.324	9.01
626.657	8.99
626.991	9.04
627.324	9.05
627.658	9.03
627.991	9.05
628.324	9.03
628.657	9.06
628.991	9.16
629.324	9.12
629.657	9.06
629.99	9.07
630.323	9.09
630.656	9.12
630.989	9.12
631.322	9.12
631.655	9.13
631.987	9.1
632.32	9.11
632.653	9.06
632.986	9.08
633.318	9.09
633.651	9.12
633.984	9.09
634.316	9.13
634.649	9.15
634.981	9.15
635.313	9.21
635.646	9.21
635.978	9.16
636.31	9.16
636.643	9.16
636.975	9.17
637.307	9.2
637.639	9.24
637.971	9.19
638.303	9.16
638.635	9.15
638.967	9.19
639.299	9.19
639.631	9.2
639.963	9.24
640.295	9.25
640.626	9.27
640.958	9.24
641.29	9.22
641.621	9.13
641.953	9.08
642.285	9.09
642.616	9.05
642.948	9.1
643.279	9.09
643.61	9.04
643.942	9.08
644.273	9.05
644.604	8.98
644.936	9.1
645.267	9.15
645.598	9.15
645.929	9.18
646.26	9.12
646.591	9.14
646.922	9.14
647.253	9.1
647.584	9.1
647.915	9.2
648.245	9.13
648.576	9.19
648.907	9.22
649.238	9.22
649.568	9.18
649.899	9.1
650.229	9.15
650.56	9.25
650.89	9.22
651.221	9.27
651.551	9.35
651.882	9.28
652.212	9.21
652.542	9.27
652.872	9.24
653.203	9.29
653.533	9.26
653.863	9.27
654.193	9.21
654.523	9.23
654.853	9.21
655.183	9.25
655.513	9.31
655.843	9.33
656.172	9.34
656.502	9.39
656.832	9.52
657.162	9.48
657.491	9.47
657.821	9.5
658.15	9.47
658.48	9.46
658.809	9.55
659.139	9.6
659.468	9.57
659.798	9.57
660.127	9.51
660.456	9.53
660.785	9.49
661.115	9.6
661.444	9.57
661.773	9.63
662.102	9.63
662.431	9.61
662.76	9.58
663.089	9.69
663.418	9.72
663.747	9.62
664.076	9.63
664.404	9.6
664.733	9.66
665.062	9.7
665.39	9.68
665.719	9.59
666.048	9.65
666.376	9.64
666.705	9.64
667.033	9.8
667.362	9.82
667.69	9.86
668.018	9.76
668.347	9.82
668.675	9.79
669.003	9.92
669.331	9.88
669.659	9.93
669.987	9.78
670.315	9.76
670.643	9.76
670.971	9.85
671.299	9.88
671.627	9.83
671.955	9.77
672.283	9.78
672.61	9.77
672.938	9.83
673.266	9.91
673.593	9.89
673.921	9.82
674.249	9.79
674.576	9.84
674.904	9.93
675.231	9.92
675.558	9.96
675.886	9.93
676.213	10.06
676.54	10.09
676.867	10.08
677.195	10.11
677.522	10.21
677.849	10.17
678.176	10.19
678.503	10.17
