Data from BA53509_Reflection_00015.txt Node
Date: Tue Nov 19 11:46:51 EST 2019
User: vgr7
Spectrometer: USB2G7710
Scans to average: 3
Trigger mode: 4
Integration Time (sec): 2.000000E-2
Electric dark correction enabled: true
Boxcar width: 10
XAxis mode: Wavelengths
Number of Pixels in Spectrum: 2048
>>>>>Begin Spectral Data<<<<<
177.721	-328.99
178.105	-2275
178.488	-331.3
178.871	-400
179.254	-520
179.636	-162.2
180.019	-12.9
180.402	191.67
180.785	376.47
181.168	-258.49
181.55	-31.21
181.933	-14.38
182.316	-8.19
182.698	1.2
183.081	6.78
183.463	-156.1
183.846	60.32
184.228	-144.68
184.611	690.91
184.993	-182.61
185.376	-176.4
185.758	-244.04
186.14	-247.06
186.522	-62.42
186.904	-222.22
187.287	-305.66
187.669	-85.71
188.051	-33.88
188.433	-66.67
188.815	-95.19
189.197	-69.78
189.579	-54.99
189.961	-48.38
190.342	-30.02
190.724	-27.91
191.106	-24.15
191.488	-18.26
191.869	-15.49
192.251	-0.97
192.633	6.12
193.014	23.75
193.396	32.71
193.777	36.27
194.159	19.83
194.54	8.24
194.922	12.23
195.303	11.98
195.684	4.38
196.065	8.01
196.447	15.88
196.828	6.21
197.209	20.31
197.59	23.96
197.971	11.33
198.352	24.24
198.733	13.44
199.114	5.47
199.495	9.37
199.876	-11.22
200.257	-21.47
200.638	-35.7
201.018	-48.73
201.399	-38.81
201.78	-71.39
202.16	-54.9
202.541	-141.26
202.922	-104.04
203.302	-118.88
203.683	-116.36
204.063	-165.71
204.444	-80.67
204.824	-45.33
205.204	-45.48
205.585	-45.39
205.965	-21.12
206.345	-33.27
206.725	-12.21
207.106	-8.03
207.486	-5.5
207.866	22.36
208.246	26.29
208.626	24.18
209.006	11.33
209.386	-17.59
209.766	1.77
210.145	-0.61
210.525	21.56
210.905	29.1
211.285	41.43
211.664	75.86
212.044	68.11
212.424	76.73
212.803	66.89
213.183	61.95
213.562	67.23
213.942	68.59
214.321	76.76
214.701	82.62
215.08	78.42
215.459	87.18
215.838	37.18
216.218	48.21
216.597	43.92
216.976	48.22
217.355	59.37
217.734	50.24
218.113	63.2
218.492	45.59
218.871	58.59
219.25	50.81
219.629	5.25
220.008	16.21
220.387	17.7
220.766	28.82
221.144	29.52
221.523	21.76
221.902	7.06
222.28	13.66
222.659	16.07
223.037	10.28
223.416	-4.98
223.794	13.93
224.173	6.81
224.551	10.7
224.929	13.35
225.308	11.97
225.686	6.07
226.064	-1.44
226.442	1.9
226.821	-6.69
227.199	-10.07
227.577	-4.85
227.955	-5.44
228.333	-5.47
228.711	-7.58
229.089	-8.06
229.467	-5.69
229.845	-3.34
230.222	-3.7
230.6	-4.62
230.978	-5.14
231.356	-1.74
231.733	-1.52
232.111	-1.09
232.488	-0.95
232.866	0.35
233.243	1.05
233.621	3.06
233.998	2.67
234.376	0.57
234.753	2.78
235.13	3.76
235.508	4.64
235.885	5.4
236.262	6.23
236.639	6.92
237.016	7.17
237.393	6.01
237.77	7.18
238.147	6.36
238.524	7.17
238.901	6.89
239.278	5.96
239.655	5.61
240.032	5.75
240.409	5.8
240.785	5.68
241.162	5.44
241.539	5.64
241.915	5.65
242.292	6.33
242.668	6.3
243.045	6.97
243.421	7.19
243.798	7.22
244.174	6.96
244.551	6.88
244.927	6.93
245.303	6.78
245.679	6.67
246.056	7.09
246.432	7.1
246.808	7.47
247.184	7.68
247.56	7.9
247.936	7.86
248.312	8.1
248.688	7.98
249.064	8.08
249.44	7.86
249.815	7.97
250.191	7.94
250.567	7.99
250.943	7.82
251.318	7.84
251.694	7.85
252.069	7.92
252.445	7.82
252.82	8.21
253.196	8.62
253.571	8.66
253.947	8.41
254.322	8.17
254.697	8.06
255.073	7.93
255.448	7.89
255.823	8.22
256.198	7.81
256.573	7.87
256.948	7.82
257.323	8.03
257.698	8.06
258.073	7.81
258.448	7.89
258.823	7.71
259.198	7.58
259.573	7.65
259.948	7.68
260.322	7.63
260.697	7.48
261.072	7.5
261.446	7.5
261.821	7.51
262.195	7.44
262.57	7.42
262.944	7.4
263.319	7.26
263.693	6.99
264.067	7.05
264.442	7.09
264.816	7.07
265.19	7.04
265.564	6.99
265.938	6.98
266.313	7.04
266.687	6.99
267.061	6.96
267.435	6.87
267.809	6.72
268.183	6.91
268.556	6.79
268.93	6.77
269.304	6.46
269.678	6.64
270.051	6.88
270.425	6.7
270.799	6.44
271.172	6.46
271.546	6.56
271.919	6.37
272.293	6.5
272.666	6.29
273.04	6.12
273.413	5.93
273.787	5.96
274.16	5.61
274.533	5.6
274.906	5.64
275.279	5.55
275.653	5.73
276.026	5.62
276.399	5.49
276.772	5.34
277.145	5.41
277.518	5.08
277.891	4.74
278.263	4.81
278.636	5.23
279.009	5.16
279.382	5.08
279.755	5.25
280.127	5.01
280.5	5.26
280.872	5.37
281.245	5.56
281.617	5.86
281.99	5.77
282.362	5.93
282.735	6.02
283.107	6.03
283.479	5.9
283.852	5.84
284.224	6.07
284.596	6.08
284.968	6.4
285.34	6.55
285.713	6.85
286.085	6.84
286.457	6.75
286.829	6.78
287.201	6.88
287.572	7.1
287.944	7.2
288.316	7.32
288.688	7.49
289.06	7.51
289.431	7.51
289.803	7.73
290.175	7.75
290.546	7.72
290.918	7.84
291.289	7.91
291.661	8.06
292.032	8.18
292.403	8.31
292.775	8.21
293.146	8.32
293.517	8.21
293.889	8.29
294.26	8.45
294.631	8.61
295.002	8.6
295.373	8.4
295.744	8.58
296.115	8.48
296.486	8.38
296.857	8.6
297.228	8.54
297.599	8.61
297.97	8.74
298.34	8.85
298.711	8.98
299.082	9.18
299.452	9.32
299.823	9.3
300.194	9.39
300.564	9.42
300.935	9.45
301.305	9.59
301.676	9.78
302.046	9.78
302.416	9.77
302.787	9.94
303.157	10.08
303.527	9.98
303.897	10.07
304.267	10.32
304.637	10.31
305.008	10.4
305.378	10.51
305.748	10.4
306.117	10.4
306.487	10.29
306.857	10.23
307.227	10.32
307.597	10.47
307.967	10.5
308.336	10.51
308.706	10.78
309.076	10.89
309.445	10.87
309.815	11.08
310.184	11.16
310.554	11.21
310.923	11.23
311.293	11.34
311.662	11.48
312.031	11.39
312.401	11.44
312.77	11.52
313.139	11.63
313.508	11.78
313.877	11.91
314.246	11.98
314.616	12.12
314.985	12.1
315.353	12.3
315.722	12.55
316.091	12.83
316.46	12.7
316.829	12.8
317.198	12.95
317.567	13.04
317.935	13.13
318.304	13.21
318.672	13.22
319.041	13.31
319.41	13.43
319.778	13.68
320.147	13.84
320.515	14.01
320.883	13.97
321.252	13.99
321.62	14.03
321.988	14.25
322.357	14.27
322.725	14.41
323.093	14.26
323.461	14.26
323.829	14.15
324.197	14.19
324.565	14.16
324.933	14.16
325.301	13.92
325.669	13.9
326.037	14.09
326.405	14.29
326.772	14.47
327.14	14.4
327.508	14.35
327.875	14.29
328.243	14.24
328.61	14.29
328.978	14.45
329.346	14.52
329.713	14.44
330.08	14.49
330.448	14.53
330.815	14.65
331.182	14.53
331.55	14.58
331.917	14.65
332.284	14.85
332.651	14.9
333.018	15.15
333.385	15.26
333.752	15.16
334.119	15.23
334.486	15.04
334.853	15.04
335.22	15.06
335.587	15.1
335.954	15.1
336.32	15.08
336.687	15.1
337.054	15.09
337.42	15.12
337.787	15.28
338.153	15.32
338.52	15.39
338.886	15.41
339.253	15.53
339.619	15.61
339.986	15.51
340.352	15.57
340.718	15.68
341.084	15.71
341.451	15.65
341.817	15.65
342.183	15.69
342.549	15.89
342.915	15.88
343.281	15.74
343.647	15.87
344.013	15.95
344.379	15.78
344.745	15.82
345.11	15.88
345.476	15.81
345.842	15.84
346.208	15.75
346.573	15.83
346.939	15.85
347.304	15.8
347.67	15.8
348.035	15.85
348.401	15.65
348.766	15.66
349.132	15.74
349.497	15.76
349.862	15.79
350.228	15.74
350.593	15.87
350.958	15.93
351.323	15.84
351.688	15.81
352.053	16
352.418	15.94
352.783	15.87
353.148	15.76
353.513	15.61
353.878	15.6
354.243	15.5
354.608	15.43
354.972	15.39
355.337	15.41
355.702	15.33
356.066	15.35
356.431	15.18
356.795	15.1
357.16	15.02
357.524	15.09
357.889	15.04
358.253	15.01
358.618	15.06
358.982	15.14
359.346	15.15
359.71	15.07
360.075	15.06
360.439	15.13
360.803	15.14
361.167	15.15
361.531	15.1
361.895	15.15
362.259	15.2
362.623	15.19
362.987	15.14
363.351	15.08
363.714	15.03
364.078	15.15
364.442	15.15
364.806	15.15
365.169	15.04
365.533	15.05
365.896	15.01
366.26	14.96
366.623	14.88
366.987	14.79
367.35	14.76
367.714	14.68
368.077	14.59
368.44	14.53
368.803	14.48
369.167	14.41
369.53	14.4
369.893	14.26
370.256	14.24
370.619	14.11
370.982	14.03
371.345	14
371.708	13.87
372.071	13.79
372.434	13.67
372.797	13.68
373.159	13.49
373.522	13.39
373.885	13.33
374.247	13.24
374.61	13.16
374.973	13.09
375.335	13.01
375.698	12.97
376.06	12.89
376.423	12.81
376.785	12.77
377.147	12.6
377.51	12.5
377.872	12.35
378.234	12.35
378.596	12.33
378.958	12.26
379.321	12.23
379.683	12.18
380.045	12.09
380.407	11.91
380.769	11.89
381.13	11.81
381.492	11.72
381.854	11.66
382.216	11.66
382.578	11.67
382.939	11.69
383.301	11.57
383.663	11.51
384.024	11.46
384.386	11.4
384.747	11.39
385.109	11.33
385.47	11.31
385.832	11.29
386.193	11.26
386.554	11.19
386.916	11.15
387.277	11.1
387.638	11.11
387.999	11.08
388.36	11.03
388.721	11.01
389.082	10.94
389.443	10.93
389.804	10.84
390.165	10.72
390.526	10.62
390.887	10.59
391.248	10.53
391.609	10.5
391.969	10.44
392.33	10.38
392.691	10.29
393.051	10.21
393.412	10.13
393.772	10.05
394.133	9.97
394.493	9.9
394.854	9.83
395.214	9.74
395.574	9.67
395.935	9.65
396.295	9.56
396.655	9.5
397.015	9.42
397.376	9.36
397.736	9.3
398.096	9.26
398.456	9.17
398.816	9.1
399.176	8.99
399.535	8.91
399.895	8.8
400.255	8.82
400.615	8.77
400.975	8.71
401.334	8.62
401.694	8.6
402.054	8.53
402.413	8.49
402.773	8.46
403.132	8.4
403.492	8.33
403.851	8.29
404.211	8.27
404.57	8.21
404.929	8.19
405.288	8.16
405.648	8.13
406.007	8.1
406.366	8.12
406.725	8.15
407.084	8.17
407.443	8.21
407.802	8.15
408.161	8.15
408.52	8.12
408.879	8.16
409.238	8.12
409.596	8.11
409.955	8.06
410.314	8.01
410.673	8.02
411.031	8.01
411.39	8
411.748	7.95
412.107	7.91
412.465	7.87
412.824	7.8
413.182	7.72
413.54	7.72
413.899	7.65
414.257	7.59
414.615	7.51
414.974	7.44
415.332	7.45
415.69	7.44
416.048	7.4
416.406	7.33
416.764	7.3
417.122	7.26
417.48	7.27
417.838	7.25
418.195	7.21
418.553	7.18
418.911	7.15
419.269	7.13
419.626	7.11
419.984	7.07
420.342	7.05
420.699	7.04
421.057	7
421.414	6.99
421.772	6.97
422.129	6.96
422.486	6.95
422.844	6.91
423.201	6.87
423.558	6.83
423.915	6.83
424.273	6.81
424.63	6.81
424.987	6.77
425.344	6.76
425.701	6.76
426.058	6.75
426.415	6.72
426.772	6.69
427.128	6.66
427.485	6.66
427.842	6.66
428.199	6.66
428.555	6.63
428.912	6.62
429.269	6.6
429.625	6.59
429.982	6.56
430.338	6.55
430.695	6.54
431.051	6.55
431.407	6.56
431.764	6.55
432.12	6.52
432.476	6.54
432.832	6.54
433.189	6.51
433.545	6.5
433.901	6.49
434.257	6.5
434.613	6.52
434.969	6.53
435.325	6.51
435.681	6.49
436.036	6.5
436.392	6.48
436.748	6.49
437.104	6.48
437.459	6.45
437.815	6.46
438.171	6.45
438.526	6.45
438.882	6.41
439.237	6.37
439.593	6.36
439.948	6.34
440.304	6.32
440.659	6.31
441.014	6.29
441.369	6.29
441.725	6.29
442.08	6.25
442.435	6.24
442.79	6.22
443.145	6.19
443.5	6.19
443.855	6.16
444.21	6.12
444.565	6.13
444.92	6.13
445.275	6.11
445.629	6.07
445.984	6.05
446.339	6.05
446.693	6.06
447.048	6.05
447.403	6.02
447.757	5.99
448.112	5.97
448.466	5.97
448.82	5.95
449.175	5.92
449.529	5.93
449.883	5.89
450.238	5.91
450.592	5.89
450.946	5.87
451.3	5.89
451.654	5.88
452.008	5.86
452.362	5.85
452.716	5.85
453.07	5.84
453.424	5.84
453.778	5.82
454.132	5.82
454.486	5.83
454.839	5.83
455.193	5.86
455.547	5.88
455.9	5.86
456.254	5.89
456.607	5.9
456.961	5.9
457.314	5.93
457.668	5.95
458.021	5.97
458.375	5.98
458.728	5.98
459.081	5.99
459.434	6.01
459.787	6.03
460.141	6.04
460.494	6.08
460.847	6.07
461.2	6.09
461.553	6.08
461.906	6.1
462.259	6.11
462.611	6.11
462.964	6.13
463.317	6.16
463.67	6.15
464.022	6.16
464.375	6.16
464.728	6.16
465.08	6.16
465.433	6.16
465.785	6.18
466.138	6.17
466.49	6.18
466.843	6.18
467.195	6.19
467.547	6.2
467.899	6.18
468.252	6.21
468.604	6.23
468.956	6.28
469.308	6.27
469.66	6.28
470.012	6.29
470.364	6.28
470.716	6.29
471.068	6.32
471.42	6.33
471.772	6.35
472.123	6.34
472.475	6.35
472.827	6.37
473.178	6.36
473.53	6.38
473.882	6.39
474.233	6.38
474.585	6.37
474.936	6.35
475.288	6.37
475.639	6.37
475.99	6.33
476.342	6.31
476.693	6.32
477.044	6.32
477.395	6.33
477.746	6.31
478.097	6.29
478.448	6.29
478.8	6.26
479.15	6.24
479.501	6.25
479.852	6.24
480.203	6.25
480.554	6.24
480.905	6.25
481.255	6.25
481.606	6.24
481.957	6.24
482.307	6.27
482.658	6.27
483.009	6.26
483.359	6.28
483.709	6.28
484.06	6.27
484.41	6.28
484.761	6.29
485.111	6.29
485.461	6.31
485.811	6.31
486.162	6.32
486.512	6.33
486.862	6.35
487.212	6.35
487.562	6.35
487.912	6.36
488.262	6.35
488.612	6.36
488.961	6.38
489.311	6.39
489.661	6.37
490.011	6.38
490.36	6.4
490.71	6.41
491.06	6.42
491.409	6.44
491.759	6.45
492.108	6.46
492.458	6.49
492.807	6.5
493.157	6.53
493.506	6.55
493.855	6.57
494.204	6.59
494.554	6.61
494.903	6.64
495.252	6.69
495.601	6.74
495.95	6.77
496.299	6.82
496.648	6.87
496.997	6.93
497.346	6.99
497.695	7.04
498.043	7.09
498.392	7.14
498.741	7.18
499.09	7.22
499.438	7.28
499.787	7.34
500.135	7.38
500.484	7.45
500.832	7.5
501.181	7.57
501.529	7.63
501.878	7.69
502.226	7.77
502.574	7.83
502.923	7.89
503.271	7.98
503.619	8.06
503.967	8.12
504.315	8.21
504.663	8.25
505.011	8.33
505.359	8.38
505.707	8.48
506.055	8.58
506.403	8.66
506.751	8.74
507.098	8.8
507.446	8.9
507.794	8.98
508.141	9.07
508.489	9.16
508.837	9.25
509.184	9.35
509.531	9.44
509.879	9.55
510.226	9.65
510.574	9.76
510.921	9.83
511.268	9.93
511.616	10.03
511.963	10.14
512.31	10.24
512.657	10.38
513.004	10.45
513.351	10.57
513.698	10.71
514.045	10.81
514.392	10.96
514.739	11.07
515.086	11.19
515.432	11.32
515.779	11.42
516.126	11.56
516.473	11.66
516.819	11.76
517.166	11.86
517.512	11.95
517.859	12.03
518.205	12.12
518.552	12.23
518.898	12.32
519.245	12.42
519.591	12.52
519.937	12.66
520.283	12.78
520.629	12.88
520.976	12.99
521.322	13.14
521.668	13.25
522.014	13.39
522.36	13.55
522.706	13.71
523.052	13.9
523.398	14.05
523.743	14.25
524.089	14.45
524.435	14.62
524.781	14.79
525.126	14.94
525.472	15.09
525.817	15.23
526.163	15.37
526.509	15.49
526.854	15.6
527.199	15.68
527.545	15.8
527.89	15.9
528.235	16.01
528.581	16.12
528.926	16.23
529.271	16.33
529.616	16.43
529.961	16.54
530.306	16.63
530.651	16.73
530.996	16.83
531.341	16.96
531.686	17.09
532.031	17.22
532.376	17.36
532.721	17.51
533.065	17.66
533.41	17.82
533.755	17.99
534.099	18.17
534.444	18.35
534.788	18.54
535.133	18.69
535.477	18.84
535.822	19.02
536.166	19.23
536.51	19.42
536.855	19.63
537.199	19.85
537.543	20.09
537.887	20.33
538.231	20.56
538.576	20.77
538.92	21
539.264	21.2
539.608	21.39
539.951	21.56
540.295	21.77
540.639	21.94
540.983	22.11
541.327	22.31
541.671	22.47
542.014	22.63
542.358	22.82
542.701	22.99
543.045	23.16
543.389	23.31
543.732	23.49
544.075	23.68
544.419	23.88
544.762	24.07
545.105	24.27
545.449	24.51
545.792	24.73
546.135	24.96
546.478	25.23
546.821	25.52
547.165	25.8
547.508	26
547.851	26.29
548.194	26.51
548.536	26.73
548.879	27.01
549.222	27.27
549.565	27.53
549.908	27.77
550.25	28.07
550.593	28.36
550.936	28.66
551.278	28.91
551.621	29.16
551.963	29.44
552.306	29.74
552.648	29.97
552.991	30.25
553.333	30.48
553.675	30.75
554.017	30.95
554.36	31.26
554.702	31.55
555.044	31.79
555.386	32.06
555.728	32.36
556.07	32.59
556.412	32.84
556.754	33.09
557.096	33.41
557.438	33.67
557.78	33.96
558.121	34.24
558.463	34.57
558.805	34.85
559.147	35.17
559.488	35.4
559.83	35.71
560.171	35.96
560.513	36.25
560.854	36.53
561.196	36.88
561.537	37.18
561.878	37.48
562.22	37.76
562.561	38.06
562.902	38.29
563.243	38.55
563.584	38.83
563.925	39.15
564.266	39.44
564.607	39.75
564.948	39.93
565.289	40.23
565.63	40.45
565.971	40.7
566.312	40.89
566.653	41.2
566.993	41.39
567.334	41.71
567.675	41.97
568.015	42.22
568.356	42.48
568.696	42.64
569.037	42.82
569.377	43.01
569.718	43.26
570.058	43.53
570.398	43.83
570.739	44.02
571.079	44.21
571.419	44.46
571.759	44.63
572.099	44.91
572.439	45.12
572.779	45.36
573.119	45.58
573.459	45.8
573.799	45.98
574.139	46.23
574.479	46.47
574.819	46.67
575.158	46.88
575.498	47.04
575.838	47.26
576.177	47.54
576.517	47.79
576.856	48.03
577.196	48.19
577.535	48.39
577.875	48.67
578.214	48.97
578.553	49.14
578.893	49.43
579.232	49.65
579.571	49.85
579.91	50.05
580.25	50.22
580.589	50.49
580.928	50.72
581.267	50.94
581.606	51.05
581.945	51.26
582.283	51.45
582.622	51.66
582.961	51.87
583.3	52.02
583.639	52.27
583.977	52.43
584.316	52.78
584.654	52.99
584.993	53.21
585.332	53.29
585.67	53.54
586.008	53.63
586.347	53.78
586.685	53.92
587.024	54.1
587.362	54.42
587.7	54.58
588.038	54.71
588.376	54.88
588.715	55
589.053	55.07
589.391	55.25
589.729	55.53
590.067	55.62
590.404	55.83
590.742	55.92
591.08	56.06
591.418	56.05
591.756	56.12
592.093	56.25
592.431	56.26
592.769	56.37
593.106	56.44
593.444	56.57
593.781	56.75
594.119	56.83
594.456	56.9
594.793	56.98
595.131	57.05
595.468	57.18
595.805	57.33
596.143	57.52
596.48	57.6
596.817	57.6
597.154	57.8
597.491	57.87
597.828	57.98
598.165	58.06
598.502	58.22
598.839	58.41
599.176	58.46
599.512	58.73
599.849	58.86
600.186	58.96
600.523	59.04
600.859	59.13
601.196	59.25
601.532	59.27
601.869	59.39
602.205	59.48
602.542	59.55
602.878	59.61
603.215	59.73
603.551	59.71
603.887	59.77
604.223	59.83
604.56	59.9
604.896	59.99
605.232	60.07
605.568	60.18
605.904	60.17
606.24	60.26
606.576	60.33
606.912	60.3
607.248	60.44
607.583	60.53
607.919	60.51
608.255	60.53
608.591	60.63
608.926	60.69
609.262	60.8
609.597	60.89
609.933	60.95
610.268	60.96
610.604	61.09
610.939	61.13
611.275	61.16
611.61	61.14
611.945	61.19
612.281	61.21
612.616	61.18
612.951	61.15
613.286	61.12
613.621	61.14
613.956	61.27
614.291	61.32
614.626	61.4
614.961	61.47
615.296	61.66
615.631	61.66
615.966	61.66
616.3	61.69
616.635	61.7
616.97	61.66
617.304	61.64
617.639	61.71
617.973	61.79
618.308	61.82
618.642	61.93
618.977	61.95
619.311	61.92
619.646	61.96
619.98	62.1
620.314	62.18
620.648	62.2
620.983	62.15
621.317	62.12
621.651	62.12
621.985	62.19
622.319	62.08
622.653	62.16
622.987	62.24
623.321	62.27
623.655	62.25
623.988	62.45
624.322	62.5
624.656	62.51
624.99	62.49
625.323	62.47
625.657	62.48
625.99	62.52
626.324	62.69
626.657	62.74
626.991	62.8
627.324	62.91
627.658	63
627.991	63.09
628.324	63.25
628.657	63.31
628.991	63.38
629.324	63.46
629.657	63.52
629.99	63.51
630.323	63.61
630.656	63.61
630.989	63.55
631.322	63.65
631.655	63.66
631.987	63.76
632.32	63.94
632.653	63.99
632.986	63.98
633.318	63.8
633.651	63.85
633.984	63.9
634.316	63.97
634.649	63.84
634.981	63.88
635.313	63.85
635.646	63.87
635.978	63.94
636.31	64
636.643	64.02
636.975	64.05
637.307	64.04
637.639	64.16
637.971	64.2
638.303	64.2
638.635	64.33
638.967	64.34
639.299	64.24
639.631	64.33
639.963	64.32
640.295	64.53
640.626	64.52
640.958	64.62
641.29	64.67
641.621	64.74
641.953	64.65
642.285	64.66
642.616	64.67
642.948	64.51
643.279	64.52
643.61	64.59
643.942	64.59
644.273	64.52
644.604	64.62
644.936	64.69
645.267	64.79
645.598	64.74
645.929	64.75
646.26	64.73
646.591	64.71
646.922	64.78
647.253	64.84
647.584	64.77
647.915	64.7
648.245	64.56
648.576	64.65
648.907	64.78
649.238	64.84
649.568	64.9
649.899	64.99
650.229	65.09
650.56	65.04
650.89	65.16
651.221	65.36
651.551	65.24
651.882	65.21
652.212	65.03
652.542	65.04
652.872	65.05
653.203	65.05
653.533	64.95
653.863	65.01
654.193	64.9
654.523	65.01
654.853	64.88
655.183	64.72
655.513	64.58
655.843	64.56
656.172	64.61
656.502	64.59
656.832	64.62
657.162	64.56
657.491	64.58
657.821	64.51
658.15	64.36
658.48	64.38
658.809	64.53
659.139	64.75
659.468	64.8
659.798	64.76
660.127	64.79
660.456	64.89
660.785	64.97
661.115	65.01
661.444	64.88
661.773	64.95
662.102	65.16
662.431	65.31
