Data from BA53411_Reflection_00003.txt Node
Date: Tue Nov 19 11:53:34 EST 2019
User: vgr7
Spectrometer: USB2G7710
Scans to average: 3
Trigger mode: 4
Integration Time (sec): 2.000000E-2
Electric dark correction enabled: true
Boxcar width: 10
XAxis mode: Wavelengths
Number of Pixels in Spectrum: 2048
>>>>>Begin Spectral Data<<<<<
177.721	-17.34
178.105	-76.03
178.488	-28.94
178.871	2.26
179.254	-27.64
179.636	-15.56
180.019	-196.75
180.402	255.56
180.785	-74.51
181.168	-78.16
181.55	-14.33
181.933	39.67
182.316	46.01
182.698	-6.79
183.081	14
183.463	5.26
183.846	64.5
184.228	44.79
184.611	12.52
184.993	64.96
185.376	52.13
185.758	72.35
186.14	211.49
186.522	-2495.24
186.904	-711.11
187.287	266.67
187.669	225.64
188.051	54.29
188.433	52.09
188.815	61.41
189.197	78.04
189.579	127.43
189.961	103.4
190.342	124.82
190.724	76.19
191.106	-1177.78
191.488	33.86
191.869	117.38
192.251	65.92
192.633	74.2
193.014	129.02
193.396	78.56
193.777	54
194.159	86.2
194.54	31.06
194.922	56.62
195.303	20.29
195.684	-227.96
196.065	-256.54
196.447	-283.6
196.828	-362.96
197.209	-3918.52
197.59	-385.66
197.971	-1195.7
198.352	3118.52
198.733	-1733.33
199.114	632.92
199.495	505.2
199.876	437.15
200.257	243.5
200.638	315.53
201.018	436.33
201.399	886.92
201.78	596.88
202.16	12933.33
202.541	711.11
202.922	400.52
203.302	486.45
203.683	-1104.76
204.063	-4733.33
204.444	-906.17
204.824	-533.33
205.204	-107.48
205.585	5.8
205.965	87.46
206.345	-521.21
206.725	-12.61
207.106	116.22
207.486	63.77
207.866	1.83
208.246	75.92
208.626	-259.65
209.006	1647.62
209.386	-223.29
209.766	-235.09
210.145	-144.88
210.525	-127.89
210.905	-112.79
211.285	-42.74
211.664	-69.5
212.044	-54.15
212.424	-78.96
212.803	-67.94
213.183	-50.41
213.562	-34.11
213.942	12.52
214.321	37.39
214.701	6.3
215.08	65.49
215.459	51.56
215.838	38.29
216.218	100.88
216.597	-342.03
216.976	318.95
217.355	322.94
217.734	559.06
218.113	-931.53
218.492	-2321.57
218.871	-637.04
219.25	-265.32
219.629	-787.6
220.008	-11288.89
220.387	-396.83
220.766	-163.55
221.144	-237.07
221.523	-304.01
221.902	-326.15
222.28	-181.29
222.659	-95.28
223.037	-101.48
223.416	-91.19
223.794	-61.36
224.173	-72.01
224.551	-77.47
224.929	-51.34
225.308	-34.31
225.686	-27.85
226.064	-30.82
226.442	-25.6
226.821	-28.03
227.199	-20.46
227.577	-14.2
227.955	-12.88
228.333	-11.95
228.711	-11.49
229.089	-9.75
229.467	-6.07
229.845	-8.51
230.222	-6.54
230.6	-9.89
230.978	-6.37
231.356	-5.57
231.733	-4.97
232.111	-5.01
232.488	-2.87
232.866	-2.79
233.243	-1.51
233.621	-0.35
233.998	3.52
234.376	5.31
234.753	3.43
235.13	2.09
235.508	0.61
235.885	2.54
236.262	2.57
236.639	3.2
237.016	4.1
237.393	4.83
237.77	4.41
238.147	5.45
238.524	6.18
238.901	4.95
239.278	4.66
239.655	3.95
240.032	5.28
240.409	5.64
240.785	5.11
241.162	4.88
241.539	4.37
241.915	3.66
242.292	3.63
242.668	4
243.045	4.37
243.421	4.25
243.798	4.02
244.174	4.08
244.551	4
244.927	4.2
245.303	3.87
245.679	4.42
246.056	4.28
246.432	4.14
246.808	4.53
247.184	4.67
247.56	4.63
247.936	4.46
248.312	4.35
248.688	4.68
249.064	4.93
249.44	4.97
249.815	5.12
250.191	4.93
250.567	5.21
250.943	5.07
251.318	5.03
251.694	4.94
252.069	4.9
252.445	4.82
252.82	5.07
253.196	5.43
253.571	5
253.947	4.77
254.322	4.72
254.697	4.39
255.073	4.33
255.448	4.54
255.823	4.46
256.198	4.21
256.573	4.09
256.948	4.1
257.323	4.2
257.698	4.32
258.073	4.49
258.448	4.34
258.823	4.13
259.198	4.38
259.573	4.41
259.948	4.58
260.322	4.47
260.697	4.35
261.072	4.35
261.446	4.45
261.821	4.51
262.195	4.63
262.57	4.7
262.944	4.83
263.319	5.03
263.693	4.88
264.067	4.88
264.442	4.91
264.816	4.76
265.19	4.84
265.564	4.56
265.938	4.45
266.313	4.25
266.687	4.53
267.061	4.33
267.435	4.4
267.809	4.02
268.183	4.23
268.556	4.15
268.93	4.07
269.304	3.88
269.678	3.98
270.051	3.93
270.425	3.89
270.799	3.74
271.172	3.67
271.546	3.82
271.919	3.97
272.293	4.02
272.666	4.11
273.04	4.04
273.413	3.97
273.787	3.95
274.16	4.03
274.533	4.11
274.906	4.36
275.279	4.29
275.653	4.64
276.026	4.76
276.399	4.91
276.772	4.76
277.145	4.92
277.518	4.74
277.891	4.75
278.263	4.87
278.636	4.97
279.009	5
279.382	5.03
279.755	5.07
280.127	5.07
280.5	4.92
280.872	5.01
281.245	5.1
281.617	5.3
281.99	5.43
282.362	5.52
282.735	5.35
283.107	5.31
283.479	5.25
283.852	5.27
284.224	5.17
284.596	5.29
284.968	5.3
285.34	5.31
285.713	5.25
286.085	5.06
286.457	5.01
286.829	4.85
287.201	4.75
287.572	4.67
287.944	4.71
288.316	4.72
288.688	4.74
289.06	4.9
289.431	4.77
289.803	4.86
290.175	4.59
290.546	4.74
290.918	4.83
291.289	4.66
291.661	4.6
292.032	4.62
292.403	4.64
292.775	4.56
293.146	4.55
293.517	4.46
293.889	4.6
294.26	4.63
294.631	4.77
295.002	4.92
295.373	4.89
295.744	4.83
296.115	4.86
296.486	4.81
296.857	4.86
297.228	4.89
297.599	4.63
297.97	4.75
298.34	4.65
298.711	4.67
299.082	4.81
299.452	4.75
299.823	4.8
300.194	4.74
300.564	4.7
300.935	4.75
301.305	4.7
301.676	4.65
302.046	4.71
302.416	4.65
302.787	4.56
303.157	4.61
303.527	4.66
303.897	4.79
304.267	4.75
304.637	4.58
305.008	4.67
305.378	4.77
305.748	4.7
306.117	4.61
306.487	4.65
306.857	4.64
307.227	4.78
307.597	4.71
307.967	4.76
308.336	4.94
308.706	5.02
309.076	5.25
309.445	5.33
309.815	5.2
310.184	5.25
310.554	5.34
310.923	5.29
311.293	5.29
311.662	5.24
312.031	5.17
312.401	5.02
312.77	4.81
313.139	4.83
313.508	4.83
313.877	4.86
314.246	4.73
314.616	4.81
314.985	4.65
315.353	4.63
315.722	4.62
316.091	4.54
316.46	4.48
316.829	4.4
317.198	4.28
317.567	4.34
317.935	4.21
318.304	4.17
318.672	4.17
319.041	4.11
319.41	4.07
319.778	4.3
320.147	4.4
320.515	4.64
320.883	4.54
321.252	4.53
321.62	4.47
321.988	4.47
322.357	4.45
322.725	4.55
323.093	4.53
323.461	4.54
323.829	4.52
324.197	4.52
324.565	4.46
324.933	4.35
325.301	4.26
325.669	4.22
326.037	4.12
326.405	4.16
326.772	4.2
327.14	4.16
327.508	4.11
327.875	4.05
328.243	3.94
328.61	4.12
328.978	4.08
329.346	4.23
329.713	4.33
330.08	4.17
330.448	4.19
330.815	4.17
331.182	4.25
331.55	4.21
331.917	4.19
332.284	4.29
332.651	4.55
333.018	4.48
333.385	4.62
333.752	4.73
334.119	4.76
334.486	4.74
334.853	4.69
335.22	4.62
335.587	4.69
335.954	4.79
336.32	4.63
336.687	4.69
337.054	4.63
337.42	4.49
337.787	4.49
338.153	4.46
338.52	4.51
338.886	4.46
339.253	4.35
339.619	4.38
339.986	4.3
340.352	4.17
340.718	4.29
341.084	4.16
341.451	4.19
341.817	4.13
342.183	4.11
342.549	4.13
342.915	4.14
343.281	4.2
343.647	4.12
344.013	4.13
344.379	4.09
344.745	4.15
345.11	4.22
345.476	4.37
345.842	4.32
346.208	4.35
346.573	4.31
346.939	4.49
347.304	4.56
347.67	4.44
348.035	4.47
348.401	4.46
348.766	4.43
349.132	4.38
349.497	4.44
349.862	4.43
350.228	4.44
350.593	4.43
350.958	4.5
351.323	4.5
351.688	4.6
352.053	4.65
352.418	4.63
352.783	4.61
353.148	4.5
353.513	4.58
353.878	4.59
354.243	4.56
354.608	4.53
354.972	4.43
355.337	4.56
355.702	4.51
356.066	4.51
356.431	4.55
356.795	4.51
357.16	4.49
357.524	4.54
357.889	4.54
358.253	4.56
358.618	4.52
358.982	4.53
359.346	4.54
359.71	4.52
360.075	4.48
360.439	4.5
360.803	4.53
361.167	4.54
361.531	4.5
361.895	4.48
362.259	4.54
362.623	4.49
362.987	4.46
363.351	4.45
363.714	4.41
364.078	4.42
364.442	4.4
364.806	4.35
365.169	4.37
365.533	4.32
365.896	4.35
366.26	4.33
366.623	4.39
366.987	4.41
367.35	4.46
367.714	4.49
368.077	4.57
368.44	4.59
368.803	4.51
369.167	4.47
369.53	4.53
369.893	4.5
370.256	4.54
370.619	4.63
370.982	4.71
371.345	4.79
371.708	4.82
372.071	4.85
372.434	4.81
372.797	4.76
373.159	4.85
373.522	4.9
373.885	4.9
374.247	4.81
374.61	4.75
374.973	4.81
375.335	4.8
375.698	4.71
376.06	4.7
376.423	4.71
376.785	4.76
377.147	4.76
377.51	4.77
377.872	4.85
378.234	4.85
378.596	4.87
378.958	4.9
379.321	4.85
379.683	4.89
380.045	4.96
380.407	4.94
380.769	4.94
381.13	4.89
381.492	4.93
381.854	5
382.216	4.95
382.578	4.88
382.939	4.87
383.301	4.87
383.663	4.95
384.024	4.98
384.386	5.01
384.747	5.01
385.109	5.06
385.47	5.04
385.832	5.05
386.193	5
386.554	4.93
386.916	4.94
387.277	4.88
387.638	4.9
387.999	4.9
388.36	4.86
388.721	4.85
389.082	4.87
389.443	4.86
389.804	4.95
390.165	4.99
390.526	4.98
390.887	4.98
391.248	4.92
391.609	4.94
391.969	4.97
392.33	5
392.691	4.98
393.051	4.97
393.412	4.93
393.772	4.98
394.133	5.02
394.493	5.07
394.854	5.11
395.214	5.07
395.574	5.11
395.935	5.14
396.295	5.16
396.655	5.13
397.015	5.17
397.376	5.09
397.736	5.07
398.096	5.06
398.456	5.08
398.816	5.07
399.176	5.04
399.535	5
399.895	4.97
400.255	4.93
400.615	4.94
400.975	4.94
401.334	4.91
401.694	4.92
402.054	4.86
402.413	4.9
402.773	4.92
403.132	4.9
403.492	4.94
403.851	4.95
404.211	4.95
404.57	4.94
404.929	4.94
405.288	4.91
405.648	4.93
406.007	4.93
406.366	4.95
406.725	4.95
407.084	4.97
407.443	4.99
407.802	4.96
408.161	4.98
408.52	4.99
408.879	5.02
409.238	5.02
409.596	5.05
409.955	5.04
410.314	5.01
410.673	5.05
411.031	5.03
411.39	4.99
411.748	4.97
412.107	4.94
412.465	4.99
412.824	4.99
413.182	4.95
413.54	4.98
413.899	4.97
414.257	4.98
414.615	4.98
414.974	4.93
415.332	4.99
415.69	4.93
416.048	4.91
416.406	4.86
416.764	4.84
417.122	4.84
417.48	4.81
417.838	4.85
418.195	4.85
418.553	4.85
418.911	4.84
419.269	4.85
419.626	4.85
419.984	4.84
420.342	4.86
420.699	4.88
421.057	4.87
421.414	4.88
421.772	4.88
422.129	4.86
422.486	4.88
422.844	4.85
423.201	4.88
423.558	4.9
423.915	4.91
424.273	4.92
424.63	4.92
424.987	4.95
425.344	4.94
425.701	4.92
426.058	4.9
426.415	4.91
426.772	4.92
427.128	4.95
427.485	4.94
427.842	4.92
428.199	4.93
428.555	4.94
428.912	4.94
429.269	4.93
429.625	4.93
429.982	4.93
430.338	4.94
430.695	4.92
431.051	4.91
431.407	4.92
431.764	4.91
432.12	4.92
432.476	4.95
432.832	4.95
433.189	4.98
433.545	4.99
433.901	4.99
434.257	4.99
434.613	4.96
434.969	4.97
435.325	4.99
435.681	4.99
436.036	4.97
436.392	4.94
436.748	4.97
437.104	4.98
437.459	4.96
437.815	4.97
438.171	4.98
438.526	4.96
438.882	4.96
439.237	4.96
439.593	4.95
439.948	4.92
440.304	4.91
440.659	4.89
441.014	4.89
441.369	4.89
441.725	4.89
442.08	4.9
442.435	4.9
442.79	4.88
443.145	4.86
443.5	4.87
443.855	4.89
444.21	4.87
444.565	4.89
444.92	4.9
445.275	4.9
445.629	4.89
445.984	4.91
446.339	4.91
446.693	4.91
447.048	4.9
447.403	4.88
447.757	4.88
448.112	4.87
448.466	4.88
448.82	4.89
449.175	4.89
449.529	4.89
449.883	4.88
450.238	4.88
450.592	4.89
450.946	4.88
451.3	4.89
451.654	4.88
452.008	4.87
452.362	4.86
452.716	4.86
453.07	4.87
453.424	4.84
453.778	4.85
454.132	4.85
454.486	4.85
454.839	4.88
455.193	4.89
455.547	4.91
455.9	4.9
456.254	4.89
456.607	4.91
456.961	4.93
457.314	4.95
457.668	4.96
458.021	4.95
458.375	4.95
458.728	4.94
459.081	4.95
459.434	4.96
459.787	4.97
460.141	4.97
460.494	4.97
460.847	4.98
461.2	4.98
461.553	4.98
461.906	4.97
462.259	4.95
462.611	4.95
462.964	4.94
463.317	4.94
463.67	4.96
464.022	4.94
464.375	4.92
464.728	4.9
465.08	4.92
465.433	4.94
465.785	4.94
466.138	4.95
466.49	4.94
466.843	4.95
467.195	4.99
467.547	4.97
467.899	4.99
468.252	4.99
468.604	4.97
468.956	4.97
469.308	4.99
469.66	5.02
470.012	5.03
470.364	5.06
470.716	5.05
471.068	5.04
471.42	5.03
471.772	5.04
472.123	5.06
472.475	5.02
472.827	5.02
473.178	5.04
473.53	5.03
473.882	5.03
474.233	5.03
474.585	4.99
474.936	4.98
475.288	4.99
475.639	5.02
475.99	5.01
476.342	5
476.693	5.01
477.044	5.01
477.395	4.99
477.746	4.98
478.097	5
478.448	5.01
478.8	5.05
479.15	5.02
479.501	5.02
479.852	5.03
480.203	5.04
480.554	5.05
480.905	5.05
481.255	5.05
481.606	5.05
481.957	5.05
482.307	5.06
482.658	5.09
483.009	5.1
483.359	5.11
483.709	5.13
484.06	5.14
484.41	5.14
484.761	5.16
485.111	5.16
485.461	5.15
485.811	5.16
486.162	5.16
486.512	5.18
486.862	5.19
487.212	5.2
487.562	5.2
487.912	5.21
488.262	5.21
488.612	5.22
488.961	5.24
489.311	5.24
489.661	5.24
490.011	5.22
490.36	5.22
490.71	5.22
491.06	5.23
491.409	5.21
491.759	5.21
492.108	5.21
492.458	5.22
492.807	5.23
493.157	5.22
493.506	5.21
493.855	5.21
494.204	5.2
494.554	5.2
494.903	5.2
495.252	5.21
495.601	5.23
495.95	5.25
496.299	5.21
496.648	5.22
496.997	5.22
497.346	5.24
497.695	5.23
498.043	5.22
498.392	5.22
498.741	5.23
499.09	5.25
499.438	5.24
499.787	5.24
500.135	5.23
500.484	5.25
500.832	5.25
501.181	5.24
501.529	5.24
501.878	5.25
502.226	5.26
502.574	5.23
502.923	5.2
503.271	5.2
503.619	5.21
503.967	5.22
504.315	5.24
504.663	5.23
505.011	5.24
505.359	5.23
505.707	5.22
506.055	5.24
506.403	5.23
506.751	5.23
507.098	5.23
507.446	5.23
507.794	5.24
508.141	5.26
508.489	5.3
508.837	5.29
509.184	5.29
509.531	5.31
509.879	5.29
510.226	5.29
510.574	5.3
510.921	5.31
511.268	5.29
511.616	5.3
511.963	5.3
512.31	5.3
512.657	5.3
513.004	5.34
513.351	5.32
513.698	5.32
514.045	5.34
514.392	5.35
514.739	5.36
515.086	5.35
515.432	5.35
515.779	5.34
516.126	5.34
516.473	5.31
516.819	5.3
517.166	5.35
517.512	5.37
517.859	5.37
518.205	5.35
518.552	5.36
518.898	5.35
519.245	5.36
519.591	5.38
519.937	5.38
520.283	5.37
520.629	5.38
520.976	5.38
521.322	5.38
521.668	5.36
522.014	5.37
522.36	5.38
522.706	5.38
523.052	5.38
523.398	5.38
523.743	5.41
524.089	5.42
524.435	5.4
524.781	5.4
525.126	5.41
525.472	5.43
525.817	5.44
526.163	5.43
526.509	5.45
526.854	5.43
527.199	5.45
527.545	5.46
527.89	5.46
528.235	5.47
528.581	5.48
528.926	5.5
529.271	5.5
529.616	5.51
529.961	5.51
530.306	5.5
530.651	5.5
530.996	5.51
531.341	5.52
531.686	5.54
532.031	5.55
532.376	5.54
532.721	5.55
533.065	5.54
533.41	5.56
533.755	5.56
534.099	5.57
534.444	5.56
534.788	5.55
535.133	5.54
535.477	5.54
535.822	5.52
536.166	5.5
536.51	5.5
536.855	5.49
537.199	5.48
537.543	5.49
537.887	5.49
538.231	5.47
538.576	5.45
538.92	5.44
539.264	5.44
539.608	5.44
539.951	5.44
540.295	5.46
540.639	5.47
540.983	5.46
541.327	5.46
541.671	5.49
542.014	5.49
542.358	5.51
542.701	5.52
543.045	5.54
543.389	5.56
543.732	5.57
544.075	5.59
544.419	5.61
544.762	5.62
545.105	5.65
545.449	5.67
545.792	5.69
546.135	5.7
546.478	5.71
546.821	5.74
547.165	5.76
547.508	5.79
547.851	5.76
548.194	5.76
548.536	5.75
548.879	5.72
549.222	5.74
549.565	5.74
549.908	5.74
550.25	5.72
550.593	5.74
550.936	5.74
551.278	5.73
551.621	5.72
551.963	5.72
552.306	5.69
552.648	5.68
552.991	5.67
553.333	5.65
553.675	5.67
554.017	5.65
554.36	5.64
554.702	5.61
555.044	5.6
555.386	5.61
555.728	5.66
556.07	5.68
556.412	5.65
556.754	5.61
557.096	5.61
557.438	5.59
557.78	5.54
558.121	5.52
558.463	5.51
558.805	5.53
559.147	5.53
559.488	5.53
559.83	5.54
560.171	5.53
560.513	5.55
560.854	5.54
561.196	5.53
561.537	5.53
561.878	5.55
562.22	5.58
562.561	5.58
562.902	5.56
563.243	5.57
563.584	5.57
563.925	5.59
564.266	5.55
564.607	5.58
564.948	5.58
565.289	5.62
565.63	5.64
565.971	5.63
566.312	5.63
566.653	5.64
566.993	5.62
567.334	5.67
567.675	5.66
568.015	5.64
568.356	5.64
568.696	5.67
569.037	5.67
569.377	5.65
569.718	5.66
570.058	5.67
570.398	5.66
570.739	5.66
571.079	5.66
571.419	5.68
571.759	5.67
572.099	5.67
572.439	5.63
572.779	5.64
573.119	5.65
573.459	5.62
573.799	5.61
574.139	5.61
574.479	5.62
574.819	5.64
575.158	5.64
575.498	5.65
575.838	5.64
576.177	5.61
576.517	5.59
576.856	5.58
577.196	5.59
577.535	5.57
577.875	5.57
578.214	5.59
578.553	5.61
578.893	5.59
579.232	5.6
579.571	5.61
579.91	5.58
580.25	5.58
580.589	5.62
580.928	5.62
581.267	5.66
581.606	5.64
581.945	5.62
582.283	5.62
582.622	5.6
582.961	5.61
583.3	5.62
583.639	5.69
583.977	5.67
584.316	5.64
584.654	5.66
584.993	5.62
585.332	5.64
585.67	5.63
586.008	5.65
586.347	5.65
586.685	5.66
587.024	5.66
587.362	5.65
587.7	5.64
588.038	5.65
588.376	5.64
588.715	5.61
589.053	5.62
589.391	5.59
589.729	5.63
590.067	5.59
590.404	5.64
590.742	5.62
591.08	5.69
591.418	5.74
591.756	5.76
592.093	5.79
592.431	5.79
592.769	5.79
593.106	5.83
593.444	5.87
593.781	5.89
594.119	5.9
594.456	5.91
594.793	5.89
595.131	5.9
595.468	5.85
595.805	5.89
596.143	5.89
596.48	5.95
596.817	5.95
597.154	5.98
597.491	5.96
597.828	5.97
598.165	5.95
598.502	5.9
598.839	5.9
599.176	5.86
599.512	5.8
599.849	5.8
600.186	5.79
600.523	5.77
600.859	5.79
601.196	5.82
601.532	5.79
601.869	5.83
602.205	5.8
602.542	5.85
602.878	5.85
603.215	5.84
603.551	5.78
603.887	5.77
604.223	5.75
604.56	5.75
604.896	5.76
605.232	5.77
605.568	5.79
605.904	5.79
606.24	5.83
606.576	5.89
606.912	5.9
607.248	5.88
607.583	5.86
607.919	5.83
608.255	5.81
608.591	5.85
608.926	5.85
609.262	5.84
609.597	5.87
609.933	5.88
610.268	5.89
610.604	5.9
610.939	5.92
611.275	5.9
611.61	5.9
611.945	5.88
612.281	5.87
612.616	5.92
612.951	5.94
613.286	5.92
613.621	5.89
613.956	5.89
614.291	5.95
614.626	5.97
614.961	6.04
615.296	6.04
615.631	6.05
615.966	6.02
616.3	6.03
616.635	5.94
616.97	5.92
617.304	5.95
617.639	5.99
617.973	5.96
618.308	6.03
618.642	5.99
618.977	5.97
619.311	5.95
619.646	5.92
619.98	5.96
620.314	5.9
620.648	5.86
620.983	5.89
621.317	5.85
621.651	5.82
621.985	5.76
622.319	5.79
622.653	5.73
622.987	5.77
623.321	5.79
623.655	5.9
623.988	5.98
624.322	5.94
624.656	5.93
624.99	5.97
625.323	5.99
625.657	6.01
625.99	6.07
626.324	6.1
626.657	6.12
626.991	6.08
627.324	6.1
627.658	6.1
627.991	6.05
628.324	6.06
628.657	6.11
628.991	6.16
629.324	6.18
629.657	6.19
629.99	6.21
630.323	6.18
630.656	6.09
630.989	6.03
631.322	6.05
631.655	6.08
631.987	6.03
632.32	6.04
632.653	6.03
632.986	5.98
633.318	5.89
633.651	5.84
633.984	5.85
634.316	5.9
634.649	5.93
634.981	6
635.313	6.02
635.646	6.02
635.978	6.02
636.31	6
636.643	6.02
636.975	5.99
637.307	6.04
637.639	6.07
637.971	6.06
638.303	6.05
638.635	6.1
638.967	6.11
639.299	6.09
639.631	6.11
639.963	6.15
640.295	6.27
640.626	6.29
640.958	6.25
641.29	6.26
641.621	6.27
641.953	6.25
642.285	6.2
642.616	6.21
642.948	6.17
643.279	6.19
643.61	6.27
643.942	6.24
644.273	6.15
644.604	6.19
644.936	6.23
645.267	6.19
645.598	6.07
645.929	5.97
646.26	6
646.591	6.02
646.922	6.08
647.253	6.1
647.584	6.11
647.915	6.14
648.245	6.15
648.576	6.16
648.907	6.11
649.238	6.14
649.568	6.07
649.899	6.06
650.229	6.04
650.56	6.03
650.89	6.06
651.221	6.07
651.551	6.03
651.882	5.94
652.212	6.01
652.542	6.07
652.872	6.16
653.203	6.13
653.533	6.05
653.863	5.98
654.193	5.88
654.523	5.91
654.853	5.98
655.183	5.95
655.513	5.96
655.843	6.03
656.172	6.08
656.502	6.02
656.832	6.02
657.162	6.02
657.491	6.02
657.821	6.02
658.15	6.15
658.48	6.21
658.809	6.23
659.139	6.23
659.468	6.21
659.798	6.27
660.127	6.27
660.456	6.31
660.785	6.38
661.115	6.4
661.444	6.42
661.773	6.4
662.102	6.38
662.431	6.4
662.76	6.37
663.089	6.4
663.418	6.46
663.747	6.45
664.076	6.49
664.404	6.46
664.733	6.44
665.062	6.28
665.39	6.15
665.719	6.1
666.048	6.15
666.376	6.12
666.705	6.12
667.033	6.16
667.362	6.13
667.69	6.11
668.018	6.27
668.347	6.27
668.675	6.3
669.003	6.2
669.331	6.29
669.659	6.28
669.987	6.24
670.315	6.29
670.643	6.37
670.971	6.31
671.299	6.34
671.627	6.39
671.955	6.46
672.283	6.53
672.61	6.6
672.938	6.59
673.266	6.63
673.593	6.52
673.921	6.46
674.249	6.5
674.576	6.49
674.904	6.37
675.231	6.34
675.558	6.36
675.886	6.43
676.213	6.3
676.54	6.36
676.867	6.28
