Data from BA53411_Reflection_00015.txt Node
Date: Tue Nov 19 11:54:01 EST 2019
User: vgr7
Spectrometer: USB2G7710
Scans to average: 3
Trigger mode: 4
Integration Time (sec): 2.000000E-2
Electric dark correction enabled: true
Boxcar width: 10
XAxis mode: Wavelengths
Number of Pixels in Spectrum: 2048
>>>>>Begin Spectral Data<<<<<
177.721	55.85
178.105	10.11
178.488	0.8
178.871	-5.08
179.254	-9.76
179.636	66.9
180.019	380.49
180.402	66.67
180.785	-176.47
181.168	-98.28
181.55	-19.83
181.933	78.53
182.316	92.96
182.698	43.11
183.081	52.05
183.463	31.54
183.846	33.21
184.228	61.3
184.611	109.58
184.993	148.72
185.376	91.35
185.758	116.59
186.14	172.41
186.522	-3400
186.904	-1866.67
187.287	316.42
187.669	153.85
188.051	81.01
188.433	130.36
188.815	171.43
189.197	320.93
189.579	435.44
189.961	620.41
190.342	514.89
190.724	205.04
191.106	4933.33
191.488	-209.52
191.869	-105.52
192.251	-20.82
192.633	1.67
193.014	67.66
193.396	64.73
193.777	79.64
194.159	128.66
194.54	123.56
194.922	326.03
195.303	173.91
195.684	1019.35
196.065	448.1
196.447	695.24
196.828	552.38
197.209	5711.11
197.59	492.47
197.971	2019.35
198.352	-6511.11
198.733	3305.88
199.114	-622.22
199.495	-427.52
199.876	-354.2
200.257	-122.01
200.638	-143.46
201.018	-166.47
201.399	-362.03
201.78	-278.5
202.16	-4000
202.541	-89.66
202.922	-92.91
203.302	-26.37
203.683	-371.43
204.063	-800
204.444	-325.93
204.824	-0
205.204	89.8
205.585	382.61
205.965	-120.43
206.345	781.82
206.725	-183.78
207.106	-107.96
207.486	-104.35
207.866	-126.03
208.246	-12.72
208.626	284.21
209.006	-1542.86
209.386	106.02
209.766	94.74
210.145	35.75
210.525	20.41
210.905	2.52
211.285	-22.01
211.664	-85.11
212.044	-19.72
212.424	-54.38
212.803	-20.69
213.183	82.93
213.562	102.33
213.942	58.56
214.321	92.06
214.701	117.41
215.08	84.58
215.459	63.05
215.838	67.13
216.218	97.35
216.597	-530.43
216.976	227.45
217.355	223.38
217.734	371.93
218.113	-481.08
218.492	-517.65
218.871	-422.22
219.25	-157.58
219.629	-655.81
220.008	-6400
220.387	-200
220.766	-19.38
221.144	30.49
221.523	55.5
221.902	97.01
222.28	70.18
222.659	77.96
223.037	69.97
223.416	39.08
223.794	38.94
224.173	48.51
224.551	55.72
224.929	31.86
225.308	26.56
225.686	24.92
226.064	13.07
226.442	12.93
226.821	16.25
227.199	12.73
227.577	20.46
227.955	16.19
228.333	13.49
228.711	7.78
229.089	6.45
229.467	2.8
229.845	-0.18
230.222	1.67
230.6	-3.81
230.978	0.22
231.356	0.43
231.733	1.94
232.111	-0.64
232.488	-4.21
232.866	-3.19
233.243	-5.89
233.621	-4.31
233.998	-1.32
234.376	-4.37
234.753	-5.41
235.13	-5.26
235.508	-9.09
235.885	-7.28
236.262	-7.59
236.639	-8
237.016	-7.14
237.393	-4.51
237.77	-2.42
238.147	-1.83
238.524	-0.56
238.901	-1.81
239.278	-0.29
239.655	-0.49
240.032	0.86
240.409	1.46
240.785	1.83
241.162	2.93
241.539	3.33
241.915	3.5
242.292	4.05
242.668	4.57
243.045	5.32
243.421	5.52
243.798	5.73
244.174	5.74
244.551	5.88
244.927	5.86
245.303	5.64
245.679	5.68
246.056	5.86
246.432	5.86
246.808	6.54
247.184	6.42
247.56	6.36
247.936	6.45
248.312	6.72
248.688	6.9
249.064	7.04
249.44	6.96
249.815	6.9
250.191	6.96
250.567	6.75
250.943	6.74
251.318	6.97
251.694	6.5
252.069	6.96
252.445	7.22
252.82	7.19
253.196	7.26
253.571	7.11
253.947	6.53
254.322	6.9
254.697	6.81
255.073	6.74
255.448	6.38
255.823	6.11
256.198	5.88
256.573	5.8
256.948	5.54
257.323	5.26
257.698	5.5
258.073	5.46
258.448	5.5
258.823	5.15
259.198	4.98
259.573	5.16
259.948	4.96
260.322	4.66
260.697	4.7
261.072	4.77
261.446	4.66
261.821	4.87
262.195	4.75
262.57	4.7
262.944	4.81
263.319	4.97
263.693	5.1
264.067	5.12
264.442	5.04
264.816	5.04
265.19	5.16
265.564	4.98
265.938	4.86
266.313	4.93
266.687	5.18
267.061	5.23
267.435	5.52
267.809	5.57
268.183	5.59
268.556	5.6
268.93	5.8
269.304	6
269.678	5.99
270.051	5.94
270.425	5.69
270.799	5.42
271.172	5.32
271.546	5.21
271.919	5.15
272.293	4.97
272.666	4.96
273.04	4.98
273.413	4.86
273.787	4.89
274.16	4.79
274.533	4.69
274.906	4.63
275.279	4.41
275.653	4.5
276.026	4.62
276.399	4.47
276.772	4.26
277.145	4.01
277.518	3.82
277.891	3.89
278.263	4.08
278.636	4.28
279.009	4.53
279.382	4.42
279.755	4.39
280.127	4.62
280.5	4.69
280.872	4.54
281.245	4.57
281.617	4.65
281.99	4.7
282.362	4.75
282.735	4.82
283.107	4.81
283.479	4.83
283.852	4.88
284.224	5.07
284.596	5.04
284.968	5
285.34	5.09
285.713	5.22
286.085	5.19
286.457	5.21
286.829	5.08
287.201	5.07
287.572	5.24
287.944	5.23
288.316	5.18
288.688	5.34
289.06	5.42
289.431	5.37
289.803	5.49
290.175	5.36
290.546	5.27
290.918	5.17
291.289	5
291.661	5.09
292.032	4.93
292.403	4.91
292.775	4.99
293.146	5.03
293.517	4.88
293.889	4.83
294.26	4.87
294.631	5.14
295.002	5.26
295.373	5.23
295.744	5.29
296.115	5.42
296.486	5.4
296.857	5.45
297.228	5.53
297.599	5.47
297.97	5.64
298.34	5.78
298.711	5.93
299.082	6.08
299.452	6.06
299.823	6.19
300.194	6.41
300.564	6.45
300.935	6.52
301.305	6.45
301.676	6.59
302.046	6.46
302.416	6.28
302.787	6.28
303.157	6.31
303.527	6.32
303.897	6.16
304.267	6.26
304.637	6.22
305.008	6.31
305.378	6.49
305.748	6.56
306.117	6.53
306.487	6.63
306.857	6.63
307.227	6.69
307.597	6.56
307.967	6.49
308.336	6.71
308.706	6.81
309.076	7.06
309.445	7.08
309.815	7.39
310.184	7.59
310.554	7.73
310.923	7.72
311.293	7.88
311.662	8.05
312.031	8
312.401	8.13
312.77	8.07
313.139	8
313.508	7.95
313.877	8.04
314.246	8.05
314.616	8.27
314.985	8.2
315.353	8.63
315.722	8.68
316.091	8.79
316.46	8.64
316.829	8.62
317.198	8.69
317.567	8.79
317.935	8.61
318.304	8.75
318.672	8.79
319.041	8.77
319.41	8.81
319.778	8.91
320.147	8.94
320.515	8.98
320.883	9.04
321.252	9.1
321.62	9.37
321.988	9.42
322.357	9.41
322.725	9.53
323.093	9.5
323.461	9.52
323.829	9.51
324.197	9.49
324.565	9.5
324.933	9.56
325.301	9.39
325.669	9.47
326.037	9.44
326.405	9.4
326.772	9.43
327.14	9.43
327.508	9.66
327.875	9.53
328.243	9.62
328.61	9.6
328.978	9.63
329.346	9.46
329.713	9.57
330.08	9.64
330.448	9.67
330.815	9.64
331.182	9.5
331.55	9.54
331.917	9.64
332.284	9.78
332.651	9.75
333.018	9.77
333.385	9.94
333.752	9.81
334.119	9.99
334.486	10.06
334.853	10.14
335.22	9.97
335.587	10.12
335.954	10.23
336.32	10.3
336.687	10.4
337.054	10.41
337.42	10.33
337.787	10.28
338.153	10.31
338.52	10.29
338.886	10.51
339.253	10.34
339.619	10.46
339.986	10.36
340.352	10.39
340.718	10.45
341.084	10.53
341.451	10.69
341.817	10.57
342.183	10.49
342.549	10.57
342.915	10.59
343.281	10.66
343.647	10.63
344.013	10.65
344.379	10.54
344.745	10.58
345.11	10.71
345.476	10.86
345.842	10.81
346.208	10.88
346.573	10.83
346.939	10.94
347.304	10.98
347.67	11.04
348.035	11.11
348.401	11.12
348.766	11.03
349.132	11.03
349.497	11.14
349.862	11.16
350.228	11.09
350.593	11.11
350.958	11
351.323	10.98
351.688	11.02
352.053	11.07
352.418	11.02
352.783	10.95
353.148	10.93
353.513	10.91
353.878	10.79
354.243	10.71
354.608	10.7
354.972	10.66
355.337	10.69
355.702	10.58
356.066	10.51
356.431	10.56
356.795	10.47
357.16	10.43
357.524	10.42
357.889	10.44
358.253	10.44
358.618	10.51
358.982	10.43
359.346	10.37
359.71	10.37
360.075	10.38
360.439	10.38
360.803	10.25
361.167	10.28
361.531	10.3
361.895	10.3
362.259	10.37
362.623	10.34
362.987	10.26
363.351	10.24
363.714	10.28
364.078	10.19
364.442	10.21
364.806	10.17
365.169	10.18
365.533	10.1
365.896	10.07
366.26	9.97
366.623	9.99
366.987	9.93
367.35	9.89
367.714	9.85
368.077	9.81
368.44	9.8
368.803	9.71
369.167	9.69
369.53	9.62
369.893	9.47
370.256	9.36
370.619	9.31
370.982	9.16
371.345	9.08
371.708	9.03
372.071	8.95
372.434	8.95
372.797	8.91
373.159	8.86
373.522	8.8
373.885	8.74
374.247	8.6
374.61	8.6
374.973	8.46
375.335	8.41
375.698	8.27
376.06	8.17
376.423	8.25
376.785	8.18
377.147	8.15
377.51	8.09
377.872	8.1
378.234	8.12
378.596	8.19
378.958	8.17
379.321	8.08
379.683	8.12
380.045	8.06
380.407	7.99
380.769	7.96
381.13	7.92
381.492	7.89
381.854	7.91
382.216	7.85
382.578	7.9
382.939	7.86
383.301	7.85
383.663	7.82
384.024	7.74
384.386	7.67
384.747	7.61
385.109	7.57
385.47	7.54
385.832	7.43
386.193	7.36
386.554	7.28
386.916	7.26
387.277	7.15
387.638	7.16
387.999	7.08
388.36	6.98
388.721	6.96
389.082	6.95
389.443	6.93
389.804	6.93
390.165	6.89
390.526	6.9
390.887	6.81
391.248	6.8
391.609	6.78
391.969	6.79
392.33	6.78
392.691	6.76
393.051	6.7
393.412	6.72
393.772	6.75
394.133	6.73
394.493	6.71
394.854	6.64
395.214	6.55
395.574	6.57
395.935	6.59
396.295	6.55
396.655	6.5
397.015	6.49
397.376	6.46
397.736	6.41
398.096	6.35
398.456	6.32
398.816	6.27
399.176	6.2
399.535	6.15
399.895	6.11
400.255	6.09
400.615	6.08
400.975	6.04
401.334	6.01
401.694	5.98
402.054	5.99
402.413	5.97
402.773	5.93
403.132	5.87
403.492	5.88
403.851	5.85
404.211	5.86
404.57	5.84
404.929	5.76
405.288	5.74
405.648	5.71
406.007	5.72
406.366	5.71
406.725	5.71
407.084	5.71
407.443	5.72
407.802	5.69
408.161	5.72
408.52	5.72
408.879	5.69
409.238	5.71
409.596	5.69
409.955	5.69
410.314	5.73
410.673	5.77
411.031	5.73
411.39	5.7
411.748	5.67
412.107	5.61
412.465	5.61
412.824	5.6
413.182	5.58
413.54	5.59
413.899	5.59
414.257	5.58
414.615	5.53
414.974	5.5
415.332	5.47
415.69	5.41
416.048	5.37
416.406	5.33
416.764	5.27
417.122	5.27
417.48	5.27
417.838	5.24
418.195	5.17
418.553	5.13
418.911	5.11
419.269	5.12
419.626	5.12
419.984	5.12
420.342	5.11
420.699	5.08
421.057	5.08
421.414	5.06
421.772	5.04
422.129	5.03
422.486	5.02
422.844	5.01
423.201	5
423.558	4.99
423.915	5
424.273	5.02
424.63	5.01
424.987	4.98
425.344	4.97
425.701	4.98
426.058	4.99
426.415	5
426.772	4.96
427.128	4.98
427.485	4.98
427.842	4.97
428.199	5
428.555	4.98
428.912	4.95
429.269	4.94
429.625	4.95
429.982	4.95
430.338	4.98
430.695	4.97
431.051	4.95
431.407	4.91
431.764	4.9
432.12	4.92
432.476	4.93
432.832	4.92
433.189	4.9
433.545	4.91
433.901	4.9
434.257	4.9
434.613	4.87
434.969	4.84
435.325	4.84
435.681	4.84
436.036	4.82
436.392	4.86
436.748	4.86
437.104	4.86
437.459	4.86
437.815	4.84
438.171	4.85
438.526	4.86
438.882	4.86
439.237	4.85
439.593	4.84
439.948	4.82
440.304	4.82
440.659	4.83
441.014	4.82
441.369	4.82
441.725	4.84
442.08	4.84
442.435	4.85
442.79	4.83
443.145	4.82
443.5	4.83
443.855	4.82
444.21	4.81
444.565	4.81
444.92	4.8
445.275	4.79
445.629	4.77
445.984	4.75
446.339	4.76
446.693	4.75
447.048	4.73
447.403	4.72
447.757	4.72
448.112	4.69
448.466	4.71
448.82	4.7
449.175	4.68
449.529	4.69
449.883	4.65
450.238	4.66
450.592	4.66
450.946	4.65
451.3	4.65
451.654	4.63
452.008	4.62
452.362	4.64
452.716	4.63
453.07	4.63
453.424	4.63
453.778	4.61
454.132	4.61
454.486	4.61
454.839	4.63
455.193	4.64
455.547	4.68
455.9	4.68
456.254	4.68
456.607	4.69
456.961	4.68
457.314	4.71
457.668	4.7
458.021	4.68
458.375	4.68
458.728	4.68
459.081	4.7
459.434	4.71
459.787	4.71
460.141	4.71
460.494	4.72
460.847	4.73
461.2	4.74
461.553	4.75
461.906	4.78
462.259	4.77
462.611	4.75
462.964	4.77
463.317	4.75
463.67	4.78
464.022	4.81
464.375	4.81
464.728	4.82
465.08	4.84
465.433	4.88
465.785	4.89
466.138	4.88
466.49	4.86
466.843	4.87
467.195	4.86
467.547	4.87
467.899	4.88
468.252	4.9
468.604	4.91
468.956	4.92
469.308	4.9
469.66	4.92
470.012	4.95
470.364	4.94
470.716	4.97
471.068	4.95
471.42	4.93
471.772	4.95
472.123	4.96
472.475	4.97
472.827	4.96
473.178	4.97
473.53	4.98
473.882	4.99
474.233	4.99
474.585	5.01
474.936	5.03
475.288	4.99
475.639	4.96
475.99	4.96
476.342	4.95
476.693	4.96
477.044	4.95
477.395	4.9
477.746	4.89
478.097	4.87
478.448	4.86
478.8	4.85
479.15	4.84
479.501	4.84
479.852	4.84
480.203	4.83
480.554	4.85
480.905	4.83
481.255	4.84
481.606	4.84
481.957	4.85
482.307	4.84
482.658	4.86
483.009	4.86
483.359	4.86
483.709	4.87
484.06	4.88
484.41	4.88
484.761	4.89
485.111	4.9
485.461	4.89
485.811	4.89
486.162	4.9
486.512	4.9
486.862	4.9
487.212	4.89
487.562	4.89
487.912	4.88
488.262	4.9
488.612	4.9
488.961	4.89
489.311	4.89
489.661	4.9
490.011	4.89
490.36	4.9
490.71	4.9
491.06	4.9
491.409	4.9
491.759	4.9
492.108	4.9
492.458	4.91
492.807	4.95
493.157	4.97
493.506	4.99
493.855	5.01
494.204	5.02
494.554	5.04
494.903	5.08
495.252	5.1
495.601	5.13
495.95	5.15
496.299	5.21
496.648	5.23
496.997	5.25
497.346	5.31
497.695	5.34
498.043	5.38
498.392	5.4
498.741	5.41
499.09	5.45
499.438	5.48
499.787	5.5
500.135	5.51
500.484	5.54
500.832	5.55
501.181	5.57
501.529	5.64
501.878	5.7
502.226	5.72
502.574	5.75
502.923	5.75
503.271	5.78
503.619	5.79
503.967	5.8
504.315	5.85
504.663	5.88
505.011	5.91
505.359	5.94
505.707	5.99
506.055	6.04
506.403	6.07
506.751	6.12
507.098	6.2
507.446	6.24
507.794	6.26
508.141	6.32
508.489	6.39
508.837	6.39
509.184	6.41
509.531	6.47
509.879	6.51
510.226	6.57
510.574	6.63
510.921	6.69
511.268	6.76
511.616	6.82
511.963	6.85
512.31	6.88
512.657	6.96
513.004	7.01
513.351	7.07
513.698	7.13
514.045	7.21
514.392	7.27
514.739	7.35
515.086	7.44
515.432	7.49
515.779	7.56
516.126	7.65
516.473	7.71
516.819	7.76
517.166	7.84
517.512	7.9
517.859	7.97
518.205	8.05
518.552	8.11
518.898	8.16
519.245	8.27
519.591	8.36
519.937	8.43
520.283	8.52
520.629	8.62
520.976	8.71
521.322	8.79
521.668	8.88
522.014	8.98
522.36	9.06
522.706	9.19
523.052	9.31
523.398	9.43
523.743	9.6
524.089	9.78
524.435	9.88
524.781	10.03
525.126	10.14
525.472	10.25
525.817	10.35
526.163	10.46
526.509	10.55
526.854	10.66
527.199	10.74
527.545	10.83
527.89	10.92
528.235	11.01
528.581	11.11
528.926	11.2
529.271	11.3
529.616	11.42
529.961	11.51
530.306	11.6
530.651	11.71
530.996	11.82
531.341	11.92
531.686	12.06
532.031	12.2
532.376	12.36
532.721	12.51
533.065	12.67
533.41	12.84
533.755	13
534.099	13.16
534.444	13.36
534.788	13.54
535.133	13.69
535.477	13.87
535.822	14.05
536.166	14.22
536.51	14.42
536.855	14.61
537.199	14.89
537.543	15.15
537.887	15.41
538.231	15.62
538.576	15.85
538.92	16.11
539.264	16.3
539.608	16.51
539.951	16.71
540.295	16.9
540.639	17.1
540.983	17.31
541.327	17.49
541.671	17.67
542.014	17.84
542.358	18.03
542.701	18.23
543.045	18.45
543.389	18.66
543.732	18.88
544.075	19.12
544.419	19.3
544.762	19.52
545.105	19.75
545.449	20.01
545.792	20.25
546.135	20.49
546.478	20.76
546.821	21.03
547.165	21.31
547.508	21.62
547.851	21.9
548.194	22.12
548.536	22.43
548.879	22.76
549.222	23.07
549.565	23.41
549.908	23.72
550.25	23.97
550.593	24.31
550.936	24.58
551.278	24.85
551.621	25.18
551.963	25.52
552.306	25.83
552.648	26.15
552.991	26.48
553.333	26.79
553.675	27.11
554.017	27.44
554.36	27.73
554.702	28
555.044	28.3
555.386	28.62
555.728	28.91
556.07	29.12
556.412	29.43
556.754	29.67
557.096	29.97
557.438	30.34
557.78	30.62
558.121	30.95
558.463	31.33
558.805	31.58
559.147	31.84
559.488	32.06
559.83	32.39
560.171	32.65
560.513	32.95
560.854	33.26
561.196	33.53
561.537	33.84
561.878	34.2
562.22	34.46
562.561	34.79
562.902	35.12
563.243	35.44
563.584	35.67
563.925	35.98
564.266	36.24
564.607	36.5
564.948	36.78
565.289	37.03
565.63	37.25
565.971	37.5
566.312	37.8
566.653	38.12
566.993	38.37
567.334	38.65
567.675	38.93
568.015	39.21
568.356	39.48
568.696	39.78
569.037	40.03
569.377	40.3
569.718	40.46
570.058	40.7
570.398	40.95
570.739	41.23
571.079	41.49
571.419	41.68
571.759	41.84
572.099	42.07
572.439	42.29
572.779	42.52
573.119	42.78
573.459	42.97
573.799	43.17
574.139	43.37
574.479	43.6
574.819	43.86
575.158	44.03
575.498	44.23
575.838	44.43
576.177	44.62
576.517	44.89
576.856	45.2
577.196	45.49
577.535	45.76
577.875	46.08
578.214	46.32
578.553	46.65
578.893	46.94
579.232	47.13
579.571	47.44
579.91	47.66
580.25	47.89
580.589	48.1
580.928	48.29
581.267	48.5
581.606	48.74
581.945	48.94
582.283	49.22
582.622	49.42
582.961	49.62
583.3	49.83
583.639	49.89
583.977	50.06
584.316	50.21
584.654	50.34
584.993	50.41
585.332	50.6
585.67	50.73
586.008	50.88
586.347	51.16
586.685	51.27
587.024	51.5
587.362	51.7
587.7	51.85
588.038	52.09
588.376	52.27
588.715	52.39
589.053	52.49
589.391	52.6
589.729	52.77
590.067	52.96
590.404	53.14
590.742	53.31
591.08	53.48
591.418	53.58
591.756	53.68
592.093	53.89
592.431	53.99
592.769	54.11
593.106	54.24
593.444	54.33
593.781	54.39
594.119	54.47
594.456	54.5
594.793	54.62
595.131	54.64
595.468	54.77
595.805	54.95
596.143	55
596.48	55.14
596.817	55.24
597.154	55.28
597.491	55.26
597.828	55.4
598.165	55.48
598.502	55.58
598.839	55.67
599.176	55.75
599.512	55.85
599.849	55.98
600.186	56.08
600.523	56.12
600.859	56.3
601.196	56.34
601.532	56.39
601.869	56.49
602.205	56.67
602.542	56.73
602.878	56.67
603.215	56.76
603.551	56.77
603.887	56.77
604.223	56.82
604.56	56.88
604.896	56.97
605.232	56.91
605.568	56.95
605.904	57.03
606.24	57.03
606.576	57.11
606.912	57.05
607.248	57.18
607.583	57.25
607.919	57.29
608.255	57.37
608.591	57.48
608.926	57.51
609.262	57.54
609.597	57.51
609.933	57.59
610.268	57.69
610.604	57.78
610.939	57.88
611.275	57.95
611.61	58.13
611.945	58.16
612.281	58.35
612.616	58.48
612.951	58.6
613.286	58.67
613.621	58.75
613.956	58.99
614.291	59.11
614.626	59.32
614.961	59.48
615.296	59.61
615.631	59.77
615.966	59.94
616.3	60.01
616.635	60.12
616.97	60.3
617.304	60.4
617.639	60.48
617.973	60.55
618.308	60.59
618.642	60.69
618.977	60.77
619.311	60.84
619.646	60.79
619.98	60.9
620.314	60.95
620.648	61.02
620.983	61.05
621.317	60.95
621.651	60.94
621.985	60.98
622.319	61.03
622.653	61.04
622.987	60.96
623.321	61.02
623.655	61.12
623.988	61.09
624.322	61.03
624.656	61
624.99	61.08
625.323	61.19
625.657	61.09
625.99	61.02
626.324	61.03
626.657	61.02
626.991	61.01
627.324	61.04
627.658	61.01
627.991	60.91
628.324	61.06
628.657	61.09
628.991	61.05
629.324	61.07
629.657	61.02
629.99	61.11
630.323	61.13
630.656	61.12
630.989	61.2
631.322	61.11
631.655	61.24
631.987	61.26
632.32	61.22
632.653	61.36
632.986	61.46
633.318	61.49
633.651	61.63
633.984	61.66
634.316	61.74
634.649	61.79
634.981	62.01
635.313	61.85
635.646	61.85
635.978	61.91
636.31	62.04
636.643	62.1
636.975	62.12
637.307	62.13
637.639	62.17
637.971	62.12
638.303	62.39
638.635	62.39
638.967	62.35
639.299	62.35
639.631	62.32
639.963	62.36
640.295	62.4
640.626	62.49
640.958	62.5
641.29	62.6
641.621	62.68
641.953	62.54
642.285	62.67
642.616	62.77
642.948	62.72
643.279	62.72
643.61	62.75
643.942	62.82
644.273	62.85
644.604	62.74
644.936	62.71
645.267	62.57
645.598	62.53
645.929	62.47
646.26	62.44
646.591	62.41
646.922	62.33
647.253	62.34
647.584	62.43
647.915	62.47
648.245	62.36
648.576	62.31
648.907	62.38
649.238	62.35
649.568	62.29
649.899	62.25
650.229	62.2
650.56	62.22
650.89	62.18
651.221	62.2
651.551	62.31
651.882	62.46
652.212	62.5
652.542	62.53
652.872	62.61
653.203	62.79
653.533	62.89
653.863	62.94
654.193	62.8
654.523	62.67
654.853	62.65
655.183	62.68
655.513	62.66
655.843	62.64
656.172	62.82
656.502	62.69
656.832	62.78
657.162	62.66
657.491	62.65
657.821	62.58
658.15	62.58
658.48	62.67
658.809	62.6
659.139	62.65
659.468	62.59
659.798	62.63
660.127	62.52
660.456	62.49
660.785	62.51
661.115	62.6
661.444	62.6
661.773	62.67
662.102	62.68
662.431	62.67
662.76	62.88
663.089	62.73
663.418	62.89
663.747	62.9
664.076	63.04
664.404	63.07
664.733	63.01
665.062	62.96
665.39	63.07
665.719	63.15
666.048	63.07
