Data from BA53509_Reflection_00008.txt Node
Date: Tue Nov 19 11:46:36 EST 2019
User: vgr7
Spectrometer: USB2G7710
Scans to average: 3
Trigger mode: 4
Integration Time (sec): 2.000000E-2
Electric dark correction enabled: true
Boxcar width: 10
XAxis mode: Wavelengths
Number of Pixels in Spectrum: 2048
>>>>>Begin Spectral Data<<<<<
177.721	-115.98
178.105	-900
178.488	-193.89
178.871	285.71
179.254	320
179.636	276.83
180.019	567.74
180.402	-75
180.785	-188.24
181.168	279.25
181.55	60.99
181.933	50.98
182.316	38.6
182.698	-10.78
183.081	57.63
183.463	87.8
183.846	-19.05
184.228	4.26
184.611	-1581.82
184.993	208.7
185.376	53.42
185.758	-5.5
186.14	-94.12
186.522	-75.16
186.904	0
187.287	-98.11
187.669	38.1
188.051	-72.13
188.433	-210.46
188.815	-121.93
189.197	-63.55
189.579	-52.29
189.961	-63.34
190.342	-40.49
190.724	-44.32
191.106	-40.43
191.488	-52.84
191.869	-56.98
192.251	-65.59
192.633	-68.98
193.014	-63.97
193.396	-43.99
193.777	-29.43
194.159	-23.01
194.54	-10.49
194.922	-7.02
195.303	-1.2
195.684	-13.89
196.065	-10.76
196.447	6.46
196.828	-1.55
197.209	-13.54
197.59	-28.53
197.971	-34.87
198.352	-52.41
198.733	-84.75
199.114	-106.15
199.495	-78.21
199.876	-79.36
200.257	-59.13
200.638	-55.26
201.018	-71.39
201.399	-92.72
201.78	-99.72
202.16	-109.8
202.541	-309.09
202.922	-175.78
203.302	-126.91
203.683	-90.91
204.063	-148.57
204.444	-77.87
204.824	-66.67
205.204	-33.25
205.585	-28.84
205.965	-31.47
206.345	-35.27
206.725	-8.62
207.106	11.09
207.486	1.83
207.866	24.43
208.246	17.41
208.626	-10.36
209.006	-6.95
209.386	-12.21
209.766	-14.16
210.145	-32.38
210.525	-17.96
210.905	-17.76
211.285	-23.92
211.664	-19.31
212.044	-17.37
212.424	-14.77
212.803	-34.97
213.183	-35.4
213.562	-15.13
213.942	2.38
214.321	16.52
214.701	-9.41
215.08	-11.63
215.459	-1.58
215.838	-24.78
216.218	-30.89
216.597	-24.01
216.976	-36.67
217.355	-13.6
217.734	-13.38
218.113	-10.41
218.492	-3.7
218.871	-8.08
219.25	-18.96
219.629	-39.77
220.008	-27.99
220.387	-26.55
220.766	11.25
221.144	9.62
221.523	8.35
221.902	1.63
222.28	-7.45
222.659	12.98
223.037	13.43
223.416	14.93
223.794	17.91
224.173	2.08
224.551	-1.99
224.929	-1.48
225.308	-7.11
225.686	-9.52
226.064	-7.94
226.442	-8.89
226.821	-6.69
227.199	-3.28
227.577	2.22
227.955	-0.91
228.333	-0.91
228.711	-3.63
229.089	-3.21
229.467	-1.73
229.845	-4.06
230.222	-2.69
230.6	-5.6
230.978	-3.26
231.356	-4.14
231.733	-2.4
232.111	-1.36
232.488	-0.68
232.866	0.6
233.243	-0.62
233.621	0.32
233.998	1.11
234.376	1.89
234.753	1.93
235.13	3.55
235.508	0.04
235.885	2.66
236.262	2.19
236.639	0.76
237.016	-0.24
237.393	0.35
237.77	1.87
238.147	1.78
238.524	2.37
238.901	1.55
239.278	1.65
239.655	1.58
240.032	3.35
240.409	4.28
240.785	3.42
241.162	3.96
241.539	3.51
241.915	3.58
242.292	3.71
242.668	3.28
243.045	2.76
243.421	3.54
243.798	3.45
244.174	3.41
244.551	3.59
244.927	3.74
245.303	3.57
245.679	3.54
246.056	4.1
246.432	3.94
246.808	4.08
247.184	4.34
247.56	4.23
247.936	3.83
248.312	3.82
248.688	3.83
249.064	3.62
249.44	3.83
249.815	3.97
250.191	4
250.567	4.15
250.943	4.38
251.318	4.14
251.694	3.8
252.069	3.9
252.445	3.75
252.82	4.07
253.196	4.38
253.571	4.33
253.947	3.89
254.322	4.16
254.697	4.44
255.073	4.4
255.448	4.39
255.823	4.38
256.198	4.19
256.573	4.44
256.948	4.35
257.323	4.22
257.698	4.17
258.073	4.02
258.448	3.98
258.823	3.7
259.198	3.9
259.573	3.86
259.948	3.84
260.322	4
260.697	3.87
261.072	3.59
261.446	3.61
261.821	3.6
262.195	3.58
262.57	3.55
262.944	3.59
263.319	3.79
263.693	3.93
264.067	3.92
264.442	3.82
264.816	3.82
265.19	3.9
265.564	3.68
265.938	3.61
266.313	3.5
266.687	3.64
267.061	3.59
267.435	3.79
267.809	3.8
268.183	3.52
268.556	3.6
268.93	3.94
269.304	3.92
269.678	3.88
270.051	4.12
270.425	3.86
270.799	3.67
271.172	3.52
271.546	3.48
271.919	3.56
272.293	3.68
272.666	3.71
273.04	3.63
273.413	3.77
273.787	3.91
274.16	3.79
274.533	3.9
274.906	3.93
275.279	3.85
275.653	3.71
276.026	3.99
276.399	3.96
276.772	3.86
277.145	3.77
277.518	3.68
277.891	3.51
278.263	3.69
278.636	3.8
279.009	4.02
279.382	4.06
279.755	4.05
280.127	4.01
280.5	4
280.872	4.03
281.245	4
281.617	4.05
281.99	4.13
282.362	4.12
282.735	3.98
283.107	4
283.479	4.27
283.852	4.19
284.224	4.3
284.596	4.12
284.968	4.09
285.34	4.19
285.713	4.22
286.085	4.07
286.457	4.05
286.829	3.92
287.201	3.84
287.572	3.93
287.944	4.07
288.316	4.28
288.688	4.46
289.06	4.57
289.431	4.64
289.803	4.87
290.175	4.86
290.546	4.88
290.918	4.9
291.289	4.78
291.661	4.66
292.032	4.63
292.403	4.65
292.775	5.05
293.146	5.15
293.517	4.92
293.889	5.13
294.26	5.24
294.631	5.33
295.002	5.38
295.373	5.39
295.744	5.27
296.115	5.2
296.486	5.15
296.857	5.18
297.228	5.16
297.599	5.05
297.97	5.05
298.34	5.11
298.711	5.29
299.082	5.36
299.452	5.56
299.823	5.62
300.194	5.76
300.564	5.64
300.935	5.68
301.305	5.88
301.676	5.85
302.046	5.72
302.416	5.72
302.787	5.87
303.157	5.78
303.527	5.95
303.897	5.84
304.267	5.94
304.637	5.93
305.008	5.86
305.378	5.91
305.748	5.95
306.117	6.01
306.487	6
306.857	6.05
307.227	6.22
307.597	5.99
307.967	6.09
308.336	6.14
308.706	6.26
309.076	6.3
309.445	6.61
309.815	6.71
310.184	6.76
310.554	6.74
310.923	6.87
311.293	6.9
311.662	7.07
312.031	6.95
312.401	7
312.77	7.06
313.139	7.16
313.508	7.27
313.877	7.46
314.246	7.48
314.616	7.54
314.985	7.54
315.353	8.03
315.722	8.05
316.091	8.21
316.46	8.2
316.829	8.38
317.198	8.27
317.567	8.59
317.935	8.65
318.304	8.88
318.672	9.21
319.041	9.08
319.41	9.2
319.778	9.35
320.147	9.36
320.515	9.45
320.883	9.47
321.252	9.43
321.62	9.4
321.988	9.56
322.357	9.62
322.725	9.57
323.093	9.32
323.461	9.34
323.829	9.31
324.197	9.34
324.565	9.17
324.933	9.19
325.301	9.02
325.669	8.91
326.037	8.8
326.405	8.78
326.772	9.1
327.14	9.06
327.508	9.18
327.875	9.27
328.243	9.28
328.61	9.32
328.978	9.5
329.346	9.59
329.713	9.61
330.08	9.57
330.448	9.66
330.815	9.7
331.182	9.74
331.55	9.76
331.917	9.81
332.284	9.97
332.651	9.9
333.018	9.91
333.385	10
333.752	10.13
334.119	10.13
334.486	10.03
334.853	9.99
335.22	10
335.587	9.96
335.954	9.91
336.32	9.99
336.687	10.09
337.054	10.13
337.42	10.23
337.787	10.28
338.153	10.39
338.52	10.53
338.886	10.61
339.253	10.65
339.619	10.64
339.986	10.64
340.352	10.71
340.718	10.82
341.084	10.93
341.451	11.06
341.817	11.08
342.183	11.01
342.549	11.23
342.915	11.28
343.281	11.45
343.647	11.56
344.013	11.57
344.379	11.53
344.745	11.59
345.11	11.65
345.476	11.82
345.842	11.67
346.208	11.74
346.573	11.69
346.939	11.56
347.304	11.62
347.67	11.69
348.035	11.69
348.401	11.64
348.766	11.62
349.132	11.57
349.497	11.56
349.862	11.59
350.228	11.59
350.593	11.61
350.958	11.69
351.323	11.7
351.688	11.81
352.053	11.75
352.418	11.79
352.783	11.65
353.148	11.54
353.513	11.61
353.878	11.53
354.243	11.55
354.608	11.67
354.972	11.54
355.337	11.5
355.702	11.53
356.066	11.5
356.431	11.52
356.795	11.47
357.16	11.42
357.524	11.47
357.889	11.43
358.253	11.34
358.618	11.25
358.982	11.17
359.346	11.05
359.71	11.1
360.075	10.95
360.439	11.07
360.803	11.07
361.167	10.98
361.531	10.9
361.895	10.88
362.259	10.83
362.623	10.87
362.987	10.85
363.351	10.78
363.714	10.84
364.078	10.81
364.442	10.71
364.806	10.75
365.169	10.76
365.533	10.74
365.896	10.69
366.26	10.51
366.623	10.57
366.987	10.55
367.35	10.41
367.714	10.46
368.077	10.31
368.44	10.2
368.803	10.17
369.167	10.23
369.53	10.2
369.893	10.21
370.256	10.09
370.619	9.98
370.982	9.99
371.345	9.88
371.708	9.81
372.071	9.79
372.434	9.62
372.797	9.54
373.159	9.41
373.522	9.35
373.885	9.36
374.247	9.3
374.61	9.26
374.973	9.25
375.335	9.15
375.698	9.11
376.06	9.1
376.423	9.06
376.785	8.99
377.147	8.91
377.51	8.79
377.872	8.79
378.234	8.83
378.596	8.75
378.958	8.74
379.321	8.66
379.683	8.68
380.045	8.59
380.407	8.44
380.769	8.39
381.13	8.34
381.492	8.31
381.854	8.25
382.216	8.22
382.578	8.18
382.939	8.08
383.301	7.91
383.663	7.86
384.024	7.83
384.386	7.74
384.747	7.67
385.109	7.64
385.47	7.57
385.832	7.44
386.193	7.42
386.554	7.29
386.916	7.3
387.277	7.2
387.638	7.23
387.999	7.22
388.36	7.17
388.721	7.13
389.082	7.1
389.443	7.05
389.804	7.01
390.165	6.93
390.526	6.88
390.887	6.89
391.248	6.8
391.609	6.78
391.969	6.73
392.33	6.72
392.691	6.67
393.051	6.62
393.412	6.62
393.772	6.56
394.133	6.53
394.493	6.41
394.854	6.31
395.214	6.24
395.574	6.19
395.935	6.17
396.295	6.11
396.655	6.03
397.015	5.99
397.376	5.93
397.736	5.91
398.096	5.89
398.456	5.88
398.816	5.83
399.176	5.7
399.535	5.67
399.895	5.65
400.255	5.61
400.615	5.6
400.975	5.56
401.334	5.53
401.694	5.53
402.054	5.53
402.413	5.56
402.773	5.55
403.132	5.53
403.492	5.47
403.851	5.44
404.211	5.46
404.57	5.42
404.929	5.4
405.288	5.32
405.648	5.33
406.007	5.25
406.366	5.25
406.725	5.27
407.084	5.26
407.443	5.22
407.802	5.18
408.161	5.15
408.52	5.14
408.879	5.11
409.238	5.09
409.596	5.1
409.955	5.07
410.314	5.05
410.673	5.02
411.031	5.04
411.39	5.01
411.748	5.01
412.107	4.98
412.465	4.97
412.824	4.97
413.182	4.95
413.54	4.97
413.899	4.95
414.257	4.94
414.615	4.9
414.974	4.86
415.332	4.86
415.69	4.84
416.048	4.79
416.406	4.74
416.764	4.7
417.122	4.66
417.48	4.65
417.838	4.63
418.195	4.62
418.553	4.58
418.911	4.59
419.269	4.55
419.626	4.55
419.984	4.52
420.342	4.51
420.699	4.47
421.057	4.44
421.414	4.45
421.772	4.41
422.129	4.42
422.486	4.42
422.844	4.4
423.201	4.41
423.558	4.38
423.915	4.39
424.273	4.39
424.63	4.39
424.987	4.37
425.344	4.35
425.701	4.34
426.058	4.32
426.415	4.31
426.772	4.31
427.128	4.31
427.485	4.32
427.842	4.31
428.199	4.3
428.555	4.3
428.912	4.28
429.269	4.3
429.625	4.29
429.982	4.26
430.338	4.28
430.695	4.25
431.051	4.25
431.407	4.23
431.764	4.19
432.12	4.2
432.476	4.22
432.832	4.21
433.189	4.21
433.545	4.23
433.901	4.22
434.257	4.21
434.613	4.19
434.969	4.19
435.325	4.19
435.681	4.18
436.036	4.17
436.392	4.16
436.748	4.15
437.104	4.15
437.459	4.13
437.815	4.13
438.171	4.14
438.526	4.14
438.882	4.16
439.237	4.17
439.593	4.16
439.948	4.14
440.304	4.12
440.659	4.12
441.014	4.11
441.369	4.11
441.725	4.11
442.08	4.1
442.435	4.08
442.79	4.08
443.145	4.09
443.5	4.09
443.855	4.08
444.21	4.08
444.565	4.08
444.92	4.08
445.275	4.07
445.629	4.05
445.984	4.05
446.339	4.06
446.693	4.05
447.048	4.03
447.403	4.02
447.757	4.04
448.112	4.03
448.466	4.03
448.82	4.01
449.175	4.02
449.529	4.03
449.883	4.02
450.238	4
450.592	3.97
450.946	3.97
451.3	3.98
451.654	3.98
452.008	3.96
452.362	3.97
452.716	3.96
453.07	3.95
453.424	3.93
453.778	3.91
454.132	3.9
454.486	3.91
454.839	3.92
455.193	3.91
455.547	3.9
455.9	3.89
456.254	3.9
456.607	3.9
456.961	3.9
457.314	3.92
457.668	3.94
458.021	3.97
458.375	3.94
458.728	3.95
459.081	3.96
459.434	3.95
459.787	3.96
460.141	3.97
460.494	3.98
460.847	3.98
461.2	4
461.553	4
461.906	4.03
462.259	4
462.611	4.02
462.964	4.04
463.317	4.06
463.67	4.07
464.022	4.07
464.375	4.07
464.728	4.06
465.08	4.06
465.433	4.06
465.785	4.09
466.138	4.09
466.49	4.08
466.843	4.1
467.195	4.11
467.547	4.09
467.899	4.09
468.252	4.11
468.604	4.12
468.956	4.12
469.308	4.11
469.66	4.17
470.012	4.15
470.364	4.15
470.716	4.15
471.068	4.15
471.42	4.15
471.772	4.16
472.123	4.17
472.475	4.17
472.827	4.17
473.178	4.17
473.53	4.19
473.882	4.21
474.233	4.21
474.585	4.19
474.936	4.22
475.288	4.23
475.639	4.22
475.99	4.19
476.342	4.2
476.693	4.19
477.044	4.2
477.395	4.18
477.746	4.18
478.097	4.19
478.448	4.19
478.8	4.18
479.15	4.17
479.501	4.16
479.852	4.14
480.203	4.13
480.554	4.14
480.905	4.14
481.255	4.13
481.606	4.13
481.957	4.13
482.307	4.12
482.658	4.12
483.009	4.13
483.359	4.13
483.709	4.13
484.06	4.13
484.41	4.13
484.761	4.14
485.111	4.15
485.461	4.14
485.811	4.14
486.162	4.15
486.512	4.16
486.862	4.17
487.212	4.17
487.562	4.17
487.912	4.18
488.262	4.18
488.612	4.19
488.961	4.2
489.311	4.22
489.661	4.23
490.011	4.25
490.36	4.26
490.71	4.28
491.06	4.29
491.409	4.31
491.759	4.32
492.108	4.32
492.458	4.31
492.807	4.34
493.157	4.35
493.506	4.38
493.855	4.37
494.204	4.4
494.554	4.43
494.903	4.45
495.252	4.46
495.601	4.48
495.95	4.52
496.299	4.55
496.648	4.58
496.997	4.6
497.346	4.64
497.695	4.66
498.043	4.69
498.392	4.74
498.741	4.79
499.09	4.83
499.438	4.89
499.787	4.94
500.135	4.99
500.484	5.05
500.832	5.09
501.181	5.16
501.529	5.22
501.878	5.29
502.226	5.36
502.574	5.43
502.923	5.48
503.271	5.54
503.619	5.6
503.967	5.65
504.315	5.75
504.663	5.77
505.011	5.84
505.359	5.91
505.707	5.96
506.055	6
506.403	6.08
506.751	6.15
507.098	6.23
507.446	6.3
507.794	6.35
508.141	6.41
508.489	6.5
508.837	6.57
509.184	6.63
509.531	6.69
509.879	6.76
510.226	6.83
510.574	6.91
510.921	7
511.268	7.09
511.616	7.15
511.963	7.25
512.31	7.34
512.657	7.43
513.004	7.51
513.351	7.6
513.698	7.68
514.045	7.79
514.392	7.9
514.739	8
515.086	8.15
515.432	8.26
515.779	8.36
516.126	8.47
516.473	8.57
516.819	8.69
517.166	8.81
517.512	8.93
517.859	9.02
518.205	9.08
518.552	9.17
518.898	9.29
519.245	9.39
519.591	9.5
519.937	9.58
520.283	9.72
520.629	9.84
520.976	9.97
521.322	10.09
521.668	10.25
522.014	10.39
522.36	10.52
522.706	10.69
523.052	10.87
523.398	11.04
523.743	11.28
524.089	11.45
524.435	11.6
524.781	11.76
525.126	11.94
525.472	12.12
525.817	12.27
526.163	12.42
526.509	12.55
526.854	12.67
527.199	12.8
527.545	12.93
527.89	13.08
528.235	13.2
528.581	13.34
528.926	13.45
529.271	13.59
529.616	13.72
529.961	13.85
530.306	13.99
530.651	14.13
530.996	14.26
531.341	14.43
531.686	14.63
532.031	14.8
532.376	14.98
532.721	15.14
533.065	15.32
533.41	15.49
533.755	15.73
534.099	15.91
534.444	16.13
534.788	16.31
535.133	16.48
535.477	16.69
535.822	16.89
536.166	17.13
536.51	17.36
536.855	17.62
537.199	17.87
537.543	18.14
537.887	18.44
538.231	18.73
538.576	18.97
538.92	19.23
539.264	19.5
539.608	19.73
539.951	19.97
540.295	20.21
540.639	20.43
540.983	20.61
541.327	20.84
541.671	21.06
542.014	21.29
542.358	21.52
542.701	21.72
543.045	21.9
543.389	22.12
543.732	22.35
544.075	22.55
544.419	22.8
544.762	23.02
545.105	23.22
545.449	23.48
545.792	23.77
546.135	24.01
546.478	24.26
546.821	24.54
547.165	24.86
547.508	25.14
547.851	25.42
548.194	25.72
548.536	25.97
548.879	26.22
549.222	26.52
549.565	26.81
549.908	27.1
550.25	27.47
550.593	27.77
550.936	28.05
551.278	28.31
551.621	28.55
551.963	28.86
552.306	29.13
552.648	29.38
552.991	29.62
553.333	29.95
553.675	30.24
554.017	30.5
554.36	30.76
554.702	31.03
555.044	31.3
555.386	31.57
555.728	31.86
556.07	32.17
556.412	32.4
556.754	32.68
557.096	32.97
557.438	33.21
557.78	33.49
558.121	33.68
558.463	34
558.805	34.32
559.147	34.6
559.488	34.86
559.83	35.17
560.171	35.44
560.513	35.64
560.854	35.92
561.196	36.21
561.537	36.48
561.878	36.75
562.22	37.04
562.561	37.28
562.902	37.55
563.243	37.74
563.584	38.02
563.925	38.25
564.266	38.52
564.607	38.76
564.948	38.95
565.289	39.23
565.63	39.45
565.971	39.69
566.312	39.88
566.653	40.08
566.993	40.24
567.334	40.43
567.675	40.69
568.015	40.89
568.356	41.15
568.696	41.31
569.037	41.47
569.377	41.65
569.718	41.91
570.058	42.11
570.398	42.36
570.739	42.49
571.079	42.66
571.419	42.82
571.759	43.03
572.099	43.23
572.439	43.39
572.779	43.63
573.119	43.77
573.459	43.91
573.799	44.13
574.139	44.33
574.479	44.54
574.819	44.67
575.158	44.86
575.498	44.9
575.838	45.07
576.177	45.25
576.517	45.4
576.856	45.55
577.196	45.7
577.535	45.85
577.875	46.05
578.214	46.23
578.553	46.36
578.893	46.49
579.232	46.65
579.571	46.85
579.91	46.89
580.25	47.08
580.589	47.24
580.928	47.39
581.267	47.53
581.606	47.62
581.945	47.72
582.283	47.82
582.622	48.05
582.961	48.19
583.3	48.32
583.639	48.47
583.977	48.5
584.316	48.63
584.654	48.76
584.993	48.93
585.332	49.06
585.67	49.24
586.008	49.31
586.347	49.4
586.685	49.46
587.024	49.55
587.362	49.58
587.7	49.76
588.038	49.75
588.376	49.78
588.715	49.86
589.053	49.89
589.391	49.96
589.729	50.1
590.067	50.26
590.404	50.37
590.742	50.43
591.08	50.56
591.418	50.61
591.756	50.6
592.093	50.63
592.431	50.64
592.769	50.71
593.106	50.8
593.444	50.96
593.781	51.1
594.119	51.2
594.456	51.33
594.793	51.33
595.131	51.43
595.468	51.57
595.805	51.74
596.143	51.91
596.48	52.01
596.817	52.03
597.154	52.11
597.491	52.17
597.828	52.23
598.165	52.35
598.502	52.51
598.839	52.63
599.176	52.71
599.512	52.82
599.849	52.96
600.186	53.01
600.523	53.15
600.859	53.21
601.196	53.39
601.532	53.44
601.869	53.55
602.205	53.66
602.542	53.69
602.878	53.77
603.215	53.84
603.551	53.88
603.887	53.96
604.223	53.95
604.56	54.04
604.896	54.12
605.232	54.14
605.568	54.19
605.904	54.28
606.24	54.35
606.576	54.38
606.912	54.34
607.248	54.41
607.583	54.37
607.919	54.38
608.255	54.28
608.591	54.38
608.926	54.46
609.262	54.49
609.597	54.56
609.933	54.49
610.268	54.53
610.604	54.6
610.939	54.64
611.275	54.68
611.61	54.72
611.945	54.68
612.281	54.72
612.616	54.65
612.951	54.59
613.286	54.65
613.621	54.64
613.956	54.7
614.291	54.74
614.626	54.72
614.961	54.75
615.296	54.91
615.631	54.83
615.966	54.86
616.3	54.84
616.635	54.91
616.97	54.92
617.304	54.93
617.639	54.91
617.973	54.93
618.308	54.95
618.642	55.03
618.977	55.09
619.311	55.03
619.646	55.06
619.98	55.15
620.314	55.09
620.648	55.14
620.983	55.16
621.317	55.2
621.651	55.25
621.985	55.32
622.319	55.3
622.653	55.43
622.987	55.41
623.321	55.47
623.655	55.52
623.988	55.66
624.322	55.72
624.656	55.73
624.99	55.68
625.323	55.75
625.657	55.72
625.99	55.79
626.324	55.83
626.657	55.94
626.991	55.92
627.324	55.95
627.658	56.06
627.991	56.13
628.324	56.22
628.657	56.3
628.991	56.31
629.324	56.38
629.657	56.4
629.99	56.46
630.323	56.57
630.656	56.5
630.989	56.4
631.322	56.41
631.655	56.53
631.987	56.65
632.32	56.67
632.653	56.63
632.986	56.69
633.318	56.84
633.651	56.79
633.984	56.84
634.316	56.89
634.649	56.79
634.981	56.81
635.313	56.8
635.646	56.68
635.978	56.72
636.31	56.73
636.643	56.72
636.975	56.67
637.307	56.71
637.639	56.73
637.971	56.84
638.303	56.8
638.635	56.82
638.967	56.77
639.299	56.69
639.631	56.78
639.963	56.72
640.295	56.62
640.626	56.6
640.958	56.56
641.29	56.67
641.621	56.66
641.953	56.52
642.285	56.46
642.616	56.54
642.948	56.48
643.279	56.46
643.61	56.51
643.942	56.55
644.273	56.42
644.604	56.53
644.936	56.55
645.267	56.59
645.598	56.55
645.929	56.56
646.26	56.49
646.591	56.48
646.922	56.45
647.253	56.64
647.584	56.61
647.915	56.59
648.245	56.47
648.576	56.57
648.907	56.7
649.238	56.74
649.568	56.76
649.899	56.71
650.229	56.77
650.56	56.68
650.89	56.66
651.221	56.84
651.551	56.78
651.882	56.79
652.212	56.9
652.542	56.94
652.872	57
653.203	57.12
653.533	57.16
653.863	57.2
654.193	57.07
654.523	57.29
654.853	57.47
655.183	57.49
655.513	57.52
655.843	57.51
656.172	57.46
656.502	57.47
656.832	57.53
657.162	57.54
657.491	57.62
657.821	57.66
658.15	57.52
658.48	57.69
658.809	57.83
659.139	57.75
659.468	57.74
659.798	57.72
660.127	57.68
660.456	57.66
660.785	57.77
661.115	57.73
661.444	57.62
661.773	57.55
662.102	57.46
662.431	57.4
662.76	57.41
663.089	57.59
663.418	57.59
663.747	57.63
664.076	57.5
664.404	57.54
664.733	57.62
665.062	57.63
665.39	57.44
665.719	57.29
666.048	57.32
666.376	57.27
