Data from BA53411_Reflection_00010.txt Node
Date: Tue Nov 19 11:53:50 EST 2019
User: vgr7
Spectrometer: USB2G7710
Scans to average: 3
Trigger mode: 4
Integration Time (sec): 2.000000E-2
Electric dark correction enabled: true
Boxcar width: 10
XAxis mode: Wavelengths
Number of Pixels in Spectrum: 2048
>>>>>Begin Spectral Data<<<<<
177.721	39.54
178.105	40.07
178.488	12.56
178.871	28.25
179.254	39.84
179.636	60.51
180.019	628.46
180.402	344.44
180.785	-49.02
181.168	114.37
181.55	94.49
181.933	65.24
182.316	146.95
182.698	36.13
183.081	-12.63
183.463	-18.95
183.846	-28.76
184.228	-19.71
184.611	-25.16
184.993	-26.5
185.376	-9.57
185.758	-40.6
186.14	-90.8
186.522	2338.1
186.904	1077.78
187.287	-298.01
187.669	-233.33
188.051	-67.37
188.433	-7.96
188.815	-16.58
189.197	-13.7
189.579	-123.63
189.961	-76.87
190.342	-403.55
190.724	-90.48
191.106	-4455.56
191.488	301.06
191.869	104.09
192.251	54.15
192.633	77.68
193.014	68.49
193.396	-0.97
193.777	-37.25
194.159	-61.36
194.54	-32.64
194.922	26.94
195.303	71.01
195.684	444.09
196.065	121.1
196.447	205.82
196.828	205.82
197.209	1729.63
197.59	214.7
197.971	605.38
198.352	25.93
198.733	-272.55
199.114	202.88
199.495	203.98
199.876	155.98
200.257	58.82
200.638	75.57
201.018	60.08
201.399	-85.65
201.78	-111.84
202.16	-1233.33
202.541	-11.11
202.922	8.14
203.302	103.66
203.683	-309.52
204.063	-1966.67
204.444	-23.46
204.824	90.48
205.204	195.24
205.585	302.9
205.965	31.9
206.345	-1233.33
206.725	658.56
207.106	274.04
207.486	227.54
207.866	465.3
208.246	190.56
208.626	-1935.09
209.006	5338.1
209.386	-426.1
209.766	-380.7
210.145	-216.57
210.525	-127.21
210.905	-136.9
211.285	-137.64
211.664	-145.39
212.044	-184.82
212.424	-170.35
212.803	-63.47
213.183	-73.98
213.562	-79.84
213.942	-86
214.321	-67.55
214.701	-2.82
215.08	8.96
215.459	-21.51
215.838	28.49
216.218	32.98
216.597	-523.19
216.976	322.22
217.355	247.19
217.734	509.36
218.113	-800.9
218.492	-1449.02
218.871	-307.41
219.25	-287.21
219.629	-837.98
220.008	-11344.44
220.387	-369.84
220.766	-56.86
221.144	-36.02
221.523	-74.52
221.902	-69.66
222.28	-76.61
222.659	-19.1
223.037	-13.14
223.416	-24.9
223.794	10.91
224.173	-3.74
224.551	21.53
224.929	32.13
225.308	21.67
225.686	24.07
226.064	18.26
226.442	13.05
226.821	12.13
227.199	17.24
227.577	18.31
227.955	15.23
228.333	13.05
228.711	7.34
229.089	1.72
229.467	-0.29
229.845	-0.55
230.222	6.75
230.6	4.54
230.978	5.88
231.356	6.97
231.733	4
232.111	3.57
232.488	3.58
232.866	4.09
233.243	3.88
233.621	3.75
233.998	4.8
234.376	5.54
234.753	5.96
235.13	6.8
235.508	6.1
235.885	6.21
236.262	5.17
236.639	4.61
237.016	5.44
237.393	8.62
237.77	9.23
238.147	8.22
238.524	8.04
238.901	6.4
239.278	5.99
239.655	6.4
240.032	6.88
240.409	6.15
240.785	4.61
241.162	4.79
241.539	4.86
241.915	5.36
242.292	5.21
242.668	4.87
243.045	4.84
243.421	5.68
243.798	5.42
244.174	5.91
244.551	6.04
244.927	5.79
245.303	5.58
245.679	5.62
246.056	5.68
246.432	5.92
246.808	5.89
247.184	6.28
247.56	6.16
247.936	6.2
248.312	6.21
248.688	6.48
249.064	6.52
249.44	6.27
249.815	6.39
250.191	6.22
250.567	5.89
250.943	5.93
251.318	5.4
251.694	5.53
252.069	5.96
252.445	5.93
252.82	6.24
253.196	5.97
253.571	5.95
253.947	5.82
254.322	5.62
254.697	5.51
255.073	5.13
255.448	4.87
255.823	4.87
256.198	4.83
256.573	4.96
256.948	4.89
257.323	5.09
257.698	4.86
258.073	5.01
258.448	5.18
258.823	5.11
259.198	5.37
259.573	5.12
259.948	4.75
260.322	4.83
260.697	4.85
261.072	4.93
261.446	5.09
261.821	4.96
262.195	4.84
262.57	4.92
262.944	4.98
263.319	4.97
263.693	4.86
264.067	4.95
264.442	4.67
264.816	4.51
265.19	4.46
265.564	4.31
265.938	4.6
266.313	4.53
266.687	4.3
267.061	4.21
267.435	4.51
267.809	4.62
268.183	4.6
268.556	4.45
268.93	4.49
269.304	4.35
269.678	4.57
270.051	4.48
270.425	4.5
270.799	4.36
271.172	4.49
271.546	4.55
271.919	4.4
272.293	4.62
272.666	4.71
273.04	4.78
273.413	4.95
273.787	4.73
274.16	4.7
274.533	4.85
274.906	4.8
275.279	4.73
275.653	4.76
276.026	4.89
276.399	4.9
276.772	4.93
277.145	4.76
277.518	4.58
277.891	4.76
278.263	4.77
278.636	4.89
279.009	4.78
279.382	4.73
279.755	4.82
280.127	4.74
280.5	4.8
280.872	4.75
281.245	4.72
281.617	4.78
281.99	4.87
282.362	4.85
282.735	4.84
283.107	4.71
283.479	4.61
283.852	4.43
284.224	4.5
284.596	4.42
284.968	4.64
285.34	4.68
285.713	4.82
286.085	4.93
286.457	5.01
286.829	5.2
287.201	5.32
287.572	5.4
287.944	5.56
288.316	5.64
288.688	5.74
289.06	5.84
289.431	5.76
289.803	5.76
290.175	5.84
290.546	5.89
290.918	6.13
291.289	6.23
291.661	6.34
292.032	6.28
292.403	6.39
292.775	6.14
293.146	6.19
293.517	5.89
293.889	5.74
294.26	5.67
294.631	5.69
295.002	5.6
295.373	5.59
295.744	5.49
296.115	5.64
296.486	5.61
296.857	5.64
297.228	5.59
297.599	5.57
297.97	5.59
298.34	5.54
298.711	5.41
299.082	5.26
299.452	5.17
299.823	5.15
300.194	5.07
300.564	5.22
300.935	5.26
301.305	5.38
301.676	5.45
302.046	5.48
302.416	5.36
302.787	5.33
303.157	5.18
303.527	5.23
303.897	5.05
304.267	5.09
304.637	4.98
305.008	5.06
305.378	5.13
305.748	5.2
306.117	5.39
306.487	5.53
306.857	5.74
307.227	5.94
307.597	6.09
307.967	6.23
308.336	6.38
308.706	6.33
309.076	6.53
309.445	6.55
309.815	6.47
310.184	6.5
310.554	6.53
310.923	6.62
311.293	6.67
311.662	6.77
312.031	6.56
312.401	6.4
312.77	6.52
313.139	6.63
313.508	6.66
313.877	6.58
314.246	6.59
314.616	6.49
314.985	6.44
315.353	6.44
315.722	6.47
316.091	6.38
316.46	6.39
316.829	6.25
317.198	6.54
317.567	6.82
317.935	6.79
318.304	7.05
318.672	7.16
319.041	7.06
319.41	6.97
319.778	7.15
320.147	7.35
320.515	7.21
320.883	7.27
321.252	7.09
321.62	7.19
321.988	7.22
322.357	7.41
322.725	7.52
323.093	7.4
323.461	7.37
323.829	7.29
324.197	7.38
324.565	7.49
324.933	7.35
325.301	7.03
325.669	7.13
326.037	7.01
326.405	6.92
326.772	7.09
327.14	6.99
327.508	7.07
327.875	7.19
328.243	7.09
328.61	7.1
328.978	7.21
329.346	7.15
329.713	7.1
330.08	7.06
330.448	6.97
330.815	6.96
331.182	7.03
331.55	7.02
331.917	6.87
332.284	6.98
332.651	6.84
333.018	7.07
333.385	7
333.752	6.88
334.119	7.02
334.486	6.97
334.853	7.12
335.22	6.99
335.587	6.89
335.954	6.89
336.32	6.73
336.687	6.75
337.054	6.86
337.42	6.84
337.787	6.69
338.153	6.68
338.52	6.75
338.886	6.73
339.253	6.88
339.619	7.01
339.986	6.82
340.352	7.09
340.718	7.05
341.084	7.16
341.451	7.26
341.817	7.18
342.183	7.24
342.549	7.19
342.915	7.33
343.281	7.41
343.647	7.48
344.013	7.59
344.379	7.51
344.745	7.44
345.11	7.52
345.476	7.72
345.842	7.73
346.208	7.78
346.573	7.7
346.939	7.59
347.304	7.6
347.67	7.59
348.035	7.37
348.401	7.42
348.766	7.37
349.132	7.41
349.497	7.51
349.862	7.34
350.228	7.51
350.593	7.53
350.958	7.53
351.323	7.55
351.688	7.47
352.053	7.47
352.418	7.44
352.783	7.37
353.148	7.32
353.513	7.28
353.878	7.3
354.243	7.24
354.608	7.32
354.972	7.37
355.337	7.39
355.702	7.47
356.066	7.33
356.431	7.31
356.795	7.31
357.16	7.22
357.524	7.22
357.889	7.22
358.253	7.16
358.618	7.14
358.982	7.2
359.346	7.22
359.71	7.22
360.075	7.2
360.439	7.2
360.803	7.27
361.167	7.21
361.531	7.14
361.895	7.21
362.259	7.22
362.623	7.13
362.987	7.18
363.351	7.15
363.714	7.25
364.078	7.27
364.442	7.24
364.806	7.29
365.169	7.31
365.533	7.2
365.896	7.19
366.26	7.16
366.623	7.1
366.987	7.14
367.35	7.16
367.714	7.18
368.077	7.16
368.44	7.15
368.803	7.15
369.167	7.16
369.53	7.02
369.893	7.01
370.256	6.98
370.619	6.85
370.982	6.84
371.345	6.8
371.708	6.77
372.071	6.77
372.434	6.71
372.797	6.73
373.159	6.65
373.522	6.59
373.885	6.57
374.247	6.56
374.61	6.47
374.973	6.48
375.335	6.47
375.698	6.38
376.06	6.33
376.423	6.31
376.785	6.28
377.147	6.35
377.51	6.29
377.872	6.32
378.234	6.38
378.596	6.34
378.958	6.33
379.321	6.24
379.683	6.22
380.045	6.17
380.407	6.15
380.769	6.16
381.13	6.2
381.492	6.2
381.854	6.07
382.216	6.03
382.578	6.02
382.939	5.99
383.301	6.02
383.663	5.97
384.024	6.01
384.386	5.94
384.747	5.91
385.109	5.89
385.47	5.87
385.832	5.8
386.193	5.75
386.554	5.68
386.916	5.75
387.277	5.71
387.638	5.71
387.999	5.68
388.36	5.64
388.721	5.69
389.082	5.67
389.443	5.78
389.804	5.8
390.165	5.76
390.526	5.74
390.887	5.71
391.248	5.71
391.609	5.7
391.969	5.71
392.33	5.7
392.691	5.68
393.051	5.67
393.412	5.71
393.772	5.71
394.133	5.71
394.493	5.63
394.854	5.61
395.214	5.6
395.574	5.6
395.935	5.57
396.295	5.5
396.655	5.46
397.015	5.41
397.376	5.39
397.736	5.33
398.096	5.37
398.456	5.39
398.816	5.39
399.176	5.31
399.535	5.3
399.895	5.27
400.255	5.23
400.615	5.22
400.975	5.17
401.334	5.17
401.694	5.16
402.054	5.17
402.413	5.18
402.773	5.16
403.132	5.14
403.492	5.16
403.851	5.18
404.211	5.17
404.57	5.17
404.929	5.14
405.288	5.15
405.648	5.1
406.007	5.08
406.366	5.07
406.725	5.1
407.084	5.1
407.443	5.11
407.802	5.12
408.161	5.12
408.52	5.12
408.879	5.07
409.238	5.07
409.596	5.08
409.955	5.06
410.314	5.08
410.673	5.1
411.031	5.08
411.39	5.06
411.748	5.08
412.107	5.07
412.465	5.06
412.824	5.02
413.182	5.03
413.54	5.02
413.899	5
414.257	4.98
414.615	4.99
414.974	4.99
415.332	4.97
415.69	4.92
416.048	4.93
416.406	4.92
416.764	4.91
417.122	4.89
417.48	4.89
417.838	4.87
418.195	4.82
418.553	4.81
418.911	4.8
419.269	4.79
419.626	4.78
419.984	4.79
420.342	4.8
420.699	4.8
421.057	4.8
421.414	4.8
421.772	4.8
422.129	4.79
422.486	4.78
422.844	4.8
423.201	4.82
423.558	4.82
423.915	4.83
424.273	4.83
424.63	4.85
424.987	4.82
425.344	4.82
425.701	4.86
426.058	4.86
426.415	4.86
426.772	4.87
427.128	4.88
427.485	4.87
427.842	4.86
428.199	4.87
428.555	4.86
428.912	4.82
429.269	4.81
429.625	4.8
429.982	4.8
430.338	4.78
430.695	4.78
431.051	4.78
431.407	4.77
431.764	4.75
432.12	4.75
432.476	4.78
432.832	4.77
433.189	4.76
433.545	4.77
433.901	4.74
434.257	4.71
434.613	4.7
434.969	4.71
435.325	4.71
435.681	4.69
436.036	4.7
436.392	4.73
436.748	4.72
437.104	4.71
437.459	4.71
437.815	4.71
438.171	4.69
438.526	4.69
438.882	4.7
439.237	4.71
439.593	4.71
439.948	4.69
440.304	4.68
440.659	4.67
441.014	4.67
441.369	4.68
441.725	4.69
442.08	4.68
442.435	4.66
442.79	4.66
443.145	4.66
443.5	4.64
443.855	4.63
444.21	4.64
444.565	4.66
444.92	4.66
445.275	4.65
445.629	4.66
445.984	4.63
446.339	4.63
446.693	4.63
447.048	4.62
447.403	4.61
447.757	4.61
448.112	4.63
448.466	4.61
448.82	4.61
449.175	4.61
449.529	4.63
449.883	4.63
450.238	4.62
450.592	4.62
450.946	4.66
451.3	4.67
451.654	4.65
452.008	4.62
452.362	4.63
452.716	4.62
453.07	4.61
453.424	4.63
453.778	4.61
454.132	4.6
454.486	4.61
454.839	4.61
455.193	4.63
455.547	4.63
455.9	4.64
456.254	4.63
456.607	4.6
456.961	4.57
457.314	4.58
457.668	4.59
458.021	4.57
458.375	4.55
458.728	4.53
459.081	4.54
459.434	4.57
459.787	4.56
460.141	4.58
460.494	4.59
460.847	4.59
461.2	4.59
461.553	4.59
461.906	4.59
462.259	4.61
462.611	4.59
462.964	4.6
463.317	4.6
463.67	4.61
464.022	4.65
464.375	4.67
464.728	4.67
465.08	4.66
465.433	4.68
465.785	4.68
466.138	4.7
466.49	4.72
466.843	4.71
467.195	4.71
467.547	4.7
467.899	4.72
468.252	4.73
468.604	4.76
468.956	4.74
469.308	4.71
469.66	4.71
470.012	4.71
470.364	4.69
470.716	4.67
471.068	4.68
471.42	4.68
471.772	4.69
472.123	4.69
472.475	4.71
472.827	4.72
473.178	4.72
473.53	4.74
473.882	4.74
474.233	4.7
474.585	4.72
474.936	4.72
475.288	4.68
475.639	4.69
475.99	4.67
476.342	4.72
476.693	4.74
477.044	4.73
477.395	4.72
477.746	4.74
478.097	4.75
478.448	4.74
478.8	4.74
479.15	4.75
479.501	4.75
479.852	4.74
480.203	4.74
480.554	4.73
480.905	4.73
481.255	4.73
481.606	4.75
481.957	4.75
482.307	4.75
482.658	4.77
483.009	4.75
483.359	4.75
483.709	4.75
484.06	4.76
484.41	4.77
484.761	4.79
485.111	4.79
485.461	4.8
485.811	4.8
486.162	4.79
486.512	4.79
486.862	4.79
487.212	4.8
487.562	4.8
487.912	4.81
488.262	4.81
488.612	4.82
488.961	4.84
489.311	4.83
489.661	4.83
490.011	4.83
490.36	4.84
490.71	4.86
491.06	4.85
491.409	4.84
491.759	4.85
492.108	4.84
492.458	4.84
492.807	4.84
493.157	4.85
493.506	4.85
493.855	4.86
494.204	4.87
494.554	4.87
494.903	4.88
495.252	4.89
495.601	4.89
495.95	4.89
496.299	4.89
496.648	4.91
496.997	4.91
497.346	4.94
497.695	4.93
498.043	4.96
498.392	4.98
498.741	4.98
499.09	5
499.438	5.01
499.787	5
500.135	5.04
500.484	5.07
500.832	5.12
501.181	5.14
501.529	5.17
501.878	5.2
502.226	5.21
502.574	5.21
502.923	5.22
503.271	5.24
503.619	5.28
503.967	5.31
504.315	5.36
504.663	5.38
505.011	5.42
505.359	5.39
505.707	5.41
506.055	5.44
506.403	5.45
506.751	5.44
507.098	5.48
507.446	5.51
507.794	5.5
508.141	5.51
508.489	5.55
508.837	5.56
509.184	5.59
509.531	5.63
509.879	5.66
510.226	5.68
510.574	5.7
510.921	5.72
511.268	5.74
511.616	5.77
511.963	5.8
512.31	5.84
512.657	5.91
513.004	5.94
513.351	5.97
513.698	6.01
514.045	6.07
514.392	6.11
514.739	6.15
515.086	6.22
515.432	6.27
515.779	6.31
516.126	6.38
516.473	6.43
516.819	6.49
517.166	6.53
517.512	6.61
517.859	6.65
518.205	6.67
518.552	6.7
518.898	6.76
519.245	6.8
519.591	6.86
519.937	6.91
520.283	6.98
520.629	7.03
520.976	7.08
521.322	7.17
521.668	7.23
522.014	7.28
522.36	7.33
522.706	7.41
523.052	7.45
523.398	7.54
523.743	7.62
524.089	7.71
524.435	7.82
524.781	7.89
525.126	7.96
525.472	8.06
525.817	8.14
526.163	8.2
526.509	8.27
526.854	8.33
527.199	8.38
527.545	8.44
527.89	8.49
528.235	8.56
528.581	8.61
528.926	8.69
529.271	8.75
529.616	8.84
529.961	8.91
530.306	9
530.651	9.06
530.996	9.14
531.341	9.23
531.686	9.33
532.031	9.44
532.376	9.56
532.721	9.67
533.065	9.79
533.41	9.91
533.755	10.04
534.099	10.17
534.444	10.3
534.788	10.44
535.133	10.59
535.477	10.72
535.822	10.89
536.166	11.06
536.51	11.25
536.855	11.43
537.199	11.61
537.543	11.82
537.887	12.08
538.231	12.3
538.576	12.51
538.92	12.71
539.264	12.88
539.608	13.06
539.951	13.23
540.295	13.41
540.639	13.6
540.983	13.78
541.327	13.95
541.671	14.15
542.014	14.31
542.358	14.48
542.701	14.67
543.045	14.83
543.389	15.01
543.732	15.19
544.075	15.4
544.419	15.59
544.762	15.76
545.105	15.97
545.449	16.18
545.792	16.42
546.135	16.65
546.478	16.92
546.821	17.18
547.165	17.46
547.508	17.73
547.851	18
548.194	18.25
548.536	18.52
548.879	18.81
549.222	19.14
549.565	19.43
549.908	19.71
550.25	20.02
550.593	20.29
550.936	20.62
551.278	20.89
551.621	21.26
551.963	21.62
552.306	21.92
552.648	22.23
552.991	22.54
553.333	22.82
553.675	23.13
554.017	23.43
554.36	23.75
554.702	24.05
555.044	24.3
555.386	24.57
555.728	24.84
556.07	25.09
556.412	25.35
556.754	25.66
557.096	26.02
557.438	26.31
557.78	26.62
558.121	26.92
558.463	27.23
558.805	27.5
559.147	27.79
559.488	28.06
559.83	28.38
560.171	28.62
560.513	28.92
560.854	29.22
561.196	29.54
561.537	29.83
561.878	30.08
562.22	30.38
562.561	30.76
562.902	31.09
563.243	31.42
563.584	31.71
563.925	32.04
564.266	32.32
564.607	32.7
564.948	33.02
565.289	33.32
565.63	33.65
565.971	33.92
566.312	34.18
566.653	34.47
566.993	34.74
567.334	35.07
567.675	35.37
568.015	35.65
568.356	35.94
568.696	36.16
569.037	36.5
569.377	36.78
569.718	36.99
570.058	37.28
570.398	37.55
570.739	37.87
571.079	38.07
571.419	38.3
571.759	38.45
572.099	38.67
572.439	38.86
572.779	39.05
573.119	39.29
573.459	39.54
573.799	39.76
574.139	39.94
574.479	40.15
574.819	40.36
575.158	40.6
575.498	40.8
575.838	41.04
576.177	41.24
576.517	41.52
576.856	41.77
577.196	41.99
577.535	42.23
577.875	42.48
578.214	42.65
578.553	42.89
578.893	43.12
579.232	43.34
579.571	43.59
579.91	43.82
580.25	43.97
580.589	44.1
580.928	44.28
581.267	44.51
581.606	44.71
581.945	44.9
582.283	45.08
582.622	45.24
582.961	45.51
583.3	45.69
583.639	45.81
583.977	45.97
584.316	46.14
584.654	46.3
584.993	46.4
585.332	46.73
585.67	46.86
586.008	47.04
586.347	47.29
586.685	47.48
587.024	47.67
587.362	47.9
587.7	48.09
588.038	48.3
588.376	48.5
588.715	48.61
589.053	48.79
589.391	48.91
589.729	49.13
590.067	49.33
590.404	49.51
590.742	49.65
591.08	49.86
591.418	49.99
591.756	50.05
592.093	50.25
592.431	50.32
592.769	50.49
593.106	50.7
593.444	50.8
593.781	50.98
594.119	51.13
594.456	51.24
594.793	51.46
595.131	51.57
595.468	51.68
595.805	51.89
596.143	51.92
596.48	52.07
596.817	52.18
597.154	52.19
597.491	52.19
597.828	52.25
598.165	52.36
598.502	52.46
598.839	52.64
599.176	52.71
599.512	52.92
599.849	53.08
600.186	53.17
600.523	53.18
600.859	53.22
601.196	53.27
601.532	53.38
601.869	53.46
602.205	53.64
602.542	53.74
602.878	53.79
603.215	53.91
603.551	53.99
603.887	54.09
604.223	54.24
604.56	54.36
604.896	54.55
605.232	54.58
605.568	54.67
605.904	54.73
606.24	54.87
606.576	54.87
606.912	54.9
607.248	54.98
607.583	55.16
607.919	55.29
608.255	55.44
608.591	55.56
608.926	55.61
609.262	55.62
609.597	55.68
609.933	55.69
610.268	55.78
610.604	55.76
610.939	55.8
611.275	55.8
611.61	55.96
611.945	55.94
612.281	56
612.616	56.09
612.951	56.18
613.286	56.21
613.621	56.24
613.956	56.38
614.291	56.49
614.626	56.58
614.961	56.64
615.296	56.65
615.631	56.71
615.966	56.74
616.3	56.78
616.635	56.8
616.97	56.97
617.304	57.05
617.639	57.19
617.973	57.22
618.308	57.25
618.642	57.27
618.977	57.46
619.311	57.49
619.646	57.58
619.98	57.61
620.314	57.61
620.648	57.76
620.983	57.71
621.317	57.66
621.651	57.64
621.985	57.65
622.319	57.7
622.653	57.78
622.987	57.87
623.321	57.99
623.655	58.2
623.988	58.32
624.322	58.34
624.656	58.43
624.99	58.48
625.323	58.59
625.657	58.57
625.99	58.51
626.324	58.66
626.657	58.65
626.991	58.75
627.324	58.71
627.658	58.68
627.991	58.78
628.324	58.89
628.657	58.96
628.991	59.12
629.324	59.16
629.657	59.16
629.99	59.17
630.323	59.23
630.656	59.19
630.989	59.09
631.322	59.19
631.655	59.24
631.987	59.37
632.32	59.41
632.653	59.56
632.986	59.68
633.318	59.59
633.651	59.66
633.984	59.68
634.316	59.79
634.649	59.85
634.981	59.93
635.313	59.91
635.646	59.89
635.978	59.77
636.31	59.87
636.643	59.76
636.975	59.83
637.307	59.85
637.639	59.86
637.971	59.86
638.303	59.84
638.635	59.85
638.967	59.75
639.299	59.74
639.631	59.67
639.963	59.6
640.295	59.78
640.626	59.82
640.958	59.89
641.29	60
641.621	60.02
641.953	60
642.285	60.08
642.616	60.22
642.948	60.31
643.279	60.3
643.61	60.37
643.942	60.33
644.273	60.32
644.604	60.39
644.936	60.44
645.267	60.52
645.598	60.44
645.929	60.47
646.26	60.41
646.591	60.41
646.922	60.52
647.253	60.49
647.584	60.57
647.915	60.58
648.245	60.59
648.576	60.64
648.907	60.67
649.238	60.78
649.568	60.73
649.899	60.74
650.229	60.74
650.56	60.83
650.89	60.94
651.221	60.97
651.551	61.04
651.882	61.22
652.212	61.21
652.542	61.29
652.872	61.36
653.203	61.62
653.533	61.72
653.863	61.72
654.193	61.77
654.523	61.81
654.853	61.92
655.183	61.91
655.513	61.98
655.843	62.13
656.172	62.1
656.502	62.29
656.832	62.37
657.162	62.4
657.491	62.5
657.821	62.52
658.15	62.53
658.48	62.6
658.809	62.51
659.139	62.51
659.468	62.57
659.798	62.65
660.127	62.5
660.456	62.5
660.785	62.5
661.115	62.47
661.444	62.55
661.773	62.53
662.102	62.59
662.431	62.6
662.76	62.7
663.089	62.67
663.418	62.52
663.747	62.52
664.076	62.67
664.404	62.66
664.733	62.64
665.062	62.63
665.39	62.52
665.719	62.58
666.048	62.57
666.376	62.55
666.705	62.54
667.033	62.72
667.362	62.75
667.69	62.78
668.018	62.86
