Data from BA53509_Reflection_00006.txt Node
Date: Tue Nov 19 11:46:30 EST 2019
User: vgr7
Spectrometer: USB2G7710
Scans to average: 3
Trigger mode: 4
Integration Time (sec): 2.000000E-2
Electric dark correction enabled: true
Boxcar width: 10
XAxis mode: Wavelengths
Number of Pixels in Spectrum: 2048
>>>>>Begin Spectral Data<<<<<
177.721	212.43
178.105	-150
178.488	-205.34
178.871	-357.14
179.254	20
179.636	93.9
180.019	-448.39
180.402	125
180.785	111.76
181.168	52.83
181.55	50.35
181.933	80.39
182.316	164.33
182.698	189.82
183.081	472.88
183.463	1002.44
183.846	-598.41
184.228	-814.89
184.611	3190.91
184.993	-239.13
185.376	-117.39
185.758	-221.1
186.14	-500
186.522	-294.9
186.904	-1055.56
187.287	-805.66
187.669	-328.57
188.051	-227.87
188.433	-207.19
188.815	-194.12
189.197	-121.18
189.579	-104.85
189.961	-114.46
190.342	-55.32
190.724	-35.43
191.106	-37.04
191.488	-21.72
191.869	-17.57
192.251	-21.16
192.633	-12.66
193.014	-12.01
193.396	-33.14
193.777	-20.89
194.159	-23.62
194.54	-26.09
194.922	-23.44
195.303	-28.14
195.684	-42.51
196.065	-42.68
196.447	-52.09
196.828	-37.13
197.209	-43.86
197.59	-27.86
197.971	-22.21
198.352	-37.25
198.733	-80.88
199.114	-91.34
199.495	-103.67
199.876	-98.4
200.257	-118.46
200.638	-154.28
201.018	-188.95
201.399	-158.76
201.78	-146.46
202.16	-190.2
202.541	-389.51
202.922	-276.68
203.302	-221.29
203.683	-154.55
204.063	-197.14
204.444	-98.88
204.824	-118.67
205.204	-88.26
205.585	-77.3
205.965	-61.49
206.345	-46.29
206.725	-29.26
207.106	-22.37
207.486	-11.93
207.866	-24.22
208.246	36.06
208.626	32.82
209.006	28.7
209.386	19.21
209.766	27.43
210.145	21.33
210.525	19.76
210.905	17.39
211.285	27.25
211.664	29.66
212.044	13.16
212.424	14.93
212.803	28.69
213.183	22.12
213.562	19.33
213.942	15.11
214.321	3.61
214.701	-6.34
215.08	2.44
215.459	28.99
215.838	20.83
216.218	5.84
216.597	8.37
216.976	1.53
217.355	20.4
217.734	-10.93
218.113	-4.13
218.492	13.76
218.871	15.15
219.25	-12.7
219.629	-14.45
220.008	-17.86
220.387	-18.58
220.766	-30.05
221.144	-21.06
221.523	-25.19
221.902	-30.26
222.28	-31.68
222.659	-23.58
223.037	-25.92
223.416	-31.34
223.794	-17.41
224.173	-19.21
224.551	-11.51
224.929	-12.14
225.308	-19.69
225.686	-18.95
226.064	-16.97
226.442	-18.1
226.821	-13.68
227.199	-12.05
227.577	-8.14
227.955	-2.49
228.333	0.12
228.711	0.12
229.089	-0.41
229.467	0.61
229.845	1.81
230.222	4.87
230.6	6.28
230.978	6.61
231.356	6.2
231.733	3.02
232.111	2.86
232.488	1.55
232.866	4.69
233.243	6.41
233.621	7.06
233.998	7.9
234.376	9.27
234.753	10.37
235.13	10.76
235.508	8.35
235.885	6.28
236.262	4.79
236.639	5.02
237.016	4.67
237.393	4.67
237.77	5.53
238.147	4.99
238.524	3.75
238.901	3.79
239.278	4.5
239.655	4.83
240.032	5.37
240.409	5.36
240.785	4.82
241.162	4.77
241.539	5.54
241.915	5.68
242.292	5.02
242.668	5.09
243.045	5.61
243.421	5.53
243.798	5.97
244.174	6.32
244.551	6.31
244.927	6.3
245.303	5.95
245.679	5.75
246.056	5.73
246.432	5.78
246.808	5.75
247.184	5.81
247.56	5.41
247.936	5.08
248.312	5.3
248.688	5.48
249.064	5.33
249.44	5.08
249.815	4.69
250.191	4.86
250.567	4.72
250.943	4.63
251.318	4.54
251.694	4.06
252.069	4.06
252.445	3.85
252.82	4.03
253.196	4.17
253.571	4.22
253.947	4.39
254.322	4.66
254.697	4.46
255.073	4.08
255.448	4.35
255.823	4.67
256.198	4.55
256.573	4.34
256.948	4.68
257.323	5.01
257.698	5.31
258.073	5.25
258.448	5.31
258.823	5.08
259.198	5.17
259.573	5.14
259.948	4.96
260.322	4.94
260.697	4.84
261.072	4.61
261.446	4.65
261.821	4.47
262.195	4.33
262.57	4.52
262.944	4.5
263.319	4.61
263.693	4.37
264.067	4.45
264.442	4.4
264.816	4.24
265.19	3.99
265.564	3.69
265.938	3.66
266.313	3.51
266.687	3.56
267.061	3.67
267.435	3.81
267.809	3.85
268.183	3.77
268.556	3.73
268.93	4.11
269.304	4.18
269.678	4.31
270.051	4.5
270.425	4.45
270.799	4.27
271.172	4.35
271.546	4.52
271.919	4.31
272.293	4.47
272.666	4.5
273.04	4.6
273.413	4.67
273.787	4.66
274.16	4.73
274.533	4.72
274.906	4.68
275.279	4.58
275.653	4.64
276.026	4.84
276.399	4.89
276.772	4.82
277.145	4.63
277.518	4.67
277.891	4.47
278.263	4.48
278.636	4.66
279.009	4.59
279.382	4.59
279.755	4.67
280.127	4.57
280.5	4.56
280.872	4.51
281.245	4.55
281.617	4.5
281.99	4.37
282.362	4.56
282.735	4.46
283.107	4.53
283.479	4.64
283.852	4.74
284.224	4.85
284.596	4.75
284.968	4.7
285.34	4.64
285.713	4.86
286.085	4.66
286.457	4.72
286.829	4.7
287.201	4.73
287.572	4.66
287.944	4.76
288.316	4.67
288.688	4.67
289.06	4.79
289.431	4.89
289.803	4.99
290.175	4.96
290.546	4.95
290.918	4.93
291.289	4.7
291.661	4.58
292.032	4.51
292.403	4.56
292.775	4.66
293.146	4.73
293.517	4.6
293.889	4.86
294.26	4.78
294.631	4.84
295.002	4.67
295.373	4.65
295.744	4.58
296.115	4.62
296.486	4.55
296.857	4.46
297.228	4.39
297.599	4.38
297.97	4.5
298.34	4.7
298.711	4.83
299.082	4.97
299.452	4.85
299.823	4.72
300.194	4.73
300.564	4.61
300.935	4.53
301.305	4.57
301.676	4.42
302.046	4.45
302.416	4.52
302.787	4.6
303.157	4.65
303.527	4.71
303.897	4.72
304.267	4.81
304.637	5
305.008	4.97
305.378	4.98
305.748	4.74
306.117	4.59
306.487	4.49
306.857	4.44
307.227	4.53
307.597	4.6
307.967	4.6
308.336	4.68
308.706	4.65
309.076	4.52
309.445	4.51
309.815	4.36
310.184	4.19
310.554	4.26
310.923	4.3
311.293	4.17
311.662	4.22
312.031	4.12
312.401	3.87
312.77	3.82
313.139	3.92
313.508	3.99
313.877	3.91
314.246	3.86
314.616	3.9
314.985	3.85
315.353	3.81
315.722	3.78
316.091	3.86
316.46	3.88
316.829	3.99
317.198	4.08
317.567	4.22
317.935	4.23
318.304	4.3
318.672	4.24
319.041	4.2
319.41	4.09
319.778	4.12
320.147	4.42
320.515	4.53
320.883	4.36
321.252	4.35
321.62	4.54
321.988	4.63
322.357	4.55
322.725	4.62
323.093	4.65
323.461	4.48
323.829	4.47
324.197	4.5
324.565	4.47
324.933	4.31
325.301	4.11
325.669	4.13
326.037	3.99
326.405	3.98
326.772	4.19
327.14	4.19
327.508	4.19
327.875	4.02
328.243	3.98
328.61	3.85
328.978	3.75
329.346	3.56
329.713	3.6
330.08	3.61
330.448	3.53
330.815	3.62
331.182	3.59
331.55	3.52
331.917	3.36
332.284	3.38
332.651	3.52
333.018	3.85
333.385	3.9
333.752	3.99
334.119	4.04
334.486	3.79
334.853	3.82
335.22	3.88
335.587	3.87
335.954	3.95
336.32	3.98
336.687	4.07
337.054	4.15
337.42	4.15
337.787	4.06
338.153	4.16
338.52	4.23
338.886	4.31
339.253	4.36
339.619	4.54
339.986	4.6
340.352	4.51
340.718	4.42
341.084	4.39
341.451	4.36
341.817	4.39
342.183	4.39
342.549	4.43
342.915	4.41
343.281	4.47
343.647	4.38
344.013	4.37
344.379	4.36
344.745	4.47
345.11	4.43
345.476	4.51
345.842	4.46
346.208	4.32
346.573	4.35
346.939	4.33
347.304	4.35
347.67	4.3
348.035	4.41
348.401	4.49
348.766	4.53
349.132	4.62
349.497	4.61
349.862	4.67
350.228	4.63
350.593	4.55
350.958	4.57
351.323	4.57
351.688	4.67
352.053	4.71
352.418	4.55
352.783	4.56
353.148	4.53
353.513	4.59
353.878	4.56
354.243	4.47
354.608	4.54
354.972	4.53
355.337	4.53
355.702	4.4
356.066	4.39
356.431	4.29
356.795	4.22
357.16	4.21
357.524	4.19
357.889	4.19
358.253	4.25
358.618	4.23
358.982	4.28
359.346	4.25
359.71	4.19
360.075	4.18
360.439	4.19
360.803	4.19
361.167	4.09
361.531	4.13
361.895	4.19
362.259	4.14
362.623	4.14
362.987	4.09
363.351	4.13
363.714	4.08
364.078	4.11
364.442	4.07
364.806	4.09
365.169	4.09
365.533	4.07
365.896	4.07
366.26	4.04
366.623	4.01
366.987	4.06
367.35	4.11
367.714	4.19
368.077	4.19
368.44	4.24
368.803	4.25
369.167	4.23
369.53	4.26
369.893	4.24
370.256	4.21
370.619	4.22
370.982	4.2
371.345	4.25
371.708	4.18
372.071	4.23
372.434	4.24
372.797	4.29
373.159	4.28
373.522	4.25
373.885	4.31
374.247	4.25
374.61	4.23
374.973	4.21
375.335	4.17
375.698	4.12
376.06	4.07
376.423	4.12
376.785	4.21
377.147	4.2
377.51	4.2
377.872	4.2
378.234	4.17
378.596	4.24
378.958	4.21
379.321	4.25
379.683	4.27
380.045	4.21
380.407	4.19
380.769	4.28
381.13	4.3
381.492	4.28
381.854	4.32
382.216	4.3
382.578	4.3
382.939	4.31
383.301	4.32
383.663	4.34
384.024	4.37
384.386	4.32
384.747	4.33
385.109	4.32
385.47	4.39
385.832	4.37
386.193	4.35
386.554	4.32
386.916	4.36
387.277	4.35
387.638	4.39
387.999	4.39
388.36	4.37
388.721	4.34
389.082	4.35
389.443	4.33
389.804	4.36
390.165	4.38
390.526	4.38
390.887	4.37
391.248	4.37
391.609	4.37
391.969	4.39
392.33	4.36
392.691	4.4
393.051	4.36
393.412	4.4
393.772	4.41
394.133	4.4
394.493	4.37
394.854	4.38
395.214	4.36
395.574	4.38
395.935	4.37
396.295	4.42
396.655	4.4
397.015	4.45
397.376	4.43
397.736	4.4
398.096	4.36
398.456	4.37
398.816	4.36
399.176	4.32
399.535	4.3
399.895	4.34
400.255	4.32
400.615	4.27
400.975	4.27
401.334	4.23
401.694	4.3
402.054	4.26
402.413	4.25
402.773	4.23
403.132	4.25
403.492	4.22
403.851	4.2
404.211	4.21
404.57	4.21
404.929	4.19
405.288	4.21
405.648	4.25
406.007	4.26
406.366	4.25
406.725	4.23
407.084	4.23
407.443	4.21
407.802	4.17
408.161	4.2
408.52	4.23
408.879	4.28
409.238	4.26
409.596	4.29
409.955	4.27
410.314	4.29
410.673	4.26
411.031	4.24
411.39	4.24
411.748	4.24
412.107	4.24
412.465	4.26
412.824	4.26
413.182	4.25
413.54	4.23
413.899	4.25
414.257	4.26
414.615	4.26
414.974	4.27
415.332	4.29
415.69	4.29
416.048	4.27
416.406	4.23
416.764	4.23
417.122	4.24
417.48	4.24
417.838	4.26
418.195	4.26
418.553	4.28
418.911	4.26
419.269	4.24
419.626	4.23
419.984	4.22
420.342	4.22
420.699	4.2
421.057	4.21
421.414	4.21
421.772	4.23
422.129	4.23
422.486	4.22
422.844	4.21
423.201	4.21
423.558	4.2
423.915	4.21
424.273	4.21
424.63	4.18
424.987	4.18
425.344	4.17
425.701	4.16
426.058	4.18
426.415	4.18
426.772	4.18
427.128	4.2
427.485	4.23
427.842	4.25
428.199	4.28
428.555	4.27
428.912	4.26
429.269	4.24
429.625	4.23
429.982	4.25
430.338	4.28
430.695	4.28
431.051	4.27
431.407	4.27
431.764	4.27
432.12	4.3
432.476	4.28
432.832	4.28
433.189	4.27
433.545	4.27
433.901	4.28
434.257	4.3
434.613	4.27
434.969	4.26
435.325	4.23
435.681	4.23
436.036	4.23
436.392	4.23
436.748	4.24
437.104	4.26
437.459	4.25
437.815	4.24
438.171	4.27
438.526	4.26
438.882	4.27
439.237	4.25
439.593	4.26
439.948	4.27
440.304	4.25
440.659	4.26
441.014	4.24
441.369	4.23
441.725	4.21
442.08	4.22
442.435	4.21
442.79	4.2
443.145	4.2
443.5	4.21
443.855	4.21
444.21	4.2
444.565	4.2
444.92	4.2
445.275	4.19
445.629	4.18
445.984	4.2
446.339	4.21
446.693	4.23
447.048	4.22
447.403	4.21
447.757	4.23
448.112	4.24
448.466	4.25
448.82	4.26
449.175	4.25
449.529	4.26
449.883	4.27
450.238	4.29
450.592	4.3
450.946	4.28
451.3	4.28
451.654	4.29
452.008	4.28
452.362	4.28
452.716	4.29
453.07	4.3
453.424	4.3
453.778	4.3
454.132	4.28
454.486	4.29
454.839	4.3
455.193	4.29
455.547	4.3
455.9	4.3
456.254	4.3
456.607	4.33
456.961	4.33
457.314	4.34
457.668	4.32
458.021	4.3
458.375	4.3
458.728	4.29
459.081	4.29
459.434	4.3
459.787	4.3
460.141	4.3
460.494	4.31
460.847	4.29
461.2	4.27
461.553	4.27
461.906	4.27
462.259	4.26
462.611	4.26
462.964	4.24
463.317	4.22
463.67	4.25
464.022	4.24
464.375	4.22
464.728	4.19
465.08	4.19
465.433	4.18
465.785	4.19
466.138	4.19
466.49	4.2
466.843	4.19
467.195	4.17
467.547	4.16
467.899	4.16
468.252	4.16
468.604	4.18
468.956	4.21
469.308	4.17
469.66	4.18
470.012	4.18
470.364	4.2
470.716	4.24
471.068	4.21
471.42	4.19
471.772	4.19
472.123	4.24
472.475	4.23
472.827	4.22
473.178	4.22
473.53	4.24
473.882	4.24
474.233	4.25
474.585	4.26
474.936	4.26
475.288	4.25
475.639	4.27
475.99	4.26
476.342	4.26
476.693	4.28
477.044	4.28
477.395	4.28
477.746	4.27
478.097	4.25
478.448	4.25
478.8	4.27
479.15	4.27
479.501	4.26
479.852	4.29
480.203	4.3
480.554	4.3
480.905	4.3
481.255	4.3
481.606	4.31
481.957	4.32
482.307	4.32
482.658	4.32
483.009	4.32
483.359	4.32
483.709	4.32
484.06	4.32
484.41	4.32
484.761	4.33
485.111	4.34
485.461	4.34
485.811	4.33
486.162	4.34
486.512	4.34
486.862	4.34
487.212	4.34
487.562	4.34
487.912	4.34
488.262	4.35
488.612	4.34
488.961	4.33
489.311	4.32
489.661	4.33
490.011	4.32
490.36	4.3
490.71	4.3
491.06	4.31
491.409	4.31
491.759	4.3
492.108	4.29
492.458	4.28
492.807	4.29
493.157	4.31
493.506	4.31
493.855	4.31
494.204	4.31
494.554	4.31
494.903	4.31
495.252	4.33
495.601	4.32
495.95	4.32
496.299	4.35
496.648	4.36
496.997	4.35
497.346	4.38
497.695	4.41
498.043	4.43
498.392	4.43
498.741	4.42
499.09	4.44
499.438	4.46
499.787	4.44
500.135	4.41
500.484	4.42
500.832	4.42
501.181	4.44
501.529	4.46
501.878	4.45
502.226	4.45
502.574	4.44
502.923	4.42
503.271	4.41
503.619	4.42
503.967	4.41
504.315	4.42
504.663	4.42
505.011	4.4
505.359	4.38
505.707	4.37
506.055	4.39
506.403	4.38
506.751	4.37
507.098	4.41
507.446	4.4
507.794	4.41
508.141	4.41
508.489	4.41
508.837	4.4
509.184	4.42
509.531	4.43
509.879	4.43
510.226	4.44
510.574	4.47
510.921	4.45
511.268	4.45
511.616	4.45
511.963	4.45
512.31	4.46
512.657	4.45
513.004	4.46
513.351	4.45
513.698	4.45
514.045	4.44
514.392	4.44
514.739	4.48
515.086	4.46
515.432	4.47
515.779	4.45
516.126	4.47
516.473	4.46
516.819	4.47
517.166	4.46
517.512	4.48
517.859	4.47
518.205	4.48
518.552	4.46
518.898	4.47
519.245	4.48
519.591	4.49
519.937	4.51
520.283	4.5
520.629	4.5
520.976	4.5
521.322	4.51
521.668	4.52
522.014	4.5
522.36	4.5
522.706	4.51
523.052	4.54
523.398	4.54
523.743	4.51
524.089	4.52
524.435	4.5
524.781	4.51
525.126	4.54
525.472	4.53
525.817	4.54
526.163	4.54
526.509	4.54
526.854	4.54
527.199	4.54
527.545	4.55
527.89	4.56
528.235	4.57
528.581	4.57
528.926	4.58
529.271	4.58
529.616	4.59
529.961	4.58
530.306	4.56
530.651	4.56
530.996	4.59
531.341	4.6
531.686	4.62
532.031	4.62
532.376	4.61
532.721	4.62
533.065	4.6
533.41	4.6
533.755	4.61
534.099	4.61
534.444	4.6
534.788	4.6
535.133	4.59
535.477	4.61
535.822	4.61
536.166	4.61
536.51	4.6
536.855	4.61
537.199	4.6
537.543	4.61
537.887	4.62
538.231	4.62
538.576	4.62
538.92	4.62
539.264	4.63
539.608	4.63
539.951	4.63
540.295	4.66
540.639	4.68
540.983	4.68
541.327	4.69
541.671	4.69
542.014	4.7
542.358	4.71
542.701	4.71
543.045	4.71
543.389	4.71
543.732	4.71
544.075	4.71
544.419	4.73
544.762	4.74
545.105	4.74
545.449	4.75
545.792	4.74
546.135	4.73
546.478	4.72
546.821	4.73
547.165	4.73
547.508	4.72
547.851	4.72
548.194	4.7
548.536	4.69
548.879	4.68
549.222	4.68
549.565	4.69
549.908	4.67
550.25	4.66
550.593	4.64
550.936	4.64
551.278	4.64
551.621	4.6
551.963	4.59
552.306	4.6
552.648	4.56
552.991	4.52
553.333	4.5
553.675	4.52
554.017	4.52
554.36	4.53
554.702	4.51
555.044	4.51
555.386	4.52
555.728	4.52
556.07	4.5
556.412	4.52
556.754	4.47
557.096	4.48
557.438	4.5
557.78	4.49
558.121	4.52
558.463	4.49
558.805	4.53
559.147	4.57
559.488	4.53
559.83	4.55
560.171	4.6
560.513	4.6
560.854	4.58
561.196	4.57
561.537	4.58
561.878	4.57
562.22	4.59
562.561	4.61
562.902	4.61
563.243	4.62
563.584	4.62
563.925	4.69
564.266	4.69
564.607	4.68
564.948	4.7
565.289	4.67
565.63	4.68
565.971	4.66
566.312	4.61
566.653	4.61
566.993	4.59
567.334	4.61
567.675	4.63
568.015	4.62
568.356	4.63
568.696	4.6
569.037	4.61
569.377	4.6
569.718	4.58
570.058	4.57
570.398	4.58
570.739	4.58
571.079	4.54
571.419	4.55
571.759	4.58
572.099	4.59
572.439	4.61
572.779	4.59
573.119	4.58
573.459	4.58
573.799	4.57
574.139	4.58
574.479	4.6
574.819	4.56
575.158	4.59
575.498	4.57
575.838	4.6
576.177	4.58
576.517	4.58
576.856	4.58
577.196	4.59
577.535	4.59
577.875	4.58
578.214	4.61
578.553	4.56
578.893	4.53
579.232	4.52
579.571	4.56
579.91	4.59
580.25	4.61
580.589	4.64
580.928	4.65
581.267	4.66
581.606	4.6
581.945	4.64
582.283	4.63
582.622	4.61
582.961	4.61
583.3	4.66
583.639	4.64
583.977	4.63
584.316	4.62
584.654	4.65
584.993	4.63
585.332	4.64
585.67	4.7
586.008	4.72
586.347	4.77
586.685	4.71
587.024	4.72
587.362	4.71
587.7	4.72
588.038	4.77
588.376	4.77
588.715	4.75
589.053	4.75
589.391	4.77
589.729	4.83
590.067	4.83
590.404	4.82
590.742	4.84
591.08	4.85
591.418	4.85
591.756	4.85
592.093	4.88
592.431	4.91
592.769	4.88
593.106	4.85
593.444	4.81
593.781	4.85
594.119	4.84
594.456	4.82
594.793	4.83
595.131	4.8
595.468	4.8
595.805	4.84
596.143	4.85
596.48	4.85
596.817	4.82
597.154	4.84
597.491	4.83
597.828	4.81
598.165	4.82
598.502	4.83
598.839	4.84
599.176	4.77
599.512	4.72
599.849	4.74
600.186	4.75
600.523	4.77
600.859	4.74
601.196	4.76
601.532	4.77
601.869	4.78
602.205	4.8
602.542	4.8
602.878	4.84
603.215	4.83
603.551	4.81
603.887	4.82
604.223	4.79
604.56	4.81
604.896	4.86
605.232	4.85
605.568	4.85
605.904	4.81
606.24	4.85
606.576	4.84
606.912	4.83
607.248	4.85
607.583	4.85
607.919	4.83
608.255	4.82
608.591	4.83
608.926	4.81
609.262	4.8
609.597	4.76
609.933	4.71
610.268	4.73
610.604	4.74
610.939	4.75
611.275	4.76
611.61	4.77
611.945	4.72
612.281	4.74
612.616	4.76
612.951	4.77
613.286	4.75
613.621	4.76
613.956	4.77
614.291	4.71
614.626	4.66
614.961	4.67
615.296	4.69
615.631	4.7
615.966	4.7
616.3	4.71
616.635	4.71
616.97	4.72
617.304	4.68
617.639	4.68
617.973	4.62
618.308	4.58
618.642	4.54
618.977	4.57
619.311	4.54
619.646	4.54
619.98	4.56
620.314	4.58
620.648	4.62
620.983	4.6
621.317	4.65
621.651	4.67
621.985	4.69
622.319	4.64
622.653	4.63
622.987	4.66
623.321	4.64
623.655	4.66
623.988	4.68
624.322	4.73
624.656	4.73
624.99	4.76
625.323	4.84
625.657	4.86
625.99	4.86
626.324	4.87
626.657	4.88
626.991	4.88
627.324	4.88
627.658	4.85
627.991	4.86
628.324	4.87
628.657	4.88
628.991	4.88
629.324	4.93
629.657	4.92
629.99	4.91
630.323	4.98
630.656	4.97
630.989	4.95
631.322	4.93
631.655	4.93
631.987	4.99
632.32	4.96
632.653	4.98
632.986	5.02
633.318	5.05
633.651	5.03
633.984	5.03
634.316	5.06
634.649	5.09
634.981	5.11
635.313	5.09
635.646	5.1
635.978	5.07
636.31	5.08
636.643	5.05
636.975	5.07
637.307	5.04
637.639	5.06
637.971	5.04
638.303	5.04
638.635	5.01
638.967	4.95
639.299	4.96
639.631	4.9
639.963	4.86
640.295	4.83
640.626	4.88
640.958	4.93
641.29	4.89
641.621	4.84
641.953	4.8
642.285	4.84
642.616	4.86
642.948	4.87
643.279	4.81
643.61	4.84
643.942	4.85
644.273	4.85
644.604	4.86
644.936	4.9
645.267	4.88
645.598	4.93
645.929	4.92
646.26	4.92
646.591	4.97
646.922	4.94
647.253	4.9
647.584	4.89
647.915	4.83
648.245	4.82
648.576	4.82
648.907	4.84
649.238	4.8
649.568	4.72
649.899	4.73
650.229	4.85
650.56	4.89
650.89	4.88
651.221	4.9
651.551	4.93
651.882	4.94
652.212	4.94
652.542	4.9
652.872	4.93
653.203	4.97
653.533	5
653.863	5.02
654.193	5.02
654.523	5
654.853	5.06
655.183	5.12
655.513	5.13
655.843	5.18
656.172	5.24
656.502	5.25
656.832	5.2
657.162	5.13
657.491	5.12
657.821	5.08
658.15	5.05
658.48	5.04
658.809	5
659.139	5.03
659.468	5.02
659.798	5.08
660.127	4.99
660.456	4.93
660.785	4.92
661.115	4.93
661.444	5.02
661.773	4.98
662.102	4.94
662.431	5.01
662.76	4.95
663.089	4.96
663.418	5.05
663.747	5.06
664.076	5.11
664.404	5.16
664.733	5.18
665.062	5.2
665.39	5.22
665.719	5.25
666.048	5.19
666.376	5.23
666.705	5.13
667.033	5.2
667.362	5.23
667.69	5.3
668.018	5.3
668.347	5.15
668.675	5.19
669.003	5.12
669.331	5.08
669.659	5.08
669.987	5.04
670.315	4.98
670.643	5.1
670.971	5.08
671.299	4.99
671.627	5
671.955	5
672.283	5.02
672.61	5.02
672.938	5.12
673.266	5.16
673.593	5.11
673.921	5.05
674.249	4.99
674.576	5
674.904	4.95
675.231	4.96
675.558	4.95
675.886	5.08
676.213	4.98
676.54	4.98
676.867	4.99
677.195	5.07
677.522	5.08
677.849	5.11
