Data from BA53509_Reflection_00003.txt Node
Date: Tue Nov 19 11:46:21 EST 2019
User: vgr7
Spectrometer: USB2G7710
Scans to average: 3
Trigger mode: 4
Integration Time (sec): 2.000000E-2
Electric dark correction enabled: true
Boxcar width: 10
XAxis mode: Wavelengths
Number of Pixels in Spectrum: 2048
>>>>>Begin Spectral Data<<<<<
177.721	-36.09
178.105	-25
178.488	-90.84
178.871	-100
179.254	-20
179.636	39.02
180.019	-158.06
180.402	233.33
180.785	41.18
181.168	-400
181.55	-70.21
181.933	15.03
182.316	64.91
182.698	4.19
183.081	-52.54
183.463	-46.34
183.846	-26.98
184.228	163.83
184.611	100
184.993	117.39
185.376	25.47
185.758	8.26
186.14	-5.88
186.522	-1.91
186.904	-55.56
187.287	5.66
187.669	23.81
188.051	-20.22
188.433	-11.11
188.815	-39.04
189.197	-37.07
189.579	-5.12
189.961	12.72
190.342	14.49
190.724	5.61
191.106	2.31
191.488	0.41
191.869	7.33
192.251	-8.24
192.633	-9.87
193.014	-28.21
193.396	-33.14
193.777	-23.52
194.159	-21.18
194.54	-21.1
194.922	-18.91
195.303	-19.76
195.684	-27.89
196.065	-27.66
196.447	-19.78
196.828	-2.2
197.209	-22.71
197.59	-21.13
197.971	-14.75
198.352	3.74
198.733	1.81
199.114	-7.06
199.495	-22.2
199.876	-30.26
200.257	-20.53
200.638	-22.25
201.018	-24.65
201.399	-15.9
201.78	-1.98
202.16	56.86
202.541	120.98
202.922	108.97
203.302	79.92
203.683	78.18
204.063	128.57
204.444	49.58
204.824	36
205.204	60.88
205.585	45.63
205.965	19.25
206.345	-2.2
206.725	6.64
207.106	25.43
207.486	43.12
207.866	62.73
208.246	55.6
208.626	61.61
209.006	61.61
209.386	62.3
209.766	43.36
210.145	41
210.525	14.97
210.905	16.15
211.285	21.09
211.664	37.93
212.044	34.87
212.424	37.4
212.803	33.79
213.183	20.35
213.562	31.09
213.942	37.18
214.321	25.99
214.701	26.38
215.08	19.32
215.459	38.86
215.838	25.99
216.218	47.27
216.597	43.13
216.976	37.18
217.355	32.01
217.734	39.64
218.113	13.82
218.492	24.02
218.871	7.07
219.25	1.61
219.629	-20.08
220.008	-4.97
220.387	-15.04
220.766	1.58
221.144	2.16
221.523	-20.72
221.902	-18.05
222.28	-5.59
222.659	0.1
223.037	-19.62
223.416	-18.41
223.794	-5.47
224.173	-14.47
224.551	-12.42
224.929	-13.99
225.308	-14.48
225.686	-17.31
226.064	-16.97
226.442	-13.02
226.821	-8.21
227.199	-3.57
227.577	-0.56
227.955	-1.59
228.333	-2.36
228.711	-6.99
229.089	-3.02
229.467	-1.55
229.845	-4.94
230.222	-4.54
230.6	-5.43
230.978	2.85
231.356	1.41
231.733	0.38
232.111	2.05
232.488	4.97
232.866	7.17
233.243	9.98
233.621	9.8
233.998	10.79
234.376	11.03
234.753	11.66
235.13	11.39
235.508	10.55
235.885	10
236.262	10.94
236.639	10.28
237.016	9.15
237.393	10.49
237.77	11.7
238.147	11.27
238.524	12.38
238.901	9.68
239.278	9.42
239.655	8.59
240.032	6.83
240.409	6.16
240.785	5.57
241.162	5.48
241.539	5.28
241.915	4.99
242.292	5.31
242.668	5.36
243.045	5.46
243.421	5.8
243.798	6.14
244.174	6.12
244.551	6.13
244.927	5.89
245.303	5.59
245.679	5.41
246.056	5.49
246.432	5.26
246.808	5.61
247.184	5.42
247.56	5.41
247.936	5.93
248.312	5.57
248.688	5.4
249.064	5.17
249.44	5.08
249.815	5.13
250.191	5.12
250.567	4.74
250.943	4.77
251.318	4.35
251.694	3.87
252.069	4.15
252.445	3.95
252.82	4.12
253.196	4.04
253.571	4.02
253.947	4.05
254.322	3.8
254.697	3.77
255.073	3.81
255.448	3.74
255.823	3.32
256.198	3.1
256.573	3.74
256.948	3.85
257.323	4.06
257.698	3.99
258.073	3.79
258.448	4.12
258.823	3.79
259.198	4.03
259.573	4.08
259.948	4.02
260.322	4.24
260.697	4.3
261.072	4.31
261.446	4.38
261.821	4.31
262.195	4.23
262.57	4.13
262.944	4.1
263.319	4.32
263.693	4.52
264.067	4.8
264.442	4.59
264.816	4.57
265.19	4.49
265.564	4.59
265.938	4.73
266.313	4.43
266.687	4.33
267.061	4.28
267.435	4.52
267.809	4.09
268.183	4
268.556	3.81
268.93	3.85
269.304	3.75
269.678	3.63
270.051	3.51
270.425	3.61
270.799	3.55
271.172	3.3
271.546	3.33
271.919	3.34
272.293	3.28
272.666	3.38
273.04	3.54
273.413	3.55
273.787	3.52
274.16	3.57
274.533	4.01
274.906	4.21
275.279	3.89
275.653	4.18
276.026	4.22
276.399	4.33
276.772	4.36
277.145	4.38
277.518	4.46
277.891	4.64
278.263	4.67
278.636	4.74
279.009	4.72
279.382	4.72
279.755	4.74
280.127	4.75
280.5	4.65
280.872	4.48
281.245	4.37
281.617	4.4
281.99	4.35
282.362	4.05
282.735	3.85
283.107	4.03
283.479	3.87
283.852	3.94
284.224	4
284.596	4.05
284.968	3.98
285.34	3.94
285.713	4.1
286.085	4.01
286.457	4.05
286.829	4.08
287.201	3.91
287.572	3.9
287.944	4.01
288.316	4.05
288.688	4.2
289.06	4.33
289.431	4.43
289.803	4.43
290.175	4.39
290.546	4.42
290.918	4.49
291.289	4.45
291.661	4.39
292.032	4.13
292.403	4.1
292.775	4.2
293.146	4.3
293.517	4.08
293.889	4.17
294.26	4.24
294.631	4.24
295.002	4.42
295.373	4.4
295.744	4.4
296.115	4.25
296.486	4.31
296.857	4.23
297.228	4
297.599	4.05
297.97	4.29
298.34	4.26
298.711	4.34
299.082	4.51
299.452	4.55
299.823	4.79
300.194	4.81
300.564	4.83
300.935	4.8
301.305	4.9
301.676	4.79
302.046	4.62
302.416	4.64
302.787	4.66
303.157	4.73
303.527	4.7
303.897	4.79
304.267	4.72
304.637	4.77
305.008	4.88
305.378	4.94
305.748	4.67
306.117	4.72
306.487	4.6
306.857	4.64
307.227	4.69
307.597	4.62
307.967	4.48
308.336	4.32
308.706	4.22
309.076	4.31
309.445	4.43
309.815	4.43
310.184	4.33
310.554	4.24
310.923	4.17
311.293	4.3
311.662	4.51
312.031	4.32
312.401	4.29
312.77	4.33
313.139	4.38
313.508	4.46
313.877	4.42
314.246	4.3
314.616	4.24
314.985	4.07
315.353	4
315.722	4.25
316.091	4.36
316.46	4.47
316.829	4.32
317.198	4.22
317.567	4.51
317.935	4.61
318.304	4.73
318.672	4.82
319.041	4.75
319.41	4.43
319.778	4.62
320.147	4.55
320.515	4.59
320.883	4.51
321.252	4.59
321.62	4.6
321.988	4.49
322.357	4.41
322.725	4.47
323.093	4.47
323.461	4.33
323.829	4.44
324.197	4.42
324.565	4.45
324.933	4.57
325.301	4.24
325.669	4.24
326.037	4.33
326.405	4.32
326.772	4.15
327.14	4.11
327.508	3.99
327.875	4.09
328.243	3.98
328.61	4.07
328.978	3.89
329.346	3.92
329.713	4.02
330.08	4.13
330.448	4.1
330.815	4.09
331.182	4.07
331.55	4.08
331.917	4.07
332.284	4.14
332.651	4.1
333.018	4.12
333.385	4.17
333.752	4
334.119	3.98
334.486	4.02
334.853	3.99
335.22	3.97
335.587	3.91
335.954	4.06
336.32	4
336.687	4.09
337.054	4.1
337.42	4.17
337.787	4.13
338.153	4.27
338.52	4.27
338.886	4.33
339.253	4.19
339.619	4.29
339.986	4.23
340.352	4.2
340.718	4.24
341.084	4.28
341.451	4.36
341.817	4.43
342.183	4.41
342.549	4.68
342.915	4.9
343.281	4.85
343.647	4.84
344.013	4.83
344.379	4.84
344.745	4.82
345.11	4.85
345.476	4.88
345.842	4.76
346.208	4.85
346.573	4.81
346.939	4.89
347.304	4.86
347.67	4.87
348.035	4.81
348.401	4.95
348.766	4.9
349.132	4.88
349.497	4.81
349.862	4.85
350.228	4.64
350.593	4.58
350.958	4.71
351.323	4.68
351.688	4.76
352.053	4.8
352.418	4.85
352.783	4.79
353.148	4.73
353.513	4.71
353.878	4.63
354.243	4.53
354.608	4.56
354.972	4.6
355.337	4.65
355.702	4.68
356.066	4.59
356.431	4.58
356.795	4.57
357.16	4.58
357.524	4.54
357.889	4.55
358.253	4.53
358.618	4.52
358.982	4.52
359.346	4.5
359.71	4.49
360.075	4.44
360.439	4.46
360.803	4.55
361.167	4.55
361.531	4.59
361.895	4.7
362.259	4.7
362.623	4.64
362.987	4.6
363.351	4.57
363.714	4.64
364.078	4.7
364.442	4.67
364.806	4.63
365.169	4.68
365.533	4.74
365.896	4.75
366.26	4.68
366.623	4.65
366.987	4.66
367.35	4.76
367.714	4.88
368.077	4.93
368.44	4.91
368.803	4.96
369.167	4.9
369.53	4.86
369.893	4.81
370.256	4.82
370.619	4.83
370.982	4.81
371.345	4.83
371.708	4.85
372.071	4.86
372.434	4.9
372.797	4.91
373.159	4.89
373.522	4.88
373.885	4.92
374.247	4.89
374.61	4.88
374.973	4.81
375.335	4.73
375.698	4.69
376.06	4.66
376.423	4.66
376.785	4.77
377.147	4.74
377.51	4.77
377.872	4.83
378.234	4.83
378.596	4.88
378.958	4.78
379.321	4.74
379.683	4.77
380.045	4.76
380.407	4.75
380.769	4.77
381.13	4.7
381.492	4.7
381.854	4.72
382.216	4.75
382.578	4.8
382.939	4.86
383.301	4.83
383.663	4.84
384.024	4.82
384.386	4.76
384.747	4.78
385.109	4.76
385.47	4.73
385.832	4.7
386.193	4.72
386.554	4.7
386.916	4.73
387.277	4.67
387.638	4.67
387.999	4.6
388.36	4.57
388.721	4.62
389.082	4.64
389.443	4.67
389.804	4.58
390.165	4.55
390.526	4.52
390.887	4.53
391.248	4.52
391.609	4.53
391.969	4.54
392.33	4.58
392.691	4.58
393.051	4.57
393.412	4.58
393.772	4.6
394.133	4.65
394.493	4.61
394.854	4.64
395.214	4.69
395.574	4.72
395.935	4.73
396.295	4.74
396.655	4.72
397.015	4.71
397.376	4.74
397.736	4.75
398.096	4.73
398.456	4.77
398.816	4.75
399.176	4.72
399.535	4.71
399.895	4.66
400.255	4.69
400.615	4.7
400.975	4.75
401.334	4.71
401.694	4.73
402.054	4.74
402.413	4.76
402.773	4.72
403.132	4.73
403.492	4.75
403.851	4.73
404.211	4.72
404.57	4.77
404.929	4.78
405.288	4.76
405.648	4.8
406.007	4.77
406.366	4.8
406.725	4.85
407.084	4.85
407.443	4.85
407.802	4.81
408.161	4.81
408.52	4.79
408.879	4.81
409.238	4.78
409.596	4.8
409.955	4.74
410.314	4.75
410.673	4.75
411.031	4.73
411.39	4.72
411.748	4.73
412.107	4.7
412.465	4.74
412.824	4.75
413.182	4.72
413.54	4.74
413.899	4.75
414.257	4.72
414.615	4.75
414.974	4.76
415.332	4.79
415.69	4.8
416.048	4.81
416.406	4.78
416.764	4.8
417.122	4.77
417.48	4.83
417.838	4.84
418.195	4.84
418.553	4.84
418.911	4.85
419.269	4.86
419.626	4.86
419.984	4.82
420.342	4.83
420.699	4.82
421.057	4.83
421.414	4.81
421.772	4.82
422.129	4.82
422.486	4.83
422.844	4.83
423.201	4.84
423.558	4.83
423.915	4.84
424.273	4.84
424.63	4.87
424.987	4.85
425.344	4.86
425.701	4.85
426.058	4.87
426.415	4.85
426.772	4.86
427.128	4.86
427.485	4.9
427.842	4.87
428.199	4.88
428.555	4.86
428.912	4.89
429.269	4.88
429.625	4.87
429.982	4.86
430.338	4.87
430.695	4.88
431.051	4.9
431.407	4.92
431.764	4.9
432.12	4.89
432.476	4.91
432.832	4.9
433.189	4.91
433.545	4.9
433.901	4.93
434.257	4.91
434.613	4.91
434.969	4.9
435.325	4.94
435.681	4.92
436.036	4.93
436.392	4.92
436.748	4.92
437.104	4.93
437.459	4.95
437.815	4.95
438.171	4.93
438.526	4.94
438.882	4.94
439.237	4.97
439.593	4.96
439.948	4.96
440.304	4.95
440.659	4.94
441.014	4.93
441.369	4.92
441.725	4.93
442.08	4.92
442.435	4.91
442.79	4.91
443.145	4.92
443.5	4.92
443.855	4.92
444.21	4.92
444.565	4.95
444.92	4.95
445.275	4.95
445.629	4.95
445.984	4.94
446.339	4.92
446.693	4.9
447.048	4.89
447.403	4.88
447.757	4.88
448.112	4.9
448.466	4.92
448.82	4.93
449.175	4.93
449.529	4.94
449.883	4.93
450.238	4.94
450.592	4.93
450.946	4.93
451.3	4.95
451.654	4.93
452.008	4.9
452.362	4.89
452.716	4.9
453.07	4.91
453.424	4.91
453.778	4.89
454.132	4.88
454.486	4.89
454.839	4.91
455.193	4.89
455.547	4.88
455.9	4.86
456.254	4.86
456.607	4.86
456.961	4.86
457.314	4.88
457.668	4.86
458.021	4.88
458.375	4.89
458.728	4.89
459.081	4.9
459.434	4.92
459.787	4.92
460.141	4.93
460.494	4.92
460.847	4.93
461.2	4.96
461.553	4.97
461.906	4.98
462.259	4.96
462.611	4.99
462.964	5.01
463.317	5.01
463.67	5.02
464.022	5.04
464.375	5.03
464.728	5.03
465.08	5.04
465.433	5.01
465.785	5.01
466.138	5.03
466.49	5.02
466.843	5.03
467.195	5.02
467.547	5
467.899	5
468.252	5
468.604	5.01
468.956	5.03
469.308	5.03
469.66	5.06
470.012	5.08
470.364	5.08
470.716	5.09
471.068	5.07
471.42	5.06
471.772	5.08
472.123	5.1
472.475	5.11
472.827	5.13
473.178	5.14
473.53	5.13
473.882	5.14
474.233	5.11
474.585	5.1
474.936	5.11
475.288	5.11
475.639	5.12
475.99	5.1
476.342	5.1
476.693	5.09
477.044	5.08
477.395	5.07
477.746	5.07
478.097	5.1
478.448	5.09
478.8	5.1
479.15	5.11
479.501	5.09
479.852	5.09
480.203	5.08
480.554	5.09
480.905	5.1
481.255	5.09
481.606	5.11
481.957	5.13
482.307	5.15
482.658	5.15
483.009	5.14
483.359	5.16
483.709	5.16
484.06	5.18
484.41	5.2
484.761	5.2
485.111	5.2
485.461	5.19
485.811	5.19
486.162	5.2
486.512	5.19
486.862	5.21
487.212	5.22
487.562	5.22
487.912	5.22
488.262	5.21
488.612	5.22
488.961	5.23
489.311	5.23
489.661	5.22
490.011	5.22
490.36	5.23
490.71	5.23
491.06	5.22
491.409	5.2
491.759	5.2
492.108	5.19
492.458	5.19
492.807	5.18
493.157	5.2
493.506	5.19
493.855	5.2
494.204	5.19
494.554	5.2
494.903	5.2
495.252	5.22
495.601	5.22
495.95	5.22
496.299	5.21
496.648	5.2
496.997	5.21
497.346	5.22
497.695	5.23
498.043	5.27
498.392	5.25
498.741	5.27
499.09	5.27
499.438	5.28
499.787	5.28
500.135	5.31
500.484	5.31
500.832	5.3
501.181	5.31
501.529	5.31
501.878	5.3
502.226	5.33
502.574	5.32
502.923	5.32
503.271	5.33
503.619	5.36
503.967	5.35
504.315	5.34
504.663	5.33
505.011	5.34
505.359	5.31
505.707	5.36
506.055	5.33
506.403	5.33
506.751	5.33
507.098	5.36
507.446	5.39
507.794	5.38
508.141	5.39
508.489	5.38
508.837	5.39
509.184	5.41
509.531	5.4
509.879	5.39
510.226	5.4
510.574	5.42
510.921	5.4
511.268	5.42
511.616	5.42
511.963	5.42
512.31	5.43
512.657	5.43
513.004	5.39
513.351	5.42
513.698	5.43
514.045	5.42
514.392	5.42
514.739	5.4
515.086	5.41
515.432	5.44
515.779	5.46
516.126	5.49
516.473	5.48
516.819	5.48
517.166	5.48
517.512	5.47
517.859	5.46
518.205	5.44
518.552	5.44
518.898	5.44
519.245	5.44
519.591	5.45
519.937	5.45
520.283	5.48
520.629	5.46
520.976	5.45
521.322	5.46
521.668	5.48
522.014	5.48
522.36	5.47
522.706	5.44
523.052	5.45
523.398	5.45
523.743	5.46
524.089	5.46
524.435	5.47
524.781	5.49
525.126	5.5
525.472	5.51
525.817	5.5
526.163	5.51
526.509	5.53
526.854	5.52
527.199	5.54
527.545	5.54
527.89	5.57
528.235	5.57
528.581	5.57
528.926	5.57
529.271	5.59
529.616	5.61
529.961	5.62
530.306	5.62
530.651	5.62
530.996	5.63
531.341	5.64
531.686	5.64
532.031	5.65
532.376	5.66
532.721	5.69
533.065	5.69
533.41	5.7
533.755	5.72
534.099	5.72
534.444	5.72
534.788	5.72
535.133	5.72
535.477	5.72
535.822	5.73
536.166	5.73
536.51	5.71
536.855	5.71
537.199	5.7
537.543	5.72
537.887	5.74
538.231	5.74
538.576	5.73
538.92	5.74
539.264	5.75
539.608	5.76
539.951	5.74
540.295	5.76
540.639	5.76
540.983	5.76
541.327	5.77
541.671	5.77
542.014	5.78
542.358	5.79
542.701	5.8
543.045	5.78
543.389	5.79
543.732	5.79
544.075	5.8
544.419	5.8
544.762	5.79
545.105	5.8
545.449	5.79
545.792	5.81
546.135	5.81
546.478	5.81
546.821	5.8
547.165	5.81
547.508	5.8
547.851	5.82
548.194	5.78
548.536	5.78
548.879	5.77
549.222	5.76
549.565	5.72
549.908	5.73
550.25	5.73
550.593	5.76
550.936	5.77
551.278	5.75
551.621	5.78
551.963	5.83
552.306	5.8
552.648	5.79
552.991	5.8
553.333	5.81
553.675	5.82
554.017	5.84
554.36	5.83
554.702	5.81
555.044	5.81
555.386	5.84
555.728	5.83
556.07	5.84
556.412	5.85
556.754	5.88
557.096	5.91
557.438	5.95
557.78	5.95
558.121	5.96
558.463	5.98
558.805	6.01
559.147	5.98
559.488	5.99
559.83	6.03
560.171	6.02
560.513	6.01
560.854	5.99
561.196	5.97
561.537	6
561.878	6
562.22	6
562.561	6.02
562.902	6.02
563.243	6.05
563.584	6.07
563.925	6.08
564.266	6.08
564.607	6.06
564.948	6.01
565.289	5.99
565.63	6
565.971	5.94
566.312	5.96
566.653	5.95
566.993	5.91
567.334	5.92
567.675	5.92
568.015	5.94
568.356	5.97
568.696	5.96
569.037	5.98
569.377	5.95
569.718	5.94
570.058	5.93
570.398	5.95
570.739	5.94
571.079	5.93
571.419	5.89
571.759	5.9
572.099	5.93
572.439	5.94
572.779	5.94
573.119	5.97
573.459	5.95
573.799	5.96
574.139	5.97
574.479	6.01
574.819	5.99
575.158	6.02
575.498	5.99
575.838	6
576.177	5.98
576.517	6.02
576.856	6.04
577.196	6.04
577.535	6
577.875	6
578.214	6.01
578.553	6.05
578.893	6.07
579.232	6.08
579.571	6.1
579.91	6.07
580.25	6.08
580.589	6.08
580.928	6.05
581.267	6.05
581.606	6.04
581.945	6.06
582.283	6.02
582.622	6
582.961	6
583.3	6.02
583.639	6.01
583.977	6
584.316	6.02
584.654	6.01
584.993	6.05
585.332	6.03
585.67	6.01
586.008	6.01
586.347	6.01
586.685	5.99
587.024	6.03
587.362	6.03
587.7	6.04
588.038	6.1
588.376	6.07
588.715	6.06
589.053	6.06
589.391	6.11
589.729	6.14
590.067	6.15
590.404	6.13
590.742	6.12
591.08	6.11
591.418	6.11
591.756	6.14
592.093	6.1
592.431	6.12
592.769	6.11
593.106	6.12
593.444	6.14
593.781	6.15
594.119	6.17
594.456	6.12
594.793	6.13
595.131	6.1
595.468	6.13
595.805	6.15
596.143	6.18
596.48	6.14
596.817	6.15
597.154	6.19
597.491	6.22
597.828	6.22
598.165	6.24
598.502	6.25
598.839	6.25
599.176	6.27
599.512	6.28
599.849	6.31
600.186	6.27
600.523	6.3
600.859	6.32
601.196	6.32
601.532	6.35
601.869	6.37
602.205	6.42
602.542	6.44
602.878	6.44
603.215	6.43
603.551	6.43
603.887	6.45
604.223	6.39
604.56	6.37
604.896	6.39
605.232	6.39
605.568	6.39
605.904	6.35
606.24	6.37
606.576	6.37
606.912	6.39
607.248	6.42
607.583	6.42
607.919	6.38
608.255	6.41
608.591	6.4
608.926	6.41
609.262	6.42
609.597	6.4
609.933	6.36
610.268	6.36
610.604	6.36
610.939	6.36
611.275	6.4
611.61	6.4
611.945	6.39
612.281	6.38
612.616	6.38
612.951	6.43
613.286	6.47
613.621	6.46
613.956	6.48
614.291	6.49
614.626	6.42
614.961	6.46
615.296	6.47
615.631	6.53
615.966	6.48
616.3	6.49
616.635	6.48
616.97	6.52
617.304	6.53
617.639	6.53
617.973	6.51
618.308	6.48
618.642	6.5
618.977	6.57
619.311	6.6
619.646	6.64
619.98	6.66
620.314	6.62
620.648	6.57
620.983	6.53
621.317	6.54
621.651	6.59
621.985	6.62
622.319	6.61
622.653	6.59
622.987	6.59
623.321	6.6
623.655	6.62
623.988	6.66
624.322	6.67
624.656	6.76
624.99	6.76
625.323	6.79
625.657	6.78
625.99	6.74
626.324	6.75
626.657	6.76
626.991	6.74
627.324	6.72
627.658	6.73
627.991	6.77
628.324	6.76
628.657	6.74
628.991	6.74
629.324	6.74
629.657	6.72
629.99	6.77
630.323	6.78
630.656	6.82
630.989	6.79
631.322	6.74
631.655	6.69
631.987	6.72
632.32	6.81
632.653	6.82
632.986	6.85
633.318	6.86
633.651	6.87
633.984	6.85
634.316	6.89
634.649	6.93
634.981	6.91
635.313	6.92
635.646	6.98
635.978	7
636.31	7.04
636.643	7.05
636.975	7.07
637.307	7.06
637.639	7.02
637.971	7.02
638.303	7.01
638.635	7
638.967	7
639.299	7.01
639.631	7.02
639.963	7.01
640.295	6.92
640.626	6.89
640.958	6.93
641.29	6.94
641.621	6.91
641.953	6.87
642.285	6.84
642.616	6.88
642.948	6.82
643.279	6.76
643.61	6.79
643.942	6.76
644.273	6.7
644.604	6.66
644.936	6.64
645.267	6.67
645.598	6.69
645.929	6.71
646.26	6.62
646.591	6.59
646.922	6.6
647.253	6.67
647.584	6.68
647.915	6.62
648.245	6.61
648.576	6.64
648.907	6.66
649.238	6.73
649.568	6.64
649.899	6.63
650.229	6.66
650.56	6.62
650.89	6.74
651.221	6.79
651.551	6.84
651.882	6.87
652.212	6.94
652.542	6.94
652.872	6.9
653.203	6.94
653.533	7.04
653.863	6.97
654.193	6.96
654.523	6.98
654.853	7.12
655.183	7.12
655.513	7.1
655.843	7.13
656.172	7.15
656.502	7.13
656.832	7.14
657.162	7.07
657.491	7.14
657.821	7.06
658.15	7.04
658.48	7.09
658.809	7.12
659.139	7.14
659.468	7.14
659.798	7.18
660.127	7.14
660.456	7.07
660.785	7.11
661.115	7.16
661.444	7.17
661.773	7.14
662.102	7.15
662.431	7.22
662.76	7.27
663.089	7.34
663.418	7.4
663.747	7.44
664.076	7.52
664.404	7.51
664.733	7.55
665.062	7.62
665.39	7.58
665.719	7.55
666.048	7.42
666.376	7.42
666.705	7.42
667.033	7.5
667.362	7.47
667.69	7.47
668.018	7.45
668.347	7.42
668.675	7.42
669.003	7.4
669.331	7.32
669.659	7.24
669.987	7.13
670.315	7.11
670.643	7.12
670.971	7.15
671.299	7.09
671.627	7.02
671.955	6.93
672.283	7
672.61	6.94
672.938	7.04
673.266	7.14
673.593	7.16
673.921	7.17
674.249	7.14
674.576	7.15
674.904	7.15
675.231	7.18
675.558	7.17
675.886	7.18
676.213	7.21
676.54	7.31
676.867	7.36
677.195	7.47
677.522	7.52
677.849	7.51
678.176	7.54
678.503	7.59
678.83	7.63
679.157	7.64
679.484	7.76
679.81	7.68
680.137	7.61
680.464	7.62
680.791	7.68
