Data from BA53509_Reflection_00002.txt Node
Date: Tue Nov 19 11:46:19 EST 2019
User: vgr7
Spectrometer: USB2G7710
Scans to average: 3
Trigger mode: 4
Integration Time (sec): 2.000000E-2
Electric dark correction enabled: true
Boxcar width: 10
XAxis mode: Wavelengths
Number of Pixels in Spectrum: 2048
>>>>>Begin Spectral Data<<<<<
177.721	-203.75
178.105	-2108.33
178.488	-454.71
178.871	-619.05
179.254	-233.33
179.636	47.15
180.019	-136.56
180.402	158.33
180.785	119.61
181.168	125.16
181.55	31.44
181.933	62.96
182.316	113.65
182.698	113.97
183.081	292.09
183.463	449.59
183.846	-333.86
184.228	-566.67
184.611	2857.58
184.993	-224.64
185.376	-138.1
185.758	-169.11
186.14	-292.16
186.522	-144.16
186.904	-418.52
187.287	-208.18
187.669	-7.94
188.051	-27.5
188.433	-52.51
188.815	-30.12
189.197	5.5
189.579	4.76
189.961	9.39
190.342	29.61
190.724	18.83
191.106	3.21
191.488	2.72
191.869	16.55
192.251	28.38
192.633	39.73
193.014	25.33
193.396	31.5
193.777	35.17
194.159	38.39
194.54	38.41
194.922	31.67
195.303	32.53
195.684	33.82
196.065	40.76
196.447	48.41
196.828	43.94
197.209	55.81
197.59	43.02
197.971	36.91
198.352	15.63
198.733	29.37
199.114	42.29
199.495	42.29
199.876	17.17
200.257	8.98
200.638	3.83
201.018	-2.93
201.399	-0.63
201.78	-5.76
202.16	-38.56
202.541	-133.1
202.922	-71.9
203.302	-33.87
203.683	-24.85
204.063	-56.19
204.444	-7.38
204.824	0.44
205.204	1.39
205.585	11.74
205.965	20.63
206.345	57.25
206.725	49.13
207.106	57.3
207.486	38.84
207.866	82.75
208.246	72.76
208.626	68.65
209.006	84.77
209.386	101.2
209.766	108.26
210.145	88.91
210.525	70.86
210.905	73.7
211.285	70
211.664	78.85
212.044	87.34
212.424	104.28
212.803	101.13
213.183	104.72
213.562	107.84
213.942	85.85
214.321	68.45
214.701	70.69
215.08	54.35
215.459	75.67
215.838	37.46
216.218	27.81
216.597	29.96
216.976	19.64
217.355	19.85
217.734	17.89
218.113	43.75
218.492	58.25
218.871	42.76
219.25	38.58
219.629	39.34
220.008	29.4
220.387	5.6
220.766	-2.52
221.144	-11.66
221.523	-6.31
221.902	11.35
222.28	12.63
222.659	16.24
223.037	22
223.416	20.07
223.794	28.03
224.173	31.57
224.551	28.07
224.929	27.4
225.308	22.52
225.686	16.87
226.064	10.23
226.442	10.26
226.821	14.08
227.199	10.39
227.577	6.35
227.955	6.42
228.333	7.86
228.711	7.09
229.089	8.05
229.467	9.13
229.845	9.88
230.222	12.16
230.6	11.38
230.978	11.84
231.356	10
231.733	9.66
232.111	7.41
232.488	9.36
232.866	10.81
233.243	11.57
233.621	12.69
233.998	13.16
234.376	12.28
234.753	13.3
235.13	13.62
235.508	13.68
235.885	14.24
236.262	15.11
236.639	14.93
237.016	13.41
237.393	12.33
237.77	11.8
238.147	9.92
238.524	10.06
238.901	8.99
239.278	8.88
239.655	7.74
240.032	8.43
240.409	7.89
240.785	7.5
241.162	7.01
241.539	6.52
241.915	6.29
242.292	6.51
242.668	6.31
243.045	6.44
243.421	6.56
243.798	6.21
244.174	5.91
244.551	6.15
244.927	6.15
245.303	5.71
245.679	5.56
246.056	5.84
246.432	5.8
246.808	5.88
247.184	5.78
247.56	5.9
247.936	6
248.312	6.07
248.688	5.98
249.064	5.72
249.44	5.63
249.815	5.81
250.191	5.85
250.567	6.01
250.943	6.05
251.318	6.01
251.694	5.55
252.069	5.65
252.445	5.68
252.82	6.01
253.196	6.23
253.571	6.44
253.947	6.12
254.322	6.1
254.697	5.83
255.073	5.48
255.448	5.33
255.823	5.12
256.198	5.09
256.573	5.07
256.948	5.18
257.323	5.01
257.698	4.87
258.073	4.58
258.448	4.32
258.823	4.12
259.198	4.24
259.573	4.37
259.948	4.33
260.322	4.23
260.697	4.08
261.072	4.14
261.446	4.01
261.821	4.14
262.195	4.06
262.57	4.23
262.944	4.41
263.319	4.35
263.693	4.33
264.067	4.29
264.442	4.18
264.816	4.02
265.19	4.17
265.564	4.05
265.938	4.32
266.313	4.47
266.687	4.36
267.061	4.1
267.435	4.51
267.809	4.62
268.183	4.47
268.556	4.26
268.93	4.2
269.304	4.25
269.678	4.08
270.051	4.35
270.425	4.15
270.799	3.98
271.172	4.22
271.546	4.14
271.919	4.07
272.293	4.22
272.666	4.23
273.04	4.12
273.413	4.21
273.787	4.14
274.16	3.97
274.533	4.06
274.906	4.2
275.279	4.08
275.653	4.01
276.026	4.14
276.399	4.34
276.772	4.49
277.145	4.65
277.518	4.7
277.891	4.58
278.263	4.81
278.636	4.99
279.009	4.88
279.382	4.79
279.755	4.79
280.127	4.43
280.5	4.36
280.872	4.45
281.245	4.3
281.617	4.14
281.99	4.3
282.362	4.31
282.735	4.2
283.107	4.23
283.479	4.26
283.852	4.18
284.224	4.26
284.596	4.14
284.968	3.9
285.34	4.02
285.713	4.05
286.085	3.86
286.457	3.91
286.829	3.87
287.201	3.92
287.572	4.02
287.944	4.34
288.316	4.48
288.688	4.63
289.06	4.75
289.431	4.98
289.803	4.96
290.175	4.85
290.546	4.81
290.918	4.76
291.289	4.73
291.661	4.79
292.032	4.79
292.403	4.73
292.775	4.96
293.146	4.98
293.517	4.84
293.889	4.9
294.26	4.87
294.631	4.89
295.002	5.03
295.373	5.06
295.744	4.98
296.115	4.97
296.486	4.82
296.857	4.87
297.228	4.76
297.599	4.79
297.97	5.01
298.34	5.1
298.711	5.16
299.082	5.12
299.452	5.16
299.823	5.1
300.194	5.18
300.564	4.97
300.935	4.87
301.305	4.9
301.676	4.83
302.046	4.82
302.416	4.85
302.787	4.72
303.157	4.66
303.527	4.68
303.897	4.54
304.267	4.61
304.637	4.49
305.008	4.6
305.378	4.5
305.748	4.33
306.117	4.28
306.487	4.34
306.857	4.34
307.227	4.31
307.597	4.3
307.967	4.51
308.336	4.48
308.706	4.43
309.076	4.58
309.445	4.76
309.815	4.72
310.184	4.7
310.554	4.73
310.923	4.54
311.293	4.49
311.662	4.7
312.031	4.69
312.401	4.71
312.77	4.69
313.139	4.76
313.508	4.96
313.877	5.03
314.246	4.85
314.616	5.01
314.985	5.06
315.353	5.21
315.722	5.12
316.091	5.35
316.46	5.57
316.829	5.54
317.198	5.69
317.567	5.84
317.935	5.98
318.304	6.15
318.672	6.34
319.041	6.45
319.41	6.46
319.778	6.46
320.147	6.55
320.515	6.58
320.883	6.52
321.252	6.26
321.62	6.23
321.988	6.28
322.357	6.23
322.725	6.26
323.093	6.13
323.461	6.17
323.829	6.19
324.197	5.97
324.565	5.93
324.933	5.78
325.301	5.56
325.669	5.51
326.037	5.35
326.405	5.33
326.772	5.38
327.14	5.24
327.508	5.28
327.875	5.14
328.243	5.04
328.61	5.02
328.978	4.98
329.346	4.81
329.713	4.83
330.08	4.76
330.448	4.79
330.815	4.87
331.182	4.7
331.55	4.62
331.917	4.65
332.284	4.67
332.651	4.54
333.018	4.65
333.385	4.58
333.752	4.69
334.119	4.81
334.486	4.76
334.853	4.74
335.22	4.68
335.587	4.71
335.954	4.69
336.32	4.81
336.687	5.07
337.054	5.08
337.42	5.13
337.787	5.25
338.153	5.29
338.52	5.4
338.886	5.42
339.253	5.39
339.619	5.47
339.986	5.48
340.352	5.52
340.718	5.52
341.084	5.65
341.451	5.57
341.817	5.53
342.183	5.45
342.549	5.55
342.915	5.56
343.281	5.54
343.647	5.62
344.013	5.55
344.379	5.41
344.745	5.57
345.11	5.59
345.476	5.51
345.842	5.4
346.208	5.34
346.573	5.37
346.939	5.33
347.304	5.36
347.67	5.29
348.035	5.25
348.401	5.29
348.766	5.16
349.132	5.26
349.497	5.28
349.862	5.4
350.228	5.39
350.593	5.39
350.958	5.54
351.323	5.48
351.688	5.57
352.053	5.68
352.418	5.65
352.783	5.58
353.148	5.59
353.513	5.56
353.878	5.36
354.243	5.36
354.608	5.41
354.972	5.29
355.337	5.37
355.702	5.47
356.066	5.44
356.431	5.42
356.795	5.4
357.16	5.4
357.524	5.31
357.889	5.19
358.253	5.15
358.618	5.11
358.982	5.11
359.346	5.01
359.71	4.95
360.075	4.99
360.439	5
360.803	5.01
361.167	5.01
361.531	5.09
361.895	5.07
362.259	5.06
362.623	5.12
362.987	5.06
363.351	5.01
363.714	5.02
364.078	5.07
364.442	5.04
364.806	5.08
365.169	5.14
365.533	5.17
365.896	5.22
366.26	5.2
366.623	5.26
366.987	5.36
367.35	5.35
367.714	5.34
368.077	5.32
368.44	5.35
368.803	5.32
369.167	5.35
369.53	5.34
369.893	5.33
370.256	5.34
370.619	5.36
370.982	5.37
371.345	5.36
371.708	5.32
372.071	5.31
372.434	5.24
372.797	5.21
373.159	5.19
373.522	5.19
373.885	5.2
374.247	5.09
374.61	5.07
374.973	5.07
375.335	5.07
375.698	5.09
376.06	5.04
376.423	5.08
376.785	5.07
377.147	5.11
377.51	5.09
377.872	5.12
378.234	5.15
378.596	5.18
378.958	5.2
379.321	5.23
379.683	5.25
380.045	5.23
380.407	5.22
380.769	5.25
381.13	5.19
381.492	5.18
381.854	5.25
382.216	5.24
382.578	5.24
382.939	5.22
383.301	5.18
383.663	5.23
384.024	5.24
384.386	5.24
384.747	5.14
385.109	5.16
385.47	5.14
385.832	5.11
386.193	5.07
386.554	5.04
386.916	5.05
387.277	4.97
387.638	5.02
387.999	5.05
388.36	5.08
388.721	5.12
389.082	5.11
389.443	5.16
389.804	5.21
390.165	5.24
390.526	5.26
390.887	5.29
391.248	5.28
391.609	5.26
391.969	5.27
392.33	5.29
392.691	5.32
393.051	5.33
393.412	5.32
393.772	5.34
394.133	5.37
394.493	5.34
394.854	5.37
395.214	5.35
395.574	5.35
395.935	5.31
396.295	5.33
396.655	5.32
397.015	5.29
397.376	5.25
397.736	5.21
398.096	5.17
398.456	5.16
398.816	5.14
399.176	5.13
399.535	5.11
399.895	5.16
400.255	5.15
400.615	5.11
400.975	5.1
401.334	5.14
401.694	5.13
402.054	5.15
402.413	5.2
402.773	5.22
403.132	5.2
403.492	5.25
403.851	5.23
404.211	5.25
404.57	5.23
404.929	5.2
405.288	5.22
405.648	5.24
406.007	5.25
406.366	5.24
406.725	5.25
407.084	5.27
407.443	5.25
407.802	5.26
408.161	5.27
408.52	5.31
408.879	5.31
409.238	5.28
409.596	5.3
409.955	5.24
410.314	5.22
410.673	5.24
411.031	5.24
411.39	5.23
411.748	5.2
412.107	5.19
412.465	5.2
412.824	5.19
413.182	5.18
413.54	5.19
413.899	5.21
414.257	5.23
414.615	5.18
414.974	5.19
415.332	5.18
415.69	5.18
416.048	5.18
416.406	5.13
416.764	5.17
417.122	5.16
417.48	5.2
417.838	5.19
418.195	5.18
418.553	5.16
418.911	5.18
419.269	5.18
419.626	5.18
419.984	5.19
420.342	5.17
420.699	5.18
421.057	5.17
421.414	5.17
421.772	5.15
422.129	5.16
422.486	5.14
422.844	5.13
423.201	5.15
423.558	5.15
423.915	5.17
424.273	5.16
424.63	5.15
424.987	5.15
425.344	5.17
425.701	5.18
426.058	5.19
426.415	5.18
426.772	5.16
427.128	5.17
427.485	5.16
427.842	5.19
428.199	5.2
428.555	5.2
428.912	5.18
429.269	5.21
429.625	5.21
429.982	5.24
430.338	5.24
430.695	5.21
431.051	5.23
431.407	5.2
431.764	5.22
432.12	5.23
432.476	5.25
432.832	5.24
433.189	5.21
433.545	5.22
433.901	5.24
434.257	5.29
434.613	5.29
434.969	5.28
435.325	5.27
435.681	5.25
436.036	5.27
436.392	5.27
436.748	5.28
437.104	5.28
437.459	5.28
437.815	5.29
438.171	5.28
438.526	5.27
438.882	5.3
439.237	5.28
439.593	5.28
439.948	5.26
440.304	5.24
440.659	5.24
441.014	5.23
441.369	5.23
441.725	5.21
442.08	5.21
442.435	5.22
442.79	5.2
443.145	5.2
443.5	5.17
443.855	5.15
444.21	5.13
444.565	5.13
444.92	5.14
445.275	5.13
445.629	5.14
445.984	5.13
446.339	5.13
446.693	5.12
447.048	5.12
447.403	5.11
447.757	5.11
448.112	5.13
448.466	5.14
448.82	5.14
449.175	5.14
449.529	5.16
449.883	5.15
450.238	5.16
450.592	5.18
450.946	5.19
451.3	5.21
451.654	5.21
452.008	5.24
452.362	5.22
452.716	5.21
453.07	5.21
453.424	5.21
453.778	5.19
454.132	5.2
454.486	5.19
454.839	5.21
455.193	5.24
455.547	5.22
455.9	5.23
456.254	5.22
456.607	5.21
456.961	5.17
457.314	5.2
457.668	5.17
458.021	5.18
458.375	5.18
458.728	5.19
459.081	5.2
459.434	5.17
459.787	5.18
460.141	5.2
460.494	5.21
460.847	5.22
461.2	5.23
461.553	5.23
461.906	5.22
462.259	5.22
462.611	5.21
462.964	5.23
463.317	5.21
463.67	5.21
464.022	5.21
464.375	5.22
464.728	5.18
465.08	5.19
465.433	5.19
465.785	5.24
466.138	5.25
466.49	5.25
466.843	5.28
467.195	5.29
467.547	5.28
467.899	5.26
468.252	5.27
468.604	5.27
468.956	5.28
469.308	5.28
469.66	5.32
470.012	5.31
470.364	5.31
470.716	5.33
471.068	5.36
471.42	5.4
471.772	5.41
472.123	5.43
472.475	5.47
472.827	5.46
473.178	5.41
473.53	5.39
473.882	5.4
474.233	5.37
474.585	5.37
474.936	5.37
475.288	5.38
475.639	5.37
475.99	5.36
476.342	5.37
476.693	5.39
477.044	5.38
477.395	5.37
477.746	5.38
478.097	5.38
478.448	5.36
478.8	5.32
479.15	5.33
479.501	5.34
479.852	5.33
480.203	5.34
480.554	5.36
480.905	5.38
481.255	5.39
481.606	5.41
481.957	5.42
482.307	5.41
482.658	5.42
483.009	5.43
483.359	5.45
483.709	5.45
484.06	5.46
484.41	5.46
484.761	5.47
485.111	5.47
485.461	5.47
485.811	5.48
486.162	5.48
486.512	5.49
486.862	5.49
487.212	5.51
487.562	5.51
487.912	5.51
488.262	5.51
488.612	5.5
488.961	5.5
489.311	5.5
489.661	5.52
490.011	5.52
490.36	5.52
490.71	5.51
491.06	5.5
491.409	5.51
491.759	5.51
492.108	5.51
492.458	5.51
492.807	5.51
493.157	5.51
493.506	5.52
493.855	5.53
494.204	5.52
494.554	5.53
494.903	5.53
495.252	5.54
495.601	5.55
495.95	5.58
496.299	5.57
496.648	5.57
496.997	5.56
497.346	5.59
497.695	5.58
498.043	5.6
498.392	5.61
498.741	5.6
499.09	5.62
499.438	5.62
499.787	5.64
500.135	5.64
500.484	5.63
500.832	5.63
501.181	5.64
501.529	5.67
501.878	5.66
502.226	5.67
502.574	5.67
502.923	5.64
503.271	5.63
503.619	5.65
503.967	5.67
504.315	5.68
504.663	5.66
505.011	5.67
505.359	5.65
505.707	5.64
506.055	5.64
506.403	5.64
506.751	5.64
507.098	5.64
507.446	5.64
507.794	5.67
508.141	5.67
508.489	5.68
508.837	5.65
509.184	5.65
509.531	5.65
509.879	5.63
510.226	5.67
510.574	5.69
510.921	5.69
511.268	5.7
511.616	5.7
511.963	5.72
512.31	5.74
512.657	5.74
513.004	5.74
513.351	5.72
513.698	5.72
514.045	5.72
514.392	5.71
514.739	5.71
515.086	5.7
515.432	5.72
515.779	5.74
516.126	5.77
516.473	5.77
516.819	5.78
517.166	5.79
517.512	5.79
517.859	5.79
518.205	5.78
518.552	5.79
518.898	5.79
519.245	5.78
519.591	5.77
519.937	5.79
520.283	5.81
520.629	5.82
520.976	5.83
521.322	5.84
521.668	5.86
522.014	5.86
522.36	5.86
522.706	5.85
523.052	5.83
523.398	5.82
523.743	5.85
524.089	5.84
524.435	5.85
524.781	5.86
525.126	5.85
525.472	5.85
525.817	5.85
526.163	5.84
526.509	5.85
526.854	5.85
527.199	5.87
527.545	5.88
527.89	5.88
528.235	5.87
528.581	5.88
528.926	5.87
529.271	5.88
529.616	5.89
529.961	5.9
530.306	5.9
530.651	5.91
530.996	5.91
531.341	5.92
531.686	5.93
532.031	5.93
532.376	5.93
532.721	5.95
533.065	5.95
533.41	5.97
533.755	5.98
534.099	5.98
534.444	5.97
534.788	5.97
535.133	5.98
535.477	5.99
535.822	6
536.166	6.02
536.51	6.01
536.855	6.01
537.199	6
537.543	6
537.887	6
538.231	6
538.576	6
538.92	6.01
539.264	6.03
539.608	6.03
539.951	6.03
540.295	6.04
540.639	6.04
540.983	6.04
541.327	6.06
541.671	6.07
542.014	6.08
542.358	6.09
542.701	6.09
543.045	6.07
543.389	6.08
543.732	6.09
544.075	6.12
544.419	6.12
544.762	6.14
545.105	6.15
545.449	6.17
545.792	6.2
546.135	6.18
546.478	6.17
546.821	6.19
547.165	6.2
547.508	6.21
547.851	6.22
548.194	6.21
548.536	6.17
548.879	6.17
549.222	6.17
549.565	6.16
549.908	6.14
550.25	6.14
550.593	6.14
550.936	6.15
551.278	6.13
551.621	6.14
551.963	6.14
552.306	6.15
552.648	6.11
552.991	6.13
553.333	6.14
553.675	6.14
554.017	6.13
554.36	6.12
554.702	6.12
555.044	6.11
555.386	6.11
555.728	6.15
556.07	6.16
556.412	6.16
556.754	6.16
557.096	6.21
557.438	6.21
557.78	6.21
558.121	6.22
558.463	6.21
558.805	6.19
559.147	6.2
559.488	6.16
559.83	6.2
560.171	6.18
560.513	6.2
560.854	6.19
561.196	6.19
561.537	6.18
561.878	6.21
562.22	6.21
562.561	6.22
562.902	6.23
563.243	6.24
563.584	6.22
563.925	6.27
564.266	6.23
564.607	6.25
564.948	6.26
565.289	6.3
565.63	6.31
565.971	6.35
566.312	6.35
566.653	6.36
566.993	6.34
567.334	6.36
567.675	6.37
568.015	6.37
568.356	6.36
568.696	6.37
569.037	6.32
569.377	6.33
569.718	6.32
570.058	6.31
570.398	6.31
570.739	6.32
571.079	6.3
571.419	6.31
571.759	6.29
572.099	6.26
572.439	6.25
572.779	6.25
573.119	6.25
573.459	6.26
573.799	6.26
574.139	6.28
574.479	6.27
574.819	6.25
575.158	6.29
575.498	6.32
575.838	6.36
576.177	6.38
576.517	6.4
576.856	6.44
577.196	6.45
577.535	6.45
577.875	6.45
578.214	6.48
578.553	6.51
578.893	6.56
579.232	6.57
579.571	6.54
579.91	6.54
580.25	6.52
580.589	6.5
580.928	6.54
581.267	6.53
581.606	6.51
581.945	6.52
582.283	6.53
582.622	6.48
582.961	6.5
583.3	6.53
583.639	6.49
583.977	6.47
584.316	6.47
584.654	6.44
584.993	6.45
585.332	6.43
585.67	6.43
586.008	6.42
586.347	6.42
586.685	6.44
587.024	6.45
587.362	6.45
587.7	6.47
588.038	6.46
588.376	6.45
588.715	6.48
589.053	6.5
589.391	6.49
589.729	6.5
590.067	6.5
590.404	6.49
590.742	6.5
591.08	6.51
591.418	6.49
591.756	6.55
592.093	6.58
592.431	6.59
592.769	6.6
593.106	6.62
593.444	6.64
593.781	6.66
594.119	6.66
594.456	6.67
594.793	6.69
595.131	6.67
595.468	6.72
595.805	6.72
596.143	6.72
596.48	6.68
596.817	6.72
597.154	6.71
597.491	6.76
597.828	6.76
598.165	6.74
598.502	6.8
598.839	6.77
599.176	6.72
599.512	6.68
599.849	6.69
600.186	6.66
600.523	6.66
600.859	6.67
601.196	6.71
601.532	6.7
601.869	6.69
602.205	6.71
602.542	6.67
602.878	6.72
603.215	6.71
603.551	6.75
603.887	6.72
604.223	6.7
604.56	6.67
604.896	6.72
605.232	6.75
605.568	6.74
605.904	6.77
606.24	6.78
606.576	6.82
606.912	6.83
607.248	6.84
607.583	6.84
607.919	6.81
608.255	6.8
608.591	6.8
608.926	6.79
609.262	6.78
609.597	6.81
609.933	6.76
610.268	6.82
610.604	6.8
610.939	6.86
611.275	6.88
611.61	6.89
611.945	6.85
612.281	6.85
612.616	6.86
612.951	6.86
613.286	6.86
613.621	6.84
613.956	6.81
614.291	6.85
614.626	6.89
614.961	6.95
615.296	6.96
615.631	6.99
615.966	6.98
616.3	7.01
616.635	6.98
616.97	6.95
617.304	6.96
617.639	7
617.973	6.96
618.308	6.98
618.642	7.03
618.977	7.04
619.311	6.99
619.646	7
619.98	7
620.314	6.99
620.648	6.98
620.983	6.98
621.317	6.94
621.651	6.93
621.985	6.88
622.319	6.84
622.653	6.86
622.987	6.83
623.321	6.87
623.655	6.87
623.988	6.93
624.322	6.94
624.656	6.94
624.99	6.9
625.323	6.88
625.657	6.84
625.99	6.8
626.324	6.81
626.657	6.77
626.991	6.77
627.324	6.86
627.658	6.84
627.991	6.93
628.324	6.94
628.657	6.94
628.991	6.95
629.324	6.95
629.657	6.98
629.99	7.04
630.323	7.05
630.656	7.04
630.989	7
631.322	6.97
631.655	6.98
631.987	7.07
632.32	7.07
632.653	7.1
632.986	7.16
633.318	7.23
633.651	7.24
633.984	7.23
634.316	7.19
634.649	7.23
634.981	7.2
635.313	7.2
635.646	7.19
635.978	7.2
636.31	7.24
636.643	7.19
636.975	7.26
637.307	7.24
637.639	7.28
637.971	7.29
638.303	7.29
638.635	7.26
638.967	7.22
639.299	7.21
639.631	7.17
639.963	7.17
640.295	7.1
640.626	7.08
640.958	7.12
641.29	7.12
641.621	7.18
641.953	7.15
642.285	7.21
642.616	7.31
642.948	7.28
643.279	7.28
643.61	7.33
643.942	7.29
644.273	7.3
644.604	7.33
644.936	7.36
645.267	7.39
645.598	7.38
645.929	7.34
646.26	7.35
646.591	7.39
646.922	7.42
647.253	7.42
647.584	7.45
647.915	7.39
648.245	7.42
648.576	7.37
648.907	7.43
649.238	7.37
649.568	7.31
649.899	7.35
650.229	7.41
650.56	7.44
650.89	7.43
651.221	7.37
651.551	7.39
651.882	7.39
652.212	7.39
652.542	7.43
652.872	7.41
653.203	7.45
653.533	7.47
653.863	7.44
654.193	7.5
654.523	7.54
654.853	7.6
655.183	7.67
655.513	7.69
655.843	7.67
656.172	7.76
656.502	7.75
656.832	7.73
657.162	7.69
657.491	7.69
657.821	7.74
658.15	7.79
658.48	7.83
658.809	7.83
659.139	7.83
659.468	7.85
659.798	7.89
660.127	7.9
660.456	7.85
660.785	7.89
661.115	7.86
661.444	7.97
661.773	8.04
662.102	7.97
662.431	8.02
662.76	8.01
663.089	8.01
663.418	8.08
663.747	8.1
664.076	8.12
664.404	8.11
664.733	8.11
665.062	8.14
665.39	7.95
665.719	7.97
666.048	7.93
666.376	7.89
666.705	7.91
667.033	7.92
667.362	8.06
667.69	8.03
668.018	8.09
668.347	7.98
668.675	7.9
669.003	7.91
669.331	7.91
669.659	7.85
669.987	7.8
670.315	7.76
670.643	7.69
670.971	7.78
671.299	7.68
671.627	7.57
671.955	7.5
672.283	7.69
672.61	7.61
672.938	7.62
673.266	7.63
673.593	7.64
673.921	7.58
674.249	7.44
674.576	7.46
674.904	7.4
675.231	7.38
675.558	7.33
675.886	7.38
676.213	7.4
676.54	7.57
676.867	7.5
677.195	7.5
677.522	7.6
677.849	7.59
678.176	7.66
678.503	7.79
678.83	7.83
679.157	7.68
