Data from BA53509_Reflection_00009.txt Node
Date: Tue Nov 19 11:46:39 EST 2019
User: vgr7
Spectrometer: USB2G7710
Scans to average: 3
Trigger mode: 4
Integration Time (sec): 2.000000E-2
Electric dark correction enabled: true
Boxcar width: 10
XAxis mode: Wavelengths
Number of Pixels in Spectrum: 2048
>>>>>Begin Spectral Data<<<<<
177.721	-178.11
178.105	-2025
178.488	-90.84
178.871	-314.29
179.254	-420
179.636	-89.02
180.019	-254.84
180.402	125
180.785	5.88
181.168	-230.19
181.55	-41.84
181.933	80.39
182.316	41.52
182.698	100
183.081	218.64
183.463	612.2
183.846	-423.81
184.228	-602.13
184.611	1372.73
184.993	-65.22
185.376	-30.43
185.758	-28.44
186.14	-76.47
186.522	55.41
186.904	100
187.287	62.26
187.669	147.62
188.051	78.14
188.433	100
188.815	116.04
189.197	34.58
189.579	51.48
189.961	47.63
190.342	17.98
190.724	24.76
191.106	22.66
191.488	25.31
191.869	22.54
192.251	25.69
192.633	9.6
193.014	4.18
193.396	10.27
193.777	23.78
194.159	19.22
194.54	23.85
194.922	22.99
195.303	20.96
195.684	13.52
196.065	27.41
196.447	36.74
196.828	27.55
197.209	39.35
197.59	31.36
197.971	52.31
198.352	60.78
198.733	81.91
199.114	72.67
199.495	65.38
199.876	67.94
200.257	64.22
200.638	117.11
201.018	139.66
201.399	124.26
201.78	128.33
202.16	182.35
202.541	288.81
202.922	180.72
203.302	152.21
203.683	136.36
204.063	197.14
204.444	105.6
204.824	97.33
205.204	75.55
205.585	95.27
205.965	71.01
206.345	53.91
206.725	56.91
207.106	65.58
207.486	74.31
207.866	102.07
208.246	101.78
208.626	92.32
209.006	79.89
209.386	94.61
209.766	91.15
210.145	68.23
210.525	53.29
210.905	51.91
211.285	60.54
211.664	66.9
212.044	66.08
212.424	67.9
212.803	60.95
213.183	73.45
213.562	51.26
213.942	76.23
214.321	82.79
214.701	85.69
215.08	81.24
215.459	86.19
215.838	41.48
216.218	34.09
216.597	5.21
216.976	-15.45
217.355	-16.09
217.734	-28.87
218.113	-7.72
218.492	-14.99
218.871	-13.13
219.25	-19.86
219.629	-18.2
220.008	-34.44
220.387	-32.74
220.766	-12.48
221.144	-16.09
221.523	-8.79
221.902	-11.26
222.28	-0.62
222.659	9.37
223.037	9.76
223.416	15.42
223.794	29.35
224.173	19.58
224.551	28.38
224.929	41.61
225.308	33.22
225.686	32.73
226.064	23.47
226.442	28.25
226.821	31.31
227.199	34.92
227.577	29.76
227.955	34.24
228.333	29.13
228.711	23.41
229.089	17.13
229.467	15.74
229.845	10
230.222	10.25
230.6	7.91
230.978	9.75
231.356	6.5
231.733	7.12
232.111	9.41
232.488	11.29
232.866	10.4
233.243	9.98
233.621	13.68
233.998	14.57
234.376	12.57
234.753	11.87
235.13	8.25
235.508	8.95
235.885	9.02
236.262	9.79
236.639	10.64
237.016	12.08
237.393	10.96
237.77	12.28
238.147	12.45
238.524	11.9
238.901	9.79
239.278	9.42
239.655	8.77
240.032	8.29
240.409	7.28
240.785	7.08
241.162	7.18
241.539	6.21
241.915	5.93
242.292	6.3
242.668	6.6
243.045	7.1
243.421	7.12
243.798	7.03
244.174	7.25
244.551	7.19
244.927	7.33
245.303	6.92
245.679	6.68
246.056	6.24
246.432	6.48
246.808	6.46
247.184	6.51
247.56	6.5
247.936	6.69
248.312	6.7
248.688	6.82
249.064	6.68
249.44	6.55
249.815	6.63
250.191	6.56
250.567	6.28
250.943	6.33
251.318	6.21
251.694	5.92
252.069	6.01
252.445	6.18
252.82	6.33
253.196	6.86
253.571	6.98
253.947	7.4
254.322	7.29
254.697	7.22
255.073	7.37
255.448	7.27
255.823	6.95
256.198	6.98
256.573	6.87
256.948	6.76
257.323	6.72
257.698	6.59
258.073	6.55
258.448	6.47
258.823	6.27
259.198	6.35
259.573	6.27
259.948	6.03
260.322	6.01
260.697	6.01
261.072	6.02
261.446	6.12
261.821	5.84
262.195	5.75
262.57	5.77
262.944	5.48
263.319	5.45
263.693	5.37
264.067	5.43
264.442	5.33
264.816	5.26
265.19	5.15
265.564	5.06
265.938	4.87
266.313	4.71
266.687	4.78
267.061	4.72
267.435	4.91
267.809	5.01
268.183	5.05
268.556	4.7
268.93	4.59
269.304	4.4
269.678	4.6
270.051	4.58
270.425	4.53
270.799	4.58
271.172	4.6
271.546	4.78
271.919	4.87
272.293	5.05
272.666	5.17
273.04	5.29
273.413	5.15
273.787	5.25
274.16	5.46
274.533	5.51
274.906	5.61
275.279	5.42
275.653	5.39
276.026	5.36
276.399	5.45
276.772	5.51
277.145	5.51
277.518	5.22
277.891	5.21
278.263	5.32
278.636	5.44
279.009	5.29
279.382	5.31
279.755	5.15
280.127	4.93
280.5	4.78
280.872	4.97
281.245	5.1
281.617	5.13
281.99	5.04
282.362	4.86
282.735	4.72
283.107	4.77
283.479	4.81
283.852	4.61
284.224	4.69
284.596	4.64
284.968	4.71
285.34	4.88
285.713	4.87
286.085	4.96
286.457	4.91
286.829	5.15
287.201	5.05
287.572	5.16
287.944	5.17
288.316	5.28
288.688	5.19
289.06	5.33
289.431	5.43
289.803	5.59
290.175	5.76
290.546	5.76
290.918	5.76
291.289	5.65
291.661	5.88
292.032	5.82
292.403	5.91
292.775	5.96
293.146	6.07
293.517	6.19
293.889	6.11
294.26	6.23
294.631	6.16
295.002	6.15
295.373	6.14
295.744	6.27
296.115	6.4
296.486	6.51
296.857	6.53
297.228	6.49
297.599	6.41
297.97	6.61
298.34	6.68
298.711	6.7
299.082	6.76
299.452	6.76
299.823	6.89
300.194	6.96
300.564	7.06
300.935	7.05
301.305	7.1
301.676	7.31
302.046	7.29
302.416	7.27
302.787	7.35
303.157	7.53
303.527	7.57
303.897	7.46
304.267	7.35
304.637	7.37
305.008	7.49
305.378	7.6
305.748	7.37
306.117	7.38
306.487	7.7
306.857	7.86
307.227	7.93
307.597	7.9
307.967	7.91
308.336	7.79
308.706	7.94
309.076	8.16
309.445	8.28
309.815	8.31
310.184	8.4
310.554	8.54
310.923	8.38
311.293	8.45
311.662	8.49
312.031	8.52
312.401	8.51
312.77	8.52
313.139	8.56
313.508	8.67
313.877	8.86
314.246	8.75
314.616	8.72
314.985	8.71
315.353	8.91
315.722	9.01
316.091	9.16
316.46	9.22
316.829	9.28
317.198	9.32
317.567	9.58
317.935	9.82
318.304	10
318.672	10.2
319.041	10.28
319.41	10.5
319.778	10.55
320.147	10.76
320.515	10.74
320.883	10.9
321.252	10.97
321.62	11
321.988	11.12
322.357	11.31
322.725	11.45
323.093	11.31
323.461	11.33
323.829	11.39
324.197	11.5
324.565	11.25
324.933	11.06
325.301	10.9
325.669	10.92
326.037	11
326.405	11.1
326.772	11.1
327.14	11.1
327.508	11.19
327.875	11.2
328.243	11.26
328.61	11.17
328.978	11.12
329.346	11
329.713	11.02
330.08	11.01
330.448	11.05
330.815	11.31
331.182	11.37
331.55	11.45
331.917	11.47
332.284	11.67
332.651	11.78
333.018	11.97
333.385	11.82
333.752	11.74
334.119	11.89
334.486	12.03
334.853	11.88
335.22	11.89
335.587	11.79
335.954	11.7
336.32	11.88
336.687	11.96
337.054	12.09
337.42	12.08
337.787	12.06
338.153	12.08
338.52	12.06
338.886	11.97
339.253	11.96
339.619	12.06
339.986	12.08
340.352	12
340.718	11.92
341.084	12.14
341.451	12.06
341.817	11.95
342.183	11.89
342.549	12.14
342.915	12.13
343.281	12.28
343.647	12.42
344.013	12.41
344.379	12.48
344.745	12.37
345.11	12.33
345.476	12.44
345.842	12.47
346.208	12.46
346.573	12.48
346.939	12.52
347.304	12.38
347.67	12.34
348.035	12.47
348.401	12.44
348.766	12.33
349.132	12.51
349.497	12.55
349.862	12.48
350.228	12.43
350.593	12.52
350.958	12.64
351.323	12.6
351.688	12.52
352.053	12.5
352.418	12.51
352.783	12.58
353.148	12.4
353.513	12.37
353.878	12.36
354.243	12.25
354.608	12.28
354.972	12.28
355.337	12.3
355.702	12.2
356.066	12.19
356.431	12.18
356.795	12
357.16	11.92
357.524	11.92
357.889	11.8
358.253	11.8
358.618	11.65
358.982	11.59
359.346	11.62
359.71	11.6
360.075	11.65
360.439	11.71
360.803	11.83
361.167	11.78
361.531	11.73
361.895	11.73
362.259	11.63
362.623	11.62
362.987	11.59
363.351	11.57
363.714	11.57
364.078	11.59
364.442	11.56
364.806	11.49
365.169	11.5
365.533	11.56
365.896	11.51
366.26	11.45
366.623	11.43
366.987	11.43
367.35	11.48
367.714	11.44
368.077	11.3
368.44	11.18
368.803	11.1
369.167	11.02
369.53	11.08
369.893	11.07
370.256	10.94
370.619	10.87
370.982	10.8
371.345	10.77
371.708	10.64
372.071	10.58
372.434	10.51
372.797	10.44
373.159	10.31
373.522	10.23
373.885	10.23
374.247	10.15
374.61	10.11
374.973	10.02
375.335	9.89
375.698	9.79
376.06	9.69
376.423	9.67
376.785	9.63
377.147	9.53
377.51	9.45
377.872	9.41
378.234	9.35
378.596	9.35
378.958	9.26
379.321	9.21
379.683	9.16
380.045	9.15
380.407	9.06
380.769	8.99
381.13	8.92
381.492	8.84
381.854	8.79
382.216	8.71
382.578	8.6
382.939	8.52
383.301	8.48
383.663	8.52
384.024	8.48
384.386	8.51
384.747	8.48
385.109	8.45
385.47	8.45
385.832	8.39
386.193	8.31
386.554	8.22
386.916	8.21
387.277	8.1
387.638	8.06
387.999	7.99
388.36	7.92
388.721	7.87
389.082	7.77
389.443	7.76
389.804	7.72
390.165	7.68
390.526	7.68
390.887	7.58
391.248	7.47
391.609	7.44
391.969	7.35
392.33	7.3
392.691	7.25
393.051	7.14
393.412	7.11
393.772	7.12
394.133	7.09
394.493	7.04
394.854	7.05
395.214	7.01
395.574	7
395.935	6.94
396.295	6.92
396.655	6.87
397.015	6.77
397.376	6.69
397.736	6.65
398.096	6.61
398.456	6.57
398.816	6.53
399.176	6.42
399.535	6.37
399.895	6.3
400.255	6.26
400.615	6.25
400.975	6.18
401.334	6.11
401.694	6.1
402.054	6.05
402.413	6.01
402.773	5.96
403.132	5.93
403.492	5.98
403.851	5.9
404.211	5.91
404.57	5.94
404.929	5.93
405.288	5.91
405.648	5.87
406.007	5.88
406.366	5.84
406.725	5.84
407.084	5.82
407.443	5.8
407.802	5.75
408.161	5.72
408.52	5.75
408.879	5.72
409.238	5.68
409.596	5.68
409.955	5.65
410.314	5.65
410.673	5.62
411.031	5.59
411.39	5.58
411.748	5.56
412.107	5.52
412.465	5.46
412.824	5.43
413.182	5.38
413.54	5.37
413.899	5.36
414.257	5.33
414.615	5.28
414.974	5.29
415.332	5.3
415.69	5.26
416.048	5.23
416.406	5.16
416.764	5.13
417.122	5.06
417.48	5.06
417.838	5
418.195	4.99
418.553	4.94
418.911	4.93
419.269	4.92
419.626	4.9
419.984	4.88
420.342	4.85
420.699	4.85
421.057	4.83
421.414	4.82
421.772	4.82
422.129	4.82
422.486	4.8
422.844	4.77
423.201	4.78
423.558	4.75
423.915	4.78
424.273	4.77
424.63	4.78
424.987	4.76
425.344	4.78
425.701	4.79
426.058	4.79
426.415	4.76
426.772	4.73
427.128	4.74
427.485	4.75
427.842	4.75
428.199	4.73
428.555	4.73
428.912	4.74
429.269	4.74
429.625	4.73
429.982	4.7
430.338	4.72
430.695	4.69
431.051	4.69
431.407	4.67
431.764	4.66
432.12	4.65
432.476	4.64
432.832	4.63
433.189	4.6
433.545	4.61
433.901	4.64
434.257	4.64
434.613	4.65
434.969	4.63
435.325	4.63
435.681	4.64
436.036	4.65
436.392	4.62
436.748	4.63
437.104	4.63
437.459	4.63
437.815	4.65
438.171	4.65
438.526	4.63
438.882	4.62
439.237	4.63
439.593	4.63
439.948	4.63
440.304	4.61
440.659	4.6
441.014	4.58
441.369	4.57
441.725	4.56
442.08	4.54
442.435	4.52
442.79	4.51
443.145	4.5
443.5	4.48
443.855	4.48
444.21	4.46
444.565	4.46
444.92	4.44
445.275	4.42
445.629	4.42
445.984	4.41
446.339	4.42
446.693	4.42
447.048	4.41
447.403	4.41
447.757	4.42
448.112	4.43
448.466	4.42
448.82	4.42
449.175	4.42
449.529	4.43
449.883	4.44
450.238	4.44
450.592	4.45
450.946	4.45
451.3	4.44
451.654	4.43
452.008	4.44
452.362	4.45
452.716	4.44
453.07	4.44
453.424	4.46
453.778	4.45
454.132	4.44
454.486	4.44
454.839	4.45
455.193	4.44
455.547	4.42
455.9	4.41
456.254	4.41
456.607	4.4
456.961	4.4
457.314	4.4
457.668	4.41
458.021	4.39
458.375	4.39
458.728	4.4
459.081	4.39
459.434	4.39
459.787	4.4
460.141	4.41
460.494	4.41
460.847	4.42
461.2	4.4
461.553	4.4
461.906	4.4
462.259	4.39
462.611	4.39
462.964	4.4
463.317	4.41
463.67	4.44
464.022	4.43
464.375	4.4
464.728	4.4
465.08	4.41
465.433	4.43
465.785	4.44
466.138	4.43
466.49	4.44
466.843	4.45
467.195	4.47
467.547	4.47
467.899	4.49
468.252	4.49
468.604	4.52
468.956	4.54
469.308	4.57
469.66	4.57
470.012	4.6
470.364	4.62
470.716	4.65
471.068	4.67
471.42	4.7
471.772	4.75
472.123	4.76
472.475	4.78
472.827	4.78
473.178	4.78
473.53	4.8
473.882	4.81
474.233	4.8
474.585	4.79
474.936	4.78
475.288	4.75
475.639	4.74
475.99	4.71
476.342	4.7
476.693	4.67
477.044	4.66
477.395	4.63
477.746	4.61
478.097	4.58
478.448	4.55
478.8	4.52
479.15	4.49
479.501	4.48
479.852	4.47
480.203	4.47
480.554	4.47
480.905	4.47
481.255	4.46
481.606	4.47
481.957	4.46
482.307	4.46
482.658	4.46
483.009	4.46
483.359	4.48
483.709	4.5
484.06	4.51
484.41	4.51
484.761	4.53
485.111	4.54
485.461	4.55
485.811	4.55
486.162	4.56
486.512	4.57
486.862	4.58
487.212	4.59
487.562	4.6
487.912	4.6
488.262	4.61
488.612	4.63
488.961	4.64
489.311	4.66
489.661	4.67
490.011	4.67
490.36	4.68
490.71	4.69
491.06	4.68
491.409	4.69
491.759	4.71
492.108	4.7
492.458	4.72
492.807	4.73
493.157	4.78
493.506	4.8
493.855	4.82
494.204	4.82
494.554	4.84
494.903	4.87
495.252	4.91
495.601	4.94
495.95	4.96
496.299	4.99
496.648	5.02
496.997	5.07
497.346	5.13
497.695	5.17
498.043	5.24
498.392	5.28
498.741	5.33
499.09	5.39
499.438	5.46
499.787	5.49
500.135	5.53
500.484	5.56
500.832	5.63
501.181	5.7
501.529	5.76
501.878	5.83
502.226	5.89
502.574	5.96
502.923	5.99
503.271	6.03
503.619	6.1
503.967	6.16
504.315	6.22
504.663	6.28
505.011	6.35
505.359	6.38
505.707	6.44
506.055	6.51
506.403	6.55
506.751	6.61
507.098	6.69
507.446	6.76
507.794	6.81
508.141	6.9
508.489	6.99
508.837	7.08
509.184	7.15
509.531	7.21
509.879	7.26
510.226	7.36
510.574	7.46
510.921	7.53
511.268	7.63
511.616	7.72
511.963	7.82
512.31	7.92
512.657	8.01
513.004	8.11
513.351	8.18
513.698	8.28
514.045	8.37
514.392	8.48
514.739	8.6
515.086	8.73
515.432	8.84
515.779	8.93
516.126	9.04
516.473	9.13
516.819	9.24
517.166	9.37
517.512	9.49
517.859	9.59
518.205	9.7
518.552	9.8
518.898	9.88
519.245	9.96
519.591	10.07
519.937	10.17
520.283	10.29
520.629	10.43
520.976	10.58
521.322	10.75
521.668	10.89
522.014	11.02
522.36	11.17
522.706	11.32
523.052	11.46
523.398	11.61
523.743	11.79
524.089	12.01
524.435	12.17
524.781	12.33
525.126	12.5
525.472	12.64
525.817	12.8
526.163	12.95
526.509	13.09
526.854	13.2
527.199	13.32
527.545	13.42
527.89	13.53
528.235	13.64
528.581	13.75
528.926	13.86
529.271	14
529.616	14.12
529.961	14.23
530.306	14.36
530.651	14.53
530.996	14.69
531.341	14.83
531.686	15.01
532.031	15.18
532.376	15.35
532.721	15.53
533.065	15.69
533.41	15.86
533.755	16.05
534.099	16.27
534.444	16.45
534.788	16.67
535.133	16.86
535.477	17.05
535.822	17.25
536.166	17.49
536.51	17.72
536.855	17.98
537.199	18.25
537.543	18.5
537.887	18.78
538.231	19.02
538.576	19.27
538.92	19.52
539.264	19.72
539.608	19.96
539.951	20.16
540.295	20.38
540.639	20.58
540.983	20.78
541.327	20.99
541.671	21.2
542.014	21.38
542.358	21.58
542.701	21.76
543.045	21.95
543.389	22.11
543.732	22.31
544.075	22.5
544.419	22.71
544.762	22.92
545.105	23.12
545.449	23.35
545.792	23.58
546.135	23.82
546.478	24.1
546.821	24.37
547.165	24.63
547.508	24.92
547.851	25.22
548.194	25.47
548.536	25.74
548.879	26
549.222	26.33
549.565	26.6
549.908	26.86
550.25	27.16
550.593	27.47
550.936	27.71
551.278	27.99
551.621	28.28
551.963	28.58
552.306	28.82
552.648	29.09
552.991	29.35
553.333	29.57
553.675	29.83
554.017	30.04
554.36	30.31
554.702	30.55
555.044	30.82
555.386	31.09
555.728	31.31
556.07	31.56
556.412	31.78
556.754	32.03
557.096	32.29
557.438	32.53
557.78	32.79
558.121	33.04
558.463	33.3
558.805	33.54
559.147	33.78
559.488	34.02
559.83	34.3
560.171	34.51
560.513	34.72
560.854	34.99
561.196	35.25
561.537	35.47
561.878	35.65
562.22	35.84
562.561	36.02
562.902	36.28
563.243	36.48
563.584	36.7
563.925	36.91
564.266	37.15
564.607	37.34
564.948	37.52
565.289	37.7
565.63	37.83
565.971	38.03
566.312	38.14
566.653	38.35
566.993	38.46
567.334	38.63
567.675	38.84
568.015	38.94
568.356	39.14
568.696	39.27
569.037	39.45
569.377	39.59
569.718	39.8
570.058	39.96
570.398	40.09
570.739	40.24
571.079	40.4
571.419	40.54
571.759	40.7
572.099	40.85
572.439	41
572.779	41.2
573.119	41.3
573.459	41.46
573.799	41.61
574.139	41.81
574.479	41.96
574.819	42.05
575.158	42.22
575.498	42.36
575.838	42.51
576.177	42.64
576.517	42.77
576.856	42.91
577.196	42.99
577.535	43.13
577.875	43.24
578.214	43.38
578.553	43.61
578.893	43.78
579.232	43.89
579.571	44.04
579.91	44.18
580.25	44.3
580.589	44.43
580.928	44.52
581.267	44.59
581.606	44.7
581.945	44.92
582.283	45.04
582.622	45.11
582.961	45.24
583.3	45.34
583.639	45.48
583.977	45.52
584.316	45.7
584.654	45.84
584.993	45.96
585.332	46.09
585.67	46.12
586.008	46.14
586.347	46.27
586.685	46.36
587.024	46.39
587.362	46.56
587.7	46.62
588.038	46.74
588.376	46.78
588.715	46.89
589.053	46.84
589.391	46.97
589.729	47.12
590.067	47.25
590.404	47.36
590.742	47.42
591.08	47.54
591.418	47.54
591.756	47.64
592.093	47.7
592.431	47.74
592.769	47.82
593.106	47.9
593.444	47.98
593.781	48.1
594.119	48.19
594.456	48.23
594.793	48.27
595.131	48.25
595.468	48.36
595.805	48.4
596.143	48.52
596.48	48.52
596.817	48.54
597.154	48.58
597.491	48.66
597.828	48.75
598.165	48.83
598.502	48.89
598.839	48.9
599.176	48.92
599.512	48.98
599.849	49.05
600.186	49.08
600.523	49.17
600.859	49.26
601.196	49.32
601.532	49.31
601.869	49.44
602.205	49.53
602.542	49.62
602.878	49.66
603.215	49.73
603.551	49.77
603.887	49.75
604.223	49.75
604.56	49.76
604.896	49.83
605.232	49.85
605.568	49.95
605.904	50.01
606.24	50.08
606.576	50.13
606.912	50.16
607.248	50.17
607.583	50.16
607.919	50.14
608.255	50.13
608.591	50.22
608.926	50.25
609.262	50.26
609.597	50.26
609.933	50.28
610.268	50.36
610.604	50.42
610.939	50.55
611.275	50.61
611.61	50.64
611.945	50.57
612.281	50.53
612.616	50.53
612.951	50.49
613.286	50.62
613.621	50.64
613.956	50.59
614.291	50.69
614.626	50.77
614.961	50.8
615.296	51.03
615.631	51.08
615.966	51.11
616.3	51.24
616.635	51.3
616.97	51.31
617.304	51.21
617.639	51.25
617.973	51.23
618.308	51.3
618.642	51.33
618.977	51.46
619.311	51.46
619.646	51.55
619.98	51.64
620.314	51.62
620.648	51.57
620.983	51.6
621.317	51.56
621.651	51.47
621.985	51.52
622.319	51.4
622.653	51.38
622.987	51.33
623.321	51.31
623.655	51.28
623.988	51.42
624.322	51.52
624.656	51.48
624.99	51.39
625.323	51.28
625.657	51.36
625.99	51.39
626.324	51.46
626.657	51.44
626.991	51.43
627.324	51.39
627.658	51.55
627.991	51.6
628.324	51.7
628.657	51.79
628.991	51.81
629.324	51.85
629.657	51.87
629.99	51.91
630.323	51.99
630.656	52.04
630.989	51.95
631.322	51.92
631.655	51.9
631.987	52.03
632.32	52.14
632.653	52.14
632.986	52.13
633.318	52.18
633.651	52.22
633.984	52.32
634.316	52.43
634.649	52.34
634.981	52.39
635.313	52.39
635.646	52.38
635.978	52.41
636.31	52.47
636.643	52.61
636.975	52.74
637.307	52.76
637.639	52.78
637.971	52.88
638.303	52.89
638.635	52.95
638.967	52.95
639.299	52.95
639.631	52.94
639.963	52.93
640.295	52.98
640.626	53.01
640.958	53.01
641.29	53.02
641.621	53
641.953	53.01
642.285	52.99
642.616	53
642.948	52.94
643.279	52.79
643.61	52.81
643.942	52.71
644.273	52.61
644.604	52.67
644.936	52.68
645.267	52.77
645.598	52.89
645.929	52.87
646.26	52.87
646.591	52.85
646.922	52.87
647.253	52.81
647.584	52.76
647.915	52.68
648.245	52.71
648.576	52.81
648.907	52.8
649.238	52.8
649.568	52.82
649.899	52.84
650.229	52.93
650.56	52.82
650.89	52.79
651.221	52.94
651.551	52.98
651.882	52.93
652.212	52.92
652.542	52.91
652.872	52.95
653.203	52.97
653.533	53.07
653.863	53.16
654.193	53.18
654.523	53.27
654.853	53.44
655.183	53.36
655.513	53.33
655.843	53.23
656.172	53.29
656.502	53.28
656.832	53.38
657.162	53.33
657.491	53.32
657.821	53.42
658.15	53.33
658.48	53.28
658.809	53.53
659.139	53.55
659.468	53.55
659.798	53.52
660.127	53.53
660.456	53.52
660.785	53.49
661.115	53.46
661.444	53.41
661.773	53.32
662.102	53.32
662.431	53.34
662.76	53.45
663.089	53.47
663.418	53.5
663.747	53.46
664.076	53.55
664.404	53.52
664.733	53.43
665.062	53.41
665.39	53.27
665.719	53.07
