Data from BA53509_Reflection_00005.txt Node
Date: Tue Nov 19 11:46:28 EST 2019
User: vgr7
Spectrometer: USB2G7710
Scans to average: 3
Trigger mode: 4
Integration Time (sec): 2.000000E-2
Electric dark correction enabled: true
Boxcar width: 10
XAxis mode: Wavelengths
Number of Pixels in Spectrum: 2048
>>>>>Begin Spectral Data<<<<<
177.721	24.06
178.105	16.67
178.488	-153.18
178.871	-390.48
179.254	-613.33
179.636	-215.04
180.019	-733.33
180.402	100
180.785	43.14
181.168	-91.82
181.55	-21.75
181.933	20.48
182.316	40.55
182.698	51.1
183.081	232.77
183.463	364.23
183.846	-230.69
184.228	-258.16
184.611	903.03
184.993	-72.46
185.376	-54.24
185.758	-100.31
186.14	-239.22
186.522	-128.24
186.904	-518.52
187.287	-481.76
187.669	-174.6
188.051	-73.95
188.433	-94.99
188.815	-86.27
189.197	-58.36
189.579	-42.41
189.961	-71.65
190.342	-37.58
190.724	-37.94
191.106	-39.53
191.488	-32.55
191.869	-29.78
192.251	-40.28
192.633	-44.41
193.014	-32.03
193.396	-28.56
193.777	-7.53
194.159	-0.16
194.54	4.08
194.922	7.32
195.303	-5.19
195.684	-13.07
196.065	-9.93
196.447	-8.79
196.828	-3.28
197.209	-6.96
197.59	-15.52
197.971	7.85
198.352	-3.09
198.733	-8.1
199.114	-8.96
199.495	-27.97
199.876	-23.91
200.257	-23.98
200.638	-16.95
201.018	-83.66
201.399	-69.36
201.78	-109.16
202.16	-154.25
202.541	-374.36
202.922	-231.09
203.302	-220.62
203.683	-179.39
204.063	-327.62
204.444	-154.44
204.824	-166.22
205.204	-139.2
205.585	-133.65
205.965	-125.33
206.345	-118.1
206.725	-90.01
207.106	-98.53
207.486	-88.69
207.866	-98.41
208.246	-80.88
208.626	-99.3
209.006	-67.89
209.386	-64.87
209.766	-41.3
210.145	-31.37
210.525	-19.56
210.905	-28.03
211.285	-15.7
211.664	-22.53
212.044	-30.03
212.424	-15.3
212.803	-16.86
213.183	-39.53
213.562	-19.05
213.942	-28.75
214.321	-28.8
214.701	-59.17
215.08	-47.9
215.459	-49.57
215.838	-58.06
216.218	-57.88
216.597	-46.66
216.976	-67.8
217.355	-70.54
217.734	-85.7
218.113	-97.19
218.492	-111.16
218.871	-109.76
219.25	-114.37
219.629	-124.83
220.008	-115.16
220.387	-120.94
220.766	-115.88
221.144	-100.39
221.523	-111.38
221.902	-95.16
222.28	-74.95
222.659	-54.31
223.037	-67.72
223.416	-57.05
223.794	-41.13
224.173	-55
224.551	-51.25
224.929	-50.91
225.308	-49.03
225.686	-49.17
226.064	-42.84
226.442	-35.13
226.821	-30.6
227.199	-20.45
227.577	-16.64
227.955	-12.4
228.333	-14.31
228.711	-12.45
229.089	-11.55
229.467	-6.53
229.845	-7.02
230.222	-5.83
230.6	-5.71
230.978	-0.23
231.356	-1.24
231.733	-4.26
232.111	-1.18
232.488	0.28
232.866	3.99
233.243	4.3
233.621	6.64
233.998	6.6
234.376	6.67
234.753	5.06
235.13	3.9
235.508	2.57
235.885	1.42
236.262	2.13
236.639	0.52
237.016	2.29
237.393	1.24
237.77	1.96
238.147	1.08
238.524	2.33
238.901	1.62
239.278	1.51
239.655	1.82
240.032	2.2
240.409	2.42
240.785	1.59
241.162	1.67
241.539	1.03
241.915	1.17
242.292	1.88
242.668	2.45
243.045	2.8
243.421	3.62
243.798	4.24
244.174	4.02
244.551	4.38
244.927	4.25
245.303	4.17
245.679	4.4
246.056	4.45
246.432	4.45
246.808	4.73
247.184	4.72
247.56	4.66
247.936	4.89
248.312	4.87
248.688	4.81
249.064	4.73
249.44	4.77
249.815	4.72
250.191	4.47
250.567	4.4
250.943	4.37
251.318	3.97
251.694	3.65
252.069	3.77
252.445	3.98
252.82	4.28
253.196	4.6
253.571	4.59
253.947	4.74
254.322	4.36
254.697	3.95
255.073	3.75
255.448	4.22
255.823	4.37
256.198	4.24
256.573	4.48
256.948	4.68
257.323	4.87
257.698	4.97
258.073	4.74
258.448	4.67
258.823	4.6
259.198	4.86
259.573	4.93
259.948	4.96
260.322	4.79
260.697	4.67
261.072	4.47
261.446	4.54
261.821	4.6
262.195	4.62
262.57	4.8
262.944	4.86
263.319	4.63
263.693	4.39
264.067	4.6
264.442	4.65
264.816	4.48
265.19	4.36
265.564	4.19
265.938	4.48
266.313	4.44
266.687	4.44
267.061	4.46
267.435	4.5
267.809	4.2
268.183	4.3
268.556	4.13
268.93	4.39
269.304	4.2
269.678	4.07
270.051	4
270.425	3.96
270.799	3.7
271.172	3.66
271.546	3.85
271.919	3.7
272.293	3.74
272.666	3.82
273.04	3.91
273.413	4.06
273.787	3.98
274.16	4.1
274.533	4.37
274.906	4.35
275.279	4.22
275.653	4.59
276.026	4.56
276.399	4.57
276.772	4.55
277.145	4.53
277.518	4.28
277.891	4.33
278.263	4.32
278.636	4.87
279.009	4.98
279.382	4.67
279.755	4.58
280.127	4.51
280.5	4.51
280.872	4.52
281.245	4.41
281.617	4.42
281.99	4.45
282.362	4.22
282.735	4.04
283.107	4.12
283.479	4.14
283.852	4.1
284.224	4.31
284.596	4.19
284.968	4.17
285.34	4.39
285.713	4.5
286.085	4.53
286.457	4.34
286.829	4.24
287.201	4.18
287.572	4.12
287.944	4.1
288.316	4.21
288.688	4.16
289.06	4.17
289.431	4.09
289.803	4.04
290.175	3.93
290.546	3.93
290.918	3.97
291.289	3.84
291.661	3.82
292.032	3.69
292.403	3.63
292.775	3.81
293.146	3.78
293.517	3.81
293.889	3.76
294.26	3.84
294.631	3.96
295.002	4.12
295.373	4.23
295.744	4.2
296.115	4.2
296.486	4.26
296.857	4.28
297.228	4.33
297.599	4.24
297.97	4.29
298.34	4.41
298.711	4.33
299.082	4.37
299.452	4.42
299.823	4.46
300.194	4.63
300.564	4.41
300.935	4.5
301.305	4.48
301.676	4.5
302.046	4.35
302.416	4.28
302.787	4.18
303.157	4.24
303.527	4.37
303.897	4.41
304.267	4.36
304.637	4.46
305.008	4.41
305.378	4.46
305.748	4.5
306.117	4.45
306.487	4.6
306.857	4.53
307.227	4.66
307.597	4.66
307.967	4.56
308.336	4.81
308.706	4.7
309.076	4.78
309.445	4.85
309.815	4.99
310.184	5.15
310.554	5.26
310.923	5.19
311.293	5.14
311.662	5.07
312.031	5
312.401	4.9
312.77	4.92
313.139	4.89
313.508	4.92
313.877	4.93
314.246	4.86
314.616	4.82
314.985	4.68
315.353	4.68
315.722	4.85
316.091	4.74
316.46	4.6
316.829	4.49
317.198	4.42
317.567	4.4
317.935	4.17
318.304	4.29
318.672	4.37
319.041	4.25
319.41	4.25
319.778	4.57
320.147	4.57
320.515	4.71
320.883	4.78
321.252	4.8
321.62	4.69
321.988	4.73
322.357	4.86
322.725	4.92
323.093	4.81
323.461	4.69
323.829	4.72
324.197	4.74
324.565	4.72
324.933	4.75
325.301	4.76
325.669	4.75
326.037	4.82
326.405	4.71
326.772	4.86
327.14	4.85
327.508	4.59
327.875	4.61
328.243	4.48
328.61	4.43
328.978	4.34
329.346	4.29
329.713	4.34
330.08	4.27
330.448	4.18
330.815	4.3
331.182	4.2
331.55	4.14
331.917	4.17
332.284	4.32
332.651	4.42
333.018	4.3
333.385	4.44
333.752	4.3
334.119	4.35
334.486	4.37
334.853	4.28
335.22	4.26
335.587	4.25
335.954	4.29
336.32	4.32
336.687	4.42
337.054	4.44
337.42	4.26
337.787	4.14
338.153	4.26
338.52	4.24
338.886	4.17
339.253	4.05
339.619	4.27
339.986	4.13
340.352	3.96
340.718	4.05
341.084	3.99
341.451	4.01
341.817	4.02
342.183	3.85
342.549	3.96
342.915	4.02
343.281	4.07
343.647	3.97
344.013	3.95
344.379	3.88
344.745	3.9
345.11	4.08
345.476	4.24
345.842	4.07
346.208	4.04
346.573	4.18
346.939	4.28
347.304	4.25
347.67	4.23
348.035	4.25
348.401	4.22
348.766	4.12
349.132	4.11
349.497	4.18
349.862	4.2
350.228	4.02
350.593	4.05
350.958	4.11
351.323	4.2
351.688	4.21
352.053	4.21
352.418	4.25
352.783	4.18
353.148	4.12
353.513	4.28
353.878	4.24
354.243	4.17
354.608	4.24
354.972	4.15
355.337	4.26
355.702	4.24
356.066	4.26
356.431	4.31
356.795	4.26
357.16	4.25
357.524	4.32
357.889	4.41
358.253	4.36
358.618	4.26
358.982	4.27
359.346	4.29
359.71	4.29
360.075	4.3
360.439	4.31
360.803	4.3
361.167	4.28
361.531	4.33
361.895	4.32
362.259	4.31
362.623	4.33
362.987	4.32
363.351	4.31
363.714	4.23
364.078	4.27
364.442	4.29
364.806	4.28
365.169	4.27
365.533	4.26
365.896	4.3
366.26	4.33
366.623	4.31
366.987	4.3
367.35	4.31
367.714	4.36
368.077	4.36
368.44	4.39
368.803	4.25
369.167	4.15
369.53	4.18
369.893	4.08
370.256	4.01
370.619	3.98
370.982	3.95
371.345	4.02
371.708	4.03
372.071	4.03
372.434	4
372.797	3.97
373.159	3.94
373.522	3.9
373.885	3.92
374.247	3.89
374.61	3.9
374.973	3.88
375.335	3.84
375.698	3.79
376.06	3.79
376.423	3.9
376.785	3.91
377.147	3.89
377.51	3.93
377.872	4
378.234	4.08
378.596	4.07
378.958	4.07
379.321	4.03
379.683	4.08
380.045	4.04
380.407	4.03
380.769	4.05
381.13	4.05
381.492	4.07
381.854	4.07
382.216	4.11
382.578	4.12
382.939	4.14
383.301	4.19
383.663	4.16
384.024	4.13
384.386	4.15
384.747	4.22
385.109	4.22
385.47	4.2
385.832	4.1
386.193	4.1
386.554	4.1
386.916	4.14
387.277	4.11
387.638	4.21
387.999	4.21
388.36	4.22
388.721	4.25
389.082	4.23
389.443	4.21
389.804	4.27
390.165	4.29
390.526	4.28
390.887	4.27
391.248	4.24
391.609	4.28
391.969	4.3
392.33	4.24
392.691	4.24
393.051	4.25
393.412	4.27
393.772	4.29
394.133	4.26
394.493	4.25
394.854	4.23
395.214	4.19
395.574	4.18
395.935	4.15
396.295	4.18
396.655	4.16
397.015	4.2
397.376	4.13
397.736	4.09
398.096	4.08
398.456	4.04
398.816	4.14
399.176	4.07
399.535	4.06
399.895	4.07
400.255	4.09
400.615	4.08
400.975	4.07
401.334	4.09
401.694	4.11
402.054	4.14
402.413	4.17
402.773	4.14
403.132	4.14
403.492	4.15
403.851	4.13
404.211	4.13
404.57	4.14
404.929	4.14
405.288	4.15
405.648	4.15
406.007	4.21
406.366	4.14
406.725	4.2
407.084	4.18
407.443	4.19
407.802	4.19
408.161	4.18
408.52	4.18
408.879	4.18
409.238	4.18
409.596	4.17
409.955	4.14
410.314	4.15
410.673	4.15
411.031	4.16
411.39	4.13
411.748	4.15
412.107	4.12
412.465	4.12
412.824	4.14
413.182	4.14
413.54	4.11
413.899	4.12
414.257	4.09
414.615	4.11
414.974	4.13
415.332	4.13
415.69	4.16
416.048	4.18
416.406	4.17
416.764	4.16
417.122	4.13
417.48	4.17
417.838	4.18
418.195	4.18
418.553	4.19
418.911	4.18
419.269	4.15
419.626	4.16
419.984	4.16
420.342	4.17
420.699	4.17
421.057	4.16
421.414	4.15
421.772	4.15
422.129	4.15
422.486	4.16
422.844	4.16
423.201	4.16
423.558	4.16
423.915	4.16
424.273	4.17
424.63	4.19
424.987	4.17
425.344	4.18
425.701	4.18
426.058	4.17
426.415	4.18
426.772	4.21
427.128	4.22
427.485	4.23
427.842	4.23
428.199	4.23
428.555	4.26
428.912	4.27
429.269	4.28
429.625	4.27
429.982	4.27
430.338	4.26
430.695	4.23
431.051	4.26
431.407	4.24
431.764	4.23
432.12	4.26
432.476	4.25
432.832	4.25
433.189	4.26
433.545	4.26
433.901	4.26
434.257	4.23
434.613	4.23
434.969	4.22
435.325	4.22
435.681	4.23
436.036	4.21
436.392	4.21
436.748	4.22
437.104	4.21
437.459	4.18
437.815	4.19
438.171	4.19
438.526	4.17
438.882	4.19
439.237	4.21
439.593	4.19
439.948	4.19
440.304	4.19
440.659	4.17
441.014	4.18
441.369	4.19
441.725	4.21
442.08	4.21
442.435	4.21
442.79	4.19
443.145	4.18
443.5	4.19
443.855	4.18
444.21	4.19
444.565	4.21
444.92	4.23
445.275	4.24
445.629	4.24
445.984	4.25
446.339	4.23
446.693	4.2
447.048	4.19
447.403	4.21
447.757	4.21
448.112	4.21
448.466	4.21
448.82	4.19
449.175	4.18
449.529	4.18
449.883	4.18
450.238	4.16
450.592	4.15
450.946	4.13
451.3	4.15
451.654	4.13
452.008	4.13
452.362	4.13
452.716	4.13
453.07	4.12
453.424	4.13
453.778	4.16
454.132	4.15
454.486	4.17
454.839	4.13
455.193	4.14
455.547	4.15
455.9	4.15
456.254	4.16
456.607	4.17
456.961	4.16
457.314	4.19
457.668	4.23
458.021	4.25
458.375	4.25
458.728	4.26
459.081	4.25
459.434	4.24
459.787	4.24
460.141	4.23
460.494	4.24
460.847	4.22
461.2	4.19
461.553	4.23
461.906	4.23
462.259	4.24
462.611	4.22
462.964	4.22
463.317	4.21
463.67	4.22
464.022	4.22
464.375	4.21
464.728	4.2
465.08	4.2
465.433	4.18
465.785	4.18
466.138	4.16
466.49	4.2
466.843	4.2
467.195	4.21
467.547	4.21
467.899	4.24
468.252	4.26
468.604	4.27
468.956	4.26
469.308	4.27
469.66	4.26
470.012	4.26
470.364	4.26
470.716	4.29
471.068	4.28
471.42	4.27
471.772	4.29
472.123	4.29
472.475	4.31
472.827	4.32
473.178	4.33
473.53	4.34
473.882	4.32
474.233	4.33
474.585	4.33
474.936	4.33
475.288	4.3
475.639	4.3
475.99	4.27
476.342	4.27
476.693	4.26
477.044	4.29
477.395	4.29
477.746	4.29
478.097	4.28
478.448	4.28
478.8	4.29
479.15	4.28
479.501	4.28
479.852	4.26
480.203	4.27
480.554	4.28
480.905	4.29
481.255	4.29
481.606	4.3
481.957	4.3
482.307	4.3
482.658	4.32
483.009	4.31
483.359	4.32
483.709	4.33
484.06	4.32
484.41	4.32
484.761	4.33
485.111	4.33
485.461	4.34
485.811	4.35
486.162	4.36
486.512	4.36
486.862	4.37
487.212	4.37
487.562	4.36
487.912	4.36
488.262	4.35
488.612	4.36
488.961	4.36
489.311	4.36
489.661	4.35
490.011	4.33
490.36	4.33
490.71	4.33
491.06	4.33
491.409	4.33
491.759	4.33
492.108	4.33
492.458	4.31
492.807	4.3
493.157	4.29
493.506	4.29
493.855	4.29
494.204	4.28
494.554	4.27
494.903	4.29
495.252	4.3
495.601	4.3
495.95	4.28
496.299	4.28
496.648	4.3
496.997	4.31
497.346	4.32
497.695	4.31
498.043	4.32
498.392	4.32
498.741	4.34
499.09	4.35
499.438	4.34
499.787	4.37
500.135	4.36
500.484	4.37
500.832	4.37
501.181	4.37
501.529	4.37
501.878	4.36
502.226	4.35
502.574	4.35
502.923	4.35
503.271	4.35
503.619	4.35
503.967	4.33
504.315	4.34
504.663	4.36
505.011	4.38
505.359	4.37
505.707	4.38
506.055	4.38
506.403	4.35
506.751	4.36
507.098	4.36
507.446	4.37
507.794	4.37
508.141	4.37
508.489	4.38
508.837	4.38
509.184	4.39
509.531	4.4
509.879	4.4
510.226	4.39
510.574	4.38
510.921	4.37
511.268	4.39
511.616	4.38
511.963	4.37
512.31	4.37
512.657	4.37
513.004	4.34
513.351	4.34
513.698	4.35
514.045	4.34
514.392	4.33
514.739	4.36
515.086	4.39
515.432	4.38
515.779	4.39
516.126	4.44
516.473	4.44
516.819	4.44
517.166	4.46
517.512	4.46
517.859	4.48
518.205	4.48
518.552	4.48
518.898	4.48
519.245	4.5
519.591	4.52
519.937	4.53
520.283	4.55
520.629	4.55
520.976	4.58
521.322	4.61
521.668	4.63
522.014	4.6
522.36	4.58
522.706	4.58
523.052	4.58
523.398	4.55
523.743	4.56
524.089	4.58
524.435	4.54
524.781	4.56
525.126	4.56
525.472	4.59
525.817	4.6
526.163	4.59
526.509	4.6
526.854	4.6
527.199	4.62
527.545	4.63
527.89	4.64
528.235	4.64
528.581	4.63
528.926	4.63
529.271	4.63
529.616	4.64
529.961	4.65
530.306	4.65
530.651	4.67
530.996	4.66
531.341	4.66
531.686	4.68
532.031	4.69
532.376	4.68
532.721	4.67
533.065	4.68
533.41	4.69
533.755	4.68
534.099	4.67
534.444	4.66
534.788	4.64
535.133	4.64
535.477	4.63
535.822	4.64
536.166	4.64
536.51	4.64
536.855	4.64
537.199	4.65
537.543	4.63
537.887	4.62
538.231	4.64
538.576	4.65
538.92	4.66
539.264	4.65
539.608	4.67
539.951	4.68
540.295	4.68
540.639	4.69
540.983	4.69
541.327	4.71
541.671	4.7
542.014	4.72
542.358	4.72
542.701	4.7
543.045	4.7
543.389	4.71
543.732	4.72
544.075	4.73
544.419	4.72
544.762	4.74
545.105	4.74
545.449	4.73
545.792	4.71
546.135	4.7
546.478	4.71
546.821	4.71
547.165	4.71
547.508	4.7
547.851	4.7
548.194	4.68
548.536	4.66
548.879	4.65
549.222	4.65
549.565	4.67
549.908	4.68
550.25	4.66
550.593	4.64
550.936	4.65
551.278	4.65
551.621	4.61
551.963	4.62
552.306	4.62
552.648	4.63
552.991	4.64
553.333	4.65
553.675	4.65
554.017	4.62
554.36	4.61
554.702	4.59
555.044	4.57
555.386	4.6
555.728	4.64
556.07	4.66
556.412	4.66
556.754	4.62
557.096	4.66
557.438	4.66
557.78	4.64
558.121	4.62
558.463	4.58
558.805	4.62
559.147	4.6
559.488	4.59
559.83	4.59
560.171	4.56
560.513	4.57
560.854	4.58
561.196	4.6
561.537	4.63
561.878	4.66
562.22	4.68
562.561	4.69
562.902	4.69
563.243	4.68
563.584	4.68
563.925	4.74
564.266	4.71
564.607	4.72
564.948	4.71
565.289	4.74
565.63	4.75
565.971	4.75
566.312	4.75
566.653	4.75
566.993	4.73
567.334	4.75
567.675	4.75
568.015	4.71
568.356	4.72
568.696	4.7
569.037	4.69
569.377	4.66
569.718	4.64
570.058	4.64
570.398	4.62
570.739	4.61
571.079	4.59
571.419	4.6
571.759	4.62
572.099	4.65
572.439	4.64
572.779	4.67
573.119	4.66
573.459	4.68
573.799	4.7
574.139	4.72
574.479	4.71
574.819	4.72
575.158	4.76
575.498	4.76
575.838	4.76
576.177	4.75
576.517	4.8
576.856	4.8
577.196	4.78
577.535	4.8
577.875	4.82
578.214	4.83
578.553	4.79
578.893	4.8
579.232	4.8
579.571	4.83
579.91	4.81
580.25	4.85
580.589	4.82
580.928	4.82
581.267	4.82
581.606	4.85
581.945	4.86
582.283	4.85
582.622	4.82
582.961	4.81
583.3	4.84
583.639	4.81
583.977	4.75
584.316	4.78
584.654	4.79
584.993	4.76
585.332	4.78
585.67	4.77
586.008	4.75
586.347	4.74
586.685	4.71
587.024	4.74
587.362	4.69
587.7	4.72
588.038	4.78
588.376	4.79
588.715	4.77
589.053	4.77
589.391	4.75
589.729	4.77
590.067	4.75
590.404	4.8
590.742	4.77
591.08	4.82
591.418	4.85
591.756	4.85
592.093	4.86
592.431	4.83
592.769	4.86
593.106	4.82
593.444	4.89
593.781	4.93
594.119	4.9
594.456	4.94
594.793	4.89
595.131	4.83
595.468	4.84
595.805	4.83
596.143	4.82
596.48	4.86
596.817	4.84
597.154	4.85
597.491	4.79
597.828	4.84
598.165	4.83
598.502	4.78
598.839	4.76
599.176	4.75
599.512	4.74
599.849	4.74
600.186	4.8
600.523	4.75
600.859	4.77
601.196	4.79
601.532	4.76
601.869	4.81
602.205	4.84
602.542	4.79
602.878	4.82
603.215	4.85
603.551	4.82
603.887	4.83
604.223	4.84
604.56	4.86
604.896	4.86
605.232	4.9
605.568	4.88
605.904	4.88
606.24	4.89
606.576	4.9
606.912	4.9
607.248	4.9
607.583	4.89
607.919	4.85
608.255	4.8
608.591	4.87
608.926	4.87
609.262	4.83
609.597	4.85
609.933	4.84
610.268	4.84
610.604	4.83
610.939	4.86
611.275	4.85
611.61	4.87
611.945	4.87
612.281	4.84
612.616	4.86
612.951	4.89
613.286	4.89
613.621	4.9
613.956	4.9
614.291	4.86
614.626	4.85
614.961	4.87
615.296	4.95
615.631	4.86
615.966	4.85
616.3	4.93
616.635	4.93
616.97	4.95
617.304	4.89
617.639	4.95
617.973	4.95
618.308	4.95
618.642	4.96
618.977	4.93
619.311	4.93
619.646	4.97
619.98	4.98
620.314	4.98
620.648	5.01
620.983	5.04
621.317	5.07
621.651	5.04
621.985	5
622.319	4.95
622.653	4.95
622.987	4.9
623.321	4.86
623.655	4.85
623.988	4.88
624.322	4.88
624.656	4.87
624.99	4.85
625.323	4.83
625.657	4.82
625.99	4.84
626.324	4.81
626.657	4.8
626.991	4.81
627.324	4.83
627.658	4.8
627.991	4.79
628.324	4.77
628.657	4.82
628.991	4.84
629.324	4.82
629.657	4.85
629.99	4.91
630.323	4.96
630.656	4.99
630.989	4.95
631.322	4.93
631.655	4.89
631.987	4.9
632.32	4.89
632.653	4.85
632.986	4.86
633.318	4.86
633.651	4.88
633.984	4.85
634.316	4.78
634.649	4.8
634.981	4.78
635.313	4.81
635.646	4.76
635.978	4.77
636.31	4.81
636.643	4.81
636.975	4.79
637.307	4.76
637.639	4.74
637.971	4.74
638.303	4.73
638.635	4.8
638.967	4.83
639.299	4.87
639.631	4.91
639.963	4.88
640.295	4.96
640.626	4.95
640.958	4.88
641.29	4.95
641.621	4.97
641.953	4.9
642.285	4.9
642.616	4.94
642.948	4.94
643.279	4.95
643.61	5.01
643.942	5.02
644.273	5.06
644.604	5.06
644.936	5.09
645.267	5.16
645.598	5.01
645.929	4.97
646.26	4.95
646.591	4.89
646.922	4.91
647.253	4.84
647.584	4.84
647.915	4.89
648.245	4.85
648.576	4.8
648.907	4.93
649.238	4.82
649.568	4.8
649.899	4.81
650.229	4.83
650.56	4.77
650.89	4.81
651.221	4.78
651.551	4.76
651.882	4.69
652.212	4.69
652.542	4.76
652.872	4.78
653.203	4.81
653.533	4.88
653.863	4.9
654.193	4.89
654.523	4.91
654.853	5
655.183	4.99
655.513	5.07
655.843	5.04
656.172	5.14
656.502	5.16
656.832	5.14
657.162	5.1
657.491	5.04
657.821	4.93
658.15	4.9
658.48	4.96
658.809	5
659.139	4.97
659.468	5.01
659.798	5.01
660.127	4.98
660.456	4.97
660.785	4.97
661.115	5
661.444	5
661.773	4.96
662.102	4.96
662.431	4.9
662.76	4.91
663.089	4.87
663.418	4.88
663.747	4.92
664.076	4.95
664.404	5.09
664.733	5.18
665.062	5.22
665.39	5.22
665.719	5.2
666.048	5.2
666.376	5.21
666.705	5.19
667.033	5.2
667.362	5.17
667.69	5.1
668.018	5.09
668.347	5.02
668.675	4.97
669.003	5.03
669.331	5.11
669.659	5.06
669.987	5.14
670.315	5.05
670.643	4.97
670.971	4.98
671.299	4.89
671.627	4.88
671.955	4.74
672.283	4.71
672.61	4.71
672.938	4.78
673.266	4.72
673.593	4.72
673.921	4.77
674.249	4.79
674.576	4.84
674.904	4.81
675.231	4.88
675.558	4.95
675.886	4.96
676.213	4.99
676.54	5.08
676.867	5.03
677.195	5.15
