Data from BA53411_Reflection_00001.txt Node
Date: Tue Nov 19 11:53:29 EST 2019
User: vgr7
Spectrometer: USB2G7710
Scans to average: 3
Trigger mode: 4
Integration Time (sec): 2.000000E-2
Electric dark correction enabled: true
Boxcar width: 10
XAxis mode: Wavelengths
Number of Pixels in Spectrum: 2048
>>>>>Begin Spectral Data<<<<<
177.721	156.48
178.105	124.34
178.488	59.17
178.871	80.79
179.254	88.62
179.636	84.9
180.019	286.99
180.402	-0
180.785	-166.67
181.168	-32.18
181.55	-21.21
181.933	-2.25
182.316	48.36
182.698	30.14
183.081	1.07
183.463	-14.8
183.846	-10.71
184.228	-22.81
184.611	-32.82
184.993	-67.52
185.376	-44.18
185.758	-16.9
186.14	-14.94
186.522	195.24
186.904	611.11
187.287	-208.46
187.669	-94.87
188.051	59.21
188.433	77.06
188.815	141.05
189.197	226.61
189.579	306.75
189.961	657.82
190.342	511.35
190.724	186.83
191.106	5211.11
191.488	-222.75
191.869	-122.9
192.251	-90.83
192.633	-68.76
193.014	-70.81
193.396	-59.06
193.777	-10.11
194.159	-4.03
194.54	-43.11
194.922	-233.33
195.303	-155.07
195.684	-426.88
196.065	-5.49
196.447	-64.02
196.828	-32.28
197.209	507.41
197.59	-75.63
197.971	-39.78
198.352	137.04
198.733	-272.55
199.114	215.23
199.495	130.58
199.876	72.01
200.257	51.09
200.638	143.63
201.018	143.91
201.399	294.09
201.78	168.54
202.16	6566.67
202.541	356.7
202.922	236.48
203.302	411.36
203.683	-995.24
204.063	-7766.67
204.444	-1356.79
204.824	-766.67
205.204	-539.46
205.585	-740.58
205.965	-236.92
206.345	493.94
206.725	-287.39
207.106	8.55
207.486	-33.33
207.866	-14.16
208.246	-11.75
208.626	-303.51
209.006	-376.19
209.386	19.68
209.766	92.98
210.145	-26.63
210.525	-17.01
210.905	-23.69
211.285	-37.16
211.664	-47.52
212.044	-86.23
212.424	-119.66
212.803	-51.98
213.183	4.07
213.562	59.69
213.942	52.12
214.321	144.09
214.701	116.58
215.08	114.68
215.459	116.42
215.838	104.61
216.218	175.84
216.597	-1262.32
216.976	714.38
217.355	416.02
217.734	561.99
218.113	-719.82
218.492	-1449.02
218.871	-485.19
219.25	-196.3
219.629	-721.71
220.008	-14011.11
220.387	-436.51
220.766	-153.75
221.144	-130.19
221.523	-121.64
221.902	-183.43
222.28	-104.68
222.659	-37.66
223.037	-83.64
223.416	-80.08
223.794	-54.57
224.173	-51.79
224.551	-60.55
224.929	-45.05
225.308	-35.8
225.686	-30.06
226.064	-38.02
226.442	-34.09
226.821	-33.1
227.199	-31.91
227.577	-23.85
227.955	-18.19
228.333	-17.79
228.711	-15.26
229.089	-20.41
229.467	-20.58
229.845	-15.28
230.222	-16.21
230.6	-20.32
230.978	-13.14
231.356	-9.95
231.733	-10.03
232.111	-11.47
232.488	-9.73
232.866	-6.46
233.243	-7.55
233.621	-6.48
233.998	-6.56
234.376	-5.39
234.753	-3.05
235.13	-2.71
235.508	-2.56
235.885	-1.91
236.262	-1.41
236.639	-0.13
237.016	1.72
237.393	4.25
237.77	3.26
238.147	5.57
238.524	4.82
238.901	4.44
239.278	3.97
239.655	4.86
240.032	5.07
240.409	5.71
240.785	4.53
241.162	5.4
241.539	5.59
241.915	5.91
242.292	6.29
242.668	5.52
243.045	5.76
243.421	5.48
243.798	4.74
244.174	4.66
244.551	4.42
244.927	4.52
245.303	3.94
245.679	4.16
246.056	3.96
246.432	4.29
246.808	4.46
247.184	4.58
247.56	4.53
247.936	4.48
248.312	4.35
248.688	4.54
249.064	4.03
249.44	3.83
249.815	3.66
250.191	3.55
250.567	3.51
250.943	3.41
251.318	3.54
251.694	3.76
252.069	3.88
252.445	4.02
252.82	4.24
253.196	4.23
253.571	4.11
253.947	3.72
254.322	3.43
254.697	3.05
255.073	2.96
255.448	3.03
255.823	3.31
256.198	3.04
256.573	3.18
256.948	3.51
257.323	3.77
257.698	3.93
258.073	3.92
258.448	4.31
258.823	4.19
259.198	4.2
259.573	4.04
259.948	4.02
260.322	3.96
260.697	3.74
261.072	3.85
261.446	3.77
261.821	3.75
262.195	3.8
262.57	3.83
262.944	3.9
263.319	3.75
263.693	3.66
264.067	3.66
264.442	3.54
264.816	3.28
265.19	3.1
265.564	3.02
265.938	3
266.313	2.58
266.687	2.79
267.061	2.91
267.435	3.29
267.809	2.98
268.183	2.96
268.556	2.9
268.93	2.96
269.304	2.81
269.678	3.13
270.051	3.11
270.425	3.14
270.799	2.96
271.172	2.96
271.546	3.1
271.919	3.18
272.293	3.44
272.666	3.54
273.04	3.67
273.413	3.66
273.787	3.73
274.16	3.78
274.533	3.72
274.906	3.43
275.279	3.24
275.653	3.52
276.026	3.37
276.399	3.51
276.772	3.39
277.145	3.57
277.518	3.21
277.891	3.23
278.263	3.21
278.636	3.51
279.009	3.54
279.382	3.37
279.755	3.44
280.127	3.24
280.5	3.23
280.872	3.22
281.245	3.27
281.617	3.29
281.99	3.24
282.362	3.08
282.735	3.21
283.107	3.25
283.479	3.08
283.852	3.19
284.224	3.27
284.596	3.47
284.968	3.33
285.34	3.45
285.713	3.47
286.085	3.42
286.457	3.18
286.829	3.29
287.201	3.24
287.572	3.32
287.944	3.44
288.316	3.45
288.688	3.54
289.06	3.58
289.431	3.57
289.803	3.59
290.175	3.71
290.546	3.69
290.918	3.55
291.289	3.57
291.661	3.58
292.032	3.46
292.403	3.38
292.775	3.59
293.146	3.78
293.517	3.71
293.889	3.9
294.26	4.12
294.631	4.18
295.002	4.33
295.373	4.21
295.744	4.13
296.115	4.26
296.486	4.1
296.857	4.12
297.228	4
297.599	3.96
297.97	4.02
298.34	4.07
298.711	4.17
299.082	4.13
299.452	4.13
299.823	4.16
300.194	4.26
300.564	4.29
300.935	4.21
301.305	4.19
301.676	4.02
302.046	3.97
302.416	3.73
302.787	3.64
303.157	3.57
303.527	3.7
303.897	3.52
304.267	3.57
304.637	3.56
305.008	3.68
305.378	3.73
305.748	3.65
306.117	3.5
306.487	3.64
306.857	3.79
307.227	3.84
307.597	3.95
307.967	3.81
308.336	3.84
308.706	3.69
309.076	3.92
309.445	4.1
309.815	4.09
310.184	4.2
310.554	4.2
310.923	4.17
311.293	3.98
311.662	4.23
312.031	4.3
312.401	4.27
312.77	4.16
313.139	4.34
313.508	4.29
313.877	4.48
314.246	4.11
314.616	4.02
314.985	3.98
315.353	3.87
315.722	4.03
316.091	4.05
316.46	4.12
316.829	3.97
317.198	3.93
317.567	4.03
317.935	3.95
318.304	4.13
318.672	4.14
319.041	4.27
319.41	3.97
319.778	4.13
320.147	4.23
320.515	4.32
320.883	4.12
321.252	4.18
321.62	3.9
321.988	4.21
322.357	4.13
322.725	4.26
323.093	4.28
323.461	4.23
323.829	4.06
324.197	4.07
324.565	4.13
324.933	4.08
325.301	3.81
325.669	3.76
326.037	3.64
326.405	3.77
326.772	3.72
327.14	3.77
327.508	3.57
327.875	3.53
328.243	3.46
328.61	3.53
328.978	3.59
329.346	3.72
329.713	3.85
330.08	4.03
330.448	3.91
330.815	3.79
331.182	3.7
331.55	3.77
331.917	3.8
332.284	3.81
332.651	3.89
333.018	4.11
333.385	4.12
333.752	4.25
334.119	4.2
334.486	4.13
334.853	4.1
335.22	4.13
335.587	4.07
335.954	3.97
336.32	3.93
336.687	3.91
337.054	3.8
337.42	3.62
337.787	3.43
338.153	3.4
338.52	3.62
338.886	3.63
339.253	3.63
339.619	3.7
339.986	3.69
340.352	3.59
340.718	3.52
341.084	3.67
341.451	3.58
341.817	3.67
342.183	3.67
342.549	3.77
342.915	3.82
343.281	3.85
343.647	3.92
344.013	3.89
344.379	3.85
344.745	3.85
345.11	3.95
345.476	4.12
345.842	4.1
346.208	3.92
346.573	4.05
346.939	4.11
347.304	4.1
347.67	4.09
348.035	4.03
348.401	4.09
348.766	3.92
349.132	3.77
349.497	3.71
349.862	3.84
350.228	3.87
350.593	3.78
350.958	3.94
351.323	3.92
351.688	4.05
352.053	4.05
352.418	4.1
352.783	4.08
353.148	4.03
353.513	4.06
353.878	4.13
354.243	3.96
354.608	3.9
354.972	3.74
355.337	3.78
355.702	3.91
356.066	3.88
356.431	4
356.795	4.13
357.16	4.07
357.524	4.01
357.889	3.97
358.253	3.95
358.618	3.84
358.982	3.84
359.346	3.75
359.71	3.75
360.075	3.8
360.439	3.85
360.803	3.89
361.167	3.91
361.531	3.87
361.895	3.93
362.259	4.01
362.623	4.11
362.987	4.04
363.351	4.03
363.714	4.09
364.078	4.04
364.442	3.97
364.806	4.05
365.169	4.05
365.533	4.06
365.896	4.11
366.26	4.09
366.623	4.1
366.987	4.16
367.35	4.27
367.714	4.3
368.077	4.29
368.44	4.25
368.803	4.23
369.167	4.22
369.53	4.22
369.893	4.1
370.256	4.06
370.619	4.08
370.982	4.04
371.345	4.02
371.708	4.03
372.071	3.97
372.434	3.96
372.797	4.03
373.159	4.02
373.522	4.02
373.885	4.07
374.247	4.07
374.61	4.1
374.973	4.02
375.335	3.97
375.698	3.88
376.06	3.83
376.423	3.85
376.785	3.95
377.147	3.92
377.51	4.01
377.872	4.06
378.234	4.16
378.596	4.19
378.958	4.19
379.321	4.23
379.683	4.34
380.045	4.35
380.407	4.33
380.769	4.32
381.13	4.31
381.492	4.31
381.854	4.36
382.216	4.32
382.578	4.36
382.939	4.35
383.301	4.42
383.663	4.45
384.024	4.47
384.386	4.41
384.747	4.42
385.109	4.41
385.47	4.41
385.832	4.34
386.193	4.32
386.554	4.24
386.916	4.22
387.277	4.18
387.638	4.19
387.999	4.15
388.36	4.17
388.721	4.17
389.082	4.19
389.443	4.19
389.804	4.23
390.165	4.21
390.526	4.24
390.887	4.22
391.248	4.21
391.609	4.21
391.969	4.2
392.33	4.2
392.691	4.21
393.051	4.2
393.412	4.19
393.772	4.21
394.133	4.27
394.493	4.23
394.854	4.25
395.214	4.26
395.574	4.29
395.935	4.28
396.295	4.27
396.655	4.25
397.015	4.22
397.376	4.16
397.736	4.16
398.096	4.13
398.456	4.16
398.816	4.17
399.176	4.18
399.535	4.22
399.895	4.19
400.255	4.2
400.615	4.18
400.975	4.22
401.334	4.21
401.694	4.17
402.054	4.18
402.413	4.15
402.773	4.14
403.132	4.12
403.492	4.13
403.851	4.17
404.211	4.18
404.57	4.22
404.929	4.24
405.288	4.24
405.648	4.23
406.007	4.22
406.366	4.22
406.725	4.18
407.084	4.18
407.443	4.22
407.802	4.18
408.161	4.2
408.52	4.17
408.879	4.18
409.238	4.21
409.596	4.24
409.955	4.27
410.314	4.26
410.673	4.26
411.031	4.25
411.39	4.22
411.748	4.23
412.107	4.19
412.465	4.19
412.824	4.18
413.182	4.18
413.54	4.21
413.899	4.23
414.257	4.25
414.615	4.26
414.974	4.24
415.332	4.25
415.69	4.22
416.048	4.24
416.406	4.24
416.764	4.24
417.122	4.25
417.48	4.27
417.838	4.26
418.195	4.25
418.553	4.25
418.911	4.25
419.269	4.22
419.626	4.24
419.984	4.22
420.342	4.22
420.699	4.22
421.057	4.21
421.414	4.22
421.772	4.21
422.129	4.19
422.486	4.18
422.844	4.18
423.201	4.21
423.558	4.19
423.915	4.19
424.273	4.19
424.63	4.2
424.987	4.2
425.344	4.2
425.701	4.21
426.058	4.22
426.415	4.21
426.772	4.23
427.128	4.23
427.485	4.24
427.842	4.25
428.199	4.27
428.555	4.26
428.912	4.24
429.269	4.25
429.625	4.27
429.982	4.29
430.338	4.3
430.695	4.31
431.051	4.33
431.407	4.33
431.764	4.34
432.12	4.36
432.476	4.36
432.832	4.37
433.189	4.38
433.545	4.37
433.901	4.42
434.257	4.41
434.613	4.4
434.969	4.44
435.325	4.43
435.681	4.41
436.036	4.43
436.392	4.46
436.748	4.46
437.104	4.44
437.459	4.43
437.815	4.43
438.171	4.41
438.526	4.42
438.882	4.42
439.237	4.39
439.593	4.38
439.948	4.35
440.304	4.36
440.659	4.36
441.014	4.34
441.369	4.33
441.725	4.35
442.08	4.36
442.435	4.35
442.79	4.34
443.145	4.36
443.5	4.33
443.855	4.32
444.21	4.32
444.565	4.34
444.92	4.35
445.275	4.36
445.629	4.36
445.984	4.36
446.339	4.36
446.693	4.38
447.048	4.36
447.403	4.36
447.757	4.36
448.112	4.37
448.466	4.38
448.82	4.38
449.175	4.37
449.529	4.37
449.883	4.35
450.238	4.38
450.592	4.36
450.946	4.36
451.3	4.38
451.654	4.36
452.008	4.36
452.362	4.36
452.716	4.35
453.07	4.34
453.424	4.37
453.778	4.36
454.132	4.33
454.486	4.35
454.839	4.37
455.193	4.38
455.547	4.37
455.9	4.35
456.254	4.34
456.607	4.33
456.961	4.33
457.314	4.35
457.668	4.33
458.021	4.32
458.375	4.32
458.728	4.32
459.081	4.33
459.434	4.32
459.787	4.33
460.141	4.34
460.494	4.35
460.847	4.32
461.2	4.36
461.553	4.36
461.906	4.36
462.259	4.35
462.611	4.35
462.964	4.35
463.317	4.35
463.67	4.36
464.022	4.38
464.375	4.37
464.728	4.38
465.08	4.4
465.433	4.42
465.785	4.44
466.138	4.41
466.49	4.4
466.843	4.41
467.195	4.39
467.547	4.39
467.899	4.4
468.252	4.38
468.604	4.36
468.956	4.38
469.308	4.39
469.66	4.39
470.012	4.39
470.364	4.41
470.716	4.41
471.068	4.39
471.42	4.38
471.772	4.39
472.123	4.4
472.475	4.4
472.827	4.41
473.178	4.39
473.53	4.43
473.882	4.44
474.233	4.43
474.585	4.43
474.936	4.43
475.288	4.39
475.639	4.41
475.99	4.41
476.342	4.4
476.693	4.38
477.044	4.38
477.395	4.37
477.746	4.35
478.097	4.38
478.448	4.38
478.8	4.37
479.15	4.37
479.501	4.36
479.852	4.38
480.203	4.38
480.554	4.39
480.905	4.39
481.255	4.4
481.606	4.42
481.957	4.43
482.307	4.45
482.658	4.47
483.009	4.48
483.359	4.47
483.709	4.47
484.06	4.48
484.41	4.47
484.761	4.49
485.111	4.5
485.461	4.5
485.811	4.5
486.162	4.52
486.512	4.53
486.862	4.53
487.212	4.53
487.562	4.52
487.912	4.52
488.262	4.53
488.612	4.54
488.961	4.54
489.311	4.54
489.661	4.52
490.011	4.51
490.36	4.51
490.71	4.52
491.06	4.51
491.409	4.51
491.759	4.52
492.108	4.5
492.458	4.49
492.807	4.49
493.157	4.49
493.506	4.47
493.855	4.46
494.204	4.48
494.554	4.47
494.903	4.47
495.252	4.48
495.601	4.47
495.95	4.45
496.299	4.43
496.648	4.45
496.997	4.46
497.346	4.46
497.695	4.44
498.043	4.45
498.392	4.48
498.741	4.48
499.09	4.49
499.438	4.52
499.787	4.52
500.135	4.55
500.484	4.55
500.832	4.55
501.181	4.56
501.529	4.54
501.878	4.57
502.226	4.58
502.574	4.58
502.923	4.57
503.271	4.57
503.619	4.58
503.967	4.56
504.315	4.57
504.663	4.58
505.011	4.6
505.359	4.58
505.707	4.59
506.055	4.59
506.403	4.57
506.751	4.56
507.098	4.57
507.446	4.59
507.794	4.6
508.141	4.61
508.489	4.61
508.837	4.62
509.184	4.61
509.531	4.64
509.879	4.62
510.226	4.63
510.574	4.63
510.921	4.64
511.268	4.64
511.616	4.65
511.963	4.65
512.31	4.65
512.657	4.66
513.004	4.65
513.351	4.64
513.698	4.67
514.045	4.66
514.392	4.66
514.739	4.64
515.086	4.62
515.432	4.62
515.779	4.64
516.126	4.65
516.473	4.64
516.819	4.64
517.166	4.63
517.512	4.63
517.859	4.65
518.205	4.63
518.552	4.65
518.898	4.63
519.245	4.63
519.591	4.63
519.937	4.64
520.283	4.64
520.629	4.64
520.976	4.62
521.322	4.64
521.668	4.63
522.014	4.63
522.36	4.64
522.706	4.64
523.052	4.63
523.398	4.64
523.743	4.66
524.089	4.66
524.435	4.69
524.781	4.71
525.126	4.72
525.472	4.75
525.817	4.75
526.163	4.75
526.509	4.76
526.854	4.78
527.199	4.77
527.545	4.77
527.89	4.78
528.235	4.79
528.581	4.79
528.926	4.79
529.271	4.8
529.616	4.81
529.961	4.81
530.306	4.82
530.651	4.82
530.996	4.83
531.341	4.82
531.686	4.83
532.031	4.83
532.376	4.82
532.721	4.8
533.065	4.8
533.41	4.81
533.755	4.82
534.099	4.81
534.444	4.81
534.788	4.82
535.133	4.83
535.477	4.84
535.822	4.83
536.166	4.85
536.51	4.84
536.855	4.83
537.199	4.82
537.543	4.81
537.887	4.81
538.231	4.8
538.576	4.82
538.92	4.81
539.264	4.82
539.608	4.84
539.951	4.84
540.295	4.85
540.639	4.86
540.983	4.86
541.327	4.87
541.671	4.89
542.014	4.88
542.358	4.88
542.701	4.87
543.045	4.87
543.389	4.89
543.732	4.89
544.075	4.9
544.419	4.89
544.762	4.9
545.105	4.92
545.449	4.93
545.792	4.91
546.135	4.91
546.478	4.89
546.821	4.88
547.165	4.86
547.508	4.87
547.851	4.87
548.194	4.86
548.536	4.86
548.879	4.88
549.222	4.87
549.565	4.87
549.908	4.87
550.25	4.89
550.593	4.87
550.936	4.87
551.278	4.86
551.621	4.89
551.963	4.91
552.306	4.88
552.648	4.88
552.991	4.89
553.333	4.88
553.675	4.9
554.017	4.89
554.36	4.93
554.702	4.91
555.044	4.91
555.386	4.9
555.728	4.91
556.07	4.87
556.412	4.87
556.754	4.88
557.096	4.87
557.438	4.84
557.78	4.82
558.121	4.85
558.463	4.88
558.805	4.86
559.147	4.89
559.488	4.92
559.83	4.91
560.171	4.91
560.513	4.93
560.854	4.94
561.196	4.97
561.537	4.97
561.878	4.95
562.22	4.93
562.561	4.96
562.902	4.96
563.243	5
563.584	5.01
563.925	5.03
564.266	5.04
564.607	5.08
564.948	5.11
565.289	5.09
565.63	5.06
565.971	5.04
566.312	4.99
566.653	5.01
566.993	5.01
567.334	5.03
567.675	5.01
568.015	5
568.356	4.98
568.696	4.99
569.037	4.99
569.377	5.03
569.718	4.99
570.058	4.98
570.398	4.94
570.739	4.92
571.079	4.9
571.419	4.88
571.759	4.89
572.099	4.87
572.439	4.86
572.779	4.88
573.119	4.9
573.459	4.91
573.799	4.88
574.139	4.89
574.479	4.88
574.819	4.91
575.158	4.93
575.498	4.94
575.838	4.93
576.177	4.93
576.517	4.93
576.856	4.97
577.196	4.95
577.535	4.98
577.875	4.96
578.214	4.92
578.553	4.91
578.893	4.89
579.232	4.91
579.571	4.91
579.91	4.9
580.25	4.86
580.589	4.84
580.928	4.84
581.267	4.79
581.606	4.77
581.945	4.72
582.283	4.73
582.622	4.69
582.961	4.69
583.3	4.69
583.639	4.7
583.977	4.67
584.316	4.7
584.654	4.73
584.993	4.75
585.332	4.8
585.67	4.84
586.008	4.84
586.347	4.85
586.685	4.84
587.024	4.85
587.362	4.94
587.7	4.96
588.038	5.02
588.376	5.08
588.715	5.09
589.053	5.11
589.391	5.11
589.729	5.11
590.067	5.08
590.404	5.13
590.742	5.1
591.08	5.12
591.418	5.11
591.756	5.03
592.093	5.02
592.431	5.02
592.769	5
593.106	5.01
593.444	5.01
593.781	5.07
594.119	5.06
594.456	5.02
594.793	4.99
595.131	4.93
595.468	4.95
595.805	4.94
596.143	4.95
596.48	4.91
596.817	4.93
597.154	4.98
597.491	4.9
597.828	4.93
598.165	4.92
598.502	4.94
598.839	4.95
599.176	4.96
599.512	4.96
599.849	5.01
600.186	4.99
600.523	4.98
600.859	4.95
601.196	4.97
601.532	4.94
601.869	4.99
602.205	4.99
602.542	4.94
602.878	4.98
603.215	4.99
603.551	5.05
603.887	5.06
604.223	5.05
604.56	5.08
604.896	5.03
605.232	5.02
605.568	4.99
605.904	4.98
606.24	4.99
606.576	5.02
606.912	4.98
607.248	5.02
607.583	5.02
607.919	5.03
608.255	5.02
608.591	5.09
608.926	5.05
609.262	5.1
609.597	5.09
609.933	5.1
610.268	5.11
610.604	5.08
610.939	5.1
611.275	5.1
611.61	5.11
611.945	5.13
612.281	5.15
612.616	5.2
612.951	5.29
613.286	5.31
613.621	5.29
613.956	5.31
614.291	5.28
614.626	5.25
614.961	5.24
615.296	5.29
615.631	5.22
615.966	5.23
616.3	5.23
616.635	5.26
616.97	5.25
617.304	5.2
617.639	5.22
617.973	5.17
618.308	5.18
618.642	5.21
618.977	5.16
619.311	5.21
619.646	5.21
619.98	5.15
620.314	5.11
620.648	5.09
620.983	5.11
621.317	5.13
621.651	5.17
621.985	5.2
622.319	5.14
622.653	5.18
622.987	5.18
623.321	5.17
623.655	5.18
623.988	5.16
624.322	5.21
624.656	5.24
624.99	5.26
625.323	5.23
625.657	5.23
625.99	5.3
626.324	5.26
626.657	5.2
626.991	5.28
627.324	5.27
627.658	5.28
627.991	5.27
628.324	5.3
628.657	5.31
628.991	5.29
629.324	5.3
629.657	5.29
629.99	5.32
630.323	5.33
630.656	5.31
630.989	5.29
631.322	5.27
631.655	5.3
631.987	5.32
632.32	5.32
632.653	5.29
632.986	5.29
633.318	5.29
633.651	5.36
633.984	5.27
634.316	5.28
634.649	5.26
634.981	5.25
635.313	5.24
635.646	5.2
635.978	5.23
636.31	5.22
636.643	5.21
636.975	5.23
637.307	5.22
637.639	5.23
637.971	5.23
638.303	5.3
638.635	5.2
638.967	5.2
639.299	5.22
639.631	5.22
639.963	5.23
640.295	5.21
640.626	5.18
640.958	5.14
641.29	5.2
641.621	5.21
641.953	5.2
642.285	5.11
642.616	5.15
642.948	5.15
643.279	5.19
643.61	5.27
643.942	5.23
644.273	5.2
644.604	5.24
644.936	5.23
645.267	5.17
645.598	5.21
645.929	5.11
646.26	5.14
646.591	5.23
646.922	5.26
647.253	5.29
647.584	5.32
647.915	5.37
648.245	5.33
648.576	5.32
648.907	5.39
649.238	5.45
649.568	5.42
649.899	5.39
650.229	5.38
650.56	5.31
650.89	5.28
651.221	5.35
651.551	5.33
651.882	5.3
652.212	5.3
652.542	5.3
652.872	5.37
653.203	5.32
653.533	5.32
653.863	5.27
654.193	5.3
654.523	5.22
654.853	5.35
655.183	5.36
655.513	5.39
655.843	5.39
656.172	5.43
656.502	5.43
656.832	5.49
657.162	5.43
657.491	5.52
657.821	5.57
658.15	5.54
658.48	5.54
658.809	5.57
659.139	5.57
659.468	5.53
659.798	5.57
660.127	5.61
660.456	5.51
660.785	5.49
661.115	5.44
661.444	5.5
661.773	5.41
662.102	5.43
662.431	5.42
662.76	5.33
663.089	5.31
663.418	5.3
663.747	5.17
664.076	5.15
664.404	5.13
664.733	5.13
665.062	5.18
665.39	5.18
665.719	5.19
666.048	5.17
666.376	5.16
666.705	5.06
667.033	5.05
667.362	5.07
667.69	5.07
668.018	5.07
668.347	5
668.675	4.93
669.003	4.92
669.331	4.93
669.659	4.92
669.987	4.91
670.315	4.99
670.643	5.04
670.971	5.11
671.299	5.08
671.627	4.97
671.955	4.85
672.283	4.87
672.61	4.85
672.938	4.85
673.266	4.91
673.593	4.95
673.921	4.94
674.249	4.89
674.576	4.99
674.904	5.04
675.231	5.07
675.558	5.19
