Data from BA53509_Reflection_00011.txt Node
Date: Tue Nov 19 11:46:43 EST 2019
User: vgr7
Spectrometer: USB2G7710
Scans to average: 3
Trigger mode: 4
Integration Time (sec): 2.000000E-2
Electric dark correction enabled: true
Boxcar width: 10
XAxis mode: Wavelengths
Number of Pixels in Spectrum: 2048
>>>>>Begin Spectral Data<<<<<
177.721	128.6
178.105	1058.33
178.488	299.75
178.871	476.19
179.254	333.33
179.636	116.26
180.019	675.27
180.402	216.67
180.785	-7.84
181.168	-38.36
181.55	-26.48
181.933	22.66
182.316	13.26
182.698	35.13
183.081	102.82
183.463	201.63
183.846	-124.87
184.228	-73.76
184.611	387.88
184.993	-84.06
185.376	-93.58
185.758	-29.97
186.14	-66.67
186.522	-28.45
186.904	-148.15
187.287	-280.5
187.669	-139.68
188.051	-81.24
188.433	-214.81
188.815	-200.36
189.197	-112.36
189.579	-124.17
189.961	-107.4
190.342	-83.54
190.724	-56.18
191.106	-52.19
191.488	-52.37
191.869	-52.37
192.251	-50.51
192.633	-49.05
193.014	-48.67
193.396	-63.77
193.777	-42.14
194.159	-32.39
194.54	-21.31
194.922	-25.9
195.303	-29.54
195.684	-26.88
196.065	-19.11
196.447	-14.63
196.828	2.76
197.209	-8.84
197.59	0.18
197.971	-1.59
198.352	10.58
198.733	3.96
199.114	-5.16
199.495	3.94
199.876	-18.57
200.257	-43.44
200.638	-66.67
201.018	-76.11
201.399	-56.78
201.78	-73.28
202.16	-132.03
202.541	-334.73
202.922	-201.2
203.302	-165.73
203.683	-169.7
204.063	-283.81
204.444	-96.55
204.824	-116.44
205.204	-98.45
205.585	-94.25
205.965	-80.47
206.345	-94.72
206.725	-99.58
207.106	-101.08
207.486	-91.13
207.866	-84.61
208.246	-42.39
208.626	-40.44
209.006	-30.1
209.386	-40.34
209.766	-43.66
210.145	-30.36
210.525	-10.38
210.905	-7.48
211.285	-0.08
211.664	15.63
212.044	12.94
212.424	8.24
212.803	-0.45
213.183	-2.95
213.562	0.56
213.942	4.64
214.321	1.61
214.701	3.54
215.08	4
215.459	-0.92
215.838	1.61
216.218	-15.19
216.597	-9.27
216.976	-24.22
217.355	-11.39
217.734	-34.04
218.113	-36.74
218.492	-37.92
218.871	-47.81
219.25	-52.36
219.629	-87.93
220.008	-93.68
220.387	-94.99
220.766	-84.83
221.144	-67.77
221.523	-62.69
221.902	-65.76
222.28	-40.58
222.659	-14.49
223.037	-20.85
223.416	-22.55
223.794	-23.55
224.173	-19.36
224.551	-21.64
224.929	-17.86
225.308	-20.7
225.686	-11.7
226.064	-12.76
226.442	-13.12
226.821	-8.92
227.199	-5.92
227.577	-3.67
227.955	2.42
228.333	1.3
228.711	1.24
229.089	-2.71
229.467	-0.53
229.845	-0.02
230.222	-1.57
230.6	-5.81
230.978	-6.92
231.356	-7.63
231.733	-6.7
232.111	-7
232.488	-6.39
232.866	-3.29
233.243	-2.92
233.621	-0.52
233.998	0.96
234.376	2.63
234.753	2.21
235.13	1.95
235.508	1.11
235.885	0.77
236.262	-0.63
236.639	-0.08
237.016	1.02
237.393	0.56
237.77	1.63
238.147	1.43
238.524	2.77
238.901	3.66
239.278	3.99
239.655	3.62
240.032	2.6
240.409	2.63
240.785	1.64
241.162	1.15
241.539	0.47
241.915	-0.04
242.292	0.46
242.668	0.87
243.045	1.2
243.421	1.87
243.798	1.9
244.174	3.27
244.551	3.52
244.927	3.41
245.303	3.38
245.679	3.33
246.056	3.67
246.432	3.4
246.808	3.47
247.184	3.62
247.56	3.37
247.936	3.81
248.312	4.18
248.688	4.14
249.064	4.4
249.44	4.21
249.815	4.37
250.191	4.04
250.567	3.87
250.943	4.01
251.318	3.96
251.694	3.69
252.069	3.41
252.445	3.28
252.82	3.34
253.196	3.39
253.571	3.28
253.947	3.01
254.322	3.04
254.697	3.22
255.073	3.3
255.448	3.44
255.823	3.44
256.198	3.3
256.573	3.44
256.948	3.51
257.323	3.91
257.698	4.04
258.073	4.21
258.448	4.32
258.823	4.07
259.198	4.13
259.573	4.16
259.948	3.94
260.322	3.94
260.697	4.01
261.072	3.99
261.446	3.94
261.821	3.77
262.195	3.73
262.57	3.7
262.944	3.56
263.319	3.53
263.693	3.34
264.067	3.35
264.442	3.52
264.816	3.46
265.19	3.37
265.564	3.24
265.938	3.18
266.313	3.12
266.687	2.87
267.061	2.51
267.435	2.74
267.809	2.74
268.183	2.5
268.556	2.47
268.93	2.7
269.304	2.77
269.678	2.95
270.051	3.19
270.425	3.13
270.799	3.04
271.172	3.12
271.546	3.33
271.919	3.16
272.293	3.18
272.666	3.17
273.04	3.18
273.413	3.28
273.787	3.29
274.16	3.27
274.533	3.48
274.906	3.62
275.279	3.4
275.653	3.3
276.026	3.53
276.399	3.6
276.772	3.29
277.145	3.41
277.518	3.15
277.891	3.13
278.263	3.19
278.636	3.49
279.009	3.67
279.382	3.62
279.755	3.67
280.127	3.61
280.5	3.55
280.872	3.66
281.245	3.61
281.617	3.56
281.99	3.58
282.362	3.67
282.735	3.81
283.107	3.98
283.479	4.1
283.852	3.99
284.224	3.86
284.596	4.14
284.968	4.05
285.34	4.24
285.713	4.21
286.085	4.03
286.457	3.88
286.829	3.96
287.201	3.86
287.572	3.98
287.944	3.98
288.316	4.08
288.688	3.94
289.06	4.01
289.431	4.06
289.803	4.15
290.175	3.99
290.546	3.88
290.918	3.87
291.289	3.84
291.661	3.87
292.032	3.94
292.403	3.7
292.775	3.84
293.146	3.93
293.517	3.93
293.889	3.9
294.26	3.98
294.631	3.92
295.002	4.12
295.373	4
295.744	4.03
296.115	4.24
296.486	4.35
296.857	4.4
297.228	4.26
297.599	4.23
297.97	4.44
298.34	4.53
298.711	4.63
299.082	4.62
299.452	4.7
299.823	4.61
300.194	4.73
300.564	4.5
300.935	4.55
301.305	4.5
301.676	4.62
302.046	4.71
302.416	4.62
302.787	4.6
303.157	4.66
303.527	4.63
303.897	4.38
304.267	4.38
304.637	4.37
305.008	4.42
305.378	4.49
305.748	4.31
306.117	4.37
306.487	4.19
306.857	4.14
307.227	4.12
307.597	4.28
307.967	4.35
308.336	4.55
308.706	4.38
309.076	4.5
309.445	4.62
309.815	4.49
310.184	4.57
310.554	4.48
310.923	4.47
311.293	4.54
311.662	4.57
312.031	4.54
312.401	4.51
312.77	4.49
313.139	4.42
313.508	4.55
313.877	4.51
314.246	4.55
314.616	4.57
314.985	4.54
315.353	4.52
315.722	4.45
316.091	4.44
316.46	4.44
316.829	4.32
317.198	4.34
317.567	4.57
317.935	4.35
318.304	4.47
318.672	4.59
319.041	4.64
319.41	4.7
319.778	4.68
320.147	4.6
320.515	4.7
320.883	4.62
321.252	4.63
321.62	4.43
321.988	4.57
322.357	4.64
322.725	4.81
323.093	4.84
323.461	4.89
323.829	4.85
324.197	5.06
324.565	5.17
324.933	5.07
325.301	4.79
325.669	4.9
326.037	4.97
326.405	4.72
326.772	4.65
327.14	4.7
327.508	4.68
327.875	4.65
328.243	4.7
328.61	4.63
328.978	4.49
329.346	4.59
329.713	4.52
330.08	4.49
330.448	4.39
330.815	4.34
331.182	4.32
331.55	4.38
331.917	4.19
332.284	4.22
332.651	4.32
333.018	4.33
333.385	4.48
333.752	4.36
334.119	4.52
334.486	4.55
334.853	4.5
335.22	4.4
335.587	4.45
335.954	4.25
336.32	4.44
336.687	4.61
337.054	4.78
337.42	4.68
337.787	4.66
338.153	4.76
338.52	4.79
338.886	4.87
339.253	4.86
339.619	5.13
339.986	5.08
340.352	5.03
340.718	5.13
341.084	5.09
341.451	5.04
341.817	5.17
342.183	5.19
342.549	5.16
342.915	5.35
343.281	5.41
343.647	5.58
344.013	5.63
344.379	5.53
344.745	5.51
345.11	5.61
345.476	5.72
345.842	5.67
346.208	5.67
346.573	5.64
346.939	5.7
347.304	5.6
347.67	5.6
348.035	5.62
348.401	5.63
348.766	5.51
349.132	5.56
349.497	5.49
349.862	5.42
350.228	5.5
350.593	5.3
350.958	5.34
351.323	5.25
351.688	5.18
352.053	5.29
352.418	5.21
352.783	5.18
353.148	5.06
353.513	5.03
353.878	5.03
354.243	4.95
354.608	4.94
354.972	4.97
355.337	4.97
355.702	4.96
356.066	4.97
356.431	5.13
356.795	5.14
357.16	5.15
357.524	5.25
357.889	5.22
358.253	5.3
358.618	5.27
358.982	5.29
359.346	5.3
359.71	5.27
360.075	5.28
360.439	5.33
360.803	5.41
361.167	5.37
361.531	5.38
361.895	5.48
362.259	5.43
362.623	5.42
362.987	5.37
363.351	5.36
363.714	5.31
364.078	5.2
364.442	5.16
364.806	5.16
365.169	5.08
365.533	5.08
365.896	5.13
366.26	5.09
366.623	5.07
366.987	5.03
367.35	5.12
367.714	5.12
368.077	5.12
368.44	5.12
368.803	5.09
369.167	5.05
369.53	4.95
369.893	4.96
370.256	4.86
370.619	5.02
370.982	5.02
371.345	5.07
371.708	5.13
372.071	5.17
372.434	5.13
372.797	5.15
373.159	5.11
373.522	5.02
373.885	5.03
374.247	5.07
374.61	5.14
374.973	5.01
375.335	5.04
375.698	4.96
376.06	4.93
376.423	4.95
376.785	5.02
377.147	5.01
377.51	4.97
377.872	5.02
378.234	4.94
378.596	4.89
378.958	4.89
379.321	4.82
379.683	4.84
380.045	4.85
380.407	4.83
380.769	4.82
381.13	4.82
381.492	4.8
381.854	4.79
382.216	4.74
382.578	4.78
382.939	4.71
383.301	4.61
383.663	4.61
384.024	4.62
384.386	4.58
384.747	4.56
385.109	4.53
385.47	4.49
385.832	4.45
386.193	4.46
386.554	4.4
386.916	4.43
387.277	4.39
387.638	4.36
387.999	4.35
388.36	4.36
388.721	4.37
389.082	4.41
389.443	4.36
389.804	4.35
390.165	4.33
390.526	4.31
390.887	4.37
391.248	4.33
391.609	4.38
391.969	4.35
392.33	4.35
392.691	4.37
393.051	4.33
393.412	4.36
393.772	4.36
394.133	4.37
394.493	4.29
394.854	4.3
395.214	4.29
395.574	4.26
395.935	4.26
396.295	4.24
396.655	4.17
397.015	4.18
397.376	4.15
397.736	4.15
398.096	4.16
398.456	4.16
398.816	4.13
399.176	4.01
399.535	3.97
399.895	3.96
400.255	3.95
400.615	3.99
400.975	3.94
401.334	3.9
401.694	3.87
402.054	3.9
402.413	3.87
402.773	3.87
403.132	3.83
403.492	3.81
403.851	3.79
404.211	3.8
404.57	3.81
404.929	3.84
405.288	3.79
405.648	3.78
406.007	3.75
406.366	3.77
406.725	3.79
407.084	3.78
407.443	3.79
407.802	3.82
408.161	3.8
408.52	3.8
408.879	3.77
409.238	3.8
409.596	3.81
409.955	3.79
410.314	3.79
410.673	3.83
411.031	3.82
411.39	3.84
411.748	3.82
412.107	3.81
412.465	3.76
412.824	3.77
413.182	3.76
413.54	3.78
413.899	3.79
414.257	3.81
414.615	3.84
414.974	3.86
415.332	3.82
415.69	3.78
416.048	3.8
416.406	3.8
416.764	3.8
417.122	3.76
417.48	3.77
417.838	3.76
418.195	3.73
418.553	3.73
418.911	3.72
419.269	3.71
419.626	3.72
419.984	3.69
420.342	3.67
420.699	3.67
421.057	3.65
421.414	3.64
421.772	3.62
422.129	3.6
422.486	3.58
422.844	3.57
423.201	3.58
423.558	3.56
423.915	3.57
424.273	3.55
424.63	3.57
424.987	3.55
425.344	3.55
425.701	3.55
426.058	3.54
426.415	3.52
426.772	3.51
427.128	3.49
427.485	3.5
427.842	3.51
428.199	3.51
428.555	3.53
428.912	3.52
429.269	3.52
429.625	3.56
429.982	3.53
430.338	3.55
430.695	3.54
431.051	3.55
431.407	3.55
431.764	3.54
432.12	3.55
432.476	3.54
432.832	3.55
433.189	3.56
433.545	3.56
433.901	3.57
434.257	3.57
434.613	3.57
434.969	3.58
435.325	3.58
435.681	3.58
436.036	3.56
436.392	3.57
436.748	3.56
437.104	3.55
437.459	3.56
437.815	3.55
438.171	3.54
438.526	3.55
438.882	3.56
439.237	3.55
439.593	3.55
439.948	3.55
440.304	3.53
440.659	3.53
441.014	3.52
441.369	3.52
441.725	3.52
442.08	3.51
442.435	3.5
442.79	3.49
443.145	3.5
443.5	3.5
443.855	3.49
444.21	3.51
444.565	3.49
444.92	3.48
445.275	3.47
445.629	3.47
445.984	3.45
446.339	3.44
446.693	3.45
447.048	3.43
447.403	3.43
447.757	3.43
448.112	3.43
448.466	3.43
448.82	3.42
449.175	3.43
449.529	3.44
449.883	3.45
450.238	3.43
450.592	3.44
450.946	3.43
451.3	3.44
451.654	3.42
452.008	3.41
452.362	3.43
452.716	3.44
453.07	3.44
453.424	3.45
453.778	3.45
454.132	3.43
454.486	3.47
454.839	3.46
455.193	3.47
455.547	3.48
455.9	3.51
456.254	3.52
456.607	3.51
456.961	3.53
457.314	3.54
457.668	3.55
458.021	3.53
458.375	3.52
458.728	3.5
459.081	3.51
459.434	3.55
459.787	3.56
460.141	3.57
460.494	3.56
460.847	3.54
461.2	3.56
461.553	3.57
461.906	3.57
462.259	3.56
462.611	3.55
462.964	3.54
463.317	3.52
463.67	3.51
464.022	3.53
464.375	3.51
464.728	3.5
465.08	3.5
465.433	3.51
465.785	3.53
466.138	3.56
466.49	3.57
466.843	3.55
467.195	3.53
467.547	3.52
467.899	3.55
468.252	3.58
468.604	3.59
468.956	3.59
469.308	3.57
469.66	3.59
470.012	3.6
470.364	3.6
470.716	3.61
471.068	3.61
471.42	3.6
471.772	3.6
472.123	3.6
472.475	3.6
472.827	3.6
473.178	3.63
473.53	3.61
473.882	3.59
474.233	3.57
474.585	3.59
474.936	3.58
475.288	3.57
475.639	3.56
475.99	3.54
476.342	3.53
476.693	3.54
477.044	3.54
477.395	3.53
477.746	3.51
478.097	3.53
478.448	3.55
478.8	3.54
479.15	3.53
479.501	3.53
479.852	3.54
480.203	3.55
480.554	3.56
480.905	3.57
481.255	3.57
481.606	3.58
481.957	3.59
482.307	3.59
482.658	3.6
483.009	3.59
483.359	3.6
483.709	3.6
484.06	3.6
484.41	3.61
484.761	3.62
485.111	3.63
485.461	3.62
485.811	3.62
486.162	3.63
486.512	3.64
486.862	3.64
487.212	3.64
487.562	3.64
487.912	3.63
488.262	3.63
488.612	3.64
488.961	3.64
489.311	3.64
489.661	3.65
490.011	3.64
490.36	3.65
490.71	3.65
491.06	3.67
491.409	3.67
491.759	3.68
492.108	3.69
492.458	3.69
492.807	3.7
493.157	3.7
493.506	3.71
493.855	3.7
494.204	3.73
494.554	3.73
494.903	3.73
495.252	3.74
495.601	3.74
495.95	3.74
496.299	3.73
496.648	3.73
496.997	3.73
497.346	3.74
497.695	3.77
498.043	3.79
498.392	3.78
498.741	3.81
499.09	3.8
499.438	3.83
499.787	3.84
500.135	3.86
500.484	3.89
500.832	3.93
501.181	3.96
501.529	3.97
501.878	4
502.226	4.03
502.574	4.07
502.923	4.11
503.271	4.13
503.619	4.16
503.967	4.2
504.315	4.24
504.663	4.3
505.011	4.29
505.359	4.29
505.707	4.33
506.055	4.31
506.403	4.35
506.751	4.37
507.098	4.41
507.446	4.45
507.794	4.47
508.141	4.49
508.489	4.51
508.837	4.56
509.184	4.58
509.531	4.6
509.879	4.62
510.226	4.65
510.574	4.69
510.921	4.71
511.268	4.76
511.616	4.79
511.963	4.81
512.31	4.88
512.657	4.92
513.004	4.92
513.351	4.98
513.698	5.01
514.045	5.05
514.392	5.09
514.739	5.13
515.086	5.18
515.432	5.22
515.779	5.29
516.126	5.32
516.473	5.36
516.819	5.4
517.166	5.45
517.512	5.47
517.859	5.52
518.205	5.56
518.552	5.61
518.898	5.64
519.245	5.68
519.591	5.73
519.937	5.79
520.283	5.88
520.629	5.93
520.976	5.97
521.322	6.01
521.668	6.09
522.014	6.15
522.36	6.21
522.706	6.28
523.052	6.38
523.398	6.47
523.743	6.58
524.089	6.67
524.435	6.76
524.781	6.88
525.126	6.94
525.472	7.03
525.817	7.1
526.163	7.17
526.509	7.25
526.854	7.3
527.199	7.36
527.545	7.44
527.89	7.51
528.235	7.59
528.581	7.69
528.926	7.75
529.271	7.83
529.616	7.9
529.961	8
530.306	8.05
530.651	8.12
530.996	8.21
531.341	8.31
531.686	8.43
532.031	8.51
532.376	8.62
532.721	8.73
533.065	8.84
533.41	8.97
533.755	9.08
534.099	9.22
534.444	9.35
534.788	9.45
535.133	9.59
535.477	9.73
535.822	9.86
536.166	10.01
536.51	10.17
536.855	10.34
537.199	10.51
537.543	10.71
537.887	10.9
538.231	11.09
538.576	11.3
538.92	11.48
539.264	11.67
539.608	11.85
539.951	12.01
540.295	12.19
540.639	12.35
540.983	12.51
541.327	12.67
541.671	12.85
542.014	13.02
542.358	13.18
542.701	13.33
543.045	13.47
543.389	13.66
543.732	13.84
544.075	14.02
544.419	14.2
544.762	14.39
545.105	14.58
545.449	14.8
545.792	14.99
546.135	15.2
546.478	15.42
546.821	15.71
547.165	15.96
547.508	16.18
547.851	16.41
548.194	16.64
548.536	16.91
548.879	17.15
549.222	17.39
549.565	17.62
549.908	17.89
550.25	18.19
550.593	18.45
550.936	18.7
551.278	18.95
551.621	19.22
551.963	19.48
552.306	19.76
552.648	19.96
552.991	20.24
553.333	20.52
553.675	20.8
554.017	20.98
554.36	21.23
554.702	21.5
555.044	21.79
555.386	22.07
555.728	22.36
556.07	22.6
556.412	22.86
556.754	23.14
557.096	23.46
557.438	23.69
557.78	23.9
558.121	24.15
558.463	24.41
558.805	24.69
559.147	24.95
559.488	25.17
559.83	25.53
560.171	25.76
560.513	26.02
560.854	26.28
561.196	26.54
561.537	26.83
561.878	27.14
562.22	27.43
562.561	27.73
562.902	27.96
563.243	28.23
563.584	28.46
563.925	28.74
564.266	28.97
564.607	29.26
564.948	29.5
565.289	29.74
565.63	29.96
565.971	30.21
566.312	30.41
566.653	30.69
566.993	30.84
567.334	31.1
567.675	31.32
568.015	31.59
568.356	31.81
568.696	32
569.037	32.18
569.377	32.34
569.718	32.52
570.058	32.72
570.398	32.93
570.739	33.14
571.079	33.33
571.419	33.52
571.759	33.71
572.099	33.95
572.439	34.15
572.779	34.42
573.119	34.59
573.459	34.76
573.799	34.95
574.139	35.18
574.479	35.39
574.819	35.54
575.158	35.68
575.498	35.88
575.838	36.1
576.177	36.3
576.517	36.5
576.856	36.69
577.196	36.84
577.535	37.03
577.875	37.22
578.214	37.43
578.553	37.61
578.893	37.83
579.232	37.98
579.571	38.16
579.91	38.29
580.25	38.49
580.589	38.72
580.928	38.79
581.267	38.89
581.606	39.03
581.945	39.3
582.283	39.5
582.622	39.59
582.961	39.79
583.3	39.96
583.639	40.18
583.977	40.31
584.316	40.54
584.654	40.73
584.993	40.88
585.332	40.98
585.67	41.17
586.008	41.25
586.347	41.43
586.685	41.58
587.024	41.69
587.362	41.77
587.7	41.95
588.038	42.14
588.376	42.25
588.715	42.39
589.053	42.43
589.391	42.52
589.729	42.77
590.067	42.91
590.404	43.06
590.742	43.1
591.08	43.27
591.418	43.42
591.756	43.49
592.093	43.61
592.431	43.74
592.769	43.84
593.106	43.97
593.444	44.09
593.781	44.2
594.119	44.29
594.456	44.44
594.793	44.51
595.131	44.61
595.468	44.74
595.805	44.77
596.143	44.89
596.48	44.98
596.817	44.99
597.154	45.08
597.491	45.14
597.828	45.26
598.165	45.33
598.502	45.38
598.839	45.5
599.176	45.56
599.512	45.6
599.849	45.7
600.186	45.83
600.523	45.95
600.859	46.09
601.196	46.25
601.532	46.33
601.869	46.43
602.205	46.48
602.542	46.59
602.878	46.72
603.215	46.79
603.551	46.85
603.887	46.89
604.223	46.86
604.56	46.96
604.896	46.99
605.232	47.06
605.568	47.11
605.904	47.19
606.24	47.34
606.576	47.5
606.912	47.56
607.248	47.59
607.583	47.61
607.919	47.64
608.255	47.62
608.591	47.67
608.926	47.77
609.262	47.88
609.597	47.9
609.933	47.93
610.268	47.97
610.604	48.03
610.939	48.22
611.275	48.32
611.61	48.34
611.945	48.46
612.281	48.51
612.616	48.57
612.951	48.64
613.286	48.61
613.621	48.67
613.956	48.72
614.291	48.77
614.626	48.94
614.961	49.11
615.296	49.25
615.631	49.38
615.966	49.42
616.3	49.49
616.635	49.59
616.97	49.62
617.304	49.67
617.639	49.72
617.973	49.61
618.308	49.75
618.642	49.87
618.977	49.82
619.311	49.86
619.646	50.01
619.98	50.06
620.314	50.15
620.648	50.13
620.983	50.19
621.317	50.22
621.651	50.19
621.985	50.08
622.319	50.16
622.653	50.21
622.987	50.3
623.321	50.31
623.655	50.4
623.988	50.51
624.322	50.64
624.656	50.72
624.99	50.75
625.323	50.72
625.657	50.72
625.99	50.87
626.324	50.95
626.657	50.92
626.991	50.92
627.324	50.97
627.658	51.12
627.991	51.15
628.324	51.27
628.657	51.36
628.991	51.52
629.324	51.5
629.657	51.54
629.99	51.52
630.323	51.74
630.656	51.73
630.989	51.72
631.322	51.81
631.655	51.81
631.987	52.02
632.32	52.14
632.653	52.18
632.986	52.14
633.318	52.1
633.651	52.13
633.984	52.11
634.316	52.13
634.649	52.03
634.981	52.06
635.313	51.98
635.646	51.96
635.978	52
636.31	52.06
636.643	52.17
636.975	52.24
637.307	52.21
637.639	52.28
637.971	52.38
638.303	52.41
638.635	52.49
638.967	52.3
639.299	52.27
639.631	52.3
639.963	52.41
640.295	52.51
640.626	52.6
640.958	52.77
641.29	52.82
641.621	52.89
641.953	52.87
642.285	53.02
642.616	53.1
642.948	53.03
643.279	53.09
643.61	53.08
643.942	53.04
644.273	52.92
644.604	52.87
644.936	52.95
645.267	53
645.598	53.02
645.929	53.19
646.26	53.14
646.591	53.16
646.922	53.2
647.253	53.36
647.584	53.32
647.915	53.29
648.245	53.37
648.576	53.42
648.907	53.51
649.238	53.46
649.568	53.43
649.899	53.39
650.229	53.4
650.56	53.37
650.89	53.38
651.221	53.54
651.551	53.66
651.882	53.62
652.212	53.58
652.542	53.65
652.872	53.66
653.203	53.82
653.533	53.81
653.863	53.85
654.193	53.73
654.523	53.85
654.853	53.95
655.183	54.05
655.513	54.09
655.843	54.14
656.172	54.23
656.502	54.25
656.832	54.39
657.162	54.47
657.491	54.41
657.821	54.42
658.15	54.32
658.48	54.39
658.809	54.56
659.139	54.51
659.468	54.6
659.798	54.67
660.127	54.56
660.456	54.58
660.785	54.6
661.115	54.71
661.444	54.59
661.773	54.54
662.102	54.46
662.431	54.51
662.76	54.5
663.089	54.53
663.418	54.56
663.747	54.55
664.076	54.57
664.404	54.73
664.733	54.92
665.062	55.06
665.39	54.92
665.719	54.92
666.048	55.18
666.376	55.05
666.705	55.1
667.033	55.21
667.362	55.24
667.69	55.17
668.018	55.19
668.347	55.23
