Data from BA53411_Reflection_00009.txt Node
Date: Tue Nov 19 11:53:48 EST 2019
User: vgr7
Spectrometer: USB2G7710
Scans to average: 3
Trigger mode: 4
Integration Time (sec): 2.000000E-2
Electric dark correction enabled: true
Boxcar width: 10
XAxis mode: Wavelengths
Number of Pixels in Spectrum: 2048
>>>>>Begin Spectral Data<<<<<
177.721	131.82
178.105	53.18
178.488	27.65
178.871	29.38
179.254	13.82
179.636	45.41
180.019	156.91
180.402	55.56
180.785	-139.22
181.168	-224.71
181.55	-84.57
181.933	-55.42
182.316	-228.64
182.698	-33.73
183.081	-33.94
183.463	40.53
183.846	48.26
184.228	6.09
184.611	-46.87
184.993	-142.74
185.376	-108.77
185.758	-181.2
186.14	-281.61
186.522	6433.33
186.904	3255.56
187.287	-696.02
187.669	-920.51
188.051	-230.52
188.433	-277.87
188.815	-300.66
189.197	-406.46
189.579	-651.05
189.961	-865.99
190.342	-1119.86
190.724	-533.05
191.106	-20677.78
191.488	1295.77
191.869	568.3
192.251	339.16
192.633	335.7
193.014	345.44
193.396	288.11
193.777	350.38
194.159	433.33
194.54	347.82
194.922	816.89
195.303	485.51
195.684	1530.11
196.065	597.89
196.447	517.99
196.828	581.48
197.209	5025.93
197.59	447.67
197.971	1465.59
198.352	-3825.93
198.733	2119.61
199.114	-484.36
199.495	-334.25
199.876	-207.89
200.257	-117.5
200.638	-163.53
201.018	-177.45
201.399	-410.55
201.78	-342.37
202.16	-6566.67
202.541	-409.58
202.922	-319.95
203.302	-563
203.683	1566.67
204.063	10566.67
204.444	2001.23
204.824	1566.67
205.204	1065.99
205.585	2592.75
205.965	544.44
206.345	-4839.39
206.725	1298.2
207.106	430.38
207.486	468.12
207.866	844.29
208.246	367.82
208.626	-3180.7
209.006	9004.76
209.386	-759.44
209.766	-545.61
210.145	-287.34
210.525	-154.42
210.905	-285.74
211.285	-203.03
211.664	-173.76
212.044	-202.03
212.424	-196.47
212.803	-131.16
213.183	-155.28
213.562	-124.81
213.942	-227.81
214.321	-182.19
214.701	-195.19
215.08	-126.14
215.459	-147.95
215.838	-70.7
216.218	-86.95
216.597	549.28
216.976	-279.08
217.355	-177.06
217.734	-169.01
218.113	244.14
218.492	766.67
218.871	-48.15
219.25	-88.55
219.629	-450.39
220.008	-9455.56
220.387	-163.49
220.766	-19.95
221.144	-24.07
221.523	-18.67
221.902	-17.76
222.28	30.99
222.659	47.41
223.037	64.32
223.416	41
223.794	51.03
224.173	38.98
224.551	38.08
224.929	-1.26
225.308	3.36
225.686	5.35
226.064	-2.18
226.442	-0.89
226.821	4.12
227.199	5.69
227.577	10.25
227.955	18.19
228.333	9.74
228.711	7.69
229.089	9.73
229.467	13.55
229.845	9.12
230.222	7.45
230.6	1.09
230.978	2.77
231.356	0.73
231.733	-3.13
232.111	-0.69
232.488	4.72
232.866	10.62
233.243	11.21
233.621	13.88
233.998	18.19
234.376	19.84
234.753	19
235.13	19.73
235.508	19.97
235.885	18.19
236.262	17.16
236.639	15.89
237.016	16.75
237.393	14.38
237.77	14.02
238.147	13.34
238.524	13.35
238.901	12.22
239.278	12.88
239.655	12.83
240.032	13.24
240.409	11.85
240.785	10.94
241.162	10.46
241.539	9.56
241.915	8.77
242.292	8.5
242.668	8.79
243.045	8.81
243.421	8.38
243.798	7.98
244.174	7.86
244.551	8
244.927	7.74
245.303	7.89
245.679	7.79
246.056	7.79
246.432	7.85
246.808	7.85
247.184	7.77
247.56	7.84
247.936	7.53
248.312	7.59
248.688	7.82
249.064	7.7
249.44	7.57
249.815	7.78
250.191	7.78
250.567	7.41
250.943	7.35
251.318	7.34
251.694	7.44
252.069	7.75
252.445	7.76
252.82	7.58
253.196	7.29
253.571	7.6
253.947	7.68
254.322	7.15
254.697	7.23
255.073	7.37
255.448	7.28
255.823	7.25
256.198	7.16
256.573	6.89
256.948	6.81
257.323	6.84
257.698	6.69
258.073	6.4
258.448	6.69
258.823	6.4
259.198	6.55
259.573	6.3
259.948	6.33
260.322	6.33
260.697	6.35
261.072	6.57
261.446	6.52
261.821	6.36
262.195	6.4
262.57	6.47
262.944	6.26
263.319	6.11
263.693	6.15
264.067	6.3
264.442	6.44
264.816	6.55
265.19	6.5
265.564	6.37
265.938	6.58
266.313	6.17
266.687	6.26
267.061	6.23
267.435	6.63
267.809	6.6
268.183	6.5
268.556	6.55
268.93	6.24
269.304	6.25
269.678	6.25
270.051	6.33
270.425	6.24
270.799	6.09
271.172	6.31
271.546	6.39
271.919	6.1
272.293	5.8
272.666	5.63
273.04	5.58
273.413	5.62
273.787	5.64
274.16	5.65
274.533	5.73
274.906	5.75
275.279	5.74
275.653	5.74
276.026	5.8
276.399	5.67
276.772	5.76
277.145	5.65
277.518	5.45
277.891	5.48
278.263	5.56
278.636	5.84
279.009	5.81
279.382	5.58
279.755	5.56
280.127	5.86
280.5	5.9
280.872	6.07
281.245	5.94
281.617	6.05
281.99	6.26
282.362	6.3
282.735	6.21
283.107	6.01
283.479	5.97
283.852	5.97
284.224	6.11
284.596	6
284.968	6.02
285.34	6.36
285.713	6.29
286.085	6.36
286.457	6.36
286.829	6.42
287.201	6.65
287.572	6.68
287.944	6.71
288.316	6.78
288.688	6.85
289.06	7.04
289.431	7.04
289.803	7.1
290.175	7.01
290.546	7.21
290.918	7.35
291.289	7.24
291.661	7.36
292.032	7.25
292.403	7.5
292.775	7.58
293.146	7.47
293.517	7.63
293.889	7.48
294.26	7.51
294.631	7.57
295.002	7.54
295.373	7.75
295.744	7.68
296.115	7.75
296.486	7.7
296.857	7.65
297.228	7.59
297.599	7.43
297.97	7.39
298.34	7.49
298.711	7.61
299.082	7.85
299.452	7.81
299.823	7.9
300.194	7.9
300.564	8
300.935	7.98
301.305	7.97
301.676	8.02
302.046	7.96
302.416	7.92
302.787	7.89
303.157	7.71
303.527	7.71
303.897	7.69
304.267	7.79
304.637	8.13
305.008	8.4
305.378	8.86
305.748	9
306.117	8.92
306.487	9.04
306.857	9.18
307.227	9.36
307.597	9.43
307.967	9.45
308.336	9.39
308.706	9.44
309.076	9.53
309.445	9.77
309.815	9.88
310.184	9.99
310.554	10.07
310.923	10.35
311.293	10.51
311.662	10.57
312.031	10.56
312.401	10.4
312.77	10.21
313.139	10.24
313.508	10.64
313.877	10.79
314.246	10.78
314.616	10.86
314.985	10.93
315.353	11
315.722	11.16
316.091	11.33
316.46	11.66
316.829	11.71
317.198	11.71
317.567	12.02
317.935	11.95
318.304	12.31
318.672	12.38
319.041	12.41
319.41	12.53
319.778	12.69
320.147	12.85
320.515	13.32
320.883	13.25
321.252	12.92
321.62	12.82
321.988	12.82
322.357	12.74
322.725	12.62
323.093	12.59
323.461	12.5
323.829	12.49
324.197	12.38
324.565	12.5
324.933	12.49
325.301	12.24
325.669	12.33
326.037	12.18
326.405	12.27
326.772	12.44
327.14	12.37
327.508	12.39
327.875	12.36
328.243	12.21
328.61	12.15
328.978	12.35
329.346	12.48
329.713	12.62
330.08	12.78
330.448	12.9
330.815	13.06
331.182	13.13
331.55	13.32
331.917	13.35
332.284	13.5
332.651	13.66
333.018	13.97
333.385	13.99
333.752	14.01
334.119	13.95
334.486	13.86
334.853	13.95
335.22	13.93
335.587	14.06
335.954	14.2
336.32	14.48
336.687	14.54
337.054	14.48
337.42	14.55
337.787	14.45
338.153	14.49
338.52	14.54
338.886	14.66
339.253	14.46
339.619	14.5
339.986	14.5
340.352	14.65
340.718	14.65
341.084	14.74
341.451	14.84
341.817	14.88
342.183	14.94
342.549	14.96
342.915	15.06
343.281	15.03
343.647	14.94
344.013	14.81
344.379	14.67
344.745	14.63
345.11	14.51
345.476	14.59
345.842	14.68
346.208	14.72
346.573	14.64
346.939	14.71
347.304	14.73
347.67	14.62
348.035	14.45
348.401	14.37
348.766	14.41
349.132	14.32
349.497	14.34
349.862	14.32
350.228	14.35
350.593	14.33
350.958	14.41
351.323	14.31
351.688	14.32
352.053	14.37
352.418	14.33
352.783	14.46
353.148	14.39
353.513	14.19
353.878	14.05
354.243	14
354.608	14.03
354.972	14.04
355.337	14.05
355.702	14.02
356.066	13.99
356.431	13.91
356.795	13.83
357.16	13.68
357.524	13.67
357.889	13.62
358.253	13.55
358.618	13.45
358.982	13.44
359.346	13.43
359.71	13.36
360.075	13.47
360.439	13.4
360.803	13.43
361.167	13.42
361.531	13.42
361.895	13.44
362.259	13.41
362.623	13.43
362.987	13.44
363.351	13.34
363.714	13.25
364.078	13.14
364.442	13.17
364.806	13.19
365.169	13.1
365.533	13.1
365.896	13.11
366.26	13.03
366.623	13
366.987	12.9
367.35	12.88
367.714	12.77
368.077	12.69
368.44	12.59
368.803	12.52
369.167	12.46
369.53	12.38
369.893	12.25
370.256	12.08
370.619	11.99
370.982	11.99
371.345	11.97
371.708	11.96
372.071	11.88
372.434	11.76
372.797	11.79
373.159	11.68
373.522	11.51
373.885	11.45
374.247	11.31
374.61	11.27
374.973	11.22
375.335	11.14
375.698	10.98
376.06	10.9
376.423	10.8
376.785	10.73
377.147	10.68
377.51	10.68
377.872	10.63
378.234	10.63
378.596	10.51
378.958	10.46
379.321	10.41
379.683	10.35
380.045	10.26
380.407	10.08
380.769	10
381.13	10
381.492	9.95
381.854	9.97
382.216	9.88
382.578	9.79
382.939	9.74
383.301	9.69
383.663	9.64
384.024	9.64
384.386	9.59
384.747	9.47
385.109	9.38
385.47	9.31
385.832	9.19
386.193	9.14
386.554	9.05
386.916	8.98
387.277	8.88
387.638	8.9
387.999	8.92
388.36	8.91
388.721	8.85
389.082	8.79
389.443	8.77
389.804	8.77
390.165	8.77
390.526	8.69
390.887	8.66
391.248	8.58
391.609	8.51
391.969	8.45
392.33	8.39
392.691	8.33
393.051	8.3
393.412	8.23
393.772	8.25
394.133	8.18
394.493	8.13
394.854	8.12
395.214	8.03
395.574	7.95
395.935	7.85
396.295	7.79
396.655	7.73
397.015	7.64
397.376	7.58
397.736	7.47
398.096	7.44
398.456	7.38
398.816	7.38
399.176	7.33
399.535	7.24
399.895	7.24
400.255	7.16
400.615	7.1
400.975	7.05
401.334	6.94
401.694	6.93
402.054	6.82
402.413	6.78
402.773	6.77
403.132	6.71
403.492	6.67
403.851	6.66
404.211	6.64
404.57	6.62
404.929	6.58
405.288	6.56
405.648	6.52
406.007	6.49
406.366	6.45
406.725	6.47
407.084	6.51
407.443	6.51
407.802	6.5
408.161	6.51
408.52	6.47
408.879	6.47
409.238	6.46
409.596	6.5
409.955	6.48
410.314	6.43
410.673	6.4
411.031	6.35
411.39	6.33
411.748	6.36
412.107	6.29
412.465	6.24
412.824	6.22
413.182	6.18
413.54	6.19
413.899	6.13
414.257	6.08
414.615	6
414.974	5.96
415.332	5.94
415.69	5.89
416.048	5.85
416.406	5.82
416.764	5.81
417.122	5.78
417.48	5.76
417.838	5.73
418.195	5.73
418.553	5.73
418.911	5.71
419.269	5.67
419.626	5.67
419.984	5.65
420.342	5.61
420.699	5.6
421.057	5.57
421.414	5.57
421.772	5.54
422.129	5.54
422.486	5.52
422.844	5.5
423.201	5.5
423.558	5.51
423.915	5.5
424.273	5.47
424.63	5.48
424.987	5.46
425.344	5.46
425.701	5.45
426.058	5.44
426.415	5.42
426.772	5.4
427.128	5.4
427.485	5.41
427.842	5.42
428.199	5.42
428.555	5.41
428.912	5.39
429.269	5.38
429.625	5.39
429.982	5.39
430.338	5.4
430.695	5.38
431.051	5.36
431.407	5.35
431.764	5.34
432.12	5.33
432.476	5.34
432.832	5.35
433.189	5.33
433.545	5.33
433.901	5.33
434.257	5.33
434.613	5.34
434.969	5.31
435.325	5.3
435.681	5.29
436.036	5.29
436.392	5.27
436.748	5.27
437.104	5.25
437.459	5.24
437.815	5.25
438.171	5.25
438.526	5.25
438.882	5.27
439.237	5.26
439.593	5.24
439.948	5.25
440.304	5.25
440.659	5.26
441.014	5.24
441.369	5.23
441.725	5.22
442.08	5.2
442.435	5.19
442.79	5.16
443.145	5.16
443.5	5.14
443.855	5.14
444.21	5.13
444.565	5.12
444.92	5.12
445.275	5.11
445.629	5.09
445.984	5.08
446.339	5.07
446.693	5.08
447.048	5.07
447.403	5.03
447.757	5
448.112	4.99
448.466	4.99
448.82	4.99
449.175	4.99
449.529	4.99
449.883	4.98
450.238	4.99
450.592	4.97
450.946	4.96
451.3	4.96
451.654	4.94
452.008	4.95
452.362	4.94
452.716	4.95
453.07	4.95
453.424	4.95
453.778	4.94
454.132	4.92
454.486	4.92
454.839	4.92
455.193	4.93
455.547	4.92
455.9	4.91
456.254	4.9
456.607	4.91
456.961	4.92
457.314	4.94
457.668	4.93
458.021	4.93
458.375	4.94
458.728	4.94
459.081	4.95
459.434	4.95
459.787	4.95
460.141	4.95
460.494	4.94
460.847	4.95
461.2	4.95
461.553	4.96
461.906	4.94
462.259	4.96
462.611	4.99
462.964	5
463.317	5.03
463.67	5.06
464.022	5.06
464.375	5.07
464.728	5.07
465.08	5.11
465.433	5.12
465.785	5.14
466.138	5.17
466.49	5.17
466.843	5.2
467.195	5.23
467.547	5.21
467.899	5.24
468.252	5.26
468.604	5.26
468.956	5.28
469.308	5.32
469.66	5.32
470.012	5.31
470.364	5.33
470.716	5.31
471.068	5.32
471.42	5.33
471.772	5.33
472.123	5.33
472.475	5.32
472.827	5.34
473.178	5.36
473.53	5.34
473.882	5.36
474.233	5.32
474.585	5.31
474.936	5.32
475.288	5.3
475.639	5.31
475.99	5.31
476.342	5.3
476.693	5.29
477.044	5.28
477.395	5.26
477.746	5.23
478.097	5.24
478.448	5.21
478.8	5.2
479.15	5.2
479.501	5.19
479.852	5.18
480.203	5.17
480.554	5.16
480.905	5.16
481.255	5.14
481.606	5.16
481.957	5.16
482.307	5.14
482.658	5.15
483.009	5.13
483.359	5.15
483.709	5.14
484.06	5.16
484.41	5.17
484.761	5.18
485.111	5.19
485.461	5.18
485.811	5.19
486.162	5.19
486.512	5.2
486.862	5.21
487.212	5.21
487.562	5.22
487.912	5.22
488.262	5.22
488.612	5.25
488.961	5.25
489.311	5.27
489.661	5.28
490.011	5.29
490.36	5.31
490.71	5.31
491.06	5.33
491.409	5.32
491.759	5.33
492.108	5.33
492.458	5.34
492.807	5.36
493.157	5.36
493.506	5.39
493.855	5.4
494.204	5.39
494.554	5.4
494.903	5.44
495.252	5.48
495.601	5.5
495.95	5.52
496.299	5.55
496.648	5.55
496.997	5.59
497.346	5.62
497.695	5.66
498.043	5.7
498.392	5.75
498.741	5.77
499.09	5.84
499.438	5.89
499.787	5.96
500.135	5.99
500.484	6.05
500.832	6.06
501.181	6.11
501.529	6.18
501.878	6.23
502.226	6.29
502.574	6.32
502.923	6.37
503.271	6.4
503.619	6.44
503.967	6.49
504.315	6.54
504.663	6.6
505.011	6.64
505.359	6.68
505.707	6.71
506.055	6.78
506.403	6.81
506.751	6.86
507.098	6.87
507.446	6.93
507.794	7.01
508.141	7.09
508.489	7.15
508.837	7.22
509.184	7.31
509.531	7.39
509.879	7.46
510.226	7.53
510.574	7.61
510.921	7.68
511.268	7.76
511.616	7.84
511.963	7.92
512.31	7.99
512.657	8.06
513.004	8.12
513.351	8.21
513.698	8.31
514.045	8.4
514.392	8.54
514.739	8.66
515.086	8.74
515.432	8.86
515.779	8.95
516.126	9.07
516.473	9.13
516.819	9.19
517.166	9.28
517.512	9.38
517.859	9.46
518.205	9.54
518.552	9.62
518.898	9.72
519.245	9.8
519.591	9.87
519.937	9.95
520.283	10.06
520.629	10.16
520.976	10.26
521.322	10.41
521.668	10.5
522.014	10.6
522.36	10.74
522.706	10.88
523.052	11.05
523.398	11.16
523.743	11.32
524.089	11.52
524.435	11.67
524.781	11.83
525.126	11.95
525.472	12.09
525.817	12.22
526.163	12.34
526.509	12.44
526.854	12.55
527.199	12.67
527.545	12.78
527.89	12.89
528.235	12.99
528.581	13.08
528.926	13.19
529.271	13.29
529.616	13.39
529.961	13.48
530.306	13.57
530.651	13.7
530.996	13.83
531.341	13.96
531.686	14.1
532.031	14.24
532.376	14.4
532.721	14.57
533.065	14.71
533.41	14.87
533.755	15.07
534.099	15.27
534.444	15.44
534.788	15.61
535.133	15.76
535.477	15.95
535.822	16.13
536.166	16.35
536.51	16.57
536.855	16.82
537.199	17.07
537.543	17.3
537.887	17.56
538.231	17.78
538.576	18
538.92	18.25
539.264	18.49
539.608	18.68
539.951	18.89
540.295	19.14
540.639	19.35
540.983	19.54
541.327	19.72
541.671	19.92
542.014	20.11
542.358	20.3
542.701	20.51
543.045	20.72
543.389	20.91
543.732	21.1
544.075	21.33
544.419	21.53
544.762	21.77
545.105	21.99
545.449	22.26
545.792	22.52
546.135	22.77
546.478	23.02
546.821	23.32
547.165	23.6
547.508	23.87
547.851	24.14
548.194	24.41
548.536	24.71
548.879	25.02
549.222	25.32
549.565	25.64
549.908	25.93
550.25	26.23
550.593	26.53
550.936	26.87
551.278	27.14
551.621	27.5
551.963	27.86
552.306	28.18
552.648	28.47
552.991	28.78
553.333	29.06
553.675	29.34
554.017	29.62
554.36	29.92
554.702	30.2
555.044	30.51
555.386	30.76
555.728	31.04
556.07	31.28
556.412	31.59
556.754	31.88
557.096	32.22
557.438	32.51
557.78	32.78
558.121	33.05
558.463	33.35
558.805	33.59
559.147	33.88
559.488	34.15
559.83	34.51
560.171	34.85
560.513	35.14
560.854	35.49
561.196	35.79
561.537	36.1
561.878	36.39
562.22	36.7
562.561	37.06
562.902	37.32
563.243	37.63
563.584	37.9
563.925	38.19
564.266	38.45
564.607	38.74
564.948	39.01
565.289	39.32
565.63	39.59
565.971	39.89
566.312	40.14
566.653	40.47
566.993	40.71
567.334	40.96
567.675	41.2
568.015	41.43
568.356	41.73
568.696	41.99
569.037	42.27
569.377	42.53
569.718	42.8
570.058	43.15
570.398	43.46
570.739	43.78
571.079	44
571.419	44.23
571.759	44.42
572.099	44.73
572.439	44.91
572.779	45.14
573.119	45.33
573.459	45.57
573.799	45.73
574.139	45.95
574.479	46.19
574.819	46.49
575.158	46.73
575.498	46.91
575.838	47.12
576.177	47.3
576.517	47.58
576.856	47.77
577.196	47.94
577.535	48.18
577.875	48.4
578.214	48.63
578.553	48.9
578.893	49.14
579.232	49.29
579.571	49.58
579.91	49.82
580.25	50.03
580.589	50.21
580.928	50.48
581.267	50.65
581.606	50.79
581.945	51.05
582.283	51.29
582.622	51.49
582.961	51.72
583.3	51.92
583.639	51.97
583.977	52.13
584.316	52.27
584.654	52.45
584.993	52.54
585.332	52.78
585.67	52.87
586.008	53.09
586.347	53.27
586.685	53.44
587.024	53.65
587.362	53.85
587.7	53.98
588.038	54.18
588.376	54.36
588.715	54.43
589.053	54.43
589.391	54.59
589.729	54.74
590.067	54.88
590.404	55.11
590.742	55.36
591.08	55.64
591.418	55.8
591.756	55.83
592.093	56.03
592.431	56.15
592.769	56.39
593.106	56.5
593.444	56.67
593.781	56.81
594.119	56.85
594.456	56.98
594.793	57.12
595.131	57.14
595.468	57.27
595.805	57.48
596.143	57.64
596.48	57.71
596.817	57.82
597.154	57.89
597.491	57.86
597.828	57.88
598.165	57.9
598.502	58.02
598.839	58.16
599.176	58.21
599.512	58.33
599.849	58.45
600.186	58.54
600.523	58.51
600.859	58.58
601.196	58.6
601.532	58.67
601.869	58.78
602.205	58.9
602.542	58.99
602.878	59.03
603.215	59.13
603.551	59.14
603.887	59.14
604.223	59.25
604.56	59.38
604.896	59.49
605.232	59.48
605.568	59.48
605.904	59.56
606.24	59.62
606.576	59.66
606.912	59.63
607.248	59.7
607.583	59.86
607.919	59.88
608.255	60.04
608.591	60.1
608.926	60.2
609.262	60.24
609.597	60.32
609.933	60.36
610.268	60.34
610.604	60.42
610.939	60.52
611.275	60.49
611.61	60.54
611.945	60.51
612.281	60.59
612.616	60.73
612.951	60.76
613.286	60.87
613.621	60.84
613.956	60.92
614.291	61.06
614.626	61.12
614.961	61.29
615.296	61.35
615.631	61.46
615.966	61.43
616.3	61.47
616.635	61.5
616.97	61.61
617.304	61.64
617.639	61.74
617.973	61.79
618.308	61.86
618.642	61.87
618.977	62.02
619.311	62.07
619.646	62.08
619.98	62.11
620.314	62.08
620.648	62.2
620.983	62.2
621.317	62.16
621.651	62.16
621.985	62.23
622.319	62.3
622.653	62.26
622.987	62.33
623.321	62.33
623.655	62.34
623.988	62.34
624.322	62.43
624.656	62.52
624.99	62.61
625.323	62.72
625.657	62.68
625.99	62.59
626.324	62.57
626.657	62.61
626.991	62.61
627.324	62.67
627.658	62.63
627.991	62.68
628.324	62.73
628.657	62.78
628.991	62.69
629.324	62.7
629.657	62.73
629.99	62.74
630.323	62.81
630.656	62.86
630.989	62.8
631.322	62.79
631.655	62.79
631.987	62.8
632.32	62.7
632.653	62.84
632.986	62.9
633.318	63.01
633.651	62.97
633.984	63.09
634.316	63.09
634.649	63.24
634.981	63.29
635.313	63.22
635.646	63.29
635.978	63.44
636.31	63.43
636.643	63.48
636.975	63.5
637.307	63.56
637.639	63.57
637.971	63.72
638.303	63.82
638.635	63.78
638.967	63.78
639.299	63.92
639.631	63.83
639.963	63.89
640.295	63.95
640.626	64.06
640.958	63.94
641.29	63.96
641.621	63.83
641.953	63.79
642.285	63.91
642.616	64.01
642.948	63.83
643.279	63.85
643.61	63.86
643.942	63.83
644.273	63.68
644.604	63.7
644.936	63.52
645.267	63.48
645.598	63.42
645.929	63.42
646.26	63.29
646.591	63.36
646.922	63.27
647.253	63.23
647.584	63.29
647.915	63.33
648.245	63.27
648.576	63.3
648.907	63.34
649.238	63.36
649.568	63.28
649.899	63.4
650.229	63.46
650.56	63.45
650.89	63.52
651.221	63.59
651.551	63.64
651.882	63.84
652.212	63.88
652.542	63.94
652.872	63.88
653.203	64.1
653.533	64.16
653.863	64.23
654.193	64.27
654.523	64.33
654.853	64.52
655.183	64.63
655.513	64.71
655.843	64.82
656.172	64.91
656.502	64.9
656.832	64.84
657.162	64.82
657.491	64.92
657.821	64.94
658.15	65.04
658.48	65.01
658.809	65.02
659.139	64.99
659.468	64.98
659.798	65.05
660.127	64.87
660.456	64.82
660.785	64.88
661.115	64.76
661.444	64.74
