Data from BA53411_Reflection_00008.txt Node
Date: Tue Nov 19 11:53:46 EST 2019
User: vgr7
Spectrometer: USB2G7710
Scans to average: 3
Trigger mode: 4
Integration Time (sec): 2.000000E-2
Electric dark correction enabled: true
Boxcar width: 10
XAxis mode: Wavelengths
Number of Pixels in Spectrum: 2048
>>>>>Begin Spectral Data<<<<<
177.721	-47.57
178.105	-55.43
178.488	-58.68
178.871	-36.16
179.254	-40.65
179.636	16.96
180.019	30.89
180.402	266.67
180.785	-325.49
181.168	-109.77
181.55	15.98
181.933	56.03
182.316	266.67
182.698	134.93
183.081	144.9
183.463	149.1
183.846	124.67
184.228	93.29
184.611	87.87
184.993	99.15
185.376	89.04
185.758	108.69
186.14	140.23
186.522	-3590.48
186.904	-955.56
187.287	410.95
187.669	251.28
188.051	48.66
188.433	87.18
188.815	133.66
189.197	145.22
189.579	237.13
189.961	280.27
190.342	96.45
190.724	48.18
191.106	2044.44
191.488	23.28
191.869	-40.08
192.251	0.25
192.633	-33.19
193.014	-13.6
193.396	9.41
193.777	1.21
194.159	-32.7
194.54	-30.02
194.922	-144.29
195.303	-55.07
195.684	-378.49
196.065	-302.95
196.447	-151.32
196.828	-198.94
197.209	-2103.7
197.59	-48.75
197.971	-539.78
198.352	1525.93
198.733	-1184.31
199.114	221.4
199.495	89.3
199.876	75.83
200.257	95.5
200.638	114.83
201.018	158.88
201.399	262.45
201.78	201.25
202.16	5066.67
202.541	178.54
202.922	138.06
203.302	131.14
203.683	-295.24
204.063	-1866.67
204.444	-116.05
204.824	-123.81
205.204	-39.46
205.585	-414.49
205.965	5.02
206.345	266.67
206.725	239.64
207.106	83.78
207.486	40.58
207.866	157.08
208.246	112.52
208.626	-856.14
209.006	2695.24
209.386	-155.02
209.766	-122.81
210.145	-135.57
210.525	-76.19
210.905	-158.91
211.285	-140.03
211.664	-164.54
212.044	-215.34
212.424	-168.05
212.803	-126.69
213.183	-188.62
213.562	-193.8
213.942	-177.16
214.321	-160.14
214.701	-94.86
215.08	-76.95
215.459	-107.72
215.838	-25.14
216.218	-22.57
216.597	368.12
216.976	96.73
217.355	123.81
217.734	219.88
218.113	-463.06
218.492	-1243.14
218.871	-674.07
219.25	-423.57
219.629	-1128.68
220.008	-13511.11
220.387	-393.65
220.766	-134.72
221.144	-222.12
221.523	-312.74
221.902	-282.24
222.28	-138.01
222.659	-48.11
223.037	-35.34
223.416	-30.65
223.794	-4.13
224.173	-23.19
224.551	-11.95
224.929	-6.46
225.308	0.6
225.686	7.22
226.064	-8.38
226.442	-8.62
226.821	-2.36
227.199	6.22
227.577	2.85
227.955	2.44
228.333	1.81
228.711	4.97
229.089	5.32
229.467	8.06
229.845	7.26
230.222	4.45
230.6	0.61
230.978	-0.65
231.356	-1.85
231.733	1.49
232.111	1.17
232.488	1.26
232.866	4.24
233.243	6.31
233.621	5.27
233.998	8.1
234.376	8.87
234.753	8.92
235.13	7.93
235.508	10.07
235.885	6.79
236.262	7.03
236.639	5.54
237.016	5.74
237.393	6.34
237.77	6.73
238.147	6.23
238.524	6.36
238.901	6.7
239.278	6.27
239.655	5.53
240.032	6.64
240.409	5.93
240.785	5.63
241.162	5.52
241.539	5.91
241.915	5.95
242.292	6.58
242.668	6.72
243.045	7.02
243.421	6.94
243.798	7.3
244.174	7.52
244.551	7.61
244.927	7.85
245.303	7.27
245.679	6.84
246.056	6.97
246.432	6.9
246.808	7.01
247.184	7.18
247.56	7.02
247.936	7.18
248.312	7.22
248.688	7.34
249.064	7.06
249.44	6.98
249.815	6.98
250.191	6.9
250.567	6.68
250.943	6.87
251.318	6.9
251.694	7.02
252.069	7.08
252.445	6.99
252.82	7.05
253.196	7.7
253.571	8.26
253.947	8.22
254.322	8.31
254.697	8.1
255.073	7.96
255.448	7.74
255.823	7.5
256.198	7.21
256.573	7.28
256.948	7.65
257.323	7.41
257.698	7.4
258.073	7.01
258.448	7.19
258.823	6.84
259.198	6.99
259.573	6.81
259.948	6.81
260.322	6.81
260.697	6.78
261.072	6.59
261.446	6.33
261.821	6.31
262.195	6.2
262.57	6.25
262.944	6.44
263.319	6.64
263.693	6.37
264.067	6.56
264.442	6.38
264.816	6.02
265.19	6.09
265.564	5.78
265.938	5.97
266.313	5.87
266.687	5.74
267.061	5.29
267.435	5.33
267.809	5.1
268.183	5.18
268.556	4.87
268.93	5.1
269.304	5.38
269.678	5.5
270.051	5.54
270.425	5.47
270.799	5.03
271.172	5.11
271.546	5.39
271.919	5.38
272.293	5.69
272.666	5.79
273.04	5.85
273.413	5.85
273.787	5.8
274.16	5.73
274.533	5.96
274.906	5.95
275.279	5.81
275.653	5.79
276.026	6.04
276.399	6.19
276.772	6.04
277.145	5.94
277.518	5.56
277.891	5.53
278.263	5.75
278.636	6.07
279.009	5.8
279.382	5.69
279.755	5.81
280.127	5.64
280.5	5.58
280.872	5.68
281.245	5.94
281.617	6.12
281.99	6.03
282.362	6.12
282.735	6.16
283.107	6.27
283.479	6.27
283.852	6.12
284.224	6.25
284.596	6.24
284.968	6.2
285.34	6.55
285.713	6.53
286.085	6.24
286.457	6.21
286.829	6.4
287.201	6.57
287.572	6.59
287.944	6.6
288.316	6.75
288.688	6.84
289.06	6.86
289.431	6.95
289.803	7.07
290.175	6.94
290.546	7.06
290.918	7.14
291.289	7.17
291.661	7.14
292.032	7.23
292.403	7.31
292.775	7.68
293.146	7.6
293.517	7.61
293.889	7.84
294.26	7.96
294.631	8.1
295.002	8.12
295.373	8.11
295.744	8.15
296.115	8.27
296.486	8.29
296.857	8.36
297.228	8.17
297.599	8.15
297.97	8.37
298.34	8.49
298.711	8.59
299.082	8.67
299.452	8.69
299.823	8.77
300.194	8.85
300.564	8.62
300.935	8.79
301.305	9.1
301.676	9.22
302.046	9.25
302.416	9.31
302.787	9.27
303.157	9.38
303.527	9.62
303.897	9.67
304.267	9.83
304.637	10.05
305.008	10.28
305.378	10.51
305.748	10.58
306.117	10.7
306.487	10.86
306.857	10.97
307.227	11.13
307.597	11.06
307.967	11.19
308.336	11.44
308.706	11.59
309.076	11.66
309.445	11.81
309.815	11.86
310.184	11.93
310.554	12.08
310.923	12.08
311.293	12.1
311.662	12.16
312.031	12.21
312.401	12.23
312.77	12.32
313.139	12.49
313.508	12.52
313.877	12.71
314.246	12.66
314.616	12.88
314.985	12.99
315.353	13.23
315.722	13.45
316.091	13.54
316.46	13.63
316.829	13.69
317.198	13.82
317.567	14.08
317.935	14.22
318.304	14.61
318.672	14.96
319.041	15.08
319.41	15.35
319.778	15.33
320.147	15.31
320.515	15.6
320.883	15.72
321.252	15.83
321.62	15.78
321.988	16
322.357	15.84
322.725	16.05
323.093	16.26
323.461	16.16
323.829	16.23
324.197	16.19
324.565	16.3
324.933	16.2
325.301	16.03
325.669	16.08
326.037	16.04
326.405	16.09
326.772	16.2
327.14	16.02
327.508	16.04
327.875	16.27
328.243	16.11
328.61	16.18
328.978	16.24
329.346	16.37
329.713	16.41
330.08	16.73
330.448	16.8
330.815	16.74
331.182	16.92
331.55	17.13
331.917	17.24
332.284	17.45
332.651	17.57
333.018	17.98
333.385	18
333.752	17.91
334.119	17.73
334.486	17.73
334.853	17.88
335.22	17.94
335.587	17.86
335.954	18.11
336.32	18.03
336.687	18.13
337.054	18.05
337.42	18.13
337.787	17.98
338.153	18.07
338.52	18.21
338.886	18.24
339.253	18.05
339.619	17.98
339.986	17.86
340.352	17.96
340.718	17.9
341.084	17.86
341.451	17.99
341.817	18.24
342.183	18.23
342.549	18.29
342.915	18.24
343.281	18.24
343.647	18.07
344.013	18.01
344.379	17.88
344.745	17.98
345.11	17.97
345.476	18.05
345.842	17.92
346.208	17.84
346.573	17.82
346.939	17.96
347.304	18.07
347.67	18.12
348.035	18.02
348.401	17.91
348.766	17.98
349.132	17.9
349.497	17.85
349.862	17.77
350.228	17.64
350.593	17.69
350.958	17.65
351.323	17.62
351.688	17.74
352.053	17.77
352.418	17.65
352.783	17.57
353.148	17.51
353.513	17.63
353.878	17.68
354.243	17.57
354.608	17.49
354.972	17.46
355.337	17.33
355.702	17.28
356.066	17.27
356.431	17.26
356.795	17.2
357.16	17.09
357.524	17.19
357.889	17.15
358.253	17.07
358.618	17.05
358.982	17.05
359.346	16.95
359.71	16.86
360.075	16.86
360.439	16.89
360.803	16.89
361.167	16.76
361.531	16.69
361.895	16.65
362.259	16.62
362.623	16.55
362.987	16.51
363.351	16.49
363.714	16.49
364.078	16.35
364.442	16.29
364.806	16.28
365.169	16.17
365.533	16.16
365.896	16.2
366.26	16.21
366.623	16.15
366.987	16.19
367.35	16.15
367.714	16.1
368.077	16
368.44	15.82
368.803	15.76
369.167	15.49
369.53	15.5
369.893	15.41
370.256	15.27
370.619	15.24
370.982	15.08
371.345	14.94
371.708	14.94
372.071	14.9
372.434	14.7
372.797	14.67
373.159	14.52
373.522	14.4
373.885	14.26
374.247	14.16
374.61	14.01
374.973	13.97
375.335	13.79
375.698	13.62
376.06	13.54
376.423	13.42
376.785	13.47
377.147	13.26
377.51	13.14
377.872	13.19
378.234	13.12
378.596	13.08
378.958	12.97
379.321	12.84
379.683	12.71
380.045	12.68
380.407	12.55
380.769	12.46
381.13	12.33
381.492	12.22
381.854	12.19
382.216	12.07
382.578	11.99
382.939	11.99
383.301	11.93
383.663	11.96
384.024	11.95
384.386	11.89
384.747	11.9
385.109	11.88
385.47	11.77
385.832	11.68
386.193	11.6
386.554	11.52
386.916	11.45
387.277	11.38
387.638	11.29
387.999	11.21
388.36	11.13
388.721	11.12
389.082	11.04
389.443	10.95
389.804	10.91
390.165	10.8
390.526	10.73
390.887	10.65
391.248	10.5
391.609	10.4
391.969	10.28
392.33	10.22
392.691	10.11
393.051	10.02
393.412	9.95
393.772	9.88
394.133	9.8
394.493	9.69
394.854	9.59
395.214	9.5
395.574	9.41
395.935	9.38
396.295	9.22
396.655	9.14
397.015	9.05
397.376	8.98
397.736	8.9
398.096	8.78
398.456	8.66
398.816	8.6
399.176	8.5
399.535	8.42
399.895	8.29
400.255	8.23
400.615	8.15
400.975	8.09
401.334	8.04
401.694	8.01
402.054	7.95
402.413	7.93
402.773	7.91
403.132	7.88
403.492	7.8
403.851	7.8
404.211	7.76
404.57	7.72
404.929	7.64
405.288	7.6
405.648	7.59
406.007	7.61
406.366	7.61
406.725	7.57
407.084	7.58
407.443	7.57
407.802	7.48
408.161	7.44
408.52	7.41
408.879	7.4
409.238	7.36
409.596	7.34
409.955	7.34
410.314	7.3
410.673	7.27
411.031	7.23
411.39	7.18
411.748	7.15
412.107	7.12
412.465	7.1
412.824	7.05
413.182	6.97
413.54	6.92
413.899	6.85
414.257	6.87
414.615	6.83
414.974	6.79
415.332	6.8
415.69	6.73
416.048	6.71
416.406	6.62
416.764	6.58
417.122	6.53
417.48	6.48
417.838	6.43
418.195	6.36
418.553	6.34
418.911	6.32
419.269	6.28
419.626	6.24
419.984	6.21
420.342	6.2
420.699	6.18
421.057	6.15
421.414	6.15
421.772	6.09
422.129	6.05
422.486	6.03
422.844	6
423.201	5.98
423.558	5.94
423.915	5.94
424.273	5.92
424.63	5.92
424.987	5.9
425.344	5.88
425.701	5.87
426.058	5.86
426.415	5.84
426.772	5.83
427.128	5.81
427.485	5.79
427.842	5.76
428.199	5.74
428.555	5.71
428.912	5.67
429.269	5.65
429.625	5.64
429.982	5.64
430.338	5.63
430.695	5.61
431.051	5.63
431.407	5.61
431.764	5.61
432.12	5.62
432.476	5.61
432.832	5.64
433.189	5.63
433.545	5.63
433.901	5.65
434.257	5.64
434.613	5.61
434.969	5.62
435.325	5.63
435.681	5.64
436.036	5.65
436.392	5.64
436.748	5.65
437.104	5.65
437.459	5.61
437.815	5.61
438.171	5.63
438.526	5.62
438.882	5.61
439.237	5.61
439.593	5.58
439.948	5.58
440.304	5.52
440.659	5.53
441.014	5.48
441.369	5.46
441.725	5.46
442.08	5.45
442.435	5.43
442.79	5.43
443.145	5.42
443.5	5.41
443.855	5.4
444.21	5.39
444.565	5.38
444.92	5.37
445.275	5.35
445.629	5.33
445.984	5.32
446.339	5.32
446.693	5.3
447.048	5.27
447.403	5.26
447.757	5.26
448.112	5.26
448.466	5.28
448.82	5.28
449.175	5.28
449.529	5.31
449.883	5.3
450.238	5.3
450.592	5.3
450.946	5.3
451.3	5.28
451.654	5.25
452.008	5.23
452.362	5.2
452.716	5.22
453.07	5.21
453.424	5.17
453.778	5.16
454.132	5.17
454.486	5.19
454.839	5.17
455.193	5.18
455.547	5.17
455.9	5.16
456.254	5.15
456.607	5.15
456.961	5.13
457.314	5.14
457.668	5.12
458.021	5.13
458.375	5.12
458.728	5.13
459.081	5.16
459.434	5.18
459.787	5.21
460.141	5.21
460.494	5.22
460.847	5.24
461.2	5.24
461.553	5.25
461.906	5.25
462.259	5.27
462.611	5.31
462.964	5.33
463.317	5.33
463.67	5.34
464.022	5.34
464.375	5.35
464.728	5.37
465.08	5.4
465.433	5.38
465.785	5.4
466.138	5.42
466.49	5.43
466.843	5.44
467.195	5.44
467.547	5.44
467.899	5.45
468.252	5.48
468.604	5.5
468.956	5.52
469.308	5.53
469.66	5.56
470.012	5.55
470.364	5.56
470.716	5.56
471.068	5.59
471.42	5.61
471.772	5.62
472.123	5.64
472.475	5.65
472.827	5.67
473.178	5.67
473.53	5.69
473.882	5.68
474.233	5.68
474.585	5.68
474.936	5.7
475.288	5.72
475.639	5.73
475.99	5.71
476.342	5.7
476.693	5.69
477.044	5.66
477.395	5.63
477.746	5.61
478.097	5.62
478.448	5.59
478.8	5.58
479.15	5.56
479.501	5.55
479.852	5.55
480.203	5.53
480.554	5.53
480.905	5.53
481.255	5.53
481.606	5.52
481.957	5.53
482.307	5.52
482.658	5.5
483.009	5.5
483.359	5.5
483.709	5.5
484.06	5.49
484.41	5.51
484.761	5.53
485.111	5.54
485.461	5.54
485.811	5.54
486.162	5.54
486.512	5.55
486.862	5.55
487.212	5.56
487.562	5.56
487.912	5.56
488.262	5.56
488.612	5.57
488.961	5.59
489.311	5.59
489.661	5.6
490.011	5.61
490.36	5.61
490.71	5.63
491.06	5.63
491.409	5.65
491.759	5.65
492.108	5.65
492.458	5.65
492.807	5.68
493.157	5.7
493.506	5.72
493.855	5.74
494.204	5.78
494.554	5.81
494.903	5.84
495.252	5.89
495.601	5.94
495.95	5.96
496.299	6
496.648	6.05
496.997	6.09
497.346	6.13
497.695	6.2
498.043	6.28
498.392	6.35
498.741	6.41
499.09	6.47
499.438	6.54
499.787	6.6
500.135	6.63
500.484	6.72
500.832	6.79
501.181	6.85
501.529	6.94
501.878	6.98
502.226	7.07
502.574	7.13
502.923	7.19
503.271	7.28
503.619	7.38
503.967	7.47
504.315	7.55
504.663	7.66
505.011	7.74
505.359	7.78
505.707	7.88
506.055	7.94
506.403	8.03
506.751	8.11
507.098	8.19
507.446	8.27
507.794	8.35
508.141	8.47
508.489	8.59
508.837	8.66
509.184	8.78
509.531	8.88
509.879	9
510.226	9.1
510.574	9.2
510.921	9.29
511.268	9.37
511.616	9.47
511.963	9.56
512.31	9.68
512.657	9.8
513.004	9.93
513.351	10.07
513.698	10.22
514.045	10.36
514.392	10.52
514.739	10.67
515.086	10.8
515.432	10.94
515.779	11.08
516.126	11.23
516.473	11.37
516.819	11.48
517.166	11.61
517.512	11.71
517.859	11.85
518.205	11.99
518.552	12.13
518.898	12.25
519.245	12.39
519.591	12.52
519.937	12.67
520.283	12.77
520.629	12.89
520.976	13.03
521.322	13.2
521.668	13.37
522.014	13.56
522.36	13.74
522.706	13.91
523.052	14.09
523.398	14.29
523.743	14.5
524.089	14.74
524.435	14.96
524.781	15.18
525.126	15.38
525.472	15.54
525.817	15.69
526.163	15.87
526.509	16.03
526.854	16.17
527.199	16.29
527.545	16.44
527.89	16.6
528.235	16.75
528.581	16.89
528.926	17.03
529.271	17.16
529.616	17.31
529.961	17.47
530.306	17.61
530.651	17.77
530.996	17.94
531.341	18.11
531.686	18.28
532.031	18.49
532.376	18.68
532.721	18.9
533.065	19.11
533.41	19.3
533.755	19.52
534.099	19.77
534.444	19.99
534.788	20.23
535.133	20.44
535.477	20.67
535.822	20.92
536.166	21.19
536.51	21.48
536.855	21.79
537.199	22.11
537.543	22.43
537.887	22.76
538.231	23.06
538.576	23.41
538.92	23.7
539.264	23.96
539.608	24.24
539.951	24.49
540.295	24.76
540.639	25.04
540.983	25.26
541.327	25.5
541.671	25.75
542.014	25.98
542.358	26.24
542.701	26.47
543.045	26.71
543.389	26.96
543.732	27.2
544.075	27.44
544.419	27.67
544.762	27.94
545.105	28.22
545.449	28.5
545.792	28.77
546.135	29.09
546.478	29.42
546.821	29.77
547.165	30.11
547.508	30.48
547.851	30.8
548.194	31.16
548.536	31.48
548.879	31.84
549.222	32.2
549.565	32.57
549.908	32.93
550.25	33.29
550.593	33.64
550.936	34.02
551.278	34.38
551.621	34.76
551.963	35.18
552.306	35.47
552.648	35.87
552.991	36.22
553.333	36.52
553.675	36.84
554.017	37.19
554.36	37.54
554.702	37.82
555.044	38.13
555.386	38.48
555.728	38.78
556.07	39.05
556.412	39.37
556.754	39.67
557.096	39.99
557.438	40.27
557.78	40.56
558.121	40.83
558.463	41.21
558.805	41.57
559.147	41.87
559.488	42.26
559.83	42.53
560.171	42.81
560.513	43.13
560.854	43.44
561.196	43.75
561.537	44.04
561.878	44.36
562.22	44.67
562.561	45
562.902	45.34
563.243	45.64
563.584	45.93
563.925	46.2
564.266	46.43
564.607	46.74
564.948	47.06
565.289	47.4
565.63	47.65
565.971	47.85
566.312	48.12
566.653	48.32
566.993	48.59
567.334	48.84
567.675	49.08
568.015	49.34
568.356	49.6
568.696	49.88
569.037	50.13
569.377	50.43
569.718	50.67
570.058	50.89
570.398	51.17
570.739	51.43
571.079	51.65
571.419	51.94
571.759	52.13
572.099	52.31
572.439	52.49
572.779	52.62
573.119	52.86
573.459	53.04
573.799	53.24
574.139	53.42
574.479	53.64
574.819	53.92
575.158	54.16
575.498	54.3
575.838	54.51
576.177	54.68
576.517	54.85
576.856	55.04
577.196	55.31
577.535	55.5
577.875	55.68
578.214	55.88
578.553	56.07
578.893	56.28
579.232	56.46
579.571	56.64
579.91	56.88
580.25	57.09
580.589	57.22
580.928	57.41
581.267	57.6
581.606	57.8
581.945	57.99
582.283	58.13
582.622	58.29
582.961	58.42
583.3	58.62
583.639	58.71
583.977	58.78
584.316	58.89
584.654	59.11
584.993	59.27
585.332	59.44
585.67	59.57
586.008	59.77
586.347	59.93
586.685	60.08
587.024	60.24
587.362	60.4
587.7	60.6
588.038	60.78
588.376	60.89
588.715	60.92
589.053	60.99
589.391	61.15
589.729	61.31
590.067	61.45
590.404	61.66
590.742	61.75
591.08	61.92
591.418	62.11
591.756	62.08
592.093	62.25
592.431	62.38
592.769	62.5
593.106	62.62
593.444	62.76
593.781	62.89
594.119	63
594.456	63.07
594.793	63.15
595.131	63.19
595.468	63.29
595.805	63.52
596.143	63.58
596.48	63.64
596.817	63.7
597.154	63.81
597.491	63.75
597.828	63.9
598.165	63.97
598.502	63.93
598.839	64.1
599.176	64.15
599.512	64.18
599.849	64.26
600.186	64.3
600.523	64.29
600.859	64.36
601.196	64.42
601.532	64.51
601.869	64.62
602.205	64.73
602.542	64.85
602.878	64.81
603.215	64.85
603.551	64.88
603.887	64.98
604.223	65.05
604.56	65.17
604.896	65.23
605.232	65.23
605.568	65.3
605.904	65.32
606.24	65.34
606.576	65.42
606.912	65.37
607.248	65.42
607.583	65.53
607.919	65.54
608.255	65.59
608.591	65.62
608.926	65.63
609.262	65.67
609.597	65.64
609.933	65.68
610.268	65.7
610.604	65.75
610.939	65.74
611.275	65.68
611.61	65.71
611.945	65.75
612.281	65.81
612.616	65.87
612.951	66.04
613.286	66.23
613.621	66.14
613.956	66.29
614.291	66.44
614.626	66.49
614.961	66.56
615.296	66.7
615.631	66.72
615.966	66.82
616.3	66.87
616.635	66.93
616.97	67.13
617.304	67.24
617.639	67.36
617.973	67.43
618.308	67.52
618.642	67.6
618.977	67.71
619.311	67.84
619.646	67.89
619.98	67.9
620.314	67.79
620.648	67.99
620.983	68.06
621.317	68.02
621.651	68.05
621.985	68.08
622.319	67.95
622.653	68.11
622.987	68.04
623.321	67.97
623.655	68.1
623.988	68.07
624.322	67.98
624.656	67.92
624.99	67.9
625.323	67.99
625.657	67.99
625.99	67.92
626.324	67.85
626.657	67.81
626.991	67.71
627.324	67.74
627.658	67.72
627.991	67.74
628.324	67.8
628.657	67.84
628.991	67.93
629.324	67.99
629.657	67.82
629.99	67.88
630.323	68.04
630.656	67.94
630.989	67.92
631.322	68.05
631.655	68.1
631.987	68.17
632.32	68.12
632.653	68.17
632.986	68.26
633.318	68.3
633.651	68.45
633.984	68.52
634.316	68.55
634.649	68.58
634.981	68.59
635.313	68.47
635.646	68.43
635.978	68.43
636.31	68.44
636.643	68.37
636.975	68.37
637.307	68.38
637.639	68.51
637.971	68.46
638.303	68.48
638.635	68.44
638.967	68.4
639.299	68.35
639.631	68.19
639.963	68.18
640.295	68.27
640.626	68.15
640.958	68.23
641.29	68.29
641.621	68.37
641.953	68.34
642.285	68.35
642.616	68.52
642.948	68.47
643.279	68.54
643.61	68.74
643.942	68.76
644.273	68.55
644.604	68.48
644.936	68.5
645.267	68.5
645.598	68.52
645.929	68.56
646.26	68.54
646.591	68.68
646.922	68.66
647.253	68.67
647.584	68.77
647.915	68.77
648.245	68.69
648.576	68.62
648.907	68.58
649.238	68.7
649.568	68.56
649.899	68.51
650.229	68.46
650.56	68.61
650.89	68.54
651.221	68.66
651.551	68.74
651.882	68.84
652.212	68.84
652.542	68.87
652.872	68.89
653.203	69.19
653.533	69.31
653.863	69.27
654.193	69.23
654.523	69.26
654.853	69.27
655.183	69.29
655.513	69.42
655.843	69.61
656.172	69.63
656.502	69.75
656.832	69.82
657.162	69.92
657.491	69.83
657.821	69.99
658.15	70.11
658.48	70.14
658.809	70.13
659.139	70.15
659.468	70.18
659.798	70.18
660.127	70.09
660.456	70.07
660.785	70
