Data from BA53509_Reflection_00004.txt Node
Date: Tue Nov 19 11:46:23 EST 2019
User: vgr7
Spectrometer: USB2G7710
Scans to average: 3
Trigger mode: 4
Integration Time (sec): 2.000000E-2
Electric dark correction enabled: true
Boxcar width: 10
XAxis mode: Wavelengths
Number of Pixels in Spectrum: 2048
>>>>>Begin Spectral Data<<<<<
177.721	497.44
178.105	3016.67
178.488	404.07
178.871	495.24
179.254	426.67
179.636	156.91
180.019	-281.72
180.402	75
180.785	-215.69
181.168	238.36
181.55	70.45
181.933	85.84
182.316	81.48
182.698	15.17
183.081	-190.96
183.463	-294.31
183.846	150.26
184.228	337.59
184.611	-1460.61
184.993	92.75
185.376	63.77
185.758	83.18
186.14	113.73
186.522	62.85
186.904	-7.41
187.287	-47.8
187.669	25.4
188.051	-112.2
188.433	-140.74
188.815	-48.84
189.197	-27.21
189.579	-34.32
189.961	-44.22
190.342	-25.36
190.724	-31.1
191.106	-36.82
191.488	-54.68
191.869	-46.38
192.251	-49.97
192.633	-38.85
193.014	-27.98
193.396	-37.24
193.777	-10.16
194.159	-9.96
194.54	-22.14
194.922	-23.25
195.303	-26.75
195.684	-35
196.065	-26.2
196.447	-11.48
196.828	-20.09
197.209	-22.47
197.59	-19.56
197.971	-10.03
198.352	-29.83
198.733	-54.61
199.114	-38.57
199.495	-11.68
199.876	-29.93
200.257	-42.81
200.638	-63.41
201.018	-95
201.399	-93.62
201.78	-80.83
202.16	-126.8
202.541	-213.52
202.922	-105.53
203.302	-92.1
203.683	-135.76
204.063	-190.48
204.444	-132.03
204.824	-123.56
205.204	-97.64
205.585	-98.19
205.965	-81.85
206.345	-55.98
206.725	-46.92
207.106	-45
207.486	-33.64
207.866	-36.3
208.246	-34.7
208.626	-49.39
209.006	-31.32
209.386	-32.56
209.766	-73.16
210.145	-70.7
210.525	-57.88
210.905	-60.09
211.285	-52.69
211.664	-45.98
212.044	-44.96
212.424	-40.98
212.803	-54.22
213.183	-73.16
213.562	-56.02
213.942	-69.5
214.321	-80.44
214.701	-108.25
215.08	-106.07
215.459	-114.66
215.838	-99.37
216.218	-95.54
216.597	-70.35
216.976	-91.57
217.355	-77.17
217.734	-75.91
218.113	-57.69
218.492	-47.5
218.871	-63.3
219.25	-67.86
219.629	-70.42
220.008	-58.07
220.387	-46.61
220.766	-24.49
221.144	-10.83
221.523	-17.49
221.902	-19.18
222.28	-5.38
222.659	15.72
223.037	8.88
223.416	3.65
223.794	8.62
224.173	-0.13
224.551	-0.48
224.929	-2.72
225.308	0.4
225.686	8.26
226.064	-4.57
226.442	-2.75
226.821	8.92
227.199	8.41
227.577	11.15
227.955	7.56
228.333	1.85
228.711	-1.39
229.089	-2.21
229.467	-0.05
229.845	2.23
230.222	2.58
230.6	-2.78
230.978	3.84
231.356	5.35
231.733	7.46
232.111	9.19
232.488	7.91
232.866	10.94
233.243	9.78
233.621	8.24
233.998	9.05
234.376	6.67
234.753	5.92
235.13	5.99
235.508	3.18
235.885	2.79
236.262	2.51
236.639	2.15
237.016	1.6
237.393	2.02
237.77	1.68
238.147	1.74
238.524	3.29
238.901	2.28
239.278	2.51
239.655	1.73
240.032	1.43
240.409	2.98
240.785	2.94
241.162	3.94
241.539	4.56
241.915	4.75
242.292	5.2
242.668	4.88
243.045	5.27
243.421	5.9
243.798	6.32
244.174	6.64
244.551	7.01
244.927	6.92
245.303	6.83
245.679	6.94
246.056	6.93
246.432	6.77
246.808	7
247.184	7.3
247.56	7.28
247.936	7.41
248.312	7.17
248.688	7.41
249.064	6.95
249.44	6.85
249.815	6.89
250.191	6.83
250.567	7.05
250.943	7.25
251.318	7.14
251.694	6.8
252.069	6.66
252.445	6.18
252.82	6.43
253.196	6.44
253.571	6.45
253.947	6.14
254.322	6.43
254.697	6.16
255.073	5.4
255.448	5.47
255.823	5.57
256.198	5.8
256.573	5.44
256.948	5.55
257.323	5.65
257.698	5.73
258.073	5.69
258.448	5.49
258.823	5.14
259.198	5.17
259.573	5.05
259.948	5.06
260.322	5.11
260.697	5.28
261.072	5.32
261.446	5.42
261.821	5.61
262.195	5.43
262.57	5.44
262.944	5.43
263.319	5.59
263.693	5.46
264.067	5.17
264.442	5.3
264.816	5.34
265.19	5.3
265.564	5.17
265.938	4.98
266.313	4.89
266.687	4.92
267.061	4.83
267.435	4.96
267.809	4.95
268.183	5.14
268.556	4.93
268.93	4.95
269.304	4.77
269.678	4.87
270.051	4.93
270.425	5.04
270.799	5.03
271.172	4.75
271.546	4.73
271.919	4.89
272.293	4.81
272.666	4.66
273.04	4.61
273.413	4.67
273.787	4.76
274.16	4.63
274.533	4.77
274.906	4.86
275.279	4.98
275.653	5.1
276.026	5.12
276.399	5.14
276.772	5.04
277.145	5.17
277.518	4.95
277.891	4.88
278.263	4.82
278.636	5.11
279.009	5.34
279.382	5.52
279.755	5.41
280.127	5.39
280.5	5.36
280.872	5.24
281.245	5.02
281.617	5.03
281.99	5.29
282.362	5.15
282.735	4.95
283.107	4.98
283.479	4.9
283.852	4.94
284.224	4.88
284.596	4.76
284.968	4.66
285.34	4.59
285.713	4.63
286.085	4.65
286.457	4.46
286.829	4.3
287.201	4.07
287.572	4.33
287.944	4.37
288.316	4.47
288.688	4.62
289.06	4.83
289.431	4.97
289.803	5.07
290.175	5.04
290.546	5.23
290.918	5.15
291.289	5.14
291.661	5.06
292.032	5.01
292.403	5.02
292.775	5.15
293.146	5.31
293.517	5.21
293.889	5.11
294.26	5.29
294.631	5.49
295.002	5.53
295.373	5.24
295.744	5.27
296.115	5.38
296.486	5.3
296.857	5.37
297.228	5.27
297.599	5.1
297.97	5.2
298.34	5.24
298.711	5.32
299.082	5.36
299.452	5.33
299.823	5.46
300.194	5.72
300.564	5.58
300.935	5.47
301.305	5.52
301.676	5.46
302.046	5.38
302.416	5.33
302.787	5.45
303.157	5.65
303.527	5.7
303.897	5.63
304.267	5.69
304.637	5.56
305.008	5.65
305.378	5.61
305.748	5.66
306.117	5.54
306.487	5.46
306.857	5.54
307.227	5.76
307.597	5.65
307.967	5.46
308.336	5.46
308.706	5.54
309.076	5.54
309.445	5.81
309.815	5.9
310.184	5.76
310.554	5.79
310.923	5.72
311.293	5.55
311.662	5.45
312.031	5.31
312.401	5.5
312.77	5.49
313.139	5.57
313.508	5.54
313.877	5.66
314.246	5.67
314.616	5.51
314.985	5.44
315.353	5.54
315.722	5.55
316.091	5.56
316.46	5.49
316.829	5.6
317.198	5.49
317.567	5.44
317.935	5.54
318.304	5.67
318.672	5.59
319.041	5.7
319.41	5.72
319.778	5.98
320.147	5.78
320.515	5.65
320.883	5.62
321.252	5.59
321.62	5.47
321.988	5.55
322.357	5.72
322.725	5.62
323.093	5.47
323.461	5.63
323.829	5.65
324.197	5.76
324.565	5.78
324.933	5.74
325.301	5.54
325.669	5.68
326.037	5.57
326.405	5.59
326.772	5.69
327.14	5.67
327.508	5.63
327.875	5.57
328.243	5.58
328.61	5.6
328.978	5.62
329.346	5.59
329.713	5.53
330.08	5.59
330.448	5.59
330.815	5.69
331.182	5.45
331.55	5.47
331.917	5.35
332.284	5.32
332.651	5.18
333.018	5.25
333.385	5.17
333.752	5.31
334.119	5.35
334.486	5.22
334.853	5.22
335.22	5.2
335.587	5.11
335.954	5.1
336.32	5.09
336.687	5.08
337.054	5.16
337.42	5.17
337.787	5.07
338.153	5.04
338.52	5.07
338.886	5.24
339.253	5.25
339.619	5.33
339.986	5.25
340.352	5.38
340.718	5.44
341.084	5.34
341.451	5.23
341.817	5.27
342.183	5.21
342.549	5.21
342.915	5.22
343.281	5.4
343.647	5.38
344.013	5.43
344.379	5.31
344.745	5.18
345.11	5.11
345.476	5.12
345.842	5.2
346.208	5.25
346.573	5.15
346.939	5.12
347.304	5.04
347.67	5.07
348.035	5.04
348.401	5.04
348.766	5.03
349.132	4.94
349.497	4.91
349.862	4.94
350.228	4.95
350.593	4.93
350.958	4.97
351.323	5.02
351.688	5
352.053	5.07
352.418	5.13
352.783	5.26
353.148	5.2
353.513	5.17
353.878	5.13
354.243	5.11
354.608	5.22
354.972	5.31
355.337	5.37
355.702	5.37
356.066	5.4
356.431	5.4
356.795	5.54
357.16	5.56
357.524	5.53
357.889	5.6
358.253	5.6
358.618	5.52
358.982	5.48
359.346	5.56
359.71	5.58
360.075	5.64
360.439	5.61
360.803	5.65
361.167	5.61
361.531	5.57
361.895	5.6
362.259	5.54
362.623	5.53
362.987	5.45
363.351	5.4
363.714	5.33
364.078	5.41
364.442	5.37
364.806	5.39
365.169	5.39
365.533	5.36
365.896	5.38
366.26	5.29
366.623	5.39
366.987	5.24
367.35	5.23
367.714	5.2
368.077	5.21
368.44	5.19
368.803	5.19
369.167	5.14
369.53	5.22
369.893	5.24
370.256	5.19
370.619	5.19
370.982	5.24
371.345	5.26
371.708	5.2
372.071	5.16
372.434	5.12
372.797	5.24
373.159	5.19
373.522	5.18
373.885	5.25
374.247	5.23
374.61	5.26
374.973	5.3
375.335	5.28
375.698	5.21
376.06	5.21
376.423	5.18
376.785	5.22
377.147	5.15
377.51	5.1
377.872	5.18
378.234	5.22
378.596	5.24
378.958	5.27
379.321	5.25
379.683	5.32
380.045	5.32
380.407	5.22
380.769	5.22
381.13	5.21
381.492	5.21
381.854	5.13
382.216	5.14
382.578	5.19
382.939	5.2
383.301	5.21
383.663	5.23
384.024	5.26
384.386	5.26
384.747	5.23
385.109	5.28
385.47	5.25
385.832	5.21
386.193	5.15
386.554	5.11
386.916	5.1
387.277	5
387.638	4.96
387.999	4.99
388.36	5.03
388.721	5
389.082	5.04
389.443	5.13
389.804	5.08
390.165	5.05
390.526	5.1
390.887	5.12
391.248	5.14
391.609	5.18
391.969	5.18
392.33	5.21
392.691	5.15
393.051	5.12
393.412	5.12
393.772	5.17
394.133	5.2
394.493	5.21
394.854	5.23
395.214	5.26
395.574	5.25
395.935	5.22
396.295	5.26
396.655	5.21
397.015	5.18
397.376	5.21
397.736	5.16
398.096	5.11
398.456	5.1
398.816	5.07
399.176	5.02
399.535	5
399.895	4.96
400.255	5.05
400.615	5.09
400.975	5.09
401.334	5.1
401.694	5.12
402.054	5.11
402.413	5.13
402.773	5.12
403.132	5.13
403.492	5.14
403.851	5.14
404.211	5.19
404.57	5.19
404.929	5.17
405.288	5.2
405.648	5.21
406.007	5.21
406.366	5.2
406.725	5.24
407.084	5.24
407.443	5.27
407.802	5.23
408.161	5.19
408.52	5.2
408.879	5.13
409.238	5.11
409.596	5.14
409.955	5.12
410.314	5.12
410.673	5.11
411.031	5.12
411.39	5.1
411.748	5.07
412.107	5.03
412.465	5.05
412.824	5.02
413.182	5.01
413.54	5.04
413.899	5.05
414.257	5.03
414.615	5.06
414.974	5.09
415.332	5.09
415.69	5.08
416.048	5.1
416.406	5.11
416.764	5.12
417.122	5.1
417.48	5.12
417.838	5.12
418.195	5.13
418.553	5.12
418.911	5.12
419.269	5.09
419.626	5.12
419.984	5.12
420.342	5.13
420.699	5.12
421.057	5.11
421.414	5.12
421.772	5.12
422.129	5.11
422.486	5.09
422.844	5.09
423.201	5.09
423.558	5.08
423.915	5.1
424.273	5.11
424.63	5.12
424.987	5.11
425.344	5.1
425.701	5.13
426.058	5.13
426.415	5.13
426.772	5.15
427.128	5.14
427.485	5.13
427.842	5.11
428.199	5.13
428.555	5.15
428.912	5.12
429.269	5.11
429.625	5.1
429.982	5.1
430.338	5.12
430.695	5.14
431.051	5.15
431.407	5.13
431.764	5.12
432.12	5.11
432.476	5.13
432.832	5.14
433.189	5.12
433.545	5.08
433.901	5.08
434.257	5.09
434.613	5.1
434.969	5.1
435.325	5.13
435.681	5.12
436.036	5.11
436.392	5.12
436.748	5.13
437.104	5.17
437.459	5.16
437.815	5.17
438.171	5.14
438.526	5.15
438.882	5.16
439.237	5.14
439.593	5.13
439.948	5.1
440.304	5.08
440.659	5.09
441.014	5.11
441.369	5.11
441.725	5.12
442.08	5.1
442.435	5.11
442.79	5.08
443.145	5.1
443.5	5.09
443.855	5.09
444.21	5.08
444.565	5.09
444.92	5.1
445.275	5.07
445.629	5.07
445.984	5.07
446.339	5.07
446.693	5.11
447.048	5.11
447.403	5.1
447.757	5.1
448.112	5.09
448.466	5.09
448.82	5.09
449.175	5.07
449.529	5.09
449.883	5.08
450.238	5.09
450.592	5.08
450.946	5.06
451.3	5.06
451.654	5.04
452.008	5.01
452.362	5
452.716	5.01
453.07	5.01
453.424	4.99
453.778	4.99
454.132	4.96
454.486	4.98
454.839	5.01
455.193	5.04
455.547	5.03
455.9	5.02
456.254	5
456.607	5.01
456.961	4.99
457.314	5.01
457.668	5.02
458.021	5.02
458.375	5.06
458.728	5.06
459.081	5.08
459.434	5.08
459.787	5.07
460.141	5.07
460.494	5.09
460.847	5.1
461.2	5.09
461.553	5.1
461.906	5.1
462.259	5.08
462.611	5.07
462.964	5.08
463.317	5.09
463.67	5.11
464.022	5.12
464.375	5.14
464.728	5.13
465.08	5.11
465.433	5.11
465.785	5.12
466.138	5.11
466.49	5.11
466.843	5.15
467.195	5.15
467.547	5.16
467.899	5.14
468.252	5.15
468.604	5.15
468.956	5.13
469.308	5.14
469.66	5.17
470.012	5.19
470.364	5.19
470.716	5.19
471.068	5.19
471.42	5.17
471.772	5.17
472.123	5.18
472.475	5.21
472.827	5.21
473.178	5.21
473.53	5.22
473.882	5.21
474.233	5.16
474.585	5.16
474.936	5.17
475.288	5.17
475.639	5.16
475.99	5.15
476.342	5.17
476.693	5.15
477.044	5.12
477.395	5.11
477.746	5.11
478.097	5.11
478.448	5.11
478.8	5.12
479.15	5.12
479.501	5.1
479.852	5.1
480.203	5.1
480.554	5.09
480.905	5.11
481.255	5.13
481.606	5.15
481.957	5.16
482.307	5.16
482.658	5.17
483.009	5.18
483.359	5.19
483.709	5.2
484.06	5.19
484.41	5.2
484.761	5.2
485.111	5.2
485.461	5.21
485.811	5.21
486.162	5.22
486.512	5.22
486.862	5.24
487.212	5.25
487.562	5.25
487.912	5.26
488.262	5.25
488.612	5.24
488.961	5.24
489.311	5.24
489.661	5.23
490.011	5.24
490.36	5.24
490.71	5.23
491.06	5.23
491.409	5.23
491.759	5.23
492.108	5.24
492.458	5.23
492.807	5.23
493.157	5.24
493.506	5.25
493.855	5.24
494.204	5.23
494.554	5.24
494.903	5.25
495.252	5.27
495.601	5.28
495.95	5.29
496.299	5.29
496.648	5.28
496.997	5.3
497.346	5.29
497.695	5.29
498.043	5.31
498.392	5.31
498.741	5.33
499.09	5.34
499.438	5.34
499.787	5.33
500.135	5.32
500.484	5.34
500.832	5.33
501.181	5.35
501.529	5.39
501.878	5.38
502.226	5.36
502.574	5.35
502.923	5.35
503.271	5.35
503.619	5.36
503.967	5.36
504.315	5.34
504.663	5.35
505.011	5.37
505.359	5.38
505.707	5.4
506.055	5.42
506.403	5.44
506.751	5.45
507.098	5.49
507.446	5.49
507.794	5.46
508.141	5.46
508.489	5.45
508.837	5.4
509.184	5.41
509.531	5.41
509.879	5.42
510.226	5.43
510.574	5.46
510.921	5.46
511.268	5.5
511.616	5.53
511.963	5.52
512.31	5.51
512.657	5.52
513.004	5.51
513.351	5.5
513.698	5.5
514.045	5.49
514.392	5.48
514.739	5.5
515.086	5.54
515.432	5.56
515.779	5.58
516.126	5.62
516.473	5.63
516.819	5.66
517.166	5.65
517.512	5.66
517.859	5.65
518.205	5.65
518.552	5.66
518.898	5.64
519.245	5.65
519.591	5.67
519.937	5.66
520.283	5.66
520.629	5.66
520.976	5.68
521.322	5.69
521.668	5.69
522.014	5.69
522.36	5.68
522.706	5.69
523.052	5.71
523.398	5.69
523.743	5.69
524.089	5.7
524.435	5.73
524.781	5.73
525.126	5.73
525.472	5.73
525.817	5.72
526.163	5.74
526.509	5.75
526.854	5.74
527.199	5.74
527.545	5.76
527.89	5.77
528.235	5.76
528.581	5.77
528.926	5.76
529.271	5.77
529.616	5.78
529.961	5.79
530.306	5.78
530.651	5.8
530.996	5.81
531.341	5.81
531.686	5.81
532.031	5.79
532.376	5.8
532.721	5.81
533.065	5.82
533.41	5.8
533.755	5.81
534.099	5.81
534.444	5.81
534.788	5.8
535.133	5.8
535.477	5.81
535.822	5.82
536.166	5.83
536.51	5.82
536.855	5.81
537.199	5.79
537.543	5.81
537.887	5.81
538.231	5.8
538.576	5.81
538.92	5.81
539.264	5.84
539.608	5.85
539.951	5.85
540.295	5.86
540.639	5.87
540.983	5.86
541.327	5.89
541.671	5.9
542.014	5.91
542.358	5.91
542.701	5.9
543.045	5.89
543.389	5.91
543.732	5.92
544.075	5.92
544.419	5.94
544.762	5.92
545.105	5.93
545.449	5.95
545.792	5.96
546.135	5.96
546.478	5.95
546.821	5.95
547.165	5.95
547.508	5.93
547.851	5.95
548.194	5.96
548.536	5.92
548.879	5.9
549.222	5.9
549.565	5.89
549.908	5.88
550.25	5.88
550.593	5.86
550.936	5.86
551.278	5.87
551.621	5.86
551.963	5.88
552.306	5.85
552.648	5.79
552.991	5.75
553.333	5.74
553.675	5.77
554.017	5.74
554.36	5.78
554.702	5.78
555.044	5.76
555.386	5.78
555.728	5.78
556.07	5.8
556.412	5.81
556.754	5.81
557.096	5.83
557.438	5.86
557.78	5.87
558.121	5.85
558.463	5.82
558.805	5.86
559.147	5.86
559.488	5.85
559.83	5.91
560.171	5.92
560.513	5.93
560.854	5.92
561.196	5.92
561.537	5.9
561.878	5.91
562.22	5.93
562.561	5.92
562.902	5.93
563.243	5.94
563.584	5.92
563.925	5.95
564.266	5.96
564.607	5.95
564.948	5.93
565.289	5.94
565.63	5.92
565.971	5.9
566.312	5.89
566.653	5.9
566.993	5.89
567.334	5.9
567.675	5.89
568.015	5.87
568.356	5.9
568.696	5.91
569.037	5.91
569.377	5.9
569.718	5.88
570.058	5.9
570.398	5.9
570.739	5.87
571.079	5.84
571.419	5.83
571.759	5.82
572.099	5.85
572.439	5.85
572.779	5.89
573.119	5.89
573.459	5.9
573.799	5.92
574.139	5.94
574.479	5.95
574.819	5.98
575.158	5.99
575.498	5.97
575.838	5.98
576.177	5.95
576.517	5.94
576.856	5.97
577.196	5.95
577.535	5.95
577.875	5.94
578.214	5.97
578.553	6
578.893	6.05
579.232	6.08
579.571	6.12
579.91	6.12
580.25	6.11
580.589	6.13
580.928	6.09
581.267	6.08
581.606	6.04
581.945	5.99
582.283	6.03
582.622	6.01
582.961	6.03
583.3	6.09
583.639	6.12
583.977	6.09
584.316	6.08
584.654	6.12
584.993	6.18
585.332	6.17
585.67	6.13
586.008	6.12
586.347	6.07
586.685	6.05
587.024	6.07
587.362	6.11
587.7	6.11
588.038	6.14
588.376	6.14
588.715	6.17
589.053	6.19
589.391	6.16
589.729	6.17
590.067	6.16
590.404	6.13
590.742	6.14
591.08	6.15
591.418	6.2
591.756	6.18
592.093	6.23
592.431	6.24
592.769	6.26
593.106	6.23
593.444	6.27
593.781	6.29
594.119	6.26
594.456	6.25
594.793	6.24
595.131	6.23
595.468	6.2
595.805	6.2
596.143	6.25
596.48	6.26
596.817	6.26
597.154	6.26
597.491	6.3
597.828	6.31
598.165	6.33
598.502	6.31
598.839	6.3
599.176	6.28
599.512	6.2
599.849	6.18
600.186	6.2
600.523	6.18
600.859	6.18
601.196	6.19
601.532	6.19
601.869	6.21
602.205	6.22
602.542	6.23
602.878	6.24
603.215	6.24
603.551	6.25
603.887	6.23
604.223	6.2
604.56	6.17
604.896	6.18
605.232	6.19
605.568	6.21
605.904	6.17
606.24	6.16
606.576	6.24
606.912	6.23
607.248	6.21
607.583	6.24
607.919	6.23
608.255	6.27
608.591	6.29
608.926	6.27
609.262	6.24
609.597	6.25
609.933	6.24
610.268	6.21
610.604	6.21
610.939	6.28
611.275	6.34
611.61	6.34
611.945	6.3
612.281	6.27
612.616	6.28
612.951	6.35
613.286	6.37
613.621	6.37
613.956	6.42
614.291	6.46
614.626	6.44
614.961	6.44
615.296	6.46
615.631	6.47
615.966	6.47
616.3	6.53
616.635	6.57
616.97	6.59
617.304	6.57
617.639	6.57
617.973	6.49
618.308	6.47
618.642	6.45
618.977	6.48
619.311	6.45
619.646	6.39
619.98	6.38
620.314	6.4
620.648	6.37
620.983	6.36
621.317	6.38
621.651	6.37
621.985	6.42
622.319	6.36
622.653	6.31
622.987	6.29
623.321	6.33
623.655	6.3
623.988	6.31
624.322	6.37
624.656	6.36
624.99	6.38
625.323	6.38
625.657	6.39
625.99	6.38
626.324	6.39
626.657	6.39
626.991	6.41
627.324	6.41
627.658	6.42
627.991	6.41
628.324	6.36
628.657	6.37
628.991	6.3
629.324	6.27
629.657	6.26
629.99	6.26
630.323	6.23
630.656	6.19
630.989	6.16
631.322	6.13
631.655	6.17
631.987	6.16
632.32	6.17
632.653	6.18
632.986	6.15
633.318	6.14
633.651	6.13
633.984	6.09
634.316	6.1
634.649	6.08
634.981	6.12
635.313	6.11
635.646	6.12
635.978	6.21
636.31	6.23
636.643	6.26
636.975	6.28
637.307	6.33
637.639	6.31
637.971	6.28
638.303	6.29
638.635	6.24
638.967	6.25
639.299	6.26
639.631	6.21
639.963	6.23
640.295	6.33
640.626	6.35
640.958	6.33
641.29	6.3
641.621	6.36
641.953	6.24
642.285	6.27
642.616	6.24
642.948	6.17
643.279	6.2
643.61	6.2
643.942	6.21
644.273	6.14
644.604	6.2
644.936	6.26
645.267	6.32
645.598	6.38
645.929	6.39
646.26	6.37
646.591	6.42
646.922	6.46
647.253	6.39
647.584	6.36
647.915	6.46
648.245	6.43
648.576	6.38
648.907	6.48
649.238	6.41
649.568	6.4
649.899	6.41
650.229	6.5
650.56	6.5
650.89	6.52
651.221	6.51
651.551	6.53
651.882	6.46
652.212	6.39
652.542	6.4
652.872	6.41
653.203	6.46
653.533	6.49
653.863	6.47
654.193	6.45
654.523	6.46
654.853	6.44
655.183	6.42
655.513	6.52
655.843	6.5
656.172	6.64
656.502	6.69
656.832	6.67
657.162	6.52
657.491	6.54
657.821	6.56
658.15	6.56
658.48	6.62
658.809	6.67
659.139	6.7
659.468	6.59
659.798	6.63
660.127	6.58
660.456	6.52
660.785	6.48
661.115	6.58
661.444	6.69
661.773	6.71
662.102	6.76
662.431	6.71
662.76	6.64
663.089	6.63
663.418	6.64
663.747	6.64
664.076	6.78
664.404	6.79
664.733	6.75
665.062	6.73
665.39	6.67
665.719	6.71
666.048	6.77
666.376	6.87
666.705	6.78
667.033	6.83
667.362	6.91
667.69	6.96
668.018	6.88
668.347	6.85
668.675	6.85
669.003	6.77
669.331	6.76
669.659	6.85
669.987	6.82
670.315	6.83
670.643	6.89
670.971	6.85
671.299	6.89
671.627	6.92
671.955	6.94
672.283	6.96
672.61	6.88
672.938	6.78
673.266	6.8
673.593	6.87
673.921	6.8
674.249	6.79
674.576	6.88
674.904	6.89
675.231	6.9
675.558	6.92
675.886	6.96
676.213	6.87
676.54	6.83
676.867	6.82
677.195	6.89
677.522	6.95
677.849	6.92
678.176	6.92
