Data from BA53411_Reflection_00013.txt Node
Date: Tue Nov 19 11:53:57 EST 2019
User: vgr7
Spectrometer: USB2G7710
Scans to average: 3
Trigger mode: 4
Integration Time (sec): 2.000000E-2
Electric dark correction enabled: true
Boxcar width: 10
XAxis mode: Wavelengths
Number of Pixels in Spectrum: 2048
>>>>>Begin Spectral Data<<<<<
177.721	-75.42
178.105	-17.98
178.488	2.13
178.871	18.64
179.254	34.15
179.636	52.96
180.019	648.78
180.402	300
180.785	11.76
181.168	74.14
181.55	71.07
181.933	47.85
182.316	78.87
182.698	49.1
183.081	56.62
183.463	77.18
183.846	72.92
184.228	58.2
184.611	40.61
184.993	71.79
185.376	53.29
185.758	50.24
186.14	-27.59
186.522	2171.43
186.904	1266.67
187.287	-176.12
187.669	-323.08
188.051	-83.54
188.433	-11.34
188.815	-45.32
189.197	-97.67
189.579	-159.49
189.961	8.16
190.342	89.36
190.724	36.97
191.106	-400
191.488	12.7
191.869	11.04
192.251	5.2
192.633	18.41
193.014	42.79
193.396	6.64
193.777	-6.33
194.159	-87.9
194.54	-164.4
194.922	-358.9
195.303	-156.52
195.684	-1012.9
196.065	-450.63
196.447	-320.63
196.828	-431.75
197.209	-3733.33
197.59	-195.7
197.971	-464.52
198.352	1377.78
198.733	-811.76
199.114	180.25
199.495	22.02
199.876	103.82
200.257	40.15
200.638	34.55
201.018	91.02
201.399	131.65
201.78	123.36
202.16	1400
202.541	-89.66
202.922	48.82
203.302	28.57
203.683	-85.71
204.063	1800
204.444	81.48
204.824	-142.86
205.204	110.2
205.585	78.26
205.965	8.6
206.345	-309.09
206.725	356.76
207.106	113.27
207.486	78.26
207.866	312.33
208.246	97.11
208.626	-557.89
209.006	2028.57
209.386	-26.51
209.766	-52.63
210.145	18.99
210.525	53.06
210.905	71.7
211.285	59.33
211.664	17.02
212.044	97.65
212.424	88.48
212.803	63.6
213.183	78.05
213.562	120.93
213.942	146.96
214.321	139.68
214.701	172.14
215.08	155.07
215.459	230.54
215.838	195.16
216.218	298.41
216.597	-2139.13
216.976	1070.59
217.355	548.05
217.734	635.09
218.113	-508.11
218.492	-811.76
218.871	-266.67
219.25	-177.78
219.629	-423.26
220.008	-2400
220.387	-104.76
220.766	-9
221.144	-41.26
221.523	-7.33
221.902	-10.78
222.28	-17.54
222.659	1.39
223.037	-10.97
223.416	22.99
223.794	14.16
224.173	-13.27
224.551	-34.99
224.929	-40.39
225.308	-36.02
225.686	-22.06
226.064	-36.18
226.442	-22.81
226.821	-19.79
227.199	-15
227.577	-12.14
227.955	-12.53
228.333	-15.26
228.711	-10.61
229.089	-8.95
229.467	-11.64
229.845	-11.33
230.222	-7.52
230.6	-6.71
230.978	-0.9
231.356	-3.89
231.733	-6.75
232.111	-1.28
232.488	0.12
232.866	-1.39
233.243	-1.89
233.621	-3.21
233.998	-2.11
234.376	1.23
234.753	2.06
235.13	1.25
235.508	-0.43
235.885	0.37
236.262	0.31
236.639	-3.26
237.016	-4
237.393	-0.33
237.77	1.78
238.147	1.27
238.524	1.18
238.901	0.39
239.278	1.16
239.655	3.41
240.032	5.05
240.409	5.52
240.785	6.72
241.162	7.16
241.539	6.88
241.915	6.86
242.292	6.15
242.668	6.39
243.045	6.5
243.421	7.1
243.798	6.81
244.174	7.49
244.551	7.62
244.927	8.11
245.303	6.97
245.679	6.79
246.056	6.83
246.432	7.01
246.808	7.17
247.184	7.19
247.56	7.03
247.936	6.74
248.312	6.64
248.688	6.87
249.064	6.84
249.44	6.93
249.815	6.96
250.191	6.8
250.567	6.55
250.943	6.43
251.318	6.25
251.694	6.23
252.069	6.23
252.445	6.14
252.82	5.94
253.196	6.55
253.571	6.51
253.947	6.89
254.322	6.53
254.697	6.23
255.073	6.11
255.448	6.01
255.823	5.57
256.198	5.52
256.573	5.26
256.948	4.91
257.323	4.74
257.698	4.76
258.073	4.64
258.448	4.76
258.823	4.84
259.198	4.76
259.573	4.72
259.948	4.63
260.322	4.7
260.697	4.66
261.072	4.66
261.446	4.59
261.821	4.37
262.195	4.57
262.57	4.57
262.944	4.59
263.319	4.62
263.693	4.61
264.067	4.54
264.442	4.37
264.816	4.55
265.19	4.62
265.564	4.54
265.938	4.53
266.313	4.26
266.687	4.19
267.061	4.27
267.435	4.32
267.809	4.37
268.183	4.27
268.556	4.19
268.93	4.29
269.304	4.26
269.678	4.29
270.051	4.24
270.425	4.44
270.799	4.49
271.172	4.45
271.546	4.68
271.919	4.78
272.293	4.88
272.666	4.88
273.04	5
273.413	5.02
273.787	5.04
274.16	5.06
274.533	5.35
274.906	5.37
275.279	5.24
275.653	5.07
276.026	5.16
276.399	5.16
276.772	5.34
277.145	5.6
277.518	5.45
277.891	5.4
278.263	5.37
278.636	5.41
279.009	5.63
279.382	5.39
279.755	5.41
280.127	5.52
280.5	5.51
280.872	5.52
281.245	5.47
281.617	5.52
281.99	5.55
282.362	5.36
282.735	5.36
283.107	5.47
283.479	5.6
283.852	5.69
284.224	5.8
284.596	5.47
284.968	5.43
285.34	5.56
285.713	5.68
286.085	5.44
286.457	5.31
286.829	5.21
287.201	5.4
287.572	5.46
287.944	5.55
288.316	5.69
288.688	5.81
289.06	5.85
289.431	5.93
289.803	6.12
290.175	6.11
290.546	6.02
290.918	6.01
291.289	5.93
291.661	5.94
292.032	5.86
292.403	6.05
292.775	6.06
293.146	6.18
293.517	5.96
293.889	6.17
294.26	6.28
294.631	6.38
295.002	6.27
295.373	6.15
295.744	6.02
296.115	5.9
296.486	5.75
296.857	5.86
297.228	5.84
297.599	5.74
297.97	5.83
298.34	5.96
298.711	6.12
299.082	6.25
299.452	6.21
299.823	6.27
300.194	6.27
300.564	6.31
300.935	6.26
301.305	6.27
301.676	6.25
302.046	6.38
302.416	6.31
302.787	6.35
303.157	6.51
303.527	6.76
303.897	6.88
304.267	7.01
304.637	6.88
305.008	6.89
305.378	6.99
305.748	7
306.117	6.92
306.487	6.8
306.857	6.76
307.227	6.88
307.597	6.96
307.967	7.1
308.336	7.27
308.706	7.23
309.076	7.54
309.445	7.72
309.815	7.69
310.184	7.65
310.554	7.88
310.923	7.88
311.293	7.96
311.662	7.82
312.031	7.92
312.401	8.08
312.77	8.15
313.139	8.26
313.508	8.39
313.877	8.43
314.246	8.7
314.616	8.76
314.985	8.89
315.353	8.97
315.722	9.04
316.091	9.06
316.46	9.38
316.829	9.42
317.198	9.46
317.567	9.45
317.935	9.66
318.304	9.74
318.672	9.91
319.041	9.76
319.41	10.02
319.778	10.11
320.147	10.11
320.515	10.16
320.883	10.19
321.252	10.28
321.62	10.54
321.988	10.57
322.357	10.6
322.725	10.57
323.093	10.57
323.461	10.54
323.829	10.48
324.197	10.52
324.565	10.56
324.933	10.48
325.301	10.46
325.669	10.49
326.037	10.47
326.405	10.41
326.772	10.5
327.14	10.38
327.508	10.27
327.875	10.36
328.243	10.49
328.61	10.42
328.978	10.31
329.346	10.38
329.713	10.55
330.08	10.68
330.448	10.88
330.815	11.08
331.182	11.05
331.55	11.13
331.917	11.14
332.284	11.18
332.651	11.2
333.018	11.34
333.385	11.52
333.752	11.54
334.119	11.42
334.486	11.49
334.853	11.61
335.22	11.61
335.587	11.64
335.954	11.61
336.32	11.87
336.687	11.92
337.054	11.98
337.42	11.83
337.787	11.88
338.153	11.87
338.52	11.92
338.886	12.03
339.253	12.02
339.619	12.02
339.986	12
340.352	12.01
340.718	12.07
341.084	12.09
341.451	12.13
341.817	12.25
342.183	12.28
342.549	12.46
342.915	12.53
343.281	12.67
343.647	12.64
344.013	12.51
344.379	12.41
344.745	12.47
345.11	12.54
345.476	12.56
345.842	12.45
346.208	12.41
346.573	12.38
346.939	12.38
347.304	12.33
347.67	12.24
348.035	12.25
348.401	12.23
348.766	11.96
349.132	12.06
349.497	12.14
349.862	12.14
350.228	12.01
350.593	12.12
350.958	12.1
351.323	12.09
351.688	11.94
352.053	11.98
352.418	11.79
352.783	11.78
353.148	11.73
353.513	11.78
353.878	11.62
354.243	11.55
354.608	11.62
354.972	11.66
355.337	11.78
355.702	11.82
356.066	11.81
356.431	11.93
356.795	11.88
357.16	11.76
357.524	11.72
357.889	11.68
358.253	11.59
358.618	11.45
358.982	11.38
359.346	11.54
359.71	11.6
360.075	11.68
360.439	11.66
360.803	11.63
361.167	11.57
361.531	11.61
361.895	11.55
362.259	11.53
362.623	11.44
362.987	11.32
363.351	11.31
363.714	11.27
364.078	11.22
364.442	11.08
364.806	11.12
365.169	11.02
365.533	11.01
365.896	10.97
366.26	10.92
366.623	10.89
366.987	10.78
367.35	10.67
367.714	10.58
368.077	10.52
368.44	10.37
368.803	10.21
369.167	10.11
369.53	10.15
369.893	10.02
370.256	9.94
370.619	9.87
370.982	9.75
371.345	9.64
371.708	9.53
372.071	9.46
372.434	9.34
372.797	9.33
373.159	9.26
373.522	9.12
373.885	9.14
374.247	9.14
374.61	9.1
374.973	9.07
375.335	9.04
375.698	8.89
376.06	8.81
376.423	8.87
376.785	8.83
377.147	8.68
377.51	8.65
377.872	8.59
378.234	8.59
378.596	8.61
378.958	8.57
379.321	8.56
379.683	8.56
380.045	8.46
380.407	8.36
380.769	8.3
381.13	8.3
381.492	8.15
381.854	8.09
382.216	8.01
382.578	7.93
382.939	7.85
383.301	7.83
383.663	7.8
384.024	7.73
384.386	7.65
384.747	7.64
385.109	7.61
385.47	7.6
385.832	7.58
386.193	7.52
386.554	7.48
386.916	7.45
387.277	7.34
387.638	7.35
387.999	7.35
388.36	7.26
388.721	7.23
389.082	7.28
389.443	7.23
389.804	7.2
390.165	7.18
390.526	7.12
390.887	7.09
391.248	7.06
391.609	7.09
391.969	7.12
392.33	7.07
392.691	7.04
393.051	6.98
393.412	6.94
393.772	6.88
394.133	6.85
394.493	6.78
394.854	6.8
395.214	6.78
395.574	6.71
395.935	6.68
396.295	6.67
396.655	6.59
397.015	6.56
397.376	6.53
397.736	6.49
398.096	6.43
398.456	6.4
398.816	6.37
399.176	6.28
399.535	6.22
399.895	6.22
400.255	6.19
400.615	6.18
400.975	6.12
401.334	6.08
401.694	6.03
402.054	6.05
402.413	6.02
402.773	5.99
403.132	5.96
403.492	6.01
403.851	5.96
404.211	5.91
404.57	5.88
404.929	5.87
405.288	5.87
405.648	5.88
406.007	5.86
406.366	5.88
406.725	5.85
407.084	5.81
407.443	5.79
407.802	5.79
408.161	5.78
408.52	5.76
408.879	5.77
409.238	5.78
409.596	5.76
409.955	5.73
410.314	5.69
410.673	5.67
411.031	5.6
411.39	5.57
411.748	5.59
412.107	5.56
412.465	5.53
412.824	5.5
413.182	5.45
413.54	5.44
413.899	5.41
414.257	5.41
414.615	5.42
414.974	5.42
415.332	5.38
415.69	5.36
416.048	5.35
416.406	5.32
416.764	5.31
417.122	5.27
417.48	5.29
417.838	5.29
418.195	5.29
418.553	5.26
418.911	5.25
419.269	5.22
419.626	5.21
419.984	5.18
420.342	5.16
420.699	5.14
421.057	5.15
421.414	5.13
421.772	5.11
422.129	5.09
422.486	5.08
422.844	5.07
423.201	5.05
423.558	5.05
423.915	5.03
424.273	5
424.63	5
424.987	4.97
425.344	4.95
425.701	4.92
426.058	4.93
426.415	4.91
426.772	4.92
427.128	4.92
427.485	4.93
427.842	4.92
428.199	4.96
428.555	4.95
428.912	4.93
429.269	4.9
429.625	4.9
429.982	4.89
430.338	4.9
430.695	4.89
431.051	4.9
431.407	4.9
431.764	4.91
432.12	4.93
432.476	4.94
432.832	4.93
433.189	4.94
433.545	4.93
433.901	4.94
434.257	4.91
434.613	4.92
434.969	4.89
435.325	4.88
435.681	4.85
436.036	4.83
436.392	4.83
436.748	4.86
437.104	4.84
437.459	4.82
437.815	4.8
438.171	4.8
438.526	4.78
438.882	4.78
439.237	4.77
439.593	4.74
439.948	4.71
440.304	4.72
440.659	4.73
441.014	4.74
441.369	4.74
441.725	4.76
442.08	4.76
442.435	4.76
442.79	4.77
443.145	4.77
443.5	4.75
443.855	4.76
444.21	4.73
444.565	4.73
444.92	4.74
445.275	4.75
445.629	4.74
445.984	4.73
446.339	4.74
446.693	4.74
447.048	4.72
447.403	4.72
447.757	4.7
448.112	4.69
448.466	4.66
448.82	4.65
449.175	4.64
449.529	4.63
449.883	4.62
450.238	4.61
450.592	4.63
450.946	4.63
451.3	4.62
451.654	4.62
452.008	4.6
452.362	4.58
452.716	4.57
453.07	4.56
453.424	4.54
453.778	4.52
454.132	4.53
454.486	4.55
454.839	4.55
455.193	4.57
455.547	4.58
455.9	4.6
456.254	4.58
456.607	4.6
456.961	4.59
457.314	4.62
457.668	4.61
458.021	4.58
458.375	4.57
458.728	4.55
459.081	4.56
459.434	4.57
459.787	4.58
460.141	4.59
460.494	4.6
460.847	4.63
461.2	4.64
461.553	4.65
461.906	4.65
462.259	4.64
462.611	4.67
462.964	4.67
463.317	4.67
463.67	4.69
464.022	4.68
464.375	4.69
464.728	4.65
465.08	4.66
465.433	4.68
465.785	4.71
466.138	4.74
466.49	4.76
466.843	4.79
467.195	4.81
467.547	4.79
467.899	4.82
468.252	4.83
468.604	4.84
468.956	4.84
469.308	4.86
469.66	4.9
470.012	4.87
470.364	4.85
470.716	4.86
471.068	4.88
471.42	4.89
471.772	4.88
472.123	4.92
472.475	4.94
472.827	4.94
473.178	4.95
473.53	4.92
473.882	4.9
474.233	4.89
474.585	4.88
474.936	4.93
475.288	4.9
475.639	4.89
475.99	4.9
476.342	4.9
476.693	4.9
477.044	4.88
477.395	4.88
477.746	4.9
478.097	4.89
478.448	4.87
478.8	4.86
479.15	4.85
479.501	4.83
479.852	4.82
480.203	4.82
480.554	4.84
480.905	4.84
481.255	4.86
481.606	4.85
481.957	4.86
482.307	4.85
482.658	4.84
483.009	4.84
483.359	4.83
483.709	4.84
484.06	4.85
484.41	4.85
484.761	4.87
485.111	4.86
485.461	4.88
485.811	4.88
486.162	4.88
486.512	4.9
486.862	4.91
487.212	4.92
487.562	4.92
487.912	4.92
488.262	4.92
488.612	4.92
488.961	4.93
489.311	4.94
489.661	4.95
490.011	4.96
490.36	4.97
490.71	4.98
491.06	4.98
491.409	4.98
491.759	4.99
492.108	5
492.458	5.01
492.807	5.01
493.157	5.01
493.506	5.03
493.855	5.03
494.204	5.07
494.554	5.09
494.903	5.12
495.252	5.13
495.601	5.16
495.95	5.2
496.299	5.2
496.648	5.21
496.997	5.24
497.346	5.26
497.695	5.28
498.043	5.33
498.392	5.34
498.741	5.38
499.09	5.4
499.438	5.44
499.787	5.46
500.135	5.49
500.484	5.51
500.832	5.55
501.181	5.58
501.529	5.57
501.878	5.63
502.226	5.67
502.574	5.7
502.923	5.73
503.271	5.76
503.619	5.82
503.967	5.86
504.315	5.9
504.663	5.95
505.011	6.01
505.359	6.04
505.707	6.08
506.055	6.13
506.403	6.18
506.751	6.2
507.098	6.24
507.446	6.3
507.794	6.32
508.141	6.37
508.489	6.44
508.837	6.51
509.184	6.54
509.531	6.57
509.879	6.62
510.226	6.66
510.574	6.74
510.921	6.79
511.268	6.84
511.616	6.9
511.963	6.95
512.31	7.01
512.657	7.07
513.004	7.14
513.351	7.2
513.698	7.25
514.045	7.32
514.392	7.42
514.739	7.49
515.086	7.63
515.432	7.72
515.779	7.78
516.126	7.87
516.473	7.94
516.819	8.03
517.166	8.13
517.512	8.19
517.859	8.23
518.205	8.31
518.552	8.38
518.898	8.45
519.245	8.54
519.591	8.6
519.937	8.68
520.283	8.77
520.629	8.84
520.976	8.94
521.322	9.07
521.668	9.2
522.014	9.32
522.36	9.41
522.706	9.52
523.052	9.69
523.398	9.81
523.743	9.96
524.089	10.11
524.435	10.24
524.781	10.4
525.126	10.53
525.472	10.65
525.817	10.76
526.163	10.87
526.509	10.96
526.854	11.07
527.199	11.18
527.545	11.27
527.89	11.37
528.235	11.47
528.581	11.55
528.926	11.63
529.271	11.73
529.616	11.86
529.961	11.96
530.306	12.07
530.651	12.18
530.996	12.3
531.341	12.45
531.686	12.59
532.031	12.74
532.376	12.9
532.721	13.08
533.065	13.26
533.41	13.42
533.755	13.6
534.099	13.78
534.444	13.96
534.788	14.15
535.133	14.35
535.477	14.55
535.822	14.76
536.166	14.99
536.51	15.22
536.855	15.44
537.199	15.7
537.543	15.93
537.887	16.19
538.231	16.44
538.576	16.65
538.92	16.89
539.264	17.12
539.608	17.35
539.951	17.57
540.295	17.78
540.639	17.99
540.983	18.2
541.327	18.41
541.671	18.58
542.014	18.76
542.358	18.94
542.701	19.13
543.045	19.33
543.389	19.52
543.732	19.71
544.075	19.94
544.419	20.14
544.762	20.37
545.105	20.59
545.449	20.83
545.792	21.09
546.135	21.34
546.478	21.63
546.821	21.85
547.165	22.09
547.508	22.39
547.851	22.72
548.194	23.01
548.536	23.27
548.879	23.6
549.222	23.91
549.565	24.24
549.908	24.53
550.25	24.85
550.593	25.19
550.936	25.53
551.278	25.82
551.621	26.15
551.963	26.48
552.306	26.83
552.648	27.14
552.991	27.46
553.333	27.75
553.675	28.01
554.017	28.37
554.36	28.71
554.702	28.98
555.044	29.24
555.386	29.51
555.728	29.85
556.07	30.16
556.412	30.48
556.754	30.73
557.096	31.1
557.438	31.4
557.78	31.66
558.121	31.94
558.463	32.28
558.805	32.61
559.147	32.93
559.488	33.22
559.83	33.56
560.171	33.84
560.513	34.17
560.854	34.48
561.196	34.83
561.537	35.18
561.878	35.52
562.22	35.84
562.561	36.13
562.902	36.39
563.243	36.66
563.584	36.92
563.925	37.28
564.266	37.51
564.607	37.77
564.948	37.99
565.289	38.32
565.63	38.58
565.971	38.81
566.312	39.08
566.653	39.38
566.993	39.64
567.334	39.94
567.675	40.15
568.015	40.43
568.356	40.7
568.696	40.92
569.037	41.12
569.377	41.36
569.718	41.61
570.058	41.91
570.398	42.21
570.739	42.48
571.079	42.72
571.419	42.97
571.759	43.2
572.099	43.53
572.439	43.67
572.779	43.87
573.119	44.11
573.459	44.31
573.799	44.5
574.139	44.73
574.479	44.96
574.819	45.28
575.158	45.47
575.498	45.65
575.838	45.86
576.177	46.16
576.517	46.41
576.856	46.66
577.196	46.88
577.535	47.09
577.875	47.36
578.214	47.6
578.553	47.84
578.893	48.07
579.232	48.3
579.571	48.66
579.91	48.98
580.25	49.25
580.589	49.48
580.928	49.7
581.267	49.89
581.606	50.08
581.945	50.28
582.283	50.51
582.622	50.68
582.961	50.88
583.3	51.01
583.639	51.2
583.977	51.32
584.316	51.47
584.654	51.6
584.993	51.72
585.332	51.92
585.67	52.11
586.008	52.39
586.347	52.61
586.685	52.78
587.024	52.92
587.362	53.04
587.7	53.18
588.038	53.39
588.376	53.55
588.715	53.71
589.053	53.8
589.391	53.97
589.729	54.17
590.067	54.28
590.404	54.46
590.742	54.63
591.08	54.85
591.418	55.05
591.756	55.19
592.093	55.37
592.431	55.51
592.769	55.6
593.106	55.67
593.444	55.7
593.781	55.76
594.119	55.81
594.456	55.9
594.793	56.04
595.131	56.11
595.468	56.19
595.805	56.29
596.143	56.38
596.48	56.43
596.817	56.5
597.154	56.68
597.491	56.71
597.828	56.82
598.165	56.95
598.502	56.96
598.839	57.06
599.176	57.16
599.512	57.26
599.849	57.45
600.186	57.57
600.523	57.65
600.859	57.71
601.196	57.81
601.532	57.93
601.869	57.99
602.205	58.1
602.542	58.27
602.878	58.37
603.215	58.44
603.551	58.51
603.887	58.57
604.223	58.61
604.56	58.7
604.896	58.69
605.232	58.7
605.568	58.82
605.904	58.93
606.24	58.97
606.576	59
606.912	58.97
607.248	58.98
607.583	59.12
607.919	59.2
608.255	59.33
608.591	59.39
608.926	59.42
609.262	59.58
609.597	59.59
609.933	59.61
610.268	59.64
610.604	59.74
610.939	59.88
611.275	59.89
611.61	60
611.945	60.1
612.281	60.18
612.616	60.24
612.951	60.33
613.286	60.47
613.621	60.49
613.956	60.67
614.291	60.93
614.626	60.98
614.961	61.13
615.296	61.16
615.631	61.25
615.966	61.45
616.3	61.37
616.635	61.49
616.97	61.65
617.304	61.76
617.639	61.8
617.973	61.76
618.308	61.92
618.642	62.02
618.977	62.11
619.311	62.22
619.646	62.26
619.98	62.25
620.314	62.18
620.648	62.22
620.983	62.21
621.317	62.15
621.651	62.17
621.985	62.28
622.319	62.31
622.653	62.33
622.987	62.22
623.321	62.23
623.655	62.34
623.988	62.31
624.322	62.34
624.656	62.44
624.99	62.51
625.323	62.61
625.657	62.56
625.99	62.47
626.324	62.43
626.657	62.45
626.991	62.51
627.324	62.6
627.658	62.66
627.991	62.71
628.324	62.69
628.657	62.73
628.991	62.67
629.324	62.72
629.657	62.75
629.99	62.87
630.323	62.93
630.656	62.88
630.989	62.89
631.322	62.95
631.655	63.02
631.987	63.07
632.32	62.96
632.653	62.99
632.986	63.1
633.318	63.17
633.651	63.15
633.984	63.1
634.316	63.08
634.649	63.14
634.981	63.13
635.313	63.19
635.646	63.19
635.978	63.25
636.31	63.3
636.643	63.26
636.975	63.27
637.307	63.34
637.639	63.32
637.971	63.31
638.303	63.38
638.635	63.34
638.967	63.38
639.299	63.45
639.631	63.44
639.963	63.5
640.295	63.51
640.626	63.68
640.958	63.87
641.29	64
641.621	63.99
641.953	63.93
642.285	63.92
642.616	64.07
642.948	63.99
643.279	63.94
643.61	64.08
643.942	64.11
644.273	63.96
644.604	64.03
644.936	64.01
645.267	63.97
645.598	63.97
645.929	63.9
646.26	63.85
646.591	63.93
646.922	63.9
647.253	63.96
647.584	63.87
647.915	63.8
648.245	63.78
648.576	63.82
648.907	63.86
649.238	63.97
649.568	63.84
649.899	63.84
650.229	63.97
650.56	63.96
650.89	64.05
651.221	64.08
651.551	64.07
651.882	64.24
652.212	64.31
652.542	64.31
652.872	64.25
653.203	64.36
653.533	64.41
653.863	64.42
654.193	64.37
654.523	64.51
654.853	64.52
655.183	64.52
655.513	64.57
655.843	64.7
656.172	64.63
656.502	64.59
656.832	64.6
657.162	64.44
657.491	64.49
657.821	64.45
658.15	64.56
658.48	64.7
658.809	64.73
659.139	64.72
659.468	64.7
659.798	64.75
660.127	64.74
660.456	64.72
660.785	64.74
661.115	64.73
661.444	64.69
661.773	64.67
662.102	64.6
662.431	64.59
662.76	64.71
663.089	64.79
663.418	64.84
663.747	64.93
664.076	65.07
664.404	65.14
