Data from BA53411_Reflection_00012.txt Node
Date: Tue Nov 19 11:53:54 EST 2019
User: vgr7
Spectrometer: USB2G7710
Scans to average: 3
Trigger mode: 4
Integration Time (sec): 2.000000E-2
Electric dark correction enabled: true
Boxcar width: 10
XAxis mode: Wavelengths
Number of Pixels in Spectrum: 2048
>>>>>Begin Spectral Data<<<<<
177.721	220.92
178.105	135.58
178.488	83.13
178.871	80.79
179.254	64.23
179.636	64
180.019	579.67
180.402	122.22
180.785	9.8
181.168	148.85
181.55	61.43
181.933	83.64
182.316	217.37
182.698	102
183.081	28.46
183.463	-31.4
183.846	-39.59
184.228	-56.86
184.611	-71.14
184.993	-118.8
185.376	-78.78
185.758	-92.73
186.14	-90.8
186.522	2766.67
186.904	1211.11
187.287	-327.86
187.669	-264.1
188.051	-92.69
188.433	-64.64
188.815	-95.4
189.197	-191.99
189.579	-338.82
189.961	-464.63
190.342	-488.65
190.724	-224.93
191.106	-6788.89
191.488	285.19
191.869	104.09
192.251	54.15
192.633	77.68
193.014	98.34
193.396	57.12
193.777	116.59
194.159	187.05
194.54	171.55
194.922	163.93
195.303	1.45
195.684	89.25
196.065	7.17
196.447	78.84
196.828	47.09
197.209	-492.59
197.59	-75.63
197.971	-168.82
198.352	470.37
198.733	-566.67
199.114	153.5
199.495	103.06
199.876	41.48
200.257	43.37
200.638	70.33
201.018	119.96
201.399	218.14
201.78	159.19
202.16	3366.67
202.541	345.21
202.922	102.62
203.302	125.64
203.683	-309.52
204.063	-4166.67
204.444	-986.42
204.824	-623.81
205.204	-233.33
205.585	-305.8
205.965	10.39
206.345	-415.15
206.725	307.21
207.106	167.85
207.486	131.88
207.866	191.32
208.246	86.51
208.626	-671.93
209.006	2623.81
209.386	-293.57
209.766	-275.44
210.145	-127.19
210.525	-102.72
210.905	-111.74
211.285	-94.58
211.664	-119.86
212.044	-166.04
212.424	-198
212.803	-113.28
213.183	-83.74
213.562	-107.75
213.942	-97.05
214.321	-35.8
214.701	7.13
215.08	70.63
215.459	72.09
215.838	45.79
216.218	43.56
216.597	85.51
216.976	-11.11
217.355	0.43
217.734	70.76
218.113	199.1
218.492	786.27
218.871	448.15
219.25	157.24
219.629	68.99
220.008	-1344.44
220.387	-141.27
220.766	-22.26
221.144	35.72
221.523	-11.69
221.902	-9.78
222.28	46.2
222.659	80.67
223.037	96.52
223.416	78.54
223.794	62.24
224.173	78.64
224.551	69.04
224.929	61.69
225.308	51.04
225.686	44.5
226.064	28.31
226.442	22.94
226.821	27.68
227.199	26.7
227.577	25.61
227.955	27.76
228.333	28.73
228.711	29.94
229.089	25.77
229.467	27.23
229.845	25.33
230.222	22.2
230.6	15.73
230.978	18.94
231.356	19.58
231.733	20.04
232.111	19.25
232.488	18.14
232.866	18.85
233.243	13.02
233.621	11.76
233.998	12.2
234.376	11.67
234.753	10.6
235.13	12.31
235.508	14.28
235.885	14.1
236.262	13.07
236.639	10.6
237.016	9.95
237.393	8.8
237.77	8.42
238.147	8.52
238.524	9.91
238.901	8.35
239.278	7.66
239.655	7.01
240.032	6.88
240.409	6.5
240.785	5.34
241.162	6.4
241.539	6.24
241.915	6.8
242.292	6.04
242.668	5.93
243.045	5.81
243.421	5.92
243.798	5.96
244.174	5.91
244.551	6.7
244.927	6.45
245.303	6.16
245.679	6.34
246.056	6.08
246.432	5.86
246.808	6.01
247.184	5.99
247.56	5.75
247.936	5.77
248.312	5.93
248.688	6.14
249.064	6.07
249.44	6.19
249.815	6.08
250.191	6.55
250.567	6.59
250.943	6.83
251.318	6.69
251.694	6.65
252.069	7.09
252.445	6.91
252.82	7.36
253.196	7.68
253.571	7.64
253.947	7.62
254.322	7.45
254.697	7.64
255.073	7.63
255.448	7.83
255.823	7.93
256.198	7.44
256.573	7.49
256.948	7.53
257.323	7.62
257.698	7.34
258.073	6.93
258.448	6.81
258.823	6.37
259.198	6.2
259.573	6.03
259.948	5.95
260.322	5.92
260.697	5.98
261.072	6.02
261.446	6.03
261.821	5.98
262.195	6.06
262.57	5.91
262.944	6.05
263.319	5.95
263.693	5.88
264.067	6.17
264.442	5.99
264.816	6.07
265.19	5.83
265.564	5.94
265.938	6.05
266.313	6
266.687	6.33
267.061	6.49
267.435	6.63
267.809	6.45
268.183	6.44
268.556	6.12
268.93	6.1
269.304	6.09
269.678	6.14
270.051	6.1
270.425	6.23
270.799	5.93
271.172	6.01
271.546	5.99
271.919	5.72
272.293	5.72
272.666	5.54
273.04	5.46
273.413	5.39
273.787	5.26
274.16	5.29
274.533	5.24
274.906	5.31
275.279	5.15
275.653	5.23
276.026	5.24
276.399	5.47
276.772	5.69
277.145	5.85
277.518	6.03
277.891	5.85
278.263	5.8
278.636	6.06
279.009	6.05
279.382	6.07
279.755	6.09
280.127	6.2
280.5	6.23
280.872	6.57
281.245	6.65
281.617	6.75
281.99	6.65
282.362	6.76
282.735	6.74
283.107	6.8
283.479	6.68
283.852	6.7
284.224	6.61
284.596	6.34
284.968	6.2
285.34	6.11
285.713	6.3
286.085	6.05
286.457	6
286.829	5.89
287.201	5.85
287.572	5.92
287.944	5.89
288.316	5.95
288.688	5.91
289.06	5.92
289.431	5.94
289.803	6.12
290.175	5.96
290.546	5.8
290.918	5.85
291.289	5.99
291.661	5.87
292.032	5.86
292.403	5.88
292.775	6.04
293.146	6.08
293.517	6.05
293.889	6.29
294.26	6.29
294.631	6.28
295.002	6.23
295.373	6.25
295.744	6.3
296.115	6.27
296.486	6.21
296.857	6.16
297.228	6.1
297.599	5.95
297.97	5.96
298.34	5.96
298.711	6.03
299.082	6.05
299.452	6.13
299.823	6.1
300.194	6.22
300.564	5.99
300.935	6.13
301.305	6.04
301.676	5.92
302.046	5.99
302.416	6.23
302.787	6.31
303.157	6.38
303.527	6.39
303.897	6.33
304.267	6.36
304.637	6.53
305.008	6.67
305.378	6.91
305.748	6.84
306.117	7.15
306.487	7.2
306.857	7.14
307.227	7.21
307.597	7.25
307.967	7.12
308.336	7.29
308.706	7.3
309.076	7.41
309.445	7.57
309.815	7.68
310.184	7.51
310.554	7.5
310.923	7.57
311.293	7.45
311.662	7.59
312.031	7.53
312.401	7.36
312.77	7.29
313.139	7.18
313.508	7.29
313.877	7.18
314.246	7.08
314.616	7.23
314.985	7.08
315.353	7.28
315.722	7.48
316.091	7.53
316.46	7.53
316.829	7.54
317.198	7.56
317.567	7.38
317.935	7.47
318.304	7.64
318.672	7.56
319.041	7.78
319.41	7.72
319.778	7.74
320.147	7.83
320.515	7.86
320.883	7.86
321.252	7.96
321.62	7.84
321.988	7.79
322.357	7.68
322.725	7.78
323.093	7.64
323.461	7.67
323.829	7.64
324.197	7.46
324.565	7.54
324.933	7.53
325.301	7.47
325.669	7.63
326.037	7.63
326.405	7.71
326.772	7.65
327.14	7.56
327.508	7.57
327.875	7.54
328.243	7.65
328.61	7.62
328.978	7.6
329.346	7.72
329.713	7.93
330.08	7.93
330.448	8.04
330.815	8.11
331.182	8.04
331.55	8.01
331.917	7.96
332.284	7.98
332.651	7.85
333.018	7.96
333.385	7.89
333.752	7.85
334.119	7.89
334.486	7.97
334.853	8.13
335.22	8.13
335.587	8.14
335.954	8.2
336.32	8.2
336.687	8.14
337.054	8.11
337.42	8.09
337.787	8.02
338.153	8.02
338.52	8.08
338.886	8
339.253	8.06
339.619	8.29
339.986	8.28
340.352	8.35
340.718	8.52
341.084	8.49
341.451	8.61
341.817	8.53
342.183	8.5
342.549	8.49
342.915	8.48
343.281	8.56
343.647	8.45
344.013	8.5
344.379	8.56
344.745	8.56
345.11	8.57
345.476	8.69
345.842	8.54
346.208	8.47
346.573	8.54
346.939	8.49
347.304	8.44
347.67	8.41
348.035	8.41
348.401	8.26
348.766	8.26
349.132	8.19
349.497	8.22
349.862	8.18
350.228	8.1
350.593	8.19
350.958	8.21
351.323	8.18
351.688	8.23
352.053	8.23
352.418	8.26
352.783	8.23
353.148	8.25
353.513	8.36
353.878	8.36
354.243	8.31
354.608	8.39
354.972	8.35
355.337	8.36
355.702	8.38
356.066	8.44
356.431	8.32
356.795	8.35
357.16	8.32
357.524	8.35
357.889	8.34
358.253	8.29
358.618	8.23
358.982	8.2
359.346	8.2
359.71	8.12
360.075	8.15
360.439	8.16
360.803	8.15
361.167	8.07
361.531	7.97
361.895	7.98
362.259	7.91
362.623	7.88
362.987	7.86
363.351	7.78
363.714	7.72
364.078	7.8
364.442	7.7
364.806	7.74
365.169	7.71
365.533	7.68
365.896	7.66
366.26	7.62
366.623	7.69
366.987	7.6
367.35	7.7
367.714	7.64
368.077	7.6
368.44	7.49
368.803	7.49
369.167	7.51
369.53	7.51
369.893	7.53
370.256	7.5
370.619	7.5
370.982	7.53
371.345	7.48
371.708	7.41
372.071	7.38
372.434	7.28
372.797	7.27
373.159	7.2
373.522	7.16
373.885	7.14
374.247	7.08
374.61	7.09
374.973	7.01
375.335	6.98
375.698	6.9
376.06	6.91
376.423	6.86
376.785	6.82
377.147	6.76
377.51	6.64
377.872	6.62
378.234	6.57
378.596	6.58
378.958	6.53
379.321	6.54
379.683	6.59
380.045	6.53
380.407	6.48
380.769	6.52
381.13	6.48
381.492	6.49
381.854	6.48
382.216	6.44
382.578	6.43
382.939	6.39
383.301	6.35
383.663	6.31
384.024	6.38
384.386	6.33
384.747	6.29
385.109	6.29
385.47	6.29
385.832	6.28
386.193	6.23
386.554	6.22
386.916	6.22
387.277	6.15
387.638	6.17
387.999	6.21
388.36	6.17
388.721	6.16
389.082	6.13
389.443	6.11
389.804	6.08
390.165	6.04
390.526	5.99
390.887	6
391.248	5.97
391.609	5.97
391.969	6.01
392.33	6.04
392.691	6.06
393.051	6.06
393.412	6.03
393.772	6.05
394.133	6.05
394.493	5.98
394.854	5.97
395.214	5.94
395.574	5.89
395.935	5.89
396.295	5.87
396.655	5.83
397.015	5.8
397.376	5.8
397.736	5.8
398.096	5.8
398.456	5.77
398.816	5.72
399.176	5.65
399.535	5.58
399.895	5.53
400.255	5.53
400.615	5.45
400.975	5.48
401.334	5.44
401.694	5.38
402.054	5.4
402.413	5.39
402.773	5.39
403.132	5.4
403.492	5.37
403.851	5.37
404.211	5.41
404.57	5.41
404.929	5.37
405.288	5.35
405.648	5.36
406.007	5.37
406.366	5.4
406.725	5.41
407.084	5.44
407.443	5.46
407.802	5.46
408.161	5.47
408.52	5.41
408.879	5.4
409.238	5.44
409.596	5.42
409.955	5.4
410.314	5.39
410.673	5.4
411.031	5.39
411.39	5.39
411.748	5.38
412.107	5.38
412.465	5.38
412.824	5.35
413.182	5.33
413.54	5.36
413.899	5.36
414.257	5.33
414.615	5.33
414.974	5.35
415.332	5.33
415.69	5.33
416.048	5.35
416.406	5.33
416.764	5.33
417.122	5.33
417.48	5.34
417.838	5.31
418.195	5.27
418.553	5.24
418.911	5.23
419.269	5.21
419.626	5.2
419.984	5.19
420.342	5.2
420.699	5.19
421.057	5.16
421.414	5.14
421.772	5.14
422.129	5.14
422.486	5.13
422.844	5.13
423.201	5.12
423.558	5.13
423.915	5.12
424.273	5.11
424.63	5.11
424.987	5.1
425.344	5.12
425.701	5.12
426.058	5.14
426.415	5.14
426.772	5.13
427.128	5.14
427.485	5.14
427.842	5.13
428.199	5.15
428.555	5.16
428.912	5.17
429.269	5.18
429.625	5.16
429.982	5.14
430.338	5.14
430.695	5.12
431.051	5.09
431.407	5.12
431.764	5.13
432.12	5.13
432.476	5.17
432.832	5.17
433.189	5.15
433.545	5.14
433.901	5.14
434.257	5.14
434.613	5.12
434.969	5.12
435.325	5.14
435.681	5.13
436.036	5.13
436.392	5.13
436.748	5.13
437.104	5.12
437.459	5.12
437.815	5.12
438.171	5.17
438.526	5.16
438.882	5.15
439.237	5.15
439.593	5.16
439.948	5.13
440.304	5.1
440.659	5.13
441.014	5.14
441.369	5.14
441.725	5.14
442.08	5.15
442.435	5.14
442.79	5.13
443.145	5.13
443.5	5.13
443.855	5.11
444.21	5.1
444.565	5.11
444.92	5.12
445.275	5.13
445.629	5.09
445.984	5.1
446.339	5.09
446.693	5.09
447.048	5.05
447.403	5.03
447.757	5.03
448.112	5.02
448.466	5.02
448.82	5.02
449.175	5.02
449.529	5.03
449.883	5.03
450.238	5.01
450.592	4.98
450.946	4.98
451.3	4.99
451.654	4.97
452.008	4.97
452.362	4.95
452.716	4.92
453.07	4.95
453.424	4.95
453.778	4.96
454.132	4.95
454.486	4.97
454.839	5.01
455.193	5.01
455.547	5.02
455.9	5.02
456.254	5.03
456.607	5.03
456.961	5.02
457.314	5.03
457.668	5.07
458.021	5.08
458.375	5.08
458.728	5.07
459.081	5.08
459.434	5.07
459.787	5.06
460.141	5.07
460.494	5.08
460.847	5.07
461.2	5.06
461.553	5.07
461.906	5.07
462.259	5.06
462.611	5.06
462.964	5.07
463.317	5.06
463.67	5.07
464.022	5.07
464.375	5.06
464.728	5.05
465.08	5.04
465.433	5.04
465.785	5.06
466.138	5.1
466.49	5.11
466.843	5.12
467.195	5.14
467.547	5.12
467.899	5.14
468.252	5.15
468.604	5.17
468.956	5.17
469.308	5.18
469.66	5.17
470.012	5.17
470.364	5.16
470.716	5.17
471.068	5.15
471.42	5.16
471.772	5.17
472.123	5.2
472.475	5.2
472.827	5.2
473.178	5.19
473.53	5.19
473.882	5.2
474.233	5.2
474.585	5.2
474.936	5.22
475.288	5.2
475.639	5.21
475.99	5.19
476.342	5.19
476.693	5.17
477.044	5.17
477.395	5.17
477.746	5.16
478.097	5.16
478.448	5.15
478.8	5.15
479.15	5.14
479.501	5.12
479.852	5.11
480.203	5.12
480.554	5.14
480.905	5.13
481.255	5.12
481.606	5.13
481.957	5.15
482.307	5.15
482.658	5.14
483.009	5.14
483.359	5.16
483.709	5.16
484.06	5.17
484.41	5.17
484.761	5.19
485.111	5.19
485.461	5.2
485.811	5.19
486.162	5.19
486.512	5.2
486.862	5.21
487.212	5.2
487.562	5.21
487.912	5.2
488.262	5.2
488.612	5.2
488.961	5.2
489.311	5.18
489.661	5.18
490.011	5.19
490.36	5.18
490.71	5.17
491.06	5.17
491.409	5.18
491.759	5.17
492.108	5.16
492.458	5.15
492.807	5.16
493.157	5.17
493.506	5.19
493.855	5.2
494.204	5.21
494.554	5.23
494.903	5.24
495.252	5.24
495.601	5.25
495.95	5.28
496.299	5.29
496.648	5.33
496.997	5.34
497.346	5.35
497.695	5.37
498.043	5.4
498.392	5.4
498.741	5.42
499.09	5.47
499.438	5.5
499.787	5.52
500.135	5.51
500.484	5.54
500.832	5.53
501.181	5.55
501.529	5.56
501.878	5.56
502.226	5.57
502.574	5.6
502.923	5.64
503.271	5.68
503.619	5.71
503.967	5.7
504.315	5.72
504.663	5.76
505.011	5.77
505.359	5.78
505.707	5.82
506.055	5.81
506.403	5.82
506.751	5.82
507.098	5.86
507.446	5.88
507.794	5.9
508.141	5.96
508.489	6
508.837	6.03
509.184	6.08
509.531	6.12
509.879	6.14
510.226	6.15
510.574	6.16
510.921	6.17
511.268	6.2
511.616	6.25
511.963	6.28
512.31	6.35
512.657	6.42
513.004	6.45
513.351	6.49
513.698	6.55
514.045	6.61
514.392	6.64
514.739	6.71
515.086	6.78
515.432	6.82
515.779	6.84
516.126	6.92
516.473	6.96
516.819	7
517.166	7.05
517.512	7.11
517.859	7.14
518.205	7.19
518.552	7.25
518.898	7.3
519.245	7.34
519.591	7.39
519.937	7.42
520.283	7.47
520.629	7.55
520.976	7.57
521.322	7.63
521.668	7.73
522.014	7.79
522.36	7.83
522.706	7.91
523.052	8
523.398	8.06
523.743	8.17
524.089	8.25
524.435	8.32
524.781	8.42
525.126	8.5
525.472	8.59
525.817	8.66
526.163	8.74
526.509	8.79
526.854	8.85
527.199	8.92
527.545	8.97
527.89	9.03
528.235	9.11
528.581	9.17
528.926	9.21
529.271	9.27
529.616	9.35
529.961	9.41
530.306	9.48
530.651	9.56
530.996	9.64
531.341	9.74
531.686	9.84
532.031	9.95
532.376	10.05
532.721	10.16
533.065	10.26
533.41	10.35
533.755	10.47
534.099	10.58
534.444	10.68
534.788	10.81
535.133	10.95
535.477	11.08
535.822	11.23
536.166	11.39
536.51	11.58
536.855	11.75
537.199	11.92
537.543	12.11
537.887	12.29
538.231	12.5
538.576	12.69
538.92	12.89
539.264	13.05
539.608	13.22
539.951	13.36
540.295	13.54
540.639	13.73
540.983	13.91
541.327	14.08
541.671	14.26
542.014	14.46
542.358	14.61
542.701	14.8
543.045	14.97
543.389	15.15
543.732	15.31
544.075	15.5
544.419	15.72
544.762	15.91
545.105	16.15
545.449	16.34
545.792	16.56
546.135	16.8
546.478	17.06
546.821	17.32
547.165	17.6
547.508	17.84
547.851	18.08
548.194	18.32
548.536	18.61
548.879	18.91
549.222	19.16
549.565	19.43
549.908	19.67
550.25	19.96
550.593	20.24
550.936	20.55
551.278	20.83
551.621	21.06
551.963	21.39
552.306	21.69
552.648	21.98
552.991	22.24
553.333	22.5
553.675	22.8
554.017	23.11
554.36	23.39
554.702	23.65
555.044	23.94
555.386	24.24
555.728	24.52
556.07	24.75
556.412	25.03
556.754	25.31
557.096	25.63
557.438	25.93
557.78	26.18
558.121	26.5
558.463	26.78
558.805	27.13
559.147	27.44
559.488	27.68
559.83	27.98
560.171	28.27
560.513	28.64
560.854	28.91
561.196	29.21
561.537	29.53
561.878	29.89
562.22	30.2
562.561	30.49
562.902	30.73
563.243	31.04
563.584	31.28
563.925	31.58
564.266	31.84
564.607	32.16
564.948	32.51
565.289	32.75
565.63	33.01
565.971	33.24
566.312	33.48
566.653	33.78
566.993	34.06
567.334	34.34
567.675	34.58
568.015	34.86
568.356	35.12
568.696	35.35
569.037	35.57
569.377	35.84
569.718	36.07
570.058	36.37
570.398	36.62
570.739	36.91
571.079	37.14
571.419	37.42
571.759	37.6
572.099	37.82
572.439	38.07
572.779	38.27
573.119	38.5
573.459	38.72
573.799	38.87
574.139	39.09
574.479	39.32
574.819	39.5
575.158	39.71
575.498	39.92
575.838	40.12
576.177	40.31
576.517	40.55
576.856	40.74
577.196	40.95
577.535	41.21
577.875	41.39
578.214	41.58
578.553	41.77
578.893	41.98
579.232	42.12
579.571	42.39
579.91	42.62
580.25	42.83
580.589	43.01
580.928	43.2
581.267	43.37
581.606	43.55
581.945	43.73
582.283	43.94
582.622	44.09
582.961	44.33
583.3	44.47
583.639	44.57
583.977	44.8
584.316	44.94
584.654	45.1
584.993	45.32
585.332	45.55
585.67	45.74
586.008	45.93
586.347	46.14
586.685	46.26
587.024	46.45
587.362	46.61
587.7	46.76
588.038	47
588.376	47.22
588.715	47.3
589.053	47.52
589.391	47.69
589.729	47.86
590.067	47.97
590.404	48.26
590.742	48.44
591.08	48.61
591.418	48.85
591.756	49
592.093	49.09
592.431	49.31
592.769	49.39
593.106	49.56
593.444	49.74
593.781	49.81
594.119	49.97
594.456	50.19
594.793	50.34
595.131	50.44
595.468	50.55
595.805	50.77
596.143	50.82
596.48	50.9
596.817	51
597.154	51.12
597.491	51.15
597.828	51.23
598.165	51.33
598.502	51.32
598.839	51.48
599.176	51.65
599.512	51.67
599.849	51.84
600.186	51.9
600.523	51.98
600.859	52.14
601.196	52.18
601.532	52.25
601.869	52.37
602.205	52.47
602.542	52.56
602.878	52.65
603.215	52.73
603.551	52.79
603.887	52.93
604.223	53.08
604.56	53.19
604.896	53.32
605.232	53.37
605.568	53.44
605.904	53.42
606.24	53.47
606.576	53.55
606.912	53.61
607.248	53.74
607.583	53.86
607.919	53.92
608.255	54.01
608.591	54.02
608.926	54.06
609.262	54.17
609.597	54.2
609.933	54.2
610.268	54.26
610.604	54.33
610.939	54.37
611.275	54.33
611.61	54.33
611.945	54.28
612.281	54.43
612.616	54.53
612.951	54.63
613.286	54.74
613.621	54.75
613.956	54.88
614.291	54.93
614.626	54.99
614.961	55.06
615.296	55.1
615.631	55.24
615.966	55.27
616.3	55.28
616.635	55.33
616.97	55.4
617.304	55.53
617.639	55.54
617.973	55.62
618.308	55.65
618.642	55.76
618.977	55.99
619.311	55.92
619.646	55.97
619.98	56.05
620.314	56.02
620.648	56.15
620.983	56.09
621.317	56.2
621.651	56.26
621.985	56.25
622.319	56.36
622.653	56.38
622.987	56.48
623.321	56.56
623.655	56.74
623.988	56.83
624.322	56.85
624.656	56.95
624.99	56.93
625.323	57.11
625.657	57.14
625.99	57.06
626.324	57.14
626.657	57.23
626.991	57.24
627.324	57.37
627.658	57.33
627.991	57.39
628.324	57.41
628.657	57.43
628.991	57.53
629.324	57.56
629.657	57.53
629.99	57.52
630.323	57.57
630.656	57.53
630.989	57.6
631.322	57.64
631.655	57.68
631.987	57.78
632.32	57.69
632.653	57.83
632.986	57.88
633.318	57.83
633.651	57.86
633.984	57.94
634.316	57.94
634.649	57.98
634.981	58.03
635.313	58.03
635.646	58.03
635.978	58.13
636.31	58.17
636.643	58.32
636.975	58.47
637.307	58.45
637.639	58.48
637.971	58.39
638.303	58.45
638.635	58.51
638.967	58.51
639.299	58.58
639.631	58.51
639.963	58.51
640.295	58.68
640.626	58.76
640.958	58.77
641.29	58.82
641.621	58.8
641.953	58.87
642.285	58.84
642.616	58.99
642.948	58.92
643.279	58.95
643.61	59.06
643.942	59.05
644.273	59.12
644.604	59.02
644.936	59.04
645.267	59.04
645.598	59.02
645.929	59.01
646.26	59.03
646.591	59.16
646.922	59.21
647.253	59.23
647.584	59.19
647.915	59.2
648.245	59.21
648.576	59.28
648.907	59.19
649.238	59.28
649.568	59.2
649.899	59.29
650.229	59.31
650.56	59.24
650.89	59.16
651.221	59.11
651.551	59.22
651.882	59.33
652.212	59.34
652.542	59.33
652.872	59.38
653.203	59.52
653.533	59.47
653.863	59.49
654.193	59.5
654.523	59.58
654.853	59.69
655.183	59.73
655.513	59.89
655.843	60.15
656.172	60.21
656.502	60.3
656.832	60.33
657.162	60.2
657.491	60.26
657.821	60.38
658.15	60.57
658.48	60.67
658.809	60.67
659.139	60.61
659.468	60.65
659.798	60.65
660.127	60.54
660.456	60.56
660.785	60.64
661.115	60.56
661.444	60.57
661.773	60.49
662.102	60.49
662.431	60.42
662.76	60.41
663.089	60.5
663.418	60.51
663.747	60.52
664.076	60.73
664.404	60.78
664.733	60.64
665.062	60.44
665.39	60.34
665.719	60.49
666.048	60.52
666.376	60.58
666.705	60.58
667.033	60.8
667.362	60.82
667.69	60.69
668.018	60.98
