Data from BA55658_Reflection_00003.txt Node
Date: Tue Nov 19 11:55:30 EST 2019
User: vgr7
Spectrometer: USB2G7710
Scans to average: 3
Trigger mode: 4
Integration Time (sec): 2.000000E-2
Electric dark correction enabled: true
Boxcar width: 10
XAxis mode: Wavelengths
Number of Pixels in Spectrum: 2048
>>>>>Begin Spectral Data<<<<<
177.721	-30.75
178.105	-15.16
178.488	-49.97
178.871	-19.23
179.254	30.99
179.636	-104.92
180.019	-400
180.402	400
180.785	-1428.57
181.168	-746.15
181.55	128.5
181.933	56.91
182.316	4.45
182.698	-4.19
183.081	33.3
183.463	24.73
183.846	25.2
184.228	38.7
184.611	26.58
184.993	8.21
185.376	1.69
185.758	-23.98
186.14	-4.99
186.522	-11.48
186.904	-13.7
187.287	8.24
187.669	-9.25
188.051	-4.63
188.433	9.2
188.815	-6.98
189.197	2.21
189.579	-19.14
189.961	7.88
190.342	52.69
190.724	155.04
191.106	-985.37
191.488	213.26
191.869	-279.19
192.251	-98.29
192.633	-103.77
193.014	-232.62
193.396	-400
193.777	-283.78
194.159	-314.59
194.54	-182.08
194.922	-144.57
195.303	-137.86
195.684	466.31
196.065	594.82
196.447	193.7
196.828	495.73
197.209	162.14
197.59	161.33
197.971	147.68
198.352	138.29
198.733	89.5
199.114	77.52
199.495	128.05
199.876	230.48
200.257	168.67
200.638	185.9
201.018	528.18
201.399	2356.76
201.78	107.55
202.16	658.82
202.541	786.81
202.922	204.7
203.302	257.2
203.683	-1347.37
204.063	-659.46
204.444	-149.66
204.824	-163.06
205.204	-104.41
205.585	-167.58
205.965	-282.12
206.345	-234.91
206.725	-181.74
207.106	-144.53
207.486	-164.14
207.866	-57.25
208.246	-21.64
208.626	-36.83
209.006	-80.68
209.386	-45.2
209.766	-75.16
210.145	-60.52
210.525	-45.34
210.905	-27.36
211.285	-31.16
211.664	-5.9
212.044	11.02
212.424	10.23
212.803	16.61
213.183	8
213.562	14.11
213.942	9.03
214.321	12.06
214.701	16.91
215.08	21.42
215.459	15.14
215.838	-8.89
216.218	-48.48
216.597	-14.33
216.976	-10.69
217.355	-29.59
217.734	-49.55
218.113	40.8
218.492	23.68
218.871	67.72
219.25	205.68
219.629	-76.35
220.008	-8.7
220.387	-37.74
220.766	67.53
221.144	-104.92
221.523	62.91
221.902	55.59
222.28	-8800
222.659	-34.56
223.037	-57.29
223.416	-59.79
223.794	-13.22
224.173	-29.85
224.551	-18.35
224.929	-44.48
225.308	-18.99
225.686	-11.08
226.064	-27.25
226.442	-24.19
226.821	-26.69
227.199	-16.73
227.577	-2.99
227.955	1.41
228.333	-1.67
228.711	-0.47
229.089	0.38
229.467	1.78
229.845	5.77
230.222	8.25
230.6	1.74
230.978	4.94
231.356	2.34
231.733	3.33
232.111	5.67
232.488	4.15
232.866	6.38
233.243	5.15
233.621	7.29
233.998	5.57
234.376	6.13
234.753	7.51
235.13	8.17
235.508	5.58
235.885	4.32
236.262	3.19
236.639	1.38
237.016	0.78
237.393	1.88
237.77	1.01
238.147	0.73
238.524	2.84
238.901	2.44
239.278	2.72
239.655	1.22
240.032	1.71
240.409	1.72
240.785	1.69
241.162	2.37
241.539	1.78
241.915	1.53
242.292	1.86
242.668	1.84
243.045	1.9
243.421	2.24
243.798	2.52
244.174	2.99
244.551	3.55
244.927	3.56
245.303	3.55
245.679	3.37
246.056	3.4
246.432	3.39
246.808	3.44
247.184	3.54
247.56	3.55
247.936	3.54
248.312	3.79
248.688	3.66
249.064	3.46
249.44	3.23
249.815	3.56
250.191	3.78
250.567	3.75
250.943	3.63
251.318	3.35
251.694	3.38
252.069	3.07
252.445	3.17
252.82	3.28
253.196	3.23
253.571	3.37
253.947	3.79
254.322	3.36
254.697	3.25
255.073	3.14
255.448	3.06
255.823	2.84
256.198	2.89
256.573	2.84
256.948	2.84
257.323	3.1
257.698	2.85
258.073	2.45
258.448	2.41
258.823	2.31
259.198	2.48
259.573	2.2
259.948	2.47
260.322	2.1
260.697	2.07
261.072	2.17
261.446	2.16
261.821	1.87
262.195	1.92
262.57	2.15
262.944	2.09
263.319	2.28
263.693	2.22
264.067	2.17
264.442	2.22
264.816	1.99
265.19	2.05
265.564	2.21
265.938	2.43
266.313	2.28
266.687	2.34
267.061	2.46
267.435	2.6
267.809	2.61
268.183	2.66
268.556	2.63
268.93	2.74
269.304	2.76
269.678	2.98
270.051	3.01
270.425	2.74
270.799	2.78
271.172	2.58
271.546	2.64
271.919	2.58
272.293	2.61
272.666	2.81
273.04	2.67
273.413	2.46
273.787	2.34
274.16	2.29
274.533	2.52
274.906	2.45
275.279	2.33
275.653	2.28
276.026	2.55
276.399	2.56
276.772	2.44
277.145	2.62
277.518	2.32
277.891	2.12
278.263	2.33
278.636	2.45
279.009	2.72
279.382	2.75
279.755	2.69
280.127	2.6
280.5	2.53
280.872	2.64
281.245	2.74
281.617	2.76
281.99	2.93
282.362	2.77
282.735	2.83
283.107	2.92
283.479	2.95
283.852	2.86
284.224	2.75
284.596	2.57
284.968	2.3
285.34	2.45
285.713	2.55
286.085	2.43
286.457	2.4
286.829	2.33
287.201	2.37
287.572	2.41
287.944	2.51
288.316	2.53
288.688	2.48
289.06	2.59
289.431	2.63
289.803	2.68
290.175	2.76
290.546	2.71
290.918	2.71
291.289	2.61
291.661	2.56
292.032	2.8
292.403	3.02
292.775	3.29
293.146	3.36
293.517	3.38
293.889	3.36
294.26	3.41
294.631	3.54
295.002	3.57
295.373	3.53
295.744	3.57
296.115	3.58
296.486	3.69
296.857	3.61
297.228	3.58
297.599	3.49
297.97	3.57
298.34	3.62
298.711	3.64
299.082	3.71
299.452	3.73
299.823	3.64
300.194	3.55
300.564	3.36
300.935	3.29
301.305	3.27
301.676	3.33
302.046	3.25
302.416	3.09
302.787	2.95
303.157	2.95
303.527	2.88
303.897	2.81
304.267	2.72
304.637	2.95
305.008	3.02
305.378	3.03
305.748	2.78
306.117	2.59
306.487	2.68
306.857	2.59
307.227	2.78
307.597	2.83
307.967	2.81
308.336	2.91
308.706	2.92
309.076	3.1
309.445	3.23
309.815	3.14
310.184	3.15
310.554	3.21
310.923	3.06
311.293	2.94
311.662	3.01
312.031	2.89
312.401	2.59
312.77	2.42
313.139	2.45
313.508	2.45
313.877	2.65
314.246	2.59
314.616	2.62
314.985	2.35
315.353	2.33
315.722	2.29
316.091	2.42
316.46	2.42
316.829	2.35
317.198	2.09
317.567	2.12
317.935	2.12
318.304	2.23
318.672	2.53
319.041	2.58
319.41	2.51
319.778	2.54
320.147	2.73
320.515	2.82
320.883	2.76
321.252	2.86
321.62	2.67
321.988	2.77
322.357	2.77
322.725	2.82
323.093	2.62
323.461	2.81
323.829	2.71
324.197	2.69
324.565	2.66
324.933	2.77
325.301	2.64
325.669	2.73
326.037	2.73
326.405	2.68
326.772	2.87
327.14	2.83
327.508	3.01
327.875	3.06
328.243	3.02
328.61	3.04
328.978	2.88
329.346	2.83
329.713	2.82
330.08	2.74
330.448	2.81
330.815	2.93
331.182	2.7
331.55	2.66
331.917	2.61
332.284	2.64
332.651	2.61
333.018	2.73
333.385	2.71
333.752	2.72
334.119	2.65
334.486	2.55
334.853	2.57
335.22	2.39
335.587	2.23
335.954	2.26
336.32	2.18
336.687	2.38
337.054	2.58
337.42	2.49
337.787	2.64
338.153	2.67
338.52	2.7
338.886	2.79
339.253	2.65
339.619	2.84
339.986	2.62
340.352	2.64
340.718	2.74
341.084	2.74
341.451	2.72
341.817	2.79
342.183	2.76
342.549	2.89
342.915	2.95
343.281	2.94
343.647	3.06
344.013	3.08
344.379	3.11
344.745	3.02
345.11	2.99
345.476	3.04
345.842	2.9
346.208	2.93
346.573	2.86
346.939	2.98
347.304	2.91
347.67	3.04
348.035	3.06
348.401	3.04
348.766	2.91
349.132	2.92
349.497	2.97
349.862	3.06
350.228	3.01
350.593	2.98
350.958	3.05
351.323	3.01
351.688	3.06
352.053	3.08
352.418	3.06
352.783	2.98
353.148	2.86
353.513	2.95
353.878	2.9
354.243	2.86
354.608	2.87
354.972	2.83
355.337	2.85
355.702	2.8
356.066	2.67
356.431	2.73
356.795	2.66
357.16	2.71
357.524	2.65
357.889	2.6
358.253	2.61
358.618	2.53
358.982	2.48
359.346	2.4
359.71	2.39
360.075	2.4
360.439	2.47
360.803	2.44
361.167	2.46
361.531	2.5
361.895	2.54
362.259	2.52
362.623	2.55
362.987	2.51
363.351	2.54
363.714	2.62
364.078	2.71
364.442	2.73
364.806	2.63
365.169	2.63
365.533	2.69
365.896	2.82
366.26	2.85
366.623	2.89
366.987	2.99
367.35	2.94
367.714	2.95
368.077	2.95
368.44	3.06
368.803	3.01
369.167	2.92
369.53	2.92
369.893	2.9
370.256	2.88
370.619	2.85
370.982	2.77
371.345	2.81
371.708	2.69
372.071	2.7
372.434	2.74
372.797	2.74
373.159	2.68
373.522	2.63
373.885	2.67
374.247	2.65
374.61	2.58
374.973	2.62
375.335	2.61
375.698	2.6
376.06	2.54
376.423	2.61
376.785	2.64
377.147	2.63
377.51	2.64
377.872	2.63
378.234	2.7
378.596	2.76
378.958	2.72
379.321	2.74
379.683	2.73
380.045	2.76
380.407	2.78
380.769	2.8
381.13	2.74
381.492	2.66
381.854	2.67
382.216	2.73
382.578	2.7
382.939	2.68
383.301	2.69
383.663	2.67
384.024	2.65
384.386	2.7
384.747	2.71
385.109	2.72
385.47	2.69
385.832	2.71
386.193	2.67
386.554	2.64
386.916	2.69
387.277	2.71
387.638	2.67
387.999	2.69
388.36	2.73
388.721	2.76
389.082	2.85
389.443	2.87
389.804	2.85
390.165	2.82
390.526	2.82
390.887	2.81
391.248	2.82
391.609	2.8
391.969	2.78
392.33	2.79
392.691	2.81
393.051	2.81
393.412	2.78
393.772	2.82
394.133	2.79
394.493	2.77
394.854	2.79
395.214	2.76
395.574	2.72
395.935	2.67
396.295	2.66
396.655	2.61
397.015	2.61
397.376	2.61
397.736	2.67
398.096	2.68
398.456	2.72
398.816	2.7
399.176	2.69
399.535	2.71
399.895	2.77
400.255	2.72
400.615	2.74
400.975	2.7
401.334	2.72
401.694	2.76
402.054	2.75
402.413	2.73
402.773	2.76
403.132	2.74
403.492	2.75
403.851	2.75
404.211	2.77
404.57	2.77
404.929	2.76
405.288	2.75
405.648	2.77
406.007	2.77
406.366	2.78
406.725	2.81
407.084	2.77
407.443	2.76
407.802	2.8
408.161	2.82
408.52	2.86
408.879	2.84
409.238	2.83
409.596	2.85
409.955	2.84
410.314	2.83
410.673	2.86
411.031	2.87
411.39	2.89
411.748	2.9
412.107	2.89
412.465	2.88
412.824	2.85
413.182	2.87
413.54	2.89
413.899	2.87
414.257	2.85
414.615	2.83
414.974	2.83
415.332	2.82
415.69	2.79
416.048	2.81
416.406	2.8
416.764	2.8
417.122	2.77
417.48	2.79
417.838	2.78
418.195	2.77
418.553	2.75
418.911	2.73
419.269	2.72
419.626	2.71
419.984	2.71
420.342	2.72
420.699	2.7
421.057	2.7
421.414	2.7
421.772	2.7
422.129	2.7
422.486	2.68
422.844	2.67
423.201	2.69
423.558	2.67
423.915	2.67
424.273	2.67
424.63	2.69
424.987	2.68
425.344	2.69
425.701	2.69
426.058	2.7
426.415	2.72
426.772	2.72
427.128	2.74
427.485	2.76
427.842	2.78
428.199	2.79
428.555	2.76
428.912	2.76
429.269	2.76
429.625	2.78
429.982	2.8
430.338	2.8
430.695	2.8
431.051	2.83
431.407	2.84
431.764	2.83
432.12	2.85
432.476	2.84
432.832	2.83
433.189	2.83
433.545	2.84
433.901	2.84
434.257	2.83
434.613	2.83
434.969	2.82
435.325	2.8
435.681	2.8
436.036	2.83
436.392	2.83
436.748	2.83
437.104	2.82
437.459	2.81
437.815	2.83
438.171	2.81
438.526	2.79
438.882	2.79
439.237	2.8
439.593	2.79
439.948	2.8
440.304	2.8
440.659	2.8
441.014	2.79
441.369	2.77
441.725	2.77
442.08	2.76
442.435	2.77
442.79	2.78
443.145	2.77
443.5	2.76
443.855	2.73
444.21	2.74
444.565	2.73
444.92	2.73
445.275	2.72
445.629	2.73
445.984	2.72
446.339	2.73
446.693	2.74
447.048	2.73
447.403	2.73
447.757	2.73
448.112	2.73
448.466	2.73
448.82	2.74
449.175	2.73
449.529	2.73
449.883	2.71
450.238	2.69
450.592	2.69
450.946	2.7
451.3	2.73
451.654	2.73
452.008	2.73
452.362	2.74
452.716	2.75
453.07	2.75
453.424	2.75
453.778	2.73
454.132	2.71
454.486	2.7
454.839	2.69
455.193	2.71
455.547	2.71
455.9	2.71
456.254	2.72
456.607	2.74
456.961	2.75
457.314	2.76
457.668	2.76
458.021	2.77
458.375	2.77
458.728	2.75
459.081	2.75
459.434	2.74
459.787	2.75
460.141	2.75
460.494	2.75
460.847	2.76
461.2	2.77
461.553	2.8
461.906	2.81
462.259	2.83
462.611	2.82
462.964	2.81
463.317	2.81
463.67	2.82
464.022	2.83
464.375	2.83
464.728	2.85
465.08	2.85
465.433	2.86
465.785	2.87
466.138	2.86
466.49	2.87
466.843	2.91
467.195	2.89
467.547	2.86
467.899	2.85
468.252	2.86
468.604	2.87
468.956	2.85
469.308	2.84
469.66	2.84
470.012	2.84
470.364	2.85
470.716	2.84
471.068	2.82
471.42	2.8
471.772	2.78
472.123	2.77
472.475	2.79
472.827	2.76
473.178	2.74
473.53	2.77
473.882	2.77
474.233	2.73
474.585	2.74
474.936	2.76
475.288	2.76
475.639	2.77
475.99	2.75
476.342	2.77
476.693	2.75
477.044	2.74
477.395	2.73
477.746	2.74
478.097	2.73
478.448	2.74
478.8	2.74
479.15	2.76
479.501	2.75
479.852	2.76
480.203	2.78
480.554	2.78
480.905	2.78
481.255	2.78
481.606	2.8
481.957	2.8
482.307	2.79
482.658	2.8
483.009	2.79
483.359	2.8
483.709	2.8
484.06	2.82
484.41	2.83
484.761	2.83
485.111	2.83
485.461	2.84
485.811	2.85
486.162	2.86
486.512	2.85
486.862	2.86
487.212	2.85
487.562	2.85
487.912	2.87
488.262	2.87
488.612	2.87
488.961	2.87
489.311	2.88
489.661	2.88
490.011	2.88
490.36	2.89
490.71	2.88
491.06	2.88
491.409	2.86
491.759	2.86
492.108	2.86
492.458	2.85
492.807	2.85
493.157	2.84
493.506	2.84
493.855	2.86
494.204	2.87
494.554	2.89
494.903	2.89
495.252	2.86
495.601	2.86
495.95	2.87
496.299	2.89
496.648	2.9
496.997	2.93
497.346	2.94
497.695	2.94
498.043	2.96
498.392	2.98
498.741	3
499.09	2.99
499.438	3.02
499.787	3.02
500.135	3.02
500.484	3.02
500.832	3.01
501.181	3.02
501.529	3.02
501.878	3.03
502.226	3.05
502.574	3.07
502.923	3.1
503.271	3.1
503.619	3.08
503.967	3.06
504.315	3.03
504.663	3.05
505.011	3.06
505.359	3.06
505.707	3.04
506.055	3.04
506.403	3.05
506.751	3.03
507.098	3.05
507.446	3.06
507.794	3.07
508.141	3.07
508.489	3.09
508.837	3.08
509.184	3.08
509.531	3.05
509.879	3.05
510.226	3.03
510.574	3.04
510.921	3.03
511.268	3.07
511.616	3.1
511.963	3.09
512.31	3.1
512.657	3.08
513.004	3.09
513.351	3.09
513.698	3.08
514.045	3.07
514.392	3.09
514.739	3.08
515.086	3.09
515.432	3.1
515.779	3.08
516.126	3.12
516.473	3.09
516.819	3.11
517.166	3.12
517.512	3.12
517.859	3.12
518.205	3.14
518.552	3.13
518.898	3.12
519.245	3.12
519.591	3.1
519.937	3.11
520.283	3.11
520.629	3.12
520.976	3.13
521.322	3.17
521.668	3.16
522.014	3.17
522.36	3.17
522.706	3.17
523.052	3.19
523.398	3.16
523.743	3.18
524.089	3.19
524.435	3.18
524.781	3.22
525.126	3.22
525.472	3.22
525.817	3.22
526.163	3.23
526.509	3.23
526.854	3.24
527.199	3.26
527.545	3.27
527.89	3.27
528.235	3.28
528.581	3.28
528.926	3.29
529.271	3.3
529.616	3.3
529.961	3.3
530.306	3.29
530.651	3.3
530.996	3.3
531.341	3.3
531.686	3.32
532.031	3.32
532.376	3.33
532.721	3.33
533.065	3.34
533.41	3.33
533.755	3.32
534.099	3.32
534.444	3.31
534.788	3.29
535.133	3.3
535.477	3.29
535.822	3.28
536.166	3.29
536.51	3.28
536.855	3.29
537.199	3.27
537.543	3.29
537.887	3.31
538.231	3.31
538.576	3.29
538.92	3.3
539.264	3.29
539.608	3.29
539.951	3.29
540.295	3.29
540.639	3.29
540.983	3.3
541.327	3.33
541.671	3.33
542.014	3.34
542.358	3.33
542.701	3.35
543.045	3.33
543.389	3.34
543.732	3.34
544.075	3.35
544.419	3.37
544.762	3.35
545.105	3.34
545.449	3.38
545.792	3.39
546.135	3.38
546.478	3.38
546.821	3.38
547.165	3.39
547.508	3.41
547.851	3.43
548.194	3.42
548.536	3.41
548.879	3.43
549.222	3.41
549.565	3.4
549.908	3.39
550.25	3.38
550.593	3.39
550.936	3.39
551.278	3.37
551.621	3.35
551.963	3.39
552.306	3.4
552.648	3.37
552.991	3.39
553.333	3.4
553.675	3.4
554.017	3.4
554.36	3.4
554.702	3.37
555.044	3.33
555.386	3.33
555.728	3.32
556.07	3.3
556.412	3.31
556.754	3.31
557.096	3.31
557.438	3.34
557.78	3.32
558.121	3.31
558.463	3.32
558.805	3.34
559.147	3.32
559.488	3.3
559.83	3.32
560.171	3.29
560.513	3.25
560.854	3.25
561.196	3.26
561.537	3.27
561.878	3.27
562.22	3.29
562.561	3.33
562.902	3.33
563.243	3.33
563.584	3.36
563.925	3.39
564.266	3.37
564.607	3.37
564.948	3.36
565.289	3.39
565.63	3.41
565.971	3.42
566.312	3.4
566.653	3.39
566.993	3.36
567.334	3.39
567.675	3.42
568.015	3.42
568.356	3.42
568.696	3.43
569.037	3.45
569.377	3.46
569.718	3.45
570.058	3.45
570.398	3.45
570.739	3.43
571.079	3.41
571.419	3.45
571.759	3.45
572.099	3.48
572.439	3.47
572.779	3.43
573.119	3.43
573.459	3.41
573.799	3.41
574.139	3.44
574.479	3.46
574.819	3.46
575.158	3.5
575.498	3.52
575.838	3.5
576.177	3.5
576.517	3.49
576.856	3.49
577.196	3.47
577.535	3.48
577.875	3.49
578.214	3.52
578.553	3.51
578.893	3.53
579.232	3.5
579.571	3.49
579.91	3.53
580.25	3.54
580.589	3.57
580.928	3.57
581.267	3.55
581.606	3.55
581.945	3.52
582.283	3.49
582.622	3.43
582.961	3.45
583.3	3.46
583.639	3.43
583.977	3.43
584.316	3.49
584.654	3.53
584.993	3.52
585.332	3.5
585.67	3.54
586.008	3.56
586.347	3.55
586.685	3.52
587.024	3.55
587.362	3.59
587.7	3.6
588.038	3.68
588.376	3.71
588.715	3.67
589.053	3.7
589.391	3.71
589.729	3.73
590.067	3.73
590.404	3.74
590.742	3.76
591.08	3.78
591.418	3.78
591.756	3.75
592.093	3.74
592.431	3.73
592.769	3.67
593.106	3.66
593.444	3.65
593.781	3.73
594.119	3.71
594.456	3.68
594.793	3.68
595.131	3.66
595.468	3.63
595.805	3.66
596.143	3.67
596.48	3.7
596.817	3.74
597.154	3.72
597.491	3.69
597.828	3.7
598.165	3.65
598.502	3.58
598.839	3.56
599.176	3.58
599.512	3.58
599.849	3.59
600.186	3.57
600.523	3.6
600.859	3.61
601.196	3.6
601.532	3.59
601.869	3.57
602.205	3.56
602.542	3.55
602.878	3.55
603.215	3.51
603.551	3.48
603.887	3.43
604.223	3.43
604.56	3.48
604.896	3.52
605.232	3.6
605.568	3.66
605.904	3.7
606.24	3.7
606.576	3.68
606.912	3.71
607.248	3.74
607.583	3.73
607.919	3.72
608.255	3.7
608.591	3.7
608.926	3.7
609.262	3.68
609.597	3.73
609.933	3.68
610.268	3.7
610.604	3.65
610.939	3.69
611.275	3.72
611.61	3.71
611.945	3.68
612.281	3.63
612.616	3.62
612.951	3.59
613.286	3.56
613.621	3.56
613.956	3.56
614.291	3.56
614.626	3.56
614.961	3.56
615.296	3.63
615.631	3.66
615.966	3.68
616.3	3.67
616.635	3.63
616.97	3.71
617.304	3.69
617.639	3.77
617.973	3.74
618.308	3.77
618.642	3.75
618.977	3.73
619.311	3.78
619.646	3.78
619.98	3.8
620.314	3.8
620.648	3.88
620.983	3.84
621.317	3.85
621.651	3.83
621.985	3.79
622.319	3.72
622.653	3.67
622.987	3.7
623.321	3.73
623.655	3.78
623.988	3.75
624.322	3.8
624.656	3.8
624.99	3.78
625.323	3.71
625.657	3.75
625.99	3.77
626.324	3.74
626.657	3.76
626.991	3.78
627.324	3.81
627.658	3.75
627.991	3.81
628.324	3.77
628.657	3.83
628.991	3.89
629.324	3.92
629.657	3.9
629.99	3.91
630.323	3.91
630.656	3.86
630.989	3.88
631.322	3.87
631.655	3.81
631.987	3.84
632.32	3.91
632.653	3.9
632.986	3.86
633.318	3.94
633.651	3.94
633.984	3.96
634.316	3.96
634.649	4.02
634.981	3.97
635.313	4.05
635.646	3.99
635.978	3.95
636.31	3.87
636.643	3.95
636.975	3.98
637.307	4.03
637.639	4.07
637.971	4.05
638.303	4.01
638.635	4.04
638.967	4.13
639.299	4.07
639.631	4.04
639.963	4.05
640.295	4.04
640.626	4.02
640.958	3.83
641.29	3.87
641.621	3.85
641.953	3.84
642.285	3.83
642.616	3.98
642.948	4
643.279	4.07
643.61	4.08
643.942	4.12
644.273	4.1
644.604	4.09
644.936	4.14
645.267	4.26
645.598	4.3
645.929	4.18
646.26	4.22
646.591	4.16
646.922	4.23
647.253	4.1
647.584	4.09
647.915	4.29
648.245	4.26
648.576	4.27
648.907	4.32
649.238	4.24
649.568	4.05
649.899	4.07
650.229	4.12
650.56	4.04
650.89	4.04
651.221	4.04
651.551	4.01
651.882	3.93
652.212	3.83
652.542	3.82
652.872	3.86
653.203	3.9
653.533	4.01
653.863	3.99
654.193	4
654.523	4.01
654.853	3.95
655.183	3.94
655.513	3.95
655.843	3.94
656.172	4.08
656.502	4.07
656.832	4.01
657.162	3.98
657.491	4.04
657.821	3.95
658.15	3.92
658.48	3.97
658.809	4.04
659.139	4.04
659.468	4.1
659.798	4.13
660.127	4.05
660.456	3.97
660.785	3.9
661.115	3.91
661.444	3.97
661.773	3.97
662.102	3.97
662.431	3.98
662.76	3.92
663.089	3.89
663.418	3.97
663.747	4.03
664.076	3.98
664.404	4.02
664.733	4.09
665.062	4.1
665.39	4.1
665.719	4.07
666.048	4.01
666.376	3.99
666.705	3.98
667.033	4.07
667.362	4.11
667.69	4.19
668.018	4.29
668.347	4.25
668.675	4.24
669.003	4.22
669.331	4.21
669.659	4.27
669.987	4.24
670.315	4.28
670.643	4.31
670.971	4.39
671.299	4.33
671.627	4.33
671.955	4.31
672.283	4.33
672.61	4.33
672.938	4.42
673.266	4.37
673.593	4.25
673.921	4.24
674.249	4.17
674.576	4.26
674.904	4.23
675.231	4.3
675.558	4.33
675.886	4.38
676.213	4.4
676.54	4.5
676.867	4.43
677.195	4.4
677.522	4.34
677.849	4.41
