Data from BA55519_Reflection_00005.txt Node
Date: Tue Nov 19 11:52:40 EST 2019
User: vgr7
Spectrometer: USB2G7710
Scans to average: 3
Trigger mode: 4
Integration Time (sec): 2.000000E-2
Electric dark correction enabled: true
Boxcar width: 10
XAxis mode: Wavelengths
Number of Pixels in Spectrum: 2048
>>>>>Begin Spectral Data<<<<<
177.721	75.03
178.105	81.48
178.488	35.04
178.871	30.85
179.254	48.15
179.636	1.48
180.019	7.63
180.402	64.71
180.785	666.67
181.168	-61.69
181.55	84.13
181.933	-74.6
182.316	-66.67
182.698	470.37
183.081	127.78
183.463	48.92
183.846	66.24
184.228	131.14
184.611	74.04
184.993	53.15
185.376	57.69
185.758	80.65
186.14	86.9
186.522	68.81
186.904	68.16
187.287	101.19
187.669	90.12
188.051	90.11
188.433	109.21
188.815	110.1
189.197	118.6
189.579	106.26
189.961	93.14
190.342	83.27
190.724	63.15
191.106	60.59
191.488	58.33
191.869	50.77
192.251	44.59
192.633	48.48
193.014	42.12
193.396	19.93
193.777	9.44
194.159	5.17
194.54	8.59
194.922	11.92
195.303	7.49
195.684	9.66
196.065	24.68
196.447	22.79
196.828	20.63
197.209	20.44
197.59	21.09
197.971	35.61
198.352	42.71
198.733	46.25
199.114	56.59
199.495	69.49
199.876	73.13
200.257	70.31
200.638	91.71
201.018	94.13
201.399	111.03
201.78	100.87
202.16	99.54
202.541	98.12
202.922	75.91
203.302	57.68
203.683	50.21
204.063	51.44
204.444	45.2
204.824	41.25
205.204	47.79
205.585	59.48
205.965	34.99
206.345	31.69
206.725	37.85
207.106	32.14
207.486	17.89
207.866	16.67
208.246	20.32
208.626	-0.84
209.006	2.24
209.386	2.27
209.766	2.08
210.145	0.34
210.525	0.78
210.905	20.98
211.285	35.54
211.664	47.19
212.044	46.64
212.424	59.99
212.803	54.69
213.183	48.89
213.562	43.8
213.942	49.31
214.321	37.54
214.701	35.55
215.08	40.91
215.459	46.31
215.838	61
216.218	67.73
216.597	68.8
216.976	67.5
217.355	67.31
217.734	83.1
218.113	92.74
218.492	86.48
218.871	95.88
219.25	79.7
219.629	53.8
220.008	47.41
220.387	32.62
220.766	34.55
221.144	36.85
221.523	43.62
221.902	44.69
222.28	45.67
222.659	54.05
223.037	53.94
223.416	50.58
223.794	46.88
224.173	43.02
224.551	40.76
224.929	39.27
225.308	41.49
225.686	36.95
226.064	31.24
226.442	32.38
226.821	30.72
227.199	32.02
227.577	37.91
227.955	38.89
228.333	39.6
228.711	39.25
229.089	37.11
229.467	29.87
229.845	32.19
230.222	31.43
230.6	25.08
230.978	26.89
231.356	26.8
231.733	26.07
232.111	27.14
232.488	24.68
232.866	26.19
233.243	23.45
233.621	22.63
233.998	25.5
234.376	21.83
234.753	20.86
235.13	17.47
235.508	16
235.885	14.35
236.262	13.79
236.639	12.1
237.016	11.94
237.393	12.54
237.77	10.9
238.147	10.33
238.524	10.71
238.901	8.51
239.278	8.3
239.655	7.49
240.032	5.7
240.409	5.79
240.785	5.25
241.162	5.4
241.539	5.08
241.915	4.69
242.292	4.96
242.668	5.33
243.045	5.67
243.421	5.92
243.798	6.3
244.174	6.33
244.551	6.41
244.927	6.05
245.303	6.21
245.679	6.38
246.056	6.3
246.432	5.95
246.808	6.38
247.184	6.49
247.56	6.33
247.936	6.72
248.312	6.75
248.688	6.47
249.064	6.33
249.44	6.38
249.815	6.52
250.191	6.89
250.567	6.71
250.943	6.75
251.318	6.74
251.694	6.3
252.069	6.2
252.445	6.44
252.82	7.31
253.196	7.12
253.571	7.32
253.947	7.35
254.322	7.55
254.697	7.34
255.073	7.06
255.448	6.9
255.823	6.98
256.198	6.94
256.573	7.46
256.948	7.74
257.323	7.67
257.698	7.41
258.073	6.91
258.448	6.85
258.823	6.53
259.198	6.64
259.573	6.77
259.948	6.77
260.322	6.54
260.697	6.32
261.072	6.42
261.446	6.18
261.821	6.31
262.195	6.31
262.57	6.36
262.944	6.37
263.319	6.52
263.693	6.34
264.067	6.39
264.442	6.18
264.816	5.96
265.19	6.02
265.564	6.01
265.938	6.2
266.313	6.11
266.687	6.4
267.061	6
267.435	5.93
267.809	5.84
268.183	6.03
268.556	5.95
268.93	5.87
269.304	5.91
269.678	5.75
270.051	5.97
270.425	6.01
270.799	5.93
271.172	5.96
271.546	6.09
271.919	6.11
272.293	6.2
272.666	6.37
273.04	6.22
273.413	6.04
273.787	6.04
274.16	6
274.533	5.93
274.906	6
275.279	6.03
275.653	6.22
276.026	6.06
276.399	6.09
276.772	6.26
277.145	6.31
277.518	6.35
277.891	6.29
278.263	6.21
278.636	6.39
279.009	6.32
279.382	6.04
279.755	5.89
280.127	5.81
280.5	5.79
280.872	5.96
281.245	6.12
281.617	6.12
281.99	6.23
282.362	6.39
282.735	6.28
283.107	6.28
283.479	6.28
283.852	6.41
284.224	6.32
284.596	5.99
284.968	5.98
285.34	5.88
285.713	5.78
286.085	5.72
286.457	5.56
286.829	5.55
287.201	5.65
287.572	5.75
287.944	5.72
288.316	5.65
288.688	5.71
289.06	5.69
289.431	5.71
289.803	5.76
290.175	5.56
290.546	5.69
290.918	5.6
291.289	5.49
291.661	5.44
292.032	5.51
292.403	5.51
292.775	5.52
293.146	5.7
293.517	5.7
293.889	5.73
294.26	5.83
294.631	5.94
295.002	5.97
295.373	6.13
295.744	6.16
296.115	6.26
296.486	6.17
296.857	6.17
297.228	6.19
297.599	6.18
297.97	6.34
298.34	6.37
298.711	6.43
299.082	6.51
299.452	6.42
299.823	6.47
300.194	6.68
300.564	6.61
300.935	6.55
301.305	6.6
301.676	6.58
302.046	6.52
302.416	6.52
302.787	6.46
303.157	6.28
303.527	6.26
303.897	6.14
304.267	6.11
304.637	5.99
305.008	5.91
305.378	5.85
305.748	5.83
306.117	5.69
306.487	5.64
306.857	5.66
307.227	6.03
307.597	5.92
307.967	5.81
308.336	5.86
308.706	5.8
309.076	5.85
309.445	5.84
309.815	5.87
310.184	5.74
310.554	5.65
310.923	5.55
311.293	5.44
311.662	5.53
312.031	5.46
312.401	5.37
312.77	5.43
313.139	5.58
313.508	5.64
313.877	5.66
314.246	5.68
314.616	5.65
314.985	5.41
315.353	5.3
315.722	5.4
316.091	5.43
316.46	5.66
316.829	5.4
317.198	5.41
317.567	5.48
317.935	5.59
318.304	5.79
318.672	5.94
319.041	6.2
319.41	6.16
319.778	6.22
320.147	6.43
320.515	6.5
320.883	6.39
321.252	6.32
321.62	6.43
321.988	6.6
322.357	6.78
322.725	6.78
323.093	6.94
323.461	6.96
323.829	6.88
324.197	6.53
324.565	6.75
324.933	6.78
325.301	6.72
325.669	6.67
326.037	6.79
326.405	6.71
326.772	6.57
327.14	6.36
327.508	6.35
327.875	6.35
328.243	6.24
328.61	6.19
328.978	6.07
329.346	6.15
329.713	6.21
330.08	6.07
330.448	6.15
330.815	5.95
331.182	5.84
331.55	5.92
331.917	6.01
332.284	6.07
332.651	6.05
333.018	5.87
333.385	5.87
333.752	5.75
334.119	5.83
334.486	5.83
334.853	5.86
335.22	5.77
335.587	5.82
335.954	5.71
336.32	5.73
336.687	5.92
337.054	5.76
337.42	5.59
337.787	5.5
338.153	5.43
338.52	5.6
338.886	5.61
339.253	5.58
339.619	5.69
339.986	5.67
340.352	5.62
340.718	5.77
341.084	5.84
341.451	5.63
341.817	5.67
342.183	5.61
342.549	5.67
342.915	5.75
343.281	5.63
343.647	5.72
344.013	5.68
344.379	5.57
344.745	5.59
345.11	5.64
345.476	5.61
345.842	5.57
346.208	5.62
346.573	5.61
346.939	5.66
347.304	5.68
347.67	5.59
348.035	5.62
348.401	5.64
348.766	5.59
349.132	5.73
349.497	5.73
349.862	5.75
350.228	5.76
350.593	5.79
350.958	5.98
351.323	5.93
351.688	5.99
352.053	5.96
352.418	5.92
352.783	5.83
353.148	5.76
353.513	5.74
353.878	5.67
354.243	5.61
354.608	5.59
354.972	5.51
355.337	5.48
355.702	5.56
356.066	5.5
356.431	5.42
356.795	5.43
357.16	5.4
357.524	5.41
357.889	5.42
358.253	5.39
358.618	5.25
358.982	5.25
359.346	5.23
359.71	5.22
360.075	5.24
360.439	5.3
360.803	5.36
361.167	5.39
361.531	5.34
361.895	5.36
362.259	5.33
362.623	5.35
362.987	5.44
363.351	5.36
363.714	5.42
364.078	5.43
364.442	5.39
364.806	5.39
365.169	5.45
365.533	5.5
365.896	5.58
366.26	5.58
366.623	5.57
366.987	5.55
367.35	5.62
367.714	5.63
368.077	5.63
368.44	5.6
368.803	5.56
369.167	5.56
369.53	5.67
369.893	5.63
370.256	5.62
370.619	5.56
370.982	5.54
371.345	5.49
371.708	5.55
372.071	5.51
372.434	5.47
372.797	5.43
373.159	5.42
373.522	5.35
373.885	5.37
374.247	5.34
374.61	5.34
374.973	5.33
375.335	5.35
375.698	5.29
376.06	5.27
376.423	5.28
376.785	5.3
377.147	5.21
377.51	5.24
377.872	5.26
378.234	5.33
378.596	5.3
378.958	5.3
379.321	5.3
379.683	5.38
380.045	5.36
380.407	5.37
380.769	5.34
381.13	5.29
381.492	5.27
381.854	5.33
382.216	5.34
382.578	5.32
382.939	5.3
383.301	5.27
383.663	5.3
384.024	5.31
384.386	5.36
384.747	5.35
385.109	5.32
385.47	5.35
385.832	5.27
386.193	5.25
386.554	5.22
386.916	5.2
387.277	5.12
387.638	5.17
387.999	5.17
388.36	5.11
388.721	5.14
389.082	5.18
389.443	5.17
389.804	5.18
390.165	5.19
390.526	5.19
390.887	5.18
391.248	5.19
391.609	5.18
391.969	5.15
392.33	5.15
392.691	5.19
393.051	5.16
393.412	5.18
393.772	5.23
394.133	5.24
394.493	5.21
394.854	5.28
395.214	5.24
395.574	5.23
395.935	5.3
396.295	5.29
396.655	5.27
397.015	5.25
397.376	5.25
397.736	5.22
398.096	5.2
398.456	5.27
398.816	5.27
399.176	5.21
399.535	5.19
399.895	5.18
400.255	5.13
400.615	5.11
400.975	5.11
401.334	5.12
401.694	5.15
402.054	5.16
402.413	5.14
402.773	5.11
403.132	5.09
403.492	5.07
403.851	5.1
404.211	5.1
404.57	5.1
404.929	5.07
405.288	5.11
405.648	5.12
406.007	5.08
406.366	5.04
406.725	5.07
407.084	5.1
407.443	5.12
407.802	5.12
408.161	5.11
408.52	5.08
408.879	5.05
409.238	5.04
409.596	5.01
409.955	5.01
410.314	5.01
410.673	4.98
411.031	4.97
411.39	4.96
411.748	4.97
412.107	4.97
412.465	4.97
412.824	4.93
413.182	4.93
413.54	4.97
413.899	5
414.257	5.03
414.615	4.98
414.974	4.97
415.332	4.99
415.69	4.99
416.048	5.01
416.406	5
416.764	4.97
417.122	5.01
417.48	5.01
417.838	5.02
418.195	5.05
418.553	5.03
418.911	5
419.269	5.01
419.626	4.99
419.984	4.97
420.342	4.98
420.699	4.98
421.057	4.95
421.414	4.96
421.772	4.95
422.129	4.95
422.486	4.94
422.844	4.92
423.201	4.92
423.558	4.91
423.915	4.93
424.273	4.94
424.63	4.94
424.987	4.93
425.344	4.93
425.701	4.92
426.058	4.92
426.415	4.92
426.772	4.89
427.128	4.9
427.485	4.92
427.842	4.9
428.199	4.9
428.555	4.9
428.912	4.9
429.269	4.89
429.625	4.9
429.982	4.91
430.338	4.92
430.695	4.93
431.051	4.9
431.407	4.86
431.764	4.85
432.12	4.84
432.476	4.86
432.832	4.85
433.189	4.83
433.545	4.84
433.901	4.85
434.257	4.84
434.613	4.82
434.969	4.82
435.325	4.83
435.681	4.81
436.036	4.8
436.392	4.79
436.748	4.8
437.104	4.8
437.459	4.79
437.815	4.79
438.171	4.8
438.526	4.81
438.882	4.82
439.237	4.8
439.593	4.81
439.948	4.78
440.304	4.77
440.659	4.78
441.014	4.78
441.369	4.79
441.725	4.81
442.08	4.83
442.435	4.83
442.79	4.83
443.145	4.84
443.5	4.84
443.855	4.83
444.21	4.81
444.565	4.8
444.92	4.82
445.275	4.81
445.629	4.78
445.984	4.8
446.339	4.81
446.693	4.81
447.048	4.78
447.403	4.78
447.757	4.77
448.112	4.76
448.466	4.75
448.82	4.74
449.175	4.74
449.529	4.73
449.883	4.72
450.238	4.7
450.592	4.7
450.946	4.7
451.3	4.71
451.654	4.69
452.008	4.7
452.362	4.68
452.716	4.67
453.07	4.69
453.424	4.66
453.778	4.64
454.132	4.65
454.486	4.67
454.839	4.69
455.193	4.69
455.547	4.72
455.9	4.75
456.254	4.74
456.607	4.74
456.961	4.74
457.314	4.76
457.668	4.77
458.021	4.77
458.375	4.78
458.728	4.78
459.081	4.8
459.434	4.79
459.787	4.81
460.141	4.83
460.494	4.83
460.847	4.83
461.2	4.84
461.553	4.85
461.906	4.86
462.259	4.84
462.611	4.86
462.964	4.85
463.317	4.84
463.67	4.86
464.022	4.87
464.375	4.87
464.728	4.85
465.08	4.83
465.433	4.83
465.785	4.82
466.138	4.84
466.49	4.83
466.843	4.84
467.195	4.86
467.547	4.85
467.899	4.85
468.252	4.88
468.604	4.89
468.956	4.87
469.308	4.85
469.66	4.86
470.012	4.87
470.364	4.9
470.716	4.9
471.068	4.9
471.42	4.9
471.772	4.92
472.123	4.92
472.475	4.96
472.827	4.94
473.178	4.95
473.53	4.93
473.882	4.93
474.233	4.92
474.585	4.92
474.936	4.91
475.288	4.88
475.639	4.87
475.99	4.87
476.342	4.88
476.693	4.9
477.044	4.9
477.395	4.89
477.746	4.86
478.097	4.84
478.448	4.83
478.8	4.8
479.15	4.81
479.501	4.81
479.852	4.8
480.203	4.83
480.554	4.83
480.905	4.83
481.255	4.83
481.606	4.84
481.957	4.84
482.307	4.84
482.658	4.86
483.009	4.87
483.359	4.87
483.709	4.87
484.06	4.86
484.41	4.87
484.761	4.87
485.111	4.88
485.461	4.89
485.811	4.9
486.162	4.91
486.512	4.91
486.862	4.91
487.212	4.91
487.562	4.9
487.912	4.9
488.262	4.91
488.612	4.91
488.961	4.91
489.311	4.91
489.661	4.9
490.011	4.9
490.36	4.89
490.71	4.89
491.06	4.9
491.409	4.9
491.759	4.89
492.108	4.89
492.458	4.87
492.807	4.85
493.157	4.85
493.506	4.85
493.855	4.85
494.204	4.85
494.554	4.86
494.903	4.87
495.252	4.88
495.601	4.89
495.95	4.91
496.299	4.91
496.648	4.94
496.997	4.96
497.346	4.97
497.695	4.97
498.043	4.96
498.392	4.98
498.741	4.99
499.09	5.01
499.438	5.01
499.787	5
500.135	5.01
500.484	5.01
500.832	5.01
501.181	5
501.529	5.01
501.878	5.02
502.226	5.03
502.574	5.05
502.923	5.04
503.271	5.06
503.619	5.08
503.967	5.04
504.315	5.04
504.663	5.02
505.011	5.04
505.359	5.04
505.707	5.05
506.055	5.03
506.403	5.04
506.751	5.03
507.098	5.06
507.446	5.07
507.794	5.1
508.141	5.1
508.489	5.12
508.837	5.1
509.184	5.09
509.531	5.1
509.879	5.07
510.226	5.08
510.574	5.06
510.921	5.05
511.268	5.07
511.616	5.08
511.963	5.09
512.31	5.07
512.657	5.06
513.004	5.05
513.351	5.08
513.698	5.06
514.045	5.08
514.392	5.09
514.739	5.11
515.086	5.08
515.432	5.09
515.779	5.1
516.126	5.11
516.473	5.11
516.819	5.09
517.166	5.1
517.512	5.11
517.859	5.14
518.205	5.11
518.552	5.1
518.898	5.1
519.245	5.11
519.591	5.09
519.937	5.1
520.283	5.11
520.629	5.12
520.976	5.12
521.322	5.16
521.668	5.15
522.014	5.14
522.36	5.15
522.706	5.17
523.052	5.17
523.398	5.17
523.743	5.17
524.089	5.2
524.435	5.2
524.781	5.21
525.126	5.21
525.472	5.25
525.817	5.27
526.163	5.26
526.509	5.28
526.854	5.3
527.199	5.32
527.545	5.32
527.89	5.33
528.235	5.33
528.581	5.31
528.926	5.32
529.271	5.32
529.616	5.32
529.961	5.31
530.306	5.3
530.651	5.31
530.996	5.33
531.341	5.34
531.686	5.34
532.031	5.34
532.376	5.32
532.721	5.31
533.065	5.31
533.41	5.32
533.755	5.31
534.099	5.3
534.444	5.3
534.788	5.28
535.133	5.28
535.477	5.28
535.822	5.3
536.166	5.29
536.51	5.29
536.855	5.3
537.199	5.31
537.543	5.32
537.887	5.33
538.231	5.31
538.576	5.3
538.92	5.32
539.264	5.3
539.608	5.31
539.951	5.32
540.295	5.31
540.639	5.31
540.983	5.31
541.327	5.33
541.671	5.33
542.014	5.35
542.358	5.36
542.701	5.36
543.045	5.37
543.389	5.36
543.732	5.36
544.075	5.36
544.419	5.36
544.762	5.35
545.105	5.36
545.449	5.35
545.792	5.34
546.135	5.33
546.478	5.33
546.821	5.35
547.165	5.34
547.508	5.32
547.851	5.3
548.194	5.29
548.536	5.26
548.879	5.26
549.222	5.25
549.565	5.24
549.908	5.24
550.25	5.24
550.593	5.26
550.936	5.29
551.278	5.26
551.621	5.24
551.963	5.24
552.306	5.22
552.648	5.26
552.991	5.28
553.333	5.31
553.675	5.35
554.017	5.35
554.36	5.34
554.702	5.35
555.044	5.39
555.386	5.39
555.728	5.41
556.07	5.38
556.412	5.38
556.754	5.36
557.096	5.33
557.438	5.32
557.78	5.31
558.121	5.31
558.463	5.33
558.805	5.35
559.147	5.38
559.488	5.41
559.83	5.37
560.171	5.38
560.513	5.38
560.854	5.35
561.196	5.34
561.537	5.36
561.878	5.39
562.22	5.36
562.561	5.39
562.902	5.39
563.243	5.41
563.584	5.4
563.925	5.42
564.266	5.42
564.607	5.41
564.948	5.41
565.289	5.37
565.63	5.37
565.971	5.36
566.312	5.32
566.653	5.32
566.993	5.31
567.334	5.33
567.675	5.32
568.015	5.32
568.356	5.34
568.696	5.3
569.037	5.3
569.377	5.31
569.718	5.29
570.058	5.3
570.398	5.3
570.739	5.35
571.079	5.36
571.419	5.34
571.759	5.34
572.099	5.36
572.439	5.37
572.779	5.36
573.119	5.37
573.459	5.36
573.799	5.35
574.139	5.35
574.479	5.35
574.819	5.35
575.158	5.33
575.498	5.32
575.838	5.34
576.177	5.34
576.517	5.34
576.856	5.38
577.196	5.38
577.535	5.38
577.875	5.35
578.214	5.35
578.553	5.4
578.893	5.39
579.232	5.39
579.571	5.42
579.91	5.45
580.25	5.48
580.589	5.51
580.928	5.55
581.267	5.58
581.606	5.52
581.945	5.53
582.283	5.6
582.622	5.54
582.961	5.57
583.3	5.54
583.639	5.56
583.977	5.53
584.316	5.56
584.654	5.57
584.993	5.63
585.332	5.58
585.67	5.57
586.008	5.63
586.347	5.6
586.685	5.54
587.024	5.52
587.362	5.51
587.7	5.54
588.038	5.5
588.376	5.52
588.715	5.57
589.053	5.56
589.391	5.53
589.729	5.6
590.067	5.6
590.404	5.67
590.742	5.65
591.08	5.65
591.418	5.61
591.756	5.6
592.093	5.54
592.431	5.61
592.769	5.61
593.106	5.62
593.444	5.63
593.781	5.69
594.119	5.68
594.456	5.67
594.793	5.65
595.131	5.68
595.468	5.66
595.805	5.66
596.143	5.68
596.48	5.67
596.817	5.68
597.154	5.68
597.491	5.64
597.828	5.64
598.165	5.63
598.502	5.63
598.839	5.6
599.176	5.61
599.512	5.55
599.849	5.54
600.186	5.53
600.523	5.52
600.859	5.49
601.196	5.51
601.532	5.53
601.869	5.52
602.205	5.55
602.542	5.56
602.878	5.55
603.215	5.56
603.551	5.57
603.887	5.55
604.223	5.54
604.56	5.56
604.896	5.58
605.232	5.56
605.568	5.6
605.904	5.62
606.24	5.64
606.576	5.67
606.912	5.68
607.248	5.67
607.583	5.7
607.919	5.68
608.255	5.68
608.591	5.69
608.926	5.71
609.262	5.66
609.597	5.65
609.933	5.66
610.268	5.65
610.604	5.64
610.939	5.64
611.275	5.68
611.61	5.62
611.945	5.64
612.281	5.68
612.616	5.66
612.951	5.69
613.286	5.67
613.621	5.63
613.956	5.66
614.291	5.65
614.626	5.67
614.961	5.72
615.296	5.7
615.631	5.66
615.966	5.63
616.3	5.72
616.635	5.74
616.97	5.72
617.304	5.72
617.639	5.77
617.973	5.79
618.308	5.76
618.642	5.77
618.977	5.74
619.311	5.73
619.646	5.71
619.98	5.71
620.314	5.67
620.648	5.73
620.983	5.7
621.317	5.7
621.651	5.64
621.985	5.66
622.319	5.65
622.653	5.71
622.987	5.74
623.321	5.76
623.655	5.73
623.988	5.71
624.322	5.68
624.656	5.67
624.99	5.65
625.323	5.64
625.657	5.72
625.99	5.74
626.324	5.72
626.657	5.77
626.991	5.79
627.324	5.88
627.658	5.83
627.991	5.84
628.324	5.85
628.657	5.91
628.991	5.86
629.324	5.91
629.657	5.88
629.99	5.85
630.323	5.83
630.656	5.85
630.989	5.87
631.322	5.94
631.655	5.94
631.987	5.94
632.32	5.95
632.653	5.95
632.986	5.92
633.318	5.96
633.651	5.96
633.984	5.97
634.316	5.91
634.649	5.95
634.981	5.97
635.313	5.97
635.646	5.95
635.978	6.04
636.31	5.98
636.643	6.02
636.975	6.06
637.307	6.07
637.639	6.06
637.971	6.04
638.303	5.98
638.635	5.95
638.967	5.98
639.299	5.97
639.631	5.94
639.963	5.93
640.295	5.93
640.626	5.93
640.958	5.85
641.29	5.89
641.621	5.89
641.953	5.84
642.285	5.84
642.616	5.86
642.948	5.87
643.279	5.86
643.61	5.9
643.942	5.88
644.273	5.85
644.604	5.89
644.936	5.95
645.267	5.97
645.598	5.94
645.929	5.9
646.26	5.88
646.591	5.86
646.922	5.88
647.253	5.89
647.584	5.81
647.915	5.82
648.245	5.83
648.576	5.75
648.907	5.73
649.238	5.75
649.568	5.7
649.899	5.65
650.229	5.66
650.56	5.61
650.89	5.62
651.221	5.66
651.551	5.66
651.882	5.65
652.212	5.69
652.542	5.78
652.872	5.84
653.203	5.93
653.533	6
653.863	5.99
654.193	5.98
654.523	6.06
654.853	6.13
655.183	6.06
655.513	6.13
655.843	6.12
656.172	6.16
656.502	6.14
656.832	6.07
657.162	6.11
657.491	6.11
657.821	6.13
658.15	6.11
658.48	6.05
658.809	6.08
659.139	6.05
659.468	6.04
659.798	6.04
660.127	5.99
660.456	5.92
660.785	5.94
661.115	5.97
661.444	5.99
661.773	5.96
662.102	5.97
662.431	5.96
662.76	6
663.089	5.99
663.418	6.04
663.747	6.12
664.076	6.16
664.404	6.18
664.733	6.19
665.062	6.17
665.39	6.28
665.719	6.17
666.048	6.16
666.376	6.15
666.705	6.27
667.033	6.27
667.362	6.26
667.69	6.28
668.018	6.19
668.347	6.05
668.675	6.07
669.003	6.14
669.331	6.2
669.659	6.2
669.987	6.19
670.315	6.21
670.643	6.24
670.971	6.26
671.299	6.25
671.627	6.21
671.955	6.19
672.283	6.16
672.61	6.29
672.938	6.48
673.266	6.52
673.593	6.4
673.921	6.39
674.249	6.45
674.576	6.48
674.904	6.49
675.231	6.58
675.558	6.54
675.886	6.42
676.213	6.41
676.54	6.43
676.867	6.34
677.195	6.34
677.522	6.29
677.849	6.18
678.176	6.07
678.503	6.08
678.83	6.06
679.157	6
679.484	5.97
679.81	5.89
680.137	5.87
