Data from BA55519_Reflection_00009.txt Node
Date: Tue Nov 19 11:52:49 EST 2019
User: vgr7
Spectrometer: USB2G7710
Scans to average: 3
Trigger mode: 4
Integration Time (sec): 2.000000E-2
Electric dark correction enabled: true
Boxcar width: 10
XAxis mode: Wavelengths
Number of Pixels in Spectrum: 2048
>>>>>Begin Spectral Data<<<<<
177.721	-52.15
178.105	-49.83
178.488	-78.38
178.871	-60.2
179.254	-40.74
179.636	-8.64
180.019	-88.76
180.402	-23.53
180.785	866.67
181.168	80.1
181.55	-11.11
181.933	-74.6
182.316	-280.95
182.698	-140.74
183.081	13.19
183.463	8.6
183.846	28.27
184.228	10.26
184.611	12.57
184.993	12.61
185.376	24.01
185.758	15.11
186.14	2.98
186.522	-14.01
186.904	9.95
187.287	29.51
187.669	54.94
188.051	69.56
188.433	101.68
188.815	81.96
189.197	92.85
189.579	103.91
189.961	86.97
190.342	86.86
190.724	84.6
191.106	89.3
191.488	84.65
191.869	76.51
192.251	85.17
192.633	75.36
193.014	72.15
193.396	70.18
193.777	76.79
194.159	82.66
194.54	103.15
194.922	79.12
195.303	78.28
195.684	70.4
196.065	67.19
196.447	59.54
196.828	73.27
197.209	66.82
197.59	64.31
197.971	65.42
198.352	58.33
198.733	46.25
199.114	50.45
199.495	38.24
199.876	30.31
200.257	15.61
200.638	22.34
201.018	18.25
201.399	16.88
201.78	14.93
202.16	11.87
202.541	6.31
202.922	19.86
203.302	10.56
203.683	9.47
204.063	8.23
204.444	20.26
204.824	11.55
205.204	8.37
205.585	8.1
205.965	13.43
206.345	21.16
206.725	39.03
207.106	44.8
207.486	61.79
207.866	66.21
208.246	68.34
208.626	60.81
209.006	67.15
209.386	66.75
209.766	62.08
210.145	71.94
210.525	64.73
210.905	56.18
211.285	61.18
211.664	61.06
212.044	61.19
212.424	59.99
212.803	66.83
213.183	56.89
213.562	51.94
213.942	47.12
214.321	44.79
214.701	36.69
215.08	34.8
215.459	24.57
215.838	24.58
216.218	30.96
216.597	44.57
216.976	43.64
217.355	39.3
217.734	31.21
218.113	19.34
218.492	22.88
218.871	25.51
219.25	16.47
219.629	21.62
220.008	21.82
220.387	12.41
220.766	17.31
221.144	28.66
221.523	11.91
221.902	22.27
222.28	17.67
222.659	23.06
223.037	6.45
223.416	2.34
223.794	6.23
224.173	-1.61
224.551	-6.98
224.929	-6.6
225.308	-4.14
225.686	-0.54
226.064	-2.27
226.442	-3.51
226.821	-1.88
227.199	0.36
227.577	-1.95
227.955	-3.54
228.333	-5.51
228.711	-3.85
229.089	-5.33
229.467	1.55
229.845	0.4
230.222	0.2
230.6	-2.26
230.978	0.65
231.356	2.25
231.733	2.8
232.111	4.75
232.488	4.55
232.866	4.82
233.243	2.86
233.621	5.55
233.998	7.13
234.376	9.04
234.753	6.83
235.13	6.94
235.508	6.51
235.885	7.72
236.262	8.55
236.639	5.38
237.016	5.99
237.393	5.85
237.77	5.79
238.147	5.45
238.524	5.51
238.901	5.41
239.278	5.37
239.655	4.58
240.032	4.47
240.409	5.21
240.785	4.4
241.162	4.69
241.539	4.68
241.915	4
242.292	3.6
242.668	4.46
243.045	4.83
243.421	5.18
243.798	4.86
244.174	4.69
244.551	4.88
244.927	4.86
245.303	4.79
245.679	4.47
246.056	4.52
246.432	4.44
246.808	4.53
247.184	4.9
247.56	4.83
247.936	4.8
248.312	4.83
248.688	4.83
249.064	4.75
249.44	4.52
249.815	4.8
250.191	4.96
250.567	4.71
250.943	4.52
251.318	4.46
251.694	4.61
252.069	4.53
252.445	4.96
252.82	5.01
253.196	5.19
253.571	5.57
253.947	6.05
254.322	6.2
254.697	6.24
255.073	5.55
255.448	5.46
255.823	5.35
256.198	4.96
256.573	4.93
256.948	5.18
257.323	5.24
257.698	4.89
258.073	4.77
258.448	4.89
258.823	4.81
259.198	4.95
259.573	4.84
259.948	5.15
260.322	4.96
260.697	5.06
261.072	4.96
261.446	4.98
261.821	4.68
262.195	4.72
262.57	4.75
262.944	4.99
263.319	5.06
263.693	5.01
264.067	5.22
264.442	5.25
264.816	5.09
265.19	5.04
265.564	5.3
265.938	5.45
266.313	5.32
266.687	5.23
267.061	5.04
267.435	5.15
267.809	4.96
268.183	4.76
268.556	4.51
268.93	4.61
269.304	4.43
269.678	4.47
270.051	4.53
270.425	4.49
270.799	4.27
271.172	4.26
271.546	4.37
271.919	4.26
272.293	4.31
272.666	4.3
273.04	4.36
273.413	4.37
273.787	4.16
274.16	3.98
274.533	4.12
274.906	4.14
275.279	4.01
275.653	4.17
276.026	4.35
276.399	4.2
276.772	4.27
277.145	4.36
277.518	4.37
277.891	4.26
278.263	4.18
278.636	4.24
279.009	4.25
279.382	4.15
279.755	4.26
280.127	4.37
280.5	4.36
280.872	4.32
281.245	4.32
281.617	4.42
281.99	4.63
282.362	4.43
282.735	4.27
283.107	4.29
283.479	4.1
283.852	4.26
284.224	4.46
284.596	4.22
284.968	4.17
285.34	4.22
285.713	4.38
286.085	4.38
286.457	4.51
286.829	4.56
287.201	4.67
287.572	4.53
287.944	4.51
288.316	4.61
288.688	4.68
289.06	4.64
289.431	4.64
289.803	4.67
290.175	4.76
290.546	4.98
290.918	5.07
291.289	4.97
291.661	4.86
292.032	4.84
292.403	4.85
292.775	4.92
293.146	4.77
293.517	4.77
293.889	4.71
294.26	4.56
294.631	4.66
295.002	4.61
295.373	4.76
295.744	4.78
296.115	4.79
296.486	4.79
296.857	4.86
297.228	4.75
297.599	4.58
297.97	4.77
298.34	4.75
298.711	4.77
299.082	4.92
299.452	4.95
299.823	5.02
300.194	5.18
300.564	5.04
300.935	5.22
301.305	5.12
301.676	5.11
302.046	5.12
302.416	4.96
302.787	4.99
303.157	4.95
303.527	5.01
303.897	4.93
304.267	4.96
304.637	4.82
305.008	5.1
305.378	5.35
305.748	5.32
306.117	5.05
306.487	5.06
306.857	5.23
307.227	5.4
307.597	5.53
307.967	5.62
308.336	5.88
308.706	5.8
309.076	5.89
309.445	6.29
309.815	6.4
310.184	6.51
310.554	6.5
310.923	6.54
311.293	6.57
311.662	6.78
312.031	6.82
312.401	6.95
312.77	6.95
313.139	7.05
313.508	7.01
313.877	7.42
314.246	7.57
314.616	7.53
314.985	7.43
315.353	7.4
315.722	7.54
316.091	7.34
316.46	7.7
316.829	7.72
317.198	7.63
317.567	7.86
317.935	7.85
318.304	8.14
318.672	8.24
319.041	8.36
319.41	8.26
319.778	8.41
320.147	8.57
320.515	8.66
320.883	8.56
321.252	8.77
321.62	8.8
321.988	8.69
322.357	8.79
322.725	8.92
323.093	8.89
323.461	8.79
323.829	8.99
324.197	8.93
324.565	8.93
324.933	8.96
325.301	8.79
325.669	8.87
326.037	8.72
326.405	8.85
326.772	8.68
327.14	8.81
327.508	8.84
327.875	8.83
328.243	8.8
328.61	8.94
328.978	8.94
329.346	8.85
329.713	8.97
330.08	9.2
330.448	9.25
330.815	9.5
331.182	9.59
331.55	9.62
331.917	9.54
332.284	9.66
332.651	9.84
333.018	10.09
333.385	10.22
333.752	10.33
334.119	10.14
334.486	10.32
334.853	10.3
335.22	10.21
335.587	10.2
335.954	10.18
336.32	10.1
336.687	10.13
337.054	10.13
337.42	10.06
337.787	9.93
338.153	9.85
338.52	9.81
338.886	9.84
339.253	9.88
339.619	10.08
339.986	10.04
340.352	9.89
340.718	9.75
341.084	9.71
341.451	9.75
341.817	9.97
342.183	9.83
342.549	9.97
342.915	9.94
343.281	10.07
343.647	10.12
344.013	10.28
344.379	10.3
344.745	10.33
345.11	10.35
345.476	10.38
345.842	10.34
346.208	10.3
346.573	10.32
346.939	10.33
347.304	10.36
347.67	10.35
348.035	10.33
348.401	10.4
348.766	10.38
349.132	10.47
349.497	10.41
349.862	10.52
350.228	10.51
350.593	10.52
350.958	10.54
351.323	10.58
351.688	10.51
352.053	10.5
352.418	10.47
352.783	10.55
353.148	10.42
353.513	10.57
353.878	10.59
354.243	10.5
354.608	10.59
354.972	10.46
355.337	10.58
355.702	10.57
356.066	10.5
356.431	10.39
356.795	10.27
357.16	10.21
357.524	10.18
357.889	10.06
358.253	9.94
358.618	9.87
358.982	9.77
359.346	9.7
359.71	9.62
360.075	9.66
360.439	9.61
360.803	9.66
361.167	9.52
361.531	9.44
361.895	9.39
362.259	9.29
362.623	9.3
362.987	9.18
363.351	9.17
363.714	9.17
364.078	9.25
364.442	9.18
364.806	9.16
365.169	9.13
365.533	9.11
365.896	9.14
366.26	9.08
366.623	9.1
366.987	9.06
367.35	9.02
367.714	8.93
368.077	8.87
368.44	8.78
368.803	8.66
369.167	8.55
369.53	8.58
369.893	8.53
370.256	8.34
370.619	8.28
370.982	8.14
371.345	8.1
371.708	8
372.071	7.96
372.434	7.82
372.797	7.73
373.159	7.63
373.522	7.57
373.885	7.49
374.247	7.36
374.61	7.3
374.973	7.16
375.335	7.12
375.698	6.97
376.06	6.91
376.423	6.92
376.785	6.94
377.147	6.83
377.51	6.76
377.872	6.79
378.234	6.75
378.596	6.74
378.958	6.65
379.321	6.55
379.683	6.47
380.045	6.48
380.407	6.45
380.769	6.46
381.13	6.38
381.492	6.32
381.854	6.32
382.216	6.29
382.578	6.34
382.939	6.3
383.301	6.29
383.663	6.2
384.024	6.14
384.386	6.11
384.747	6.11
385.109	6.07
385.47	6
385.832	5.93
386.193	5.91
386.554	5.81
386.916	5.8
387.277	5.78
387.638	5.76
387.999	5.7
388.36	5.63
388.721	5.67
389.082	5.65
389.443	5.62
389.804	5.6
390.165	5.54
390.526	5.44
390.887	5.39
391.248	5.34
391.609	5.33
391.969	5.27
392.33	5.21
392.691	5.23
393.051	5.19
393.412	5.2
393.772	5.19
394.133	5.17
394.493	5.1
394.854	5.09
395.214	5.04
395.574	4.96
395.935	4.91
396.295	4.83
396.655	4.78
397.015	4.74
397.376	4.71
397.736	4.62
398.096	4.62
398.456	4.56
398.816	4.55
399.176	4.47
399.535	4.42
399.895	4.41
400.255	4.36
400.615	4.3
400.975	4.25
401.334	4.18
401.694	4.17
402.054	4.16
402.413	4.11
402.773	4.08
403.132	4.11
403.492	4.09
403.851	4.09
404.211	4.11
404.57	4.09
404.929	4.08
405.288	4.09
405.648	4.06
406.007	4.09
406.366	4.07
406.725	4.06
407.084	4.06
407.443	4.05
407.802	3.99
408.161	4.01
408.52	4.01
408.879	4.02
409.238	4.02
409.596	3.98
409.955	3.99
410.314	4
410.673	3.98
411.031	3.96
411.39	3.94
411.748	3.88
412.107	3.86
412.465	3.82
412.824	3.81
413.182	3.8
413.54	3.79
413.899	3.77
414.257	3.77
414.615	3.74
414.974	3.74
415.332	3.77
415.69	3.73
416.048	3.71
416.406	3.68
416.764	3.66
417.122	3.65
417.48	3.63
417.838	3.61
418.195	3.58
418.553	3.57
418.911	3.55
419.269	3.58
419.626	3.56
419.984	3.56
420.342	3.56
420.699	3.56
421.057	3.53
421.414	3.53
421.772	3.53
422.129	3.52
422.486	3.49
422.844	3.48
423.201	3.48
423.558	3.46
423.915	3.45
424.273	3.46
424.63	3.47
424.987	3.45
425.344	3.44
425.701	3.45
426.058	3.43
426.415	3.43
426.772	3.4
427.128	3.4
427.485	3.4
427.842	3.39
428.199	3.37
428.555	3.38
428.912	3.36
429.269	3.33
429.625	3.33
429.982	3.33
430.338	3.31
430.695	3.31
431.051	3.32
431.407	3.32
431.764	3.29
432.12	3.29
432.476	3.31
432.832	3.31
433.189	3.3
433.545	3.3
433.901	3.28
434.257	3.27
434.613	3.27
434.969	3.23
435.325	3.23
435.681	3.25
436.036	3.25
436.392	3.27
436.748	3.28
437.104	3.28
437.459	3.27
437.815	3.27
438.171	3.28
438.526	3.27
438.882	3.27
439.237	3.27
439.593	3.26
439.948	3.26
440.304	3.25
440.659	3.25
441.014	3.24
441.369	3.25
441.725	3.26
442.08	3.25
442.435	3.25
442.79	3.24
443.145	3.2
443.5	3.2
443.855	3.2
444.21	3.2
444.565	3.19
444.92	3.19
445.275	3.2
445.629	3.21
445.984	3.21
446.339	3.2
446.693	3.2
447.048	3.18
447.403	3.17
447.757	3.17
448.112	3.17
448.466	3.17
448.82	3.18
449.175	3.16
449.529	3.17
449.883	3.17
450.238	3.18
450.592	3.19
450.946	3.17
451.3	3.16
451.654	3.13
452.008	3.11
452.362	3.11
452.716	3.1
453.07	3.08
453.424	3.07
453.778	3.05
454.132	3.05
454.486	3.05
454.839	3.08
455.193	3.1
455.547	3.1
455.9	3.12
456.254	3.12
456.607	3.14
456.961	3.13
457.314	3.14
457.668	3.14
458.021	3.15
458.375	3.15
458.728	3.15
459.081	3.17
459.434	3.2
459.787	3.21
460.141	3.2
460.494	3.2
460.847	3.21
461.2	3.23
461.553	3.23
461.906	3.25
462.259	3.21
462.611	3.22
462.964	3.23
463.317	3.22
463.67	3.23
464.022	3.23
464.375	3.24
464.728	3.26
465.08	3.26
465.433	3.25
465.785	3.28
466.138	3.28
466.49	3.3
466.843	3.32
467.195	3.33
467.547	3.35
467.899	3.35
468.252	3.34
468.604	3.35
468.956	3.36
469.308	3.35
469.66	3.38
470.012	3.37
470.364	3.38
470.716	3.39
471.068	3.4
471.42	3.4
471.772	3.39
472.123	3.37
472.475	3.37
472.827	3.39
473.178	3.37
473.53	3.39
473.882	3.37
474.233	3.35
474.585	3.33
474.936	3.34
475.288	3.35
475.639	3.37
475.99	3.34
476.342	3.35
476.693	3.37
477.044	3.36
477.395	3.36
477.746	3.34
478.097	3.33
478.448	3.32
478.8	3.31
479.15	3.31
479.501	3.31
479.852	3.32
480.203	3.31
480.554	3.33
480.905	3.31
481.255	3.31
481.606	3.32
481.957	3.32
482.307	3.31
482.658	3.3
483.009	3.3
483.359	3.31
483.709	3.31
484.06	3.32
484.41	3.3
484.761	3.31
485.111	3.32
485.461	3.32
485.811	3.33
486.162	3.33
486.512	3.34
486.862	3.35
487.212	3.35
487.562	3.35
487.912	3.35
488.262	3.37
488.612	3.36
488.961	3.37
489.311	3.37
489.661	3.38
490.011	3.38
490.36	3.39
490.71	3.4
491.06	3.4
491.409	3.4
491.759	3.42
492.108	3.42
492.458	3.42
492.807	3.42
493.157	3.43
493.506	3.45
493.855	3.47
494.204	3.48
494.554	3.5
494.903	3.52
495.252	3.55
495.601	3.57
495.95	3.61
496.299	3.62
496.648	3.66
496.997	3.7
497.346	3.75
497.695	3.77
498.043	3.8
498.392	3.84
498.741	3.87
499.09	3.91
499.438	3.95
499.787	4.01
500.135	4.03
500.484	4.06
500.832	4.07
501.181	4.1
501.529	4.14
501.878	4.17
502.226	4.22
502.574	4.27
502.923	4.27
503.271	4.32
503.619	4.36
503.967	4.38
504.315	4.4
504.663	4.43
505.011	4.46
505.359	4.49
505.707	4.51
506.055	4.56
506.403	4.58
506.751	4.63
507.098	4.65
507.446	4.72
507.794	4.77
508.141	4.82
508.489	4.87
508.837	4.9
509.184	4.92
509.531	4.97
509.879	5.01
510.226	5.08
510.574	5.14
510.921	5.19
511.268	5.27
511.616	5.33
511.963	5.39
512.31	5.47
512.657	5.53
513.004	5.59
513.351	5.65
513.698	5.72
514.045	5.79
514.392	5.87
514.739	5.92
515.086	6
515.432	6.08
515.779	6.15
516.126	6.23
516.473	6.32
516.819	6.37
517.166	6.44
517.512	6.5
517.859	6.57
518.205	6.6
518.552	6.64
518.898	6.71
519.245	6.78
519.591	6.84
519.937	6.92
520.283	7.01
520.629	7.07
520.976	7.14
521.322	7.23
521.668	7.33
522.014	7.44
522.36	7.53
522.706	7.62
523.052	7.71
523.398	7.82
523.743	7.94
524.089	8.1
524.435	8.21
524.781	8.34
525.126	8.43
525.472	8.55
525.817	8.63
526.163	8.72
526.509	8.81
526.854	8.9
527.199	8.98
527.545	9.07
527.89	9.14
528.235	9.22
528.581	9.32
528.926	9.38
529.271	9.46
529.616	9.53
529.961	9.63
530.306	9.72
530.651	9.82
530.996	9.91
531.341	10
531.686	10.09
532.031	10.19
532.376	10.32
532.721	10.43
533.065	10.57
533.41	10.67
533.755	10.78
534.099	10.87
534.444	10.97
534.788	11.07
535.133	11.19
535.477	11.3
535.822	11.41
536.166	11.56
536.51	11.72
536.855	11.89
537.199	12.01
537.543	12.16
537.887	12.33
538.231	12.49
538.576	12.67
538.92	12.84
539.264	13
539.608	13.15
539.951	13.28
540.295	13.39
540.639	13.52
540.983	13.64
541.327	13.81
541.671	13.95
542.014	14.09
542.358	14.24
542.701	14.37
543.045	14.49
543.389	14.6
543.732	14.71
544.075	14.82
544.419	14.98
544.762	15.14
545.105	15.28
545.449	15.42
545.792	15.57
546.135	15.71
546.478	15.86
546.821	16.03
547.165	16.23
547.508	16.42
547.851	16.62
548.194	16.82
548.536	16.97
548.879	17.17
549.222	17.35
549.565	17.5
549.908	17.66
550.25	17.87
550.593	18.07
550.936	18.27
551.278	18.49
551.621	18.67
551.963	18.87
552.306	19.06
552.648	19.25
552.991	19.42
553.333	19.62
553.675	19.82
554.017	20.02
554.36	20.18
554.702	20.4
555.044	20.58
555.386	20.76
555.728	20.98
556.07	21.13
556.412	21.35
556.754	21.58
557.096	21.8
557.438	22.01
557.78	22.24
558.121	22.5
558.463	22.66
558.805	22.91
559.147	23.14
559.488	23.38
559.83	23.6
560.171	23.88
560.513	24.09
560.854	24.32
561.196	24.51
561.537	24.76
561.878	24.97
562.22	25.2
562.561	25.46
562.902	25.7
563.243	25.97
563.584	26.16
563.925	26.38
564.266	26.58
564.607	26.79
564.948	27.01
565.289	27.22
565.63	27.43
565.971	27.68
566.312	27.89
566.653	28.09
566.993	28.3
567.334	28.46
567.675	28.7
568.015	28.91
568.356	29.12
568.696	29.37
569.037	29.57
569.377	29.81
569.718	30.02
570.058	30.22
570.398	30.45
570.739	30.65
571.079	30.85
571.419	31.09
571.759	31.35
572.099	31.57
572.439	31.77
572.779	31.98
573.119	32.11
573.459	32.33
573.799	32.54
574.139	32.73
574.479	32.96
574.819	33.15
575.158	33.38
575.498	33.57
575.838	33.71
576.177	33.87
576.517	34
576.856	34.19
577.196	34.41
577.535	34.62
577.875	34.85
578.214	35.05
578.553	35.3
578.893	35.44
579.232	35.66
579.571	35.82
579.91	36.03
580.25	36.25
580.589	36.39
580.928	36.5
581.267	36.77
581.606	36.97
581.945	37.14
582.283	37.3
582.622	37.5
582.961	37.76
583.3	38.02
583.639	38.23
583.977	38.41
584.316	38.6
584.654	38.71
584.993	38.83
585.332	39.01
585.67	39.21
586.008	39.46
586.347	39.64
586.685	39.87
587.024	40.06
587.362	40.27
587.7	40.51
588.038	40.79
588.376	40.87
588.715	41.02
589.053	41.25
589.391	41.33
589.729	41.44
590.067	41.58
590.404	41.71
590.742	41.92
591.08	42.12
591.418	42.21
591.756	42.4
592.093	42.62
592.431	42.73
592.769	42.8
593.106	42.84
593.444	42.91
593.781	42.97
594.119	43.04
594.456	43.16
594.793	43.18
595.131	43.27
595.468	43.39
595.805	43.42
596.143	43.41
596.48	43.57
596.817	43.68
597.154	43.69
597.491	43.73
597.828	43.77
598.165	43.75
598.502	43.84
598.839	43.88
599.176	43.97
599.512	44.02
599.849	44.11
600.186	44.25
600.523	44.33
600.859	44.42
601.196	44.47
601.532	44.56
601.869	44.7
602.205	44.7
602.542	44.76
602.878	44.86
603.215	45.05
603.551	45.13
603.887	45.16
604.223	45.28
604.56	45.37
604.896	45.45
605.232	45.57
605.568	45.69
605.904	45.75
606.24	45.82
606.576	45.9
606.912	46.04
607.248	46.08
607.583	46.2
607.919	46.29
608.255	46.43
608.591	46.5
608.926	46.61
609.262	46.68
609.597	46.74
609.933	46.8
610.268	46.78
610.604	46.82
610.939	46.97
611.275	47.01
611.61	47.09
611.945	47.18
612.281	47.27
612.616	47.31
612.951	47.36
613.286	47.45
613.621	47.48
613.956	47.48
614.291	47.57
614.626	47.6
614.961	47.72
615.296	47.78
615.631	47.82
615.966	47.75
616.3	47.89
616.635	47.98
616.97	48.05
617.304	48.17
617.639	48.23
617.973	48.32
618.308	48.38
618.642	48.39
618.977	48.37
619.311	48.35
619.646	48.32
619.98	48.37
620.314	48.39
620.648	48.45
620.983	48.39
621.317	48.44
621.651	48.48
621.985	48.48
622.319	48.51
622.653	48.46
622.987	48.59
623.321	48.55
623.655	48.61
623.988	48.63
624.322	48.6
624.656	48.63
624.99	48.56
625.323	48.6
625.657	48.6
625.99	48.68
626.324	48.79
626.657	48.84
626.991	48.88
627.324	48.92
627.658	48.98
627.991	49.07
628.324	49.07
628.657	49.12
628.991	49.06
629.324	49.05
629.657	49.17
629.99	49.16
630.323	49.27
630.656	49.26
630.989	49.29
631.322	49.37
631.655	49.31
631.987	49.31
632.32	49.23
632.653	49.19
632.986	49.22
633.318	49.16
633.651	49.15
633.984	49.21
634.316	49.24
634.649	49.27
634.981	49.34
635.313	49.4
635.646	49.42
635.978	49.54
636.31	49.63
636.643	49.56
636.975	49.55
637.307	49.57
637.639	49.63
637.971	49.63
638.303	49.66
638.635	49.79
638.967	49.9
639.299	49.96
639.631	50.06
639.963	50.04
640.295	50.13
640.626	50.19
640.958	50.23
641.29	50.28
641.621	50.32
641.953	50.27
642.285	50.22
642.616	50.28
642.948	50.31
643.279	50.23
643.61	50.33
643.942	50.4
644.273	50.36
644.604	50.3
644.936	50.36
645.267	50.42
645.598	50.36
645.929	50.29
646.26	50.42
646.591	50.51
646.922	50.45
647.253	50.45
647.584	50.53
647.915	50.55
648.245	50.52
648.576	50.56
648.907	50.55
649.238	50.51
649.568	50.37
649.899	50.47
650.229	50.55
650.56	50.58
650.89	50.52
651.221	50.6
651.551	50.73
651.882	50.73
652.212	50.74
652.542	50.9
652.872	50.98
653.203	50.98
653.533	51.01
653.863	51.08
654.193	51.01
654.523	51.08
654.853	51
655.183	50.95
655.513	50.91
655.843	50.97
656.172	51.09
656.502	51.13
656.832	50.98
657.162	50.99
657.491	50.94
657.821	50.96
658.15	51.01
658.48	50.96
658.809	50.94
659.139	50.99
659.468	50.99
659.798	51.1
660.127	51.12
660.456	51.15
660.785	51.13
661.115	51.24
661.444	51.25
661.773	51.36
662.102	51.43
662.431	51.51
662.76	51.59
663.089	51.74
663.418	51.77
663.747	51.88
664.076	51.87
664.404	51.99
664.733	52.12
665.062	52.01
665.39	52.19
665.719	52.21
666.048	52.15
666.376	52.06
666.705	52
667.033	52.01
667.362	51.98
667.69	52.08
668.018	52
668.347	51.98
668.675	51.92
669.003	51.94
669.331	51.91
