Data from BA55658_Reflection_00009.txt Node
Date: Tue Nov 19 11:55:46 EST 2019
User: vgr7
Spectrometer: USB2G7710
Scans to average: 3
Trigger mode: 4
Integration Time (sec): 2.000000E-2
Electric dark correction enabled: true
Boxcar width: 10
XAxis mode: Wavelengths
Number of Pixels in Spectrum: 2048
>>>>>Begin Spectral Data<<<<<
177.721	5.59
178.105	28.57
178.488	2.18
178.871	-56.15
179.254	-108.45
179.636	-209.43
180.019	-845.95
180.402	-271.43
180.785	2642.86
181.168	1792.31
181.55	-3.63
181.933	41.88
182.316	13.25
182.698	1.36
183.081	12.6
183.463	32.2
183.846	15.2
184.228	1.59
184.611	-24.78
184.993	-33.14
185.376	-49.71
185.758	-47.59
186.14	-22.19
186.522	-25.95
186.904	-34.25
187.287	-31.56
187.669	-33.81
188.051	-25.27
188.433	-1.51
188.815	33.51
189.197	44.71
189.579	48.48
189.961	59.34
190.342	56.52
190.724	60.19
191.106	-509.76
191.488	55.8
191.869	-188.59
192.251	-89.75
192.633	-171.1
193.014	-560.94
193.396	-791.63
193.777	-330.99
194.159	-405.34
194.54	-229.3
194.922	-132.05
195.303	-123.3
195.684	506.42
196.065	447.15
196.447	101.75
196.828	218.48
197.209	38.81
197.59	-3.95
197.971	-28.07
198.352	29.98
198.733	58
199.114	57.47
199.495	101.93
199.876	123.09
200.257	96.13
200.638	96.38
201.018	238.12
201.399	613.51
201.78	202.72
202.16	676.47
202.541	935.16
202.922	201.76
203.302	229.82
203.683	-731.58
204.063	-294.59
204.444	-110.67
204.824	-65.61
205.204	-43.47
205.585	-54.95
205.965	-137.72
206.345	-129.6
206.725	-85.45
207.106	-46.14
207.486	-50.34
207.866	-36.07
208.246	-5.78
208.626	13.53
209.006	4.07
209.386	-3.81
209.766	18.47
210.145	11.15
210.525	26.32
210.905	30.22
211.285	46.44
211.664	54.42
212.044	36.62
212.424	47.75
212.803	32.78
213.183	14.46
213.562	17.88
213.942	15.06
214.321	21.95
214.701	24.72
215.08	24.31
215.459	46.19
215.838	53.39
216.218	103.21
216.597	66.63
216.976	53.11
217.355	85.54
217.734	75.61
218.113	60.06
218.492	64.34
218.871	112.6
219.25	144.16
219.629	-45.23
220.008	-20.2
220.387	-54.72
220.766	437.66
221.144	-1063.93
221.523	-119.58
221.902	-189.4
222.28	16100
222.659	165.16
223.037	56.06
223.416	23.71
223.794	78.51
224.173	31.84
224.551	20.75
224.929	41.66
225.308	12.76
225.686	27.81
226.064	38.96
226.442	42.55
226.821	25.82
227.199	27.81
227.577	22.61
227.955	21.09
228.333	21.3
228.711	20.02
229.089	15.54
229.467	18.67
229.845	14.24
230.222	11.63
230.6	14.62
230.978	14.68
231.356	13.26
231.733	10.74
232.111	11.09
232.488	10.36
232.866	12.12
233.243	13.27
233.621	11.89
233.998	10.68
234.376	6.74
234.753	6.19
235.13	3.53
235.508	6.61
235.885	4.21
236.262	4.16
236.639	1.91
237.016	2.07
237.393	-1.06
237.77	0.29
238.147	1.53
238.524	1.97
238.901	1.38
239.278	1.4
239.655	2.13
240.032	2.35
240.409	2.76
240.785	2.42
241.162	1.52
241.539	0.89
241.915	0.78
242.292	2.02
242.668	2.29
243.045	2.93
243.421	2.98
243.798	3.85
244.174	3.83
244.551	4.25
244.927	4.54
245.303	5.21
245.679	5.25
246.056	4.95
246.432	5.02
246.808	5.31
247.184	5.41
247.56	4.84
247.936	5.16
248.312	5.22
248.688	5.24
249.064	5.56
249.44	5.75
249.815	6.14
250.191	5.91
250.567	5.78
250.943	5.77
251.318	5.51
251.694	5.36
252.069	5.44
252.445	5.5
252.82	5.8
253.196	5.48
253.571	5.72
253.947	5.83
254.322	6.03
254.697	6.02
255.073	5.59
255.448	5.93
255.823	5.5
256.198	5.24
256.573	5.14
256.948	5.06
257.323	5.02
257.698	4.9
258.073	4.93
258.448	5.12
258.823	4.88
259.198	4.94
259.573	4.74
259.948	4.67
260.322	4.6
260.697	4.5
261.072	4.74
261.446	4.46
261.821	4.23
262.195	4.08
262.57	4.12
262.944	4.4
263.319	4.29
263.693	4.17
264.067	4.2
264.442	4.02
264.816	4.06
265.19	4.02
265.564	3.9
265.938	3.9
266.313	3.75
266.687	3.96
267.061	3.84
267.435	3.98
267.809	4.14
268.183	4.05
268.556	3.7
268.93	3.53
269.304	3.65
269.678	4
270.051	3.98
270.425	3.75
270.799	3.41
271.172	3.57
271.546	3.78
271.919	3.83
272.293	3.94
272.666	3.87
273.04	3.95
273.413	4.02
273.787	4.14
274.16	4.07
274.533	3.99
274.906	4.16
275.279	4.08
275.653	4.04
276.026	4.11
276.399	4.1
276.772	4.14
277.145	4.24
277.518	4.06
277.891	4.09
278.263	4.25
278.636	4.42
279.009	4.23
279.382	4.14
279.755	4.05
280.127	3.89
280.5	3.91
280.872	3.87
281.245	3.73
281.617	3.53
281.99	3.67
282.362	3.86
282.735	3.69
283.107	3.73
283.479	3.66
283.852	3.77
284.224	4
284.596	3.93
284.968	3.73
285.34	3.76
285.713	3.81
286.085	3.61
286.457	3.58
286.829	3.68
287.201	3.64
287.572	3.72
287.944	3.94
288.316	3.88
288.688	3.96
289.06	3.94
289.431	4.15
289.803	4.13
290.175	3.84
290.546	3.97
290.918	3.96
291.289	3.9
291.661	3.89
292.032	3.76
292.403	3.89
292.775	4.18
293.146	4.12
293.517	4.16
293.889	4.37
294.26	4.49
294.631	4.58
295.002	4.55
295.373	4.56
295.744	4.46
296.115	4.59
296.486	4.59
296.857	4.84
297.228	4.76
297.599	4.77
297.97	4.94
298.34	4.8
298.711	4.94
299.082	5.08
299.452	5.09
299.823	5.16
300.194	5.15
300.564	4.92
300.935	5.02
301.305	5.09
301.676	5.04
302.046	5.05
302.416	5.07
302.787	5.26
303.157	5.42
303.527	5.77
303.897	5.72
304.267	5.71
304.637	5.54
305.008	5.67
305.378	5.89
305.748	5.98
306.117	6.18
306.487	6.28
306.857	6.58
307.227	6.79
307.597	6.81
307.967	6.88
308.336	7.1
308.706	7.06
309.076	7.08
309.445	7.38
309.815	7.33
310.184	7.44
310.554	7.37
310.923	7.35
311.293	7.17
311.662	7.3
312.031	7.4
312.401	7.46
312.77	7.36
313.139	7.38
313.508	7.38
313.877	7.45
314.246	7.45
314.616	7.37
314.985	7.41
315.353	7.59
315.722	7.73
316.091	7.77
316.46	7.96
316.829	7.91
317.198	7.85
317.567	8.07
317.935	8.08
318.304	8.4
318.672	8.55
319.041	8.66
319.41	8.63
319.778	8.49
320.147	8.79
320.515	8.84
320.883	8.84
321.252	8.97
321.62	8.92
321.988	8.92
322.357	8.86
322.725	8.59
323.093	8.52
323.461	8.54
323.829	8.69
324.197	8.81
324.565	9.12
324.933	9.05
325.301	9
325.669	9.11
326.037	9.04
326.405	9.06
326.772	9.08
327.14	9.08
327.508	9.21
327.875	9.17
328.243	9.2
328.61	9.29
328.978	9.23
329.346	9.4
329.713	9.5
330.08	9.5
330.448	9.77
330.815	9.82
331.182	9.79
331.55	9.79
331.917	9.87
332.284	9.69
332.651	9.71
333.018	9.86
333.385	9.78
333.752	9.82
334.119	9.8
334.486	9.87
334.853	9.92
335.22	9.98
335.587	9.84
335.954	9.8
336.32	9.61
336.687	9.72
337.054	9.64
337.42	9.67
337.787	9.66
338.153	9.72
338.52	9.75
338.886	9.72
339.253	9.6
339.619	9.51
339.986	9.54
340.352	9.57
340.718	9.56
341.084	9.61
341.451	9.55
341.817	9.5
342.183	9.45
342.549	9.51
342.915	9.61
343.281	9.67
343.647	9.75
344.013	9.98
344.379	9.96
344.745	10.03
345.11	9.93
345.476	10.02
345.842	10.02
346.208	10
346.573	10.09
346.939	10.2
347.304	10.22
347.67	10.26
348.035	10.26
348.401	10.19
348.766	10.07
349.132	10.08
349.497	10.17
349.862	10.23
350.228	10.12
350.593	10.01
350.958	10.19
351.323	10.23
351.688	10.16
352.053	10.18
352.418	10.17
352.783	10.13
353.148	10.08
353.513	9.94
353.878	9.95
354.243	9.86
354.608	9.75
354.972	9.71
355.337	9.6
355.702	9.57
356.066	9.63
356.431	9.7
356.795	9.69
357.16	9.54
357.524	9.41
357.889	9.45
358.253	9.33
358.618	9.2
358.982	9.04
359.346	8.98
359.71	8.88
360.075	8.88
360.439	8.91
360.803	8.9
361.167	8.93
361.531	8.84
361.895	8.77
362.259	8.82
362.623	8.73
362.987	8.71
363.351	8.64
363.714	8.58
364.078	8.49
364.442	8.37
364.806	8.43
365.169	8.44
365.533	8.38
365.896	8.39
366.26	8.17
366.623	8.21
366.987	8.13
367.35	8.13
367.714	7.98
368.077	7.96
368.44	7.82
368.803	7.68
369.167	7.62
369.53	7.52
369.893	7.47
370.256	7.32
370.619	7.26
370.982	7.2
371.345	7.15
371.708	7.11
372.071	7.1
372.434	6.95
372.797	6.86
373.159	6.74
373.522	6.66
373.885	6.72
374.247	6.59
374.61	6.56
374.973	6.47
375.335	6.36
375.698	6.29
376.06	6.25
376.423	6.17
376.785	6.11
377.147	6.11
377.51	5.97
377.872	5.99
378.234	5.91
378.596	5.89
378.958	5.75
379.321	5.67
379.683	5.63
380.045	5.58
380.407	5.54
380.769	5.5
381.13	5.51
381.492	5.4
381.854	5.42
382.216	5.39
382.578	5.36
382.939	5.35
383.301	5.27
383.663	5.25
384.024	5.21
384.386	5.17
384.747	5.17
385.109	5.15
385.47	5.12
385.832	5.11
386.193	5.07
386.554	5.06
386.916	5.07
387.277	5.01
387.638	4.96
387.999	4.9
388.36	4.92
388.721	4.88
389.082	4.88
389.443	4.8
389.804	4.72
390.165	4.62
390.526	4.62
390.887	4.58
391.248	4.56
391.609	4.55
391.969	4.54
392.33	4.47
392.691	4.41
393.051	4.36
393.412	4.36
393.772	4.33
394.133	4.27
394.493	4.17
394.854	4.12
395.214	4.11
395.574	4.06
395.935	3.97
396.295	3.93
396.655	3.88
397.015	3.84
397.376	3.84
397.736	3.81
398.096	3.75
398.456	3.7
398.816	3.65
399.176	3.61
399.535	3.55
399.895	3.5
400.255	3.51
400.615	3.51
400.975	3.45
401.334	3.42
401.694	3.4
402.054	3.45
402.413	3.43
402.773	3.44
403.132	3.44
403.492	3.44
403.851	3.42
404.211	3.43
404.57	3.42
404.929	3.41
405.288	3.39
405.648	3.39
406.007	3.4
406.366	3.39
406.725	3.36
407.084	3.36
407.443	3.4
407.802	3.38
408.161	3.38
408.52	3.38
408.879	3.41
409.238	3.41
409.596	3.36
409.955	3.39
410.314	3.34
410.673	3.34
411.031	3.34
411.39	3.34
411.748	3.35
412.107	3.38
412.465	3.35
412.824	3.32
413.182	3.27
413.54	3.25
413.899	3.23
414.257	3.23
414.615	3.21
414.974	3.17
415.332	3.17
415.69	3.12
416.048	3.11
416.406	3.05
416.764	3.04
417.122	3.01
417.48	2.99
417.838	3
418.195	2.98
418.553	2.97
418.911	2.94
419.269	2.92
419.626	2.89
419.984	2.89
420.342	2.89
420.699	2.9
421.057	2.89
421.414	2.9
421.772	2.9
422.129	2.9
422.486	2.91
422.844	2.88
423.201	2.88
423.558	2.86
423.915	2.86
424.273	2.84
424.63	2.85
424.987	2.85
425.344	2.84
425.701	2.82
426.058	2.81
426.415	2.8
426.772	2.8
427.128	2.82
427.485	2.81
427.842	2.82
428.199	2.82
428.555	2.79
428.912	2.78
429.269	2.77
429.625	2.77
429.982	2.76
430.338	2.78
430.695	2.77
431.051	2.76
431.407	2.79
431.764	2.77
432.12	2.76
432.476	2.77
432.832	2.78
433.189	2.77
433.545	2.77
433.901	2.75
434.257	2.74
434.613	2.7
434.969	2.69
435.325	2.68
435.681	2.68
436.036	2.71
436.392	2.71
436.748	2.7
437.104	2.71
437.459	2.67
437.815	2.64
438.171	2.65
438.526	2.66
438.882	2.65
439.237	2.65
439.593	2.67
439.948	2.67
440.304	2.66
440.659	2.67
441.014	2.67
441.369	2.69
441.725	2.69
442.08	2.69
442.435	2.69
442.79	2.7
443.145	2.68
443.5	2.69
443.855	2.68
444.21	2.67
444.565	2.68
444.92	2.69
445.275	2.7
445.629	2.69
445.984	2.69
446.339	2.69
446.693	2.7
447.048	2.67
447.403	2.65
447.757	2.64
448.112	2.63
448.466	2.62
448.82	2.62
449.175	2.61
449.529	2.62
449.883	2.62
450.238	2.6
450.592	2.6
450.946	2.59
451.3	2.6
451.654	2.59
452.008	2.59
452.362	2.6
452.716	2.6
453.07	2.61
453.424	2.61
453.778	2.57
454.132	2.58
454.486	2.59
454.839	2.6
455.193	2.61
455.547	2.63
455.9	2.63
456.254	2.63
456.607	2.63
456.961	2.64
457.314	2.64
457.668	2.63
458.021	2.62
458.375	2.63
458.728	2.62
459.081	2.63
459.434	2.61
459.787	2.6
460.141	2.6
460.494	2.61
460.847	2.59
461.2	2.61
461.553	2.62
461.906	2.62
462.259	2.61
462.611	2.63
462.964	2.63
463.317	2.62
463.67	2.63
464.022	2.65
464.375	2.65
464.728	2.67
465.08	2.67
465.433	2.7
465.785	2.68
466.138	2.69
466.49	2.69
466.843	2.73
467.195	2.76
467.547	2.76
467.899	2.77
468.252	2.78
468.604	2.82
468.956	2.83
469.308	2.82
469.66	2.83
470.012	2.81
470.364	2.82
470.716	2.84
471.068	2.84
471.42	2.85
471.772	2.84
472.123	2.83
472.475	2.84
472.827	2.84
473.178	2.86
473.53	2.87
473.882	2.84
474.233	2.81
474.585	2.79
474.936	2.82
475.288	2.82
475.639	2.8
475.99	2.77
476.342	2.77
476.693	2.77
477.044	2.78
477.395	2.77
477.746	2.75
478.097	2.73
478.448	2.74
478.8	2.73
479.15	2.71
479.501	2.7
479.852	2.69
480.203	2.68
480.554	2.68
480.905	2.69
481.255	2.7
481.606	2.71
481.957	2.71
482.307	2.7
482.658	2.7
483.009	2.71
483.359	2.72
483.709	2.71
484.06	2.71
484.41	2.71
484.761	2.71
485.111	2.71
485.461	2.72
485.811	2.71
486.162	2.72
486.512	2.72
486.862	2.73
487.212	2.74
487.562	2.74
487.912	2.75
488.262	2.74
488.612	2.75
488.961	2.76
489.311	2.77
489.661	2.78
490.011	2.8
490.36	2.81
490.71	2.8
491.06	2.82
491.409	2.83
491.759	2.85
492.108	2.87
492.458	2.89
492.807	2.89
493.157	2.92
493.506	2.94
493.855	2.96
494.204	2.97
494.554	3
494.903	3.02
495.252	3.05
495.601	3.08
495.95	3.1
496.299	3.12
496.648	3.14
496.997	3.14
497.346	3.16
497.695	3.18
498.043	3.23
498.392	3.26
498.741	3.29
499.09	3.31
499.438	3.34
499.787	3.38
500.135	3.42
500.484	3.43
500.832	3.44
501.181	3.47
501.529	3.52
501.878	3.54
502.226	3.57
502.574	3.62
502.923	3.62
503.271	3.65
503.619	3.69
503.967	3.72
504.315	3.8
504.663	3.84
505.011	3.88
505.359	3.89
505.707	3.92
506.055	3.96
506.403	4
506.751	4.04
507.098	4.11
507.446	4.15
507.794	4.22
508.141	4.28
508.489	4.32
508.837	4.37
509.184	4.43
509.531	4.49
509.879	4.53
510.226	4.61
510.574	4.69
510.921	4.74
511.268	4.81
511.616	4.87
511.963	4.95
512.31	5.01
512.657	5.11
513.004	5.18
513.351	5.26
513.698	5.33
514.045	5.41
514.392	5.48
514.739	5.57
515.086	5.65
515.432	5.74
515.779	5.84
516.126	5.93
516.473	6.02
516.819	6.12
517.166	6.21
517.512	6.3
517.859	6.39
518.205	6.48
518.552	6.58
518.898	6.64
519.245	6.71
519.591	6.78
519.937	6.85
520.283	6.95
520.629	7.06
520.976	7.19
521.322	7.32
521.668	7.41
522.014	7.56
522.36	7.69
522.706	7.82
523.052	7.95
523.398	8.11
523.743	8.28
524.089	8.45
524.435	8.58
524.781	8.75
525.126	8.89
525.472	9.02
525.817	9.16
526.163	9.29
526.509	9.43
526.854	9.56
527.199	9.67
527.545	9.77
527.89	9.88
528.235	10.01
528.581	10.13
528.926	10.26
529.271	10.39
529.616	10.52
529.961	10.66
530.306	10.8
530.651	10.94
530.996	11.08
531.341	11.22
531.686	11.39
532.031	11.57
532.376	11.73
532.721	11.93
533.065	12.11
533.41	12.32
533.755	12.51
534.099	12.7
534.444	12.92
534.788	13.15
535.133	13.36
535.477	13.54
535.822	13.76
536.166	13.99
536.51	14.2
536.855	14.46
537.199	14.72
537.543	15.01
537.887	15.3
538.231	15.58
538.576	15.9
538.92	16.22
539.264	16.5
539.608	16.75
539.951	17
540.295	17.28
540.639	17.51
540.983	17.74
541.327	17.98
541.671	18.2
542.014	18.45
542.358	18.67
542.701	18.92
543.045	19.13
543.389	19.36
543.732	19.62
544.075	19.88
544.419	20.14
544.762	20.4
545.105	20.68
545.449	21
545.792	21.28
546.135	21.56
546.478	21.89
546.821	22.24
547.165	22.58
547.508	22.87
547.851	23.21
548.194	23.58
548.536	23.94
548.879	24.3
549.222	24.63
549.565	24.99
549.908	25.33
550.25	25.74
550.593	26.1
550.936	26.49
551.278	26.85
551.621	27.26
551.963	27.66
552.306	28.03
552.648	28.39
552.991	28.77
553.333	29.09
553.675	29.44
554.017	29.82
554.36	30.13
554.702	30.48
555.044	30.8
555.386	31.13
555.728	31.52
556.07	31.88
556.412	32.2
556.754	32.57
557.096	32.93
557.438	33.29
557.78	33.67
558.121	34.02
558.463	34.31
558.805	34.62
559.147	34.94
559.488	35.28
559.83	35.62
560.171	35.91
560.513	36.26
560.854	36.58
561.196	36.88
561.537	37.18
561.878	37.53
562.22	37.92
562.561	38.3
562.902	38.57
563.243	38.85
563.584	39.17
563.925	39.51
564.266	39.77
564.607	40.02
564.948	40.22
565.289	40.52
565.63	40.78
565.971	41.03
566.312	41.23
566.653	41.5
566.993	41.71
567.334	41.98
567.675	42.22
568.015	42.39
568.356	42.62
568.696	42.9
569.037	43.16
569.377	43.37
569.718	43.49
570.058	43.78
570.398	44.02
570.739	44.26
571.079	44.44
571.419	44.66
571.759	44.9
572.099	45.17
572.439	45.38
572.779	45.62
573.119	45.82
573.459	46.08
573.799	46.23
574.139	46.39
574.479	46.56
574.819	46.79
575.158	47
575.498	47.22
575.838	47.35
576.177	47.48
576.517	47.62
576.856	47.87
577.196	48.06
577.535	48.26
577.875	48.42
578.214	48.58
578.553	48.77
578.893	48.95
579.232	49.1
579.571	49.27
579.91	49.4
580.25	49.56
580.589	49.72
580.928	49.86
581.267	50.13
581.606	50.3
581.945	50.41
582.283	50.65
582.622	50.75
582.961	50.99
583.3	51.17
583.639	51.42
583.977	51.57
584.316	51.67
584.654	51.82
584.993	51.95
585.332	52.15
585.67	52.26
586.008	52.39
586.347	52.56
586.685	52.68
587.024	52.8
587.362	52.96
587.7	53.02
588.038	53.23
588.376	53.29
588.715	53.4
589.053	53.57
589.391	53.71
589.729	53.84
590.067	53.96
590.404	54.09
590.742	54.13
591.08	54.21
591.418	54.3
591.756	54.52
592.093	54.72
592.431	54.84
592.769	55.06
593.106	55.11
593.444	55.2
593.781	55.38
594.119	55.56
594.456	55.6
594.793	55.81
595.131	55.85
595.468	56.02
595.805	56.18
596.143	56.17
596.48	56.28
596.817	56.42
597.154	56.45
597.491	56.53
597.828	56.6
598.165	56.72
598.502	56.85
598.839	56.85
599.176	56.89
599.512	56.92
599.849	56.94
600.186	57.13
600.523	57.2
600.859	57.26
601.196	57.23
601.532	57.35
601.869	57.41
602.205	57.47
602.542	57.51
602.878	57.52
603.215	57.58
603.551	57.57
603.887	57.58
604.223	57.71
604.56	57.83
604.896	57.92
605.232	57.96
605.568	57.98
605.904	58.01
606.24	58.08
606.576	58.12
606.912	58.18
607.248	58.21
607.583	58.18
607.919	58.21
608.255	58.38
608.591	58.48
608.926	58.5
609.262	58.64
609.597	58.67
609.933	58.75
610.268	58.91
610.604	58.93
610.939	59.09
611.275	59.13
611.61	59.11
611.945	59.17
612.281	59.18
612.616	59.28
612.951	59.33
613.286	59.29
613.621	59.4
613.956	59.49
614.291	59.52
614.626	59.63
614.961	59.78
615.296	59.72
615.631	59.67
615.966	59.78
616.3	59.7
616.635	59.76
616.97	59.76
617.304	59.79
617.639	59.92
617.973	59.85
618.308	59.91
618.642	59.89
618.977	59.86
619.311	60.04
619.646	60.04
619.98	59.97
620.314	60.1
620.648	60.09
620.983	60.09
621.317	60.06
621.651	60.17
621.985	60.13
622.319	60.15
622.653	60.22
622.987	60.18
623.321	60.24
623.655	60.23
623.988	60.39
624.322	60.38
624.656	60.33
624.99	60.33
625.323	60.34
625.657	60.43
625.99	60.5
626.324	60.47
626.657	60.46
626.991	60.6
627.324	60.59
627.658	60.59
627.991	60.71
628.324	60.8
628.657	60.81
628.991	60.86
629.324	60.93
629.657	60.91
629.99	60.9
630.323	60.97
630.656	60.97
630.989	60.89
631.322	60.9
631.655	60.9
631.987	60.93
632.32	60.92
632.653	60.92
632.986	60.93
633.318	60.98
633.651	61.13
633.984	61.15
634.316	61.12
634.649	61.16
634.981	61.12
635.313	61.15
635.646	61.09
635.978	61.02
636.31	60.96
636.643	61.04
636.975	61.11
637.307	61.11
637.639	61.11
637.971	61.15
638.303	61.16
638.635	61.2
638.967	61.32
639.299	61.42
639.631	61.43
639.963	61.32
640.295	61.18
640.626	60.93
640.958	60.88
641.29	60.88
641.621	60.95
641.953	61
642.285	61.07
642.616	61.24
642.948	61.39
643.279	61.52
643.61	61.66
643.942	61.72
644.273	61.69
644.604	61.66
644.936	61.65
645.267	61.63
645.598	61.6
645.929	61.56
646.26	61.41
646.591	61.36
646.922	61.66
647.253	61.81
647.584	61.94
647.915	62.06
648.245	62.12
648.576	62.02
648.907	61.94
649.238	61.92
649.568	61.87
649.899	61.72
650.229	61.8
650.56	61.84
650.89	61.76
651.221	61.74
651.551	61.89
651.882	61.86
652.212	61.94
652.542	62.1
652.872	61.93
653.203	62.14
653.533	62.32
653.863	62.21
654.193	62.17
654.523	62.2
654.853	62.09
655.183	62.28
655.513	62.38
655.843	62.32
656.172	62.33
656.502	62.42
656.832	62.6
657.162	62.55
657.491	62.45
657.821	62.48
658.15	62.6
658.48	62.55
658.809	62.62
659.139	62.67
659.468	62.5
659.798	62.65
660.127	62.57
660.456	62.56
660.785	62.5
661.115	62.44
661.444	62.53
661.773	62.62
662.102	62.49
662.431	62.56
662.76	62.64
663.089	62.66
663.418	62.48
663.747	62.41
664.076	62.4
664.404	62.41
664.733	62.49
665.062	62.42
665.39	62.41
665.719	62.5
666.048	62.42
666.376	62.52
666.705	62.54
667.033	62.58
667.362	62.5
667.69	62.62
668.018	62.62
