Data from BA55658_Reflection_00008.txt Node
Date: Tue Nov 19 11:55:44 EST 2019
User: vgr7
Spectrometer: USB2G7710
Scans to average: 3
Trigger mode: 4
Integration Time (sec): 2.000000E-2
Electric dark correction enabled: true
Boxcar width: 10
XAxis mode: Wavelengths
Number of Pixels in Spectrum: 2048
>>>>>Begin Spectral Data<<<<<
177.721	-8.5
178.105	-6.41
178.488	18.97
178.871	-33.08
179.254	-53.52
179.636	-12.7
180.019	329.73
180.402	385.71
180.785	-1428.57
181.168	-1265.38
181.55	175.13
181.933	92.99
182.316	46.66
182.698	36.5
183.081	22.26
183.463	15.75
183.846	8.84
184.228	7.37
184.611	-15.21
184.993	-11.14
185.376	-12.55
185.758	-9.33
186.14	-2
186.522	9.85
186.904	-10.41
187.287	-13.78
187.669	-7.12
188.051	-19.84
188.433	-21.73
188.815	-30.68
189.197	-16.45
189.579	-43.97
189.961	-34.05
190.342	-54.73
190.724	-20.61
191.106	-34.15
191.488	-68.51
191.869	123.49
192.251	61.1
192.633	68.58
193.014	179.4
193.396	191.13
193.777	115.74
194.159	208.54
194.54	152.06
194.922	40.73
195.303	36.89
195.684	-95.19
196.065	66.32
196.447	20.32
196.828	111.85
197.209	-21.41
197.59	-13.31
197.971	-64.85
198.352	-45.51
198.733	-2.58
199.114	41.07
199.495	70.02
199.876	161.2
200.257	145.45
200.638	158.77
201.018	445.3
201.399	2356.76
201.78	306.95
202.16	1294.12
202.541	1314.29
202.922	198.83
203.302	214.6
203.683	-1442.11
204.063	-610.81
204.444	-153.76
204.824	-132.48
205.204	-78.48
205.585	-113.95
205.965	-193.71
206.345	-177.99
206.725	-104.71
207.106	-44.42
207.486	-77.24
207.866	-49.55
208.246	-28.97
208.626	-27.67
209.006	-25.49
209.386	-9.72
209.766	-33.12
210.145	2.35
210.525	-1.62
210.905	16.61
211.285	19.96
211.664	43.97
212.044	32.96
212.424	55.25
212.803	60.37
213.183	30.15
213.562	24.69
213.942	31.83
214.321	31.83
214.701	37.75
215.08	27.2
215.459	38.2
215.838	30.44
216.218	38.2
216.597	-2.55
216.976	-40.13
217.355	-39.6
217.734	-38
218.113	-36.23
218.492	-10.56
218.871	-50.39
219.25	-78.23
219.629	234.85
220.008	144.76
220.387	324.53
220.766	-984.42
221.144	1075.41
221.523	232.05
221.902	279.08
222.28	-11200
222.659	-111.05
223.037	-9.84
223.416	14.43
223.794	76.03
224.173	65.33
224.551	91.14
224.929	81.31
225.308	63.76
225.686	36.2
226.064	26.7
226.442	28.94
226.821	29.46
227.199	6.97
227.577	9.63
227.955	15.34
228.333	10.54
228.711	8.82
229.089	10.66
229.467	13.38
229.845	7.71
230.222	2.4
230.6	-0.79
230.978	-0.03
231.356	-1.24
231.733	-6.54
232.111	-5.16
232.488	-7.34
232.866	-4.84
233.243	-7.5
233.621	-1.12
233.998	-3.41
234.376	-5.42
234.753	-4.47
235.13	1.27
235.508	2.85
235.885	1.36
236.262	2.97
236.639	3.08
237.016	4.75
237.393	5.09
237.77	6.94
238.147	6.9
238.524	7.81
238.901	7.19
239.278	7.07
239.655	8.12
240.032	7.13
240.409	6.98
240.785	7.1
241.162	6.97
241.539	6
241.915	6.33
242.292	6.64
242.668	6.41
243.045	5.97
243.421	5.5
243.798	4.81
244.174	4.71
244.551	4.95
244.927	4.64
245.303	4.46
245.679	4.7
246.056	4.75
246.432	4.79
246.808	4.99
247.184	4.98
247.56	4.77
247.936	4.79
248.312	5
248.688	4.97
249.064	5.1
249.44	5.15
249.815	5.45
250.191	5.48
250.567	5.46
250.943	5.51
251.318	5.38
251.694	5.4
252.069	5.36
252.445	5.39
252.82	5.65
253.196	5.84
253.571	5.71
253.947	5.6
254.322	5.12
254.697	4.81
255.073	4.48
255.448	4.42
255.823	4.76
256.198	4.45
256.573	4.33
256.948	4.44
257.323	4.25
257.698	4.07
258.073	4
258.448	4.03
258.823	3.89
259.198	3.9
259.573	3.95
259.948	4.06
260.322	3.98
260.697	3.93
261.072	3.93
261.446	4.03
261.821	4.09
262.195	4.22
262.57	4.24
262.944	4.47
263.319	4.66
263.693	4.43
264.067	4.52
264.442	4.35
264.816	4.11
265.19	4.09
265.564	4.06
265.938	3.93
266.313	3.85
266.687	4
267.061	4.09
267.435	4.27
267.809	4.1
268.183	3.97
268.556	4.02
268.93	4.03
269.304	3.96
269.678	4.03
270.051	3.91
270.425	3.72
270.799	3.59
271.172	3.6
271.546	3.73
271.919	3.57
272.293	3.56
272.666	3.67
273.04	3.77
273.413	3.67
273.787	3.85
274.16	3.88
274.533	3.94
274.906	3.93
275.279	3.87
275.653	4.13
276.026	4.37
276.399	4.18
276.772	4.26
277.145	4.01
277.518	3.94
277.891	3.94
278.263	4.11
278.636	4.09
279.009	4
279.382	3.95
279.755	4.19
280.127	4.5
280.5	4.59
280.872	4.59
281.245	4.75
281.617	4.71
281.99	4.63
282.362	4.54
282.735	4.53
283.107	4.61
283.479	4.57
283.852	4.46
284.224	4.55
284.596	4.39
284.968	4.3
285.34	4.2
285.713	4.3
286.085	4.26
286.457	4.33
286.829	4.24
287.201	4.22
287.572	4.26
287.944	4.25
288.316	4.28
288.688	4.33
289.06	4.31
289.431	4.22
289.803	4.14
290.175	4.09
290.546	4.09
290.918	3.93
291.289	3.78
291.661	3.97
292.032	3.99
292.403	4.08
292.775	4.36
293.146	4.64
293.517	4.51
293.889	4.67
294.26	4.66
294.631	4.85
295.002	4.99
295.373	4.86
295.744	4.98
296.115	4.97
296.486	4.95
296.857	5.12
297.228	5.06
297.599	5.17
297.97	5.41
298.34	5.51
298.711	5.77
299.082	5.82
299.452	5.47
299.823	5.56
300.194	5.56
300.564	5.53
300.935	5.43
301.305	5.49
301.676	5.44
302.046	5.51
302.416	5.45
302.787	5.45
303.157	5.56
303.527	5.44
303.897	5.44
304.267	5.68
304.637	5.69
305.008	6.02
305.378	6.07
305.748	5.98
306.117	6.03
306.487	5.91
306.857	6.01
307.227	6.43
307.597	6.58
307.967	6.59
308.336	6.75
308.706	6.79
309.076	6.95
309.445	7.13
309.815	7.28
310.184	7.29
310.554	7.26
310.923	7.11
311.293	7.16
311.662	7.18
312.031	7.09
312.401	7.19
312.77	7.15
313.139	7.16
313.508	7.19
313.877	7.3
314.246	7.17
314.616	7.19
314.985	7.04
315.353	7.01
315.722	7.13
316.091	7.16
316.46	7.29
316.829	7.29
317.198	7.35
317.567	7.39
317.935	7.64
318.304	7.8
318.672	8.19
319.041	8.45
319.41	8.62
319.778	8.76
320.147	8.75
320.515	8.78
320.883	8.88
321.252	9.03
321.62	9
321.988	9.25
322.357	9.22
322.725	9.45
323.093	9.5
323.461	9.55
323.829	9.6
324.197	9.63
324.565	9.63
324.933	9.59
325.301	9.53
325.669	9.49
326.037	9.69
326.405	9.79
326.772	9.81
327.14	9.93
327.508	10
327.875	9.97
328.243	10.05
328.61	10.2
328.978	10.1
329.346	10.1
329.713	10.13
330.08	10.41
330.448	10.3
330.815	10.26
331.182	10.17
331.55	10.22
331.917	10.09
332.284	10.29
332.651	10.43
333.018	10.28
333.385	10.4
333.752	10.32
334.119	10.22
334.486	10.15
334.853	10.06
335.22	10.05
335.587	10.16
335.954	10.08
336.32	9.95
336.687	10.18
337.054	10.2
337.42	10.34
337.787	10.29
338.153	10.26
338.52	10.35
338.886	10.4
339.253	10.46
339.619	10.57
339.986	10.6
340.352	10.53
340.718	10.67
341.084	10.53
341.451	10.52
341.817	10.55
342.183	10.59
342.549	10.62
342.915	10.72
343.281	10.58
343.647	10.69
344.013	10.8
344.379	10.73
344.745	10.72
345.11	10.63
345.476	10.68
345.842	10.84
346.208	10.79
346.573	10.75
346.939	10.63
347.304	10.71
347.67	10.57
348.035	10.54
348.401	10.46
348.766	10.51
349.132	10.51
349.497	10.53
349.862	10.6
350.228	10.61
350.593	10.54
350.958	10.55
351.323	10.51
351.688	10.43
352.053	10.33
352.418	10.38
352.783	10.34
353.148	10.21
353.513	10.11
353.878	10.06
354.243	10.06
354.608	10.08
354.972	9.9
355.337	9.9
355.702	9.84
356.066	9.84
356.431	9.75
356.795	9.66
357.16	9.58
357.524	9.5
357.889	9.32
358.253	9.14
358.618	9.1
358.982	8.96
359.346	8.9
359.71	8.86
360.075	8.75
360.439	8.77
360.803	8.8
361.167	8.8
361.531	8.7
361.895	8.67
362.259	8.66
362.623	8.64
362.987	8.62
363.351	8.59
363.714	8.57
364.078	8.56
364.442	8.45
364.806	8.4
365.169	8.29
365.533	8.35
365.896	8.41
366.26	8.35
366.623	8.35
366.987	8.35
367.35	8.26
367.714	8.22
368.077	8.15
368.44	8.02
368.803	7.89
369.167	7.86
369.53	7.85
369.893	7.78
370.256	7.71
370.619	7.6
370.982	7.48
371.345	7.4
371.708	7.31
372.071	7.28
372.434	7.2
372.797	7.13
373.159	7.05
373.522	6.96
373.885	6.92
374.247	6.82
374.61	6.65
374.973	6.6
375.335	6.57
375.698	6.47
376.06	6.45
376.423	6.33
376.785	6.31
377.147	6.2
377.51	6.08
377.872	6.06
378.234	6.02
378.596	6
378.958	5.98
379.321	5.96
379.683	5.97
380.045	5.96
380.407	5.93
380.769	5.85
381.13	5.83
381.492	5.74
381.854	5.72
382.216	5.76
382.578	5.71
382.939	5.63
383.301	5.62
383.663	5.55
384.024	5.59
384.386	5.57
384.747	5.53
385.109	5.55
385.47	5.45
385.832	5.36
386.193	5.29
386.554	5.22
386.916	5.15
387.277	5.04
387.638	5
387.999	5
388.36	4.98
388.721	4.92
389.082	4.94
389.443	4.94
389.804	4.88
390.165	4.87
390.526	4.82
390.887	4.77
391.248	4.78
391.609	4.73
391.969	4.65
392.33	4.63
392.691	4.58
393.051	4.54
393.412	4.55
393.772	4.59
394.133	4.57
394.493	4.52
394.854	4.52
395.214	4.49
395.574	4.4
395.935	4.35
396.295	4.31
396.655	4.26
397.015	4.19
397.376	4.17
397.736	4.1
398.096	4.13
398.456	4.09
398.816	4.01
399.176	4
399.535	3.95
399.895	3.91
400.255	3.89
400.615	3.92
400.975	3.9
401.334	3.83
401.694	3.82
402.054	3.8
402.413	3.8
402.773	3.74
403.132	3.73
403.492	3.75
403.851	3.76
404.211	3.73
404.57	3.77
404.929	3.72
405.288	3.75
405.648	3.71
406.007	3.72
406.366	3.73
406.725	3.72
407.084	3.74
407.443	3.7
407.802	3.67
408.161	3.66
408.52	3.67
408.879	3.65
409.238	3.65
409.596	3.68
409.955	3.65
410.314	3.66
410.673	3.68
411.031	3.64
411.39	3.61
411.748	3.61
412.107	3.58
412.465	3.57
412.824	3.54
413.182	3.52
413.54	3.52
413.899	3.47
414.257	3.45
414.615	3.44
414.974	3.46
415.332	3.46
415.69	3.45
416.048	3.41
416.406	3.38
416.764	3.34
417.122	3.3
417.48	3.28
417.838	3.26
418.195	3.23
418.553	3.22
418.911	3.22
419.269	3.19
419.626	3.18
419.984	3.18
420.342	3.17
420.699	3.16
421.057	3.14
421.414	3.15
421.772	3.14
422.129	3.13
422.486	3.13
422.844	3.12
423.201	3.11
423.558	3.1
423.915	3.12
424.273	3.12
424.63	3.13
424.987	3.14
425.344	3.14
425.701	3.13
426.058	3.14
426.415	3.13
426.772	3.14
427.128	3.15
427.485	3.13
427.842	3.13
428.199	3.12
428.555	3.13
428.912	3.13
429.269	3.12
429.625	3.09
429.982	3.07
430.338	3.08
430.695	3.05
431.051	3.07
431.407	3.07
431.764	3.05
432.12	3.04
432.476	3.01
432.832	3.02
433.189	3.01
433.545	2.99
433.901	3
434.257	2.98
434.613	2.97
434.969	2.98
435.325	2.98
435.681	2.97
436.036	2.96
436.392	2.95
436.748	2.94
437.104	2.94
437.459	2.95
437.815	2.93
438.171	2.95
438.526	2.92
438.882	2.9
439.237	2.91
439.593	2.91
439.948	2.92
440.304	2.91
440.659	2.93
441.014	2.92
441.369	2.92
441.725	2.93
442.08	2.92
442.435	2.91
442.79	2.91
443.145	2.92
443.5	2.91
443.855	2.91
444.21	2.9
444.565	2.91
444.92	2.91
445.275	2.9
445.629	2.89
445.984	2.9
446.339	2.91
446.693	2.91
447.048	2.87
447.403	2.86
447.757	2.85
448.112	2.84
448.466	2.86
448.82	2.83
449.175	2.81
449.529	2.83
449.883	2.83
450.238	2.84
450.592	2.83
450.946	2.84
451.3	2.85
451.654	2.85
452.008	2.85
452.362	2.83
452.716	2.86
453.07	2.84
453.424	2.84
453.778	2.82
454.132	2.81
454.486	2.83
454.839	2.83
455.193	2.85
455.547	2.87
455.9	2.87
456.254	2.9
456.607	2.9
456.961	2.88
457.314	2.87
457.668	2.85
458.021	2.86
458.375	2.84
458.728	2.84
459.081	2.84
459.434	2.84
459.787	2.87
460.141	2.87
460.494	2.88
460.847	2.88
461.2	2.88
461.553	2.91
461.906	2.92
462.259	2.94
462.611	2.93
462.964	2.92
463.317	2.91
463.67	2.89
464.022	2.88
464.375	2.88
464.728	2.88
465.08	2.9
465.433	2.91
465.785	2.94
466.138	2.93
466.49	2.93
466.843	2.96
467.195	2.95
467.547	2.93
467.899	2.96
468.252	2.97
468.604	2.96
468.956	2.97
469.308	2.97
469.66	2.99
470.012	2.99
470.364	3.01
470.716	3.01
471.068	3.03
471.42	3.05
471.772	3.07
472.123	3.08
472.475	3.1
472.827	3.08
473.178	3.06
473.53	3.06
473.882	3.06
474.233	3.05
474.585	3.04
474.936	3.04
475.288	3
475.639	3.03
475.99	3.03
476.342	3.01
476.693	2.99
477.044	2.97
477.395	2.98
477.746	2.97
478.097	2.98
478.448	2.96
478.8	2.95
479.15	2.93
479.501	2.93
479.852	2.9
480.203	2.9
480.554	2.89
480.905	2.91
481.255	2.92
481.606	2.91
481.957	2.91
482.307	2.91
482.658	2.92
483.009	2.91
483.359	2.92
483.709	2.92
484.06	2.93
484.41	2.93
484.761	2.94
485.111	2.94
485.461	2.94
485.811	2.94
486.162	2.95
486.512	2.96
486.862	2.97
487.212	2.99
487.562	2.99
487.912	3
488.262	2.99
488.612	3
488.961	3.01
489.311	3.02
489.661	3.02
490.011	3.04
490.36	3.04
490.71	3.04
491.06	3.04
491.409	3.05
491.759	3.06
492.108	3.07
492.458	3.07
492.807	3.09
493.157	3.1
493.506	3.11
493.855	3.11
494.204	3.12
494.554	3.13
494.903	3.16
495.252	3.19
495.601	3.22
495.95	3.23
496.299	3.25
496.648	3.29
496.997	3.32
497.346	3.34
497.695	3.38
498.043	3.4
498.392	3.45
498.741	3.47
499.09	3.49
499.438	3.51
499.787	3.54
500.135	3.57
500.484	3.61
500.832	3.66
501.181	3.7
501.529	3.73
501.878	3.76
502.226	3.79
502.574	3.81
502.923	3.84
503.271	3.87
503.619	3.91
503.967	3.95
504.315	3.99
504.663	4.03
505.011	4.07
505.359	4.09
505.707	4.14
506.055	4.17
506.403	4.23
506.751	4.27
507.098	4.35
507.446	4.41
507.794	4.47
508.141	4.53
508.489	4.61
508.837	4.68
509.184	4.75
509.531	4.8
509.879	4.85
510.226	4.91
510.574	4.99
510.921	5.05
511.268	5.11
511.616	5.18
511.963	5.24
512.31	5.31
512.657	5.38
513.004	5.45
513.351	5.53
513.698	5.59
514.045	5.68
514.392	5.75
514.739	5.8
515.086	5.89
515.432	5.94
515.779	5.99
516.126	6.05
516.473	6.13
516.819	6.19
517.166	6.3
517.512	6.35
517.859	6.43
518.205	6.49
518.552	6.58
518.898	6.65
519.245	6.74
519.591	6.84
519.937	6.95
520.283	7.05
520.629	7.15
520.976	7.29
521.322	7.41
521.668	7.51
522.014	7.67
522.36	7.77
522.706	7.92
523.052	8.08
523.398	8.28
523.743	8.45
524.089	8.64
524.435	8.77
524.781	8.93
525.126	9.1
525.472	9.27
525.817	9.41
526.163	9.53
526.509	9.65
526.854	9.76
527.199	9.86
527.545	9.97
527.89	10.09
528.235	10.21
528.581	10.33
528.926	10.46
529.271	10.57
529.616	10.71
529.961	10.85
530.306	10.98
530.651	11.11
530.996	11.26
531.341	11.42
531.686	11.62
532.031	11.79
532.376	11.96
532.721	12.13
533.065	12.31
533.41	12.5
533.755	12.69
534.099	12.91
534.444	13.11
534.788	13.33
535.133	13.52
535.477	13.72
535.822	13.94
536.166	14.19
536.51	14.47
536.855	14.72
537.199	15
537.543	15.3
537.887	15.6
538.231	15.89
538.576	16.18
538.92	16.46
539.264	16.76
539.608	17.04
539.951	17.3
540.295	17.57
540.639	17.82
540.983	18.09
541.327	18.34
541.671	18.58
542.014	18.83
542.358	19.07
542.701	19.31
543.045	19.54
543.389	19.79
543.732	20.04
544.075	20.3
544.419	20.55
544.762	20.82
545.105	21.12
545.449	21.43
545.792	21.76
546.135	22.08
546.478	22.42
546.821	22.77
547.165	23.12
547.508	23.47
547.851	23.84
548.194	24.18
548.536	24.55
548.879	24.92
549.222	25.28
549.565	25.66
549.908	26.03
550.25	26.41
550.593	26.76
550.936	27.1
551.278	27.54
551.621	27.93
551.963	28.32
552.306	28.69
552.648	29.06
552.991	29.38
553.333	29.78
553.675	30.13
554.017	30.46
554.36	30.84
554.702	31.16
555.044	31.49
555.386	31.86
555.728	32.21
556.07	32.57
556.412	32.96
556.754	33.38
557.096	33.74
557.438	34.16
557.78	34.56
558.121	34.95
558.463	35.3
558.805	35.63
559.147	36.04
559.488	36.3
559.83	36.69
560.171	37.08
560.513	37.4
560.854	37.7
561.196	38.09
561.537	38.34
561.878	38.68
562.22	39.03
562.561	39.41
562.902	39.71
563.243	40.04
563.584	40.4
563.925	40.68
564.266	40.94
564.607	41.16
564.948	41.45
565.289	41.75
565.63	41.98
565.971	42.29
566.312	42.53
566.653	42.89
566.993	43.12
567.334	43.38
567.675	43.7
568.015	44
568.356	44.31
568.696	44.66
569.037	44.95
569.377	45.21
569.718	45.48
570.058	45.77
570.398	46.08
570.739	46.32
571.079	46.55
571.419	46.82
571.759	47.14
572.099	47.32
572.439	47.62
572.779	47.89
573.119	48.18
573.459	48.4
573.799	48.56
574.139	48.78
574.479	48.99
574.819	49.19
575.158	49.37
575.498	49.5
575.838	49.67
576.177	49.82
576.517	50.02
576.856	50.23
577.196	50.48
577.535	50.67
577.875	50.77
578.214	50.95
578.553	51.2
578.893	51.36
579.232	51.6
579.571	51.71
579.91	51.92
580.25	51.97
580.589	52.14
580.928	52.33
581.267	52.54
581.606	52.71
581.945	52.87
582.283	53.06
582.622	53.26
582.961	53.45
583.3	53.72
583.639	53.89
583.977	53.97
584.316	54.11
584.654	54.22
584.993	54.48
585.332	54.65
585.67	54.79
586.008	54.98
586.347	55.2
586.685	55.23
587.024	55.39
587.362	55.7
587.7	55.9
588.038	56.09
588.376	56.25
588.715	56.39
589.053	56.52
589.391	56.6
589.729	56.82
590.067	57
590.404	57.12
590.742	57.3
591.08	57.54
591.418	57.67
591.756	57.86
592.093	57.92
592.431	58.15
592.769	58.25
593.106	58.31
593.444	58.42
593.781	58.64
594.119	58.74
594.456	58.74
594.793	58.84
595.131	58.91
595.468	58.97
595.805	59.09
596.143	59.2
596.48	59.34
596.817	59.38
597.154	59.42
597.491	59.53
597.828	59.52
598.165	59.58
598.502	59.63
598.839	59.73
599.176	59.88
599.512	59.93
599.849	60.06
600.186	60.19
600.523	60.35
600.859	60.46
601.196	60.45
601.532	60.56
601.869	60.67
602.205	60.76
602.542	60.88
602.878	60.88
603.215	60.86
603.551	60.93
603.887	60.98
604.223	61.1
604.56	61.11
604.896	61.2
605.232	61.2
605.568	61.27
605.904	61.28
606.24	61.39
606.576	61.4
606.912	61.43
607.248	61.44
607.583	61.39
607.919	61.43
608.255	61.64
608.591	61.68
608.926	61.66
609.262	61.68
609.597	61.67
609.933	61.74
610.268	61.87
610.604	61.94
610.939	62
611.275	61.96
611.61	62.03
611.945	62.12
612.281	62.19
612.616	62.28
612.951	62.33
613.286	62.28
613.621	62.39
613.956	62.53
614.291	62.6
614.626	62.71
614.961	62.74
615.296	62.72
615.631	62.76
615.966	62.89
616.3	63.02
616.635	63.18
616.97	63.36
617.304	63.39
617.639	63.4
617.973	63.5
618.308	63.65
618.642	63.62
618.977	63.63
619.311	63.68
619.646	63.69
619.98	63.66
620.314	63.75
620.648	63.78
620.983	63.71
621.317	63.75
621.651	63.85
621.985	63.97
622.319	63.91
622.653	64.03
622.987	63.93
623.321	63.93
623.655	63.88
623.988	63.93
624.322	64
624.656	64.14
624.99	64.1
625.323	64.06
625.657	64.14
625.99	64.19
626.324	64.23
626.657	64.2
626.991	64.24
627.324	64.24
627.658	64.31
627.991	64.51
628.324	64.61
628.657	64.58
628.991	64.55
629.324	64.62
629.657	64.51
629.99	64.68
630.323	64.7
630.656	64.7
630.989	64.63
631.322	64.56
631.655	64.43
631.987	64.53
632.32	64.54
632.653	64.45
632.986	64.48
633.318	64.46
633.651	64.61
633.984	64.81
634.316	64.72
634.649	64.67
634.981	64.51
635.313	64.5
635.646	64.53
635.978	64.53
636.31	64.49
636.643	64.61
636.975	64.64
637.307	64.69
637.639	64.72
637.971	64.74
638.303	64.85
638.635	64.94
638.967	65.01
639.299	65.07
639.631	65.22
639.963	65.24
640.295	65.27
640.626	65.12
640.958	64.95
641.29	65.1
641.621	65.12
641.953	65.28
642.285	65.31
642.616	65.26
642.948	65.22
643.279	65.31
643.61	65.33
643.942	65.33
644.273	65.32
644.604	65.43
644.936	65.47
645.267	65.55
645.598	65.51
645.929	65.42
646.26	65.25
646.591	65.19
646.922	65.47
647.253	65.51
647.584	65.49
647.915	65.54
648.245	65.53
648.576	65.46
648.907	65.33
649.238	65.35
649.568	65.44
649.899	65.43
650.229	65.47
650.56	65.47
650.89	65.33
651.221	65.28
651.551	65.25
651.882	65.27
652.212	65.26
652.542	65.26
652.872	65.15
653.203	65.3
653.533	65.49
653.863	65.31
654.193	65.33
654.523	65.54
654.853	65.53
655.183	65.6
655.513	65.76
655.843	65.68
656.172	65.78
656.502	65.82
656.832	65.94
657.162	66.05
657.491	66.08
657.821	66.17
658.15	66.26
658.48	66.33
658.809	66.33
659.139	66.36
659.468	66.34
659.798	66.42
660.127	66.36
660.456	66.24
660.785	66.19
661.115	66.1
661.444	66.08
661.773	66.18
662.102	66.12
662.431	66.1
662.76	66.23
663.089	66.23
663.418	66.19
663.747	66.17
664.076	66.08
664.404	66.14
664.733	66.24
665.062	66.28
665.39	66.15
665.719	66.24
666.048	66.27
666.376	66.35
666.705	66.35
667.033	66.36
667.362	66.29
