Data from BA55658_Reflection_00013.txt Node
Date: Tue Nov 19 11:55:56 EST 2019
User: vgr7
Spectrometer: USB2G7710
Scans to average: 3
Trigger mode: 4
Integration Time (sec): 2.000000E-2
Electric dark correction enabled: true
Boxcar width: 10
XAxis mode: Wavelengths
Number of Pixels in Spectrum: 2048
>>>>>Begin Spectral Data<<<<<
177.721	5.59
178.105	-2.04
178.488	-3.12
178.871	-21.54
179.254	-32.39
179.636	-135.66
180.019	-359.46
180.402	142.86
180.785	1614.29
181.168	753.85
181.55	-3.63
181.933	17.84
182.316	-4.34
182.698	-17.14
183.081	9.84
183.463	32.2
183.846	53.36
184.228	42.83
184.611	34.42
184.993	24.93
185.376	34.11
185.758	38.69
186.14	37.66
186.522	38.04
186.904	34.79
187.287	36.19
187.669	32.38
188.051	44.24
188.433	77
188.815	76.96
189.197	92.4
189.579	125.76
189.961	188.95
190.342	417.14
190.724	418.5
191.106	-3875.61
191.488	867.96
191.869	-893.29
192.251	-271.92
192.633	-268.04
193.014	-599.57
193.396	-540.39
193.777	-251.09
194.159	-341.28
194.54	-192.98
194.922	-167.11
195.303	-181.55
195.684	538.5
196.065	587.05
196.447	138.53
196.828	303.79
197.209	96.18
197.59	108.32
197.971	86.38
198.352	-29.1
198.733	-5.01
199.114	-15.43
199.495	-66.34
199.876	-77.83
200.257	-60.54
200.638	-12.12
201.018	105.52
201.399	1018.92
201.78	112.08
202.16	394.12
202.541	605.49
202.922	107.83
203.302	168.97
203.683	-763.16
204.063	-327.03
204.444	-90.15
204.824	-142.04
205.204	-74.59
205.585	-90.7
205.965	-196.66
206.345	-237.76
206.725	-183.88
207.106	-142.81
207.486	-182.76
207.866	-143.9
208.246	-100.98
208.626	-123.8
209.006	-126.02
209.386	-102.37
209.766	-111.46
210.145	-69.32
210.525	-70.85
210.905	-43.06
211.285	-22.95
211.664	-19.57
212.044	-17.5
212.424	-13.95
212.803	19.47
213.183	3.38
213.562	17.88
213.942	21.77
214.321	34.11
214.701	24.72
215.08	28.16
215.459	33.77
215.838	18.43
216.218	26.16
216.597	19.53
216.976	-15.59
217.355	-7.9
217.734	-39.92
218.113	-25.53
218.492	-29.81
218.871	-52.76
219.25	-158.68
219.629	241.08
220.008	186.96
220.387	273.58
220.766	-1393.51
221.144	1837.7
221.523	494.66
221.902	506.88
222.28	-36100
222.659	-293.77
223.037	-191.74
223.416	-254.64
223.794	-144.63
224.173	-73.91
224.551	-63.71
224.929	-21.24
225.308	-43.04
225.686	-24.05
226.064	-42.78
226.442	-22.25
226.821	-12.65
227.199	-7.33
227.577	-11.76
227.955	-8.58
228.333	-12.42
228.711	-6.76
229.089	-1.94
229.467	3.55
229.845	6.98
230.222	7.13
230.6	-1.42
230.978	1.31
231.356	1.09
231.733	-0.45
232.111	-0.36
232.488	3.1
232.866	2.59
233.243	3.09
233.621	4.53
233.998	5.44
234.376	3.55
234.753	1.4
235.13	2.1
235.508	4.1
235.885	3.75
236.262	4.59
236.639	4.03
237.016	3.06
237.393	3.93
237.77	2.7
238.147	2.86
238.524	4.39
238.901	4.5
239.278	5.07
239.655	5.95
240.032	6.2
240.409	5.3
240.785	5.34
241.162	7.01
241.539	5.89
241.915	5.87
242.292	6.07
242.668	6.32
243.045	6.55
243.421	6.29
243.798	6.8
244.174	6.49
244.551	6.36
244.927	6.07
245.303	5.88
245.679	5.89
246.056	5.56
246.432	5.64
246.808	5.47
247.184	5.5
247.56	5.05
247.936	4.52
248.312	4.38
248.688	4.3
249.064	3.98
249.44	4.22
249.815	4.22
250.191	4.19
250.567	4.19
250.943	3.99
251.318	3.94
251.694	3.6
252.069	3.49
252.445	3.28
252.82	3.46
253.196	3.53
253.571	3.89
253.947	4.22
254.322	3.71
254.697	3.75
255.073	3.92
255.448	4.05
255.823	4.54
256.198	4.77
256.573	4.82
256.948	4.81
257.323	4.87
257.698	4.9
258.073	4.72
258.448	4.76
258.823	4.62
259.198	4.6
259.573	4.49
259.948	4.69
260.322	4.72
260.697	4.75
261.072	4.6
261.446	4.59
261.821	4.31
262.195	4.51
262.57	4.59
262.944	4.44
263.319	4.55
263.693	4.53
264.067	4.45
264.442	4.16
264.816	4.04
265.19	4.02
265.564	3.92
265.938	4.1
266.313	3.91
266.687	4.06
267.061	3.98
267.435	4
267.809	3.82
268.183	3.82
268.556	3.66
268.93	3.89
269.304	3.74
269.678	4.06
270.051	4.12
270.425	3.91
270.799	3.81
271.172	3.84
271.546	3.99
271.919	3.87
272.293	4.24
272.666	4.28
273.04	4.27
273.413	4.19
273.787	4.23
274.16	4.2
274.533	4.29
274.906	4.26
275.279	4.37
275.653	4.4
276.026	4.45
276.399	4.61
276.772	4.58
277.145	4.57
277.518	4.2
277.891	4.01
278.263	4.14
278.636	4.04
279.009	3.95
279.382	3.63
279.755	3.75
280.127	3.54
280.5	3.49
280.872	3.41
281.245	3.45
281.617	3.46
281.99	3.44
282.362	3.21
282.735	3.35
283.107	3.36
283.479	3.42
283.852	3.53
284.224	3.63
284.596	3.53
284.968	3.5
285.34	3.74
285.713	3.76
286.085	3.67
286.457	3.77
286.829	3.84
287.201	3.86
287.572	3.91
287.944	4.07
288.316	4.12
288.688	4.34
289.06	4.48
289.431	4.61
289.803	4.83
290.175	4.98
290.546	4.99
290.918	5.03
291.289	5.02
291.661	5.07
292.032	4.93
292.403	5.19
292.775	5.55
293.146	5.63
293.517	5.78
293.889	5.97
294.26	6.15
294.631	6.25
295.002	6.4
295.373	6.55
295.744	6.49
296.115	6.73
296.486	6.73
296.857	6.78
297.228	6.59
297.599	6.59
297.97	6.68
298.34	6.86
298.711	6.94
299.082	7.11
299.452	7.26
299.823	7.33
300.194	7.17
300.564	7.04
300.935	7.24
301.305	7.35
301.676	7.35
302.046	7.36
302.416	7.38
302.787	7.56
303.157	7.6
303.527	7.88
303.897	7.73
304.267	7.72
304.637	7.98
305.008	8.29
305.378	8.48
305.748	8.63
306.117	8.59
306.487	8.91
306.857	9.07
307.227	9.28
307.597	9.31
307.967	9.56
308.336	9.76
308.706	9.87
309.076	10.09
309.445	10.39
309.815	10.64
310.184	10.8
310.554	10.93
310.923	11.01
311.293	10.99
311.662	11.19
312.031	11.39
312.401	11.53
312.77	11.67
313.139	11.79
313.508	11.8
313.877	12.04
314.246	11.98
314.616	12.06
314.985	12.03
315.353	12.34
315.722	12.6
316.091	12.6
316.46	12.62
316.829	12.61
317.198	12.48
317.567	12.62
317.935	12.65
318.304	12.74
318.672	12.83
319.041	13
319.41	13.18
319.778	13.23
320.147	13.03
320.515	13.18
320.883	13.32
321.252	13.46
321.62	13.55
321.988	13.58
322.357	13.68
322.725	13.69
323.093	13.78
323.461	13.67
323.829	13.8
324.197	13.76
324.565	13.78
324.933	13.94
325.301	13.86
325.669	14.06
326.037	14.09
326.405	14.24
326.772	14.29
327.14	14.29
327.508	14.21
327.875	14.26
328.243	14.1
328.61	14.04
328.978	14.17
329.346	14.33
329.713	14.38
330.08	14.43
330.448	14.43
330.815	14.51
331.182	14.4
331.55	14.56
331.917	14.71
332.284	14.7
332.651	14.71
333.018	14.76
333.385	14.7
333.752	14.63
334.119	14.51
334.486	14.54
334.853	14.6
335.22	14.69
335.587	14.67
335.954	14.82
336.32	14.78
336.687	14.85
337.054	14.59
337.42	14.77
337.787	14.68
338.153	14.64
338.52	14.8
338.886	14.97
339.253	14.8
339.619	14.75
339.986	14.93
340.352	14.96
340.718	14.98
341.084	14.87
341.451	15.02
341.817	15.08
342.183	15.06
342.549	15.11
342.915	15.22
343.281	15.34
343.647	15.29
344.013	15.36
344.379	15.28
344.745	15.48
345.11	15.31
345.476	15.34
345.842	15.42
346.208	15.4
346.573	15.49
346.939	15.58
347.304	15.65
347.67	15.66
348.035	15.69
348.401	15.63
348.766	15.69
349.132	15.7
349.497	15.79
349.862	15.78
350.228	15.67
350.593	15.66
350.958	15.66
351.323	15.72
351.688	15.62
352.053	15.51
352.418	15.51
352.783	15.49
353.148	15.36
353.513	15.26
353.878	15.19
354.243	15.08
354.608	15.01
354.972	14.87
355.337	14.75
355.702	14.62
356.066	14.51
356.431	14.38
356.795	14.31
357.16	14.19
357.524	14.16
357.889	14.08
358.253	13.98
358.618	13.89
358.982	13.76
359.346	13.71
359.71	13.72
360.075	13.57
360.439	13.54
360.803	13.59
361.167	13.48
361.531	13.31
361.895	13.2
362.259	13.18
362.623	13.14
362.987	12.95
363.351	12.86
363.714	12.92
364.078	12.97
364.442	12.78
364.806	12.72
365.169	12.57
365.533	12.46
365.896	12.42
366.26	12.28
366.623	12.19
366.987	12.1
367.35	12
367.714	11.97
368.077	11.83
368.44	11.71
368.803	11.59
369.167	11.47
369.53	11.43
369.893	11.26
370.256	11.11
370.619	11.11
370.982	11.05
371.345	10.89
371.708	10.76
372.071	10.67
372.434	10.55
372.797	10.46
373.159	10.35
373.522	10.17
373.885	10.06
374.247	9.99
374.61	9.9
374.973	9.78
375.335	9.66
375.698	9.59
376.06	9.5
376.423	9.46
376.785	9.49
377.147	9.34
377.51	9.31
377.872	9.26
378.234	9.18
378.596	9.11
378.958	8.99
379.321	8.87
379.683	8.84
380.045	8.76
380.407	8.7
380.769	8.6
381.13	8.53
381.492	8.48
381.854	8.43
382.216	8.33
382.578	8.28
382.939	8.23
383.301	8.12
383.663	8.03
384.024	7.98
384.386	7.92
384.747	7.82
385.109	7.74
385.47	7.67
385.832	7.58
386.193	7.5
386.554	7.42
386.916	7.38
387.277	7.31
387.638	7.26
387.999	7.18
388.36	7.16
388.721	7.1
389.082	7.04
389.443	6.94
389.804	6.86
390.165	6.74
390.526	6.62
390.887	6.52
391.248	6.51
391.609	6.45
391.969	6.34
392.33	6.34
392.691	6.28
393.051	6.2
393.412	6.16
393.772	6.14
394.133	6.12
394.493	6.05
394.854	6.01
395.214	5.92
395.574	5.9
395.935	5.87
396.295	5.85
396.655	5.76
397.015	5.71
397.376	5.67
397.736	5.61
398.096	5.61
398.456	5.58
398.816	5.47
399.176	5.39
399.535	5.32
399.895	5.26
400.255	5.2
400.615	5.18
400.975	5.16
401.334	5.11
401.694	5.05
402.054	5.02
402.413	4.94
402.773	4.95
403.132	4.86
403.492	4.84
403.851	4.75
404.211	4.72
404.57	4.68
404.929	4.64
405.288	4.66
405.648	4.59
406.007	4.56
406.366	4.58
406.725	4.62
407.084	4.58
407.443	4.58
407.802	4.54
408.161	4.51
408.52	4.51
408.879	4.43
409.238	4.44
409.596	4.41
409.955	4.38
410.314	4.33
410.673	4.36
411.031	4.32
411.39	4.3
411.748	4.31
412.107	4.28
412.465	4.27
412.824	4.24
413.182	4.25
413.54	4.21
413.899	4.14
414.257	4.04
414.615	4.04
414.974	3.99
415.332	3.99
415.69	3.96
416.048	3.9
416.406	3.88
416.764	3.83
417.122	3.81
417.48	3.8
417.838	3.77
418.195	3.73
418.553	3.69
418.911	3.68
419.269	3.68
419.626	3.66
419.984	3.65
420.342	3.62
420.699	3.59
421.057	3.59
421.414	3.6
421.772	3.57
422.129	3.54
422.486	3.53
422.844	3.5
423.201	3.49
423.558	3.49
423.915	3.47
424.273	3.46
424.63	3.46
424.987	3.45
425.344	3.43
425.701	3.42
426.058	3.42
426.415	3.42
426.772	3.38
427.128	3.37
427.485	3.36
427.842	3.34
428.199	3.32
428.555	3.3
428.912	3.28
429.269	3.29
429.625	3.31
429.982	3.3
430.338	3.28
430.695	3.3
431.051	3.31
431.407	3.31
431.764	3.31
432.12	3.3
432.476	3.3
432.832	3.33
433.189	3.34
433.545	3.33
433.901	3.32
434.257	3.34
434.613	3.34
434.969	3.34
435.325	3.35
435.681	3.35
436.036	3.34
436.392	3.34
436.748	3.33
437.104	3.33
437.459	3.31
437.815	3.32
438.171	3.3
438.526	3.3
438.882	3.3
439.237	3.3
439.593	3.31
439.948	3.3
440.304	3.26
440.659	3.26
441.014	3.24
441.369	3.25
441.725	3.23
442.08	3.22
442.435	3.22
442.79	3.2
443.145	3.2
443.5	3.19
443.855	3.2
444.21	3.2
444.565	3.2
444.92	3.2
445.275	3.2
445.629	3.19
445.984	3.16
446.339	3.15
446.693	3.14
447.048	3.11
447.403	3.09
447.757	3.11
448.112	3.08
448.466	3.08
448.82	3.06
449.175	3.06
449.529	3.05
449.883	3.04
450.238	3.04
450.592	3.04
450.946	3.03
451.3	3.01
451.654	2.99
452.008	2.98
452.362	2.96
452.716	2.94
453.07	2.96
453.424	2.96
453.778	2.97
454.132	2.97
454.486	2.99
454.839	3.01
455.193	3.02
455.547	3.03
455.9	3.03
456.254	3.05
456.607	3.03
456.961	3.04
457.314	3.04
457.668	3.03
458.021	3.02
458.375	3.03
458.728	3.04
459.081	3.05
459.434	3.04
459.787	3.05
460.141	3.06
460.494	3.06
460.847	3.07
461.2	3.07
461.553	3.09
461.906	3.08
462.259	3.06
462.611	3.07
462.964	3.09
463.317	3.1
463.67	3.11
464.022	3.14
464.375	3.14
464.728	3.16
465.08	3.18
465.433	3.19
465.785	3.23
466.138	3.23
466.49	3.23
466.843	3.26
467.195	3.27
467.547	3.28
467.899	3.28
468.252	3.26
468.604	3.28
468.956	3.27
469.308	3.29
469.66	3.3
470.012	3.3
470.364	3.31
470.716	3.31
471.068	3.29
471.42	3.29
471.772	3.31
472.123	3.33
472.475	3.33
472.827	3.35
473.178	3.32
473.53	3.33
473.882	3.34
474.233	3.34
474.585	3.34
474.936	3.32
475.288	3.3
475.639	3.31
475.99	3.29
476.342	3.27
476.693	3.26
477.044	3.28
477.395	3.26
477.746	3.24
478.097	3.25
478.448	3.24
478.8	3.21
479.15	3.19
479.501	3.19
479.852	3.18
480.203	3.17
480.554	3.18
480.905	3.17
481.255	3.17
481.606	3.18
481.957	3.18
482.307	3.17
482.658	3.18
483.009	3.19
483.359	3.19
483.709	3.2
484.06	3.21
484.41	3.2
484.761	3.21
485.111	3.22
485.461	3.23
485.811	3.24
486.162	3.26
486.512	3.27
486.862	3.28
487.212	3.3
487.562	3.29
487.912	3.29
488.262	3.3
488.612	3.31
488.961	3.32
489.311	3.33
489.661	3.35
490.011	3.35
490.36	3.37
490.71	3.39
491.06	3.41
491.409	3.41
491.759	3.44
492.108	3.44
492.458	3.45
492.807	3.46
493.157	3.48
493.506	3.5
493.855	3.53
494.204	3.53
494.554	3.55
494.903	3.6
495.252	3.63
495.601	3.68
495.95	3.72
496.299	3.75
496.648	3.82
496.997	3.85
497.346	3.92
497.695	3.94
498.043	4.01
498.392	4.05
498.741	4.09
499.09	4.13
499.438	4.2
499.787	4.24
500.135	4.29
500.484	4.34
500.832	4.39
501.181	4.47
501.529	4.54
501.878	4.6
502.226	4.68
502.574	4.75
502.923	4.77
503.271	4.84
503.619	4.92
503.967	4.96
504.315	5.01
504.663	5.08
505.011	5.16
505.359	5.21
505.707	5.28
506.055	5.37
506.403	5.45
506.751	5.51
507.098	5.59
507.446	5.66
507.794	5.76
508.141	5.84
508.489	5.91
508.837	5.99
509.184	6.1
509.531	6.16
509.879	6.23
510.226	6.33
510.574	6.41
510.921	6.48
511.268	6.59
511.616	6.71
511.963	6.79
512.31	6.91
512.657	7.03
513.004	7.13
513.351	7.23
513.698	7.38
514.045	7.46
514.392	7.61
514.739	7.76
515.086	7.88
515.432	8.01
515.779	8.13
516.126	8.28
516.473	8.37
516.819	8.52
517.166	8.65
517.512	8.77
517.859	8.9
518.205	9.03
518.552	9.15
518.898	9.27
519.245	9.4
519.591	9.53
519.937	9.64
520.283	9.8
520.629	9.95
520.976	10.06
521.322	10.28
521.668	10.44
522.014	10.63
522.36	10.82
522.706	11.04
523.052	11.26
523.398	11.47
523.743	11.74
524.089	11.98
524.435	12.24
524.781	12.46
525.126	12.66
525.472	12.86
525.817	13.06
526.163	13.24
526.509	13.44
526.854	13.58
527.199	13.73
527.545	13.86
527.89	14.03
528.235	14.22
528.581	14.39
528.926	14.57
529.271	14.73
529.616	14.89
529.961	15.06
530.306	15.23
530.651	15.43
530.996	15.62
531.341	15.84
531.686	16.04
532.031	16.29
532.376	16.52
532.721	16.76
533.065	17
533.41	17.25
533.755	17.51
534.099	17.78
534.444	18.08
534.788	18.37
535.133	18.63
535.477	18.9
535.822	19.15
536.166	19.46
536.51	19.76
536.855	20.13
537.199	20.48
537.543	20.83
537.887	21.18
538.231	21.55
538.576	21.91
538.92	22.27
539.264	22.6
539.608	22.92
539.951	23.2
540.295	23.5
540.639	23.78
540.983	24.07
541.327	24.37
541.671	24.65
542.014	24.93
542.358	25.23
542.701	25.47
543.045	25.76
543.389	26.03
543.732	26.3
544.075	26.57
544.419	26.85
544.762	27.11
545.105	27.41
545.449	27.72
545.792	28.05
546.135	28.38
546.478	28.75
546.821	29.12
547.165	29.55
547.508	29.91
547.851	30.3
548.194	30.66
548.536	31.04
548.879	31.41
549.222	31.8
549.565	32.15
549.908	32.53
550.25	32.9
550.593	33.28
550.936	33.73
551.278	34.12
551.621	34.49
551.963	34.96
552.306	35.29
552.648	35.62
552.991	35.93
553.333	36.33
553.675	36.67
554.017	37.03
554.36	37.39
554.702	37.76
555.044	38.07
555.386	38.35
555.728	38.64
556.07	38.95
556.412	39.24
556.754	39.54
557.096	39.95
557.438	40.3
557.78	40.6
558.121	40.94
558.463	41.2
558.805	41.57
559.147	41.87
559.488	42.21
559.83	42.59
560.171	42.94
560.513	43.22
560.854	43.5
561.196	43.8
561.537	44.01
561.878	44.3
562.22	44.65
562.561	44.9
562.902	45.17
563.243	45.48
563.584	45.78
563.925	46.09
564.266	46.29
564.607	46.59
564.948	46.8
565.289	47
565.63	47.25
565.971	47.54
566.312	47.77
566.653	48.02
566.993	48.22
567.334	48.43
567.675	48.65
568.015	48.83
568.356	49.09
568.696	49.29
569.037	49.48
569.377	49.66
569.718	49.93
570.058	50.21
570.398	50.4
570.739	50.54
571.079	50.73
571.419	50.89
571.759	51.01
572.099	51.24
572.439	51.47
572.779	51.67
573.119	51.84
573.459	52.03
573.799	52.18
574.139	52.35
574.479	52.51
574.819	52.74
575.158	52.91
575.498	53.05
575.838	53.18
576.177	53.37
576.517	53.49
576.856	53.64
577.196	53.8
577.535	54.01
577.875	54.19
578.214	54.27
578.553	54.44
578.893	54.63
579.232	54.76
579.571	54.83
579.91	54.96
580.25	55.09
580.589	55.28
580.928	55.45
581.267	55.58
581.606	55.71
581.945	55.8
582.283	55.99
582.622	56.1
582.961	56.32
583.3	56.42
583.639	56.63
583.977	56.73
584.316	56.89
584.654	56.95
584.993	57.09
585.332	57.21
585.67	57.48
586.008	57.63
586.347	57.78
586.685	57.81
587.024	57.92
587.362	58.05
587.7	58.02
588.038	58.13
588.376	58.22
588.715	58.32
589.053	58.42
589.391	58.51
589.729	58.66
590.067	58.77
590.404	58.87
590.742	59.01
591.08	59.19
591.418	59.21
591.756	59.29
592.093	59.35
592.431	59.45
592.769	59.43
593.106	59.51
593.444	59.54
593.781	59.75
594.119	59.88
594.456	59.86
594.793	60.04
595.131	60.14
595.468	60.23
595.805	60.29
596.143	60.33
596.48	60.34
596.817	60.39
597.154	60.41
597.491	60.47
597.828	60.55
598.165	60.63
598.502	60.68
598.839	60.79
599.176	60.87
599.512	60.88
599.849	60.92
600.186	60.96
600.523	61.09
600.859	61.17
601.196	61.19
601.532	61.21
601.869	61.26
602.205	61.26
602.542	61.33
602.878	61.4
603.215	61.38
603.551	61.46
603.887	61.49
604.223	61.57
604.56	61.61
604.896	61.66
605.232	61.65
605.568	61.7
605.904	61.68
606.24	61.77
606.576	61.83
606.912	61.85
607.248	61.87
607.583	61.78
607.919	61.75
608.255	61.86
608.591	61.96
608.926	61.98
609.262	62.04
609.597	62.07
609.933	62.13
610.268	62.18
610.604	62.22
610.939	62.3
611.275	62.31
611.61	62.29
611.945	62.26
612.281	62.3
612.616	62.36
612.951	62.36
613.286	62.35
613.621	62.45
613.956	62.57
614.291	62.68
614.626	62.9
614.961	63.07
615.296	63.06
615.631	63.06
615.966	63.17
616.3	63.22
616.635	63.34
616.97	63.33
617.304	63.38
617.639	63.5
617.973	63.4
618.308	63.58
618.642	63.63
618.977	63.62
619.311	63.73
619.646	63.71
619.98	63.73
620.314	63.82
620.648	63.84
620.983	63.92
621.317	63.8
621.651	63.8
621.985	63.74
622.319	63.7
622.653	63.78
622.987	63.72
623.321	63.73
623.655	63.62
623.988	63.67
624.322	63.78
624.656	63.74
624.99	63.78
625.323	63.71
625.657	63.86
625.99	63.95
626.324	63.95
626.657	63.98
626.991	64.07
627.324	64.02
627.658	63.94
627.991	64
628.324	64.02
628.657	64.06
628.991	64.02
629.324	64.05
629.657	64.03
629.99	64.04
630.323	64.07
630.656	64.19
630.989	64.16
631.322	64.01
631.655	63.93
631.987	63.99
632.32	63.94
632.653	63.71
632.986	63.75
633.318	63.69
633.651	63.81
633.984	63.88
634.316	63.86
634.649	63.93
634.981	63.86
635.313	64
635.646	63.97
635.978	64.08
636.31	64.05
636.643	64.13
636.975	64.19
637.307	64.2
637.639	64.1
637.971	64.24
638.303	64.41
638.635	64.52
638.967	64.69
639.299	64.78
639.631	65.01
639.963	64.97
640.295	64.95
640.626	64.85
640.958	64.78
641.29	64.91
641.621	64.94
641.953	65.01
642.285	64.95
642.616	65.05
642.948	64.94
643.279	65.11
643.61	65.13
643.942	65.04
644.273	65.03
644.604	65.18
644.936	65.18
645.267	65.15
645.598	65.17
645.929	65.07
646.26	65.01
646.591	64.93
646.922	65.01
647.253	64.92
647.584	64.91
647.915	64.94
648.245	64.9
648.576	64.81
648.907	64.76
649.238	64.77
649.568	64.76
649.899	64.79
650.229	64.71
650.56	64.73
650.89	64.91
651.221	64.83
651.551	64.73
651.882	64.68
652.212	64.78
652.542	64.74
652.872	64.54
653.203	64.76
653.533	64.84
653.863	64.86
654.193	65.02
654.523	65.13
654.853	65.19
655.183	65.35
655.513	65.46
655.843	65.43
656.172	65.54
656.502	65.49
656.832	65.69
657.162	65.74
657.491	65.79
657.821	65.71
658.15	65.88
658.48	65.88
658.809	65.83
659.139	65.73
659.468	65.7
659.798	65.88
660.127	65.7
660.456	65.59
660.785	65.48
661.115	65.39
661.444	65.38
661.773	65.25
662.102	65.2
662.431	65.19
662.76	65.21
663.089	65.05
