Data from BA55658_Reflection_00007.txt Node
Date: Tue Nov 19 11:55:42 EST 2019
User: vgr7
Spectrometer: USB2G7710
Scans to average: 3
Trigger mode: 4
Integration Time (sec): 2.000000E-2
Electric dark correction enabled: true
Boxcar width: 10
XAxis mode: Wavelengths
Number of Pixels in Spectrum: 2048
>>>>>Begin Spectral Data<<<<<
177.721	-13.45
178.105	34.4
178.488	49.62
178.871	44.62
179.254	-5.63
179.636	-102.87
180.019	221.62
180.402	-57.14
180.785	1000
181.168	619.23
181.55	-1.04
181.933	-5.21
182.316	-7.27
182.698	1.97
183.081	-33.85
183.463	-30.11
183.846	-44.46
184.228	-17.92
184.611	-26.23
184.993	-29.33
185.376	-22.56
185.758	-24.53
186.14	-8.48
186.522	3.25
186.904	2.19
187.287	-12.65
187.669	-29.18
188.051	-9.7
188.433	1.27
188.815	14.09
189.197	28.47
189.579	43.42
189.961	82.85
190.342	195.91
190.724	244.03
191.106	-3887.8
191.488	804.42
191.869	-1178.52
192.251	-307.02
192.633	-279.71
193.014	-730.47
193.396	-779.31
193.777	-426.63
194.159	-695.37
194.54	-354
194.922	-233.06
195.303	-281.55
195.684	862.03
196.065	822.8
196.447	249.74
196.828	661.61
197.209	234.8
197.59	227.86
197.971	300.27
198.352	188.62
198.733	141.2
199.114	83.6
199.495	137.72
199.876	158.89
200.257	131.91
200.638	118.99
201.018	390.06
201.399	2086.49
201.78	140.79
202.16	223.53
202.541	610.99
202.922	97.06
203.302	121.3
203.683	-515.79
204.063	-216.22
204.444	-62.11
204.824	-54.78
205.204	-41.31
205.585	-55.54
205.965	-62.08
206.345	-119.17
206.725	-30.53
207.106	15.42
207.486	-1.38
207.866	9.5
208.246	10.9
208.626	-5.29
209.006	-0.53
209.386	-24.18
209.766	-54.78
210.145	-39.56
210.525	-22.67
210.905	-30.84
211.285	-12.29
211.664	-11.8
212.044	-13.36
212.424	-14.23
212.803	-32.21
213.183	-26.46
213.562	-15.62
213.942	-22.71
214.321	-16.32
214.701	-41.57
215.08	-60.68
215.459	-37.49
215.838	-49.67
216.218	-128.73
216.597	-81.06
216.976	-71.76
217.355	-51.84
217.734	-44.42
218.113	-34.81
218.492	-69.04
218.871	-53.54
219.25	-188.64
219.629	367.63
220.008	234.27
220.387	490.57
220.766	-971.43
221.144	1354.1
221.523	291.39
221.902	302.01
222.28	-18200
222.659	-142.21
223.037	-145.17
223.416	-206.19
223.794	-115.7
224.173	-67.45
224.551	-51.72
224.929	-51.78
225.308	-43.36
225.686	-34.98
226.064	-57.77
226.442	-49.68
226.821	-38.82
227.199	-25.44
227.577	-13.28
227.955	-6.26
228.333	-0.89
228.711	-5.21
229.089	-3.56
229.467	-1.58
229.845	3.03
230.222	1.2
230.6	-2.34
230.978	4.3
231.356	4.61
231.733	0.81
232.111	-2.27
232.488	-0.89
232.866	0.02
233.243	0.29
233.621	-0.77
233.998	1.16
234.376	3.51
234.753	4
235.13	2.78
235.508	0.65
235.885	-1.54
236.262	0.23
236.639	1.88
237.016	2.63
237.393	2.83
237.77	3.63
238.147	2.69
238.524	4.1
238.901	2.23
239.278	2.19
239.655	2.85
240.032	3.71
240.409	3.11
240.785	4.04
241.162	5.3
241.539	5.41
241.915	5.28
242.292	5.13
242.668	5.33
243.045	5.59
243.421	5.93
243.798	6.14
244.174	6.01
244.551	5.83
244.927	5.92
245.303	5.94
245.679	5.85
246.056	5.98
246.432	5.51
246.808	5.8
247.184	5.89
247.56	5.69
247.936	5.88
248.312	6.11
248.688	5.75
249.064	5.22
249.44	5.44
249.815	5.52
250.191	5.69
250.567	5.55
250.943	5.51
251.318	5.53
251.694	5.53
252.069	5.93
252.445	5.91
252.82	5.59
253.196	5.37
253.571	5.21
253.947	5.42
254.322	5.76
254.697	5.64
255.073	5.51
255.448	5.71
255.823	5.23
256.198	5.11
256.573	5.19
256.948	5.06
257.323	4.86
257.698	4.65
258.073	4.46
258.448	4.28
258.823	4.2
259.198	4.1
259.573	3.94
259.948	3.63
260.322	3.46
260.697	3.49
261.072	3.59
261.446	3.55
261.821	3.4
262.195	3.38
262.57	3.41
262.944	3.35
263.319	3.19
263.693	3.24
264.067	3.18
264.442	3.01
264.816	2.99
265.19	3.05
265.564	3.05
265.938	3.14
266.313	3.18
266.687	3.22
267.061	3.28
267.435	3.79
267.809	3.74
268.183	3.73
268.556	3.7
268.93	3.72
269.304	3.63
269.678	3.75
270.051	3.78
270.425	3.69
270.799	3.62
271.172	3.64
271.546	3.81
271.919	3.88
272.293	4.01
272.666	4.26
273.04	4.25
273.413	4.31
273.787	4.21
274.16	4.2
274.533	4.19
274.906	4.25
275.279	3.99
275.653	4.15
276.026	4.24
276.399	4.3
276.772	4.33
277.145	4.53
277.518	4.32
277.891	4.18
278.263	4.45
278.636	4.71
279.009	4.85
279.382	4.65
279.755	4.59
280.127	4.47
280.5	4.29
280.872	4.35
281.245	4.31
281.617	4.23
281.99	4.23
282.362	4.24
282.735	4.16
283.107	4.13
283.479	4.1
283.852	4.14
284.224	4.22
284.596	4.06
284.968	3.88
285.34	4
285.713	4.05
286.085	3.77
286.457	3.81
286.829	3.66
287.201	3.58
287.572	3.67
287.944	3.8
288.316	3.87
288.688	3.9
289.06	3.93
289.431	4.14
289.803	4.23
290.175	4.28
290.546	4.3
290.918	4.31
291.289	4.26
291.661	4.31
292.032	4.24
292.403	4.42
292.775	4.67
293.146	4.69
293.517	4.64
293.889	4.92
294.26	4.78
294.631	5.01
295.002	5.17
295.373	5.09
295.744	4.9
296.115	5.05
296.486	4.92
296.857	5
297.228	4.83
297.599	4.82
297.97	4.85
298.34	5.02
298.711	5.06
299.082	5.16
299.452	5.1
299.823	5.18
300.194	5.17
300.564	5
300.935	5.13
301.305	5.23
301.676	5.07
302.046	5.23
302.416	5.31
302.787	5.39
303.157	5.4
303.527	5.66
303.897	5.64
304.267	5.82
304.637	5.73
305.008	5.93
305.378	5.93
305.748	5.9
306.117	5.88
306.487	5.95
306.857	6
307.227	6.28
307.597	6.26
307.967	6.33
308.336	6.42
308.706	6.4
309.076	6.47
309.445	6.77
309.815	6.77
310.184	6.67
310.554	6.71
310.923	6.77
311.293	6.75
311.662	6.83
312.031	6.95
312.401	7.03
312.77	7.01
313.139	7.22
313.508	7.38
313.877	7.37
314.246	7.46
314.616	7.59
314.985	7.41
315.353	7.49
315.722	7.65
316.091	7.86
316.46	7.97
316.829	8.04
317.198	7.85
317.567	8.05
317.935	8.13
318.304	8.3
318.672	8.62
319.041	8.63
319.41	8.64
319.778	8.66
320.147	8.77
320.515	8.94
320.883	8.78
321.252	8.85
321.62	8.8
321.988	8.7
322.357	8.68
322.725	8.73
323.093	8.8
323.461	8.77
323.829	8.79
324.197	8.76
324.565	8.72
324.933	8.69
325.301	8.61
325.669	8.67
326.037	8.64
326.405	8.48
326.772	8.58
327.14	8.5
327.508	8.43
327.875	8.41
328.243	8.38
328.61	8.51
328.978	8.31
329.346	8.35
329.713	8.56
330.08	8.64
330.448	8.78
330.815	8.85
331.182	8.94
331.55	8.85
331.917	8.82
332.284	9.03
332.651	9.1
333.018	9.03
333.385	9.01
333.752	8.94
334.119	9.05
334.486	9.06
334.853	9.12
335.22	9.17
335.587	9.16
335.954	9.09
336.32	9.08
336.687	9.16
337.054	9.28
337.42	9.28
337.787	9.08
338.153	9.05
338.52	9.05
338.886	9.03
339.253	8.93
339.619	8.93
339.986	8.66
340.352	8.6
340.718	8.64
341.084	8.63
341.451	8.7
341.817	8.7
342.183	8.67
342.549	8.69
342.915	8.69
343.281	8.72
343.647	8.88
344.013	8.84
344.379	8.83
344.745	8.91
345.11	8.83
345.476	8.97
345.842	9.04
346.208	9.04
346.573	8.99
346.939	9.18
347.304	9.29
347.67	9.39
348.035	9.47
348.401	9.54
348.766	9.61
349.132	9.57
349.497	9.64
349.862	9.61
350.228	9.65
350.593	9.63
350.958	9.72
351.323	9.63
351.688	9.56
352.053	9.58
352.418	9.33
352.783	9.28
353.148	9.23
353.513	9.15
353.878	9.15
354.243	9.1
354.608	9.01
354.972	8.99
355.337	9.05
355.702	9.09
356.066	9.02
356.431	8.91
356.795	8.92
357.16	8.82
357.524	8.83
357.889	8.71
358.253	8.66
358.618	8.58
358.982	8.5
359.346	8.5
359.71	8.48
360.075	8.54
360.439	8.56
360.803	8.51
361.167	8.44
361.531	8.31
361.895	8.29
362.259	8.29
362.623	8.25
362.987	8.16
363.351	8.08
363.714	8.05
364.078	8.02
364.442	7.88
364.806	7.84
365.169	7.74
365.533	7.7
365.896	7.64
366.26	7.51
366.623	7.42
366.987	7.45
367.35	7.43
367.714	7.38
368.077	7.32
368.44	7.28
368.803	7.21
369.167	7.19
369.53	7.14
369.893	7.06
370.256	6.89
370.619	6.84
370.982	6.74
371.345	6.75
371.708	6.73
372.071	6.64
372.434	6.55
372.797	6.58
373.159	6.52
373.522	6.45
373.885	6.42
374.247	6.4
374.61	6.3
374.973	6.22
375.335	6.16
375.698	6.04
376.06	5.98
376.423	5.94
376.785	5.91
377.147	5.8
377.51	5.79
377.872	5.78
378.234	5.76
378.596	5.72
378.958	5.6
379.321	5.53
379.683	5.59
380.045	5.55
380.407	5.44
380.769	5.38
381.13	5.31
381.492	5.24
381.854	5.2
382.216	5.19
382.578	5.16
382.939	5.11
383.301	5.1
383.663	5.09
384.024	5.06
384.386	5
384.747	4.95
385.109	4.88
385.47	4.87
385.832	4.77
386.193	4.76
386.554	4.68
386.916	4.67
387.277	4.62
387.638	4.61
387.999	4.64
388.36	4.69
388.721	4.76
389.082	4.77
389.443	4.79
389.804	4.74
390.165	4.69
390.526	4.68
390.887	4.66
391.248	4.59
391.609	4.62
391.969	4.64
392.33	4.61
392.691	4.55
393.051	4.51
393.412	4.53
393.772	4.51
394.133	4.54
394.493	4.5
394.854	4.49
395.214	4.49
395.574	4.46
395.935	4.41
396.295	4.34
396.655	4.27
397.015	4.21
397.376	4.19
397.736	4.16
398.096	4.16
398.456	4.15
398.816	4.13
399.176	4
399.535	3.96
399.895	3.93
400.255	4.01
400.615	4.01
400.975	3.98
401.334	3.94
401.694	3.92
402.054	3.93
402.413	3.88
402.773	3.84
403.132	3.86
403.492	3.85
403.851	3.81
404.211	3.84
404.57	3.83
404.929	3.77
405.288	3.77
405.648	3.73
406.007	3.65
406.366	3.64
406.725	3.66
407.084	3.66
407.443	3.67
407.802	3.6
408.161	3.63
408.52	3.61
408.879	3.64
409.238	3.6
409.596	3.54
409.955	3.54
410.314	3.51
410.673	3.48
411.031	3.43
411.39	3.46
411.748	3.46
412.107	3.47
412.465	3.49
412.824	3.47
413.182	3.48
413.54	3.51
413.899	3.52
414.257	3.53
414.615	3.51
414.974	3.51
415.332	3.49
415.69	3.43
416.048	3.42
416.406	3.37
416.764	3.37
417.122	3.37
417.48	3.34
417.838	3.33
418.195	3.31
418.553	3.31
418.911	3.27
419.269	3.26
419.626	3.23
419.984	3.22
420.342	3.21
420.699	3.18
421.057	3.16
421.414	3.15
421.772	3.15
422.129	3.13
422.486	3.14
422.844	3.14
423.201	3.13
423.558	3.11
423.915	3.11
424.273	3.12
424.63	3.11
424.987	3.11
425.344	3.12
425.701	3.1
426.058	3.09
426.415	3.08
426.772	3.07
427.128	3.08
427.485	3.07
427.842	3.06
428.199	3.07
428.555	3.08
428.912	3.07
429.269	3.06
429.625	3.08
429.982	3.07
430.338	3.08
430.695	3.11
431.051	3.13
431.407	3.14
431.764	3.11
432.12	3.12
432.476	3.15
432.832	3.14
433.189	3.15
433.545	3.16
433.901	3.17
434.257	3.15
434.613	3.14
434.969	3.14
435.325	3.15
435.681	3.15
436.036	3.15
436.392	3.16
436.748	3.14
437.104	3.13
437.459	3.12
437.815	3.12
438.171	3.11
438.526	3.11
438.882	3.12
439.237	3.11
439.593	3.11
439.948	3.09
440.304	3.08
440.659	3.07
441.014	3.07
441.369	3.05
441.725	3.05
442.08	3.05
442.435	3.07
442.79	3.06
443.145	3.07
443.5	3.07
443.855	3.05
444.21	3.06
444.565	3.06
444.92	3.06
445.275	3.05
445.629	3.04
445.984	3.02
446.339	3.01
446.693	3.03
447.048	3.01
447.403	3.02
447.757	3.02
448.112	3.02
448.466	3.01
448.82	3.02
449.175	3
449.529	3
449.883	2.98
450.238	2.97
450.592	2.96
450.946	2.93
451.3	2.93
451.654	2.9
452.008	2.89
452.362	2.88
452.716	2.88
453.07	2.88
453.424	2.89
453.778	2.87
454.132	2.85
454.486	2.87
454.839	2.84
455.193	2.84
455.547	2.85
455.9	2.85
456.254	2.87
456.607	2.88
456.961	2.89
457.314	2.91
457.668	2.92
458.021	2.92
458.375	2.94
458.728	2.94
459.081	2.97
459.434	2.97
459.787	2.97
460.141	2.97
460.494	2.96
460.847	2.96
461.2	2.98
461.553	3.01
461.906	3
462.259	3.01
462.611	3.02
462.964	3.02
463.317	3.03
463.67	3.04
464.022	3.06
464.375	3.06
464.728	3.05
465.08	3.04
465.433	3.04
465.785	3.03
466.138	3.06
466.49	3.05
466.843	3.07
467.195	3.07
467.547	3.08
467.899	3.1
468.252	3.11
468.604	3.09
468.956	3.08
469.308	3.08
469.66	3.1
470.012	3.09
470.364	3.1
470.716	3.07
471.068	3.08
471.42	3.05
471.772	3.06
472.123	3.08
472.475	3.1
472.827	3.09
473.178	3.1
473.53	3.08
473.882	3.08
474.233	3.09
474.585	3.07
474.936	3.07
475.288	3.05
475.639	3.03
475.99	3.04
476.342	3.03
476.693	3.05
477.044	3.06
477.395	3.03
477.746	3.04
478.097	3.06
478.448	3.05
478.8	3.04
479.15	3.01
479.501	3
479.852	2.99
480.203	2.99
480.554	2.99
480.905	2.99
481.255	2.99
481.606	2.98
481.957	3
482.307	3.01
482.658	3.02
483.009	3.03
483.359	3.04
483.709	3.05
484.06	3.05
484.41	3.06
484.761	3.06
485.111	3.07
485.461	3.07
485.811	3.07
486.162	3.09
486.512	3.1
486.862	3.11
487.212	3.13
487.562	3.13
487.912	3.13
488.262	3.15
488.612	3.15
488.961	3.16
489.311	3.17
489.661	3.17
490.011	3.18
490.36	3.19
490.71	3.18
491.06	3.19
491.409	3.18
491.759	3.2
492.108	3.21
492.458	3.2
492.807	3.21
493.157	3.23
493.506	3.25
493.855	3.25
494.204	3.24
494.554	3.23
494.903	3.26
495.252	3.28
495.601	3.29
495.95	3.33
496.299	3.34
496.648	3.36
496.997	3.35
497.346	3.37
497.695	3.38
498.043	3.42
498.392	3.45
498.741	3.49
499.09	3.52
499.438	3.54
499.787	3.58
500.135	3.61
500.484	3.61
500.832	3.63
501.181	3.68
501.529	3.75
501.878	3.81
502.226	3.84
502.574	3.89
502.923	3.93
503.271	3.95
503.619	3.99
503.967	4.04
504.315	4.11
504.663	4.14
505.011	4.2
505.359	4.23
505.707	4.24
506.055	4.27
506.403	4.28
506.751	4.32
507.098	4.35
507.446	4.4
507.794	4.46
508.141	4.51
508.489	4.58
508.837	4.6
509.184	4.63
509.531	4.66
509.879	4.71
510.226	4.75
510.574	4.81
510.921	4.88
511.268	4.94
511.616	4.98
511.963	5.04
512.31	5.1
512.657	5.16
513.004	5.25
513.351	5.36
513.698	5.44
514.045	5.54
514.392	5.62
514.739	5.69
515.086	5.78
515.432	5.86
515.779	5.92
516.126	6.01
516.473	6.09
516.819	6.18
517.166	6.25
517.512	6.3
517.859	6.37
518.205	6.44
518.552	6.52
518.898	6.58
519.245	6.68
519.591	6.72
519.937	6.8
520.283	6.87
520.629	6.93
520.976	7.01
521.322	7.11
521.668	7.21
522.014	7.33
522.36	7.43
522.706	7.51
523.052	7.66
523.398	7.79
523.743	7.94
524.089	8.08
524.435	8.22
524.781	8.36
525.126	8.47
525.472	8.6
525.817	8.7
526.163	8.83
526.509	8.92
526.854	9.03
527.199	9.14
527.545	9.22
527.89	9.32
528.235	9.44
528.581	9.53
528.926	9.63
529.271	9.74
529.616	9.84
529.961	9.96
530.306	10.06
530.651	10.19
530.996	10.31
531.341	10.44
531.686	10.58
532.031	10.72
532.376	10.88
532.721	11.02
533.065	11.19
533.41	11.33
533.755	11.5
534.099	11.66
534.444	11.81
534.788	11.99
535.133	12.16
535.477	12.29
535.822	12.49
536.166	12.69
536.51	12.91
536.855	13.16
537.199	13.42
537.543	13.69
537.887	13.94
538.231	14.22
538.576	14.48
538.92	14.75
539.264	15.01
539.608	15.25
539.951	15.48
540.295	15.67
540.639	15.89
540.983	16.09
541.327	16.33
541.671	16.56
542.014	16.79
542.358	17.02
542.701	17.25
543.045	17.48
543.389	17.71
543.732	17.95
544.075	18.16
544.419	18.38
544.762	18.6
545.105	18.85
545.449	19.1
545.792	19.35
546.135	19.66
546.478	19.94
546.821	20.24
547.165	20.57
547.508	20.92
547.851	21.26
548.194	21.6
548.536	21.92
548.879	22.28
549.222	22.57
549.565	22.91
549.908	23.25
550.25	23.58
550.593	23.92
550.936	24.24
551.278	24.55
551.621	24.89
551.963	25.27
552.306	25.6
552.648	25.95
552.991	26.31
553.333	26.58
553.675	26.92
554.017	27.31
554.36	27.6
554.702	27.89
555.044	28.21
555.386	28.55
555.728	28.88
556.07	29.2
556.412	29.6
556.754	29.9
557.096	30.25
557.438	30.63
557.78	30.97
558.121	31.31
558.463	31.69
558.805	32.07
559.147	32.37
559.488	32.76
559.83	33.07
560.171	33.4
560.513	33.72
560.854	34.09
561.196	34.38
561.537	34.71
561.878	35.06
562.22	35.39
562.561	35.72
562.902	36.06
563.243	36.36
563.584	36.68
563.925	36.99
564.266	37.24
564.607	37.46
564.948	37.7
565.289	38
565.63	38.22
565.971	38.52
566.312	38.76
566.653	39.03
566.993	39.33
567.334	39.57
567.675	39.86
568.015	40.08
568.356	40.37
568.696	40.63
569.037	40.95
569.377	41.21
569.718	41.47
570.058	41.75
570.398	41.98
570.739	42.18
571.079	42.48
571.419	42.75
571.759	43.04
572.099	43.27
572.439	43.5
572.779	43.78
573.119	44.02
573.459	44.28
573.799	44.43
574.139	44.63
574.479	44.9
574.819	45.12
575.158	45.35
575.498	45.59
575.838	45.76
576.177	45.88
576.517	46.1
576.856	46.28
577.196	46.46
577.535	46.68
577.875	46.9
578.214	47
578.553	47.19
578.893	47.37
579.232	47.53
579.571	47.72
579.91	47.89
580.25	48.03
580.589	48.28
580.928	48.49
581.267	48.71
581.606	48.87
581.945	49.04
582.283	49.19
582.622	49.31
582.961	49.51
583.3	49.74
583.639	49.95
583.977	50.17
584.316	50.32
584.654	50.5
584.993	50.72
585.332	50.95
585.67	51.17
586.008	51.36
586.347	51.61
586.685	51.69
587.024	51.87
587.362	52.03
587.7	52.06
588.038	52.25
588.376	52.39
588.715	52.53
589.053	52.67
589.391	52.9
589.729	53.08
590.067	53.25
590.404	53.41
590.742	53.53
591.08	53.76
591.418	53.93
591.756	54.03
592.093	54.18
592.431	54.29
592.769	54.46
593.106	54.48
593.444	54.61
593.781	54.9
594.119	55
594.456	55.12
594.793	55.34
595.131	55.43
595.468	55.55
595.805	55.64
596.143	55.72
596.48	55.74
596.817	55.81
597.154	55.94
597.491	55.99
597.828	56.03
598.165	56.03
598.502	56.04
598.839	56.18
599.176	56.25
599.512	56.37
599.849	56.41
600.186	56.58
600.523	56.76
600.859	56.82
601.196	56.98
601.532	57.07
601.869	57.11
602.205	57.16
602.542	57.21
602.878	57.21
603.215	57.25
603.551	57.36
603.887	57.39
604.223	57.5
604.56	57.64
604.896	57.82
605.232	57.88
605.568	58.05
605.904	58.05
606.24	58.14
606.576	58.16
606.912	58.25
607.248	58.31
607.583	58.26
607.919	58.3
608.255	58.34
608.591	58.38
608.926	58.49
609.262	58.54
609.597	58.64
609.933	58.73
610.268	58.87
610.604	58.94
610.939	59.06
611.275	59.02
611.61	59.01
611.945	58.99
612.281	59.02
612.616	58.99
612.951	59.08
613.286	59.15
613.621	59.31
613.956	59.42
614.291	59.57
614.626	59.64
614.961	59.7
615.296	59.75
615.631	59.77
615.966	59.79
616.3	59.84
616.635	59.8
616.97	59.85
617.304	59.81
617.639	59.92
617.973	59.94
618.308	60.11
618.642	59.99
618.977	59.92
619.311	60.04
619.646	60.22
619.98	60.21
620.314	60.3
620.648	60.33
620.983	60.2
621.317	60.16
621.651	60.27
621.985	60.32
622.319	60.22
622.653	60.27
622.987	60.29
623.321	60.27
623.655	60.3
623.988	60.41
624.322	60.52
624.656	60.49
624.99	60.54
625.323	60.47
625.657	60.69
625.99	60.87
626.324	60.9
626.657	60.86
626.991	60.92
627.324	60.9
627.658	60.85
627.991	61.07
628.324	61.11
628.657	61.12
628.991	61.12
629.324	61.27
629.657	61.26
629.99	61.28
630.323	61.46
630.656	61.53
630.989	61.53
631.322	61.46
631.655	61.35
631.987	61.35
632.32	61.41
632.653	61.36
632.986	61.28
633.318	61.25
633.651	61.36
633.984	61.56
634.316	61.5
634.649	61.61
634.981	61.42
635.313	61.43
635.646	61.39
635.978	61.35
636.31	61.4
636.643	61.49
636.975	61.51
637.307	61.55
637.639	61.64
637.971	61.71
638.303	61.76
638.635	61.81
638.967	61.94
639.299	61.99
639.631	62
639.963	62.04
640.295	62.02
640.626	61.94
640.958	61.8
641.29	61.91
641.621	61.88
641.953	62.1
642.285	62.06
642.616	62.28
642.948	62.32
643.279	62.38
643.61	62.51
643.942	62.45
644.273	62.4
644.604	62.26
644.936	62.23
645.267	62.31
645.598	62.41
645.929	62.42
646.26	62.26
646.591	62.18
646.922	62.26
647.253	62.33
647.584	62.26
647.915	62.16
648.245	62.16
648.576	62.12
648.907	62.09
649.238	62.12
649.568	62
649.899	61.97
650.229	61.93
650.56	61.88
650.89	61.98
651.221	61.98
651.551	62.12
651.882	62.18
652.212	62.22
652.542	62.25
652.872	62.05
653.203	62.33
653.533	62.4
653.863	62.47
654.193	62.54
654.523	62.69
654.853	62.75
655.183	62.9
655.513	63.08
655.843	63.03
656.172	63.11
656.502	63.18
656.832	63.43
657.162	63.42
657.491	63.65
657.821	63.6
658.15	63.56
658.48	63.65
658.809	63.66
659.139	63.79
659.468	63.7
659.798	63.91
660.127	63.8
660.456	63.83
660.785	63.73
661.115	63.66
661.444	63.73
661.773	63.77
662.102	63.68
662.431	63.58
662.76	63.55
663.089	63.51
663.418	63.46
663.747	63.31
664.076	63.29
664.404	63.11
664.733	63.23
665.062	63.28
665.39	63.05
665.719	63.11
666.048	63.07
666.376	63.22
666.705	63.11
667.033	63.12
667.362	63.2
667.69	63.3
668.018	63.36
