Data from BA55519_Reflection_00008.txt Node
Date: Tue Nov 19 11:52:46 EST 2019
User: vgr7
Spectrometer: USB2G7710
Scans to average: 3
Trigger mode: 4
Integration Time (sec): 2.000000E-2
Electric dark correction enabled: true
Boxcar width: 10
XAxis mode: Wavelengths
Number of Pixels in Spectrum: 2048
>>>>>Begin Spectral Data<<<<<
177.721	-26.6
178.105	-48.15
178.488	-17.15
178.871	-1
179.254	-3.7
179.636	-20.11
180.019	-6.43
180.402	-5.88
180.785	433.33
181.168	194.53
181.55	68.25
181.933	-82.54
182.316	-233.33
182.698	285.19
183.081	20.14
183.463	-34.41
183.846	-94.09
184.228	-101.47
184.611	-62.57
184.993	-31.53
185.376	-33.85
185.758	-13.61
186.14	-15.48
186.522	5.42
186.904	19.9
187.287	16.37
187.669	17.28
188.051	23.14
188.433	25.46
188.815	40.12
189.197	27.75
189.579	18.62
189.961	24.55
190.342	32.5
190.724	24.64
191.106	34.68
191.488	56.14
191.869	51.67
192.251	53.32
192.633	69.53
193.014	70.41
193.396	64.87
193.777	62.71
194.159	66.38
194.54	72.03
194.922	67.35
195.303	67.79
195.684	60.67
196.065	65.7
196.447	66.96
196.828	61.57
197.209	56.26
197.59	62.02
197.971	76.09
198.352	73.59
198.733	74.86
199.114	59.87
199.495	46.8
199.876	63.9
200.257	62.26
200.638	45.46
201.018	55.74
201.399	54.62
201.78	53.56
202.16	41.55
202.541	34.09
202.922	31.17
203.302	37.61
203.683	41.15
204.063	41.15
204.444	42.55
204.824	37.95
205.204	50.55
205.585	52.8
205.965	35.7
206.345	33.65
206.725	38.64
207.106	46.55
207.486	55.28
207.866	42.78
208.246	46.07
208.626	59.28
209.006	52.32
209.386	57.83
209.766	52.92
210.145	58.96
210.525	49.22
210.905	40.3
211.285	40.53
211.664	46.86
212.044	39.02
212.424	40.85
212.803	61.57
213.183	44.44
213.562	46.9
213.942	55.51
214.321	57.9
214.701	52.33
215.08	47.84
215.459	51.91
215.838	60.63
216.218	64.87
216.597	61.82
216.976	58.85
217.355	57.26
217.734	70.91
218.113	74.01
218.492	77.34
218.871	91.77
219.25	84
219.629	68.23
220.008	57.71
220.387	57.8
220.766	44.76
221.144	42.93
221.523	43.27
221.902	45.44
222.28	48.33
222.659	51.33
223.037	54.52
223.416	45.03
223.794	40.92
224.173	29.15
224.551	21.31
224.929	21.1
225.308	23.53
225.686	18.88
226.064	8.55
226.442	8.29
226.821	7.97
227.199	9.27
227.577	15.29
227.955	20.2
228.333	19.38
228.711	16.12
229.089	17.02
229.467	14.49
229.845	12.69
230.222	10.01
230.6	5.15
230.978	5.12
231.356	4.72
231.733	4.85
232.111	6.7
232.488	8.99
232.866	9.06
233.243	8.7
233.621	9.17
233.998	12.64
234.376	12.1
234.753	11.66
235.13	9.5
235.508	7.49
235.885	7.86
236.262	8.29
236.639	9.8
237.016	8.39
237.393	9.71
237.77	9.54
238.147	9.33
238.524	9.58
238.901	9.8
239.278	9.69
239.655	9.43
240.032	9.91
240.409	9.39
240.785	9.54
241.162	9.38
241.539	8.89
241.915	8.63
242.292	8.64
242.668	8.88
243.045	8.63
243.421	9.06
243.798	8.39
244.174	7.8
244.551	7.77
244.927	7.98
245.303	7.72
245.679	7.44
246.056	7.27
246.432	7.3
246.808	7.56
247.184	7.64
247.56	7.71
247.936	7.92
248.312	8.02
248.688	7.81
249.064	7.73
249.44	7.49
249.815	7.49
250.191	7.52
250.567	7.29
250.943	7.5
251.318	6.98
251.694	7.06
252.069	7.14
252.445	6.96
252.82	7.14
253.196	7.14
253.571	7.41
253.947	7.59
254.322	7.57
254.697	7.15
255.073	6.94
255.448	6.92
255.823	6.34
256.198	6.19
256.573	6.2
256.948	6.39
257.323	6.69
257.698	6.48
258.073	6.5
258.448	6.43
258.823	6.38
259.198	6.58
259.573	6.53
259.948	6.65
260.322	6.63
260.697	6.69
261.072	6.74
261.446	6.84
261.821	6.73
262.195	6.71
262.57	6.8
262.944	6.83
263.319	6.98
263.693	7.1
264.067	7.12
264.442	7.01
264.816	7.01
265.19	7.09
265.564	6.84
265.938	6.7
266.313	6.55
266.687	6.41
267.061	6.21
267.435	6.34
267.809	6.28
268.183	6.19
268.556	5.98
268.93	5.92
269.304	5.92
269.678	6.05
270.051	6.12
270.425	6.1
270.799	6.03
271.172	5.85
271.546	5.89
271.919	5.83
272.293	5.85
272.666	5.53
273.04	5.46
273.413	5.68
273.787	5.84
274.16	5.87
274.533	5.9
274.906	6.03
275.279	5.93
275.653	5.89
276.026	6.07
276.399	6.17
276.772	6.25
277.145	5.97
277.518	5.72
277.891	5.61
278.263	5.59
278.636	5.62
279.009	5.62
279.382	5.38
279.755	5.43
280.127	5.64
280.5	5.93
280.872	6
281.245	6.05
281.617	6.06
281.99	6.2
282.362	6.15
282.735	6.14
283.107	6.22
283.479	6.19
283.852	6.03
284.224	6.05
284.596	5.9
284.968	5.94
285.34	6.01
285.713	6.06
286.085	6.08
286.457	5.97
286.829	5.74
287.201	5.89
287.572	5.8
287.944	5.83
288.316	5.71
288.688	5.72
289.06	5.77
289.431	5.73
289.803	5.92
290.175	6.03
290.546	6.09
290.918	6.1
291.289	6.03
291.661	6.1
292.032	6.12
292.403	6.11
292.775	6.2
293.146	6.48
293.517	6.43
293.889	6.46
294.26	6.64
294.631	6.9
295.002	6.92
295.373	6.96
295.744	7.02
296.115	7.14
296.486	7.08
296.857	7.22
297.228	7.14
297.599	7.07
297.97	7.17
298.34	7.22
298.711	7.21
299.082	7.42
299.452	7.56
299.823	7.49
300.194	7.72
300.564	7.63
300.935	7.66
301.305	7.77
301.676	7.84
302.046	7.86
302.416	8.02
302.787	8.17
303.157	8.17
303.527	8.16
303.897	8.23
304.267	8.41
304.637	8.43
305.008	8.73
305.378	8.74
305.748	8.75
306.117	8.79
306.487	8.95
306.857	9.06
307.227	9.14
307.597	9.23
307.967	9.28
308.336	9.49
308.706	9.45
309.076	9.59
309.445	9.88
309.815	10.02
310.184	9.96
310.554	10
310.923	10.1
311.293	10.27
311.662	10.33
312.031	10.39
312.401	10.29
312.77	10.38
313.139	10.46
313.508	10.55
313.877	10.67
314.246	10.61
314.616	10.71
314.985	10.67
315.353	10.82
315.722	11.12
316.091	11.26
316.46	11.33
316.829	11.39
317.198	11.28
317.567	11.39
317.935	11.48
318.304	11.71
318.672	12.01
319.041	11.96
319.41	12.09
319.778	12.11
320.147	12.26
320.515	12.34
320.883	12.48
321.252	12.51
321.62	12.47
321.988	12.72
322.357	12.58
322.725	12.84
323.093	12.89
323.461	12.74
323.829	12.83
324.197	12.97
324.565	13.09
324.933	13.11
325.301	13.21
325.669	13.29
326.037	13.19
326.405	13.14
326.772	13.14
327.14	13.18
327.508	13.29
327.875	13.32
328.243	13.18
328.61	13.26
328.978	13.41
329.346	13.59
329.713	13.73
330.08	13.92
330.448	13.98
330.815	14.05
331.182	14.1
331.55	14.13
331.917	14.12
332.284	14.2
332.651	14.31
333.018	14.37
333.385	14.43
333.752	14.42
334.119	14.49
334.486	14.55
334.853	14.49
335.22	14.47
335.587	14.63
335.954	14.77
336.32	14.72
336.687	14.72
337.054	14.7
337.42	14.59
337.787	14.59
338.153	14.55
338.52	14.63
338.886	14.68
339.253	14.58
339.619	14.76
339.986	14.69
340.352	14.61
340.718	14.61
341.084	14.78
341.451	14.81
341.817	14.73
342.183	14.78
342.549	14.81
342.915	14.85
343.281	14.78
343.647	14.88
344.013	14.92
344.379	14.93
344.745	14.93
345.11	15.13
345.476	15.13
345.842	15.08
346.208	15.12
346.573	15.03
346.939	15.15
347.304	15.08
347.67	15.03
348.035	15
348.401	15.02
348.766	14.85
349.132	14.87
349.497	15.04
349.862	14.93
350.228	15.05
350.593	15.04
350.958	15.11
351.323	15.02
351.688	14.98
352.053	14.94
352.418	14.89
352.783	14.63
353.148	14.54
353.513	14.62
353.878	14.62
354.243	14.65
354.608	14.64
354.972	14.62
355.337	14.65
355.702	14.66
356.066	14.5
356.431	14.5
356.795	14.44
357.16	14.22
357.524	14.26
357.889	14.17
358.253	14.16
358.618	14.03
358.982	13.97
359.346	13.94
359.71	13.9
360.075	13.85
360.439	13.86
360.803	13.81
361.167	13.72
361.531	13.63
361.895	13.65
362.259	13.65
362.623	13.64
362.987	13.59
363.351	13.55
363.714	13.6
364.078	13.52
364.442	13.42
364.806	13.48
365.169	13.38
365.533	13.31
365.896	13.22
366.26	13.23
366.623	13.11
366.987	13.07
367.35	13.04
367.714	12.97
368.077	12.98
368.44	13
368.803	12.91
369.167	12.77
369.53	12.63
369.893	12.54
370.256	12.28
370.619	12.23
370.982	12.09
371.345	11.94
371.708	12
372.071	11.93
372.434	11.8
372.797	11.79
373.159	11.7
373.522	11.6
373.885	11.48
374.247	11.45
374.61	11.36
374.973	11.24
375.335	11.2
375.698	11.04
376.06	10.92
376.423	10.86
376.785	10.82
377.147	10.71
377.51	10.56
377.872	10.62
378.234	10.52
378.596	10.49
378.958	10.44
379.321	10.28
379.683	10.22
380.045	10.13
380.407	10
380.769	9.92
381.13	9.87
381.492	9.8
381.854	9.73
382.216	9.64
382.578	9.59
382.939	9.53
383.301	9.51
383.663	9.4
384.024	9.33
384.386	9.34
384.747	9.3
385.109	9.17
385.47	9.08
385.832	9.02
386.193	8.94
386.554	8.81
386.916	8.71
387.277	8.66
387.638	8.61
387.999	8.57
388.36	8.5
388.721	8.49
389.082	8.48
389.443	8.42
389.804	8.39
390.165	8.3
390.526	8.23
390.887	8.12
391.248	8.13
391.609	8.11
391.969	7.97
392.33	7.88
392.691	7.91
393.051	7.85
393.412	7.8
393.772	7.76
394.133	7.73
394.493	7.68
394.854	7.65
395.214	7.6
395.574	7.53
395.935	7.48
396.295	7.39
396.655	7.25
397.015	7.21
397.376	7.14
397.736	7.1
398.096	7.02
398.456	7
398.816	6.93
399.176	6.84
399.535	6.8
399.895	6.74
400.255	6.7
400.615	6.66
400.975	6.58
401.334	6.55
401.694	6.47
402.054	6.46
402.413	6.45
402.773	6.4
403.132	6.41
403.492	6.4
403.851	6.35
404.211	6.36
404.57	6.32
404.929	6.29
405.288	6.26
405.648	6.29
406.007	6.29
406.366	6.24
406.725	6.24
407.084	6.19
407.443	6.21
407.802	6.17
408.161	6.17
408.52	6.22
408.879	6.22
409.238	6.22
409.596	6.22
409.955	6.13
410.314	6.14
410.673	6.12
411.031	6.09
411.39	6.1
411.748	6.09
412.107	6.06
412.465	6.02
412.824	5.96
413.182	5.88
413.54	5.83
413.899	5.79
414.257	5.74
414.615	5.75
414.974	5.74
415.332	5.73
415.69	5.68
416.048	5.64
416.406	5.6
416.764	5.58
417.122	5.53
417.48	5.54
417.838	5.53
418.195	5.47
418.553	5.44
418.911	5.41
419.269	5.39
419.626	5.38
419.984	5.36
420.342	5.36
420.699	5.35
421.057	5.32
421.414	5.33
421.772	5.3
422.129	5.28
422.486	5.25
422.844	5.23
423.201	5.19
423.558	5.16
423.915	5.14
424.273	5.14
424.63	5.14
424.987	5.11
425.344	5.07
425.701	5.07
426.058	5.06
426.415	5.03
426.772	5.02
427.128	5
427.485	5.01
427.842	4.99
428.199	4.97
428.555	4.97
428.912	4.95
429.269	4.96
429.625	4.94
429.982	4.94
430.338	4.93
430.695	4.94
431.051	4.95
431.407	4.97
431.764	4.97
432.12	4.97
432.476	4.98
432.832	4.98
433.189	4.97
433.545	4.98
433.901	5
434.257	4.99
434.613	4.97
434.969	4.99
435.325	5
435.681	4.99
436.036	4.98
436.392	4.95
436.748	4.95
437.104	4.96
437.459	4.95
437.815	4.95
438.171	4.96
438.526	4.97
438.882	4.92
439.237	4.89
439.593	4.88
439.948	4.88
440.304	4.87
440.659	4.86
441.014	4.87
441.369	4.85
441.725	4.85
442.08	4.85
442.435	4.83
442.79	4.82
443.145	4.81
443.5	4.81
443.855	4.81
444.21	4.82
444.565	4.81
444.92	4.81
445.275	4.79
445.629	4.78
445.984	4.77
446.339	4.78
446.693	4.79
447.048	4.77
447.403	4.76
447.757	4.75
448.112	4.74
448.466	4.72
448.82	4.71
449.175	4.7
449.529	4.69
449.883	4.66
450.238	4.66
450.592	4.66
450.946	4.66
451.3	4.66
451.654	4.64
452.008	4.63
452.362	4.62
452.716	4.62
453.07	4.63
453.424	4.63
453.778	4.62
454.132	4.59
454.486	4.61
454.839	4.61
455.193	4.59
455.547	4.61
455.9	4.62
456.254	4.63
456.607	4.64
456.961	4.66
457.314	4.69
457.668	4.68
458.021	4.68
458.375	4.67
458.728	4.68
459.081	4.68
459.434	4.67
459.787	4.67
460.141	4.68
460.494	4.69
460.847	4.69
461.2	4.69
461.553	4.69
461.906	4.7
462.259	4.69
462.611	4.73
462.964	4.73
463.317	4.73
463.67	4.73
464.022	4.74
464.375	4.73
464.728	4.74
465.08	4.75
465.433	4.77
465.785	4.79
466.138	4.8
466.49	4.81
466.843	4.85
467.195	4.86
467.547	4.87
467.899	4.88
468.252	4.89
468.604	4.91
468.956	4.94
469.308	4.93
469.66	4.96
470.012	4.96
470.364	4.98
470.716	5
471.068	5.02
471.42	5.01
471.772	4.98
472.123	5
472.475	5
472.827	4.99
473.178	5.01
473.53	5
473.882	5.01
474.233	4.98
474.585	4.97
474.936	4.97
475.288	4.95
475.639	4.94
475.99	4.91
476.342	4.92
476.693	4.92
477.044	4.91
477.395	4.91
477.746	4.87
478.097	4.84
478.448	4.81
478.8	4.82
479.15	4.83
479.501	4.8
479.852	4.8
480.203	4.8
480.554	4.79
480.905	4.8
481.255	4.8
481.606	4.8
481.957	4.79
482.307	4.79
482.658	4.8
483.009	4.8
483.359	4.82
483.709	4.82
484.06	4.83
484.41	4.83
484.761	4.83
485.111	4.85
485.461	4.86
485.811	4.87
486.162	4.87
486.512	4.88
486.862	4.89
487.212	4.89
487.562	4.88
487.912	4.89
488.262	4.89
488.612	4.9
488.961	4.92
489.311	4.92
489.661	4.93
490.011	4.91
490.36	4.92
490.71	4.92
491.06	4.92
491.409	4.92
491.759	4.93
492.108	4.95
492.458	4.95
492.807	4.97
493.157	4.98
493.506	5
493.855	5.02
494.204	5.06
494.554	5.08
494.903	5.13
495.252	5.16
495.601	5.19
495.95	5.23
496.299	5.26
496.648	5.32
496.997	5.38
497.346	5.45
497.695	5.51
498.043	5.58
498.392	5.61
498.741	5.65
499.09	5.7
499.438	5.75
499.787	5.82
500.135	5.85
500.484	5.9
500.832	5.96
501.181	6
501.529	6.07
501.878	6.15
502.226	6.2
502.574	6.26
502.923	6.34
503.271	6.4
503.619	6.48
503.967	6.51
504.315	6.58
504.663	6.66
505.011	6.72
505.359	6.77
505.707	6.84
506.055	6.92
506.403	6.99
506.751	7.04
507.098	7.13
507.446	7.2
507.794	7.31
508.141	7.38
508.489	7.46
508.837	7.5
509.184	7.58
509.531	7.66
509.879	7.74
510.226	7.81
510.574	7.87
510.921	7.94
511.268	8.03
511.616	8.09
511.963	8.18
512.31	8.25
512.657	8.34
513.004	8.44
513.351	8.55
513.698	8.66
514.045	8.78
514.392	8.87
514.739	9.01
515.086	9.11
515.432	9.25
515.779	9.35
516.126	9.5
516.473	9.59
516.819	9.7
517.166	9.77
517.512	9.89
517.859	10
518.205	10.11
518.552	10.23
518.898	10.33
519.245	10.43
519.591	10.56
519.937	10.66
520.283	10.76
520.629	10.85
520.976	10.98
521.322	11.1
521.668	11.22
522.014	11.33
522.36	11.45
522.706	11.56
523.052	11.71
523.398	11.86
523.743	12.02
524.089	12.19
524.435	12.38
524.781	12.53
525.126	12.66
525.472	12.78
525.817	12.9
526.163	13.03
526.509	13.16
526.854	13.25
527.199	13.33
527.545	13.44
527.89	13.53
528.235	13.63
528.581	13.73
528.926	13.82
529.271	13.94
529.616	14.05
529.961	14.17
530.306	14.29
530.651	14.4
530.996	14.52
531.341	14.66
531.686	14.77
532.031	14.91
532.376	15.05
532.721	15.2
533.065	15.35
533.41	15.46
533.755	15.6
534.099	15.77
534.444	15.94
534.788	16.08
535.133	16.25
535.477	16.42
535.822	16.6
536.166	16.8
536.51	17
536.855	17.2
537.199	17.39
537.543	17.61
537.887	17.81
538.231	18.04
538.576	18.22
538.92	18.44
539.264	18.63
539.608	18.84
539.951	19.01
540.295	19.2
540.639	19.38
540.983	19.54
541.327	19.71
541.671	19.88
542.014	20.08
542.358	20.26
542.701	20.43
543.045	20.56
543.389	20.72
543.732	20.85
544.075	21.01
544.419	21.22
544.762	21.41
545.105	21.64
545.449	21.84
545.792	22.06
546.135	22.28
546.478	22.51
546.821	22.76
547.165	23
547.508	23.25
547.851	23.54
548.194	23.79
548.536	24.06
548.879	24.33
549.222	24.61
549.565	24.84
549.908	25.04
550.25	25.36
550.593	25.66
550.936	25.99
551.278	26.27
551.621	26.48
551.963	26.75
552.306	26.94
552.648	27.16
552.991	27.46
553.333	27.72
553.675	27.95
554.017	28.22
554.36	28.47
554.702	28.7
555.044	28.95
555.386	29.16
555.728	29.43
556.07	29.66
556.412	29.91
556.754	30.21
557.096	30.47
557.438	30.79
557.78	31
558.121	31.24
558.463	31.54
558.805	31.85
559.147	32.2
559.488	32.48
559.83	32.78
560.171	33.1
560.513	33.37
560.854	33.64
561.196	33.91
561.537	34.26
561.878	34.56
562.22	34.85
562.561	35.2
562.902	35.54
563.243	35.81
563.584	36.07
563.925	36.37
564.266	36.69
564.607	36.93
564.948	37.25
565.289	37.57
565.63	37.85
565.971	38.14
566.312	38.37
566.653	38.69
566.993	38.97
567.334	39.2
567.675	39.49
568.015	39.84
568.356	40.17
568.696	40.46
569.037	40.73
569.377	41.03
569.718	41.31
570.058	41.56
570.398	41.88
570.739	42.19
571.079	42.49
571.419	42.75
571.759	43.04
572.099	43.31
572.439	43.56
572.779	43.78
573.119	44.01
573.459	44.22
573.799	44.51
574.139	44.76
574.479	45.02
574.819	45.29
575.158	45.51
575.498	45.74
575.838	45.98
576.177	46.19
576.517	46.44
576.856	46.72
577.196	46.99
577.535	47.17
577.875	47.34
578.214	47.52
578.553	47.8
578.893	48.06
579.232	48.31
579.571	48.57
579.91	48.93
580.25	49.2
580.589	49.47
580.928	49.73
581.267	50.06
581.606	50.24
581.945	50.48
582.283	50.69
582.622	50.83
582.961	51
583.3	51.31
583.639	51.54
583.977	51.76
584.316	51.93
584.654	52.28
584.993	52.55
585.332	52.93
585.67	53.21
586.008	53.43
586.347	53.72
586.685	53.95
587.024	54.09
587.362	54.3
587.7	54.53
588.038	54.64
588.376	54.81
588.715	55.08
589.053	55.31
589.391	55.51
589.729	55.73
590.067	55.97
590.404	56.14
590.742	56.39
591.08	56.54
591.418	56.72
591.756	56.87
592.093	57.04
592.431	57.17
592.769	57.26
593.106	57.41
593.444	57.54
593.781	57.63
594.119	57.82
594.456	57.9
594.793	57.96
595.131	58.16
595.468	58.32
595.805	58.37
596.143	58.42
596.48	58.52
596.817	58.66
597.154	58.65
597.491	58.67
597.828	58.68
598.165	58.79
598.502	58.93
598.839	58.99
599.176	59.15
599.512	59.17
599.849	59.3
600.186	59.4
600.523	59.36
600.859	59.53
601.196	59.64
601.532	59.82
601.869	60
602.205	60.05
602.542	60.09
602.878	60.2
603.215	60.32
603.551	60.44
603.887	60.48
604.223	60.58
604.56	60.73
604.896	60.81
605.232	60.9
605.568	60.95
605.904	61.13
606.24	61.25
606.576	61.31
606.912	61.44
607.248	61.49
607.583	61.67
607.919	61.74
608.255	61.74
608.591	61.78
608.926	61.85
609.262	61.96
609.597	61.97
609.933	62.05
610.268	62.16
610.604	62.16
610.939	62.22
611.275	62.22
611.61	62.25
611.945	62.4
612.281	62.49
612.616	62.57
612.951	62.58
613.286	62.63
613.621	62.78
613.956	62.89
614.291	62.94
614.626	62.96
614.961	62.93
615.296	62.93
615.631	62.91
615.966	62.95
616.3	62.98
616.635	63.08
616.97	63.11
617.304	63.09
617.639	63.22
617.973	63.31
618.308	63.47
618.642	63.57
618.977	63.51
619.311	63.54
619.646	63.58
619.98	63.55
620.314	63.5
620.648	63.45
620.983	63.27
621.317	63.36
621.651	63.37
621.985	63.5
622.319	63.76
622.653	63.84
622.987	63.9
623.321	63.97
623.655	64
623.988	63.99
624.322	64.05
624.656	64.03
624.99	64.01
625.323	64.05
625.657	64.05
625.99	64.14
626.324	64.23
626.657	64.25
626.991	64.37
627.324	64.46
627.658	64.56
627.991	64.69
628.324	64.71
628.657	64.8
628.991	64.84
629.324	64.69
629.657	64.73
629.99	64.73
630.323	64.66
630.656	64.78
630.989	64.89
631.322	64.89
631.655	64.96
631.987	65.02
632.32	65.05
632.653	65.09
632.986	65.11
633.318	64.98
633.651	65.14
633.984	65.04
634.316	65.03
634.649	65.04
634.981	65.1
635.313	65.2
635.646	65.25
635.978	65.26
636.31	65.36
636.643	65.37
636.975	65.31
637.307	65.4
637.639	65.37
637.971	65.26
638.303	65.32
638.635	65.31
638.967	65.48
639.299	65.52
639.631	65.51
639.963	65.53
640.295	65.61
640.626	65.49
640.958	65.56
641.29	65.51
641.621	65.56
641.953	65.6
642.285	65.57
642.616	65.7
642.948	65.64
643.279	65.65
643.61	65.73
643.942	65.93
644.273	65.84
644.604	65.88
644.936	66.11
645.267	66.09
645.598	66.13
645.929	66.06
646.26	66.21
646.591	66.24
646.922	66.2
647.253	66.26
647.584	66.33
647.915	66.32
648.245	66.5
648.576	66.47
648.907	66.52
649.238	66.5
649.568	66.44
649.899	66.59
650.229	66.75
650.56	66.72
650.89	66.6
651.221	66.71
651.551	66.68
651.882	66.59
652.212	66.6
652.542	66.62
652.872	66.74
653.203	66.65
653.533	66.68
653.863	66.81
654.193	66.84
654.523	66.73
654.853	66.84
655.183	66.61
655.513	66.7
655.843	66.71
656.172	66.73
656.502	66.7
656.832	66.76
657.162	66.72
657.491	66.79
657.821	66.94
658.15	67
658.48	67.14
658.809	67.16
659.139	67.29
659.468	67.31
659.798	67.18
660.127	67.18
660.456	67.19
660.785	67.19
661.115	67.16
661.444	67.3
661.773	67.27
662.102	67.39
662.431	67.32
662.76	67.34
663.089	67.55
663.418	67.61
663.747	67.51
664.076	67.47
664.404	67.44
664.733	67.4
665.062	67.44
665.39	67.49
665.719	67.47
666.048	67.41
