Data from BA55658_Reflection_00005.txt Node
Date: Tue Nov 19 11:55:35 EST 2019
User: vgr7
Spectrometer: USB2G7710
Scans to average: 3
Trigger mode: 4
Integration Time (sec): 2.000000E-2
Electric dark correction enabled: true
Boxcar width: 10
XAxis mode: Wavelengths
Number of Pixels in Spectrum: 2048
>>>>>Begin Spectral Data<<<<<
177.721	3.61
178.105	43.15
178.488	82.32
178.871	95.38
179.254	91.55
179.636	-53.69
180.019	-791.89
180.402	371.43
180.785	-1014.29
181.168	-2265.38
181.55	317.62
181.933	184.17
182.316	124.62
182.698	125.89
183.081	83.44
183.463	105.98
183.846	85.46
184.228	67.01
184.611	91.29
184.993	98.24
185.376	79.44
185.758	93.49
186.14	107.48
186.522	113.71
186.904	124.66
187.287	127.1
187.669	127.76
188.051	139.1
188.433	161.86
188.815	135.55
189.197	110.37
189.579	116.56
189.961	145.74
190.342	253.45
190.724	247.54
191.106	-2900
191.488	680.11
191.869	-705.37
192.251	-122.01
192.633	-66.97
193.014	-54.51
193.396	-62.56
193.777	63.68
194.159	153.38
194.54	78.21
194.922	74.96
195.303	123.3
195.684	-156.68
196.065	-179.79
196.447	-62.87
196.828	-312.32
197.209	-117.97
197.59	-105.82
197.971	-145.23
198.352	-129.76
198.733	-79.32
199.114	-64.03
199.495	-91.49
199.876	-114.78
200.257	-16.05
200.638	-35.62
201.018	33.7
201.399	262.16
201.78	63.75
202.16	629.41
202.541	363.74
202.922	141.1
203.302	203.45
203.683	-878.95
204.063	-386.49
204.444	-129.82
204.824	-136.94
205.204	-112.62
205.585	-161.03
205.965	-294.89
206.345	-304.17
206.725	-246.65
207.106	-176.18
207.486	-164.83
207.866	-165.73
208.246	-95.28
208.626	-150.25
209.006	-183.84
209.386	-203.55
209.766	-224.84
210.145	-128.83
210.525	-140.49
210.905	-98.88
211.285	-95.37
211.664	-78.55
212.044	-78.45
212.424	-70.09
212.803	-90.23
213.183	-88.31
213.562	-67.76
213.942	-66.29
214.321	-79.42
214.701	-78.92
215.08	-98.2
215.459	-84.51
215.838	-116.31
216.218	-285.23
216.597	-179.69
216.976	-197.71
217.355	-190.32
217.734	-215.79
218.113	-229.53
218.492	-250.93
218.871	-240.16
219.25	-411.04
219.629	610.37
220.008	330.18
220.387	496.23
220.766	-1146.75
221.144	1722.95
221.523	304.75
221.902	151.58
222.28	-1100
222.659	23.51
223.037	15.64
223.416	7.22
223.794	-23.97
224.173	-30.43
224.551	-3.23
224.929	-25.8
225.308	-23.16
225.686	-12.86
226.064	-22.62
226.442	-15.33
226.821	-19.58
227.199	-11.96
227.577	-1.71
227.955	0.1
228.333	-6.42
228.711	-8.22
229.089	-4.33
229.467	-7.88
229.845	-13.17
230.222	-17.03
230.6	-16.89
230.978	-13.84
231.356	-17.05
231.733	-11.2
232.111	-8.92
232.488	-9.81
232.866	-5.17
233.243	-0.94
233.621	-0.64
233.998	-0.71
234.376	-0.3
234.753	0.28
235.13	-1.39
235.508	-3.33
235.885	-5.08
236.262	-2.9
236.639	-5.21
237.016	-6.4
237.393	-3.5
237.77	-2.22
238.147	-0.48
238.524	0.4
238.901	0.8
239.278	1.21
239.655	0.99
240.032	1.59
240.409	1.88
240.785	0.99
241.162	0.17
241.539	0.07
241.915	1.09
242.292	1.51
242.668	2.32
243.045	3.51
243.421	4.22
243.798	4.62
244.174	4.75
244.551	5.26
244.927	5.45
245.303	5.33
245.679	5.17
246.056	5.32
246.432	5.4
246.808	5.48
247.184	5.36
247.56	5.18
247.936	5.49
248.312	5.77
248.688	5.94
249.064	6.05
249.44	6.12
249.815	5.92
250.191	5.95
250.567	5.68
250.943	5.24
251.318	4.79
251.694	4.65
252.069	4.55
252.445	4.06
252.82	4.21
253.196	4.09
253.571	4.44
253.947	3.71
254.322	3.54
254.697	3.57
255.073	3.64
255.448	3.93
255.823	3.66
256.198	3.51
256.573	3.63
256.948	3.88
257.323	3.99
257.698	4.04
258.073	3.93
258.448	3.91
258.823	3.8
259.198	4.21
259.573	4.24
259.948	4.08
260.322	4.22
260.697	4.18
261.072	4.19
261.446	4.09
261.821	4.27
262.195	4.24
262.57	4.11
262.944	4.35
263.319	4.26
263.693	4.14
264.067	4.19
264.442	4.19
264.816	3.92
265.19	3.84
265.564	3.71
265.938	3.71
266.313	3.71
266.687	3.95
267.061	3.55
267.435	3.69
267.809	3.89
268.183	3.81
268.556	3.84
268.93	3.92
269.304	4.1
269.678	4.06
270.051	4.27
270.425	4.33
270.799	4.13
271.172	4.23
271.546	4.49
271.919	4.44
272.293	4.47
272.666	4.49
273.04	4.63
273.413	4.7
273.787	4.91
274.16	4.94
274.533	4.98
274.906	5.22
275.279	5.16
275.653	5.31
276.026	5.48
276.399	5.5
276.772	5.62
277.145	5.55
277.518	5.41
277.891	5.16
278.263	5.31
278.636	5.35
279.009	5.41
279.382	5.29
279.755	5.4
280.127	5.56
280.5	5.63
280.872	5.58
281.245	5.76
281.617	5.61
281.99	5.64
282.362	5.62
282.735	5.49
283.107	5.49
283.479	5.33
283.852	5.32
284.224	5.23
284.596	5.11
284.968	5.13
285.34	5.23
285.713	5.11
286.085	4.94
286.457	4.98
286.829	5.07
287.201	5.09
287.572	5.15
287.944	5.07
288.316	5.05
288.688	5.07
289.06	5.07
289.431	5.14
289.803	5.22
290.175	5.19
290.546	5.23
290.918	5.35
291.289	5.27
291.661	5.33
292.032	5.49
292.403	5.52
292.775	5.51
293.146	5.71
293.517	5.78
293.889	5.9
294.26	5.97
294.631	5.88
295.002	5.87
295.373	5.73
295.744	5.7
296.115	5.62
296.486	5.6
296.857	5.61
297.228	5.5
297.599	5.39
297.97	5.52
298.34	5.54
298.711	5.44
299.082	5.4
299.452	5.35
299.823	5.36
300.194	5.41
300.564	5.44
300.935	5.44
301.305	5.53
301.676	5.48
302.046	5.46
302.416	5.45
302.787	5.45
303.157	5.39
303.527	5.39
303.897	5.47
304.267	5.54
304.637	5.42
305.008	5.57
305.378	5.61
305.748	5.4
306.117	5.42
306.487	5.35
306.857	5.59
307.227	5.77
307.597	5.7
307.967	5.66
308.336	5.59
308.706	5.62
309.076	5.67
309.445	5.81
309.815	5.78
310.184	5.76
310.554	5.74
310.923	5.83
311.293	5.77
311.662	5.73
312.031	5.64
312.401	5.75
312.77	5.69
313.139	5.69
313.508	5.69
313.877	5.76
314.246	5.81
314.616	5.84
314.985	5.69
315.353	5.72
315.722	5.79
316.091	5.8
316.46	5.68
316.829	5.58
317.198	5.47
317.567	5.54
317.935	5.53
318.304	5.63
318.672	5.7
319.041	5.86
319.41	5.76
319.778	5.74
320.147	5.59
320.515	5.52
320.883	5.64
321.252	5.66
321.62	5.45
321.988	5.48
322.357	5.37
322.725	5.27
323.093	5.36
323.461	5.28
323.829	5.31
324.197	5.26
324.565	5.41
324.933	5.23
325.301	5.09
325.669	5.11
326.037	5.01
326.405	4.96
326.772	4.87
327.14	4.92
327.508	4.94
327.875	4.99
328.243	5.03
328.61	4.81
328.978	4.87
329.346	4.96
329.713	5
330.08	5.08
330.448	5.11
330.815	5.08
331.182	4.98
331.55	4.96
331.917	4.93
332.284	4.84
332.651	4.95
333.018	5.09
333.385	5.07
333.752	5.28
334.119	5.47
334.486	5.5
334.853	5.56
335.22	5.59
335.587	5.47
335.954	5.4
336.32	5.41
336.687	5.43
337.054	5.47
337.42	5.35
337.787	5.35
338.153	5.36
338.52	5.35
338.886	5.4
339.253	5.34
339.619	5.41
339.986	5.39
340.352	5.44
340.718	5.42
341.084	5.43
341.451	5.26
341.817	5.13
342.183	5.2
342.549	5.32
342.915	5.29
343.281	5.41
343.647	5.59
344.013	5.67
344.379	5.69
344.745	5.64
345.11	5.68
345.476	5.71
345.842	5.79
346.208	5.73
346.573	5.72
346.939	5.87
347.304	5.78
347.67	5.83
348.035	5.83
348.401	5.81
348.766	5.75
349.132	5.76
349.497	5.84
349.862	5.77
350.228	5.69
350.593	5.73
350.958	5.75
351.323	5.65
351.688	5.58
352.053	5.56
352.418	5.54
352.783	5.56
353.148	5.54
353.513	5.45
353.878	5.52
354.243	5.49
354.608	5.55
354.972	5.62
355.337	5.66
355.702	5.61
356.066	5.53
356.431	5.58
356.795	5.58
357.16	5.57
357.524	5.55
357.889	5.52
358.253	5.42
358.618	5.39
358.982	5.36
359.346	5.43
359.71	5.35
360.075	5.36
360.439	5.38
360.803	5.37
361.167	5.45
361.531	5.34
361.895	5.37
362.259	5.3
362.623	5.28
362.987	5.25
363.351	5.21
363.714	5.24
364.078	5.31
364.442	5.27
364.806	5.21
365.169	5.17
365.533	5.24
365.896	5.34
366.26	5.29
366.623	5.37
366.987	5.39
367.35	5.39
367.714	5.44
368.077	5.41
368.44	5.53
368.803	5.41
369.167	5.4
369.53	5.38
369.893	5.4
370.256	5.39
370.619	5.29
370.982	5.32
371.345	5.37
371.708	5.28
372.071	5.28
372.434	5.21
372.797	5.22
373.159	5.16
373.522	5.11
373.885	5.2
374.247	5.1
374.61	5.08
374.973	5.05
375.335	5.01
375.698	5.09
376.06	4.95
376.423	5.02
376.785	5.09
377.147	5.13
377.51	5.1
377.872	5.12
378.234	5.2
378.596	5.21
378.958	5.18
379.321	5.23
379.683	5.28
380.045	5.3
380.407	5.28
380.769	5.25
381.13	5.24
381.492	5.22
381.854	5.28
382.216	5.31
382.578	5.42
382.939	5.37
383.301	5.3
383.663	5.31
384.024	5.31
384.386	5.31
384.747	5.28
385.109	5.3
385.47	5.32
385.832	5.27
386.193	5.28
386.554	5.25
386.916	5.23
387.277	5.2
387.638	5.23
387.999	5.27
388.36	5.31
388.721	5.32
389.082	5.32
389.443	5.3
389.804	5.29
390.165	5.24
390.526	5.3
390.887	5.3
391.248	5.32
391.609	5.35
391.969	5.33
392.33	5.36
392.691	5.36
393.051	5.33
393.412	5.37
393.772	5.38
394.133	5.38
394.493	5.35
394.854	5.36
395.214	5.38
395.574	5.33
395.935	5.31
396.295	5.28
396.655	5.27
397.015	5.28
397.376	5.26
397.736	5.29
398.096	5.26
398.456	5.21
398.816	5.18
399.176	5.11
399.535	5.11
399.895	5.07
400.255	5.02
400.615	5.05
400.975	5.01
401.334	4.99
401.694	5
402.054	5
402.413	5.03
402.773	4.97
403.132	4.99
403.492	4.99
403.851	5.02
404.211	4.97
404.57	4.96
404.929	4.97
405.288	4.96
405.648	4.96
406.007	4.99
406.366	4.99
406.725	4.98
407.084	4.97
407.443	4.97
407.802	4.97
408.161	4.94
408.52	4.94
408.879	4.97
409.238	4.97
409.596	4.96
409.955	4.92
410.314	4.96
410.673	4.95
411.031	4.97
411.39	4.97
411.748	5.01
412.107	4.98
412.465	4.93
412.824	4.89
413.182	4.88
413.54	4.91
413.899	4.91
414.257	4.96
414.615	4.98
414.974	4.98
415.332	5.03
415.69	5.04
416.048	5.08
416.406	5.05
416.764	5.04
417.122	5.06
417.48	5.06
417.838	5.04
418.195	5.04
418.553	5.01
418.911	4.99
419.269	4.97
419.626	4.99
419.984	5
420.342	5.02
420.699	5.02
421.057	4.97
421.414	4.98
421.772	4.97
422.129	4.95
422.486	4.94
422.844	4.92
423.201	4.91
423.558	4.9
423.915	4.89
424.273	4.9
424.63	4.89
424.987	4.92
425.344	4.91
425.701	4.92
426.058	4.93
426.415	4.94
426.772	4.93
427.128	4.92
427.485	4.91
427.842	4.91
428.199	4.91
428.555	4.95
428.912	4.95
429.269	4.94
429.625	4.93
429.982	4.95
430.338	4.95
430.695	4.93
431.051	4.95
431.407	4.96
431.764	4.95
432.12	4.94
432.476	4.94
432.832	4.93
433.189	4.92
433.545	4.9
433.901	4.89
434.257	4.89
434.613	4.89
434.969	4.9
435.325	4.9
435.681	4.88
436.036	4.86
436.392	4.84
436.748	4.84
437.104	4.86
437.459	4.84
437.815	4.84
438.171	4.86
438.526	4.85
438.882	4.82
439.237	4.83
439.593	4.83
439.948	4.81
440.304	4.81
440.659	4.82
441.014	4.85
441.369	4.85
441.725	4.86
442.08	4.84
442.435	4.85
442.79	4.85
443.145	4.86
443.5	4.85
443.855	4.84
444.21	4.82
444.565	4.82
444.92	4.81
445.275	4.79
445.629	4.78
445.984	4.76
446.339	4.75
446.693	4.75
447.048	4.72
447.403	4.73
447.757	4.71
448.112	4.7
448.466	4.68
448.82	4.68
449.175	4.67
449.529	4.68
449.883	4.64
450.238	4.62
450.592	4.63
450.946	4.62
451.3	4.64
451.654	4.65
452.008	4.61
452.362	4.63
452.716	4.64
453.07	4.66
453.424	4.66
453.778	4.66
454.132	4.67
454.486	4.71
454.839	4.68
455.193	4.69
455.547	4.71
455.9	4.7
456.254	4.71
456.607	4.71
456.961	4.72
457.314	4.73
457.668	4.74
458.021	4.72
458.375	4.72
458.728	4.69
459.081	4.69
459.434	4.69
459.787	4.7
460.141	4.69
460.494	4.68
460.847	4.69
461.2	4.69
461.553	4.71
461.906	4.7
462.259	4.69
462.611	4.7
462.964	4.71
463.317	4.72
463.67	4.69
464.022	4.69
464.375	4.7
464.728	4.71
465.08	4.72
465.433	4.74
465.785	4.75
466.138	4.78
466.49	4.8
466.843	4.82
467.195	4.81
467.547	4.81
467.899	4.83
468.252	4.83
468.604	4.83
468.956	4.79
469.308	4.77
469.66	4.78
470.012	4.79
470.364	4.8
470.716	4.8
471.068	4.8
471.42	4.79
471.772	4.79
472.123	4.8
472.475	4.81
472.827	4.81
473.178	4.83
473.53	4.81
473.882	4.8
474.233	4.81
474.585	4.81
474.936	4.82
475.288	4.81
475.639	4.82
475.99	4.81
476.342	4.82
476.693	4.86
477.044	4.86
477.395	4.85
477.746	4.84
478.097	4.83
478.448	4.84
478.8	4.85
479.15	4.84
479.501	4.84
479.852	4.85
480.203	4.85
480.554	4.83
480.905	4.84
481.255	4.84
481.606	4.86
481.957	4.86
482.307	4.86
482.658	4.86
483.009	4.86
483.359	4.86
483.709	4.87
484.06	4.86
484.41	4.86
484.761	4.86
485.111	4.87
485.461	4.87
485.811	4.88
486.162	4.88
486.512	4.89
486.862	4.89
487.212	4.89
487.562	4.88
487.912	4.9
488.262	4.9
488.612	4.9
488.961	4.9
489.311	4.89
489.661	4.88
490.011	4.9
490.36	4.9
490.71	4.9
491.06	4.91
491.409	4.91
491.759	4.91
492.108	4.92
492.458	4.92
492.807	4.92
493.157	4.94
493.506	4.93
493.855	4.93
494.204	4.93
494.554	4.93
494.903	4.94
495.252	4.93
495.601	4.95
495.95	4.96
496.299	4.97
496.648	5.01
496.997	5.03
497.346	5.03
497.695	5.04
498.043	5.07
498.392	5.06
498.741	5.08
499.09	5.08
499.438	5.11
499.787	5.1
500.135	5.1
500.484	5.1
500.832	5.1
501.181	5.1
501.529	5.13
501.878	5.14
502.226	5.14
502.574	5.15
502.923	5.15
503.271	5.15
503.619	5.18
503.967	5.16
504.315	5.18
504.663	5.19
505.011	5.22
505.359	5.22
505.707	5.24
506.055	5.27
506.403	5.32
506.751	5.31
507.098	5.35
507.446	5.37
507.794	5.38
508.141	5.42
508.489	5.47
508.837	5.46
509.184	5.48
509.531	5.51
509.879	5.53
510.226	5.54
510.574	5.56
510.921	5.56
511.268	5.59
511.616	5.6
511.963	5.62
512.31	5.62
512.657	5.63
513.004	5.63
513.351	5.63
513.698	5.61
514.045	5.62
514.392	5.62
514.739	5.65
515.086	5.66
515.432	5.67
515.779	5.67
516.126	5.68
516.473	5.7
516.819	5.72
517.166	5.73
517.512	5.76
517.859	5.77
518.205	5.79
518.552	5.79
518.898	5.79
519.245	5.8
519.591	5.8
519.937	5.81
520.283	5.85
520.629	5.85
520.976	5.86
521.322	5.89
521.668	5.89
522.014	5.9
522.36	5.92
522.706	5.93
523.052	5.94
523.398	5.95
523.743	5.96
524.089	5.97
524.435	5.99
524.781	6
525.126	6
525.472	5.99
525.817	6
526.163	6.02
526.509	6.02
526.854	6.05
527.199	6.06
527.545	6.06
527.89	6.07
528.235	6.08
528.581	6.08
528.926	6.08
529.271	6.08
529.616	6.07
529.961	6.09
530.306	6.09
530.651	6.09
530.996	6.11
531.341	6.12
531.686	6.12
532.031	6.12
532.376	6.14
532.721	6.15
533.065	6.15
533.41	6.14
533.755	6.14
534.099	6.12
534.444	6.12
534.788	6.11
535.133	6.12
535.477	6.13
535.822	6.13
536.166	6.14
536.51	6.15
536.855	6.15
537.199	6.15
537.543	6.15
537.887	6.16
538.231	6.16
538.576	6.15
538.92	6.16
539.264	6.18
539.608	6.18
539.951	6.18
540.295	6.18
540.639	6.2
540.983	6.22
541.327	6.24
541.671	6.25
542.014	6.28
542.358	6.28
542.701	6.29
543.045	6.31
543.389	6.31
543.732	6.3
544.075	6.32
544.419	6.31
544.762	6.32
545.105	6.3
545.449	6.31
545.792	6.32
546.135	6.31
546.478	6.27
546.821	6.28
547.165	6.29
547.508	6.3
547.851	6.3
548.194	6.29
548.536	6.28
548.879	6.24
549.222	6.22
549.565	6.19
549.908	6.14
550.25	6.12
550.593	6.15
550.936	6.15
551.278	6.11
551.621	6.11
551.963	6.12
552.306	6.11
552.648	6.08
552.991	6.08
553.333	6.1
553.675	6.12
554.017	6.11
554.36	6.11
554.702	6.1
555.044	6.09
555.386	6.09
555.728	6.1
556.07	6.12
556.412	6.15
556.754	6.19
557.096	6.23
557.438	6.23
557.78	6.22
558.121	6.22
558.463	6.28
558.805	6.3
559.147	6.3
559.488	6.3
559.83	6.33
560.171	6.31
560.513	6.32
560.854	6.32
561.196	6.34
561.537	6.33
561.878	6.35
562.22	6.38
562.561	6.39
562.902	6.37
563.243	6.38
563.584	6.35
563.925	6.34
564.266	6.35
564.607	6.37
564.948	6.37
565.289	6.39
565.63	6.37
565.971	6.36
566.312	6.34
566.653	6.33
566.993	6.33
567.334	6.37
567.675	6.38
568.015	6.37
568.356	6.38
568.696	6.38
569.037	6.39
569.377	6.37
569.718	6.37
570.058	6.39
570.398	6.39
570.739	6.38
571.079	6.38
571.419	6.38
571.759	6.34
572.099	6.34
572.439	6.31
572.779	6.37
573.119	6.39
573.459	6.4
573.799	6.41
574.139	6.39
574.479	6.37
574.819	6.35
575.158	6.37
575.498	6.36
575.838	6.34
576.177	6.31
576.517	6.33
576.856	6.33
577.196	6.34
577.535	6.33
577.875	6.37
578.214	6.37
578.553	6.33
578.893	6.38
579.232	6.39
579.571	6.44
579.91	6.4
580.25	6.38
580.589	6.38
580.928	6.41
581.267	6.42
581.606	6.44
581.945	6.44
582.283	6.41
582.622	6.38
582.961	6.41
583.3	6.42
583.639	6.42
583.977	6.39
584.316	6.41
584.654	6.43
584.993	6.37
585.332	6.41
585.67	6.45
586.008	6.46
586.347	6.49
586.685	6.43
587.024	6.43
587.362	6.4
587.7	6.4
588.038	6.42
588.376	6.47
588.715	6.48
589.053	6.49
589.391	6.49
589.729	6.55
590.067	6.56
590.404	6.59
590.742	6.59
591.08	6.65
591.418	6.62
591.756	6.61
592.093	6.64
592.431	6.63
592.769	6.61
593.106	6.59
593.444	6.6
593.781	6.63
594.119	6.64
594.456	6.64
594.793	6.67
595.131	6.65
595.468	6.62
595.805	6.64
596.143	6.63
596.48	6.62
596.817	6.59
597.154	6.62
597.491	6.57
597.828	6.54
598.165	6.54
598.502	6.53
598.839	6.52
599.176	6.54
599.512	6.51
599.849	6.51
600.186	6.54
600.523	6.55
600.859	6.56
601.196	6.53
601.532	6.56
601.869	6.59
602.205	6.57
602.542	6.57
602.878	6.59
603.215	6.6
603.551	6.63
603.887	6.63
604.223	6.61
604.56	6.63
604.896	6.64
605.232	6.6
605.568	6.61
605.904	6.62
606.24	6.6
606.576	6.62
606.912	6.59
607.248	6.58
607.583	6.6
607.919	6.58
608.255	6.61
608.591	6.62
608.926	6.6
609.262	6.61
609.597	6.62
609.933	6.6
610.268	6.63
610.604	6.64
610.939	6.69
611.275	6.68
611.61	6.65
611.945	6.64
612.281	6.7
612.616	6.69
612.951	6.71
613.286	6.72
613.621	6.75
613.956	6.82
614.291	6.85
614.626	6.89
614.961	6.95
615.296	6.93
615.631	6.94
615.966	6.98
616.3	7
616.635	6.97
616.97	6.91
617.304	6.91
617.639	6.89
617.973	6.86
618.308	6.9
618.642	6.92
618.977	6.95
619.311	6.92
619.646	6.97
619.98	6.97
620.314	6.96
620.648	6.91
620.983	6.92
621.317	6.89
621.651	6.83
621.985	6.77
622.319	6.78
622.653	6.77
622.987	6.71
623.321	6.7
623.655	6.77
623.988	6.81
624.322	6.8
624.656	6.79
624.99	6.76
625.323	6.73
625.657	6.76
625.99	6.81
626.324	6.81
626.657	6.79
626.991	6.76
627.324	6.75
627.658	6.78
627.991	6.83
628.324	6.81
628.657	6.78
628.991	6.78
629.324	6.77
629.657	6.74
629.99	6.81
630.323	6.84
630.656	6.81
630.989	6.84
631.322	6.83
631.655	6.8
631.987	6.83
632.32	6.86
632.653	6.86
632.986	6.81
633.318	6.85
633.651	6.85
633.984	6.84
634.316	6.88
634.649	6.88
634.981	6.79
635.313	6.81
635.646	6.86
635.978	6.95
636.31	6.94
636.643	6.93
636.975	6.86
637.307	6.78
637.639	6.75
637.971	6.72
638.303	6.76
638.635	6.81
638.967	6.8
639.299	6.79
639.631	6.79
639.963	6.73
640.295	6.68
640.626	6.71
640.958	6.74
641.29	6.76
641.621	6.77
641.953	6.75
642.285	6.84
642.616	6.87
642.948	6.81
643.279	6.83
643.61	6.93
643.942	6.97
644.273	7.04
644.604	7.01
644.936	7.06
645.267	6.97
645.598	7.05
645.929	6.98
646.26	6.95
646.591	6.96
646.922	7.06
647.253	7.09
647.584	7.09
647.915	7.06
648.245	7.05
648.576	7.07
648.907	7.2
649.238	7.08
649.568	7
649.899	6.94
650.229	6.93
650.56	6.86
650.89	6.86
651.221	6.83
651.551	6.84
651.882	6.74
652.212	6.8
652.542	6.73
652.872	6.81
653.203	6.87
653.533	6.85
653.863	6.85
654.193	6.81
654.523	6.78
654.853	6.86
655.183	6.85
655.513	6.92
655.843	6.82
656.172	6.94
656.502	6.99
656.832	7.04
657.162	7.02
657.491	7.08
657.821	7.14
658.15	7.14
658.48	7.22
658.809	7.24
659.139	7.29
659.468	7.33
659.798	7.33
660.127	7.28
660.456	7.34
660.785	7.3
661.115	7.29
661.444	7.35
661.773	7.33
662.102	7.27
662.431	7.15
662.76	7.17
663.089	7.17
663.418	7.11
663.747	7.1
664.076	7.14
664.404	7.1
664.733	7.02
665.062	7.09
665.39	7.06
665.719	7.12
666.048	6.98
666.376	6.99
666.705	7.01
667.033	7.07
667.362	7.04
667.69	7.04
668.018	7.08
668.347	7.08
668.675	7.13
669.003	7.17
669.331	7.28
669.659	7.28
669.987	7.19
670.315	7.22
670.643	7.19
670.971	7.15
671.299	7.22
671.627	7.16
671.955	7.17
672.283	7.24
672.61	7.27
672.938	7.44
673.266	7.47
673.593	7.44
673.921	7.39
674.249	7.4
674.576	7.45
674.904	7.43
675.231	7.4
675.558	7.4
675.886	7.39
