Data from BA55519_Reflection_00006.txt Node
Date: Tue Nov 19 11:52:42 EST 2019
User: vgr7
Spectrometer: USB2G7710
Scans to average: 3
Trigger mode: 4
Integration Time (sec): 2.000000E-2
Electric dark correction enabled: true
Boxcar width: 10
XAxis mode: Wavelengths
Number of Pixels in Spectrum: 2048
>>>>>Begin Spectral Data<<<<<
177.721	32.35
178.105	36.03
178.488	45.42
178.871	59.2
179.254	28.7
179.636	29.82
180.019	-13.45
180.402	170.59
180.785	-3283.33
181.168	-472.14
181.55	-302.78
181.933	-776.98
182.316	-2745.24
182.698	-1224.07
183.081	-169.1
183.463	-164.78
183.846	-259.7
184.228	-261.72
184.611	-218.99
184.993	-145.5
185.376	-124.96
185.758	-113.17
186.14	-122.92
186.522	-103.73
186.904	-92.29
187.287	-129.09
187.669	-131.17
188.051	-178.16
188.433	-213.65
188.815	-165.87
189.197	-144.28
189.579	-153.13
189.961	-130.11
190.342	-102.21
190.724	-122.5
191.106	-129.45
191.488	-123.41
191.869	-77.28
192.251	-72.56
192.633	-57.03
193.014	-60.36
193.396	-54.21
193.777	-42.5
194.159	-27.21
194.54	-36.92
194.922	-42.18
195.303	-51.5
195.684	-49.34
196.065	-50.82
196.447	-39.01
196.828	-40.14
197.209	-41.21
197.59	-32.45
197.971	-28.96
198.352	-29.28
198.733	-29.74
199.114	-38.62
199.495	-39.32
199.876	-54.7
200.257	-66.45
200.638	-75.17
201.018	-77.28
201.399	-74.09
201.78	-67.75
202.16	-79.22
202.541	-81.97
202.922	-92.97
203.302	-79.1
203.683	-83.74
204.063	-80.04
204.444	-76.68
204.824	-74.09
205.204	-64.76
205.585	-73.98
205.965	-64.69
206.345	-83.65
206.725	-76.76
207.106	-58.05
207.486	-66.87
207.866	-64.55
208.246	-39.7
208.626	-35.65
209.006	-30.81
209.386	-21.45
209.766	-29.79
210.145	-16.62
210.525	-14.92
210.905	-7.49
211.285	5.09
211.664	5.12
212.044	1.42
212.424	5.18
212.803	1.9
213.183	-5.11
213.562	-5.62
213.942	-7.04
214.321	-4.38
214.701	-13.08
215.08	-22.05
215.459	-1.61
215.838	-5.78
216.218	-13.77
216.597	-8.85
216.976	-18.08
217.355	-31.29
217.734	-49.57
218.113	-58.07
218.492	-54.42
218.871	-51.65
219.25	-54.37
219.629	-65.64
220.008	-48.01
220.387	-59.4
220.766	-38.73
221.144	-46.48
221.523	-61.56
221.902	-67.97
222.28	-57.83
222.659	-37.71
223.037	-38.89
223.416	-42.84
223.794	-37.26
224.173	-42.84
224.551	-41.14
224.929	-38.19
225.308	-38.68
225.686	-28.51
226.064	-24.52
226.442	-21.93
226.821	-22.97
227.199	-20
227.577	-17.93
227.955	-17.36
228.333	-15.55
228.711	-17.91
229.089	-14.78
229.467	-11.66
229.845	-10.56
230.222	-8.36
230.6	-8.72
230.978	-7.77
231.356	-9.89
231.733	-8.57
232.111	-5.56
232.488	-4.39
232.866	-2.27
233.243	-1.52
233.621	-1.95
233.998	-1.82
234.376	-0.28
234.753	-0.63
235.13	0.04
235.508	1.55
235.885	2.02
236.262	1.47
236.639	1.37
237.016	1.53
237.393	1.69
237.77	1.19
238.147	1.32
238.524	1.09
238.901	0.15
239.278	0.97
239.655	1.54
240.032	1.6
240.409	1.3
240.785	1.05
241.162	1.51
241.539	1.28
241.915	1.27
242.292	1.87
242.668	2.49
243.045	2.82
243.421	3.1
243.798	3.32
244.174	3.3
244.551	3.38
244.927	3.31
245.303	3.39
245.679	3.37
246.056	3.32
246.432	3.38
246.808	3.8
247.184	3.84
247.56	3.67
247.936	3.72
248.312	4.16
248.688	4.15
249.064	4.13
249.44	4.19
249.815	4.26
250.191	3.99
250.567	3.79
250.943	3.55
251.318	3.4
251.694	2.87
252.069	2.82
252.445	3.07
252.82	3.36
253.196	3.11
253.571	3.28
253.947	3.21
254.322	3.33
254.697	3.19
255.073	3.13
255.448	3.18
255.823	3.31
256.198	3.32
256.573	3.64
256.948	3.7
257.323	3.86
257.698	3.93
258.073	3.86
258.448	3.87
258.823	3.91
259.198	4.08
259.573	4.15
259.948	4.2
260.322	4.01
260.697	3.83
261.072	3.98
261.446	3.98
261.821	3.95
262.195	3.95
262.57	3.97
262.944	3.89
263.319	3.95
263.693	3.89
264.067	3.5
264.442	3.15
264.816	3.05
265.19	2.84
265.564	2.79
265.938	2.81
266.313	2.8
266.687	2.57
267.061	2.35
267.435	2.59
267.809	2.6
268.183	2.68
268.556	2.7
268.93	2.86
269.304	2.74
269.678	2.76
270.051	2.61
270.425	2.59
270.799	2.4
271.172	2.28
271.546	2.39
271.919	2.63
272.293	2.92
272.666	3.03
273.04	3.08
273.413	3.02
273.787	3.01
274.16	3.12
274.533	3.15
274.906	3.18
275.279	3.03
275.653	2.97
276.026	2.81
276.399	2.88
276.772	2.75
277.145	2.84
277.518	2.95
277.891	3.01
278.263	3.06
278.636	3.49
279.009	3.56
279.382	3.5
279.755	3.45
280.127	3.34
280.5	3.26
280.872	3.52
281.245	3.55
281.617	3.68
281.99	3.67
282.362	3.77
282.735	3.85
283.107	4.12
283.479	4.2
283.852	4.34
284.224	4.46
284.596	4.39
284.968	4.29
285.34	4.25
285.713	4.18
286.085	4.08
286.457	4.01
286.829	4.06
287.201	4.07
287.572	4.09
287.944	4.23
288.316	4.18
288.688	4.13
289.06	4.1
289.431	4.2
289.803	4.25
290.175	4.19
290.546	4.2
290.918	4.1
291.289	4.04
291.661	4.04
292.032	3.91
292.403	3.87
292.775	3.93
293.146	3.91
293.517	3.96
293.889	4.18
294.26	4.21
294.631	4.19
295.002	4.25
295.373	4.18
295.744	4.14
296.115	4.27
296.486	4.26
296.857	4.2
297.228	4.03
297.599	3.9
297.97	3.94
298.34	3.88
298.711	3.83
299.082	3.96
299.452	3.8
299.823	3.75
300.194	3.82
300.564	3.73
300.935	3.9
301.305	3.89
301.676	3.67
302.046	3.6
302.416	3.54
302.787	3.39
303.157	3.42
303.527	3.27
303.897	3.12
304.267	3.05
304.637	3.08
305.008	3.16
305.378	3.21
305.748	3.14
306.117	3.15
306.487	3.14
306.857	3.29
307.227	3.49
307.597	3.63
307.967	3.59
308.336	3.77
308.706	3.65
309.076	3.71
309.445	3.78
309.815	3.91
310.184	3.85
310.554	3.76
310.923	3.63
311.293	3.62
311.662	3.72
312.031	3.77
312.401	3.85
312.77	3.75
313.139	3.81
313.508	3.82
313.877	3.79
314.246	3.77
314.616	3.62
314.985	3.57
315.353	3.6
315.722	3.57
316.091	3.49
316.46	3.44
316.829	3.47
317.198	3.51
317.567	3.5
317.935	3.83
318.304	4.14
318.672	4.35
319.041	4.5
319.41	4.39
319.778	4.33
320.147	4.16
320.515	4.27
320.883	4.12
321.252	4.08
321.62	4.16
321.988	4.31
322.357	4.16
322.725	4.29
323.093	4.18
323.461	4.2
323.829	4.24
324.197	4.09
324.565	4.08
324.933	4.12
325.301	4.03
325.669	3.76
326.037	3.77
326.405	3.8
326.772	3.75
327.14	3.61
327.508	3.55
327.875	3.63
328.243	3.54
328.61	3.62
328.978	3.64
329.346	3.54
329.713	3.45
330.08	3.53
330.448	3.36
330.815	3.31
331.182	3.4
331.55	3.46
331.917	3.58
332.284	3.58
332.651	3.46
333.018	3.39
333.385	3.57
333.752	3.43
334.119	3.33
334.486	3.28
334.853	3.43
335.22	3.44
335.587	3.47
335.954	3.46
336.32	3.46
336.687	3.43
337.054	3.4
337.42	3.53
337.787	3.55
338.153	3.68
338.52	3.71
338.886	3.72
339.253	3.54
339.619	3.7
339.986	3.59
340.352	3.63
340.718	3.65
341.084	3.57
341.451	3.72
341.817	3.73
342.183	3.69
342.549	3.76
342.915	3.8
343.281	3.77
343.647	3.84
344.013	3.79
344.379	3.86
344.745	3.89
345.11	3.7
345.476	3.66
345.842	3.6
346.208	3.58
346.573	3.55
346.939	3.61
347.304	3.55
347.67	3.62
348.035	3.64
348.401	3.74
348.766	3.79
349.132	3.7
349.497	3.76
349.862	3.87
350.228	3.89
350.593	3.88
350.958	4
351.323	4.1
351.688	4.22
352.053	4.22
352.418	4.23
352.783	4.25
353.148	4.25
353.513	4.29
353.878	4.24
354.243	4.18
354.608	4.22
354.972	4.11
355.337	4.09
355.702	4.07
356.066	4.12
356.431	4.07
356.795	4.1
357.16	4.03
357.524	4.02
357.889	4
358.253	4.02
358.618	3.9
358.982	3.81
359.346	3.81
359.71	3.82
360.075	3.9
360.439	4
360.803	4.1
361.167	4.11
361.531	4.19
361.895	4.22
362.259	4.19
362.623	4.22
362.987	4.24
363.351	4.22
363.714	4.13
364.078	4.13
364.442	4.08
364.806	4.15
365.169	4.1
365.533	4.12
365.896	4.16
366.26	4.23
366.623	4.25
366.987	4.22
367.35	4.26
367.714	4.21
368.077	4.19
368.44	4.16
368.803	4.2
369.167	4.17
369.53	4.2
369.893	4.22
370.256	4.25
370.619	4.16
370.982	4.16
371.345	4.26
371.708	4.3
372.071	4.28
372.434	4.26
372.797	4.3
373.159	4.23
373.522	4.18
373.885	4.16
374.247	4.23
374.61	4.21
374.973	4.19
375.335	4.18
375.698	4.15
376.06	4.05
376.423	3.95
376.785	3.95
377.147	3.93
377.51	3.88
377.872	3.88
378.234	3.96
378.596	4.01
378.958	3.99
379.321	3.97
379.683	4.03
380.045	3.94
380.407	3.93
380.769	3.92
381.13	3.95
381.492	3.94
381.854	3.9
382.216	3.91
382.578	3.9
382.939	3.9
383.301	3.87
383.663	3.95
384.024	3.97
384.386	3.93
384.747	3.93
385.109	3.94
385.47	3.96
385.832	3.96
386.193	3.91
386.554	3.85
386.916	3.82
387.277	3.81
387.638	3.89
387.999	3.91
388.36	3.95
388.721	3.94
389.082	3.95
389.443	3.95
389.804	3.99
390.165	3.98
390.526	3.98
390.887	3.97
391.248	3.92
391.609	3.96
391.969	3.98
392.33	3.94
392.691	4
393.051	3.97
393.412	3.96
393.772	4
394.133	4.05
394.493	4.07
394.854	4.07
395.214	4.08
395.574	4.07
395.935	4.04
396.295	4.02
396.655	4.02
397.015	4.05
397.376	4.02
397.736	3.98
398.096	3.98
398.456	3.98
398.816	3.99
399.176	3.96
399.535	4
399.895	4.01
400.255	3.98
400.615	3.99
400.975	4
401.334	3.99
401.694	3.94
402.054	3.93
402.413	3.92
402.773	3.91
403.132	3.86
403.492	3.87
403.851	3.87
404.211	3.89
404.57	3.84
404.929	3.84
405.288	3.86
405.648	3.88
406.007	3.9
406.366	3.91
406.725	3.93
407.084	3.92
407.443	3.95
407.802	3.93
408.161	3.94
408.52	3.95
408.879	3.94
409.238	3.95
409.596	3.96
409.955	3.95
410.314	3.96
410.673	4.01
411.031	3.98
411.39	3.97
411.748	3.97
412.107	3.96
412.465	3.96
412.824	3.97
413.182	3.93
413.54	3.89
413.899	3.91
414.257	3.89
414.615	3.88
414.974	3.88
415.332	3.91
415.69	3.89
416.048	3.93
416.406	3.93
416.764	3.95
417.122	3.93
417.48	3.95
417.838	3.96
418.195	3.97
418.553	4
418.911	4
419.269	4
419.626	3.98
419.984	3.97
420.342	3.97
420.699	3.98
421.057	3.99
421.414	3.99
421.772	4
422.129	3.98
422.486	3.97
422.844	3.94
423.201	3.97
423.558	3.94
423.915	3.94
424.273	3.93
424.63	3.92
424.987	3.93
425.344	3.9
425.701	3.87
426.058	3.85
426.415	3.85
426.772	3.84
427.128	3.85
427.485	3.86
427.842	3.86
428.199	3.88
428.555	3.89
428.912	3.86
429.269	3.85
429.625	3.87
429.982	3.9
430.338	3.93
430.695	3.9
431.051	3.9
431.407	3.9
431.764	3.91
432.12	3.92
432.476	3.93
432.832	3.96
433.189	3.98
433.545	3.98
433.901	3.98
434.257	3.97
434.613	3.96
434.969	3.93
435.325	3.93
435.681	3.92
436.036	3.93
436.392	3.95
436.748	3.95
437.104	3.93
437.459	3.92
437.815	3.91
438.171	3.91
438.526	3.91
438.882	3.89
439.237	3.88
439.593	3.88
439.948	3.86
440.304	3.84
440.659	3.84
441.014	3.85
441.369	3.84
441.725	3.85
442.08	3.85
442.435	3.86
442.79	3.84
443.145	3.84
443.5	3.83
443.855	3.81
444.21	3.82
444.565	3.83
444.92	3.83
445.275	3.81
445.629	3.82
445.984	3.82
446.339	3.83
446.693	3.84
447.048	3.83
447.403	3.82
447.757	3.82
448.112	3.81
448.466	3.83
448.82	3.83
449.175	3.82
449.529	3.84
449.883	3.83
450.238	3.83
450.592	3.8
450.946	3.81
451.3	3.83
451.654	3.82
452.008	3.79
452.362	3.78
452.716	3.83
453.07	3.82
453.424	3.81
453.778	3.82
454.132	3.8
454.486	3.82
454.839	3.83
455.193	3.84
455.547	3.85
455.9	3.84
456.254	3.85
456.607	3.86
456.961	3.85
457.314	3.86
457.668	3.86
458.021	3.89
458.375	3.89
458.728	3.89
459.081	3.91
459.434	3.93
459.787	3.94
460.141	3.92
460.494	3.9
460.847	3.91
461.2	3.92
461.553	3.93
461.906	3.93
462.259	3.93
462.611	3.93
462.964	3.93
463.317	3.92
463.67	3.93
464.022	3.94
464.375	3.93
464.728	3.93
465.08	3.95
465.433	3.94
465.785	3.93
466.138	3.93
466.49	3.92
466.843	3.93
467.195	3.93
467.547	3.94
467.899	3.95
468.252	3.95
468.604	3.93
468.956	3.92
469.308	3.91
469.66	3.93
470.012	3.93
470.364	3.91
470.716	3.93
471.068	3.92
471.42	3.9
471.772	3.92
472.123	3.9
472.475	3.9
472.827	3.89
473.178	3.89
473.53	3.87
473.882	3.87
474.233	3.86
474.585	3.86
474.936	3.88
475.288	3.86
475.639	3.86
475.99	3.87
476.342	3.87
476.693	3.9
477.044	3.91
477.395	3.9
477.746	3.91
478.097	3.89
478.448	3.89
478.8	3.89
479.15	3.89
479.501	3.92
479.852	3.92
480.203	3.95
480.554	3.95
480.905	3.96
481.255	3.96
481.606	3.97
481.957	3.97
482.307	3.96
482.658	3.97
483.009	3.98
483.359	3.97
483.709	3.97
484.06	3.97
484.41	3.96
484.761	3.96
485.111	3.96
485.461	3.97
485.811	3.98
486.162	3.98
486.512	3.99
486.862	3.99
487.212	3.99
487.562	3.98
487.912	3.98
488.262	3.98
488.612	3.99
488.961	3.99
489.311	3.99
489.661	3.99
490.011	3.99
490.36	3.99
490.71	4
491.06	4
491.409	3.99
491.759	3.99
492.108	3.99
492.458	3.99
492.807	3.98
493.157	3.98
493.506	3.98
493.855	3.99
494.204	3.99
494.554	3.98
494.903	3.99
495.252	3.99
495.601	3.98
495.95	3.97
496.299	3.99
496.648	3.98
496.997	3.96
497.346	3.97
497.695	3.97
498.043	3.96
498.392	3.96
498.741	3.99
499.09	4.01
499.438	4.04
499.787	4.04
500.135	4.04
500.484	4.04
500.832	4.06
501.181	4.07
501.529	4.07
501.878	4.1
502.226	4.11
502.574	4.12
502.923	4.13
503.271	4.17
503.619	4.15
503.967	4.13
504.315	4.16
504.663	4.17
505.011	4.16
505.359	4.15
505.707	4.16
506.055	4.15
506.403	4.15
506.751	4.15
507.098	4.16
507.446	4.19
507.794	4.22
508.141	4.22
508.489	4.2
508.837	4.19
509.184	4.2
509.531	4.18
509.879	4.18
510.226	4.18
510.574	4.16
510.921	4.16
511.268	4.19
511.616	4.17
511.963	4.17
512.31	4.2
512.657	4.2
513.004	4.21
513.351	4.19
513.698	4.17
514.045	4.17
514.392	4.16
514.739	4.13
515.086	4.15
515.432	4.15
515.779	4.17
516.126	4.2
516.473	4.19
516.819	4.21
517.166	4.22
517.512	4.2
517.859	4.2
518.205	4.2
518.552	4.19
518.898	4.19
519.245	4.2
519.591	4.19
519.937	4.22
520.283	4.22
520.629	4.24
520.976	4.25
521.322	4.24
521.668	4.24
522.014	4.25
522.36	4.23
522.706	4.22
523.052	4.21
523.398	4.2
523.743	4.18
524.089	4.19
524.435	4.17
524.781	4.2
525.126	4.21
525.472	4.21
525.817	4.21
526.163	4.22
526.509	4.23
526.854	4.23
527.199	4.23
527.545	4.24
527.89	4.24
528.235	4.25
528.581	4.27
528.926	4.28
529.271	4.28
529.616	4.29
529.961	4.3
530.306	4.31
530.651	4.3
530.996	4.31
531.341	4.32
531.686	4.32
532.031	4.31
532.376	4.32
532.721	4.32
533.065	4.33
533.41	4.34
533.755	4.35
534.099	4.35
534.444	4.34
534.788	4.34
535.133	4.35
535.477	4.36
535.822	4.37
536.166	4.35
536.51	4.35
536.855	4.34
537.199	4.33
537.543	4.33
537.887	4.34
538.231	4.35
538.576	4.35
538.92	4.37
539.264	4.4
539.608	4.4
539.951	4.4
540.295	4.4
540.639	4.41
540.983	4.4
541.327	4.42
541.671	4.43
542.014	4.44
542.358	4.44
542.701	4.43
543.045	4.41
543.389	4.43
543.732	4.43
544.075	4.43
544.419	4.44
544.762	4.43
545.105	4.43
545.449	4.43
545.792	4.44
546.135	4.42
546.478	4.4
546.821	4.4
547.165	4.41
547.508	4.39
547.851	4.39
548.194	4.38
548.536	4.36
548.879	4.35
549.222	4.36
549.565	4.35
549.908	4.33
550.25	4.33
550.593	4.33
550.936	4.36
551.278	4.36
551.621	4.36
551.963	4.38
552.306	4.39
552.648	4.4
552.991	4.39
553.333	4.38
553.675	4.39
554.017	4.39
554.36	4.39
554.702	4.38
555.044	4.35
555.386	4.35
555.728	4.38
556.07	4.37
556.412	4.36
556.754	4.38
557.096	4.39
557.438	4.41
557.78	4.38
558.121	4.37
558.463	4.36
558.805	4.39
559.147	4.39
559.488	4.37
559.83	4.35
560.171	4.37
560.513	4.36
560.854	4.35
561.196	4.34
561.537	4.36
561.878	4.4
562.22	4.41
562.561	4.44
562.902	4.42
563.243	4.43
563.584	4.42
563.925	4.44
564.266	4.46
564.607	4.44
564.948	4.44
565.289	4.44
565.63	4.43
565.971	4.4
566.312	4.37
566.653	4.38
566.993	4.36
567.334	4.35
567.675	4.36
568.015	4.38
568.356	4.38
568.696	4.37
569.037	4.37
569.377	4.38
569.718	4.37
570.058	4.37
570.398	4.36
570.739	4.34
571.079	4.29
571.419	4.28
571.759	4.28
572.099	4.27
572.439	4.3
572.779	4.33
573.119	4.34
573.459	4.34
573.799	4.33
574.139	4.32
574.479	4.37
574.819	4.41
575.158	4.41
575.498	4.4
575.838	4.42
576.177	4.39
576.517	4.42
576.856	4.41
577.196	4.41
577.535	4.42
577.875	4.39
578.214	4.43
578.553	4.42
578.893	4.46
579.232	4.5
579.571	4.5
579.91	4.49
580.25	4.48
580.589	4.52
580.928	4.52
581.267	4.58
581.606	4.53
581.945	4.5
582.283	4.51
582.622	4.53
582.961	4.5
583.3	4.54
583.639	4.51
583.977	4.52
584.316	4.52
584.654	4.5
584.993	4.57
585.332	4.52
585.67	4.52
586.008	4.53
586.347	4.54
586.685	4.49
587.024	4.48
587.362	4.46
587.7	4.45
588.038	4.49
588.376	4.45
588.715	4.44
589.053	4.47
589.391	4.47
589.729	4.45
590.067	4.5
590.404	4.5
590.742	4.53
591.08	4.55
591.418	4.57
591.756	4.6
592.093	4.57
592.431	4.6
592.769	4.59
593.106	4.52
593.444	4.5
593.781	4.52
594.119	4.54
594.456	4.56
594.793	4.56
595.131	4.57
595.468	4.62
595.805	4.65
596.143	4.64
596.48	4.64
596.817	4.65
597.154	4.65
597.491	4.63
597.828	4.65
598.165	4.65
598.502	4.65
598.839	4.64
599.176	4.64
599.512	4.65
599.849	4.7
600.186	4.71
600.523	4.72
600.859	4.7
601.196	4.73
601.532	4.7
601.869	4.73
602.205	4.69
602.542	4.65
602.878	4.65
603.215	4.6
603.551	4.57
603.887	4.54
604.223	4.53
604.56	4.53
604.896	4.52
605.232	4.53
605.568	4.53
605.904	4.52
606.24	4.54
606.576	4.57
606.912	4.53
607.248	4.56
607.583	4.57
607.919	4.58
608.255	4.56
608.591	4.59
608.926	4.54
609.262	4.57
609.597	4.59
609.933	4.57
610.268	4.61
610.604	4.6
610.939	4.64
611.275	4.67
611.61	4.67
611.945	4.63
612.281	4.62
612.616	4.64
612.951	4.63
613.286	4.58
613.621	4.56
613.956	4.62
614.291	4.62
614.626	4.59
614.961	4.62
615.296	4.68
615.631	4.64
615.966	4.69
616.3	4.73
616.635	4.74
616.97	4.71
617.304	4.73
617.639	4.77
617.973	4.74
618.308	4.67
618.642	4.66
618.977	4.64
619.311	4.58
619.646	4.54
619.98	4.61
620.314	4.67
620.648	4.65
620.983	4.61
621.317	4.58
621.651	4.56
621.985	4.57
622.319	4.54
622.653	4.56
622.987	4.53
623.321	4.5
623.655	4.48
623.988	4.51
624.322	4.53
624.656	4.54
624.99	4.55
625.323	4.59
625.657	4.63
625.99	4.68
626.324	4.73
626.657	4.69
626.991	4.67
627.324	4.64
627.658	4.63
627.991	4.61
628.324	4.63
628.657	4.59
628.991	4.57
629.324	4.53
629.657	4.5
629.99	4.54
630.323	4.56
630.656	4.61
630.989	4.58
631.322	4.56
631.655	4.55
631.987	4.56
632.32	4.5
632.653	4.46
632.986	4.44
633.318	4.46
633.651	4.51
633.984	4.54
634.316	4.53
634.649	4.54
634.981	4.52
635.313	4.52
635.646	4.6
635.978	4.61
636.31	4.67
636.643	4.68
636.975	4.63
637.307	4.6
637.639	4.57
637.971	4.58
638.303	4.52
638.635	4.56
638.967	4.58
639.299	4.55
639.631	4.56
639.963	4.56
640.295	4.53
640.626	4.47
640.958	4.46
641.29	4.54
641.621	4.53
641.953	4.55
642.285	4.56
642.616	4.51
642.948	4.56
643.279	4.45
643.61	4.52
643.942	4.62
644.273	4.61
644.604	4.55
644.936	4.54
645.267	4.57
645.598	4.54
645.929	4.46
646.26	4.43
646.591	4.35
646.922	4.35
647.253	4.38
647.584	4.45
647.915	4.44
648.245	4.41
648.576	4.4
648.907	4.49
649.238	4.47
649.568	4.46
649.899	4.45
650.229	4.57
650.56	4.54
650.89	4.51
651.221	4.59
651.551	4.64
651.882	4.57
652.212	4.54
652.542	4.68
652.872	4.71
653.203	4.87
653.533	4.98
653.863	5.02
654.193	5.01
654.523	4.95
654.853	4.97
655.183	4.95
655.513	5
655.843	5
656.172	5.1
656.502	5.11
656.832	5.07
657.162	5
657.491	5
657.821	4.94
658.15	4.86
658.48	4.89
658.809	4.96
659.139	5.06
659.468	4.94
659.798	4.98
660.127	4.93
660.456	4.87
660.785	4.82
661.115	4.76
661.444	4.77
661.773	4.69
662.102	4.7
662.431	4.71
662.76	4.62
663.089	4.6
663.418	4.6
663.747	4.63
664.076	4.55
664.404	4.62
664.733	4.7
665.062	4.78
665.39	4.76
665.719	4.73
666.048	4.69
666.376	4.74
666.705	4.7
667.033	4.79
667.362	4.86
667.69	4.84
668.018	4.98
668.347	5.01
668.675	5.01
669.003	4.96
669.331	4.93
669.659	4.9
669.987	4.86
670.315	4.94
670.643	4.85
670.971	5
671.299	4.91
671.627	4.85
671.955	4.77
672.283	4.78
672.61	4.84
672.938	4.79
673.266	4.75
673.593	4.81
673.921	4.7
674.249	4.69
674.576	4.82
674.904	4.67
675.231	4.69
675.558	4.92
675.886	4.98
676.213	4.97
676.54	5.09
676.867	5.03
677.195	5.02
677.522	4.99
