Data from BA55519_Reflection_00014.txt Node
Date: Tue Nov 19 11:53:00 EST 2019
User: vgr7
Spectrometer: USB2G7710
Scans to average: 3
Trigger mode: 4
Integration Time (sec): 2.000000E-2
Electric dark correction enabled: true
Boxcar width: 10
XAxis mode: Wavelengths
Number of Pixels in Spectrum: 2048
>>>>>Begin Spectral Data<<<<<
177.721	-35.02
178.105	-76.77
178.488	-68.53
178.871	-40.3
179.254	-41.67
179.636	-13.36
180.019	-131.93
180.402	88.24
180.785	150
181.168	-161.19
181.55	-96.43
181.933	-340.48
182.316	-507.14
182.698	16.67
183.081	42.71
183.463	23.39
183.846	-118.35
184.228	-122.53
184.611	-57.79
184.993	-68.92
185.376	-69.69
185.758	-35.77
186.14	-58.04
186.522	-48.01
186.904	-21.64
187.287	-35.3
187.669	-17.59
188.051	-38.13
188.433	-9.3
188.815	-7.14
189.197	-4.08
189.579	-16.2
189.961	14.61
190.342	13.08
190.724	-14.69
191.106	-17.4
191.488	-19.24
191.869	11.25
192.251	16.88
192.633	29.44
193.014	24.93
193.396	25.86
193.777	27.51
194.159	35.77
194.54	40.31
194.922	21.98
195.303	37.64
195.684	25.82
196.065	17.79
196.447	5.9
196.828	10.4
197.209	22.51
197.59	28.78
197.971	19.98
198.352	17.97
198.733	25.17
199.114	12.16
199.495	13.5
199.876	3.65
200.257	-1.15
200.638	-11.91
201.018	-9.08
201.399	-1.15
201.78	0.39
202.16	-6.16
202.541	-6.64
202.922	-2.51
203.302	-23.69
203.683	-12.96
204.063	-1.85
204.444	16.67
204.824	15.35
205.204	10.27
205.585	4.14
205.965	-1.83
206.345	9.25
206.725	7.96
207.106	21.41
207.486	17.68
207.866	36.06
208.246	38.94
208.626	40.07
209.006	54.93
209.386	42.21
209.766	38.12
210.145	31.53
210.525	27.33
210.905	27.02
211.285	37.5
211.664	42.08
212.044	41.27
212.424	35.8
212.803	31.43
213.183	36.67
213.562	42.44
213.942	45.84
214.321	28.05
214.701	30.78
215.08	23.59
215.459	35.28
215.838	18.87
216.218	8.7
216.597	1.43
216.976	-6.33
217.355	6.79
217.734	0.35
218.113	8.83
218.492	9.54
218.871	-4.32
219.25	-5.97
219.629	-13.24
220.008	-1.81
220.387	-5.85
220.766	0.86
221.144	-7.01
221.523	-16.81
221.902	-25
222.28	-10.5
222.659	-3.18
223.037	-2.33
223.416	-3.07
223.794	4.47
224.173	5.82
224.551	7.49
224.929	0.6
225.308	-4.88
225.686	0.52
226.064	-4.45
226.442	-5.5
226.821	2.83
227.199	6.46
227.577	2.33
227.955	1.33
228.333	2.77
228.711	1.94
229.089	8.88
229.467	8.5
229.845	10.2
230.222	7.96
230.6	7
230.978	9.16
231.356	8.77
231.733	9.18
232.111	6.74
232.488	6.52
232.866	8.38
233.243	9.68
233.621	9.21
233.998	11.51
234.376	11.02
234.753	9.91
235.13	8.88
235.508	10.48
235.885	9.76
236.262	8.13
236.639	8.34
237.016	5.97
237.393	5.33
237.77	5.77
238.147	6.11
238.524	5.97
238.901	5.17
239.278	4.44
239.655	4.38
240.032	5.6
240.409	5.69
240.785	5.85
241.162	6.04
241.539	5.67
241.915	5.24
242.292	6.18
242.668	6.13
243.045	6.26
243.421	6.32
243.798	6.46
244.174	6.44
244.551	6.4
244.927	6.42
245.303	6.56
245.679	6.46
246.056	6.77
246.432	7.02
246.808	6.89
247.184	7
247.56	6.91
247.936	6.69
248.312	6.83
248.688	6.74
249.064	6.54
249.44	6.51
249.815	6.59
250.191	6.44
250.567	6.44
250.943	6.36
251.318	6.35
251.694	6.21
252.069	6.19
252.445	6.22
252.82	6.41
253.196	6.38
253.571	6.49
253.947	6.29
254.322	5.87
254.697	5.92
255.073	5.89
255.448	5.91
255.823	6.13
256.198	5.99
256.573	5.98
256.948	5.89
257.323	5.98
257.698	5.99
258.073	5.89
258.448	6.03
258.823	5.86
259.198	5.7
259.573	5.69
259.948	5.62
260.322	5.37
260.697	5.28
261.072	5.37
261.446	5.32
261.821	5.21
262.195	5.24
262.57	5.42
262.944	5.27
263.319	5.25
263.693	5.05
264.067	5.14
264.442	5.21
264.816	5.4
265.19	5.2
265.564	5.21
265.938	5.13
266.313	4.73
266.687	4.83
267.061	5.08
267.435	5.11
267.809	4.92
268.183	5.11
268.556	5.06
268.93	5.16
269.304	4.95
269.678	5
270.051	5.13
270.425	5.02
270.799	4.91
271.172	4.89
271.546	5.08
271.919	4.84
272.293	4.73
272.666	4.74
273.04	4.8
273.413	4.74
273.787	4.77
274.16	5
274.533	5.05
274.906	5.06
275.279	4.97
275.653	5.15
276.026	5.1
276.399	5.07
276.772	4.93
277.145	5.06
277.518	5
277.891	4.97
278.263	5.18
278.636	5.36
279.009	5.51
279.382	5.29
279.755	5.55
280.127	5.46
280.5	5.5
280.872	5.7
281.245	5.71
281.617	5.63
281.99	5.53
282.362	5.5
282.735	5.24
283.107	5.26
283.479	5.2
283.852	5.34
284.224	5.5
284.596	5.45
284.968	5.4
285.34	5.49
285.713	5.47
286.085	5.2
286.457	5.2
286.829	5.1
287.201	5.26
287.572	5.13
287.944	5.29
288.316	5.24
288.688	5.27
289.06	5.4
289.431	5.54
289.803	5.63
290.175	5.59
290.546	5.66
290.918	5.61
291.289	5.48
291.661	5.36
292.032	5.22
292.403	5.15
292.775	5.35
293.146	5.31
293.517	5.29
293.889	5.37
294.26	5.5
294.631	5.68
295.002	5.73
295.373	5.82
295.744	5.71
296.115	5.73
296.486	5.77
296.857	5.8
297.228	5.74
297.599	5.82
297.97	5.91
298.34	5.94
298.711	6.22
299.082	6.53
299.452	6.57
299.823	6.76
300.194	6.94
300.564	6.92
300.935	7.11
301.305	7.25
301.676	7.36
302.046	7.41
302.416	7.37
302.787	7.39
303.157	7.49
303.527	7.68
303.897	7.65
304.267	7.57
304.637	7.54
305.008	7.6
305.378	7.67
305.748	7.65
306.117	7.88
306.487	7.72
306.857	7.88
307.227	8.15
307.597	8.04
307.967	8.22
308.336	8.41
308.706	8.62
309.076	8.74
309.445	8.83
309.815	8.91
310.184	8.92
310.554	8.97
310.923	8.98
311.293	9.12
311.662	9.23
312.031	9.39
312.401	9.33
312.77	9.6
313.139	9.62
313.508	9.84
313.877	9.76
314.246	9.99
314.616	9.97
314.985	9.85
315.353	9.97
315.722	10.03
316.091	10.02
316.46	9.87
316.829	9.84
317.198	10.04
317.567	10.2
317.935	10.36
318.304	10.61
318.672	10.95
319.041	11.06
319.41	11.12
319.778	11.1
320.147	11.27
320.515	11.34
320.883	11.34
321.252	11.54
321.62	11.7
321.988	11.75
322.357	11.78
322.725	12.11
323.093	12.35
323.461	12.34
323.829	12.26
324.197	12.25
324.565	12.44
324.933	12.34
325.301	12.17
325.669	12.11
326.037	12.13
326.405	11.97
326.772	12.03
327.14	12.05
327.508	12.18
327.875	12.41
328.243	12.3
328.61	12.42
328.978	12.28
329.346	12.5
329.713	12.67
330.08	12.83
330.448	12.77
330.815	12.86
331.182	12.95
331.55	13.25
331.917	13.29
332.284	13.19
332.651	13.34
333.018	13.44
333.385	13.5
333.752	13.54
334.119	13.67
334.486	13.67
334.853	13.78
335.22	13.79
335.587	13.86
335.954	13.92
336.32	13.88
336.687	14.07
337.054	14.05
337.42	13.97
337.787	13.91
338.153	13.99
338.52	13.94
338.886	13.98
339.253	13.82
339.619	14.04
339.986	14.22
340.352	14.27
340.718	14.27
341.084	14.41
341.451	14.34
341.817	14.29
342.183	14.29
342.549	14.41
342.915	14.53
343.281	14.57
343.647	14.59
344.013	14.66
344.379	14.56
344.745	14.59
345.11	14.53
345.476	14.59
345.842	14.61
346.208	14.63
346.573	14.69
346.939	14.61
347.304	14.56
347.67	14.53
348.035	14.54
348.401	14.63
348.766	14.63
349.132	14.65
349.497	14.71
349.862	14.7
350.228	14.62
350.593	14.48
350.958	14.41
351.323	14.43
351.688	14.5
352.053	14.48
352.418	14.37
352.783	14.33
353.148	14.21
353.513	14.15
353.878	14.17
354.243	14.17
354.608	14.43
354.972	14.41
355.337	14.39
355.702	14.33
356.066	14.28
356.431	14.22
356.795	14.2
357.16	14.1
357.524	14.09
357.889	14.04
358.253	14.01
358.618	13.99
358.982	13.98
359.346	13.82
359.71	13.71
360.075	13.61
360.439	13.64
360.803	13.62
361.167	13.6
361.531	13.53
361.895	13.44
362.259	13.36
362.623	13.35
362.987	13.24
363.351	13.11
363.714	13.12
364.078	12.99
364.442	12.92
364.806	12.86
365.169	12.78
365.533	12.75
365.896	12.73
366.26	12.55
366.623	12.45
366.987	12.42
367.35	12.41
367.714	12.4
368.077	12.36
368.44	12.32
368.803	12.18
369.167	12.03
369.53	11.91
369.893	11.83
370.256	11.68
370.619	11.58
370.982	11.52
371.345	11.39
371.708	11.35
372.071	11.2
372.434	11.11
372.797	11.01
373.159	10.86
373.522	10.77
373.885	10.78
374.247	10.67
374.61	10.6
374.973	10.48
375.335	10.46
375.698	10.28
376.06	10.2
376.423	10.15
376.785	10.15
377.147	10.08
377.51	9.88
377.872	9.81
378.234	9.75
378.596	9.74
378.958	9.58
379.321	9.49
379.683	9.46
380.045	9.42
380.407	9.37
380.769	9.32
381.13	9.19
381.492	9.06
381.854	8.97
382.216	8.92
382.578	8.91
382.939	8.72
383.301	8.69
383.663	8.54
384.024	8.5
384.386	8.44
384.747	8.35
385.109	8.32
385.47	8.29
385.832	8.17
386.193	8.05
386.554	8
386.916	7.99
387.277	7.99
387.638	7.92
387.999	7.85
388.36	7.79
388.721	7.82
389.082	7.82
389.443	7.79
389.804	7.71
390.165	7.62
390.526	7.61
390.887	7.53
391.248	7.52
391.609	7.49
391.969	7.44
392.33	7.38
392.691	7.35
393.051	7.27
393.412	7.27
393.772	7.28
394.133	7.28
394.493	7.21
394.854	7.14
395.214	7.1
395.574	7.04
395.935	6.96
396.295	6.89
396.655	6.81
397.015	6.76
397.376	6.71
397.736	6.61
398.096	6.58
398.456	6.54
398.816	6.54
399.176	6.45
399.535	6.38
399.895	6.34
400.255	6.26
400.615	6.25
400.975	6.17
401.334	6.15
401.694	6.1
402.054	6.07
402.413	6.03
402.773	6.01
403.132	5.97
403.492	5.95
403.851	5.89
404.211	5.88
404.57	5.89
404.929	5.87
405.288	5.88
405.648	5.85
406.007	5.84
406.366	5.77
406.725	5.71
407.084	5.7
407.443	5.69
407.802	5.68
408.161	5.66
408.52	5.64
408.879	5.61
409.238	5.59
409.596	5.6
409.955	5.58
410.314	5.54
410.673	5.56
411.031	5.57
411.39	5.56
411.748	5.52
412.107	5.46
412.465	5.42
412.824	5.4
413.182	5.36
413.54	5.35
413.899	5.33
414.257	5.35
414.615	5.31
414.974	5.28
415.332	5.28
415.69	5.22
416.048	5.21
416.406	5.17
416.764	5.15
417.122	5.11
417.48	5.09
417.838	5.07
418.195	5.04
418.553	4.99
418.911	4.99
419.269	4.97
419.626	4.96
419.984	4.96
420.342	4.95
420.699	4.94
421.057	4.9
421.414	4.9
421.772	4.89
422.129	4.88
422.486	4.86
422.844	4.84
423.201	4.84
423.558	4.83
423.915	4.81
424.273	4.81
424.63	4.8
424.987	4.78
425.344	4.78
425.701	4.75
426.058	4.76
426.415	4.74
426.772	4.74
427.128	4.74
427.485	4.73
427.842	4.71
428.199	4.72
428.555	4.74
428.912	4.69
429.269	4.67
429.625	4.64
429.982	4.66
430.338	4.66
430.695	4.66
431.051	4.65
431.407	4.67
431.764	4.65
432.12	4.64
432.476	4.63
432.832	4.63
433.189	4.62
433.545	4.61
433.901	4.61
434.257	4.59
434.613	4.59
434.969	4.58
435.325	4.6
435.681	4.59
436.036	4.57
436.392	4.6
436.748	4.6
437.104	4.6
437.459	4.6
437.815	4.6
438.171	4.59
438.526	4.61
438.882	4.58
439.237	4.58
439.593	4.57
439.948	4.57
440.304	4.55
440.659	4.57
441.014	4.58
441.369	4.57
441.725	4.59
442.08	4.58
442.435	4.57
442.79	4.54
443.145	4.52
443.5	4.5
443.855	4.48
444.21	4.47
444.565	4.47
444.92	4.46
445.275	4.46
445.629	4.44
445.984	4.42
446.339	4.43
446.693	4.45
447.048	4.43
447.403	4.42
447.757	4.42
448.112	4.42
448.466	4.41
448.82	4.39
449.175	4.38
449.529	4.38
449.883	4.36
450.238	4.37
450.592	4.38
450.946	4.41
451.3	4.4
451.654	4.38
452.008	4.4
452.362	4.4
452.716	4.38
453.07	4.39
453.424	4.38
453.778	4.36
454.132	4.34
454.486	4.36
454.839	4.35
455.193	4.37
455.547	4.37
455.9	4.37
456.254	4.4
456.607	4.4
456.961	4.39
457.314	4.39
457.668	4.38
458.021	4.36
458.375	4.36
458.728	4.38
459.081	4.4
459.434	4.4
459.787	4.41
460.141	4.44
460.494	4.44
460.847	4.45
461.2	4.46
461.553	4.47
461.906	4.49
462.259	4.5
462.611	4.51
462.964	4.5
463.317	4.49
463.67	4.49
464.022	4.5
464.375	4.51
464.728	4.52
465.08	4.55
465.433	4.58
465.785	4.59
466.138	4.58
466.49	4.59
466.843	4.6
467.195	4.6
467.547	4.56
467.899	4.59
468.252	4.62
468.604	4.63
468.956	4.64
469.308	4.62
469.66	4.67
470.012	4.66
470.364	4.69
470.716	4.72
471.068	4.71
471.42	4.68
471.772	4.69
472.123	4.7
472.475	4.72
472.827	4.73
473.178	4.74
473.53	4.74
473.882	4.74
474.233	4.74
474.585	4.73
474.936	4.73
475.288	4.7
475.639	4.68
475.99	4.68
476.342	4.68
476.693	4.68
477.044	4.66
477.395	4.63
477.746	4.61
478.097	4.58
478.448	4.58
478.8	4.58
479.15	4.56
479.501	4.56
479.852	4.55
480.203	4.54
480.554	4.53
480.905	4.54
481.255	4.54
481.606	4.52
481.957	4.53
482.307	4.55
482.658	4.57
483.009	4.57
483.359	4.57
483.709	4.56
484.06	4.56
484.41	4.55
484.761	4.57
485.111	4.58
485.461	4.59
485.811	4.59
486.162	4.61
486.512	4.62
486.862	4.63
487.212	4.64
487.562	4.64
487.912	4.65
488.262	4.65
488.612	4.66
488.961	4.68
489.311	4.68
489.661	4.68
490.011	4.69
490.36	4.69
490.71	4.7
491.06	4.71
491.409	4.73
491.759	4.76
492.108	4.77
492.458	4.79
492.807	4.81
493.157	4.83
493.506	4.84
493.855	4.87
494.204	4.89
494.554	4.91
494.903	4.95
495.252	5
495.601	5.05
495.95	5.09
496.299	5.12
496.648	5.16
496.997	5.21
497.346	5.27
497.695	5.31
498.043	5.36
498.392	5.41
498.741	5.46
499.09	5.5
499.438	5.56
499.787	5.59
500.135	5.64
500.484	5.68
500.832	5.69
501.181	5.74
501.529	5.82
501.878	5.87
502.226	5.91
502.574	5.96
502.923	6
503.271	6.07
503.619	6.14
503.967	6.2
504.315	6.28
504.663	6.34
505.011	6.43
505.359	6.47
505.707	6.5
506.055	6.57
506.403	6.63
506.751	6.72
507.098	6.81
507.446	6.88
507.794	6.97
508.141	7.05
508.489	7.14
508.837	7.21
509.184	7.28
509.531	7.36
509.879	7.43
510.226	7.54
510.574	7.63
510.921	7.7
511.268	7.78
511.616	7.84
511.963	7.91
512.31	7.99
512.657	8.09
513.004	8.21
513.351	8.29
513.698	8.41
514.045	8.51
514.392	8.61
514.739	8.72
515.086	8.82
515.432	8.95
515.779	9.05
516.126	9.15
516.473	9.26
516.819	9.4
517.166	9.5
517.512	9.6
517.859	9.71
518.205	9.83
518.552	9.92
518.898	10.02
519.245	10.14
519.591	10.23
519.937	10.36
520.283	10.49
520.629	10.6
520.976	10.74
521.322	10.85
521.668	10.98
522.014	11.12
522.36	11.26
522.706	11.41
523.052	11.56
523.398	11.77
523.743	11.96
524.089	12.12
524.435	12.27
524.781	12.41
525.126	12.54
525.472	12.7
525.817	12.84
526.163	12.96
526.509	13.08
526.854	13.21
527.199	13.33
527.545	13.41
527.89	13.51
528.235	13.62
528.581	13.73
528.926	13.86
529.271	13.99
529.616	14.1
529.961	14.22
530.306	14.33
530.651	14.44
530.996	14.56
531.341	14.71
531.686	14.88
532.031	15.05
532.376	15.22
532.721	15.35
533.065	15.53
533.41	15.7
533.755	15.89
534.099	16.07
534.444	16.23
534.788	16.42
535.133	16.63
535.477	16.8
535.822	16.98
536.166	17.16
536.51	17.33
536.855	17.57
537.199	17.79
537.543	18.03
537.887	18.25
538.231	18.5
538.576	18.71
538.92	18.9
539.264	19.1
539.608	19.31
539.951	19.49
540.295	19.66
540.639	19.85
540.983	20.01
541.327	20.17
541.671	20.33
542.014	20.53
542.358	20.67
542.701	20.85
543.045	21.02
543.389	21.19
543.732	21.36
544.075	21.53
544.419	21.71
544.762	21.91
545.105	22.1
545.449	22.28
545.792	22.52
546.135	22.76
546.478	22.97
546.821	23.21
547.165	23.47
547.508	23.7
547.851	23.95
548.194	24.22
548.536	24.48
548.879	24.77
549.222	25.01
549.565	25.29
549.908	25.54
550.25	25.8
550.593	26.08
550.936	26.4
551.278	26.7
551.621	26.93
551.963	27.23
552.306	27.55
552.648	27.8
552.991	28.05
553.333	28.3
553.675	28.6
554.017	28.83
554.36	29.09
554.702	29.39
555.044	29.64
555.386	29.88
555.728	30.14
556.07	30.38
556.412	30.65
556.754	30.93
557.096	31.15
557.438	31.43
557.78	31.69
558.121	31.98
558.463	32.22
558.805	32.53
559.147	32.79
559.488	33.07
559.83	33.36
560.171	33.69
560.513	34
560.854	34.27
561.196	34.59
561.537	34.9
561.878	35.16
562.22	35.45
562.561	35.78
562.902	36.07
563.243	36.42
563.584	36.67
563.925	36.97
564.266	37.32
564.607	37.64
564.948	37.94
565.289	38.24
565.63	38.57
565.971	38.87
566.312	39.2
566.653	39.45
566.993	39.72
567.334	40.01
567.675	40.32
568.015	40.64
568.356	40.94
568.696	41.2
569.037	41.52
569.377	41.81
569.718	42.05
570.058	42.37
570.398	42.66
570.739	42.97
571.079	43.22
571.419	43.48
571.759	43.7
572.099	43.88
572.439	44.1
572.779	44.34
573.119	44.54
573.459	44.75
573.799	45.04
574.139	45.24
574.479	45.4
574.819	45.61
575.158	45.83
575.498	46.05
575.838	46.31
576.177	46.52
576.517	46.76
576.856	47.02
577.196	47.31
577.535	47.52
577.875	47.73
578.214	47.97
578.553	48.19
578.893	48.47
579.232	48.83
579.571	49.05
579.91	49.37
580.25	49.75
580.589	49.98
580.928	50.16
581.267	50.46
581.606	50.75
581.945	50.99
582.283	51.23
582.622	51.47
582.961	51.66
583.3	51.95
583.639	52.19
583.977	52.41
584.316	52.54
584.654	52.78
584.993	53.02
585.332	53.29
585.67	53.63
586.008	53.92
586.347	54.18
586.685	54.43
587.024	54.6
587.362	54.68
587.7	54.91
588.038	55.21
588.376	55.46
588.715	55.68
589.053	55.92
589.391	56.02
589.729	56.13
590.067	56.41
590.404	56.53
590.742	56.82
591.08	57.1
591.418	57.3
591.756	57.41
592.093	57.64
592.431	57.87
592.769	57.88
593.106	58
593.444	58.1
593.781	58.14
594.119	58.28
594.456	58.44
594.793	58.53
595.131	58.63
595.468	58.71
595.805	58.77
596.143	58.8
596.48	59.05
596.817	59.21
597.154	59.24
597.491	59.33
597.828	59.27
598.165	59.26
598.502	59.32
598.839	59.4
599.176	59.51
599.512	59.52
599.849	59.71
600.186	59.83
600.523	59.89
600.859	60.06
601.196	60.11
601.532	60.24
601.869	60.36
602.205	60.48
602.542	60.55
602.878	60.66
603.215	60.81
603.551	60.75
603.887	60.81
604.223	60.9
604.56	60.97
604.896	61.12
605.232	61.22
605.568	61.36
605.904	61.48
606.24	61.5
606.576	61.61
606.912	61.74
607.248	61.82
607.583	61.95
607.919	62.03
608.255	62.1
608.591	62.19
608.926	62.31
609.262	62.34
609.597	62.49
609.933	62.58
610.268	62.66
610.604	62.77
610.939	62.88
611.275	62.9
611.61	62.99
611.945	63.11
612.281	63.18
612.616	63.23
612.951	63.34
613.286	63.44
613.621	63.43
613.956	63.45
614.291	63.46
614.626	63.5
614.961	63.59
615.296	63.69
615.631	63.69
615.966	63.75
616.3	63.89
616.635	63.91
616.97	63.87
617.304	63.9
617.639	64.01
617.973	64.05
618.308	64.21
618.642	64.24
618.977	64.19
619.311	64.19
619.646	64.2
619.98	64.16
620.314	64.22
620.648	64.33
620.983	64.31
621.317	64.4
621.651	64.48
621.985	64.59
622.319	64.68
622.653	64.72
622.987	64.75
623.321	64.69
623.655	64.81
623.988	64.91
624.322	64.99
624.656	65.08
624.99	65.17
625.323	65.17
625.657	65.28
625.99	65.35
626.324	65.48
626.657	65.5
626.991	65.55
627.324	65.65
627.658	65.69
627.991	65.69
628.324	65.7
628.657	65.76
628.991	65.76
629.324	65.74
629.657	65.79
629.99	65.83
630.323	65.88
630.656	65.83
630.989	65.95
631.322	65.94
631.655	65.9
631.987	65.82
632.32	65.74
632.653	65.67
632.986	65.65
633.318	65.65
633.651	65.71
633.984	65.76
634.316	65.66
634.649	65.64
634.981	65.72
635.313	65.79
635.646	65.77
635.978	65.82
636.31	65.95
636.643	65.97
636.975	65.95
637.307	66.03
637.639	66.11
637.971	66.03
638.303	66.1
638.635	66.12
638.967	66.24
639.299	66.38
639.631	66.41
639.963	66.45
640.295	66.48
640.626	66.59
640.958	66.55
641.29	66.64
641.621	66.75
641.953	66.94
642.285	67.05
642.616	67.15
642.948	67.08
643.279	66.92
643.61	66.94
643.942	67.06
644.273	66.97
644.604	66.88
644.936	66.94
645.267	67
645.598	67.13
645.929	67.12
646.26	67.13
646.591	67.15
646.922	67.16
647.253	67.22
647.584	67.13
647.915	67.26
648.245	67.3
648.576	67.23
648.907	67.16
649.238	67.11
649.568	67.11
649.899	67.29
650.229	67.42
650.56	67.57
650.89	67.53
651.221	67.65
651.551	67.81
651.882	67.97
652.212	67.98
652.542	67.92
652.872	67.99
653.203	68.03
653.533	68.08
653.863	68.07
654.193	68.12
654.523	68.04
654.853	67.97
655.183	67.94
655.513	68.02
655.843	68.01
656.172	67.93
656.502	67.86
656.832	67.82
657.162	67.91
657.491	67.71
657.821	67.73
658.15	67.77
658.48	67.71
658.809	67.53
659.139	67.47
659.468	67.44
659.798	67.42
660.127	67.46
660.456	67.57
660.785	67.72
661.115	67.63
661.444	67.78
661.773	67.82
662.102	67.79
662.431	67.66
662.76	67.64
663.089	67.77
663.418	67.88
663.747	67.79
664.076	67.61
664.404	67.73
664.733	67.85
665.062	67.73
665.39	67.76
665.719	67.8
666.048	67.76
