Data from BA55658_Reflection_00012.txt Node
Date: Tue Nov 19 11:55:52 EST 2019
User: vgr7
Spectrometer: USB2G7710
Scans to average: 3
Trigger mode: 4
Integration Time (sec): 2.000000E-2
Electric dark correction enabled: true
Boxcar width: 10
XAxis mode: Wavelengths
Number of Pixels in Spectrum: 2048
>>>>>Begin Spectral Data<<<<<
177.721	39.94
178.105	30.03
178.488	33.71
178.871	-3.85
179.254	36.62
179.636	-102.87
180.019	-264.86
180.402	-228.57
180.785	-1314.29
181.168	-1803.85
181.55	216.58
181.933	133.07
182.316	101.76
182.698	109.25
183.081	82.06
183.463	68.59
183.846	51.85
184.228	53
184.611	41.67
184.993	19.94
185.376	15.39
185.758	29.19
186.14	22.94
186.522	20.01
186.904	5.48
187.287	16.15
187.669	-14.23
188.051	-16.22
188.433	15.54
188.815	-5.66
189.197	7.74
189.579	29.62
189.961	40.91
190.342	142.2
190.724	173.77
191.106	-1692.68
191.488	356.91
191.869	-534.23
192.251	-136.24
192.633	-177.38
193.014	-511.59
193.396	-675.86
193.777	-288.62
194.159	-428.47
194.54	-288.62
194.922	-208.01
195.303	-269.9
195.684	894.12
196.065	698.45
196.447	207.71
196.828	590.52
197.209	154.49
197.59	78.17
197.971	63.22
198.352	24.51
198.733	53.96
199.114	28.92
199.495	27.47
199.876	20.32
200.257	4.26
200.638	-22.06
201.018	75.14
201.399	-751.35
201.78	-85.8
202.16	-270.59
202.541	-15.38
202.922	61.84
203.302	-12.58
203.683	-136.84
204.063	-313.51
204.444	-86.73
204.824	-81.53
205.204	-62.06
205.585	-73.42
205.965	-121.02
206.345	-119.17
206.725	-39.09
207.106	-57.08
207.486	-117.24
207.866	-94.48
208.246	-81.86
208.626	-142.62
209.006	-154.27
209.386	-170.04
209.766	-165.61
210.145	-102.43
210.525	-90.69
210.905	-64.34
211.285	-50.64
211.664	-26.27
212.044	-26.52
212.424	-10.89
212.803	-3.68
213.183	-20.92
213.562	-30.73
213.942	-18.69
214.321	-20.88
214.701	-25.94
215.08	-20.27
215.459	-10.88
215.838	-43.12
216.218	-70.95
216.597	-28.07
216.976	-39.04
217.355	-65.18
217.734	-86.78
218.113	-99
218.492	-111.84
218.871	-110.24
219.25	-283.28
219.629	529.46
220.008	372.38
220.387	501.89
220.766	-1984.42
221.144	2042.62
221.523	380.42
221.902	379.37
222.28	-29000
222.659	-261.19
223.037	-160.98
223.416	-274.23
223.794	-204.96
224.173	-134.43
224.551	-117.41
224.929	-114.68
225.308	-68.38
225.686	-53.28
226.064	-59.4
226.442	-49.68
226.821	-39.86
227.199	-34.43
227.577	-18.19
227.955	-5.65
228.333	-14.27
228.711	-9.04
229.089	-10.24
229.467	-11.66
229.845	-12.93
230.222	-11.4
230.6	-20.9
230.978	-19
231.356	-15.8
231.733	-8.4
232.111	-7.22
232.488	-5.73
232.866	-4.19
233.243	-6.31
233.621	-8.13
233.998	-7.31
234.376	-5.34
234.753	-4.39
235.13	-3.65
235.508	-4.58
235.885	-4.51
236.262	-3.01
236.639	-5.96
237.016	-4.12
237.393	-2.17
237.77	-1.01
238.147	-0.11
238.524	2.62
238.901	2.48
239.278	3.22
239.655	2
240.032	1.64
240.409	1.75
240.785	1.98
241.162	1.75
241.539	3.03
241.915	3.56
242.292	3.8
242.668	3.81
243.045	4.15
243.421	4.3
243.798	3.99
244.174	4.3
244.551	4.64
244.927	4.46
245.303	4.33
245.679	4.41
246.056	4.79
246.432	4.67
246.808	4.61
247.184	4.78
247.56	4.75
247.936	4.66
248.312	4.84
248.688	4.81
249.064	4.94
249.44	4.47
249.815	4.07
250.191	4.02
250.567	3.85
250.943	3.81
251.318	3.59
251.694	3.42
252.069	3.39
252.445	3.28
252.82	3.36
253.196	3.38
253.571	3.49
253.947	3.07
254.322	2.92
254.697	3.04
255.073	2.75
255.448	2.73
255.823	3.21
256.198	3.02
256.573	3.12
256.948	3.37
257.323	3.61
257.698	3.95
258.073	3.89
258.448	4.04
258.823	3.98
259.198	4.12
259.573	4.1
259.948	4.11
260.322	4.11
260.697	4.07
261.072	4.24
261.446	4.11
261.821	4.17
262.195	4.21
262.57	4.23
262.944	4.4
263.319	4.53
263.693	4.26
264.067	4.29
264.442	4.24
264.816	4.14
265.19	3.97
265.564	3.96
265.938	3.92
266.313	3.9
266.687	3.48
267.061	3.23
267.435	3.49
267.809	3.35
268.183	3.39
268.556	3.34
268.93	3.42
269.304	3.14
269.678	3.09
270.051	2.92
270.425	2.75
270.799	2.67
271.172	2.74
271.546	2.96
271.919	2.88
272.293	2.99
272.666	2.82
273.04	3.01
273.413	2.84
273.787	2.75
274.16	2.6
274.533	3.09
274.906	3.32
275.279	3.12
275.653	3.12
276.026	3.05
276.399	3.02
276.772	3.03
277.145	3.33
277.518	3.06
277.891	3.1
278.263	3.5
278.636	3.61
279.009	3.45
279.382	3.39
279.755	3.59
280.127	3.57
280.5	3.68
280.872	3.62
281.245	3.74
281.617	3.78
281.99	3.61
282.362	3.4
282.735	3.1
283.107	2.98
283.479	3.07
283.852	3.11
284.224	3.15
284.596	2.97
284.968	2.95
285.34	3.21
285.713	3.37
286.085	3.06
286.457	2.99
286.829	3.07
287.201	3.04
287.572	3
287.944	3.03
288.316	3.13
288.688	3.31
289.06	3.29
289.431	3.36
289.803	3.73
290.175	3.77
290.546	3.87
290.918	3.98
291.289	3.91
291.661	3.88
292.032	3.95
292.403	3.93
292.775	3.84
293.146	3.89
293.517	3.78
293.889	3.88
294.26	3.93
294.631	4.09
295.002	4.22
295.373	4.11
295.744	4.12
296.115	4.13
296.486	4.04
296.857	4.06
297.228	4
297.599	3.92
297.97	3.91
298.34	3.96
298.711	3.92
299.082	3.99
299.452	4.01
299.823	3.87
300.194	3.91
300.564	3.98
300.935	3.98
301.305	4.01
301.676	4.01
302.046	3.96
302.416	3.72
302.787	3.62
303.157	3.63
303.527	3.78
303.897	3.66
304.267	3.68
304.637	3.67
305.008	3.81
305.378	3.85
305.748	3.81
306.117	3.98
306.487	4.1
306.857	4.22
307.227	4.43
307.597	4.5
307.967	4.62
308.336	4.71
308.706	4.76
309.076	4.89
309.445	5.11
309.815	5.24
310.184	5.32
310.554	5.26
310.923	5.33
311.293	5.26
311.662	5.49
312.031	5.63
312.401	5.65
312.77	5.76
313.139	5.81
313.508	5.89
313.877	5.89
314.246	5.96
314.616	6.02
314.985	5.96
315.353	6.04
315.722	6.13
316.091	6.12
316.46	6.22
316.829	6.31
317.198	6.3
317.567	6.43
317.935	6.43
318.304	6.66
318.672	6.93
319.041	6.88
319.41	6.85
319.778	6.79
320.147	6.79
320.515	6.8
320.883	6.61
321.252	6.76
321.62	6.7
321.988	6.86
322.357	6.73
322.725	6.78
323.093	7.01
323.461	6.83
323.829	6.86
324.197	6.81
324.565	6.67
324.933	6.61
325.301	6.51
325.669	6.79
326.037	6.82
326.405	6.72
326.772	6.8
327.14	6.77
327.508	6.81
327.875	6.85
328.243	6.77
328.61	6.95
328.978	6.96
329.346	6.98
329.713	6.99
330.08	7.16
330.448	7.03
330.815	6.97
331.182	7.07
331.55	7.11
331.917	7.03
332.284	7.24
332.651	7.28
333.018	7.46
333.385	7.31
333.752	7.17
334.119	7.33
334.486	7.46
334.853	7.49
335.22	7.54
335.587	7.56
335.954	7.52
336.32	7.47
336.687	7.48
337.054	7.49
337.42	7.44
337.787	7.37
338.153	7.64
338.52	7.7
338.886	7.81
339.253	7.75
339.619	7.89
339.986	7.79
340.352	7.71
340.718	7.58
341.084	7.51
341.451	7.64
341.817	7.5
342.183	7.35
342.549	7.34
342.915	7.26
343.281	7.34
343.647	7.43
344.013	7.48
344.379	7.41
344.745	7.47
345.11	7.39
345.476	7.3
345.842	7.23
346.208	7.13
346.573	7.06
346.939	7.11
347.304	7.13
347.67	7.07
348.035	7.08
348.401	7.06
348.766	7.04
349.132	6.95
349.497	6.89
349.862	6.94
350.228	6.99
350.593	7.03
350.958	7.07
351.323	7.05
351.688	7.14
352.053	7.13
352.418	7.2
352.783	7.27
353.148	7.36
353.513	7.2
353.878	7.23
354.243	7.19
354.608	7.18
354.972	7.12
355.337	7.21
355.702	7.1
356.066	7.12
356.431	7.1
356.795	7.12
357.16	7.1
357.524	7.08
357.889	7.02
358.253	7.03
358.618	6.97
358.982	6.95
359.346	6.78
359.71	6.72
360.075	6.67
360.439	6.63
360.803	6.66
361.167	6.68
361.531	6.62
361.895	6.61
362.259	6.53
362.623	6.46
362.987	6.37
363.351	6.43
363.714	6.37
364.078	6.44
364.442	6.39
364.806	6.41
365.169	6.37
365.533	6.36
365.896	6.34
366.26	6.32
366.623	6.34
366.987	6.36
367.35	6.36
367.714	6.33
368.077	6.34
368.44	6.18
368.803	6.15
369.167	6.11
369.53	6.08
369.893	6.06
370.256	6.03
370.619	5.98
370.982	5.89
371.345	5.94
371.708	5.85
372.071	5.77
372.434	5.74
372.797	5.69
373.159	5.62
373.522	5.54
373.885	5.46
374.247	5.38
374.61	5.36
374.973	5.3
375.335	5.26
375.698	5.14
376.06	5.2
376.423	5.15
376.785	5.14
377.147	5.07
377.51	5.01
377.872	5.03
378.234	5.07
378.596	5.08
378.958	4.97
379.321	4.94
379.683	4.98
380.045	4.94
380.407	4.92
380.769	4.84
381.13	4.8
381.492	4.74
381.854	4.81
382.216	4.81
382.578	4.86
382.939	4.88
383.301	4.88
383.663	4.82
384.024	4.79
384.386	4.79
384.747	4.75
385.109	4.74
385.47	4.7
385.832	4.62
386.193	4.54
386.554	4.51
386.916	4.49
387.277	4.43
387.638	4.4
387.999	4.4
388.36	4.4
388.721	4.4
389.082	4.4
389.443	4.27
389.804	4.23
390.165	4.18
390.526	4.09
390.887	4.03
391.248	4
391.609	3.99
391.969	3.96
392.33	3.95
392.691	3.97
393.051	3.93
393.412	3.94
393.772	3.97
394.133	3.95
394.493	3.96
394.854	3.96
395.214	3.97
395.574	3.93
395.935	3.94
396.295	3.88
396.655	3.86
397.015	3.85
397.376	3.79
397.736	3.74
398.096	3.75
398.456	3.75
398.816	3.75
399.176	3.71
399.535	3.67
399.895	3.63
400.255	3.59
400.615	3.57
400.975	3.57
401.334	3.55
401.694	3.56
402.054	3.51
402.413	3.46
402.773	3.43
403.132	3.42
403.492	3.4
403.851	3.42
404.211	3.4
404.57	3.4
404.929	3.41
405.288	3.43
405.648	3.41
406.007	3.41
406.366	3.42
406.725	3.41
407.084	3.38
407.443	3.4
407.802	3.41
408.161	3.41
408.52	3.39
408.879	3.39
409.238	3.37
409.596	3.38
409.955	3.39
410.314	3.35
410.673	3.34
411.031	3.33
411.39	3.33
411.748	3.35
412.107	3.34
412.465	3.33
412.824	3.3
413.182	3.3
413.54	3.29
413.899	3.25
414.257	3.23
414.615	3.22
414.974	3.23
415.332	3.17
415.69	3.16
416.048	3.16
416.406	3.13
416.764	3.1
417.122	3.08
417.48	3.08
417.838	3.08
418.195	3.06
418.553	3.03
418.911	3.01
419.269	2.99
419.626	2.99
419.984	2.99
420.342	2.99
420.699	2.98
421.057	2.97
421.414	2.96
421.772	2.97
422.129	2.97
422.486	2.95
422.844	2.97
423.201	2.98
423.558	2.96
423.915	2.96
424.273	2.97
424.63	2.96
424.987	2.96
425.344	2.95
425.701	2.95
426.058	2.96
426.415	2.95
426.772	2.93
427.128	2.93
427.485	2.92
427.842	2.91
428.199	2.91
428.555	2.92
428.912	2.94
429.269	2.93
429.625	2.94
429.982	2.97
430.338	2.95
430.695	2.91
431.051	2.92
431.407	2.92
431.764	2.91
432.12	2.92
432.476	2.91
432.832	2.93
433.189	2.94
433.545	2.94
433.901	2.93
434.257	2.93
434.613	2.92
434.969	2.91
435.325	2.89
435.681	2.89
436.036	2.88
436.392	2.87
436.748	2.87
437.104	2.86
437.459	2.83
437.815	2.85
438.171	2.86
438.526	2.85
438.882	2.85
439.237	2.85
439.593	2.84
439.948	2.85
440.304	2.82
440.659	2.81
441.014	2.81
441.369	2.82
441.725	2.82
442.08	2.81
442.435	2.81
442.79	2.83
443.145	2.83
443.5	2.82
443.855	2.81
444.21	2.82
444.565	2.81
444.92	2.83
445.275	2.84
445.629	2.83
445.984	2.83
446.339	2.85
446.693	2.85
447.048	2.84
447.403	2.83
447.757	2.84
448.112	2.85
448.466	2.84
448.82	2.84
449.175	2.84
449.529	2.85
449.883	2.84
450.238	2.83
450.592	2.81
450.946	2.83
451.3	2.84
451.654	2.83
452.008	2.83
452.362	2.82
452.716	2.79
453.07	2.8
453.424	2.79
453.778	2.75
454.132	2.75
454.486	2.73
454.839	2.72
455.193	2.75
455.547	2.75
455.9	2.75
456.254	2.76
456.607	2.76
456.961	2.78
457.314	2.78
457.668	2.77
458.021	2.79
458.375	2.79
458.728	2.77
459.081	2.78
459.434	2.78
459.787	2.78
460.141	2.78
460.494	2.81
460.847	2.8
461.2	2.82
461.553	2.84
461.906	2.85
462.259	2.87
462.611	2.85
462.964	2.84
463.317	2.88
463.67	2.87
464.022	2.88
464.375	2.86
464.728	2.87
465.08	2.89
465.433	2.9
465.785	2.89
466.138	2.88
466.49	2.88
466.843	2.89
467.195	2.91
467.547	2.9
467.899	2.88
468.252	2.89
468.604	2.88
468.956	2.86
469.308	2.87
469.66	2.89
470.012	2.92
470.364	2.93
470.716	2.92
471.068	2.92
471.42	2.94
471.772	2.95
472.123	2.95
472.475	2.94
472.827	2.91
473.178	2.9
473.53	2.92
473.882	2.92
474.233	2.92
474.585	2.9
474.936	2.92
475.288	2.9
475.639	2.92
475.99	2.9
476.342	2.91
476.693	2.93
477.044	2.92
477.395	2.89
477.746	2.87
478.097	2.86
478.448	2.86
478.8	2.82
479.15	2.81
479.501	2.81
479.852	2.81
480.203	2.82
480.554	2.82
480.905	2.82
481.255	2.84
481.606	2.84
481.957	2.85
482.307	2.85
482.658	2.86
483.009	2.85
483.359	2.85
483.709	2.85
484.06	2.84
484.41	2.83
484.761	2.84
485.111	2.85
485.461	2.85
485.811	2.86
486.162	2.88
486.512	2.89
486.862	2.89
487.212	2.9
487.562	2.9
487.912	2.91
488.262	2.92
488.612	2.91
488.961	2.91
489.311	2.91
489.661	2.91
490.011	2.92
490.36	2.93
490.71	2.94
491.06	2.95
491.409	2.96
491.759	2.97
492.108	2.97
492.458	3
492.807	3.01
493.157	3.01
493.506	3.02
493.855	3.02
494.204	3.04
494.554	3.05
494.903	3.06
495.252	3.08
495.601	3.1
495.95	3.11
496.299	3.12
496.648	3.13
496.997	3.14
497.346	3.18
497.695	3.21
498.043	3.24
498.392	3.26
498.741	3.28
499.09	3.31
499.438	3.34
499.787	3.34
500.135	3.34
500.484	3.38
500.832	3.41
501.181	3.42
501.529	3.44
501.878	3.49
502.226	3.53
502.574	3.58
502.923	3.59
503.271	3.63
503.619	3.68
503.967	3.71
504.315	3.74
504.663	3.73
505.011	3.75
505.359	3.75
505.707	3.76
506.055	3.8
506.403	3.83
506.751	3.82
507.098	3.87
507.446	3.92
507.794	3.95
508.141	3.97
508.489	3.99
508.837	4
509.184	4.02
509.531	4.05
509.879	4.07
510.226	4.1
510.574	4.12
510.921	4.17
511.268	4.23
511.616	4.27
511.963	4.34
512.31	4.36
512.657	4.42
513.004	4.47
513.351	4.53
513.698	4.56
514.045	4.61
514.392	4.64
514.739	4.69
515.086	4.74
515.432	4.8
515.779	4.89
516.126	4.96
516.473	4.99
516.819	5.04
517.166	5.08
517.512	5.14
517.859	5.21
518.205	5.23
518.552	5.28
518.898	5.33
519.245	5.38
519.591	5.46
519.937	5.51
520.283	5.59
520.629	5.64
520.976	5.71
521.322	5.81
521.668	5.89
522.014	5.98
522.36	6.07
522.706	6.18
523.052	6.28
523.398	6.39
523.743	6.53
524.089	6.63
524.435	6.74
524.781	6.87
525.126	6.96
525.472	7.08
525.817	7.15
526.163	7.24
526.509	7.31
526.854	7.38
527.199	7.46
527.545	7.55
527.89	7.61
528.235	7.7
528.581	7.79
528.926	7.88
529.271	7.95
529.616	8.04
529.961	8.11
530.306	8.21
530.651	8.31
530.996	8.41
531.341	8.52
531.686	8.66
532.031	8.76
532.376	8.89
532.721	9.02
533.065	9.16
533.41	9.3
533.755	9.46
534.099	9.63
534.444	9.78
534.788	9.93
535.133	10.1
535.477	10.25
535.822	10.42
536.166	10.6
536.51	10.8
536.855	11.02
537.199	11.24
537.543	11.44
537.887	11.7
538.231	11.95
538.576	12.2
538.92	12.44
539.264	12.66
539.608	12.87
539.951	13.06
540.295	13.27
540.639	13.47
540.983	13.66
541.327	13.86
541.671	14.04
542.014	14.21
542.358	14.4
542.701	14.61
543.045	14.79
543.389	15.01
543.732	15.21
544.075	15.43
544.419	15.68
544.762	15.89
545.105	16.11
545.449	16.33
545.792	16.58
546.135	16.83
546.478	17.09
546.821	17.38
547.165	17.7
547.508	18
547.851	18.31
548.194	18.6
548.536	18.89
548.879	19.2
549.222	19.51
549.565	19.82
549.908	20.11
550.25	20.46
550.593	20.77
550.936	21.11
551.278	21.4
551.621	21.66
551.963	22.02
552.306	22.35
552.648	22.69
552.991	23.04
553.333	23.33
553.675	23.7
554.017	24.05
554.36	24.31
554.702	24.62
555.044	24.97
555.386	25.32
555.728	25.62
556.07	26
556.412	26.36
556.754	26.68
557.096	26.99
557.438	27.32
557.78	27.68
558.121	28.04
558.463	28.37
558.805	28.75
559.147	29.07
559.488	29.4
559.83	29.67
560.171	29.95
560.513	30.28
560.854	30.6
561.196	30.88
561.537	31.18
561.878	31.48
562.22	31.77
562.561	32.09
562.902	32.35
563.243	32.6
563.584	32.89
563.925	33.2
564.266	33.49
564.607	33.68
564.948	33.89
565.289	34.17
565.63	34.43
565.971	34.73
566.312	34.95
566.653	35.24
566.993	35.48
567.334	35.74
567.675	36.05
568.015	36.24
568.356	36.5
568.696	36.77
569.037	37.03
569.377	37.24
569.718	37.44
570.058	37.68
570.398	37.94
570.739	38.21
571.079	38.45
571.419	38.64
571.759	38.91
572.099	39.17
572.439	39.38
572.779	39.67
573.119	39.84
573.459	40.08
573.799	40.25
574.139	40.47
574.479	40.73
574.819	40.95
575.158	41.15
575.498	41.33
575.838	41.54
576.177	41.74
576.517	41.94
576.856	42.22
577.196	42.54
577.535	42.73
577.875	42.93
578.214	43.2
578.553	43.54
578.893	43.78
579.232	43.99
579.571	44.24
579.91	44.41
580.25	44.68
580.589	44.94
580.928	45.15
581.267	45.34
581.606	45.51
581.945	45.71
582.283	45.95
582.622	46.12
582.961	46.38
583.3	46.55
583.639	46.82
583.977	47.01
584.316	47.15
584.654	47.35
584.993	47.58
585.332	47.65
585.67	47.8
586.008	48.08
586.347	48.27
586.685	48.33
587.024	48.49
587.362	48.62
587.7	48.69
588.038	48.91
588.376	49.15
588.715	49.27
589.053	49.32
589.391	49.47
589.729	49.71
590.067	49.86
590.404	50
590.742	50.14
591.08	50.25
591.418	50.29
591.756	50.45
592.093	50.49
592.431	50.61
592.769	50.71
593.106	50.68
593.444	50.82
593.781	50.93
594.119	51.06
594.456	51.1
594.793	51.26
595.131	51.28
595.468	51.38
595.805	51.48
596.143	51.51
596.48	51.65
596.817	51.73
597.154	51.82
597.491	51.97
597.828	52.04
598.165	52.15
598.502	52.33
598.839	52.46
599.176	52.51
599.512	52.64
599.849	52.75
600.186	52.91
600.523	52.98
600.859	53.1
601.196	53.17
601.532	53.24
601.869	53.36
602.205	53.43
602.542	53.5
602.878	53.53
603.215	53.72
603.551	53.73
603.887	53.78
604.223	53.88
604.56	53.92
604.896	54.01
605.232	53.99
605.568	54.1
605.904	54.1
606.24	54.34
606.576	54.35
606.912	54.41
607.248	54.41
607.583	54.45
607.919	54.59
608.255	54.66
608.591	54.75
608.926	54.88
609.262	55.01
609.597	55.04
609.933	55.19
610.268	55.26
610.604	55.37
610.939	55.42
611.275	55.52
611.61	55.53
611.945	55.6
612.281	55.71
612.616	55.76
612.951	55.86
613.286	55.81
613.621	56.06
613.956	56.32
614.291	56.55
614.626	56.72
614.961	56.86
615.296	57.04
615.631	57.24
615.966	57.22
616.3	57.24
616.635	57.4
616.97	57.45
617.304	57.48
617.639	57.57
617.973	57.61
618.308	57.67
618.642	57.72
618.977	57.71
619.311	57.85
619.646	57.93
619.98	57.91
620.314	58.06
620.648	58.1
620.983	58.03
621.317	58.07
621.651	58.21
621.985	58.26
622.319	58.2
622.653	58.14
622.987	58.2
623.321	58.24
623.655	58.26
623.988	58.35
624.322	58.4
624.656	58.4
624.99	58.51
625.323	58.42
625.657	58.53
625.99	58.71
626.324	58.72
626.657	58.69
626.991	58.75
627.324	58.73
627.658	58.67
627.991	58.8
628.324	58.81
628.657	58.83
628.991	58.87
629.324	58.93
629.657	58.96
629.99	59.07
630.323	59.17
630.656	59.14
630.989	59.09
631.322	59.08
631.655	59.05
631.987	59.08
632.32	59.11
632.653	59.04
632.986	58.98
633.318	59.05
633.651	59.28
633.984	59.42
634.316	59.49
634.649	59.59
634.981	59.55
635.313	59.55
635.646	59.46
635.978	59.44
636.31	59.52
636.643	59.64
636.975	59.63
637.307	59.68
637.639	59.85
637.971	59.92
638.303	60
638.635	60.18
638.967	60.32
639.299	60.49
639.631	60.61
639.963	60.61
640.295	60.49
640.626	60.28
640.958	60.26
641.29	60.32
641.621	60.3
641.953	60.28
642.285	60.43
642.616	60.54
642.948	60.46
643.279	60.48
643.61	60.56
643.942	60.63
644.273	60.71
644.604	60.63
644.936	60.75
645.267	60.87
645.598	60.87
645.929	60.74
646.26	60.7
646.591	60.78
646.922	60.98
647.253	61.13
647.584	61.19
647.915	61.23
648.245	61.22
648.576	61.2
648.907	61.23
649.238	61.2
649.568	61.27
649.899	61.3
650.229	61.34
650.56	61.28
650.89	61.16
651.221	61.06
651.551	61.15
651.882	61.11
652.212	61.06
652.542	60.97
652.872	60.87
653.203	60.97
653.533	60.97
653.863	60.88
654.193	60.82
654.523	60.93
654.853	60.9
655.183	61
655.513	61.1
655.843	61.07
656.172	61.16
656.502	61.02
656.832	61.12
657.162	61.08
657.491	61.08
657.821	61.11
658.15	61.24
658.48	61.19
658.809	61.25
659.139	61.32
659.468	61.37
659.798	61.51
660.127	61.48
660.456	61.56
660.785	61.6
661.115	61.72
661.444	61.84
661.773	61.99
662.102	61.96
662.431	61.92
662.76	61.99
663.089	61.88
663.418	61.96
663.747	62
664.076	62.09
664.404	62.27
664.733	62.56
665.062	62.57
665.39	62.56
665.719	62.51
666.048	62.35
666.376	62.39
666.705	62.44
667.033	62.46
