Data from BA55658_Reflection_00002.txt Node
Date: Tue Nov 19 11:55:28 EST 2019
User: vgr7
Spectrometer: USB2G7710
Scans to average: 3
Trigger mode: 4
Integration Time (sec): 2.000000E-2
Electric dark correction enabled: true
Boxcar width: 10
XAxis mode: Wavelengths
Number of Pixels in Spectrum: 2048
>>>>>Begin Spectral Data<<<<<
177.721	-152.6
178.105	-156.56
178.488	-162.82
178.871	-214.62
179.254	-173.24
179.636	-291.39
180.019	-1872.97
180.402	257.14
180.785	-1414.29
181.168	-1592.31
181.55	265.8
181.933	146.09
182.316	105.86
182.698	65.47
183.081	57.68
183.463	42.17
183.846	19.44
184.228	18.64
184.611	28.03
184.993	14.96
185.376	-6.48
185.758	-6.35
186.14	-9.73
186.522	8.08
186.904	17.26
187.287	26.6
187.669	22.42
188.051	62.35
188.433	106.34
188.815	81.57
189.197	80.65
189.579	88.04
189.961	129.22
190.342	197.19
190.724	259.25
191.106	-2729.27
191.488	558.56
191.869	-879.87
192.251	-313.66
192.633	-248.29
193.014	-539.48
193.396	-767
193.777	-282.57
194.159	-462.28
194.54	-195.4
194.922	-123.71
195.303	-166.02
195.684	608.02
196.065	421.24
196.447	108.76
196.828	308.53
197.209	92.35
197.59	41.79
197.971	7.36
198.352	-59.74
198.733	-22.78
199.114	-54.31
199.495	-47
199.876	-103.23
200.257	-116.63
200.638	-91.68
201.018	-38.12
201.399	-332.43
201.78	60.73
202.16	-123.53
202.541	154.95
202.922	-19.37
203.302	-35.9
203.683	-47.37
204.063	-105.41
204.444	-17.65
204.824	-13.38
205.204	-13.22
205.585	-48.99
205.965	-110.22
206.345	-165.65
206.725	-116.83
207.106	-133.6
207.486	-180
207.866	-175.99
208.246	-109.11
208.626	-143.13
209.006	-154.93
209.386	-143.1
209.766	-112.74
210.145	-107.88
210.525	-110.53
210.905	-106.56
211.285	-103.9
211.664	-79.62
212.044	-75.04
212.424	-79.54
212.803	-99.11
213.183	-87.69
213.562	-55.16
213.942	-49.75
214.321	-59.15
214.701	-52.29
215.08	-37.91
215.459	-5.85
215.838	17.7
216.218	53.45
216.597	30.32
216.976	12.76
217.355	7.68
217.734	-14.25
218.113	37.23
218.492	20.11
218.871	21.26
219.25	27.44
219.629	58.51
220.008	-17.65
220.387	-5.66
220.766	541.56
221.144	-408.2
221.523	16.91
221.902	-40.4
222.28	5700
222.659	77.34
223.037	12.13
223.416	-27.84
223.794	2.48
224.173	-4.58
224.551	0.94
224.929	7.93
225.308	0.58
225.686	7.47
226.064	0.82
226.442	9.72
226.821	8.84
227.199	7.11
227.577	9.75
227.955	6.96
228.333	4.25
228.711	0.16
229.089	2
229.467	7.41
229.845	4.88
230.222	5.18
230.6	4.35
230.978	7.68
231.356	8.13
231.733	4.7
232.111	3.56
232.488	3.6
232.866	6.98
233.243	7.4
233.621	7.59
233.998	4.36
234.376	2.97
234.753	1.56
235.13	2.98
235.508	2.44
235.885	3.22
236.262	1.71
236.639	0.78
237.016	-1.57
237.393	-3.98
237.77	-3.77
238.147	-3.81
238.524	-2.78
238.901	-3.66
239.278	-2.99
239.655	-3
240.032	-3.4
240.409	-2.89
240.785	-3.18
241.162	-3.03
241.539	-3.28
241.915	-1.97
242.292	-1.39
242.668	-0.71
243.045	-0.54
243.421	0.11
243.798	0.66
244.174	1.41
244.551	1.85
244.927	2.26
245.303	2.33
245.679	2.24
246.056	2.25
246.432	1.9
246.808	1.98
247.184	2.14
247.56	1.99
247.936	2.42
248.312	2.41
248.688	2.33
249.064	2.43
249.44	2.71
249.815	2.71
250.191	2.73
250.567	2.83
250.943	2.93
251.318	2.74
251.694	2.37
252.069	2.12
252.445	2.02
252.82	2.09
253.196	2.09
253.571	2.36
253.947	2.36
254.322	2.25
254.697	2.29
255.073	2.05
255.448	2.34
255.823	2.48
256.198	2.55
256.573	2.7
256.948	2.81
257.323	2.84
257.698	2.83
258.073	2.73
258.448	2.7
258.823	2.57
259.198	2.65
259.573	2.49
259.948	2.73
260.322	2.63
260.697	2.62
261.072	2.75
261.446	2.73
261.821	2.66
262.195	2.86
262.57	3
262.944	2.98
263.319	3.03
263.693	2.86
264.067	2.82
264.442	2.79
264.816	2.72
265.19	2.58
265.564	2.66
265.938	2.63
266.313	2.6
266.687	2.51
267.061	2.72
267.435	3.07
267.809	2.91
268.183	3.12
268.556	2.81
268.93	2.72
269.304	2.72
269.678	2.66
270.051	2.56
270.425	2.45
270.799	2.26
271.172	2.11
271.546	2.26
271.919	2.35
272.293	2.31
272.666	2.31
273.04	2.28
273.413	2.12
273.787	2.08
274.16	1.9
274.533	2.02
274.906	1.89
275.279	1.81
275.653	1.83
276.026	1.68
276.399	1.83
276.772	1.9
277.145	1.86
277.518	2.09
277.891	2.28
278.263	2.39
278.636	2.5
279.009	2.55
279.382	2.38
279.755	2.3
280.127	2.39
280.5	2.47
280.872	2.53
281.245	2.41
281.617	2.66
281.99	2.79
282.362	2.76
282.735	2.64
283.107	2.84
283.479	2.76
283.852	2.77
284.224	2.72
284.596	2.63
284.968	2.64
285.34	2.51
285.713	2.66
286.085	2.44
286.457	2.49
286.829	2.57
287.201	2.68
287.572	2.71
287.944	2.67
288.316	2.66
288.688	2.65
289.06	2.83
289.431	2.69
289.803	2.7
290.175	2.73
290.546	2.76
290.918	2.6
291.289	2.4
291.661	2.5
292.032	2.62
292.403	2.63
292.775	2.75
293.146	2.75
293.517	2.56
293.889	2.66
294.26	2.64
294.631	2.66
295.002	2.72
295.373	2.8
295.744	2.85
296.115	2.76
296.486	2.76
296.857	2.76
297.228	2.76
297.599	2.78
297.97	2.73
298.34	2.76
298.711	2.82
299.082	3.03
299.452	2.85
299.823	2.87
300.194	2.86
300.564	2.78
300.935	2.86
301.305	2.84
301.676	2.73
302.046	2.74
302.416	2.71
302.787	2.69
303.157	2.51
303.527	2.54
303.897	2.47
304.267	2.58
304.637	2.55
305.008	2.65
305.378	2.64
305.748	2.75
306.117	2.57
306.487	2.54
306.857	2.7
307.227	2.89
307.597	2.89
307.967	2.89
308.336	2.88
308.706	2.75
309.076	2.76
309.445	2.92
309.815	2.9
310.184	2.77
310.554	2.66
310.923	2.66
311.293	2.69
311.662	2.82
312.031	2.74
312.401	2.65
312.77	2.6
313.139	2.79
313.508	2.73
313.877	2.94
314.246	2.94
314.616	2.78
314.985	2.75
315.353	2.71
315.722	2.99
316.091	2.99
316.46	3.04
316.829	2.95
317.198	2.82
317.567	3.08
317.935	3.28
318.304	3.29
318.672	3.26
319.041	3.14
319.41	3.07
319.778	3.09
320.147	3.1
320.515	3.23
320.883	2.9
321.252	2.95
321.62	2.87
321.988	2.82
322.357	2.73
322.725	2.75
323.093	2.61
323.461	2.39
323.829	2.39
324.197	2.46
324.565	2.48
324.933	2.53
325.301	2.26
325.669	2.22
326.037	2.26
326.405	2.36
326.772	2.4
327.14	2.29
327.508	2.28
327.875	2.27
328.243	2.18
328.61	2.27
328.978	2.14
329.346	2.27
329.713	2.31
330.08	2.37
330.448	2.14
330.815	2.36
331.182	2.3
331.55	2.33
331.917	2.34
332.284	2.3
332.651	2.46
333.018	2.41
333.385	2.43
333.752	2.45
334.119	2.44
334.486	2.54
334.853	2.61
335.22	2.5
335.587	2.38
335.954	2.38
336.32	2.41
336.687	2.51
337.054	2.33
337.42	2.32
337.787	2.26
338.153	2.45
338.52	2.43
338.886	2.43
339.253	2.45
339.619	2.46
339.986	2.51
340.352	2.44
340.718	2.5
341.084	2.54
341.451	2.61
341.817	2.49
342.183	2.36
342.549	2.37
342.915	2.48
343.281	2.61
343.647	2.59
344.013	2.57
344.379	2.65
344.745	2.76
345.11	2.82
345.476	2.91
345.842	2.89
346.208	2.88
346.573	2.78
346.939	2.8
347.304	2.82
347.67	2.78
348.035	2.85
348.401	2.86
348.766	2.84
349.132	2.77
349.497	2.9
349.862	2.89
350.228	3.03
350.593	2.9
350.958	3.07
351.323	3.15
351.688	3.16
352.053	3.13
352.418	3.07
352.783	3.11
353.148	3.13
353.513	3.1
353.878	3.02
354.243	3.09
354.608	3.08
354.972	3.07
355.337	3.2
355.702	3.03
356.066	3.01
356.431	2.93
356.795	2.93
357.16	2.89
357.524	2.94
357.889	2.87
358.253	2.87
358.618	2.82
358.982	2.7
359.346	2.67
359.71	2.57
360.075	2.62
360.439	2.58
360.803	2.59
361.167	2.56
361.531	2.61
361.895	2.63
362.259	2.66
362.623	2.67
362.987	2.55
363.351	2.62
363.714	2.7
364.078	2.76
364.442	2.76
364.806	2.81
365.169	2.82
365.533	2.85
365.896	2.94
366.26	2.92
366.623	2.97
366.987	2.99
367.35	3.07
367.714	3.01
368.077	3.07
368.44	3
368.803	3.04
369.167	2.92
369.53	2.98
369.893	2.94
370.256	2.9
370.619	2.88
370.982	2.84
371.345	2.77
371.708	2.78
372.071	2.82
372.434	2.83
372.797	2.82
373.159	2.73
373.522	2.61
373.885	2.61
374.247	2.66
374.61	2.6
374.973	2.53
375.335	2.5
375.698	2.42
376.06	2.44
376.423	2.38
376.785	2.45
377.147	2.41
377.51	2.36
377.872	2.39
378.234	2.51
378.596	2.5
378.958	2.58
379.321	2.49
379.683	2.46
380.045	2.35
380.407	2.32
380.769	2.38
381.13	2.44
381.492	2.39
381.854	2.39
382.216	2.43
382.578	2.48
382.939	2.5
383.301	2.52
383.663	2.51
384.024	2.56
384.386	2.56
384.747	2.58
385.109	2.59
385.47	2.6
385.832	2.58
386.193	2.64
386.554	2.59
386.916	2.66
387.277	2.61
387.638	2.68
387.999	2.69
388.36	2.68
388.721	2.71
389.082	2.75
389.443	2.75
389.804	2.78
390.165	2.75
390.526	2.8
390.887	2.8
391.248	2.8
391.609	2.8
391.969	2.78
392.33	2.76
392.691	2.76
393.051	2.74
393.412	2.77
393.772	2.73
394.133	2.76
394.493	2.75
394.854	2.76
395.214	2.77
395.574	2.81
395.935	2.81
396.295	2.81
396.655	2.8
397.015	2.83
397.376	2.78
397.736	2.79
398.096	2.73
398.456	2.75
398.816	2.78
399.176	2.75
399.535	2.77
399.895	2.78
400.255	2.76
400.615	2.76
400.975	2.73
401.334	2.75
401.694	2.75
402.054	2.75
402.413	2.77
402.773	2.76
403.132	2.71
403.492	2.71
403.851	2.68
404.211	2.66
404.57	2.66
404.929	2.69
405.288	2.74
405.648	2.77
406.007	2.75
406.366	2.69
406.725	2.72
407.084	2.73
407.443	2.72
407.802	2.73
408.161	2.75
408.52	2.75
408.879	2.75
409.238	2.73
409.596	2.76
409.955	2.73
410.314	2.73
410.673	2.72
411.031	2.72
411.39	2.74
411.748	2.74
412.107	2.77
412.465	2.74
412.824	2.71
413.182	2.68
413.54	2.68
413.899	2.7
414.257	2.71
414.615	2.7
414.974	2.74
415.332	2.77
415.69	2.74
416.048	2.74
416.406	2.71
416.764	2.69
417.122	2.66
417.48	2.65
417.838	2.66
418.195	2.68
418.553	2.68
418.911	2.68
419.269	2.68
419.626	2.64
419.984	2.65
420.342	2.66
420.699	2.67
421.057	2.67
421.414	2.66
421.772	2.66
422.129	2.65
422.486	2.64
422.844	2.63
423.201	2.64
423.558	2.63
423.915	2.63
424.273	2.64
424.63	2.65
424.987	2.66
425.344	2.68
425.701	2.68
426.058	2.67
426.415	2.66
426.772	2.65
427.128	2.67
427.485	2.68
427.842	2.67
428.199	2.68
428.555	2.7
428.912	2.74
429.269	2.73
429.625	2.74
429.982	2.74
430.338	2.75
430.695	2.73
431.051	2.75
431.407	2.76
431.764	2.74
432.12	2.74
432.476	2.78
432.832	2.76
433.189	2.74
433.545	2.75
433.901	2.75
434.257	2.76
434.613	2.75
434.969	2.72
435.325	2.74
435.681	2.72
436.036	2.7
436.392	2.7
436.748	2.71
437.104	2.71
437.459	2.71
437.815	2.7
438.171	2.72
438.526	2.71
438.882	2.73
439.237	2.72
439.593	2.73
439.948	2.7
440.304	2.69
440.659	2.71
441.014	2.7
441.369	2.7
441.725	2.71
442.08	2.7
442.435	2.72
442.79	2.69
443.145	2.71
443.5	2.7
443.855	2.69
444.21	2.69
444.565	2.7
444.92	2.7
445.275	2.69
445.629	2.69
445.984	2.69
446.339	2.69
446.693	2.71
447.048	2.7
447.403	2.71
447.757	2.72
448.112	2.72
448.466	2.72
448.82	2.72
449.175	2.71
449.529	2.73
449.883	2.72
450.238	2.74
450.592	2.73
450.946	2.74
451.3	2.74
451.654	2.73
452.008	2.71
452.362	2.72
452.716	2.72
453.07	2.72
453.424	2.71
453.778	2.71
454.132	2.72
454.486	2.72
454.839	2.7
455.193	2.71
455.547	2.74
455.9	2.74
456.254	2.73
456.607	2.73
456.961	2.74
457.314	2.72
457.668	2.74
458.021	2.74
458.375	2.73
458.728	2.73
459.081	2.72
459.434	2.74
459.787	2.73
460.141	2.74
460.494	2.73
460.847	2.76
461.2	2.74
461.553	2.74
461.906	2.72
462.259	2.73
462.611	2.71
462.964	2.7
463.317	2.69
463.67	2.7
464.022	2.71
464.375	2.68
464.728	2.69
465.08	2.67
465.433	2.67
465.785	2.68
466.138	2.69
466.49	2.71
466.843	2.7
467.195	2.72
467.547	2.74
467.899	2.75
468.252	2.74
468.604	2.75
468.956	2.74
469.308	2.75
469.66	2.76
470.012	2.75
470.364	2.75
470.716	2.79
471.068	2.8
471.42	2.78
471.772	2.8
472.123	2.82
472.475	2.82
472.827	2.83
473.178	2.84
473.53	2.82
473.882	2.81
474.233	2.81
474.585	2.8
474.936	2.77
475.288	2.75
475.639	2.73
475.99	2.74
476.342	2.75
476.693	2.75
477.044	2.75
477.395	2.74
477.746	2.75
478.097	2.73
478.448	2.73
478.8	2.74
479.15	2.73
479.501	2.73
479.852	2.74
480.203	2.74
480.554	2.75
480.905	2.75
481.255	2.76
481.606	2.77
481.957	2.77
482.307	2.79
482.658	2.8
483.009	2.82
483.359	2.82
483.709	2.82
484.06	2.84
484.41	2.83
484.761	2.84
485.111	2.85
485.461	2.86
485.811	2.86
486.162	2.85
486.512	2.86
486.862	2.87
487.212	2.87
487.562	2.87
487.912	2.88
488.262	2.89
488.612	2.89
488.961	2.91
489.311	2.91
489.661	2.9
490.011	2.9
490.36	2.89
490.71	2.89
491.06	2.89
491.409	2.89
491.759	2.9
492.108	2.89
492.458	2.89
492.807	2.89
493.157	2.9
493.506	2.92
493.855	2.91
494.204	2.89
494.554	2.9
494.903	2.9
495.252	2.9
495.601	2.91
495.95	2.93
496.299	2.9
496.648	2.91
496.997	2.92
497.346	2.93
497.695	2.94
498.043	2.93
498.392	2.93
498.741	2.94
499.09	2.95
499.438	2.97
499.787	2.97
500.135	2.98
500.484	2.96
500.832	2.96
501.181	2.99
501.529	3.01
501.878	3.02
502.226	3
502.574	3
502.923	2.99
503.271	2.98
503.619	3
503.967	2.97
504.315	2.98
504.663	2.96
505.011	2.98
505.359	2.99
505.707	3
506.055	3
506.403	3
506.751	3
507.098	3.02
507.446	3.04
507.794	3.03
508.141	3.02
508.489	3.05
508.837	3.05
509.184	3.04
509.531	3.05
509.879	3.05
510.226	3.02
510.574	3.02
510.921	3.02
511.268	3.03
511.616	3.07
511.963	3.08
512.31	3.06
512.657	3.05
513.004	3.06
513.351	3.05
513.698	3.05
514.045	3.04
514.392	3.04
514.739	3.05
515.086	3.07
515.432	3.09
515.779	3.07
516.126	3.1
516.473	3.12
516.819	3.14
517.166	3.14
517.512	3.16
517.859	3.17
518.205	3.16
518.552	3.16
518.898	3.16
519.245	3.18
519.591	3.2
519.937	3.21
520.283	3.2
520.629	3.22
520.976	3.22
521.322	3.21
521.668	3.22
522.014	3.21
522.36	3.2
522.706	3.2
523.052	3.19
523.398	3.18
523.743	3.16
524.089	3.17
524.435	3.17
524.781	3.18
525.126	3.18
525.472	3.19
525.817	3.2
526.163	3.19
526.509	3.19
526.854	3.19
527.199	3.19
527.545	3.19
527.89	3.19
528.235	3.2
528.581	3.21
528.926	3.21
529.271	3.2
529.616	3.2
529.961	3.21
530.306	3.21
530.651	3.21
530.996	3.22
531.341	3.23
531.686	3.23
532.031	3.23
532.376	3.24
532.721	3.25
533.065	3.25
533.41	3.26
533.755	3.25
534.099	3.25
534.444	3.25
534.788	3.26
535.133	3.26
535.477	3.27
535.822	3.26
536.166	3.25
536.51	3.26
536.855	3.26
537.199	3.25
537.543	3.27
537.887	3.28
538.231	3.26
538.576	3.27
538.92	3.28
539.264	3.28
539.608	3.28
539.951	3.27
540.295	3.3
540.639	3.3
540.983	3.29
541.327	3.3
541.671	3.31
542.014	3.31
542.358	3.32
542.701	3.31
543.045	3.32
543.389	3.34
543.732	3.35
544.075	3.36
544.419	3.37
544.762	3.34
545.105	3.35
545.449	3.35
545.792	3.35
546.135	3.35
546.478	3.33
546.821	3.34
547.165	3.34
547.508	3.31
547.851	3.32
548.194	3.33
548.536	3.33
548.879	3.33
549.222	3.33
549.565	3.32
549.908	3.32
550.25	3.34
550.593	3.33
550.936	3.34
551.278	3.34
551.621	3.33
551.963	3.38
552.306	3.37
552.648	3.37
552.991	3.36
553.333	3.33
553.675	3.38
554.017	3.34
554.36	3.37
554.702	3.36
555.044	3.35
555.386	3.34
555.728	3.35
556.07	3.33
556.412	3.36
556.754	3.38
557.096	3.39
557.438	3.4
557.78	3.38
558.121	3.39
558.463	3.42
558.805	3.44
559.147	3.43
559.488	3.43
559.83	3.44
560.171	3.43
560.513	3.44
560.854	3.42
561.196	3.46
561.537	3.48
561.878	3.52
562.22	3.51
562.561	3.52
562.902	3.47
563.243	3.5
563.584	3.47
563.925	3.5
564.266	3.47
564.607	3.47
564.948	3.46
565.289	3.44
565.63	3.41
565.971	3.41
566.312	3.4
566.653	3.39
566.993	3.41
567.334	3.42
567.675	3.43
568.015	3.44
568.356	3.42
568.696	3.4
569.037	3.38
569.377	3.39
569.718	3.39
570.058	3.45
570.398	3.4
570.739	3.39
571.079	3.39
571.419	3.37
571.759	3.35
572.099	3.35
572.439	3.36
572.779	3.36
573.119	3.36
573.459	3.35
573.799	3.34
574.139	3.32
574.479	3.34
574.819	3.37
575.158	3.38
575.498	3.37
575.838	3.35
576.177	3.34
576.517	3.32
576.856	3.31
577.196	3.29
577.535	3.34
577.875	3.34
578.214	3.3
578.553	3.33
578.893	3.34
579.232	3.32
579.571	3.33
579.91	3.34
580.25	3.33
580.589	3.34
580.928	3.38
581.267	3.38
581.606	3.38
581.945	3.33
582.283	3.31
582.622	3.31
582.961	3.36
583.3	3.38
583.639	3.38
583.977	3.42
584.316	3.44
584.654	3.47
584.993	3.5
585.332	3.5
585.67	3.48
586.008	3.48
586.347	3.54
586.685	3.52
587.024	3.52
587.362	3.56
587.7	3.57
588.038	3.56
588.376	3.58
588.715	3.54
589.053	3.58
589.391	3.62
589.729	3.6
590.067	3.55
590.404	3.56
590.742	3.62
591.08	3.62
591.418	3.64
591.756	3.6
592.093	3.57
592.431	3.58
592.769	3.6
593.106	3.59
593.444	3.6
593.781	3.63
594.119	3.63
594.456	3.6
594.793	3.57
595.131	3.59
595.468	3.6
595.805	3.62
596.143	3.61
596.48	3.57
596.817	3.59
597.154	3.63
597.491	3.67
597.828	3.63
598.165	3.6
598.502	3.56
598.839	3.56
599.176	3.56
599.512	3.57
599.849	3.56
600.186	3.57
600.523	3.57
600.859	3.58
601.196	3.62
601.532	3.66
601.869	3.69
602.205	3.66
602.542	3.66
602.878	3.68
603.215	3.67
603.551	3.67
603.887	3.69
604.223	3.66
604.56	3.62
604.896	3.68
605.232	3.72
605.568	3.76
605.904	3.75
606.24	3.78
606.576	3.79
606.912	3.81
607.248	3.82
607.583	3.81
607.919	3.77
608.255	3.77
608.591	3.76
608.926	3.76
609.262	3.75
609.597	3.75
609.933	3.74
610.268	3.79
610.604	3.82
610.939	3.82
611.275	3.87
611.61	3.89
611.945	3.81
612.281	3.79
612.616	3.78
612.951	3.83
613.286	3.8
613.621	3.79
613.956	3.8
614.291	3.82
614.626	3.81
614.961	3.86
615.296	3.85
615.631	3.91
615.966	3.86
616.3	3.91
616.635	3.87
616.97	3.86
617.304	3.8
617.639	3.82
617.973	3.79
618.308	3.8
618.642	3.81
618.977	3.86
619.311	3.89
619.646	3.93
619.98	3.95
620.314	3.98
620.648	3.96
620.983	3.91
621.317	3.9
621.651	3.92
621.985	3.87
622.319	3.86
622.653	3.77
622.987	3.84
623.321	3.87
623.655	3.9
623.988	3.9
624.322	3.94
624.656	3.9
624.99	3.95
625.323	3.98
625.657	3.96
625.99	3.93
626.324	3.87
626.657	3.79
626.991	3.75
627.324	3.72
627.658	3.75
627.991	3.81
628.324	3.76
628.657	3.77
628.991	3.79
629.324	3.78
629.657	3.79
629.99	3.8
630.323	3.77
630.656	3.77
630.989	3.72
631.322	3.65
631.655	3.62
631.987	3.59
632.32	3.54
632.653	3.57
632.986	3.61
633.318	3.7
633.651	3.74
633.984	3.76
634.316	3.82
634.649	3.77
634.981	3.75
635.313	3.79
635.646	3.8
635.978	3.84
636.31	3.83
636.643	3.81
636.975	3.76
637.307	3.76
637.639	3.75
637.971	3.77
638.303	3.8
638.635	3.92
638.967	3.97
639.299	4
639.631	3.94
639.963	3.93
640.295	3.88
640.626	3.87
640.958	3.79
641.29	3.78
641.621	3.87
641.953	3.82
642.285	3.82
642.616	3.83
642.948	3.8
643.279	3.8
643.61	3.87
643.942	3.9
644.273	3.9
644.604	3.91
644.936	3.97
645.267	3.96
645.598	3.88
645.929	3.86
646.26	3.83
646.591	3.87
646.922	3.92
647.253	3.87
647.584	3.88
647.915	3.97
648.245	3.99
648.576	3.93
648.907	4.03
649.238	3.98
649.568	3.94
649.899	3.91
650.229	3.96
650.56	3.98
650.89	3.98
651.221	3.96
651.551	3.93
651.882	3.96
652.212	3.96
652.542	3.97
652.872	3.95
653.203	4
653.533	4.05
653.863	4.02
654.193	3.99
654.523	3.96
654.853	4.01
655.183	3.99
655.513	4.01
655.843	3.97
656.172	4.06
656.502	4.05
656.832	3.99
657.162	3.95
657.491	3.92
657.821	3.96
658.15	4.01
658.48	4.09
658.809	4.14
659.139	4.26
659.468	4.28
659.798	4.23
660.127	4.22
660.456	4.18
660.785	4.18
661.115	4.28
661.444	4.33
661.773	4.24
662.102	4.22
662.431	4.24
662.76	4.26
663.089	4.27
663.418	4.32
663.747	4.43
664.076	4.49
664.404	4.48
664.733	4.43
665.062	4.45
665.39	4.47
665.719	4.44
666.048	4.32
666.376	4.3
666.705	4.32
667.033	4.31
667.362	4.26
667.69	4.28
668.018	4.27
668.347	4.22
668.675	4.21
669.003	4.16
669.331	4.13
669.659	4.2
669.987	4.18
670.315	4.2
670.643	4.11
670.971	4.05
671.299	4.02
671.627	4.13
671.955	4.01
672.283	3.81
672.61	3.67
672.938	3.7
673.266	3.73
673.593	3.77
673.921	3.77
674.249	3.81
674.576	3.78
674.904	3.74
675.231	3.75
675.558	3.85
675.886	3.96
676.213	3.88
676.54	3.84
676.867	3.9
677.195	3.97
677.522	4.09
677.849	4.09
678.176	4.14
