Data from BA55519_Reflection_00003.txt Node
Date: Tue Nov 19 11:52:36 EST 2019
User: vgr7
Spectrometer: USB2G7710
Scans to average: 3
Trigger mode: 4
Integration Time (sec): 2.000000E-2
Electric dark correction enabled: true
Boxcar width: 10
XAxis mode: Wavelengths
Number of Pixels in Spectrum: 2048
>>>>>Begin Spectral Data<<<<<
177.721	-26.89
178.105	-24.58
178.488	8.68
178.871	-18.41
179.254	-32.41
179.636	13.63
180.019	16.67
180.402	-0
180.785	816.67
181.168	-106.47
181.55	-100.4
181.933	-419.84
182.316	-1673.81
182.698	-1057.41
183.081	-283.68
183.463	-229.3
183.846	-215.4
184.228	-201.28
184.611	-128.83
184.993	-67.12
185.376	-49.83
185.758	-25.16
186.14	-40.77
186.522	-30.11
186.904	-47.51
187.287	-69.95
187.669	-75.62
188.051	-95.97
188.433	-98.07
188.815	-94.44
189.197	-75.61
189.579	-70.97
189.961	-45.75
190.342	-28.73
190.724	-26.79
191.106	-29.79
191.488	-14.86
191.869	-20.37
192.251	-13.66
192.633	-23.43
193.014	-36.86
193.396	-34.6
193.777	-25.38
194.159	-11.29
194.54	-3.82
194.922	3.38
195.303	5.81
195.684	16.08
196.065	9.58
196.447	18.89
196.828	27.53
197.209	28.92
197.59	16.67
197.971	0.85
198.352	1.97
198.733	-5.38
199.114	-0.53
199.495	-14.77
199.876	-28.25
200.257	-27.01
200.638	-16.27
201.018	-17.66
201.399	-18.11
201.78	-32.6
202.16	-42.24
202.541	-43.83
202.922	-57.57
203.302	-50.31
203.683	-46.71
204.063	-41.77
204.444	-55.14
204.824	-47.36
205.204	-57.5
205.585	-56.43
205.965	-33.44
206.345	-39.15
206.725	-26.88
207.106	-16.91
207.486	-13.21
207.866	-3.49
208.246	-5.25
208.626	-10.54
209.006	4.05
209.386	-5.64
209.766	2.71
210.145	3.48
210.525	-11.43
210.905	0.79
211.285	5.09
211.664	7.1
212.044	3.5
212.424	6.23
212.803	-5.38
213.183	-3.78
213.562	-5.62
213.942	-11.42
214.321	-13.7
214.701	-29.1
215.08	-30.6
215.459	-20.39
215.838	-17.92
216.218	-8.86
216.597	-8.85
216.976	-13.93
217.355	-20.51
217.734	-31.88
218.113	-25.96
218.492	-19.33
218.871	-35.6
219.25	-35.64
219.629	-43.36
220.008	-21.36
220.387	-20.04
220.766	-11.91
221.144	-12.78
221.523	-17.16
221.902	-10.8
222.28	-5.83
222.659	0.63
223.037	-11.26
223.416	-20.03
223.794	-21.82
224.173	-33.76
224.551	-30.53
224.929	-40.85
225.308	-37.41
225.686	-29.08
226.064	-28.71
226.442	-22.89
226.821	-16.88
227.199	-15.47
227.577	-13.98
227.955	-14.33
228.333	-16.31
228.711	-17.54
229.089	-15.85
229.467	-16.12
229.845	-19.46
230.222	-16.17
230.6	-17.74
230.978	-13.19
231.356	-11.03
231.733	-9.1
232.111	-6.83
232.488	-4.39
232.866	-1.54
233.243	0.61
233.621	0.59
233.998	2.6
234.376	1.29
234.753	1.37
235.13	2.89
235.508	3.03
235.885	-0.05
236.262	-0.28
236.639	2.12
237.016	1.01
237.393	2.02
237.77	3.38
238.147	3.62
238.524	6.05
238.901	4.14
239.278	2.89
239.655	3.04
240.032	2.57
240.409	2.7
240.785	2.12
241.162	2.73
241.539	2.69
241.915	2.08
242.292	2.46
242.668	3.41
243.045	3.32
243.421	3.38
243.798	3.87
244.174	4
244.551	3.85
244.927	4.27
245.303	4.07
245.679	4.14
246.056	4.03
246.432	3.62
246.808	4.06
247.184	4.4
247.56	4.15
247.936	4.35
248.312	4.32
248.688	4.61
249.064	4.37
249.44	4.35
249.815	4.42
250.191	4.36
250.567	3.84
250.943	3.88
251.318	4.09
251.694	4.02
252.069	4.1
252.445	4.12
252.82	4.16
253.196	4.44
253.571	4.52
253.947	4.2
254.322	4.4
254.697	4.42
255.073	4.23
255.448	4.56
255.823	4.84
256.198	4.8
256.573	5
256.948	5.01
257.323	5
257.698	5.02
258.073	4.87
258.448	5.03
258.823	4.76
259.198	4.52
259.573	4.48
259.948	4.41
260.322	4.35
260.697	4.24
261.072	4.29
261.446	4.16
261.821	4.17
262.195	4.02
262.57	3.99
262.944	4.16
263.319	4.11
263.693	4.04
264.067	3.91
264.442	3.81
264.816	3.7
265.19	3.66
265.564	3.55
265.938	3.54
266.313	3.36
266.687	3.27
267.061	3.31
267.435	3.15
267.809	3.13
268.183	2.99
268.556	2.93
268.93	3.04
269.304	3.01
269.678	3.23
270.051	3.29
270.425	3.3
270.799	3.01
271.172	3.14
271.546	3.17
271.919	3.09
272.293	2.93
272.666	3.07
273.04	2.9
273.413	3
273.787	3.05
274.16	3.2
274.533	3.45
274.906	3.53
275.279	3.78
275.653	3.86
276.026	3.96
276.399	3.99
276.772	3.86
277.145	4
277.518	3.8
277.891	3.89
278.263	3.91
278.636	4.02
279.009	3.88
279.382	3.9
279.755	4.01
280.127	4.08
280.5	4.03
280.872	4.24
281.245	4.26
281.617	4.32
281.99	4.3
282.362	4.16
282.735	4.08
283.107	3.96
283.479	4
283.852	4.08
284.224	4.16
284.596	4.16
284.968	4.19
285.34	4.23
285.713	4.18
286.085	4
286.457	4.11
286.829	4.12
287.201	4
287.572	3.98
287.944	4.09
288.316	4.13
288.688	4.13
289.06	4.17
289.431	4.37
289.803	4.31
290.175	4.27
290.546	4.27
290.918	4.25
291.289	4.15
291.661	4.2
292.032	4.12
292.403	4.13
292.775	4.18
293.146	4.28
293.517	4.31
293.889	4.38
294.26	4.3
294.631	4.33
295.002	4.35
295.373	4.41
295.744	4.36
296.115	4.34
296.486	4.26
296.857	4.23
297.228	4.01
297.599	3.98
297.97	4
298.34	4.06
298.711	4.05
299.082	4.15
299.452	3.92
299.823	3.93
300.194	3.93
300.564	3.7
300.935	3.63
301.305	3.66
301.676	3.73
302.046	3.63
302.416	3.51
302.787	3.53
303.157	3.39
303.527	3.27
303.897	3.31
304.267	3.4
304.637	3.4
305.008	3.55
305.378	3.48
305.748	3.62
306.117	3.57
306.487	3.69
306.857	3.55
307.227	3.86
307.597	4.02
307.967	4.03
308.336	4.16
308.706	4.18
309.076	4.11
309.445	4.21
309.815	4.33
310.184	4.32
310.554	4.27
310.923	4.23
311.293	4.24
311.662	4.14
312.031	4.05
312.401	3.93
312.77	3.84
313.139	3.86
313.508	3.78
313.877	3.79
314.246	3.73
314.616	3.84
314.985	3.82
315.353	3.73
315.722	3.86
316.091	3.81
316.46	3.86
316.829	3.92
317.198	3.87
317.567	3.9
317.935	3.98
318.304	4.11
318.672	4.45
319.041	4.4
319.41	4.54
319.778	4.62
320.147	4.74
320.515	4.77
320.883	4.78
321.252	4.86
321.62	4.72
321.988	4.79
322.357	4.84
322.725	4.85
323.093	4.75
323.461	4.56
323.829	4.68
324.197	4.6
324.565	4.42
324.933	4.26
325.301	4.1
325.669	4.12
326.037	4.1
326.405	4.01
326.772	4.1
327.14	3.95
327.508	3.9
327.875	3.91
328.243	3.87
328.61	4.05
328.978	3.94
329.346	4.07
329.713	4.1
330.08	4.06
330.448	3.95
330.815	3.95
331.182	3.96
331.55	4.04
331.917	4.06
332.284	4.34
332.651	4.49
333.018	4.73
333.385	4.88
333.752	4.78
334.119	4.8
334.486	4.79
334.853	4.77
335.22	4.78
335.587	4.71
335.954	4.56
336.32	4.46
336.687	4.56
337.054	4.62
337.42	4.56
337.787	4.49
338.153	4.71
338.52	4.76
338.886	4.85
339.253	4.75
339.619	4.82
339.986	4.64
340.352	4.68
340.718	4.5
341.084	4.46
341.451	4.62
341.817	4.53
342.183	4.51
342.549	4.61
342.915	4.7
343.281	4.74
343.647	4.76
344.013	4.76
344.379	4.79
344.745	4.72
345.11	4.68
345.476	4.73
345.842	4.54
346.208	4.59
346.573	4.54
346.939	4.57
347.304	4.55
347.67	4.5
348.035	4.44
348.401	4.51
348.766	4.43
349.132	4.37
349.497	4.47
349.862	4.47
350.228	4.43
350.593	4.34
350.958	4.47
351.323	4.59
351.688	4.67
352.053	4.66
352.418	4.66
352.783	4.62
353.148	4.6
353.513	4.58
353.878	4.42
354.243	4.3
354.608	4.27
354.972	4.28
355.337	4.38
355.702	4.31
356.066	4.32
356.431	4.33
356.795	4.31
357.16	4.33
357.524	4.37
357.889	4.34
358.253	4.37
358.618	4.34
358.982	4.29
359.346	4.19
359.71	4.14
360.075	4.22
360.439	4.27
360.803	4.35
361.167	4.37
361.531	4.48
361.895	4.6
362.259	4.59
362.623	4.56
362.987	4.48
363.351	4.55
363.714	4.55
364.078	4.6
364.442	4.57
364.806	4.55
365.169	4.51
365.533	4.56
365.896	4.58
366.26	4.49
366.623	4.48
366.987	4.46
367.35	4.51
367.714	4.49
368.077	4.51
368.44	4.43
368.803	4.43
369.167	4.38
369.53	4.32
369.893	4.29
370.256	4.32
370.619	4.36
370.982	4.26
371.345	4.26
371.708	4.23
372.071	4.2
372.434	4.21
372.797	4.22
373.159	4.15
373.522	4.15
373.885	4.18
374.247	4.23
374.61	4.32
374.973	4.3
375.335	4.27
375.698	4.22
376.06	4.22
376.423	4.24
376.785	4.33
377.147	4.39
377.51	4.36
377.872	4.35
378.234	4.36
378.596	4.37
378.958	4.36
379.321	4.34
379.683	4.32
380.045	4.29
380.407	4.29
380.769	4.33
381.13	4.26
381.492	4.25
381.854	4.24
382.216	4.23
382.578	4.26
382.939	4.27
383.301	4.29
383.663	4.26
384.024	4.23
384.386	4.2
384.747	4.19
385.109	4.19
385.47	4.17
385.832	4.18
386.193	4.2
386.554	4.13
386.916	4.18
387.277	4.24
387.638	4.21
387.999	4.21
388.36	4.2
388.721	4.25
389.082	4.26
389.443	4.26
389.804	4.28
390.165	4.31
390.526	4.32
390.887	4.34
391.248	4.34
391.609	4.35
391.969	4.32
392.33	4.3
392.691	4.32
393.051	4.33
393.412	4.33
393.772	4.35
394.133	4.4
394.493	4.31
394.854	4.3
395.214	4.31
395.574	4.29
395.935	4.32
396.295	4.28
396.655	4.27
397.015	4.26
397.376	4.2
397.736	4.13
398.096	4.11
398.456	4.12
398.816	4.12
399.176	4.1
399.535	4.1
399.895	4.08
400.255	4.09
400.615	4.12
400.975	4.1
401.334	4.09
401.694	4.08
402.054	4.13
402.413	4.16
402.773	4.16
403.132	4.15
403.492	4.13
403.851	4.17
404.211	4.16
404.57	4.18
404.929	4.2
405.288	4.2
405.648	4.2
406.007	4.19
406.366	4.18
406.725	4.2
407.084	4.2
407.443	4.22
407.802	4.23
408.161	4.21
408.52	4.23
408.879	4.23
409.238	4.25
409.596	4.24
409.955	4.19
410.314	4.18
410.673	4.21
411.031	4.2
411.39	4.18
411.748	4.19
412.107	4.17
412.465	4.18
412.824	4.19
413.182	4.17
413.54	4.16
413.899	4.18
414.257	4.2
414.615	4.19
414.974	4.18
415.332	4.16
415.69	4.15
416.048	4.16
416.406	4.17
416.764	4.19
417.122	4.18
417.48	4.21
417.838	4.22
418.195	4.22
418.553	4.21
418.911	4.18
419.269	4.18
419.626	4.19
419.984	4.18
420.342	4.18
420.699	4.18
421.057	4.16
421.414	4.15
421.772	4.15
422.129	4.14
422.486	4.14
422.844	4.14
423.201	4.12
423.558	4.1
423.915	4.1
424.273	4.08
424.63	4.08
424.987	4.07
425.344	4.08
425.701	4.08
426.058	4.08
426.415	4.1
426.772	4.08
427.128	4.06
427.485	4.05
427.842	4.03
428.199	4.07
428.555	4.08
428.912	4.09
429.269	4.08
429.625	4.07
429.982	4.08
430.338	4.08
430.695	4.09
431.051	4.11
431.407	4.08
431.764	4.07
432.12	4.1
432.476	4.12
432.832	4.1
433.189	4.11
433.545	4.11
433.901	4.1
434.257	4.11
434.613	4.12
434.969	4.12
435.325	4.14
435.681	4.11
436.036	4.1
436.392	4.07
436.748	4.09
437.104	4.1
437.459	4.1
437.815	4.12
438.171	4.12
438.526	4.11
438.882	4.13
439.237	4.12
439.593	4.1
439.948	4.09
440.304	4.09
440.659	4.08
441.014	4.08
441.369	4.09
441.725	4.09
442.08	4.08
442.435	4.09
442.79	4.09
443.145	4.09
443.5	4.07
443.855	4.07
444.21	4.04
444.565	4.04
444.92	4.03
445.275	4.02
445.629	4.01
445.984	4.02
446.339	4
446.693	4.01
447.048	4
447.403	3.99
447.757	3.97
448.112	3.97
448.466	3.97
448.82	3.96
449.175	3.95
449.529	3.96
449.883	3.96
450.238	3.95
450.592	3.95
450.946	3.96
451.3	3.97
451.654	3.99
452.008	3.98
452.362	3.98
452.716	3.99
453.07	3.99
453.424	3.97
453.778	3.97
454.132	3.94
454.486	3.96
454.839	3.96
455.193	3.97
455.547	3.93
455.9	3.94
456.254	3.96
456.607	3.98
456.961	3.98
457.314	3.96
457.668	3.98
458.021	3.97
458.375	3.98
458.728	3.99
459.081	3.97
459.434	3.97
459.787	3.98
460.141	3.98
460.494	3.99
460.847	4.01
461.2	4.01
461.553	4.03
461.906	4.05
462.259	4.04
462.611	4.04
462.964	4.08
463.317	4.06
463.67	4.06
464.022	4.04
464.375	4.03
464.728	4.04
465.08	4
465.433	4.03
465.785	4.03
466.138	4.03
466.49	4.06
466.843	4.08
467.195	4.06
467.547	4.05
467.899	4.06
468.252	4.06
468.604	4.05
468.956	4.07
469.308	4.03
469.66	4.06
470.012	4.07
470.364	4.07
470.716	4.08
471.068	4.07
471.42	4.1
471.772	4.1
472.123	4.12
472.475	4.14
472.827	4.11
473.178	4.11
473.53	4.11
473.882	4.09
474.233	4.06
474.585	4.07
474.936	4.06
475.288	4.02
475.639	4.02
475.99	4.02
476.342	4
476.693	4.01
477.044	4.02
477.395	4.01
477.746	4
478.097	3.99
478.448	3.98
478.8	3.96
479.15	3.96
479.501	3.97
479.852	3.97
480.203	3.99
480.554	4
480.905	4.01
481.255	4.02
481.606	4.05
481.957	4.05
482.307	4.06
482.658	4.08
483.009	4.07
483.359	4.09
483.709	4.1
484.06	4.09
484.41	4.09
484.761	4.1
485.111	4.11
485.461	4.11
485.811	4.12
486.162	4.13
486.512	4.14
486.862	4.13
487.212	4.14
487.562	4.13
487.912	4.12
488.262	4.12
488.612	4.12
488.961	4.11
489.311	4.11
489.661	4.12
490.011	4.11
490.36	4.12
490.71	4.09
491.06	4.09
491.409	4.1
491.759	4.1
492.108	4.1
492.458	4.08
492.807	4.09
493.157	4.1
493.506	4.1
493.855	4.1
494.204	4.09
494.554	4.1
494.903	4.1
495.252	4.11
495.601	4.11
495.95	4.11
496.299	4.11
496.648	4.09
496.997	4.06
497.346	4.08
497.695	4.07
498.043	4.11
498.392	4.09
498.741	4.09
499.09	4.12
499.438	4.11
499.787	4.12
500.135	4.11
500.484	4.11
500.832	4.1
501.181	4.1
501.529	4.12
501.878	4.11
502.226	4.13
502.574	4.11
502.923	4.12
503.271	4.14
503.619	4.14
503.967	4.16
504.315	4.19
504.663	4.18
505.011	4.2
505.359	4.19
505.707	4.19
506.055	4.21
506.403	4.18
506.751	4.2
507.098	4.22
507.446	4.23
507.794	4.22
508.141	4.22
508.489	4.25
508.837	4.23
509.184	4.25
509.531	4.24
509.879	4.25
510.226	4.24
510.574	4.25
510.921	4.27
511.268	4.27
511.616	4.27
511.963	4.27
512.31	4.26
512.657	4.25
513.004	4.24
513.351	4.24
513.698	4.25
514.045	4.26
514.392	4.26
514.739	4.25
515.086	4.27
515.432	4.29
515.779	4.27
516.126	4.31
516.473	4.31
516.819	4.31
517.166	4.32
517.512	4.32
517.859	4.34
518.205	4.34
518.552	4.36
518.898	4.39
519.245	4.4
519.591	4.4
519.937	4.38
520.283	4.42
520.629	4.41
520.976	4.43
521.322	4.41
521.668	4.43
522.014	4.46
522.36	4.43
522.706	4.43
523.052	4.44
523.398	4.43
523.743	4.45
524.089	4.47
524.435	4.46
524.781	4.47
525.126	4.46
525.472	4.45
525.817	4.44
526.163	4.42
526.509	4.42
526.854	4.45
527.199	4.46
527.545	4.47
527.89	4.47
528.235	4.47
528.581	4.48
528.926	4.48
529.271	4.47
529.616	4.49
529.961	4.5
530.306	4.49
530.651	4.49
530.996	4.49
531.341	4.49
531.686	4.5
532.031	4.49
532.376	4.49
532.721	4.5
533.065	4.52
533.41	4.53
533.755	4.53
534.099	4.52
534.444	4.52
534.788	4.51
535.133	4.51
535.477	4.5
535.822	4.49
536.166	4.47
536.51	4.48
536.855	4.49
537.199	4.46
537.543	4.47
537.887	4.49
538.231	4.5
538.576	4.5
538.92	4.5
539.264	4.51
539.608	4.52
539.951	4.51
540.295	4.52
540.639	4.51
540.983	4.52
541.327	4.53
541.671	4.55
542.014	4.56
542.358	4.58
542.701	4.61
543.045	4.61
543.389	4.62
543.732	4.61
544.075	4.61
544.419	4.64
544.762	4.65
545.105	4.64
545.449	4.64
545.792	4.67
546.135	4.66
546.478	4.67
546.821	4.69
547.165	4.69
547.508	4.69
547.851	4.69
548.194	4.69
548.536	4.67
548.879	4.67
549.222	4.66
549.565	4.63
549.908	4.62
550.25	4.59
550.593	4.57
550.936	4.59
551.278	4.59
551.621	4.57
551.963	4.6
552.306	4.59
552.648	4.58
552.991	4.55
553.333	4.56
553.675	4.58
554.017	4.56
554.36	4.58
554.702	4.56
555.044	4.55
555.386	4.55
555.728	4.58
556.07	4.52
556.412	4.53
556.754	4.55
557.096	4.51
557.438	4.54
557.78	4.56
558.121	4.53
558.463	4.51
558.805	4.49
559.147	4.42
559.488	4.44
559.83	4.43
560.171	4.41
560.513	4.46
560.854	4.45
561.196	4.45
561.537	4.46
561.878	4.47
562.22	4.49
562.561	4.51
562.902	4.51
563.243	4.54
563.584	4.56
563.925	4.57
564.266	4.6
564.607	4.6
564.948	4.61
565.289	4.64
565.63	4.64
565.971	4.67
566.312	4.69
566.653	4.69
566.993	4.67
567.334	4.71
567.675	4.66
568.015	4.64
568.356	4.61
568.696	4.59
569.037	4.59
569.377	4.59
569.718	4.6
570.058	4.6
570.398	4.62
570.739	4.6
571.079	4.6
571.419	4.6
571.759	4.57
572.099	4.55
572.439	4.55
572.779	4.53
573.119	4.52
573.459	4.54
573.799	4.52
574.139	4.56
574.479	4.52
574.819	4.55
575.158	4.57
575.498	4.6
575.838	4.62
576.177	4.62
576.517	4.59
576.856	4.58
577.196	4.56
577.535	4.55
577.875	4.53
578.214	4.53
578.553	4.52
578.893	4.58
579.232	4.59
579.571	4.62
579.91	4.65
580.25	4.64
580.589	4.66
580.928	4.66
581.267	4.67
581.606	4.67
581.945	4.64
582.283	4.63
582.622	4.58
582.961	4.56
583.3	4.58
583.639	4.61
583.977	4.56
584.316	4.56
584.654	4.52
584.993	4.49
585.332	4.51
585.67	4.52
586.008	4.45
586.347	4.46
586.685	4.43
587.024	4.45
587.362	4.43
587.7	4.42
588.038	4.49
588.376	4.52
588.715	4.51
589.053	4.56
589.391	4.56
589.729	4.57
590.067	4.57
590.404	4.61
590.742	4.61
591.08	4.65
591.418	4.67
591.756	4.73
592.093	4.77
592.431	4.77
592.769	4.76
593.106	4.8
593.444	4.82
593.781	4.79
594.119	4.79
594.456	4.79
594.793	4.79
595.131	4.75
595.468	4.73
595.805	4.73
596.143	4.72
596.48	4.74
596.817	4.75
597.154	4.73
597.491	4.68
597.828	4.65
598.165	4.63
598.502	4.61
598.839	4.55
599.176	4.57
599.512	4.58
599.849	4.59
600.186	4.59
600.523	4.56
600.859	4.64
601.196	4.61
601.532	4.63
601.869	4.61
602.205	4.61
602.542	4.58
602.878	4.63
603.215	4.62
603.551	4.59
603.887	4.61
604.223	4.66
604.56	4.7
604.896	4.75
605.232	4.75
605.568	4.76
605.904	4.76
606.24	4.77
606.576	4.78
606.912	4.74
607.248	4.72
607.583	4.75
607.919	4.7
608.255	4.72
608.591	4.73
608.926	4.75
609.262	4.73
609.597	4.73
609.933	4.73
610.268	4.75
610.604	4.76
610.939	4.7
611.275	4.69
611.61	4.68
611.945	4.65
612.281	4.68
612.616	4.71
612.951	4.79
613.286	4.75
613.621	4.75
613.956	4.81
614.291	4.88
614.626	4.85
614.961	4.89
615.296	4.88
615.631	4.91
615.966	4.89
616.3	4.91
616.635	4.94
616.97	4.95
617.304	4.91
617.639	4.94
617.973	4.97
618.308	4.98
618.642	4.96
618.977	4.98
619.311	4.98
619.646	4.98
619.98	4.91
620.314	4.87
620.648	4.84
620.983	4.78
621.317	4.79
621.651	4.83
621.985	4.88
622.319	4.88
622.653	4.82
622.987	4.88
623.321	4.86
623.655	4.85
623.988	4.82
624.322	4.86
624.656	4.88
624.99	4.86
625.323	4.86
625.657	4.87
625.99	4.86
626.324	4.84
626.657	4.81
626.991	4.85
627.324	4.87
627.658	4.86
627.991	4.93
628.324	4.89
628.657	4.85
628.991	4.78
629.324	4.79
629.657	4.79
629.99	4.74
630.323	4.75
630.656	4.71
630.989	4.75
631.322	4.69
631.655	4.64
631.987	4.66
632.32	4.62
632.653	4.62
632.986	4.63
633.318	4.65
633.651	4.73
633.984	4.73
634.316	4.8
634.649	4.81
634.981	4.77
635.313	4.82
635.646	4.89
635.978	4.93
636.31	4.94
636.643	4.93
636.975	4.92
637.307	4.92
637.639	4.97
637.971	4.9
638.303	4.94
638.635	4.96
638.967	5
639.299	5.02
639.631	5.01
639.963	4.96
640.295	4.98
640.626	4.89
640.958	4.82
641.29	4.76
641.621	4.72
641.953	4.75
642.285	4.75
642.616	4.67
642.948	4.64
643.279	4.63
643.61	4.65
643.942	4.8
644.273	4.81
644.604	4.83
644.936	4.81
645.267	4.79
645.598	4.84
645.929	4.76
646.26	4.78
646.591	4.81
646.922	4.88
647.253	4.85
647.584	4.87
647.915	4.93
648.245	4.91
648.576	4.97
648.907	4.9
649.238	4.77
649.568	4.81
649.899	4.85
650.229	4.9
650.56	4.9
650.89	4.84
651.221	4.85
651.551	4.88
651.882	4.95
652.212	4.96
652.542	4.93
652.872	5.01
653.203	5.1
653.533	5.12
653.863	5.06
654.193	5.05
654.523	5.02
654.853	5.02
655.183	5.01
655.513	5.05
655.843	5.11
656.172	5.15
656.502	5.09
656.832	5.07
657.162	4.97
657.491	5
657.821	4.96
658.15	4.94
658.48	4.96
658.809	5.01
659.139	5.08
659.468	5.07
659.798	5.1
660.127	5.01
660.456	4.99
660.785	5.02
661.115	5.05
661.444	5.06
661.773	5.09
662.102	5.09
662.431	5.07
662.76	5.07
663.089	5.14
663.418	5.24
663.747	5.21
664.076	5.33
664.404	5.35
664.733	5.39
665.062	5.43
665.39	5.34
665.719	5.29
666.048	5.18
666.376	5.15
666.705	5.07
667.033	5.16
667.362	5.12
667.69	5.17
668.018	5.14
668.347	5.16
668.675	5.14
669.003	5.22
669.331	5.27
669.659	5.22
669.987	5.19
670.315	5.18
670.643	5.21
670.971	5.15
671.299	5.15
671.627	5.14
671.955	5.15
672.283	5.2
672.61	5.16
672.938	5.18
673.266	5.28
673.593	5.25
673.921	5.18
674.249	5.25
674.576	5.22
674.904	5.21
675.231	5.21
675.558	5.22
675.886	5.2
676.213	5.13
676.54	5.17
676.867	5.19
677.195	5.22
677.522	5.24
677.849	5.24
678.176	5.21
