Data from BA55519_Reflection_00011.txt Node
Date: Tue Nov 19 11:52:54 EST 2019
User: vgr7
Spectrometer: USB2G7710
Scans to average: 3
Trigger mode: 4
Integration Time (sec): 2.000000E-2
Electric dark correction enabled: true
Boxcar width: 10
XAxis mode: Wavelengths
Number of Pixels in Spectrum: 2048
>>>>>Begin Spectral Data<<<<<
177.721	25.38
178.105	-4.38
178.488	-10.49
178.871	8.46
179.254	12.04
179.636	7.56
180.019	-19.48
180.402	205.88
180.785	-383.33
181.168	-84.08
181.55	-76.59
181.933	-419.84
182.316	-316.67
182.698	-390.74
183.081	-137.85
183.463	-92.2
183.846	-158.44
184.228	-124.36
184.611	-75.55
184.993	-48.2
185.376	-60.19
185.758	-62.61
186.14	-76.49
186.522	-63.85
186.904	-54.98
187.287	-69.95
187.669	-71.91
188.051	-111.95
188.433	-123.2
188.815	-100.94
189.197	-99.21
189.579	-89.75
189.961	-68.38
190.342	-46.65
190.724	-38.34
191.106	-44.99
191.488	-54.33
191.869	-37.99
192.251	-22.82
192.633	-19.4
193.014	-19.89
193.396	-14.99
193.777	6.58
194.159	7.82
194.54	-2.64
194.922	-0.04
195.303	-2.06
195.684	2.06
196.065	3.99
196.447	15.55
196.828	17.5
197.209	15.35
197.59	4.88
197.971	5.26
198.352	3.09
198.733	0.43
199.114	6.84
199.495	8.67
199.876	0.71
200.257	-9.2
200.638	-11.04
201.018	-16.31
201.399	-11.75
201.78	-24.78
202.16	-14.84
202.541	-5.7
202.922	-7.42
203.302	-9.73
203.683	-29.42
204.063	-23.25
204.444	-37
204.824	-33.5
205.204	-32.61
205.585	-41.4
205.965	-32.36
206.345	-34.47
206.725	-28.07
207.106	-23.24
207.486	-24.19
207.866	-6.95
208.246	-3.17
208.626	-13.96
209.006	-28.41
209.386	-32.4
209.766	-38.54
210.145	-46.78
210.525	-43.99
210.905	-40.61
211.285	-38.71
211.664	-17.66
212.044	-15.21
212.424	-13.6
212.803	-30.87
213.183	-39.78
213.562	-24.22
213.942	-27.83
214.321	-27.16
214.701	-32.53
215.08	-31.83
215.459	-32.25
215.838	-51.03
216.218	-60.33
216.597	-47.39
216.976	-34.68
217.355	-28.05
217.734	-34.24
218.113	-29.4
218.492	-27.01
218.871	-28.19
219.25	-22.76
219.629	-26.03
220.008	-12.83
220.387	-9.4
220.766	4.37
221.144	5.43
221.523	1.87
221.902	0.41
222.28	-4.83
222.659	-0.19
223.037	4.29
223.416	17.69
223.794	23.71
224.173	17.68
224.551	17.88
224.929	15.67
225.308	12.02
225.686	11.86
226.064	5.85
226.442	10.61
226.821	7.03
227.199	7.96
227.577	5.75
227.955	0.06
228.333	-0.39
228.711	0.72
229.089	0.92
229.467	0.43
229.845	0.88
230.222	3.65
230.6	2.69
230.978	2.5
231.356	-0.47
231.733	0.26
232.111	0.3
232.488	1.4
232.866	2.78
233.243	4.4
233.621	7.98
233.998	10.04
234.376	9.15
234.753	10.5
235.13	8.81
235.508	10.41
235.885	12.38
236.262	10.01
236.639	8.65
237.016	9.41
237.393	9.84
237.77	9.95
238.147	8.77
238.524	8.71
238.901	7.13
239.278	6.33
239.655	5.85
240.032	6.36
240.409	6.16
240.785	6.06
241.162	5.58
241.539	4.84
241.915	4.53
242.292	4.81
242.668	4.87
243.045	4.95
243.421	4.43
243.798	4.29
244.174	4.43
244.551	4.43
244.927	4.47
245.303	4.33
245.679	4.27
246.056	4.12
246.432	3.99
246.808	4.43
247.184	4.77
247.56	4.62
247.936	4.54
248.312	4.32
248.688	4.36
249.064	4.31
249.44	4.4
249.815	4.52
250.191	4.31
250.567	4.21
250.943	4.21
251.318	4.34
251.694	4.25
252.069	4.25
252.445	4.27
252.82	4.29
253.196	4.24
253.571	4.31
253.947	4.62
254.322	4.69
254.697	4.53
255.073	4.47
255.448	4.59
255.823	4.74
256.198	4.86
256.573	4.78
256.948	5.07
257.323	5.32
257.698	5.23
258.073	5.14
258.448	5.29
258.823	5.13
259.198	5.24
259.573	5.22
259.948	5.54
260.322	5.63
260.697	5.66
261.072	5.77
261.446	5.95
261.821	5.94
262.195	5.91
262.57	5.82
262.944	5.93
263.319	5.89
263.693	5.88
264.067	5.95
264.442	5.96
264.816	6.17
265.19	6.05
265.564	6.04
265.938	6.13
266.313	6.12
266.687	6.32
267.061	6.1
267.435	6.16
267.809	5.87
268.183	5.81
268.556	5.57
268.93	5.52
269.304	5.2
269.678	5.01
270.051	4.93
270.425	4.94
270.799	4.56
271.172	4.7
271.546	4.77
271.919	4.87
272.293	4.99
272.666	4.73
273.04	4.62
273.413	4.61
273.787	4.68
274.16	4.59
274.533	4.71
274.906	4.71
275.279	4.62
275.653	4.77
276.026	4.81
276.399	4.73
276.772	4.78
277.145	5.11
277.518	5.38
277.891	5.62
278.263	5.72
278.636	6.13
279.009	6.12
279.382	6.03
279.755	5.95
280.127	5.94
280.5	5.97
280.872	6.13
281.245	6.2
281.617	6.2
281.99	6.26
282.362	6.17
282.735	6.24
283.107	6.15
283.479	6.05
283.852	6
284.224	6.12
284.596	6.01
284.968	5.78
285.34	5.7
285.713	5.67
286.085	5.57
286.457	5.55
286.829	5.57
287.201	5.55
287.572	5.6
287.944	5.58
288.316	5.64
288.688	5.68
289.06	5.74
289.431	5.66
289.803	5.72
290.175	5.72
290.546	5.63
290.918	5.68
291.289	5.74
291.661	5.66
292.032	5.53
292.403	5.61
292.775	5.78
293.146	5.78
293.517	5.79
293.889	5.87
294.26	5.81
294.631	5.83
295.002	6.06
295.373	6.05
295.744	6.05
296.115	6.11
296.486	6.04
296.857	6.07
297.228	6.13
297.599	6.07
297.97	6.19
298.34	6.29
298.711	6.45
299.082	6.45
299.452	6.67
299.823	6.84
300.194	7.03
300.564	6.95
300.935	7.09
301.305	7.11
301.676	7.2
302.046	7.3
302.416	7.49
302.787	7.37
303.157	7.32
303.527	7.55
303.897	7.44
304.267	7.52
304.637	7.52
305.008	7.52
305.378	7.63
305.748	7.63
306.117	7.82
306.487	8.01
306.857	8.21
307.227	8.37
307.597	8.41
307.967	8.38
308.336	8.47
308.706	8.4
309.076	8.5
309.445	8.64
309.815	8.81
310.184	8.84
310.554	8.87
310.923	9.04
311.293	9.08
311.662	9.29
312.031	9.39
312.401	9.6
312.77	9.7
313.139	9.79
313.508	9.81
313.877	9.86
314.246	9.81
314.616	9.9
314.985	9.83
315.353	9.91
315.722	10.18
316.091	10.34
316.46	10.5
316.829	10.52
317.198	10.5
317.567	10.5
317.935	10.62
318.304	10.91
318.672	10.99
319.041	10.99
319.41	10.95
319.778	11.18
320.147	11.15
320.515	11.27
320.883	11.31
321.252	11.46
321.62	11.52
321.988	11.58
322.357	11.58
322.725	11.65
323.093	11.77
323.461	11.62
323.829	11.55
324.197	11.59
324.565	11.66
324.933	11.66
325.301	11.66
325.669	11.6
326.037	11.65
326.405	11.77
326.772	11.78
327.14	11.77
327.508	11.82
327.875	11.91
328.243	11.86
328.61	11.98
328.978	12.08
329.346	12.05
329.713	12.27
330.08	12.32
330.448	12.55
330.815	12.65
331.182	12.65
331.55	12.71
331.917	12.84
332.284	12.96
332.651	13.06
333.018	13.21
333.385	13.48
333.752	13.32
334.119	13.34
334.486	13.41
334.853	13.43
335.22	13.26
335.587	13.19
335.954	13.25
336.32	13.28
336.687	13.37
337.054	13.45
337.42	13.2
337.787	13.23
338.153	13.15
338.52	13.12
338.886	13.11
339.253	13.22
339.619	13.24
339.986	13.12
340.352	13.22
340.718	13.19
341.084	13.14
341.451	13.21
341.817	13.12
342.183	13.22
342.549	13.32
342.915	13.49
343.281	13.63
343.647	13.69
344.013	13.75
344.379	13.73
344.745	13.83
345.11	14
345.476	13.97
345.842	14.06
346.208	13.99
346.573	14.1
346.939	14.15
347.304	14.16
347.67	14.21
348.035	14.16
348.401	14.16
348.766	14.15
349.132	14.3
349.497	14.33
349.862	14.33
350.228	14.3
350.593	14.29
350.958	14.31
351.323	14.39
351.688	14.32
352.053	14.23
352.418	14.15
352.783	14.02
353.148	14.09
353.513	14.02
353.878	14.11
354.243	14.05
354.608	13.98
354.972	13.89
355.337	13.97
355.702	13.9
356.066	13.87
356.431	13.68
356.795	13.61
357.16	13.57
357.524	13.44
357.889	13.39
358.253	13.27
358.618	13.12
358.982	13.04
359.346	12.96
359.71	12.92
360.075	12.92
360.439	12.95
360.803	12.88
361.167	12.77
361.531	12.73
361.895	12.67
362.259	12.66
362.623	12.65
362.987	12.59
363.351	12.58
363.714	12.57
364.078	12.57
364.442	12.46
364.806	12.39
365.169	12.41
365.533	12.46
365.896	12.45
366.26	12.39
366.623	12.31
366.987	12.3
367.35	12.24
367.714	12.08
368.077	12.03
368.44	11.94
368.803	11.83
369.167	11.68
369.53	11.64
369.893	11.62
370.256	11.54
370.619	11.38
370.982	11.23
371.345	11.17
371.708	11.11
372.071	11.04
372.434	10.93
372.797	10.79
373.159	10.61
373.522	10.54
373.885	10.44
374.247	10.38
374.61	10.32
374.973	10.25
375.335	10.2
375.698	10.04
376.06	9.89
376.423	9.81
376.785	9.74
377.147	9.66
377.51	9.54
377.872	9.46
378.234	9.49
378.596	9.47
378.958	9.33
379.321	9.23
379.683	9.12
380.045	9.07
380.407	9
380.769	8.95
381.13	8.81
381.492	8.79
381.854	8.64
382.216	8.54
382.578	8.47
382.939	8.42
383.301	8.42
383.663	8.47
384.024	8.42
384.386	8.41
384.747	8.33
385.109	8.24
385.47	8.16
385.832	7.99
386.193	7.9
386.554	7.86
386.916	7.88
387.277	7.83
387.638	7.78
387.999	7.76
388.36	7.71
388.721	7.69
389.082	7.66
389.443	7.65
389.804	7.65
390.165	7.62
390.526	7.6
390.887	7.5
391.248	7.39
391.609	7.33
391.969	7.26
392.33	7.2
392.691	7.15
393.051	7.11
393.412	7.1
393.772	7.09
394.133	7.02
394.493	6.91
394.854	6.89
395.214	6.84
395.574	6.74
395.935	6.64
396.295	6.56
396.655	6.48
397.015	6.48
397.376	6.36
397.736	6.27
398.096	6.19
398.456	6.12
398.816	6.08
399.176	6.04
399.535	5.96
399.895	5.95
400.255	5.9
400.615	5.87
400.975	5.83
401.334	5.77
401.694	5.79
402.054	5.78
402.413	5.72
402.773	5.7
403.132	5.7
403.492	5.7
403.851	5.66
404.211	5.61
404.57	5.56
404.929	5.54
405.288	5.56
405.648	5.52
406.007	5.51
406.366	5.5
406.725	5.49
407.084	5.5
407.443	5.47
407.802	5.46
408.161	5.46
408.52	5.43
408.879	5.43
409.238	5.4
409.596	5.36
409.955	5.39
410.314	5.36
410.673	5.35
411.031	5.3
411.39	5.32
411.748	5.32
412.107	5.31
412.465	5.27
412.824	5.24
413.182	5.22
413.54	5.22
413.899	5.18
414.257	5.16
414.615	5.13
414.974	5.15
415.332	5.12
415.69	5.09
416.048	5.11
416.406	5.08
416.764	5.04
417.122	5.01
417.48	4.99
417.838	4.96
418.195	4.96
418.553	4.95
418.911	4.93
419.269	4.91
419.626	4.89
419.984	4.91
420.342	4.87
420.699	4.86
421.057	4.84
421.414	4.82
421.772	4.82
422.129	4.78
422.486	4.74
422.844	4.74
423.201	4.72
423.558	4.69
423.915	4.67
424.273	4.65
424.63	4.65
424.987	4.64
425.344	4.63
425.701	4.62
426.058	4.63
426.415	4.62
426.772	4.6
427.128	4.59
427.485	4.57
427.842	4.56
428.199	4.57
428.555	4.54
428.912	4.55
429.269	4.53
429.625	4.56
429.982	4.56
430.338	4.55
430.695	4.54
431.051	4.54
431.407	4.54
431.764	4.55
432.12	4.57
432.476	4.57
432.832	4.55
433.189	4.54
433.545	4.51
433.901	4.52
434.257	4.51
434.613	4.51
434.969	4.51
435.325	4.5
435.681	4.5
436.036	4.52
436.392	4.52
436.748	4.53
437.104	4.51
437.459	4.49
437.815	4.52
438.171	4.52
438.526	4.52
438.882	4.52
439.237	4.5
439.593	4.47
439.948	4.46
440.304	4.45
440.659	4.44
441.014	4.43
441.369	4.43
441.725	4.43
442.08	4.41
442.435	4.39
442.79	4.38
443.145	4.37
443.5	4.36
443.855	4.35
444.21	4.34
444.565	4.34
444.92	4.34
445.275	4.31
445.629	4.28
445.984	4.29
446.339	4.28
446.693	4.29
447.048	4.27
447.403	4.24
447.757	4.26
448.112	4.26
448.466	4.26
448.82	4.25
449.175	4.24
449.529	4.26
449.883	4.27
450.238	4.26
450.592	4.24
450.946	4.2
451.3	4.19
451.654	4.17
452.008	4.16
452.362	4.18
452.716	4.19
453.07	4.21
453.424	4.19
453.778	4.2
454.132	4.16
454.486	4.18
454.839	4.2
455.193	4.2
455.547	4.2
455.9	4.21
456.254	4.21
456.607	4.22
456.961	4.24
457.314	4.24
457.668	4.26
458.021	4.28
458.375	4.3
458.728	4.3
459.081	4.31
459.434	4.32
459.787	4.33
460.141	4.34
460.494	4.35
460.847	4.37
461.2	4.37
461.553	4.41
461.906	4.41
462.259	4.39
462.611	4.39
462.964	4.41
463.317	4.42
463.67	4.43
464.022	4.45
464.375	4.45
464.728	4.47
465.08	4.46
465.433	4.47
465.785	4.5
466.138	4.52
466.49	4.55
466.843	4.56
467.195	4.57
467.547	4.55
467.899	4.57
468.252	4.56
468.604	4.57
468.956	4.55
469.308	4.56
469.66	4.59
470.012	4.59
470.364	4.59
470.716	4.58
471.068	4.59
471.42	4.58
471.772	4.56
472.123	4.56
472.475	4.58
472.827	4.57
473.178	4.57
473.53	4.54
473.882	4.51
474.233	4.53
474.585	4.5
474.936	4.48
475.288	4.46
475.639	4.44
475.99	4.41
476.342	4.43
476.693	4.4
477.044	4.41
477.395	4.4
477.746	4.4
478.097	4.4
478.448	4.39
478.8	4.36
479.15	4.37
479.501	4.36
479.852	4.37
480.203	4.39
480.554	4.39
480.905	4.41
481.255	4.4
481.606	4.4
481.957	4.43
482.307	4.42
482.658	4.43
483.009	4.44
483.359	4.46
483.709	4.47
484.06	4.48
484.41	4.49
484.761	4.51
485.111	4.51
485.461	4.52
485.811	4.52
486.162	4.54
486.512	4.54
486.862	4.55
487.212	4.55
487.562	4.56
487.912	4.57
488.262	4.56
488.612	4.58
488.961	4.59
489.311	4.6
489.661	4.61
490.011	4.61
490.36	4.63
490.71	4.64
491.06	4.64
491.409	4.65
491.759	4.65
492.108	4.66
492.458	4.68
492.807	4.69
493.157	4.72
493.506	4.74
493.855	4.76
494.204	4.78
494.554	4.81
494.903	4.83
495.252	4.86
495.601	4.9
495.95	4.93
496.299	4.95
496.648	4.97
496.997	5.01
497.346	5.05
497.695	5.07
498.043	5.1
498.392	5.14
498.741	5.16
499.09	5.19
499.438	5.22
499.787	5.25
500.135	5.29
500.484	5.33
500.832	5.35
501.181	5.39
501.529	5.42
501.878	5.47
502.226	5.52
502.574	5.55
502.923	5.59
503.271	5.64
503.619	5.7
503.967	5.77
504.315	5.84
504.663	5.91
505.011	5.99
505.359	6.02
505.707	6.1
506.055	6.18
506.403	6.22
506.751	6.26
507.098	6.31
507.446	6.39
507.794	6.46
508.141	6.55
508.489	6.62
508.837	6.7
509.184	6.78
509.531	6.86
509.879	6.93
510.226	7.02
510.574	7.1
510.921	7.18
511.268	7.25
511.616	7.31
511.963	7.38
512.31	7.47
512.657	7.6
513.004	7.66
513.351	7.73
513.698	7.84
514.045	7.96
514.392	8.09
514.739	8.18
515.086	8.3
515.432	8.41
515.779	8.5
516.126	8.63
516.473	8.7
516.819	8.8
517.166	8.93
517.512	9.02
517.859	9.13
518.205	9.21
518.552	9.29
518.898	9.41
519.245	9.5
519.591	9.59
519.937	9.66
520.283	9.77
520.629	9.9
520.976	10.04
521.322	10.15
521.668	10.25
522.014	10.39
522.36	10.49
522.706	10.62
523.052	10.78
523.398	10.92
523.743	11.08
524.089	11.24
524.435	11.36
524.781	11.51
525.126	11.62
525.472	11.75
525.817	11.87
526.163	11.99
526.509	12.1
526.854	12.19
527.199	12.31
527.545	12.4
527.89	12.46
528.235	12.55
528.581	12.65
528.926	12.75
529.271	12.85
529.616	12.95
529.961	13.06
530.306	13.15
530.651	13.23
530.996	13.33
531.341	13.44
531.686	13.56
532.031	13.69
532.376	13.83
532.721	13.94
533.065	14.08
533.41	14.18
533.755	14.3
534.099	14.42
534.444	14.53
534.788	14.68
535.133	14.84
535.477	14.96
535.822	15.11
536.166	15.28
536.51	15.43
536.855	15.59
537.199	15.74
537.543	15.91
537.887	16.11
538.231	16.29
538.576	16.46
538.92	16.64
539.264	16.83
539.608	16.95
539.951	17.12
540.295	17.28
540.639	17.42
540.983	17.57
541.327	17.72
541.671	17.86
542.014	17.99
542.358	18.11
542.701	18.27
543.045	18.37
543.389	18.49
543.732	18.6
544.075	18.72
544.419	18.87
544.762	19.03
545.105	19.17
545.449	19.33
545.792	19.52
546.135	19.64
546.478	19.76
546.821	19.95
547.165	20.13
547.508	20.28
547.851	20.49
548.194	20.67
548.536	20.84
548.879	21.04
549.222	21.25
549.565	21.43
549.908	21.58
550.25	21.82
550.593	22.03
550.936	22.26
551.278	22.47
551.621	22.66
551.963	22.86
552.306	23.05
552.648	23.23
552.991	23.44
553.333	23.65
553.675	23.9
554.017	24.11
554.36	24.28
554.702	24.48
555.044	24.61
555.386	24.8
555.728	25.02
556.07	25.19
556.412	25.38
556.754	25.6
557.096	25.81
557.438	26.01
557.78	26.21
558.121	26.4
558.463	26.6
558.805	26.79
559.147	27.03
559.488	27.27
559.83	27.51
560.171	27.74
560.513	27.96
560.854	28.12
561.196	28.36
561.537	28.59
561.878	28.84
562.22	29.11
562.561	29.38
562.902	29.63
563.243	29.88
563.584	30.12
563.925	30.38
564.266	30.59
564.607	30.82
564.948	31.08
565.289	31.34
565.63	31.54
565.971	31.82
566.312	32.03
566.653	32.27
566.993	32.53
567.334	32.71
567.675	32.95
568.015	33.25
568.356	33.47
568.696	33.75
569.037	34
569.377	34.26
569.718	34.5
570.058	34.74
570.398	34.98
570.739	35.29
571.079	35.45
571.419	35.7
571.759	35.92
572.099	36.11
572.439	36.32
572.779	36.58
573.119	36.74
573.459	37
573.799	37.25
574.139	37.42
574.479	37.69
574.819	37.91
575.158	38.11
575.498	38.32
575.838	38.47
576.177	38.64
576.517	38.81
576.856	39.03
577.196	39.21
577.535	39.45
577.875	39.6
578.214	39.92
578.553	40.18
578.893	40.41
579.232	40.69
579.571	40.92
579.91	41.24
580.25	41.57
580.589	41.84
580.928	41.99
581.267	42.24
581.606	42.39
581.945	42.58
582.283	42.77
582.622	42.97
582.961	43.19
583.3	43.45
583.639	43.71
583.977	43.83
584.316	44.08
584.654	44.32
584.993	44.52
585.332	44.77
585.67	44.99
586.008	45.14
586.347	45.41
586.685	45.65
587.024	45.76
587.362	45.92
587.7	46.1
588.038	46.34
588.376	46.53
588.715	46.85
589.053	47.12
589.391	47.3
589.729	47.52
590.067	47.81
590.404	47.97
590.742	48.22
591.08	48.5
591.418	48.66
591.756	48.79
592.093	49.07
592.431	49.24
592.769	49.37
593.106	49.63
593.444	49.73
593.781	49.85
594.119	50.03
594.456	50.19
594.793	50.32
595.131	50.44
595.468	50.59
595.805	50.58
596.143	50.65
596.48	50.85
596.817	50.96
597.154	51.04
597.491	51.14
597.828	51.19
598.165	51.31
598.502	51.41
598.839	51.56
599.176	51.62
599.512	51.7
599.849	51.79
600.186	51.96
600.523	52.11
600.859	52.3
601.196	52.44
601.532	52.58
601.869	52.71
602.205	52.79
602.542	52.84
602.878	53.04
603.215	53.2
603.551	53.27
603.887	53.36
604.223	53.4
604.56	53.52
604.896	53.64
605.232	53.7
605.568	53.85
605.904	53.92
606.24	54.03
606.576	54.1
606.912	54.26
607.248	54.31
607.583	54.38
607.919	54.41
608.255	54.43
608.591	54.5
608.926	54.62
609.262	54.72
609.597	54.81
609.933	54.87
610.268	54.93
610.604	54.99
610.939	55.07
611.275	55.15
611.61	55.18
611.945	55.23
612.281	55.32
612.616	55.32
612.951	55.45
613.286	55.57
613.621	55.67
613.956	55.7
614.291	55.67
614.626	55.75
614.961	55.77
615.296	55.81
615.631	55.89
615.966	55.88
616.3	56.01
616.635	56.11
616.97	56.21
617.304	56.21
617.639	56.25
617.973	56.32
618.308	56.44
618.642	56.52
618.977	56.56
619.311	56.64
619.646	56.72
619.98	56.74
620.314	56.71
620.648	56.79
620.983	56.76
621.317	56.88
621.651	56.98
621.985	57.14
622.319	57.27
622.653	57.29
622.987	57.34
623.321	57.37
623.655	57.5
623.988	57.48
624.322	57.55
624.656	57.62
624.99	57.63
625.323	57.72
625.657	57.82
625.99	57.92
626.324	57.98
626.657	58.01
626.991	58.08
627.324	58.18
627.658	58.21
627.991	58.36
628.324	58.47
628.657	58.51
628.991	58.49
629.324	58.54
629.657	58.55
629.99	58.63
630.323	58.7
630.656	58.74
630.989	58.79
631.322	58.84
631.655	58.85
631.987	58.99
632.32	58.92
632.653	58.87
632.986	58.88
633.318	58.91
633.651	58.98
633.984	59
634.316	58.94
634.649	58.97
634.981	58.94
635.313	58.99
635.646	58.93
635.978	59.02
636.31	59.06
636.643	59.09
636.975	59.09
637.307	59.25
637.639	59.25
637.971	59.21
638.303	59.29
638.635	59.43
638.967	59.49
639.299	59.53
639.631	59.48
639.963	59.55
640.295	59.48
640.626	59.44
640.958	59.46
641.29	59.42
641.621	59.49
641.953	59.6
642.285	59.53
642.616	59.79
642.948	59.74
643.279	59.73
643.61	59.81
643.942	59.84
644.273	59.68
644.604	59.78
644.936	60
645.267	60.04
645.598	60.04
645.929	59.9
646.26	60.09
646.591	60.22
646.922	60.15
647.253	60.3
647.584	60.37
647.915	60.37
648.245	60.53
648.576	60.58
648.907	60.63
649.238	60.66
649.568	60.59
649.899	60.69
650.229	60.74
650.56	60.87
650.89	60.86
651.221	60.97
651.551	60.93
651.882	60.88
652.212	60.95
652.542	60.92
652.872	61.04
653.203	60.98
653.533	61.04
653.863	61.04
654.193	60.97
654.523	60.89
654.853	60.9
655.183	60.85
655.513	60.72
655.843	60.7
656.172	60.73
656.502	60.59
656.832	60.49
657.162	60.45
657.491	60.32
657.821	60.4
658.15	60.4
658.48	60.43
658.809	60.38
659.139	60.45
659.468	60.43
659.798	60.46
660.127	60.51
660.456	60.5
660.785	60.57
661.115	60.61
661.444	60.74
661.773	60.73
662.102	60.76
662.431	60.85
662.76	60.87
663.089	61.01
663.418	61.1
663.747	61.24
664.076	61.27
664.404	61.26
