Data from BA55658_Reflection_00015.txt Node
Date: Tue Nov 19 11:56:02 EST 2019
User: vgr7
Spectrometer: USB2G7710
Scans to average: 3
Trigger mode: 4
Integration Time (sec): 2.000000E-2
Electric dark correction enabled: true
Boxcar width: 10
XAxis mode: Wavelengths
Number of Pixels in Spectrum: 2048
>>>>>Begin Spectral Data<<<<<
177.721	-70.29
178.105	-38.48
178.488	-27.58
178.871	-55.38
179.254	-42.25
179.636	-162.3
180.019	-48.65
180.402	28.57
180.785	257.14
181.168	-900
181.55	258.03
181.933	149.1
182.316	44.31
182.698	34.03
183.081	14.9
183.463	16.75
183.846	13.08
184.228	9.57
184.611	16.72
184.993	17.6
185.376	24.35
185.758	28.65
186.14	32.92
186.522	43.88
186.904	44.38
187.287	66.4
187.669	72.6
188.051	98.19
188.433	126.57
188.815	122.05
189.197	119
189.579	125.3
189.961	157.81
190.342	400.51
190.724	396.25
191.106	-3790.24
191.488	914.92
191.869	-1111.41
192.251	-282.35
192.633	-245.6
193.014	-533.05
193.396	-656.16
193.777	-293.46
194.159	-446.26
194.54	-242.62
194.922	-191.32
195.303	-198.06
195.684	776.47
196.065	708.81
196.447	163.92
196.828	287.2
197.209	49.33
197.59	51.14
197.971	68.66
198.352	35.45
198.733	52.34
199.114	67.8
199.495	106.77
199.876	163.51
200.257	147.39
200.638	160.58
201.018	600
201.399	1816.22
201.78	192.15
202.16	1094.12
202.541	1094.51
202.922	159.69
203.302	137.53
203.683	-347.37
204.063	-243.24
204.444	-64.84
204.824	-103.18
205.204	-97.49
205.585	-115.14
205.965	-172.1
206.345	-151.42
206.725	-131.81
207.106	-66.28
207.486	-66.21
207.866	-31.58
208.246	-27.34
208.626	-65.31
209.006	-50.46
209.386	-74.11
209.766	-107.01
210.145	-81.48
210.525	-92.31
210.905	-86.67
211.285	-64.64
211.664	-54.69
212.044	-47.98
212.424	-63.7
212.803	-65.82
213.183	-51.69
213.562	-42.32
213.942	-42.38
214.321	-49.27
214.701	-41
215.08	-44.64
215.459	-38.68
215.838	-70.79
216.218	-117.5
216.597	-35.92
216.976	-64.12
217.355	-87.43
217.734	-104.75
218.113	-59.06
218.492	-50.5
218.871	-56.69
219.25	-119.24
219.629	164.32
220.008	62.92
220.387	101.89
220.766	-62.34
221.144	354.1
221.523	128.19
221.902	92.84
222.28	600
222.659	64.59
223.037	14.76
223.416	37.11
223.794	128.93
224.173	81.79
224.551	80.71
224.929	42.11
225.308	38.1
225.686	28.06
226.064	9.81
226.442	1.3
226.821	-1.04
227.199	-6.37
227.577	-1.82
227.955	-3.03
228.333	-1.86
228.711	-7.21
229.089	-6.48
229.467	-6.45
229.845	-7.45
230.222	-8.1
230.6	-14.85
230.978	-14.29
231.356	-13.17
231.733	-12.9
232.111	-14.54
232.488	-13.79
232.866	-10.55
233.243	-11.17
233.621	-8.83
233.998	-5.23
234.376	-3.79
234.753	-2.4
235.13	-2.14
235.508	-4.28
235.885	-4.2
236.262	-4.02
236.639	-3.56
237.016	-3.26
237.393	-2.46
237.77	-0.32
238.147	-1.24
238.524	1.18
238.901	1.4
239.278	0.39
239.655	-0.19
240.032	0.59
240.409	0.24
240.785	1.75
241.162	2.26
241.539	3.06
241.915	3.23
242.292	2.96
242.668	3.59
243.045	4
243.421	4.77
243.798	5.12
244.174	5.08
244.551	5.49
244.927	5.44
245.303	5.39
245.679	5.29
246.056	5.51
246.432	5.68
246.808	5.87
247.184	6.29
247.56	6.23
247.936	6.27
248.312	6.49
248.688	6.02
249.064	6.1
249.44	5.84
249.815	5.81
250.191	6
250.567	5.79
250.943	5.64
251.318	5.19
251.694	4.65
252.069	4.7
252.445	4.51
252.82	4.54
253.196	4.51
253.571	4.25
253.947	4.3
254.322	3.98
254.697	4.13
255.073	3.82
255.448	3.57
255.823	3.75
256.198	3.53
256.573	3.74
256.948	3.52
257.323	3.59
257.698	3.57
258.073	3.38
258.448	3.55
258.823	3.47
259.198	3.75
259.573	3.84
259.948	3.86
260.322	3.7
260.697	3.9
261.072	3.84
261.446	3.99
261.821	3.9
262.195	3.84
262.57	3.58
262.944	3.58
263.319	3.84
263.693	3.75
264.067	3.81
264.442	3.84
264.816	3.75
265.19	3.96
265.564	4.01
265.938	4.23
266.313	4.07
266.687	4.24
267.061	4.22
267.435	4.47
267.809	4.49
268.183	4.77
268.556	4.57
268.93	4.61
269.304	4.62
269.678	4.76
270.051	4.74
270.425	4.58
270.799	4.36
271.172	4.32
271.546	4.33
271.919	4.36
272.293	4.41
272.666	4.69
273.04	4.46
273.413	4.38
273.787	4.23
274.16	4.22
274.533	4.27
274.906	4.34
275.279	4.2
275.653	3.97
276.026	3.79
276.399	3.62
276.772	3.77
277.145	3.57
277.518	3.32
277.891	3.46
278.263	3.7
278.636	3.95
279.009	3.97
279.382	4.06
279.755	3.91
280.127	3.95
280.5	3.82
280.872	3.98
281.245	4
281.617	4.31
281.99	4.41
282.362	4.52
282.735	4.3
283.107	4.24
283.479	4.32
283.852	4.34
284.224	4.46
284.596	4.29
284.968	4.38
285.34	4.38
285.713	4.47
286.085	4.51
286.457	4.52
286.829	4.43
287.201	4.38
287.572	4.61
287.944	4.73
288.316	4.7
288.688	4.79
289.06	4.87
289.431	4.93
289.803	4.93
290.175	4.87
290.546	5.06
290.918	5.15
291.289	5.23
291.661	5.39
292.032	5.4
292.403	5.56
292.775	5.71
293.146	5.92
293.517	5.84
293.889	5.88
294.26	6
294.631	6.05
295.002	6.06
295.373	6.17
295.744	6.02
296.115	6.23
296.486	6.24
296.857	6.34
297.228	6.29
297.599	6.24
297.97	6.25
298.34	6.29
298.711	6.54
299.082	6.5
299.452	6.5
299.823	6.65
300.194	6.82
300.564	6.64
300.935	6.63
301.305	6.75
301.676	6.78
302.046	6.68
302.416	6.78
302.787	6.83
303.157	6.81
303.527	6.95
303.897	6.9
304.267	6.84
304.637	6.9
305.008	6.87
305.378	7.1
305.748	7.27
306.117	7.4
306.487	7.46
306.857	7.7
307.227	7.89
307.597	7.96
307.967	7.91
308.336	8.19
308.706	8.42
309.076	8.44
309.445	8.64
309.815	8.79
310.184	8.88
310.554	9.07
310.923	8.95
311.293	8.96
311.662	9.14
312.031	9.22
312.401	9.24
312.77	9.34
313.139	9.35
313.508	9.25
313.877	9.34
314.246	9.19
314.616	9.32
314.985	9.42
315.353	9.4
315.722	9.59
316.091	9.5
316.46	9.43
316.829	9.72
317.198	9.76
317.567	9.9
317.935	9.87
318.304	9.88
318.672	10.13
319.041	10.19
319.41	10.13
319.778	10.36
320.147	10.64
320.515	10.75
320.883	10.87
321.252	11.19
321.62	10.86
321.988	11.19
322.357	11.25
322.725	11.22
323.093	11.4
323.461	11.54
323.829	11.8
324.197	11.88
324.565	11.78
324.933	11.82
325.301	11.74
325.669	11.85
326.037	11.94
326.405	12.04
326.772	12.07
327.14	12.13
327.508	12
327.875	11.81
328.243	11.8
328.61	11.9
328.978	11.77
329.346	11.88
329.713	11.91
330.08	11.87
330.448	11.91
330.815	11.96
331.182	11.61
331.55	11.46
331.917	11.38
332.284	11.41
332.651	11.39
333.018	11.45
333.385	11.51
333.752	11.62
334.119	11.66
334.486	11.77
334.853	11.66
335.22	11.85
335.587	11.92
335.954	11.98
336.32	11.86
336.687	12.05
337.054	12.37
337.42	12.41
337.787	12.55
338.153	12.54
338.52	12.53
338.886	12.76
339.253	12.94
339.619	13.02
339.986	13.12
340.352	13.13
340.718	13.34
341.084	13.49
341.451	13.42
341.817	13.43
342.183	13.34
342.549	13.44
342.915	13.41
343.281	13.4
343.647	13.55
344.013	13.63
344.379	13.52
344.745	13.6
345.11	13.44
345.476	13.43
345.842	13.44
346.208	13.48
346.573	13.53
346.939	13.47
347.304	13.55
347.67	13.43
348.035	13.47
348.401	13.33
348.766	13.14
349.132	13.13
349.497	13.09
349.862	13.21
350.228	13.2
350.593	13.29
350.958	13.35
351.323	13.17
351.688	13.15
352.053	13.17
352.418	13.05
352.783	13.07
353.148	12.98
353.513	12.94
353.878	12.93
354.243	12.79
354.608	12.67
354.972	12.5
355.337	12.5
355.702	12.43
356.066	12.42
356.431	12.46
356.795	12.42
357.16	12.37
357.524	12.25
357.889	12.06
358.253	11.96
358.618	11.89
358.982	11.8
359.346	11.7
359.71	11.63
360.075	11.51
360.439	11.56
360.803	11.44
361.167	11.28
361.531	11.14
361.895	11.12
362.259	11.16
362.623	11.16
362.987	11.06
363.351	11.03
363.714	10.98
364.078	10.83
364.442	10.72
364.806	10.57
365.169	10.58
365.533	10.57
365.896	10.53
366.26	10.49
366.623	10.45
366.987	10.43
367.35	10.37
367.714	10.25
368.077	10.12
368.44	10.1
368.803	10.16
369.167	10.11
369.53	10.01
369.893	9.88
370.256	9.74
370.619	9.76
370.982	9.64
371.345	9.53
371.708	9.5
372.071	9.4
372.434	9.39
372.797	9.32
373.159	9.27
373.522	9.1
373.885	8.94
374.247	8.85
374.61	8.73
374.973	8.54
375.335	8.45
375.698	8.41
376.06	8.25
376.423	8.2
376.785	8.08
377.147	8.02
377.51	7.94
377.872	7.89
378.234	7.76
378.596	7.73
378.958	7.68
379.321	7.57
379.683	7.52
380.045	7.48
380.407	7.31
380.769	7.21
381.13	7.17
381.492	7.13
381.854	7.11
382.216	7.09
382.578	7.12
382.939	7.16
383.301	7
383.663	7.03
384.024	6.93
384.386	6.92
384.747	6.84
385.109	6.75
385.47	6.68
385.832	6.63
386.193	6.6
386.554	6.53
386.916	6.55
387.277	6.49
387.638	6.45
387.999	6.39
388.36	6.4
388.721	6.35
389.082	6.32
389.443	6.23
389.804	6.17
390.165	6.1
390.526	5.99
390.887	6.03
391.248	5.96
391.609	5.96
391.969	5.92
392.33	5.89
392.691	5.92
393.051	5.9
393.412	5.86
393.772	5.76
394.133	5.71
394.493	5.64
394.854	5.61
395.214	5.55
395.574	5.51
395.935	5.48
396.295	5.45
396.655	5.4
397.015	5.4
397.376	5.32
397.736	5.29
398.096	5.22
398.456	5.14
398.816	5.12
399.176	5.02
399.535	4.96
399.895	4.95
400.255	4.87
400.615	4.84
400.975	4.85
401.334	4.85
401.694	4.83
402.054	4.8
402.413	4.78
402.773	4.75
403.132	4.74
403.492	4.7
403.851	4.68
404.211	4.65
404.57	4.66
404.929	4.66
405.288	4.65
405.648	4.64
406.007	4.61
406.366	4.58
406.725	4.63
407.084	4.6
407.443	4.58
407.802	4.53
408.161	4.52
408.52	4.46
408.879	4.47
409.238	4.44
409.596	4.41
409.955	4.4
410.314	4.37
410.673	4.36
411.031	4.35
411.39	4.33
411.748	4.31
412.107	4.27
412.465	4.22
412.824	4.19
413.182	4.23
413.54	4.23
413.899	4.2
414.257	4.17
414.615	4.18
414.974	4.18
415.332	4.17
415.69	4.16
416.048	4.15
416.406	4.14
416.764	4.12
417.122	4.09
417.48	4.08
417.838	4.08
418.195	4.06
418.553	4.04
418.911	4
419.269	3.97
419.626	3.98
419.984	3.98
420.342	3.98
420.699	3.94
421.057	3.92
421.414	3.93
421.772	3.89
422.129	3.87
422.486	3.85
422.844	3.85
423.201	3.83
423.558	3.83
423.915	3.82
424.273	3.82
424.63	3.83
424.987	3.84
425.344	3.82
425.701	3.8
426.058	3.8
426.415	3.8
426.772	3.81
427.128	3.79
427.485	3.77
427.842	3.77
428.199	3.78
428.555	3.79
428.912	3.77
429.269	3.79
429.625	3.81
429.982	3.82
430.338	3.8
430.695	3.79
431.051	3.79
431.407	3.77
431.764	3.74
432.12	3.72
432.476	3.7
432.832	3.69
433.189	3.74
433.545	3.73
433.901	3.72
434.257	3.71
434.613	3.7
434.969	3.69
435.325	3.66
435.681	3.65
436.036	3.62
436.392	3.62
436.748	3.61
437.104	3.61
437.459	3.6
437.815	3.59
438.171	3.58
438.526	3.56
438.882	3.56
439.237	3.57
439.593	3.57
439.948	3.57
440.304	3.58
440.659	3.57
441.014	3.57
441.369	3.57
441.725	3.58
442.08	3.58
442.435	3.56
442.79	3.57
443.145	3.57
443.5	3.57
443.855	3.55
444.21	3.54
444.565	3.52
444.92	3.52
445.275	3.53
445.629	3.52
445.984	3.51
446.339	3.5
446.693	3.49
447.048	3.47
447.403	3.47
447.757	3.46
448.112	3.44
448.466	3.44
448.82	3.42
449.175	3.42
449.529	3.41
449.883	3.41
450.238	3.4
450.592	3.4
450.946	3.4
451.3	3.39
451.654	3.38
452.008	3.37
452.362	3.36
452.716	3.34
453.07	3.34
453.424	3.36
453.778	3.34
454.132	3.34
454.486	3.36
454.839	3.36
455.193	3.39
455.547	3.38
455.9	3.38
456.254	3.41
456.607	3.42
456.961	3.42
457.314	3.43
457.668	3.44
458.021	3.42
458.375	3.43
458.728	3.45
459.081	3.47
459.434	3.47
459.787	3.48
460.141	3.5
460.494	3.53
460.847	3.53
461.2	3.54
461.553	3.54
461.906	3.54
462.259	3.53
462.611	3.52
462.964	3.54
463.317	3.52
463.67	3.52
464.022	3.5
464.375	3.5
464.728	3.51
465.08	3.52
465.433	3.55
465.785	3.53
466.138	3.54
466.49	3.55
466.843	3.57
467.195	3.56
467.547	3.53
467.899	3.51
468.252	3.51
468.604	3.53
468.956	3.56
469.308	3.56
469.66	3.59
470.012	3.6
470.364	3.61
470.716	3.61
471.068	3.61
471.42	3.64
471.772	3.66
472.123	3.66
472.475	3.65
472.827	3.65
473.178	3.67
473.53	3.66
473.882	3.65
474.233	3.62
474.585	3.63
474.936	3.65
475.288	3.66
475.639	3.65
475.99	3.64
476.342	3.62
476.693	3.61
477.044	3.57
477.395	3.58
477.746	3.56
478.097	3.57
478.448	3.57
478.8	3.54
479.15	3.54
479.501	3.53
479.852	3.53
480.203	3.54
480.554	3.53
480.905	3.54
481.255	3.54
481.606	3.56
481.957	3.56
482.307	3.56
482.658	3.56
483.009	3.55
483.359	3.57
483.709	3.58
484.06	3.6
484.41	3.6
484.761	3.61
485.111	3.61
485.461	3.62
485.811	3.63
486.162	3.64
486.512	3.64
486.862	3.66
487.212	3.67
487.562	3.67
487.912	3.68
488.262	3.7
488.612	3.7
488.961	3.72
489.311	3.72
489.661	3.73
490.011	3.74
490.36	3.76
490.71	3.76
491.06	3.77
491.409	3.76
491.759	3.78
492.108	3.8
492.458	3.81
492.807	3.8
493.157	3.82
493.506	3.85
493.855	3.87
494.204	3.88
494.554	3.9
494.903	3.92
495.252	3.93
495.601	3.97
495.95	3.98
496.299	4.01
496.648	4.03
496.997	4.06
497.346	4.1
497.695	4.15
498.043	4.2
498.392	4.23
498.741	4.26
499.09	4.3
499.438	4.34
499.787	4.38
500.135	4.43
500.484	4.48
500.832	4.48
501.181	4.52
501.529	4.57
501.878	4.61
502.226	4.69
502.574	4.74
502.923	4.74
503.271	4.77
503.619	4.84
503.967	4.9
504.315	4.94
504.663	4.99
505.011	5.07
505.359	5.09
505.707	5.13
506.055	5.19
506.403	5.26
506.751	5.32
507.098	5.42
507.446	5.49
507.794	5.55
508.141	5.63
508.489	5.7
508.837	5.77
509.184	5.85
509.531	5.91
509.879	5.99
510.226	6.08
510.574	6.22
510.921	6.27
511.268	6.37
511.616	6.45
511.963	6.53
512.31	6.59
512.657	6.7
513.004	6.8
513.351	6.91
513.698	7
514.045	7.11
514.392	7.22
514.739	7.32
515.086	7.44
515.432	7.56
515.779	7.68
516.126	7.78
516.473	7.88
516.819	8
517.166	8.1
517.512	8.19
517.859	8.25
518.205	8.35
518.552	8.44
518.898	8.54
519.245	8.66
519.591	8.77
519.937	8.88
520.283	9
520.629	9.14
520.976	9.27
521.322	9.38
521.668	9.52
522.014	9.71
522.36	9.85
522.706	10.02
523.052	10.22
523.398	10.44
523.743	10.65
524.089	10.86
524.435	11.04
524.781	11.27
525.126	11.45
525.472	11.62
525.817	11.78
526.163	11.94
526.509	12.09
526.854	12.23
527.199	12.33
527.545	12.45
527.89	12.56
528.235	12.71
528.581	12.85
528.926	12.97
529.271	13.1
529.616	13.26
529.961	13.39
530.306	13.54
530.651	13.68
530.996	13.83
531.341	14.01
531.686	14.19
532.031	14.34
532.376	14.55
532.721	14.75
533.065	14.97
533.41	15.2
533.755	15.41
534.099	15.64
534.444	15.92
534.788	16.17
535.133	16.43
535.477	16.66
535.822	16.91
536.166	17.21
536.51	17.48
536.855	17.81
537.199	18.12
537.543	18.45
537.887	18.78
538.231	19.11
538.576	19.47
538.92	19.79
539.264	20.11
539.608	20.41
539.951	20.68
540.295	20.97
540.639	21.22
540.983	21.48
541.327	21.73
541.671	21.99
542.014	22.24
542.358	22.47
542.701	22.73
543.045	22.99
543.389	23.25
543.732	23.5
544.075	23.75
544.419	24.05
544.762	24.33
545.105	24.63
545.449	24.97
545.792	25.27
546.135	25.65
546.478	26.02
546.821	26.4
547.165	26.78
547.508	27.14
547.851	27.53
548.194	27.92
548.536	28.28
548.879	28.65
549.222	29.06
549.565	29.47
549.908	29.84
550.25	30.22
550.593	30.62
550.936	31.03
551.278	31.4
551.621	31.74
551.963	32.19
552.306	32.53
552.648	32.88
552.991	33.24
553.333	33.56
553.675	33.92
554.017	34.26
554.36	34.63
554.702	34.98
555.044	35.29
555.386	35.62
555.728	36.02
556.07	36.37
556.412	36.76
556.754	37.04
557.096	37.4
557.438	37.76
557.78	38.11
558.121	38.46
558.463	38.82
558.805	39.17
559.147	39.41
559.488	39.79
559.83	40.12
560.171	40.4
560.513	40.72
560.854	41.05
561.196	41.31
561.537	41.59
561.878	41.92
562.22	42.26
562.561	42.54
562.902	42.83
563.243	43.12
563.584	43.38
563.925	43.76
564.266	43.98
564.607	44.22
564.948	44.42
565.289	44.69
565.63	44.95
565.971	45.23
566.312	45.47
566.653	45.71
566.993	45.97
567.334	46.21
567.675	46.46
568.015	46.63
568.356	46.98
568.696	47.24
569.037	47.48
569.377	47.71
569.718	47.98
570.058	48.2
570.398	48.4
570.739	48.56
571.079	48.75
571.419	48.96
571.759	49.22
572.099	49.42
572.439	49.6
572.779	49.84
573.119	50.06
573.459	50.28
573.799	50.42
574.139	50.61
574.479	50.82
574.819	51.07
575.158	51.28
575.498	51.38
575.838	51.49
576.177	51.62
576.517	51.76
576.856	51.94
577.196	52.13
577.535	52.35
577.875	52.57
578.214	52.73
578.553	52.95
578.893	53.13
579.232	53.33
579.571	53.5
579.91	53.58
580.25	53.7
580.589	53.94
580.928	54.16
581.267	54.35
581.606	54.54
581.945	54.68
582.283	54.74
582.622	54.9
582.961	55.16
583.3	55.35
583.639	55.59
583.977	55.69
584.316	55.88
584.654	56.03
584.993	56.12
585.332	56.25
585.67	56.45
586.008	56.61
586.347	56.73
586.685	56.83
587.024	57.01
587.362	57.13
587.7	57.13
588.038	57.28
588.376	57.39
588.715	57.48
589.053	57.59
589.391	57.87
589.729	57.97
590.067	58.06
590.404	58.24
590.742	58.36
591.08	58.55
591.418	58.63
591.756	58.78
592.093	58.93
592.431	59.09
592.769	59.16
593.106	59.18
593.444	59.29
593.781	59.49
594.119	59.66
594.456	59.67
594.793	59.89
595.131	59.9
595.468	59.97
595.805	60.07
596.143	60.14
596.48	60.19
596.817	60.29
597.154	60.42
597.491	60.45
597.828	60.51
598.165	60.57
598.502	60.61
598.839	60.63
599.176	60.7
599.512	60.7
599.849	60.77
600.186	60.88
600.523	61.03
600.859	61.11
601.196	61.08
601.532	61.19
601.869	61.18
602.205	61.21
602.542	61.25
602.878	61.3
603.215	61.25
603.551	61.35
603.887	61.38
604.223	61.36
604.56	61.4
604.896	61.46
605.232	61.47
605.568	61.57
605.904	61.61
606.24	61.67
606.576	61.73
606.912	61.73
607.248	61.77
607.583	61.71
607.919	61.68
608.255	61.72
608.591	61.78
608.926	61.82
609.262	61.98
609.597	62.11
609.933	62.2
610.268	62.32
610.604	62.34
610.939	62.42
611.275	62.45
611.61	62.43
611.945	62.53
612.281	62.65
612.616	62.69
612.951	62.71
613.286	62.75
613.621	62.85
613.956	63.09
614.291	63.22
614.626	63.47
614.961	63.62
615.296	63.76
615.631	63.85
615.966	64
616.3	64.01
616.635	63.98
616.97	63.96
617.304	64.05
617.639	64.13
617.973	64.15
618.308	64.19
618.642	64.24
618.977	64.12
619.311	64.18
619.646	64.25
619.98	64.31
620.314	64.37
620.648	64.49
620.983	64.45
621.317	64.37
621.651	64.4
621.985	64.43
622.319	64.38
622.653	64.48
622.987	64.38
623.321	64.31
623.655	64.25
623.988	64.33
624.322	64.37
624.656	64.29
624.99	64.29
625.323	64.36
625.657	64.43
625.99	64.45
626.324	64.42
626.657	64.31
626.991	64.32
627.324	64.32
627.658	64.22
627.991	64.27
628.324	64.45
628.657	64.4
628.991	64.33
629.324	64.3
629.657	64.17
629.99	64.23
630.323	64.34
630.656	64.36
630.989	64.38
631.322	64.33
631.655	64.35
631.987	64.39
632.32	64.36
632.653	64.31
632.986	64.42
633.318	64.46
633.651	64.64
633.984	64.79
634.316	64.71
634.649	64.77
634.981	64.83
635.313	64.78
635.646	64.76
635.978	64.76
636.31	64.85
636.643	64.96
636.975	65.03
637.307	65.14
637.639	65.2
637.971	65.19
638.303	65.28
638.635	65.35
638.967	65.46
639.299	65.66
639.631	65.66
639.963	65.55
640.295	65.54
640.626	65.35
640.958	65.24
641.29	65.49
641.621	65.51
641.953	65.47
642.285	65.52
642.616	65.66
642.948	65.84
643.279	65.9
643.61	66.04
643.942	65.97
644.273	65.85
644.604	65.88
644.936	65.9
645.267	66.03
645.598	66.03
645.929	65.93
646.26	65.82
646.591	65.95
646.922	66.17
647.253	66.25
647.584	66.4
647.915	66.35
648.245	66.33
648.576	66.29
648.907	66.25
649.238	66.17
649.568	66.09
649.899	66
650.229	66.14
650.56	66.22
650.89	66.25
651.221	66.25
651.551	66.29
651.882	66.33
652.212	66.12
652.542	66.14
652.872	66.1
653.203	66.16
653.533	66.17
653.863	66.12
654.193	66.11
654.523	66.12
654.853	66.19
655.183	66.09
655.513	66.19
655.843	66.14
656.172	66.09
656.502	66.19
656.832	66.28
657.162	66.19
657.491	66.05
657.821	66.04
658.15	66.13
658.48	66.17
658.809	66.17
659.139	66.32
659.468	66.25
659.798	66.37
660.127	66.36
660.456	66.35
660.785	66.28
661.115	66.25
661.444	66.31
661.773	66.44
662.102	66.44
662.431	66.44
662.76	66.6
663.089	66.63
663.418	66.69
663.747	66.68
664.076	66.66
