Data from BA55658_Reflection_00010.txt Node
Date: Tue Nov 19 11:55:48 EST 2019
User: vgr7
Spectrometer: USB2G7710
Scans to average: 3
Trigger mode: 4
Integration Time (sec): 2.000000E-2
Electric dark correction enabled: true
Boxcar width: 10
XAxis mode: Wavelengths
Number of Pixels in Spectrum: 2048
>>>>>Begin Spectral Data<<<<<
177.721	-44.09
178.105	-23.91
178.488	-2.24
178.871	-12.31
179.254	-2.82
179.636	-31.15
180.019	329.73
180.402	214.29
180.785	-1685.71
181.168	-400
181.55	159.59
181.933	44.89
182.316	36.11
182.698	21.7
183.081	-10.86
183.463	-11.17
183.846	10.66
184.228	-23.97
184.611	-44.81
184.993	-49.85
185.376	-39.43
185.758	-51.65
186.14	-52.87
186.522	-58.71
186.904	-58.08
187.287	-59.51
187.669	-77.58
188.051	-69.8
188.433	-59.79
188.815	-66.23
189.197	-72.43
189.579	-124.01
189.961	-117.92
190.342	-292.58
190.724	-161.12
191.106	1356.1
191.488	-433.15
191.869	707.38
192.251	157.87
192.633	143.99
193.014	230.9
193.396	353.69
193.777	108.47
194.159	-26.33
194.54	-22.28
194.922	-9.35
195.303	-38.83
195.684	177.54
196.065	252.85
196.447	41.33
196.828	239.81
197.209	93.31
197.59	136.38
197.971	147.68
198.352	138.29
198.733	89.5
199.114	66.59
199.495	133.85
199.876	161.2
200.257	145.45
200.638	120.8
201.018	262.98
201.399	1221.62
201.78	62.24
202.16	-11.76
202.541	193.41
202.922	34.44
203.302	32.05
203.683	-210.53
204.063	54.05
204.444	6.29
204.824	20.38
205.204	-5.88
205.585	-31.7
205.965	-58.15
206.345	-58.44
206.725	15.12
207.106	10.82
207.486	13.79
207.866	42.88
208.246	32.06
208.626	30.32
209.006	41.52
209.386	53.35
209.766	39.49
210.145	35.04
210.525	32.39
210.905	41.73
211.285	47.35
211.664	56.84
212.044	60.75
212.424	63.59
212.803	81.29
213.183	74.46
213.562	83.63
213.942	65.36
214.321	56.16
214.701	53.39
215.08	92.62
215.459	91.43
215.838	80.7
216.218	163.4
216.597	88.71
216.976	67.83
217.355	47.16
217.734	73.68
218.113	139.23
218.492	96.43
218.871	114.96
219.25	215.14
219.629	-238.17
220.008	-62.4
220.387	-252.83
220.766	963.64
221.144	-1580.33
221.523	-248.66
221.902	-262.46
222.28	27800
222.659	407.37
223.037	132.51
223.416	169.07
223.794	200
224.173	121.74
224.551	109.91
224.929	127.8
225.308	90.7
225.686	60.6
226.064	31.61
226.442	47.08
226.821	34.66
227.199	24.14
227.577	26.47
227.955	26.84
228.333	25.08
228.711	18.66
229.089	15.28
229.467	12.87
229.845	17.86
230.222	16.35
230.6	17.78
230.978	17.17
231.356	14.15
231.733	13.53
232.111	14.96
232.488	17.77
232.866	16.47
233.243	16.7
233.621	18.06
233.998	19.03
234.376	17.68
234.753	16.14
235.13	16.74
235.508	14.69
235.885	13.46
236.262	10.97
236.639	13.03
237.016	13.68
237.393	13.84
237.77	11.43
238.147	10.43
238.524	9.29
238.901	9.44
239.278	9.71
239.655	8.02
240.032	8.02
240.409	6.98
240.785	6.24
241.162	6.48
241.539	6.23
241.915	5.9
242.292	5.24
242.668	5.74
243.045	5.74
243.421	5.86
243.798	5.93
244.174	6.21
244.551	6.38
244.927	6.16
245.303	6.31
245.679	6.41
246.056	6.38
246.432	6.4
246.808	6.46
247.184	6.27
247.56	6.42
247.936	6.22
248.312	6.33
248.688	6.42
249.064	6.42
249.44	6.32
249.815	6.23
250.191	6.49
250.567	6.5
250.943	6.36
251.318	6.24
251.694	6.18
252.069	6.07
252.445	5.8
252.82	5.95
253.196	5.6
253.571	5.56
253.947	5.34
254.322	4.7
254.697	4.92
255.073	5.06
255.448	4.7
255.823	4.59
256.198	4.2
256.573	4.3
256.948	4.22
257.323	4.28
257.698	4.44
258.073	4.43
258.448	4.41
258.823	4.5
259.198	4.61
259.573	4.54
259.948	4.46
260.322	4.42
260.697	4.33
261.072	4.52
261.446	4.56
261.821	4.45
262.195	4.63
262.57	4.41
262.944	4.54
263.319	4.73
263.693	4.93
264.067	5.17
264.442	5.2
264.816	5.26
265.19	5.31
265.564	5.28
265.938	5.13
266.313	5.03
266.687	4.94
267.061	4.83
267.435	4.89
267.809	4.82
268.183	4.8
268.556	4.55
268.93	4.42
269.304	4.46
269.678	4.81
270.051	4.89
270.425	5.19
270.799	4.75
271.172	4.71
271.546	4.64
271.919	4.84
272.293	4.9
272.666	5.02
273.04	4.9
273.413	4.83
273.787	4.89
274.16	4.85
274.533	5.02
274.906	5.09
275.279	5.13
275.653	5.31
276.026	5.45
276.399	5.71
276.772	5.64
277.145	5.57
277.518	5.29
277.891	5.24
278.263	5.17
278.636	5.61
279.009	5.55
279.382	5.45
279.755	5.01
280.127	4.79
280.5	4.59
280.872	4.68
281.245	4.9
281.617	5.03
281.99	5.08
282.362	4.91
282.735	4.93
283.107	4.84
283.479	4.78
283.852	4.79
284.224	4.84
284.596	5.04
284.968	5.06
285.34	5.17
285.713	5.29
286.085	5.25
286.457	5.04
286.829	5.02
287.201	4.98
287.572	5.12
287.944	5.23
288.316	5.38
288.688	5.49
289.06	5.61
289.431	5.7
289.803	5.72
290.175	5.91
290.546	5.89
290.918	6.15
291.289	6.27
291.661	6.31
292.032	6.37
292.403	6.35
292.775	6.44
293.146	6.36
293.517	6.21
293.889	6.29
294.26	6.54
294.631	6.75
295.002	6.9
295.373	6.97
295.744	7.05
296.115	7.04
296.486	7.05
296.857	6.92
297.228	6.91
297.599	6.96
297.97	6.93
298.34	6.94
298.711	6.88
299.082	6.99
299.452	6.99
299.823	6.97
300.194	7.03
300.564	7.2
300.935	7.41
301.305	7.67
301.676	7.65
302.046	7.55
302.416	7.56
302.787	7.64
303.157	7.67
303.527	7.81
303.897	7.92
304.267	8.09
304.637	8.13
305.008	8.3
305.378	8.44
305.748	8.46
306.117	8.52
306.487	8.63
306.857	8.63
307.227	8.84
307.597	8.94
307.967	9.12
308.336	9.13
308.706	9.19
309.076	9.27
309.445	9.53
309.815	9.76
310.184	9.69
310.554	9.74
310.923	9.79
311.293	9.71
311.662	9.8
312.031	9.9
312.401	10.06
312.77	9.96
313.139	9.94
313.508	10.08
313.877	10.29
314.246	10.4
314.616	10.48
314.985	10.53
315.353	10.67
315.722	10.7
316.091	10.58
316.46	10.77
316.829	10.74
317.198	10.78
317.567	10.84
317.935	11.02
318.304	11.14
318.672	11.26
319.041	11.42
319.41	11.34
319.778	11.31
320.147	11.43
320.515	11.62
320.883	11.82
321.252	11.73
321.62	11.72
321.988	11.8
322.357	11.76
322.725	11.65
323.093	11.74
323.461	11.71
323.829	11.8
324.197	11.78
324.565	11.99
324.933	11.8
325.301	11.54
325.669	11.65
326.037	11.76
326.405	11.85
326.772	11.94
327.14	12.03
327.508	11.99
327.875	12
328.243	11.87
328.61	11.8
328.978	11.99
329.346	12.24
329.713	12.19
330.08	12.23
330.448	12.28
330.815	12.21
331.182	12.14
331.55	12.24
331.917	12.13
332.284	11.89
332.651	11.89
333.018	12.2
333.385	12.21
333.752	12.04
334.119	11.95
334.486	11.94
334.853	11.96
335.22	11.95
335.587	11.78
335.954	11.9
336.32	11.81
336.687	11.72
337.054	11.49
337.42	11.4
337.787	11.52
338.153	11.53
338.52	11.4
338.886	11.56
339.253	11.52
339.619	11.59
339.986	11.68
340.352	11.79
340.718	11.86
341.084	11.78
341.451	11.8
341.817	11.92
342.183	11.85
342.549	11.9
342.915	11.82
343.281	11.85
343.647	11.76
344.013	11.86
344.379	12.01
344.745	11.99
345.11	12.02
345.476	11.85
345.842	11.8
346.208	11.95
346.573	11.81
346.939	11.77
347.304	11.88
347.67	11.85
348.035	11.77
348.401	11.6
348.766	11.68
349.132	11.75
349.497	11.71
349.862	11.68
350.228	11.61
350.593	11.69
350.958	11.77
351.323	11.77
351.688	11.72
352.053	11.57
352.418	11.5
352.783	11.61
353.148	11.52
353.513	11.4
353.878	11.21
354.243	11.2
354.608	11.26
354.972	11.04
355.337	11.05
355.702	11.03
356.066	11.02
356.431	11.01
356.795	10.92
357.16	10.87
357.524	10.84
357.889	10.69
358.253	10.55
358.618	10.48
358.982	10.42
359.346	10.41
359.71	10.36
360.075	10.36
360.439	10.23
360.803	10.31
361.167	10.36
361.531	10.4
361.895	10.4
362.259	10.38
362.623	10.43
362.987	10.4
363.351	10.35
363.714	10.3
364.078	10.1
364.442	10.03
364.806	9.97
365.169	9.94
365.533	10.03
365.896	10.1
366.26	9.96
366.623	9.98
366.987	9.91
367.35	9.86
367.714	9.84
368.077	9.8
368.44	9.73
368.803	9.68
369.167	9.58
369.53	9.5
369.893	9.37
370.256	9.3
370.619	9.12
370.982	9.07
371.345	9.07
371.708	9.12
372.071	9.05
372.434	8.91
372.797	8.86
373.159	8.7
373.522	8.6
373.885	8.66
374.247	8.49
374.61	8.4
374.973	8.33
375.335	8.23
375.698	8.16
376.06	8.04
376.423	7.91
376.785	7.86
377.147	7.78
377.51	7.75
377.872	7.69
378.234	7.69
378.596	7.55
378.958	7.41
379.321	7.34
379.683	7.32
380.045	7.29
380.407	7.25
380.769	7.2
381.13	7.12
381.492	7.04
381.854	7.04
382.216	7
382.578	6.96
382.939	6.84
383.301	6.75
383.663	6.71
384.024	6.74
384.386	6.76
384.747	6.69
385.109	6.63
385.47	6.56
385.832	6.5
386.193	6.52
386.554	6.48
386.916	6.44
387.277	6.35
387.638	6.33
387.999	6.29
388.36	6.25
388.721	6.2
389.082	6.16
389.443	6.15
389.804	6.11
390.165	6.06
390.526	6.09
390.887	6.09
391.248	6.07
391.609	6
391.969	5.89
392.33	5.85
392.691	5.78
393.051	5.74
393.412	5.65
393.772	5.59
394.133	5.53
394.493	5.43
394.854	5.42
395.214	5.33
395.574	5.28
395.935	5.22
396.295	5.18
396.655	5.12
397.015	5.03
397.376	5.02
397.736	4.96
398.096	4.89
398.456	4.82
398.816	4.79
399.176	4.71
399.535	4.64
399.895	4.57
400.255	4.56
400.615	4.53
400.975	4.52
401.334	4.51
401.694	4.49
402.054	4.45
402.413	4.42
402.773	4.4
403.132	4.34
403.492	4.33
403.851	4.31
404.211	4.28
404.57	4.29
404.929	4.23
405.288	4.22
405.648	4.23
406.007	4.25
406.366	4.2
406.725	4.19
407.084	4.21
407.443	4.23
407.802	4.19
408.161	4.17
408.52	4.14
408.879	4.1
409.238	4.11
409.596	4.14
409.955	4.14
410.314	4.15
410.673	4.19
411.031	4.18
411.39	4.16
411.748	4.15
412.107	4.1
412.465	4.06
412.824	4.03
413.182	3.98
413.54	3.94
413.899	3.94
414.257	3.91
414.615	3.88
414.974	3.84
415.332	3.84
415.69	3.78
416.048	3.79
416.406	3.76
416.764	3.72
417.122	3.67
417.48	3.63
417.838	3.59
418.195	3.55
418.553	3.53
418.911	3.51
419.269	3.48
419.626	3.49
419.984	3.49
420.342	3.48
420.699	3.44
421.057	3.42
421.414	3.41
421.772	3.4
422.129	3.39
422.486	3.38
422.844	3.36
423.201	3.37
423.558	3.34
423.915	3.35
424.273	3.34
424.63	3.35
424.987	3.34
425.344	3.34
425.701	3.33
426.058	3.32
426.415	3.33
426.772	3.32
427.128	3.31
427.485	3.31
427.842	3.31
428.199	3.32
428.555	3.33
428.912	3.3
429.269	3.29
429.625	3.29
429.982	3.28
430.338	3.29
430.695	3.27
431.051	3.29
431.407	3.28
431.764	3.27
432.12	3.29
432.476	3.28
432.832	3.3
433.189	3.32
433.545	3.32
433.901	3.3
434.257	3.29
434.613	3.26
434.969	3.24
435.325	3.24
435.681	3.26
436.036	3.23
436.392	3.24
436.748	3.24
437.104	3.22
437.459	3.21
437.815	3.22
438.171	3.22
438.526	3.22
438.882	3.2
439.237	3.2
439.593	3.17
439.948	3.18
440.304	3.14
440.659	3.11
441.014	3.09
441.369	3.1
441.725	3.09
442.08	3.12
442.435	3.12
442.79	3.12
443.145	3.12
443.5	3.1
443.855	3.1
444.21	3.09
444.565	3.11
444.92	3.11
445.275	3.08
445.629	3.07
445.984	3.05
446.339	3.06
446.693	3.06
447.048	3.08
447.403	3.06
447.757	3.06
448.112	3.05
448.466	3.05
448.82	3.03
449.175	3.02
449.529	3.02
449.883	3.02
450.238	3
450.592	2.98
450.946	2.98
451.3	3
451.654	2.99
452.008	2.98
452.362	2.98
452.716	2.98
453.07	2.97
453.424	2.94
453.778	2.93
454.132	2.9
454.486	2.87
454.839	2.88
455.193	2.87
455.547	2.87
455.9	2.87
456.254	2.9
456.607	2.91
456.961	2.88
457.314	2.88
457.668	2.88
458.021	2.88
458.375	2.89
458.728	2.88
459.081	2.89
459.434	2.88
459.787	2.89
460.141	2.89
460.494	2.89
460.847	2.91
461.2	2.92
461.553	2.93
461.906	2.96
462.259	2.98
462.611	2.99
462.964	3
463.317	3.04
463.67	3.03
464.022	3.03
464.375	3.04
464.728	3.05
465.08	3.07
465.433	3.09
465.785	3.1
466.138	3.12
466.49	3.12
466.843	3.16
467.195	3.17
467.547	3.18
467.899	3.2
468.252	3.21
468.604	3.23
468.956	3.25
469.308	3.25
469.66	3.25
470.012	3.21
470.364	3.23
470.716	3.22
471.068	3.22
471.42	3.25
471.772	3.27
472.123	3.29
472.475	3.28
472.827	3.26
473.178	3.26
473.53	3.23
473.882	3.23
474.233	3.21
474.585	3.21
474.936	3.23
475.288	3.24
475.639	3.25
475.99	3.23
476.342	3.23
476.693	3.22
477.044	3.19
477.395	3.21
477.746	3.2
478.097	3.19
478.448	3.17
478.8	3.14
479.15	3.14
479.501	3.12
479.852	3.13
480.203	3.12
480.554	3.1
480.905	3.12
481.255	3.13
481.606	3.13
481.957	3.14
482.307	3.12
482.658	3.12
483.009	3.12
483.359	3.12
483.709	3.12
484.06	3.13
484.41	3.13
484.761	3.14
485.111	3.14
485.461	3.14
485.811	3.14
486.162	3.15
486.512	3.16
486.862	3.16
487.212	3.16
487.562	3.17
487.912	3.19
488.262	3.19
488.612	3.2
488.961	3.19
489.311	3.19
489.661	3.2
490.011	3.21
490.36	3.2
490.71	3.22
491.06	3.23
491.409	3.23
491.759	3.24
492.108	3.25
492.458	3.28
492.807	3.3
493.157	3.32
493.506	3.33
493.855	3.33
494.204	3.35
494.554	3.37
494.903	3.38
495.252	3.41
495.601	3.45
495.95	3.47
496.299	3.51
496.648	3.53
496.997	3.56
497.346	3.58
497.695	3.63
498.043	3.65
498.392	3.69
498.741	3.73
499.09	3.77
499.438	3.83
499.787	3.82
500.135	3.86
500.484	3.91
500.832	3.94
501.181	4
501.529	4.05
501.878	4.1
502.226	4.12
502.574	4.14
502.923	4.16
503.271	4.2
503.619	4.27
503.967	4.34
504.315	4.37
504.663	4.41
505.011	4.46
505.359	4.53
505.707	4.57
506.055	4.6
506.403	4.63
506.751	4.69
507.098	4.77
507.446	4.83
507.794	4.85
508.141	4.9
508.489	4.95
508.837	4.99
509.184	5.05
509.531	5.12
509.879	5.19
510.226	5.25
510.574	5.29
510.921	5.33
511.268	5.39
511.616	5.47
511.963	5.54
512.31	5.6
512.657	5.65
513.004	5.72
513.351	5.8
513.698	5.9
514.045	5.95
514.392	6.01
514.739	6.1
515.086	6.21
515.432	6.31
515.779	6.39
516.126	6.49
516.473	6.57
516.819	6.67
517.166	6.75
517.512	6.83
517.859	6.93
518.205	7.01
518.552	7.07
518.898	7.14
519.245	7.23
519.591	7.31
519.937	7.39
520.283	7.49
520.629	7.6
520.976	7.69
521.322	7.8
521.668	7.91
522.014	8.04
522.36	8.15
522.706	8.3
523.052	8.44
523.398	8.59
523.743	8.76
524.089	8.91
524.435	9.06
524.781	9.23
525.126	9.37
525.472	9.51
525.817	9.63
526.163	9.76
526.509	9.87
526.854	9.98
527.199	10.07
527.545	10.17
527.89	10.28
528.235	10.4
528.581	10.52
528.926	10.63
529.271	10.73
529.616	10.86
529.961	10.98
530.306	11.1
530.651	11.24
530.996	11.38
531.341	11.54
531.686	11.69
532.031	11.85
532.376	12.02
532.721	12.19
533.065	12.36
533.41	12.55
533.755	12.73
534.099	12.92
534.444	13.15
534.788	13.34
535.133	13.54
535.477	13.74
535.822	13.95
536.166	14.19
536.51	14.44
536.855	14.71
537.199	14.99
537.543	15.27
537.887	15.56
538.231	15.84
538.576	16.11
538.92	16.39
539.264	16.62
539.608	16.87
539.951	17.14
540.295	17.41
540.639	17.64
540.983	17.89
541.327	18.14
541.671	18.37
542.014	18.62
542.358	18.85
542.701	19.09
543.045	19.32
543.389	19.56
543.732	19.82
544.075	20.08
544.419	20.31
544.762	20.54
545.105	20.8
545.449	21.1
545.792	21.41
546.135	21.72
546.478	22.1
546.821	22.47
547.165	22.8
547.508	23.16
547.851	23.51
548.194	23.87
548.536	24.22
548.879	24.58
549.222	24.92
549.565	25.28
549.908	25.64
550.25	26.02
550.593	26.44
550.936	26.77
551.278	27.13
551.621	27.52
551.963	27.96
552.306	28.32
552.648	28.68
552.991	28.98
553.333	29.36
553.675	29.66
554.017	29.95
554.36	30.29
554.702	30.62
555.044	30.96
555.386	31.31
555.728	31.65
556.07	31.98
556.412	32.37
556.754	32.72
557.096	33.09
557.438	33.44
557.78	33.77
558.121	34.12
558.463	34.47
558.805	34.77
559.147	35.1
559.488	35.5
559.83	35.85
560.171	36.24
560.513	36.53
560.854	36.86
561.196	37.22
561.537	37.53
561.878	37.91
562.22	38.33
562.561	38.7
562.902	39.03
563.243	39.41
563.584	39.77
563.925	40.13
564.266	40.4
564.607	40.64
564.948	40.87
565.289	41.21
565.63	41.44
565.971	41.78
566.312	42.08
566.653	42.37
566.993	42.66
567.334	42.92
567.675	43.24
568.015	43.51
568.356	43.81
568.696	44.09
569.037	44.37
569.377	44.59
569.718	44.79
570.058	45.11
570.398	45.34
570.739	45.55
571.079	45.74
571.419	45.94
571.759	46.26
572.099	46.53
572.439	46.77
572.779	47.06
573.119	47.33
573.459	47.55
573.799	47.68
574.139	47.84
574.479	48.09
574.819	48.35
575.158	48.58
575.498	48.84
575.838	49.05
576.177	49.19
576.517	49.37
576.856	49.63
577.196	49.81
577.535	50.04
577.875	50.29
578.214	50.5
578.553	50.77
578.893	51
579.232	51.22
579.571	51.4
579.91	51.61
580.25	51.8
580.589	52.02
580.928	52.29
581.267	52.5
581.606	52.63
581.945	52.73
582.283	52.92
582.622	53.06
582.961	53.22
583.3	53.43
583.639	53.74
583.977	53.84
584.316	53.98
584.654	54.16
584.993	54.28
585.332	54.44
585.67	54.65
586.008	54.83
586.347	54.95
586.685	55.05
587.024	55.25
587.362	55.38
587.7	55.45
588.038	55.66
588.376	55.86
588.715	56.07
589.053	56.28
589.391	56.42
589.729	56.55
590.067	56.79
590.404	56.93
590.742	56.99
591.08	57.16
591.418	57.33
591.756	57.45
592.093	57.63
592.431	57.83
592.769	58.03
593.106	58.02
593.444	58.21
593.781	58.38
594.119	58.54
594.456	58.58
594.793	58.84
595.131	58.89
595.468	59.08
595.805	59.18
596.143	59.21
596.48	59.33
596.817	59.37
597.154	59.41
597.491	59.54
597.828	59.63
598.165	59.79
598.502	59.87
598.839	59.99
599.176	60.1
599.512	60.2
599.849	60.17
600.186	60.37
600.523	60.52
600.859	60.68
601.196	60.7
601.532	60.91
601.869	60.95
602.205	61.03
602.542	61.01
602.878	61.09
603.215	61.13
603.551	61.2
603.887	61.35
604.223	61.42
604.56	61.39
604.896	61.49
605.232	61.48
605.568	61.61
605.904	61.67
606.24	61.71
606.576	61.75
606.912	61.83
607.248	61.86
607.583	61.86
607.919	61.89
608.255	62.05
608.591	62.08
608.926	62.14
609.262	62.22
609.597	62.27
609.933	62.27
610.268	62.39
610.604	62.46
610.939	62.56
611.275	62.68
611.61	62.82
611.945	62.88
612.281	63.02
612.616	62.99
612.951	63.05
613.286	63.11
613.621	63.1
613.956	63.25
614.291	63.25
614.626	63.39
614.961	63.43
615.296	63.46
615.631	63.38
615.966	63.45
616.3	63.52
616.635	63.65
616.97	63.75
617.304	63.83
617.639	63.95
617.973	63.93
618.308	64.02
618.642	63.99
618.977	63.96
619.311	64.03
619.646	64.06
619.98	63.91
620.314	64.07
620.648	64.23
620.983	64.23
621.317	64.34
621.651	64.39
621.985	64.47
622.319	64.44
622.653	64.61
622.987	64.63
623.321	64.51
623.655	64.56
623.988	64.73
624.322	64.75
624.656	64.76
624.99	64.79
625.323	64.81
625.657	64.95
625.99	65.1
626.324	65.05
626.657	65.08
626.991	65.22
627.324	65.12
627.658	65.13
627.991	65.27
628.324	65.31
628.657	65.33
628.991	65.32
629.324	65.34
629.657	65.12
629.99	65.14
630.323	65.28
630.656	65.29
630.989	65.15
631.322	65.09
631.655	64.97
631.987	64.96
632.32	64.89
632.653	64.79
632.986	64.81
633.318	64.9
633.651	65.04
633.984	65.18
634.316	65.18
634.649	65.16
634.981	65.11
635.313	65.18
635.646	65.18
635.978	65.15
636.31	65.13
636.643	65.51
636.975	65.5
637.307	65.58
637.639	65.53
637.971	65.59
638.303	65.67
638.635	65.77
638.967	65.97
639.299	65.96
639.631	66
639.963	65.9
640.295	65.89
640.626	65.86
640.958	65.81
641.29	65.92
641.621	65.98
641.953	65.95
642.285	65.97
642.616	66.04
642.948	66.09
643.279	66.22
643.61	66.25
643.942	66.38
644.273	66.44
644.604	66.65
644.936	66.75
645.267	66.91
645.598	66.91
645.929	66.86
646.26	66.89
646.591	66.91
646.922	67.12
647.253	67.22
647.584	67.21
647.915	67.26
648.245	67.29
648.576	67.3
648.907	67.36
649.238	67.41
649.568	67.48
649.899	67.42
650.229	67.48
650.56	67.34
650.89	67.16
651.221	67
651.551	66.94
651.882	67.02
652.212	67.01
652.542	66.98
652.872	66.76
653.203	66.85
653.533	67.04
653.863	67
654.193	66.97
654.523	67.07
654.853	67.09
655.183	67.2
655.513	67.29
655.843	67.28
656.172	67.25
656.502	67.24
656.832	67.43
657.162	67.37
657.491	67.52
657.821	67.66
658.15	67.81
658.48	67.93
658.809	67.87
659.139	67.97
659.468	68.06
659.798	68.16
660.127	68.08
660.456	68.07
660.785	68.06
661.115	68.06
661.444	68.02
661.773	67.96
662.102	67.85
662.431	67.91
662.76	67.9
663.089	67.93
663.418	67.9
663.747	67.83
664.076	67.9
664.404	67.85
664.733	67.75
665.062	67.75
