Data from BA55658_Reflection_00011.txt Node
Date: Tue Nov 19 11:55:50 EST 2019
User: vgr7
Spectrometer: USB2G7710
Scans to average: 3
Trigger mode: 4
Integration Time (sec): 2.000000E-2
Electric dark correction enabled: true
Boxcar width: 10
XAxis mode: Wavelengths
Number of Pixels in Spectrum: 2048
>>>>>Begin Spectral Data<<<<<
177.721	6.57
178.105	-0.58
178.488	4.54
178.871	-24.62
179.254	-69.01
179.636	-250.41
180.019	-872.97
180.402	271.43
180.785	-157.14
181.168	-419.23
181.55	37.82
181.933	39.88
182.316	33.18
182.698	51.91
183.081	50.32
183.463	58.13
183.846	18.23
184.228	9.29
184.611	-0.99
184.993	6.74
185.376	3.53
185.758	-0.92
186.14	4.24
186.522	0.96
186.904	-18.36
187.287	-27.05
187.669	-55.87
188.051	-45.55
188.433	-21.33
188.815	-12.57
189.197	-9.88
189.579	-18.68
189.961	-21.98
190.342	-107.16
190.724	-82.67
191.106	831.71
191.488	-480.11
191.869	623.49
192.251	111.39
192.633	56.91
193.014	138.63
193.396	40.89
193.777	-30.75
194.159	-28.11
194.54	-30.75
194.922	-105.34
195.303	-179.61
195.684	677.54
196.065	768.39
196.447	220.84
196.828	455.45
197.209	163.1
197.59	181.08
197.971	238.96
198.352	277.24
198.733	206.62
199.114	172.9
199.495	314.7
199.876	425.64
200.257	343.71
200.638	284.45
201.018	696.69
201.399	2856.76
201.78	335.65
202.16	1229.41
202.541	1517.58
202.922	211.55
203.302	179.11
203.683	-942.11
204.063	-532.43
204.444	-109.3
204.824	-117.83
205.204	-73.73
205.585	-82.36
205.965	-141.65
206.345	-110.63
206.725	-66.9
207.106	-34.64
207.486	-44.83
207.866	-27.09
208.246	-12.29
208.626	-19.02
209.006	-22.21
209.386	-45.86
209.766	-7.01
210.145	14.5
210.525	34.41
210.905	16.26
211.285	12.36
211.664	21.18
212.044	23.94
212.424	23.29
212.803	23.91
213.183	2.15
213.562	-5.79
213.942	-4.6
214.321	-1.88
214.701	-5.96
215.08	3.78
215.459	-2.9
215.838	-13.62
216.218	-10.75
216.597	11.68
216.976	-21.05
217.355	-36.82
217.734	-92.55
218.113	-113.98
218.492	-101.14
218.871	-55.91
219.25	-193.38
219.629	149.79
220.008	100
220.387	235.85
220.766	-523.38
221.144	493.44
221.523	91.1
221.902	5.44
222.28	100
222.659	-10.48
223.037	-52.9
223.416	-97.94
223.794	-48.76
224.173	-48.06
224.551	-40.77
224.929	-36.74
225.308	-1.99
225.686	3.91
226.064	-6.27
226.442	-6.26
226.821	-9.19
227.199	0.3
227.577	1.8
227.955	6.76
228.333	8.12
228.711	2.71
229.089	6.97
229.467	6.74
229.845	-0.11
230.222	2.78
230.6	3.36
230.978	2.97
231.356	9.44
231.733	9.2
232.111	9.33
232.488	8.34
232.866	10.54
233.243	10.61
233.621	11.97
233.998	12.51
234.376	10.76
234.753	9.15
235.13	7.89
235.508	7.37
235.885	7.71
236.262	8.55
236.639	9.39
237.016	8.09
237.393	7.38
237.77	7.24
238.147	6.29
238.524	6.85
238.901	6.92
239.278	4.99
239.655	5.34
240.032	5.14
240.409	4.6
240.785	3.22
241.162	3.24
241.539	3.76
241.915	3.38
242.292	4.17
242.668	4.69
243.045	5.12
243.421	4.58
243.798	4.66
244.174	4.36
244.551	4.3
244.927	4.41
245.303	4.31
245.679	4.36
246.056	4.45
246.432	4.31
246.808	4.71
247.184	4.88
247.56	4.55
247.936	4.35
248.312	4.59
248.688	5
249.064	4.67
249.44	4.48
249.815	4.84
250.191	4.81
250.567	4.64
250.943	4.56
251.318	4.44
251.694	4.2
252.069	4.33
252.445	4.22
252.82	4.41
253.196	4.27
253.571	4.48
253.947	4.12
254.322	4.14
254.697	3.83
255.073	3.79
255.448	4.03
255.823	4.42
256.198	4.19
256.573	4.3
256.948	4.38
257.323	4.33
257.698	4.26
258.073	4.02
258.448	4.09
258.823	4.34
259.198	4.44
259.573	4.34
259.948	4.3
260.322	4.45
260.697	4.12
261.072	4.17
261.446	4.33
261.821	4.41
262.195	4.54
262.57	4.65
262.944	4.65
263.319	4.6
263.693	4.56
264.067	4.68
264.442	4.35
264.816	4.25
265.19	4.53
265.564	4.4
265.938	4.72
266.313	4.89
266.687	4.62
267.061	4.85
267.435	5.05
267.809	5.04
268.183	4.8
268.556	5.01
268.93	5.11
269.304	4.71
269.678	4.52
270.051	4.43
270.425	4.31
270.799	4.13
271.172	4.07
271.546	4.09
271.919	3.95
272.293	3.95
272.666	4.04
273.04	3.77
273.413	3.69
273.787	3.57
274.16	3.26
274.533	3.34
274.906	3.18
275.279	2.95
275.653	2.98
276.026	3.13
276.399	3.2
276.772	3.21
277.145	3.28
277.518	3.46
277.891	3.32
278.263	3.33
278.636	3.6
279.009	3.72
279.382	3.67
279.755	3.64
280.127	3.89
280.5	3.92
280.872	4
281.245	4.12
281.617	4.15
281.99	4.33
282.362	4.45
282.735	4.48
283.107	4.49
283.479	4.6
283.852	4.66
284.224	4.56
284.596	4.53
284.968	4.6
285.34	4.61
285.713	4.64
286.085	4.53
286.457	4.47
286.829	4.53
287.201	4.5
287.572	4.73
287.944	4.77
288.316	4.95
288.688	4.98
289.06	5.08
289.431	5.27
289.803	5.38
290.175	5.33
290.546	5.25
290.918	5.29
291.289	5.27
291.661	5.16
292.032	5.18
292.403	5.21
292.775	5.47
293.146	5.52
293.517	5.65
293.889	5.67
294.26	5.77
294.631	5.87
295.002	6.02
295.373	5.86
295.744	5.8
296.115	5.86
296.486	5.93
296.857	5.99
297.228	5.78
297.599	5.67
297.97	5.82
298.34	6.01
298.711	6.39
299.082	6.41
299.452	6.63
299.823	6.72
300.194	6.82
300.564	6.65
300.935	6.65
301.305	6.54
301.676	6.65
302.046	6.79
302.416	6.71
302.787	6.84
303.157	7.04
303.527	7.26
303.897	7.24
304.267	7.25
304.637	7.17
305.008	7.56
305.378	7.85
305.748	7.87
306.117	7.89
306.487	7.82
306.857	8.02
307.227	7.98
307.597	8.08
307.967	8.15
308.336	8.25
308.706	8.42
309.076	8.78
309.445	9.07
309.815	9.05
310.184	9.25
310.554	9.1
310.923	9.17
311.293	9.06
311.662	9.22
312.031	9.36
312.401	9.55
312.77	9.51
313.139	9.4
313.508	9.28
313.877	9.5
314.246	9.46
314.616	9.38
314.985	9.51
315.353	9.53
315.722	9.81
316.091	9.78
316.46	9.87
316.829	9.93
317.198	9.74
317.567	9.84
317.935	9.95
318.304	10.36
318.672	10.44
319.041	10.68
319.41	10.52
319.778	10.35
320.147	10.42
320.515	10.36
320.883	10.52
321.252	10.74
321.62	10.6
321.988	10.75
322.357	10.84
322.725	10.65
323.093	10.75
323.461	10.67
323.829	10.82
324.197	10.78
324.565	10.75
324.933	10.91
325.301	10.8
325.669	10.67
326.037	10.74
326.405	10.7
326.772	10.72
327.14	10.76
327.508	10.9
327.875	10.84
328.243	10.82
328.61	10.76
328.978	10.59
329.346	10.73
329.713	10.66
330.08	10.68
330.448	10.71
330.815	10.71
331.182	10.61
331.55	10.46
331.917	10.45
332.284	10.4
332.651	10.47
333.018	10.47
333.385	10.47
333.752	10.26
334.119	10.39
334.486	10.34
334.853	10.35
335.22	10.32
335.587	10.25
335.954	10.29
336.32	10.33
336.687	10.53
337.054	10.43
337.42	10.37
337.787	10.46
338.153	10.52
338.52	10.65
338.886	10.74
339.253	10.84
339.619	10.91
339.986	10.91
340.352	10.78
340.718	10.83
341.084	10.86
341.451	10.85
341.817	10.75
342.183	10.7
342.549	10.73
342.915	10.78
343.281	10.82
343.647	10.75
344.013	10.89
344.379	10.84
344.745	10.87
345.11	10.94
345.476	10.93
345.842	10.95
346.208	10.97
346.573	11.04
346.939	11.04
347.304	11.16
347.67	11.13
348.035	11.22
348.401	11.26
348.766	11.27
349.132	11.39
349.497	11.47
349.862	11.56
350.228	11.59
350.593	11.6
350.958	11.62
351.323	11.69
351.688	11.54
352.053	11.58
352.418	11.54
352.783	11.52
353.148	11.41
353.513	11.37
353.878	11.24
354.243	11.01
354.608	11.14
354.972	10.9
355.337	10.85
355.702	10.67
356.066	10.61
356.431	10.52
356.795	10.44
357.16	10.33
357.524	10.31
357.889	10.22
358.253	10.21
358.618	10.11
358.982	10.03
359.346	10.04
359.71	9.97
360.075	9.87
360.439	9.88
360.803	9.87
361.167	9.8
361.531	9.75
361.895	9.87
362.259	9.74
362.623	9.76
362.987	9.74
363.351	9.77
363.714	9.72
364.078	9.7
364.442	9.63
364.806	9.67
365.169	9.64
365.533	9.66
365.896	9.56
366.26	9.55
366.623	9.56
366.987	9.53
367.35	9.47
367.714	9.46
368.077	9.36
368.44	9.28
368.803	9.26
369.167	9.17
369.53	9.02
369.893	9.01
370.256	8.96
370.619	8.86
370.982	8.77
371.345	8.72
371.708	8.66
372.071	8.56
372.434	8.33
372.797	8.28
373.159	8.18
373.522	8.13
373.885	8.08
374.247	8.01
374.61	7.87
374.973	7.77
375.335	7.66
375.698	7.6
376.06	7.56
376.423	7.48
376.785	7.48
377.147	7.39
377.51	7.28
377.872	7.2
378.234	7.2
378.596	7.16
378.958	7.17
379.321	7.08
379.683	7.07
380.045	7.11
380.407	7
380.769	6.93
381.13	6.91
381.492	6.81
381.854	6.8
382.216	6.78
382.578	6.79
382.939	6.81
383.301	6.79
383.663	6.78
384.024	6.74
384.386	6.65
384.747	6.64
385.109	6.64
385.47	6.58
385.832	6.47
386.193	6.4
386.554	6.28
386.916	6.24
387.277	6.14
387.638	6.07
387.999	6.06
388.36	6.01
388.721	5.92
389.082	5.89
389.443	5.81
389.804	5.78
390.165	5.75
390.526	5.68
390.887	5.58
391.248	5.48
391.609	5.48
391.969	5.48
392.33	5.41
392.691	5.36
393.051	5.32
393.412	5.32
393.772	5.28
394.133	5.24
394.493	5.21
394.854	5.21
395.214	5.16
395.574	5.07
395.935	5.04
396.295	5
396.655	4.99
397.015	4.97
397.376	4.93
397.736	4.83
398.096	4.81
398.456	4.81
398.816	4.76
399.176	4.65
399.535	4.61
399.895	4.59
400.255	4.58
400.615	4.56
400.975	4.52
401.334	4.5
401.694	4.52
402.054	4.52
402.413	4.51
402.773	4.49
403.132	4.47
403.492	4.45
403.851	4.41
404.211	4.39
404.57	4.38
404.929	4.35
405.288	4.35
405.648	4.29
406.007	4.26
406.366	4.27
406.725	4.28
407.084	4.25
407.443	4.23
407.802	4.22
408.161	4.18
408.52	4.15
408.879	4.17
409.238	4.19
409.596	4.16
409.955	4.12
410.314	4.08
410.673	4.1
411.031	4.08
411.39	4.1
411.748	4.06
412.107	4.01
412.465	3.99
412.824	3.97
413.182	3.99
413.54	3.97
413.899	3.93
414.257	3.9
414.615	3.91
414.974	3.88
415.332	3.84
415.69	3.82
416.048	3.81
416.406	3.74
416.764	3.7
417.122	3.68
417.48	3.67
417.838	3.66
418.195	3.61
418.553	3.6
418.911	3.55
419.269	3.53
419.626	3.51
419.984	3.48
420.342	3.47
420.699	3.44
421.057	3.43
421.414	3.44
421.772	3.43
422.129	3.38
422.486	3.37
422.844	3.36
423.201	3.35
423.558	3.35
423.915	3.34
424.273	3.33
424.63	3.34
424.987	3.32
425.344	3.31
425.701	3.29
426.058	3.27
426.415	3.27
426.772	3.25
427.128	3.26
427.485	3.27
427.842	3.26
428.199	3.25
428.555	3.23
428.912	3.22
429.269	3.22
429.625	3.24
429.982	3.24
430.338	3.22
430.695	3.21
431.051	3.21
431.407	3.21
431.764	3.19
432.12	3.19
432.476	3.2
432.832	3.22
433.189	3.24
433.545	3.23
433.901	3.24
434.257	3.27
434.613	3.25
434.969	3.23
435.325	3.24
435.681	3.22
436.036	3.23
436.392	3.22
436.748	3.23
437.104	3.23
437.459	3.21
437.815	3.21
438.171	3.2
438.526	3.21
438.882	3.23
439.237	3.23
439.593	3.21
439.948	3.19
440.304	3.17
440.659	3.15
441.014	3.13
441.369	3.11
441.725	3.12
442.08	3.11
442.435	3.11
442.79	3.1
443.145	3.11
443.5	3.08
443.855	3.07
444.21	3.07
444.565	3.07
444.92	3.08
445.275	3.08
445.629	3.07
445.984	3.04
446.339	3.02
446.693	3.01
447.048	2.99
447.403	2.98
447.757	2.98
448.112	3
448.466	3
448.82	3
449.175	2.96
449.529	2.96
449.883	2.97
450.238	2.96
450.592	2.96
450.946	2.97
451.3	2.97
451.654	2.93
452.008	2.93
452.362	2.91
452.716	2.9
453.07	2.91
453.424	2.92
453.778	2.91
454.132	2.91
454.486	2.94
454.839	2.95
455.193	2.94
455.547	2.95
455.9	2.93
456.254	2.94
456.607	2.95
456.961	2.96
457.314	2.97
457.668	2.98
458.021	2.97
458.375	2.95
458.728	2.96
459.081	2.97
459.434	2.95
459.787	2.96
460.141	2.96
460.494	2.96
460.847	2.96
461.2	2.99
461.553	2.99
461.906	3
462.259	3
462.611	3.01
462.964	3.01
463.317	3.05
463.67	3.07
464.022	3.08
464.375	3.07
464.728	3.08
465.08	3.08
465.433	3.1
465.785	3.12
466.138	3.12
466.49	3.14
466.843	3.17
467.195	3.19
467.547	3.22
467.899	3.24
468.252	3.23
468.604	3.23
468.956	3.26
469.308	3.25
469.66	3.26
470.012	3.27
470.364	3.28
470.716	3.28
471.068	3.27
471.42	3.28
471.772	3.29
472.123	3.28
472.475	3.29
472.827	3.27
473.178	3.28
473.53	3.3
473.882	3.29
474.233	3.29
474.585	3.24
474.936	3.23
475.288	3.22
475.639	3.22
475.99	3.2
476.342	3.17
476.693	3.15
477.044	3.15
477.395	3.12
477.746	3.1
478.097	3.1
478.448	3.09
478.8	3.09
479.15	3.09
479.501	3.09
479.852	3.07
480.203	3.07
480.554	3.07
480.905	3.06
481.255	3.07
481.606	3.08
481.957	3.09
482.307	3.08
482.658	3.07
483.009	3.08
483.359	3.09
483.709	3.1
484.06	3.1
484.41	3.1
484.761	3.12
485.111	3.12
485.461	3.12
485.811	3.13
486.162	3.14
486.512	3.14
486.862	3.15
487.212	3.16
487.562	3.17
487.912	3.18
488.262	3.18
488.612	3.18
488.961	3.18
489.311	3.19
489.661	3.2
490.011	3.21
490.36	3.21
490.71	3.22
491.06	3.22
491.409	3.23
491.759	3.24
492.108	3.25
492.458	3.27
492.807	3.28
493.157	3.29
493.506	3.3
493.855	3.32
494.204	3.31
494.554	3.35
494.903	3.36
495.252	3.39
495.601	3.41
495.95	3.44
496.299	3.48
496.648	3.51
496.997	3.55
497.346	3.58
497.695	3.62
498.043	3.65
498.392	3.69
498.741	3.71
499.09	3.75
499.438	3.8
499.787	3.83
500.135	3.87
500.484	3.9
500.832	3.94
501.181	3.98
501.529	4.05
501.878	4.08
502.226	4.14
502.574	4.2
502.923	4.25
503.271	4.3
503.619	4.33
503.967	4.36
504.315	4.41
504.663	4.44
505.011	4.47
505.359	4.5
505.707	4.53
506.055	4.59
506.403	4.64
506.751	4.69
507.098	4.74
507.446	4.79
507.794	4.85
508.141	4.91
508.489	4.96
508.837	4.99
509.184	5.07
509.531	5.11
509.879	5.13
510.226	5.2
510.574	5.24
510.921	5.29
511.268	5.36
511.616	5.42
511.963	5.5
512.31	5.57
512.657	5.64
513.004	5.72
513.351	5.79
513.698	5.88
514.045	5.96
514.392	6.05
514.739	6.15
515.086	6.22
515.432	6.3
515.779	6.39
516.126	6.48
516.473	6.53
516.819	6.59
517.166	6.68
517.512	6.73
517.859	6.81
518.205	6.87
518.552	6.95
518.898	7.02
519.245	7.11
519.591	7.2
519.937	7.3
520.283	7.38
520.629	7.46
520.976	7.52
521.322	7.64
521.668	7.74
522.014	7.84
522.36	7.97
522.706	8.09
523.052	8.24
523.398	8.39
523.743	8.56
524.089	8.74
524.435	8.9
524.781	9.08
525.126	9.21
525.472	9.38
525.817	9.48
526.163	9.61
526.509	9.72
526.854	9.82
527.199	9.92
527.545	10
527.89	10.11
528.235	10.24
528.581	10.33
528.926	10.44
529.271	10.54
529.616	10.66
529.961	10.78
530.306	10.9
530.651	11.02
530.996	11.15
531.341	11.29
531.686	11.43
532.031	11.59
532.376	11.75
532.721	11.89
533.065	12.08
533.41	12.26
533.755	12.46
534.099	12.67
534.444	12.86
534.788	13.07
535.133	13.24
535.477	13.44
535.822	13.66
536.166	13.89
536.51	14.13
536.855	14.39
537.199	14.68
537.543	14.94
537.887	15.19
538.231	15.46
538.576	15.75
538.92	16.03
539.264	16.27
539.608	16.52
539.951	16.74
540.295	16.97
540.639	17.19
540.983	17.4
541.327	17.6
541.671	17.8
542.014	18.05
542.358	18.26
542.701	18.49
543.045	18.69
543.389	18.9
543.732	19.15
544.075	19.37
544.419	19.59
544.762	19.81
545.105	20.09
545.449	20.36
545.792	20.64
546.135	20.94
546.478	21.24
546.821	21.6
547.165	21.97
547.508	22.25
547.851	22.6
548.194	22.93
548.536	23.29
548.879	23.62
549.222	23.92
549.565	24.3
549.908	24.62
550.25	24.99
550.593	25.33
550.936	25.67
551.278	26.03
551.621	26.38
551.963	26.75
552.306	27.09
552.648	27.45
552.991	27.8
553.333	28.12
553.675	28.49
554.017	28.8
554.36	29.06
554.702	29.41
555.044	29.73
555.386	30.09
555.728	30.4
556.07	30.8
556.412	31.19
556.754	31.53
557.096	31.89
557.438	32.21
557.78	32.58
558.121	32.96
558.463	33.26
558.805	33.58
559.147	33.98
559.488	34.34
559.83	34.64
560.171	34.94
560.513	35.25
560.854	35.6
561.196	35.99
561.537	36.34
561.878	36.69
562.22	37.01
562.561	37.35
562.902	37.64
563.243	37.91
563.584	38.19
563.925	38.48
564.266	38.71
564.607	38.97
564.948	39.2
565.289	39.47
565.63	39.8
565.971	40.12
566.312	40.32
566.653	40.68
566.993	40.92
567.334	41.16
567.675	41.43
568.015	41.59
568.356	41.77
568.696	42.04
569.037	42.34
569.377	42.57
569.718	42.77
570.058	43.03
570.398	43.33
570.739	43.54
571.079	43.81
571.419	44.02
571.759	44.27
572.099	44.51
572.439	44.75
572.779	44.97
573.119	45.17
573.459	45.4
573.799	45.5
574.139	45.75
574.479	45.98
574.819	46.22
575.158	46.53
575.498	46.8
575.838	46.95
576.177	47.08
576.517	47.3
576.856	47.54
577.196	47.74
577.535	47.98
577.875	48.19
578.214	48.37
578.553	48.68
578.893	48.89
579.232	49.12
579.571	49.3
579.91	49.42
580.25	49.58
580.589	49.79
580.928	49.96
581.267	50.1
581.606	50.3
581.945	50.42
582.283	50.49
582.622	50.5
582.961	50.79
583.3	51.03
583.639	51.19
583.977	51.32
584.316	51.52
584.654	51.66
584.993	51.83
585.332	52.02
585.67	52.2
586.008	52.49
586.347	52.62
586.685	52.71
587.024	52.95
587.362	53.08
587.7	53.22
588.038	53.4
588.376	53.54
588.715	53.66
589.053	53.85
589.391	54.06
589.729	54.29
590.067	54.43
590.404	54.59
590.742	54.75
591.08	54.91
591.418	55.05
591.756	55.18
592.093	55.33
592.431	55.5
592.769	55.7
593.106	55.76
593.444	55.91
593.781	56.11
594.119	56.23
594.456	56.34
594.793	56.5
595.131	56.65
595.468	56.78
595.805	56.87
596.143	56.94
596.48	57.09
596.817	57.19
597.154	57.29
597.491	57.37
597.828	57.47
598.165	57.61
598.502	57.74
598.839	57.8
599.176	57.9
599.512	57.94
599.849	58
600.186	58.03
600.523	58.16
600.859	58.32
601.196	58.37
601.532	58.5
601.869	58.59
602.205	58.68
602.542	58.79
602.878	58.8
603.215	58.86
603.551	58.89
603.887	58.97
604.223	59.03
604.56	59.06
604.896	59.11
605.232	59.11
605.568	59.13
605.904	59.25
606.24	59.33
606.576	59.39
606.912	59.46
607.248	59.53
607.583	59.59
607.919	59.59
608.255	59.69
608.591	59.74
608.926	59.75
609.262	59.76
609.597	59.79
609.933	59.92
610.268	60.01
610.604	60.04
610.939	60.11
611.275	60.18
611.61	60.23
611.945	60.39
612.281	60.48
612.616	60.51
612.951	60.52
613.286	60.46
613.621	60.57
613.956	60.62
614.291	60.72
614.626	60.74
614.961	60.81
615.296	60.83
615.631	60.93
615.966	60.99
616.3	61.06
616.635	61.17
616.97	61.27
617.304	61.3
617.639	61.38
617.973	61.4
618.308	61.46
618.642	61.41
618.977	61.28
619.311	61.37
619.646	61.43
619.98	61.41
620.314	61.55
620.648	61.57
620.983	61.47
621.317	61.51
621.651	61.63
621.985	61.7
622.319	61.62
622.653	61.66
622.987	61.75
623.321	61.79
623.655	61.78
623.988	61.85
624.322	61.88
624.656	61.92
624.99	61.94
625.323	61.95
625.657	62.17
625.99	62.21
626.324	62.17
626.657	62.18
626.991	62.25
627.324	62.26
627.658	62.28
627.991	62.6
628.324	62.64
628.657	62.7
628.991	62.73
629.324	62.86
629.657	62.84
629.99	62.87
630.323	62.94
630.656	63
630.989	62.97
631.322	62.97
631.655	62.98
631.987	63.02
632.32	62.94
632.653	62.86
632.986	62.96
633.318	63.12
633.651	63.32
633.984	63.39
634.316	63.46
634.649	63.54
634.981	63.39
635.313	63.38
635.646	63.37
635.978	63.26
636.31	63.31
636.643	63.41
636.975	63.43
637.307	63.44
637.639	63.4
637.971	63.41
638.303	63.48
638.635	63.52
638.967	63.65
639.299	63.77
639.631	63.85
639.963	63.85
640.295	63.75
640.626	63.64
640.958	63.63
641.29	63.69
641.621	63.61
641.953	63.64
642.285	63.68
642.616	63.75
642.948	63.96
643.279	63.96
643.61	64.02
643.942	64.05
644.273	64.11
644.604	64.18
644.936	64.26
645.267	64.22
645.598	64.18
645.929	64.03
646.26	64.14
646.591	64.14
646.922	64.31
647.253	64.34
647.584	64.3
647.915	64.28
648.245	64.27
648.576	64.27
648.907	64.29
649.238	64.35
649.568	64.35
649.899	64.35
650.229	64.51
650.56	64.49
650.89	64.57
651.221	64.5
651.551	64.52
651.882	64.57
652.212	64.65
652.542	64.76
652.872	64.75
653.203	64.78
653.533	64.77
653.863	64.76
654.193	64.77
654.523	64.97
654.853	65
655.183	65.03
655.513	65.17
655.843	65.05
656.172	65.21
656.502	65.23
656.832	65.17
657.162	65.13
657.491	65.24
657.821	65.22
658.15	65.31
658.48	65.4
658.809	65.45
659.139	65.5
659.468	65.46
659.798	65.68
660.127	65.5
660.456	65.52
660.785	65.42
661.115	65.36
661.444	65.27
661.773	65.31
662.102	65.32
662.431	65.28
662.76	65.38
663.089	65.12
663.418	64.98
663.747	65.07
664.076	65.07
664.404	64.99
664.733	64.98
665.062	65.01
665.39	64.9
665.719	64.8
666.048	64.82
