Data from BA55519_Reflection_00004.txt Node
Date: Tue Nov 19 11:52:38 EST 2019
User: vgr7
Spectrometer: USB2G7710
Scans to average: 3
Trigger mode: 4
Integration Time (sec): 2.000000E-2
Electric dark correction enabled: true
Boxcar width: 10
XAxis mode: Wavelengths
Number of Pixels in Spectrum: 2048
>>>>>Begin Spectral Data<<<<<
177.721	19.57
178.105	37.71
178.488	12.41
178.871	27.36
179.254	4.63
179.636	38.6
180.019	-63.65
180.402	188.24
180.785	2183.33
181.168	119.9
181.55	86.11
181.933	167.46
182.316	516.67
182.698	-20.37
183.081	-57.99
183.463	-6.18
183.846	-71.94
184.228	-65.75
184.611	-35.93
184.993	-49.1
185.376	-40.33
185.758	-44.51
186.14	-34.23
186.522	-38.29
186.904	-31.59
187.287	-56.21
187.669	-44.75
188.051	-67.05
188.433	-71.27
188.815	-75.69
189.197	-89.2
189.579	-121.05
189.961	-124.62
190.342	-97.43
190.724	-88.39
191.106	-79.34
191.488	-82.84
191.869	-53.34
192.251	-37.65
192.633	-37.32
193.014	-19.02
193.396	-21.53
193.777	-18.91
194.159	-29.69
194.54	-39.68
194.922	-42.56
195.303	-41.76
195.684	-46.22
196.065	-45.6
196.447	-41.61
196.828	-46.83
197.209	-29.15
197.59	-15.09
197.971	-26.01
198.352	-25.19
198.733	-24.32
199.114	-13.23
199.495	-11.79
199.876	-18.6
200.257	-33.8
200.638	-29.8
201.018	-31.66
201.399	-12.17
201.78	2.13
202.16	5.25
202.541	10.78
202.922	14.21
203.302	16.01
203.683	19.55
204.063	15.84
204.444	23.85
204.824	16.67
205.204	17.88
205.585	28.36
205.965	28.7
206.345	35.4
206.725	28.54
207.106	13.33
207.486	10.77
207.866	18.01
208.246	29.89
208.626	26.75
209.006	16.87
209.386	4.91
209.766	-3.96
210.145	9.34
210.525	14.92
210.905	13.91
211.285	9.01
211.664	0.83
212.044	3.15
212.424	-4.56
212.803	-3.36
213.183	-13.56
213.562	-17.64
213.942	-10.69
214.321	-21.29
214.701	-12.32
215.08	-13.9
215.459	1.02
215.838	-7.25
216.218	-10.5
216.597	-11.42
216.976	-15.32
217.355	-18.71
217.734	-16.94
218.113	-26.34
218.492	-26.28
218.871	-32.3
219.25	-6.75
219.629	-7.88
220.008	-0.39
220.387	-5.5
220.766	6.93
221.144	13.33
221.523	8.91
221.902	13.49
222.28	21.83
222.659	16.67
223.037	23.86
223.416	13.89
223.794	21.82
224.173	16.67
224.551	18.32
224.929	19.44
225.308	19.41
225.686	16.28
226.064	16.67
226.442	17.15
226.821	18.62
227.199	12.76
227.577	14.69
227.955	12.82
228.333	13.51
228.711	9.36
229.089	8.64
229.467	8.6
229.845	10.31
230.222	9.56
230.6	8.9
230.978	8.11
231.356	8.86
231.733	8.2
232.111	7.34
232.488	6.1
232.866	7.5
233.243	7.16
233.621	10.21
233.998	9.26
234.376	8.4
234.753	7.98
235.13	7.86
235.508	7.39
235.885	7.76
236.262	7.81
236.639	7.47
237.016	7.07
237.393	9.14
237.77	9.61
238.147	9.94
238.524	9.89
238.901	8.97
239.278	8.72
239.655	8.44
240.032	7.75
240.409	7.45
240.785	7.34
241.162	7.49
241.539	6.84
241.915	7.09
242.292	7.43
242.668	7.61
243.045	8.06
243.421	8.31
243.798	8.12
244.174	8.21
244.551	8.19
244.927	8.13
245.303	7.41
245.679	7.18
246.056	7.02
246.432	7.09
246.808	7.29
247.184	7.48
247.56	7.06
247.936	7.55
248.312	7.84
248.688	7.66
249.064	7.4
249.44	7.13
249.815	7.24
250.191	7.22
250.567	7.27
250.943	7.03
251.318	6.77
251.694	6.48
252.069	6.47
252.445	6.57
252.82	6.8
253.196	7.32
253.571	7.15
253.947	7.22
254.322	7.02
254.697	6.64
255.073	6.38
255.448	6.67
255.823	6.45
256.198	6.3
256.573	6.49
256.948	6.61
257.323	6.83
257.698	6.77
258.073	6.66
258.448	6.63
258.823	6.55
259.198	6.67
259.573	6.85
259.948	6.81
260.322	6.62
260.697	6.6
261.072	6.44
261.446	6.56
261.821	6.46
262.195	6.54
262.57	6.85
262.944	6.98
263.319	6.93
263.693	6.95
264.067	7
264.442	7.1
264.816	7.25
265.19	7.24
265.564	7.24
265.938	7.12
266.313	6.92
266.687	7.01
267.061	6.95
267.435	6.76
267.809	6.7
268.183	6.81
268.556	6.63
268.93	6.77
269.304	6.64
269.678	6.68
270.051	6.5
270.425	6.22
270.799	5.79
271.172	5.93
271.546	5.92
271.919	5.83
272.293	5.84
272.666	5.71
273.04	5.77
273.413	5.73
273.787	5.76
274.16	5.81
274.533	5.72
274.906	5.76
275.279	5.66
275.653	5.69
276.026	5.66
276.399	5.83
276.772	5.67
277.145	5.83
277.518	5.75
277.891	5.82
278.263	5.95
278.636	6.46
279.009	6.38
279.382	6.44
279.755	6.54
280.127	6.19
280.5	6.36
280.872	6.19
281.245	6.36
281.617	6.25
281.99	6.29
282.362	6.36
282.735	6.25
283.107	6.36
283.479	6.3
283.852	6.29
284.224	6.13
284.596	6.26
284.968	6.16
285.34	6.13
285.713	6.17
286.085	5.97
286.457	5.72
286.829	5.71
287.201	5.84
287.572	5.98
287.944	6.21
288.316	6.09
288.688	6.26
289.06	6.24
289.431	6.44
289.803	6.53
290.175	6.58
290.546	6.63
290.918	6.69
291.289	6.71
291.661	6.85
292.032	6.81
292.403	6.81
292.775	6.97
293.146	7.12
293.517	6.97
293.889	7.03
294.26	7.29
294.631	7.45
295.002	7.37
295.373	7.29
295.744	7.3
296.115	7.54
296.486	7.52
296.857	7.48
297.228	7.46
297.599	7.41
297.97	7.43
298.34	7.36
298.711	7.26
299.082	7.28
299.452	7.21
299.823	7.28
300.194	7.27
300.564	7.1
300.935	7.11
301.305	7.33
301.676	7.41
302.046	7.36
302.416	7.28
302.787	7.21
303.157	7.11
303.527	7.12
303.897	7.03
304.267	6.79
304.637	6.95
305.008	6.96
305.378	6.98
305.748	6.84
306.117	6.91
306.487	7.07
306.857	7.16
307.227	7.26
307.597	7.3
307.967	7.34
308.336	7.3
308.706	7.41
309.076	7.44
309.445	7.57
309.815	7.47
310.184	7.37
310.554	7.38
310.923	7.4
311.293	7.4
311.662	7.31
312.031	7.39
312.401	7.28
312.77	7.28
313.139	7.27
313.508	7.25
313.877	7.34
314.246	7.23
314.616	7.14
314.985	6.98
315.353	7.08
315.722	7.19
316.091	7.4
316.46	7.3
316.829	7.13
317.198	7.06
317.567	7.29
317.935	7.3
318.304	7.44
318.672	7.32
319.041	7.34
319.41	7.45
319.778	7.46
320.147	7.42
320.515	7.42
320.883	7.47
321.252	7.59
321.62	7.58
321.988	7.84
322.357	7.67
322.725	7.86
323.093	7.64
323.461	7.42
323.829	7.33
324.197	7.39
324.565	7.5
324.933	7.41
325.301	7.22
325.669	7.33
326.037	7.3
326.405	7.43
326.772	7.46
327.14	7.29
327.508	7.3
327.875	7.39
328.243	7.25
328.61	7.18
328.978	7.13
329.346	7.18
329.713	7.17
330.08	7.45
330.448	7.32
330.815	7.52
331.182	7.67
331.55	7.72
331.917	7.64
332.284	7.7
332.651	7.79
333.018	7.93
333.385	7.79
333.752	7.89
334.119	7.91
334.486	7.84
334.853	7.87
335.22	7.84
335.587	7.71
335.954	7.83
336.32	7.84
336.687	7.9
337.054	7.87
337.42	7.75
337.787	7.61
338.153	7.68
338.52	7.61
338.886	7.61
339.253	7.46
339.619	7.47
339.986	7.43
340.352	7.41
340.718	7.33
341.084	7.4
341.451	7.34
341.817	7.3
342.183	7.35
342.549	7.51
342.915	7.57
343.281	7.7
343.647	7.7
344.013	7.72
344.379	7.67
344.745	7.72
345.11	7.69
345.476	7.81
345.842	7.73
346.208	7.74
346.573	7.73
346.939	7.75
347.304	7.77
347.67	7.68
348.035	7.79
348.401	7.7
348.766	7.68
349.132	7.7
349.497	7.65
349.862	7.57
350.228	7.53
350.593	7.55
350.958	7.55
351.323	7.54
351.688	7.58
352.053	7.57
352.418	7.45
352.783	7.46
353.148	7.38
353.513	7.33
353.878	7.32
354.243	7.25
354.608	7.35
354.972	7.4
355.337	7.49
355.702	7.38
356.066	7.42
356.431	7.42
356.795	7.31
357.16	7.38
357.524	7.35
357.889	7.29
358.253	7.32
358.618	7.17
358.982	7.22
359.346	7.15
359.71	7.16
360.075	7.17
360.439	7.17
360.803	7.14
361.167	7.25
361.531	7.27
361.895	7.25
362.259	7.33
362.623	7.27
362.987	7.29
363.351	7.36
363.714	7.41
364.078	7.42
364.442	7.43
364.806	7.44
365.169	7.44
365.533	7.53
365.896	7.57
366.26	7.6
366.623	7.5
366.987	7.56
367.35	7.56
367.714	7.63
368.077	7.63
368.44	7.7
368.803	7.66
369.167	7.55
369.53	7.58
369.893	7.49
370.256	7.47
370.619	7.38
370.982	7.35
371.345	7.4
371.708	7.42
372.071	7.37
372.434	7.36
372.797	7.44
373.159	7.37
373.522	7.26
373.885	7.25
374.247	7.29
374.61	7.25
374.973	7.22
375.335	7.21
375.698	7.16
376.06	7.11
376.423	7.06
376.785	7.1
377.147	7.01
377.51	6.98
377.872	6.97
378.234	7
378.596	7.03
378.958	6.95
379.321	6.97
379.683	6.96
380.045	6.95
380.407	6.95
380.769	6.85
381.13	6.82
381.492	6.91
381.854	6.92
382.216	6.95
382.578	6.97
382.939	6.86
383.301	6.87
383.663	6.89
384.024	6.93
384.386	6.94
384.747	6.97
385.109	6.97
385.47	7
385.832	6.9
386.193	6.83
386.554	6.8
386.916	6.77
387.277	6.8
387.638	6.83
387.999	6.81
388.36	6.89
388.721	6.96
389.082	6.94
389.443	6.91
389.804	6.88
390.165	6.88
390.526	6.94
390.887	6.98
391.248	6.93
391.609	6.94
391.969	6.92
392.33	6.89
392.691	6.91
393.051	6.86
393.412	6.9
393.772	6.98
394.133	6.94
394.493	6.93
394.854	6.89
395.214	6.87
395.574	6.87
395.935	6.87
396.295	6.84
396.655	6.81
397.015	6.83
397.376	6.8
397.736	6.79
398.096	6.82
398.456	6.77
398.816	6.82
399.176	6.74
399.535	6.78
399.895	6.8
400.255	6.76
400.615	6.77
400.975	6.73
401.334	6.66
401.694	6.72
402.054	6.68
402.413	6.71
402.773	6.66
403.132	6.62
403.492	6.59
403.851	6.59
404.211	6.56
404.57	6.57
404.929	6.56
405.288	6.58
405.648	6.53
406.007	6.53
406.366	6.49
406.725	6.52
407.084	6.52
407.443	6.54
407.802	6.55
408.161	6.55
408.52	6.59
408.879	6.59
409.238	6.59
409.596	6.6
409.955	6.59
410.314	6.59
410.673	6.6
411.031	6.59
411.39	6.6
411.748	6.61
412.107	6.62
412.465	6.63
412.824	6.58
413.182	6.58
413.54	6.58
413.899	6.58
414.257	6.6
414.615	6.56
414.974	6.52
415.332	6.51
415.69	6.49
416.048	6.46
416.406	6.44
416.764	6.44
417.122	6.43
417.48	6.44
417.838	6.45
418.195	6.42
418.553	6.42
418.911	6.39
419.269	6.37
419.626	6.33
419.984	6.33
420.342	6.32
420.699	6.3
421.057	6.28
421.414	6.3
421.772	6.29
422.129	6.27
422.486	6.29
422.844	6.27
423.201	6.29
423.558	6.29
423.915	6.29
424.273	6.27
424.63	6.29
424.987	6.26
425.344	6.24
425.701	6.25
426.058	6.24
426.415	6.24
426.772	6.25
427.128	6.25
427.485	6.28
427.842	6.28
428.199	6.3
428.555	6.3
428.912	6.26
429.269	6.26
429.625	6.27
429.982	6.25
430.338	6.26
430.695	6.24
431.051	6.24
431.407	6.22
431.764	6.23
432.12	6.22
432.476	6.24
432.832	6.23
433.189	6.21
433.545	6.19
433.901	6.19
434.257	6.18
434.613	6.19
434.969	6.16
435.325	6.15
435.681	6.13
436.036	6.13
436.392	6.16
436.748	6.15
437.104	6.14
437.459	6.15
437.815	6.15
438.171	6.14
438.526	6.12
438.882	6.13
439.237	6.12
439.593	6.12
439.948	6.11
440.304	6.1
440.659	6.12
441.014	6.15
441.369	6.15
441.725	6.14
442.08	6.13
442.435	6.13
442.79	6.13
443.145	6.12
443.5	6.13
443.855	6.12
444.21	6.1
444.565	6.11
444.92	6.09
445.275	6.07
445.629	6.06
445.984	6.06
446.339	6.06
446.693	6.05
447.048	6.01
447.403	5.97
447.757	6
448.112	5.98
448.466	5.96
448.82	5.95
449.175	5.95
449.529	5.92
449.883	5.91
450.238	5.89
450.592	5.9
450.946	5.88
451.3	5.86
451.654	5.84
452.008	5.83
452.362	5.81
452.716	5.81
453.07	5.83
453.424	5.83
453.778	5.82
454.132	5.82
454.486	5.85
454.839	5.88
455.193	5.87
455.547	5.86
455.9	5.88
456.254	5.87
456.607	5.87
456.961	5.9
457.314	5.89
457.668	5.9
458.021	5.9
458.375	5.91
458.728	5.89
459.081	5.92
459.434	5.93
459.787	5.95
460.141	5.95
460.494	5.94
460.847	5.95
461.2	5.96
461.553	5.98
461.906	6
462.259	6
462.611	6
462.964	6.01
463.317	6.01
463.67	6.04
464.022	6.03
464.375	6.01
464.728	6.03
465.08	6.02
465.433	6.03
465.785	6.04
466.138	6.08
466.49	6.06
466.843	6.07
467.195	6.08
467.547	6.1
467.899	6.12
468.252	6.13
468.604	6.12
468.956	6.1
469.308	6.09
469.66	6.09
470.012	6.09
470.364	6.1
470.716	6.11
471.068	6.1
471.42	6.1
471.772	6.13
472.123	6.13
472.475	6.15
472.827	6.14
473.178	6.14
473.53	6.12
473.882	6.11
474.233	6.12
474.585	6.1
474.936	6.06
475.288	6.04
475.639	6.03
475.99	6.02
476.342	6.06
476.693	6.07
477.044	6.08
477.395	6.08
477.746	6.08
478.097	6.07
478.448	6.07
478.8	6.09
479.15	6.05
479.501	6.05
479.852	6.05
480.203	6.06
480.554	6.07
480.905	6.05
481.255	6.07
481.606	6.07
481.957	6.07
482.307	6.09
482.658	6.1
483.009	6.1
483.359	6.11
483.709	6.1
484.06	6.1
484.41	6.1
484.761	6.11
485.111	6.12
485.461	6.13
485.811	6.13
486.162	6.12
486.512	6.14
486.862	6.15
487.212	6.15
487.562	6.16
487.912	6.16
488.262	6.17
488.612	6.18
488.961	6.19
489.311	6.2
489.661	6.19
490.011	6.18
490.36	6.18
490.71	6.18
491.06	6.18
491.409	6.19
491.759	6.2
492.108	6.18
492.458	6.19
492.807	6.19
493.157	6.19
493.506	6.21
493.855	6.21
494.204	6.22
494.554	6.24
494.903	6.24
495.252	6.23
495.601	6.26
495.95	6.24
496.299	6.24
496.648	6.27
496.997	6.26
497.346	6.3
497.695	6.32
498.043	6.33
498.392	6.34
498.741	6.35
499.09	6.37
499.438	6.4
499.787	6.4
500.135	6.41
500.484	6.42
500.832	6.42
501.181	6.44
501.529	6.46
501.878	6.47
502.226	6.5
502.574	6.53
502.923	6.54
503.271	6.59
503.619	6.59
503.967	6.55
504.315	6.59
504.663	6.59
505.011	6.61
505.359	6.63
505.707	6.65
506.055	6.66
506.403	6.67
506.751	6.67
507.098	6.71
507.446	6.72
507.794	6.75
508.141	6.76
508.489	6.78
508.837	6.77
509.184	6.79
509.531	6.8
509.879	6.8
510.226	6.8
510.574	6.79
510.921	6.84
511.268	6.88
511.616	6.9
511.963	6.93
512.31	6.94
512.657	6.96
513.004	6.95
513.351	6.96
513.698	6.96
514.045	6.97
514.392	6.98
514.739	6.99
515.086	7
515.432	7.04
515.779	7.02
516.126	7.05
516.473	7.06
516.819	7.05
517.166	7.07
517.512	7.1
517.859	7.13
518.205	7.1
518.552	7.09
518.898	7.09
519.245	7.1
519.591	7.11
519.937	7.11
520.283	7.13
520.629	7.13
520.976	7.15
521.322	7.19
521.668	7.18
522.014	7.21
522.36	7.2
522.706	7.17
523.052	7.2
523.398	7.2
523.743	7.21
524.089	7.22
524.435	7.23
524.781	7.24
525.126	7.25
525.472	7.26
525.817	7.29
526.163	7.3
526.509	7.31
526.854	7.32
527.199	7.34
527.545	7.35
527.89	7.37
528.235	7.38
528.581	7.37
528.926	7.37
529.271	7.37
529.616	7.39
529.961	7.41
530.306	7.42
530.651	7.43
530.996	7.43
531.341	7.43
531.686	7.43
532.031	7.44
532.376	7.45
532.721	7.46
533.065	7.46
533.41	7.47
533.755	7.47
534.099	7.48
534.444	7.47
534.788	7.47
535.133	7.47
535.477	7.46
535.822	7.47
536.166	7.49
536.51	7.49
536.855	7.47
537.199	7.47
537.543	7.49
537.887	7.49
538.231	7.51
538.576	7.5
538.92	7.54
539.264	7.54
539.608	7.53
539.951	7.53
540.295	7.54
540.639	7.55
540.983	7.54
541.327	7.55
541.671	7.56
542.014	7.57
542.358	7.58
542.701	7.6
543.045	7.59
543.389	7.59
543.732	7.59
544.075	7.61
544.419	7.61
544.762	7.6
545.105	7.62
545.449	7.61
545.792	7.64
546.135	7.63
546.478	7.62
546.821	7.66
547.165	7.63
547.508	7.64
547.851	7.62
548.194	7.63
548.536	7.63
548.879	7.64
549.222	7.63
549.565	7.64
549.908	7.64
550.25	7.67
550.593	7.67
550.936	7.69
551.278	7.69
551.621	7.71
551.963	7.7
552.306	7.66
552.648	7.67
552.991	7.67
553.333	7.66
553.675	7.67
554.017	7.65
554.36	7.71
554.702	7.7
555.044	7.7
555.386	7.71
555.728	7.68
556.07	7.67
556.412	7.67
556.754	7.65
557.096	7.65
557.438	7.64
557.78	7.63
558.121	7.59
558.463	7.6
558.805	7.61
559.147	7.62
559.488	7.63
559.83	7.62
560.171	7.6
560.513	7.58
560.854	7.58
561.196	7.6
561.537	7.54
561.878	7.55
562.22	7.56
562.561	7.59
562.902	7.62
563.243	7.65
563.584	7.63
563.925	7.66
564.266	7.64
564.607	7.65
564.948	7.66
565.289	7.7
565.63	7.7
565.971	7.67
566.312	7.65
566.653	7.66
566.993	7.68
567.334	7.72
567.675	7.75
568.015	7.78
568.356	7.76
568.696	7.77
569.037	7.81
569.377	7.85
569.718	7.87
570.058	7.84
570.398	7.84
570.739	7.84
571.079	7.84
571.419	7.84
571.759	7.85
572.099	7.82
572.439	7.82
572.779	7.85
573.119	7.85
573.459	7.88
573.799	7.92
574.139	7.93
574.479	7.9
574.819	7.91
575.158	7.93
575.498	7.94
575.838	7.96
576.177	7.94
576.517	7.93
576.856	7.89
577.196	7.92
577.535	7.91
577.875	7.89
578.214	7.9
578.553	7.91
578.893	7.91
579.232	7.95
579.571	7.96
579.91	7.93
580.25	7.97
580.589	8
580.928	7.92
581.267	7.92
581.606	7.92
581.945	7.88
582.283	7.85
582.622	7.83
582.961	7.83
583.3	7.77
583.639	7.74
583.977	7.77
584.316	7.78
584.654	7.76
584.993	7.82
585.332	7.79
585.67	7.79
586.008	7.84
586.347	7.84
586.685	7.8
587.024	7.85
587.362	7.87
587.7	7.89
588.038	7.95
588.376	7.94
588.715	7.97
589.053	7.99
589.391	8.01
589.729	8.04
590.067	8.03
590.404	8.05
590.742	8.05
591.08	8.07
591.418	8.11
591.756	8.11
592.093	8.07
592.431	8.13
592.769	8.1
593.106	8.09
593.444	8.09
593.781	8.08
594.119	8.04
594.456	8.01
594.793	7.97
595.131	7.96
595.468	7.98
595.805	7.98
596.143	7.99
596.48	7.98
596.817	7.99
597.154	8.01
597.491	8.03
597.828	8.06
598.165	8.01
598.502	7.96
598.839	7.98
599.176	8.03
599.512	7.98
599.849	7.98
600.186	7.91
600.523	7.91
600.859	7.95
601.196	7.96
601.532	7.94
601.869	7.91
602.205	7.94
602.542	7.94
602.878	7.93
603.215	7.93
603.551	7.89
603.887	7.87
604.223	7.84
604.56	7.83
604.896	7.84
605.232	7.84
605.568	7.84
605.904	7.83
606.24	7.85
606.576	7.84
606.912	7.85
607.248	7.88
607.583	7.9
607.919	7.91
608.255	7.9
608.591	7.91
608.926	7.92
609.262	7.87
609.597	7.88
609.933	7.93
610.268	7.94
610.604	7.97
610.939	8.01
611.275	8.03
611.61	8.07
611.945	8.07
612.281	8.15
612.616	8.18
612.951	8.2
613.286	8.19
613.621	8.15
613.956	8.21
614.291	8.23
614.626	8.2
614.961	8.23
615.296	8.26
615.631	8.27
615.966	8.29
616.3	8.36
616.635	8.38
616.97	8.35
617.304	8.32
617.639	8.28
617.973	8.25
618.308	8.29
618.642	8.29
618.977	8.27
619.311	8.26
619.646	8.3
619.98	8.28
620.314	8.32
620.648	8.37
620.983	8.31
621.317	8.28
621.651	8.29
621.985	8.3
622.319	8.31
622.653	8.31
622.987	8.36
623.321	8.32
623.655	8.32
623.988	8.29
624.322	8.33
624.656	8.4
624.99	8.44
625.323	8.45
625.657	8.45
625.99	8.48
626.324	8.43
626.657	8.38
626.991	8.41
627.324	8.35
627.658	8.36
627.991	8.45
628.324	8.44
628.657	8.47
628.991	8.44
629.324	8.46
629.657	8.45
629.99	8.44
630.323	8.44
630.656	8.43
630.989	8.47
631.322	8.43
631.655	8.41
631.987	8.39
632.32	8.4
632.653	8.37
632.986	8.34
633.318	8.32
633.651	8.36
633.984	8.39
634.316	8.45
634.649	8.5
634.981	8.43
635.313	8.49
635.646	8.54
635.978	8.58
636.31	8.56
636.643	8.59
636.975	8.58
637.307	8.65
637.639	8.64
637.971	8.59
638.303	8.59
638.635	8.57
638.967	8.54
639.299	8.5
639.631	8.52
639.963	8.55
640.295	8.56
640.626	8.55
640.958	8.51
641.29	8.46
641.621	8.38
641.953	8.34
642.285	8.28
642.616	8.25
642.948	8.26
643.279	8.2
643.61	8.21
643.942	8.27
644.273	8.23
644.604	8.19
644.936	8.23
645.267	8.24
645.598	8.3
645.929	8.35
646.26	8.31
646.591	8.28
646.922	8.26
647.253	8.28
647.584	8.27
647.915	8.32
648.245	8.36
648.576	8.38
648.907	8.39
649.238	8.45
649.568	8.44
649.899	8.38
650.229	8.42
650.56	8.34
650.89	8.33
651.221	8.33
651.551	8.45
651.882	8.47
652.212	8.4
652.542	8.43
652.872	8.4
653.203	8.48
653.533	8.54
653.863	8.54
654.193	8.56
654.523	8.52
654.853	8.54
655.183	8.54
655.513	8.51
655.843	8.53
656.172	8.51
656.502	8.47
656.832	8.51
657.162	8.5
657.491	8.6
657.821	8.53
658.15	8.56
658.48	8.51
658.809	8.52
659.139	8.63
659.468	8.58
659.798	8.59
660.127	8.55
660.456	8.55
660.785	8.54
661.115	8.48
661.444	8.53
661.773	8.49
662.102	8.45
662.431	8.5
662.76	8.44
663.089	8.48
663.418	8.53
663.747	8.46
664.076	8.46
664.404	8.42
664.733	8.52
665.062	8.55
665.39	8.56
665.719	8.54
666.048	8.52
666.376	8.6
666.705	8.59
667.033	8.63
667.362	8.59
667.69	8.59
668.018	8.64
668.347	8.64
668.675	8.63
669.003	8.55
669.331	8.63
669.659	8.69
669.987	8.62
670.315	8.59
670.643	8.61
670.971	8.67
671.299	8.65
671.627	8.67
671.955	8.62
672.283	8.49
672.61	8.49
672.938	8.49
673.266	8.42
673.593	8.45
673.921	8.41
674.249	8.36
674.576	8.34
674.904	8.34
675.231	8.28
675.558	8.29
675.886	8.35
676.213	8.26
676.54	8.31
676.867	8.36
677.195	8.32
677.522	8.37
677.849	8.33
678.176	8.39
678.503	8.31
678.83	8.33
679.157	8.32
