Data from BA55519_Reflection_00002.txt Node
Date: Tue Nov 19 11:52:34 EST 2019
User: vgr7
Spectrometer: USB2G7710
Scans to average: 3
Trigger mode: 4
Integration Time (sec): 2.000000E-2
Electric dark correction enabled: true
Boxcar width: 10
XAxis mode: Wavelengths
Number of Pixels in Spectrum: 2048
>>>>>Begin Spectral Data<<<<<
177.721	20.73
178.105	19.19
178.488	24.12
178.871	16.42
179.254	30.56
179.636	55.47
180.019	42.77
180.402	58.82
180.785	-2650
181.168	-288.06
181.55	-298.81
181.933	-911.9
182.316	-2864.29
182.698	-2427.78
183.081	-509.38
183.463	-436.29
183.846	-352.53
184.228	-276.37
184.611	-217.62
184.993	-139.19
185.376	-165.54
185.758	-131.27
186.14	-136.61
186.522	-113.96
186.904	-117.16
187.287	-123.12
187.669	-126.85
188.051	-186.53
188.433	-222.86
188.815	-167.32
189.197	-171.46
189.579	-192.25
189.961	-174.69
190.342	-150
190.724	-154.95
191.106	-150.84
191.488	-132.73
191.869	-106.64
192.251	-106.15
192.633	-121.1
193.014	-118.67
193.396	-113.85
193.777	-96.92
194.159	-90.55
194.54	-107.45
194.922	-105.58
195.303	-123.03
195.684	-124.88
196.065	-115.32
196.447	-114.37
196.828	-151.25
197.209	-133.6
197.59	-99.9
197.971	-100.33
198.352	-93.64
198.733	-98.96
199.114	-108.23
199.495	-92.52
199.876	-103.4
200.257	-108.02
200.638	-99.61
201.018	-101.22
201.399	-85.11
201.78	-82.94
202.16	-74.66
202.541	-74.44
202.922	-70.35
203.302	-56.41
203.683	-53.7
204.063	-52.47
204.444	-42.29
204.824	-25.25
205.204	-26.04
205.585	-45.99
205.965	-37.39
206.345	-57.49
206.725	-44.3
207.106	-36.6
207.486	-50.61
207.866	-41.13
208.246	-31
208.626	-37.56
209.006	-32.81
209.386	-36.86
209.766	-39.38
210.145	-51.38
210.525	-40.12
210.905	-21.64
211.285	-11.65
211.664	-18.32
212.044	-19.02
212.424	-13.26
212.803	-8.62
213.183	-18
213.562	-9.88
213.942	-9.96
214.321	-3
214.701	-8.12
215.08	-14.3
215.459	-12.15
215.838	-23.07
216.218	-39.09
216.597	-31.61
216.976	-38.49
217.355	-33.08
217.734	-44.46
218.113	-39.33
218.492	-39.8
218.871	-66.05
219.25	-71.55
219.629	-78.84
220.008	-73.24
220.387	-82.45
220.766	-73.85
221.144	-64.39
221.523	-73.89
221.902	-73.21
222.28	-51.5
222.659	-35.81
223.037	-43.78
223.416	-39.91
223.794	-35.37
224.173	-35.02
224.551	-30.97
224.929	-30.65
225.308	-39.1
225.686	-35.24
226.064	-36.91
226.442	-34.69
226.821	-30.22
227.199	-29.32
227.577	-23.72
227.955	-20.27
228.333	-18.84
228.711	-19.25
229.089	-18.22
229.467	-15.05
229.845	-15.86
230.222	-16.67
230.6	-20.34
230.978	-14.52
231.356	-16.08
231.733	-14.9
232.111	-10.05
232.488	-9.59
232.866	-6.51
233.243	-5
233.621	-4.64
233.998	-1.74
234.376	-1.32
234.753	-0.56
235.13	-0.99
235.508	-0.49
235.885	0.85
236.262	0.76
236.639	1.62
237.016	1.77
237.393	2.07
237.77	2.26
238.147	2.99
238.524	4.52
238.901	3.29
239.278	3.23
239.655	4
240.032	2.87
240.409	3.55
240.785	2.69
241.162	3.18
241.539	3.32
241.915	3.61
242.292	3.89
242.668	3.64
243.045	4.33
243.421	4.4
243.798	4.6
244.174	4.49
244.551	4.59
244.927	4.24
245.303	4.43
245.679	4.55
246.056	4.69
246.432	4.87
246.808	4.9
247.184	4.81
247.56	4.88
247.936	4.99
248.312	4.69
248.688	4.67
249.064	4.59
249.44	4.52
249.815	4.53
250.191	4.66
250.567	4.62
250.943	4.6
251.318	4.68
251.694	4.4
252.069	4.47
252.445	4.31
252.82	5.2
253.196	5.12
253.571	5.25
253.947	5.02
254.322	4.56
254.697	4.83
255.073	5.16
255.448	4.96
255.823	5.13
256.198	5.16
256.573	5.48
256.948	5.6
257.323	5.78
257.698	5.59
258.073	5.46
258.448	5.68
258.823	5.45
259.198	5.38
259.573	5.21
259.948	5.18
260.322	5.18
260.697	4.95
261.072	4.97
261.446	4.78
261.821	4.66
262.195	4.58
262.57	4.48
262.944	4.42
263.319	4.55
263.693	4.5
264.067	4.55
264.442	4.5
264.816	4.35
265.19	4.14
265.564	4.21
265.938	4.03
266.313	3.84
266.687	3.88
267.061	3.77
267.435	4.05
267.809	3.8
268.183	3.64
268.556	3.67
268.93	3.83
269.304	3.94
269.678	4.14
270.051	4.49
270.425	4.58
270.799	4.41
271.172	4.26
271.546	4.31
271.919	4.29
272.293	4.26
272.666	4.41
273.04	4.55
273.413	4.46
273.787	4.44
274.16	4.44
274.533	4.38
274.906	4.48
275.279	4.4
275.653	4.58
276.026	4.69
276.399	4.63
276.772	4.42
277.145	4.41
277.518	4.31
277.891	4.13
278.263	4.2
278.636	4.48
279.009	4.49
279.382	4.56
279.755	4.59
280.127	4.59
280.5	4.33
280.872	4.39
281.245	4.32
281.617	4.54
281.99	4.7
282.362	4.7
282.735	4.6
283.107	4.66
283.479	4.68
283.852	4.76
284.224	4.74
284.596	4.71
284.968	4.61
285.34	4.61
285.713	4.69
286.085	4.46
286.457	4.32
286.829	4.32
287.201	4.24
287.572	4.35
287.944	4.4
288.316	4.59
288.688	4.54
289.06	4.52
289.431	4.44
289.803	4.36
290.175	4.43
290.546	4.53
290.918	4.51
291.289	4.52
291.661	4.45
292.032	4.54
292.403	4.59
292.775	4.77
293.146	4.9
293.517	4.85
293.889	5.15
294.26	5.22
294.631	5.26
295.002	5.46
295.373	5.4
295.744	5.43
296.115	5.29
296.486	5.34
296.857	5.67
297.228	5.68
297.599	5.65
297.97	5.61
298.34	5.53
298.711	5.59
299.082	5.53
299.452	5.57
299.823	5.65
300.194	5.83
300.564	5.66
300.935	5.56
301.305	5.55
301.676	5.46
302.046	5.45
302.416	5.49
302.787	5.32
303.157	5.4
303.527	5.5
303.897	5.73
304.267	5.8
304.637	5.52
305.008	5.49
305.378	5.64
305.748	5.81
306.117	5.84
306.487	5.71
306.857	5.87
307.227	6.01
307.597	5.93
307.967	5.76
308.336	5.98
308.706	6.08
309.076	6.12
309.445	6.33
309.815	6.39
310.184	6.28
310.554	6.27
310.923	6.27
311.293	6.24
311.662	6.36
312.031	6.3
312.401	6.34
312.77	6.31
313.139	6.24
313.508	6.09
313.877	6.17
314.246	6.12
314.616	6.09
314.985	5.92
315.353	5.94
315.722	6.03
316.091	5.94
316.46	6
316.829	5.95
317.198	5.7
317.567	5.65
317.935	5.73
318.304	5.77
318.672	5.76
319.041	5.59
319.41	5.28
319.778	5.31
320.147	5.34
320.515	5.52
320.883	5.39
321.252	5.5
321.62	5.34
321.988	5.43
322.357	5.4
322.725	5.47
323.093	5.55
323.461	5.59
323.829	5.51
324.197	5.25
324.565	5.18
324.933	4.99
325.301	4.84
325.669	4.74
326.037	4.79
326.405	4.69
326.772	4.83
327.14	4.88
327.508	4.72
327.875	4.77
328.243	4.73
328.61	4.86
328.978	4.69
329.346	4.72
329.713	4.88
330.08	4.91
330.448	4.96
330.815	4.82
331.182	4.7
331.55	4.69
331.917	4.76
332.284	4.82
332.651	4.88
333.018	5.01
333.385	5.18
333.752	5.03
334.119	4.99
334.486	4.83
334.853	4.92
335.22	5.03
335.587	4.92
335.954	4.87
336.32	4.83
336.687	4.94
337.054	5.07
337.42	5.01
337.787	5.07
338.153	4.99
338.52	5.15
338.886	5.11
339.253	5.13
339.619	5.26
339.986	5.28
340.352	5.42
340.718	5.51
341.084	5.45
341.451	5.56
341.817	5.64
342.183	5.72
342.549	5.76
342.915	5.72
343.281	5.74
343.647	5.78
344.013	5.69
344.379	5.7
344.745	5.67
345.11	5.68
345.476	5.75
345.842	5.84
346.208	5.75
346.573	5.72
346.939	5.74
347.304	5.74
347.67	5.77
348.035	5.7
348.401	5.7
348.766	5.71
349.132	5.74
349.497	5.68
349.862	5.64
350.228	5.67
350.593	5.73
350.958	5.71
351.323	5.6
351.688	5.6
352.053	5.64
352.418	5.67
352.783	5.61
353.148	5.51
353.513	5.42
353.878	5.38
354.243	5.41
354.608	5.47
354.972	5.41
355.337	5.37
355.702	5.48
356.066	5.46
356.431	5.46
356.795	5.39
357.16	5.43
357.524	5.42
357.889	5.36
358.253	5.3
358.618	5.34
358.982	5.43
359.346	5.51
359.71	5.47
360.075	5.46
360.439	5.47
360.803	5.5
361.167	5.48
361.531	5.51
361.895	5.52
362.259	5.53
362.623	5.52
362.987	5.56
363.351	5.51
363.714	5.49
364.078	5.44
364.442	5.44
364.806	5.42
365.169	5.51
365.533	5.5
365.896	5.6
366.26	5.54
366.623	5.52
366.987	5.47
367.35	5.46
367.714	5.46
368.077	5.49
368.44	5.48
368.803	5.43
369.167	5.38
369.53	5.35
369.893	5.33
370.256	5.3
370.619	5.25
370.982	5.21
371.345	5.25
371.708	5.31
372.071	5.3
372.434	5.33
372.797	5.31
373.159	5.26
373.522	5.18
373.885	5.21
374.247	5.14
374.61	5.17
374.973	5.22
375.335	5.19
375.698	5.15
376.06	5.14
376.423	5.19
376.785	5.2
377.147	5.26
377.51	5.25
377.872	5.26
378.234	5.34
378.596	5.36
378.958	5.36
379.321	5.35
379.683	5.34
380.045	5.29
380.407	5.31
380.769	5.36
381.13	5.4
381.492	5.42
381.854	5.45
382.216	5.47
382.578	5.46
382.939	5.41
383.301	5.44
383.663	5.42
384.024	5.43
384.386	5.45
384.747	5.43
385.109	5.42
385.47	5.47
385.832	5.4
386.193	5.37
386.554	5.34
386.916	5.36
387.277	5.35
387.638	5.4
387.999	5.36
388.36	5.39
388.721	5.35
389.082	5.38
389.443	5.39
389.804	5.43
390.165	5.44
390.526	5.49
390.887	5.46
391.248	5.47
391.609	5.49
391.969	5.51
392.33	5.48
392.691	5.43
393.051	5.41
393.412	5.42
393.772	5.42
394.133	5.41
394.493	5.34
394.854	5.34
395.214	5.31
395.574	5.31
395.935	5.26
396.295	5.28
396.655	5.22
397.015	5.26
397.376	5.2
397.736	5.19
398.096	5.15
398.456	5.13
398.816	5.14
399.176	5.09
399.535	5.05
399.895	5.05
400.255	5.09
400.615	5.08
400.975	5.07
401.334	5.12
401.694	5.13
402.054	5.16
402.413	5.21
402.773	5.2
403.132	5.19
403.492	5.18
403.851	5.18
404.211	5.19
404.57	5.16
404.929	5.13
405.288	5.13
405.648	5.11
406.007	5.13
406.366	5.1
406.725	5.08
407.084	5.1
407.443	5.12
407.802	5.16
408.161	5.14
408.52	5.16
408.879	5.16
409.238	5.16
409.596	5.18
409.955	5.15
410.314	5.16
410.673	5.11
411.031	5.09
411.39	5.1
411.748	5.11
412.107	5.07
412.465	5.09
412.824	5.04
413.182	5.08
413.54	5.12
413.899	5.14
414.257	5.19
414.615	5.16
414.974	5.15
415.332	5.14
415.69	5.16
416.048	5.18
416.406	5.16
416.764	5.13
417.122	5.13
417.48	5.15
417.838	5.14
418.195	5.15
418.553	5.17
418.911	5.16
419.269	5.15
419.626	5.18
419.984	5.19
420.342	5.21
420.699	5.22
421.057	5.22
421.414	5.2
421.772	5.19
422.129	5.19
422.486	5.19
422.844	5.17
423.201	5.16
423.558	5.13
423.915	5.13
424.273	5.14
424.63	5.15
424.987	5.11
425.344	5.1
425.701	5.09
426.058	5.08
426.415	5.07
426.772	5.08
427.128	5.07
427.485	5.06
427.842	5.04
428.199	5.02
428.555	4.99
428.912	5
429.269	4.99
429.625	5.01
429.982	4.99
430.338	4.99
430.695	4.98
431.051	4.98
431.407	4.98
431.764	4.97
432.12	4.97
432.476	5.02
432.832	5.02
433.189	5.02
433.545	5.02
433.901	5.02
434.257	5.01
434.613	5.01
434.969	5.02
435.325	5.02
435.681	5.01
436.036	5.01
436.392	5.01
436.748	5.02
437.104	5.01
437.459	5.03
437.815	5.03
438.171	5.05
438.526	5.04
438.882	5.03
439.237	5.03
439.593	5.04
439.948	5.02
440.304	5.02
440.659	5.03
441.014	5.01
441.369	5.02
441.725	5
442.08	4.98
442.435	4.98
442.79	4.98
443.145	5
443.5	4.99
443.855	4.99
444.21	4.98
444.565	4.97
444.92	4.94
445.275	4.95
445.629	4.92
445.984	4.93
446.339	4.93
446.693	4.93
447.048	4.92
447.403	4.91
447.757	4.91
448.112	4.91
448.466	4.92
448.82	4.91
449.175	4.92
449.529	4.94
449.883	4.92
450.238	4.9
450.592	4.89
450.946	4.87
451.3	4.86
451.654	4.86
452.008	4.85
452.362	4.86
452.716	4.85
453.07	4.87
453.424	4.86
453.778	4.84
454.132	4.84
454.486	4.85
454.839	4.87
455.193	4.89
455.547	4.89
455.9	4.89
456.254	4.9
456.607	4.92
456.961	4.89
457.314	4.91
457.668	4.95
458.021	4.94
458.375	4.96
458.728	4.95
459.081	4.95
459.434	4.96
459.787	4.96
460.141	4.97
460.494	4.97
460.847	4.98
461.2	4.99
461.553	5.01
461.906	4.99
462.259	4.97
462.611	4.97
462.964	4.97
463.317	4.97
463.67	4.98
464.022	4.96
464.375	4.96
464.728	4.96
465.08	4.93
465.433	4.94
465.785	4.96
466.138	4.97
466.49	4.98
466.843	4.99
467.195	4.98
467.547	4.99
467.899	4.97
468.252	4.99
468.604	4.99
468.956	5.01
469.308	5
469.66	5
470.012	4.98
470.364	4.98
470.716	4.99
471.068	4.98
471.42	5
471.772	5.03
472.123	5.03
472.475	5.05
472.827	5.05
473.178	5.04
473.53	5.03
473.882	5.01
474.233	5
474.585	5.02
474.936	4.99
475.288	4.98
475.639	5
475.99	4.98
476.342	4.99
476.693	4.99
477.044	4.99
477.395	5.03
477.746	5.04
478.097	5.04
478.448	5.02
478.8	5.03
479.15	5.01
479.501	5.02
479.852	5.03
480.203	5.05
480.554	5.06
480.905	5.07
481.255	5.09
481.606	5.11
481.957	5.11
482.307	5.12
482.658	5.14
483.009	5.13
483.359	5.13
483.709	5.13
484.06	5.14
484.41	5.15
484.761	5.14
485.111	5.15
485.461	5.15
485.811	5.15
486.162	5.15
486.512	5.15
486.862	5.16
487.212	5.15
487.562	5.14
487.912	5.14
488.262	5.14
488.612	5.14
488.961	5.14
489.311	5.13
489.661	5.12
490.011	5.11
490.36	5.11
490.71	5.11
491.06	5.11
491.409	5.11
491.759	5.11
492.108	5.1
492.458	5.09
492.807	5.1
493.157	5.1
493.506	5.11
493.855	5.11
494.204	5.1
494.554	5.12
494.903	5.11
495.252	5.11
495.601	5.1
495.95	5.11
496.299	5.11
496.648	5.11
496.997	5.13
497.346	5.15
497.695	5.17
498.043	5.2
498.392	5.19
498.741	5.2
499.09	5.2
499.438	5.22
499.787	5.23
500.135	5.23
500.484	5.22
500.832	5.23
501.181	5.23
501.529	5.24
501.878	5.24
502.226	5.24
502.574	5.25
502.923	5.27
503.271	5.24
503.619	5.24
503.967	5.25
504.315	5.24
504.663	5.25
505.011	5.25
505.359	5.24
505.707	5.23
506.055	5.23
506.403	5.24
506.751	5.22
507.098	5.24
507.446	5.23
507.794	5.24
508.141	5.24
508.489	5.24
508.837	5.24
509.184	5.25
509.531	5.26
509.879	5.27
510.226	5.26
510.574	5.28
510.921	5.27
511.268	5.28
511.616	5.31
511.963	5.3
512.31	5.3
512.657	5.29
513.004	5.3
513.351	5.31
513.698	5.31
514.045	5.32
514.392	5.31
514.739	5.32
515.086	5.33
515.432	5.36
515.779	5.36
516.126	5.37
516.473	5.37
516.819	5.38
517.166	5.37
517.512	5.4
517.859	5.4
518.205	5.41
518.552	5.41
518.898	5.41
519.245	5.4
519.591	5.4
519.937	5.39
520.283	5.39
520.629	5.39
520.976	5.4
521.322	5.41
521.668	5.43
522.014	5.44
522.36	5.44
522.706	5.42
523.052	5.42
523.398	5.45
523.743	5.45
524.089	5.48
524.435	5.5
524.781	5.5
525.126	5.52
525.472	5.56
525.817	5.57
526.163	5.57
526.509	5.58
526.854	5.6
527.199	5.61
527.545	5.62
527.89	5.63
528.235	5.64
528.581	5.66
528.926	5.64
529.271	5.64
529.616	5.67
529.961	5.67
530.306	5.67
530.651	5.66
530.996	5.68
531.341	5.68
531.686	5.67
532.031	5.66
532.376	5.65
532.721	5.62
533.065	5.62
533.41	5.63
533.755	5.63
534.099	5.61
534.444	5.62
534.788	5.62
535.133	5.62
535.477	5.62
535.822	5.6
536.166	5.61
536.51	5.61
536.855	5.6
537.199	5.61
537.543	5.62
537.887	5.63
538.231	5.63
538.576	5.61
538.92	5.63
539.264	5.63
539.608	5.63
539.951	5.63
540.295	5.65
540.639	5.65
540.983	5.65
541.327	5.68
541.671	5.69
542.014	5.7
542.358	5.7
542.701	5.71
543.045	5.71
543.389	5.71
543.732	5.69
544.075	5.7
544.419	5.7
544.762	5.7
545.105	5.72
545.449	5.72
545.792	5.73
546.135	5.73
546.478	5.72
546.821	5.74
547.165	5.78
547.508	5.76
547.851	5.75
548.194	5.76
548.536	5.73
548.879	5.68
549.222	5.66
549.565	5.62
549.908	5.59
550.25	5.59
550.593	5.6
550.936	5.63
551.278	5.62
551.621	5.61
551.963	5.63
552.306	5.6
552.648	5.58
552.991	5.59
553.333	5.63
553.675	5.62
554.017	5.65
554.36	5.61
554.702	5.59
555.044	5.6
555.386	5.6
555.728	5.61
556.07	5.66
556.412	5.66
556.754	5.65
557.096	5.67
557.438	5.7
557.78	5.68
558.121	5.64
558.463	5.62
558.805	5.64
559.147	5.62
559.488	5.6
559.83	5.6
560.171	5.61
560.513	5.58
560.854	5.6
561.196	5.57
561.537	5.61
561.878	5.61
562.22	5.59
562.561	5.59
562.902	5.57
563.243	5.53
563.584	5.54
563.925	5.59
564.266	5.59
564.607	5.6
564.948	5.59
565.289	5.65
565.63	5.66
565.971	5.66
566.312	5.68
566.653	5.66
566.993	5.65
567.334	5.66
567.675	5.67
568.015	5.63
568.356	5.63
568.696	5.61
569.037	5.6
569.377	5.62
569.718	5.62
570.058	5.62
570.398	5.66
570.739	5.66
571.079	5.63
571.419	5.64
571.759	5.61
572.099	5.6
572.439	5.59
572.779	5.56
573.119	5.56
573.459	5.54
573.799	5.54
574.139	5.55
574.479	5.52
574.819	5.49
575.158	5.55
575.498	5.57
575.838	5.58
576.177	5.59
576.517	5.55
576.856	5.58
577.196	5.59
577.535	5.55
577.875	5.52
578.214	5.52
578.553	5.53
578.893	5.51
579.232	5.54
579.571	5.56
579.91	5.58
580.25	5.56
580.589	5.58
580.928	5.59
581.267	5.58
581.606	5.59
581.945	5.62
582.283	5.61
582.622	5.57
582.961	5.55
583.3	5.58
583.639	5.63
583.977	5.6
584.316	5.6
584.654	5.64
584.993	5.65
585.332	5.68
585.67	5.73
586.008	5.73
586.347	5.8
586.685	5.77
587.024	5.82
587.362	5.84
587.7	5.81
588.038	5.91
588.376	5.91
588.715	5.92
589.053	5.88
589.391	5.88
589.729	5.93
590.067	5.9
590.404	5.91
590.742	5.92
591.08	5.98
591.418	5.98
591.756	5.96
592.093	5.95
592.431	5.91
592.769	5.84
593.106	5.84
593.444	5.8
593.781	5.82
594.119	5.77
594.456	5.76
594.793	5.75
595.131	5.7
595.468	5.72
595.805	5.73
596.143	5.74
596.48	5.72
596.817	5.68
597.154	5.71
597.491	5.71
597.828	5.68
598.165	5.65
598.502	5.6
598.839	5.64
599.176	5.67
599.512	5.66
599.849	5.7
600.186	5.71
600.523	5.69
600.859	5.67
601.196	5.69
601.532	5.73
601.869	5.74
602.205	5.7
602.542	5.71
602.878	5.68
603.215	5.69
603.551	5.7
603.887	5.7
604.223	5.68
604.56	5.67
604.896	5.71
605.232	5.66
605.568	5.72
605.904	5.69
606.24	5.67
606.576	5.71
606.912	5.73
607.248	5.72
607.583	5.74
607.919	5.72
608.255	5.71
608.591	5.67
608.926	5.63
609.262	5.65
609.597	5.63
609.933	5.66
610.268	5.66
610.604	5.64
610.939	5.7
611.275	5.68
611.61	5.68
611.945	5.67
612.281	5.72
612.616	5.74
612.951	5.75
613.286	5.76
613.621	5.71
613.956	5.75
614.291	5.73
614.626	5.76
614.961	5.76
615.296	5.83
615.631	5.86
615.966	5.93
616.3	5.95
616.635	5.92
616.97	5.87
617.304	5.91
617.639	5.91
617.973	5.83
618.308	5.82
618.642	5.83
618.977	5.78
619.311	5.79
619.646	5.76
619.98	5.73
620.314	5.71
620.648	5.77
620.983	5.72
621.317	5.76
621.651	5.74
621.985	5.75
622.319	5.7
622.653	5.69
622.987	5.7
623.321	5.73
623.655	5.74
623.988	5.76
624.322	5.75
624.656	5.78
624.99	5.86
625.323	5.9
625.657	5.89
625.99	5.96
626.324	5.96
626.657	5.92
626.991	5.94
627.324	5.93
627.658	5.89
627.991	5.89
628.324	5.9
628.657	5.87
628.991	5.88
629.324	5.86
629.657	5.87
629.99	5.9
630.323	5.85
630.656	5.89
630.989	5.84
631.322	5.84
631.655	5.84
631.987	5.79
632.32	5.76
632.653	5.74
632.986	5.69
633.318	5.65
633.651	5.69
633.984	5.67
634.316	5.74
634.649	5.74
634.981	5.65
635.313	5.66
635.646	5.69
635.978	5.71
636.31	5.7
636.643	5.69
636.975	5.56
637.307	5.55
637.639	5.49
637.971	5.49
638.303	5.46
638.635	5.42
638.967	5.38
639.299	5.38
639.631	5.42
639.963	5.42
640.295	5.45
640.626	5.42
640.958	5.44
641.29	5.41
641.621	5.42
641.953	5.45
642.285	5.42
642.616	5.39
642.948	5.34
643.279	5.33
643.61	5.31
643.942	5.35
644.273	5.32
644.604	5.32
644.936	5.45
645.267	5.5
645.598	5.55
645.929	5.58
646.26	5.58
646.591	5.53
646.922	5.51
647.253	5.46
647.584	5.47
647.915	5.52
648.245	5.46
648.576	5.47
648.907	5.55
649.238	5.59
649.568	5.59
649.899	5.62
650.229	5.64
650.56	5.64
650.89	5.68
651.221	5.76
651.551	5.79
651.882	5.71
652.212	5.67
652.542	5.68
652.872	5.67
653.203	5.67
653.533	5.75
653.863	5.76
654.193	5.75
654.523	5.75
654.853	5.72
655.183	5.77
655.513	5.75
655.843	5.77
656.172	5.77
656.502	5.78
656.832	5.76
657.162	5.68
657.491	5.75
657.821	5.75
658.15	5.76
658.48	5.75
658.809	5.81
659.139	5.84
659.468	5.81
659.798	5.87
660.127	5.86
660.456	5.81
660.785	5.84
661.115	5.95
661.444	5.99
661.773	5.99
662.102	5.96
662.431	5.97
662.76	5.97
663.089	6.05
663.418	6.09
663.747	6.08
664.076	6.07
664.404	6.05
664.733	6.12
665.062	6.1
665.39	6.12
665.719	6.04
666.048	6.01
666.376	6.05
666.705	5.98
667.033	5.97
667.362	6
667.69	6.02
668.018	5.88
668.347	5.85
668.675	5.81
669.003	5.76
669.331	5.94
669.659	5.86
669.987	5.76
670.315	5.7
670.643	5.7
670.971	5.87
671.299	5.79
671.627	5.71
671.955	5.73
672.283	5.78
672.61	5.87
672.938	5.86
673.266	5.84
673.593	5.84
673.921	5.92
674.249	5.89
674.576	5.87
674.904	5.93
675.231	5.9
675.558	5.96
675.886	6.11
676.213	5.84
