Data from BA55658_Reflection_00006.txt Node
Date: Tue Nov 19 11:55:39 EST 2019
User: vgr7
Spectrometer: USB2G7710
Scans to average: 3
Trigger mode: 4
Integration Time (sec): 2.000000E-2
Electric dark correction enabled: true
Boxcar width: 10
XAxis mode: Wavelengths
Number of Pixels in Spectrum: 2048
>>>>>Begin Spectral Data<<<<<
177.721	-9.74
178.105	-9.33
178.488	2.77
178.871	-56.92
179.254	-26.76
179.636	-145.9
180.019	-1521.62
180.402	271.43
180.785	1300
181.168	330.77
181.55	37.82
181.933	3.81
182.316	-9.03
182.698	-18.37
183.081	-13.16
183.463	4.29
183.846	-5.39
184.228	12.59
184.611	25.13
184.993	38.42
185.376	36.74
185.758	43.03
186.14	40.15
186.522	37.53
186.904	24.38
187.287	27.16
187.669	10.32
188.051	34.83
188.433	78.59
188.815	72.35
189.197	89.63
189.579	135.88
189.961	221.98
190.342	406.91
190.724	317.8
191.106	-2753.66
191.488	497.79
191.869	-725.5
192.251	-178.94
192.633	-153.14
193.014	-299.14
193.396	-387.68
193.777	-183.29
194.159	-316.37
194.54	-190.56
194.922	-130.38
195.303	-197.09
195.684	613.37
196.065	395.34
196.447	68.48
196.828	227.96
197.209	65.58
197.59	-6.03
197.971	-22.62
198.352	34.35
198.733	143.62
199.114	147.39
199.495	227.66
199.876	245.5
200.257	187.04
200.638	127.12
201.018	597.24
201.399	3018.92
201.78	290.33
202.16	1052.94
202.541	1418.68
202.922	270.25
203.302	312.98
203.683	-1794.74
204.063	-1035.14
204.444	-281.67
204.824	-243.95
205.204	-164.48
205.585	-246.84
205.965	-406.88
206.345	-400.95
206.725	-242.37
207.106	-193.44
207.486	-255.86
207.866	-204.24
208.246	-124.57
208.626	-183.83
209.006	-246.91
209.386	-215.37
209.766	-224.84
210.145	-136.38
210.525	-123.48
210.905	-98.88
211.285	-71.64
211.664	-41.55
212.044	-34.57
212.424	-43.41
212.803	-63.6
213.183	-51.38
213.562	-43.58
213.942	-34.11
214.321	-39.89
214.701	-45.92
215.08	-36.63
215.459	-15.32
215.838	-52.95
216.218	-150.4
216.597	-100.2
216.976	-73.39
217.355	-106.9
217.734	-127.21
218.113	-131.1
218.492	-126.82
218.871	-126.77
219.25	-240.69
219.629	485.89
220.008	261.13
220.387	371.7
220.766	-874.03
221.144	1280.33
221.523	224.63
221.902	211.75
222.28	-2900
222.659	49.01
223.037	26.19
223.416	81.44
223.794	65.29
224.173	92.95
224.551	109.38
224.929	80.86
225.308	55.74
225.686	43.57
226.064	36.24
226.442	23.54
226.821	22.01
227.199	12.56
227.577	10.92
227.955	10.39
228.333	9.87
228.711	4.35
229.089	5.43
229.467	9.26
229.845	8.59
230.222	5.93
230.6	4.21
230.978	3.73
231.356	-1.3
231.733	4.59
232.111	4.07
232.488	1.68
232.866	1
233.243	2.08
233.621	2.51
233.998	3.78
234.376	3.88
234.753	1
235.13	3.85
235.508	4.64
235.885	2.92
236.262	2.72
236.639	1.77
237.016	0.15
237.393	-0.29
237.77	1.15
238.147	1.44
238.524	0.67
238.901	0.05
239.278	1.21
239.655	0.36
240.032	0.81
240.409	1.61
240.785	2.71
241.162	2.84
241.539	3.07
241.915	2.38
242.292	2.91
242.668	2.86
243.045	3.34
243.421	3.76
243.798	3.78
244.174	4.23
244.551	4.46
244.927	4.74
245.303	4.56
245.679	4.3
246.056	3.97
246.432	4
246.808	4.17
247.184	3.77
247.56	3.73
247.936	3.34
248.312	3.35
248.688	3.4
249.064	3.46
249.44	3.28
249.815	3.7
250.191	3.53
250.567	3.86
250.943	3.46
251.318	3.23
251.694	3.37
252.069	3.19
252.445	3.36
252.82	3.38
253.196	3.57
253.571	3.76
253.947	4.01
254.322	4.4
254.697	4.54
255.073	4.62
255.448	4.66
255.823	5.11
256.198	5.41
256.573	5.2
256.948	5.21
257.323	5.42
257.698	5.63
258.073	5.65
258.448	5.53
258.823	5.4
259.198	5.32
259.573	4.97
259.948	5.08
260.322	4.89
260.697	5.05
261.072	5.03
261.446	4.81
261.821	4.46
262.195	4.22
262.57	4.09
262.944	4.11
263.319	3.97
263.693	3.75
264.067	3.52
264.442	3.35
264.816	3.39
265.19	3.25
265.564	2.79
265.938	2.84
266.313	2.62
266.687	2.61
267.061	2.69
267.435	3.11
267.809	3
268.183	3.04
268.556	2.91
268.93	2.93
269.304	3.07
269.678	3.29
270.051	3.33
270.425	3.56
270.799	3.49
271.172	3.44
271.546	3.48
271.919	3.4
272.293	3.46
272.666	3.39
273.04	3.28
273.413	3.33
273.787	3.23
274.16	3.2
274.533	3.27
274.906	3.27
275.279	3
275.653	3.05
276.026	3.21
276.399	3.13
276.772	3.21
277.145	3.21
277.518	3.4
277.891	3.46
278.263	3.21
278.636	3.44
279.009	3.62
279.382	3.55
279.755	3.72
280.127	3.89
280.5	3.95
280.872	4.28
281.245	4.38
281.617	4.53
281.99	4.51
282.362	4.49
282.735	4.48
283.107	4.61
283.479	4.55
283.852	4.48
284.224	4.53
284.596	4.43
284.968	4.43
285.34	4.43
285.713	4.4
286.085	4.48
286.457	4.36
286.829	4.44
287.201	4.54
287.572	4.51
287.944	4.49
288.316	4.47
288.688	4.53
289.06	4.46
289.431	4.38
289.803	4.55
290.175	4.72
290.546	4.68
290.918	4.72
291.289	4.51
291.661	4.46
292.032	4.37
292.403	4.31
292.775	4.24
293.146	4.23
293.517	4.25
293.889	4.18
294.26	4.21
294.631	4.25
295.002	4.32
295.373	4.3
295.744	4.28
296.115	4.18
296.486	4.02
296.857	4.04
297.228	4.03
297.599	4.05
297.97	3.94
298.34	3.97
298.711	4.03
299.082	4.22
299.452	4.24
299.823	4.24
300.194	4.34
300.564	4.44
300.935	4.38
301.305	4.47
301.676	4.52
302.046	4.51
302.416	4.46
302.787	4.29
303.157	4.24
303.527	4.32
303.897	4.5
304.267	4.38
304.637	4.43
305.008	4.48
305.378	4.38
305.748	4.52
306.117	4.41
306.487	4.36
306.857	4.48
307.227	4.5
307.597	4.63
307.967	4.71
308.336	4.73
308.706	4.76
309.076	4.67
309.445	4.81
309.815	4.84
310.184	4.69
310.554	4.7
310.923	4.66
311.293	4.52
311.662	4.45
312.031	4.5
312.401	4.43
312.77	4.4
313.139	4.41
313.508	4.25
313.877	4.32
314.246	4.32
314.616	4.38
314.985	4.36
315.353	4.19
315.722	3.96
316.091	3.69
316.46	3.82
316.829	3.97
317.198	3.8
317.567	3.84
317.935	3.98
318.304	4
318.672	4.16
319.041	4.21
319.41	4.23
319.778	4.27
320.147	4.34
320.515	4.34
320.883	4.32
321.252	4.34
321.62	4.44
321.988	4.39
322.357	4.18
322.725	4.18
323.093	4.34
323.461	4.46
323.829	4.62
324.197	4.52
324.565	4.5
324.933	4.68
325.301	4.58
325.669	4.54
326.037	4.63
326.405	4.51
326.772	4.47
327.14	4.47
327.508	4.43
327.875	4.27
328.243	4.24
328.61	4.27
328.978	4.29
329.346	4.24
329.713	4.36
330.08	4.5
330.448	4.57
330.815	4.5
331.182	4.32
331.55	4.42
331.917	4.26
332.284	4.19
332.651	3.96
333.018	3.91
333.385	3.97
333.752	4
334.119	4.1
334.486	4.15
334.853	4.16
335.22	4.27
335.587	4.25
335.954	4.27
336.32	4.19
336.687	4.23
337.054	4.24
337.42	4.17
337.787	3.99
338.153	4.16
338.52	4.18
338.886	4.43
339.253	4.32
339.619	4.43
339.986	4.51
340.352	4.51
340.718	4.58
341.084	4.7
341.451	4.71
341.817	4.71
342.183	4.73
342.549	4.67
342.915	4.69
343.281	4.81
343.647	4.74
344.013	4.8
344.379	4.74
344.745	4.71
345.11	4.72
345.476	4.69
345.842	4.53
346.208	4.56
346.573	4.56
346.939	4.65
347.304	4.64
347.67	4.52
348.035	4.5
348.401	4.48
348.766	4.37
349.132	4.29
349.497	4.24
349.862	4.2
350.228	4.2
350.593	4.06
350.958	4.06
351.323	4.09
351.688	4.13
352.053	4.11
352.418	4.15
352.783	4.22
353.148	4.36
353.513	4.36
353.878	4.32
354.243	4.16
354.608	4.17
354.972	4.14
355.337	4.27
355.702	4.33
356.066	4.27
356.431	4.25
356.795	4.27
357.16	4.31
357.524	4.34
357.889	4.33
358.253	4.38
358.618	4.37
358.982	4.39
359.346	4.4
359.71	4.46
360.075	4.44
360.439	4.4
360.803	4.36
361.167	4.35
361.531	4.33
361.895	4.37
362.259	4.35
362.623	4.37
362.987	4.27
363.351	4.25
363.714	4.39
364.078	4.34
364.442	4.38
364.806	4.33
365.169	4.32
365.533	4.35
365.896	4.37
366.26	4.3
366.623	4.29
366.987	4.31
367.35	4.33
367.714	4.37
368.077	4.38
368.44	4.45
368.803	4.44
369.167	4.37
369.53	4.41
369.893	4.34
370.256	4.33
370.619	4.34
370.982	4.32
371.345	4.26
371.708	4.3
372.071	4.28
372.434	4.29
372.797	4.3
373.159	4.24
373.522	4.23
373.885	4.28
374.247	4.28
374.61	4.3
374.973	4.26
375.335	4.22
375.698	4.18
376.06	4.16
376.423	4.18
376.785	4.25
377.147	4.23
377.51	4.26
377.872	4.26
378.234	4.26
378.596	4.3
378.958	4.28
379.321	4.21
379.683	4.22
380.045	4.21
380.407	4.2
380.769	4.21
381.13	4.2
381.492	4.18
381.854	4.23
382.216	4.19
382.578	4.16
382.939	4.14
383.301	4.14
383.663	4.11
384.024	4.1
384.386	4.09
384.747	4.05
385.109	4.1
385.47	4.1
385.832	4.06
386.193	4.06
386.554	4.04
386.916	4.12
387.277	4.07
387.638	4.12
387.999	4.1
388.36	4.1
388.721	4.07
389.082	4.1
389.443	4.1
389.804	4.13
390.165	4.15
390.526	4.18
390.887	4.15
391.248	4.19
391.609	4.21
391.969	4.22
392.33	4.28
392.691	4.24
393.051	4.24
393.412	4.25
393.772	4.26
394.133	4.27
394.493	4.23
394.854	4.27
395.214	4.27
395.574	4.25
395.935	4.21
396.295	4.25
396.655	4.27
397.015	4.26
397.376	4.15
397.736	4.13
398.096	4.16
398.456	4.16
398.816	4.11
399.176	4.09
399.535	4.05
399.895	4.02
400.255	4.02
400.615	4.06
400.975	4.03
401.334	4.03
401.694	4.07
402.054	4.11
402.413	4.06
402.773	4.03
403.132	4.03
403.492	4.08
403.851	4.05
404.211	4.05
404.57	4
404.929	4.04
405.288	4.08
405.648	4.04
406.007	4.05
406.366	4.02
406.725	4.03
407.084	4.04
407.443	4.03
407.802	4.05
408.161	4.03
408.52	4.03
408.879	4.03
409.238	4.02
409.596	3.97
409.955	3.98
410.314	4
410.673	4.01
411.031	4
411.39	4.02
411.748	4
412.107	4.01
412.465	4
412.824	3.96
413.182	3.97
413.54	3.95
413.899	3.98
414.257	3.96
414.615	3.95
414.974	3.95
415.332	3.94
415.69	3.95
416.048	3.96
416.406	3.94
416.764	3.95
417.122	3.93
417.48	3.93
417.838	3.91
418.195	3.91
418.553	3.91
418.911	3.88
419.269	3.88
419.626	3.89
419.984	3.89
420.342	3.9
420.699	3.89
421.057	3.89
421.414	3.89
421.772	3.9
422.129	3.89
422.486	3.89
422.844	3.87
423.201	3.86
423.558	3.88
423.915	3.87
424.273	3.86
424.63	3.89
424.987	3.89
425.344	3.89
425.701	3.89
426.058	3.88
426.415	3.89
426.772	3.89
427.128	3.88
427.485	3.88
427.842	3.88
428.199	3.88
428.555	3.89
428.912	3.87
429.269	3.86
429.625	3.88
429.982	3.89
430.338	3.9
430.695	3.88
431.051	3.85
431.407	3.87
431.764	3.86
432.12	3.86
432.476	3.86
432.832	3.89
433.189	3.89
433.545	3.88
433.901	3.88
434.257	3.87
434.613	3.86
434.969	3.84
435.325	3.83
435.681	3.83
436.036	3.83
436.392	3.84
436.748	3.83
437.104	3.83
437.459	3.83
437.815	3.84
438.171	3.86
438.526	3.87
438.882	3.87
439.237	3.85
439.593	3.85
439.948	3.84
440.304	3.82
440.659	3.82
441.014	3.84
441.369	3.86
441.725	3.87
442.08	3.86
442.435	3.89
442.79	3.88
443.145	3.88
443.5	3.88
443.855	3.87
444.21	3.89
444.565	3.89
444.92	3.9
445.275	3.9
445.629	3.88
445.984	3.87
446.339	3.88
446.693	3.89
447.048	3.87
447.403	3.89
447.757	3.89
448.112	3.88
448.466	3.87
448.82	3.85
449.175	3.85
449.529	3.88
449.883	3.86
450.238	3.88
450.592	3.86
450.946	3.87
451.3	3.86
451.654	3.83
452.008	3.83
452.362	3.82
452.716	3.81
453.07	3.84
453.424	3.81
453.778	3.82
454.132	3.81
454.486	3.81
454.839	3.77
455.193	3.8
455.547	3.81
455.9	3.8
456.254	3.82
456.607	3.84
456.961	3.83
457.314	3.84
457.668	3.84
458.021	3.85
458.375	3.83
458.728	3.84
459.081	3.86
459.434	3.86
459.787	3.88
460.141	3.87
460.494	3.86
460.847	3.87
461.2	3.87
461.553	3.87
461.906	3.88
462.259	3.89
462.611	3.88
462.964	3.88
463.317	3.87
463.67	3.85
464.022	3.84
464.375	3.85
464.728	3.86
465.08	3.85
465.433	3.85
465.785	3.88
466.138	3.87
466.49	3.88
466.843	3.9
467.195	3.87
467.547	3.85
467.899	3.86
468.252	3.87
468.604	3.86
468.956	3.89
469.308	3.87
469.66	3.89
470.012	3.88
470.364	3.9
470.716	3.9
471.068	3.89
471.42	3.91
471.772	3.9
472.123	3.89
472.475	3.91
472.827	3.93
473.178	3.94
473.53	3.93
473.882	3.93
474.233	3.93
474.585	3.93
474.936	3.95
475.288	3.94
475.639	3.94
475.99	3.93
476.342	3.93
476.693	3.94
477.044	3.93
477.395	3.93
477.746	3.91
478.097	3.92
478.448	3.94
478.8	3.93
479.15	3.92
479.501	3.92
479.852	3.93
480.203	3.91
480.554	3.91
480.905	3.91
481.255	3.91
481.606	3.92
481.957	3.93
482.307	3.94
482.658	3.95
483.009	3.96
483.359	3.97
483.709	3.97
484.06	3.97
484.41	3.97
484.761	3.97
485.111	3.97
485.461	3.96
485.811	3.96
486.162	3.97
486.512	3.98
486.862	4
487.212	3.99
487.562	4.01
487.912	4.01
488.262	4.01
488.612	4.01
488.961	4.01
489.311	4
489.661	3.99
490.011	3.98
490.36	3.97
490.71	3.98
491.06	3.97
491.409	3.96
491.759	3.97
492.108	3.99
492.458	3.99
492.807	3.99
493.157	4
493.506	4
493.855	3.98
494.204	3.96
494.554	3.98
494.903	3.97
495.252	3.97
495.601	3.98
495.95	3.98
496.299	3.97
496.648	3.98
496.997	4
497.346	4.04
497.695	4.07
498.043	4.1
498.392	4.1
498.741	4.11
499.09	4.11
499.438	4.1
499.787	4.11
500.135	4.14
500.484	4.14
500.832	4.14
501.181	4.15
501.529	4.18
501.878	4.16
502.226	4.13
502.574	4.13
502.923	4.14
503.271	4.13
503.619	4.17
503.967	4.19
504.315	4.16
504.663	4.16
505.011	4.14
505.359	4.13
505.707	4.15
506.055	4.16
506.403	4.17
506.751	4.2
507.098	4.22
507.446	4.23
507.794	4.24
508.141	4.24
508.489	4.26
508.837	4.25
509.184	4.27
509.531	4.31
509.879	4.32
510.226	4.31
510.574	4.36
510.921	4.36
511.268	4.4
511.616	4.41
511.963	4.43
512.31	4.43
512.657	4.43
513.004	4.41
513.351	4.41
513.698	4.41
514.045	4.4
514.392	4.39
514.739	4.39
515.086	4.4
515.432	4.42
515.779	4.43
516.126	4.47
516.473	4.47
516.819	4.49
517.166	4.5
517.512	4.5
517.859	4.5
518.205	4.51
518.552	4.48
518.898	4.49
519.245	4.49
519.591	4.5
519.937	4.51
520.283	4.53
520.629	4.54
520.976	4.55
521.322	4.56
521.668	4.57
522.014	4.56
522.36	4.56
522.706	4.55
523.052	4.56
523.398	4.53
523.743	4.53
524.089	4.52
524.435	4.51
524.781	4.53
525.126	4.52
525.472	4.53
525.817	4.54
526.163	4.54
526.509	4.56
526.854	4.56
527.199	4.57
527.545	4.57
527.89	4.59
528.235	4.61
528.581	4.62
528.926	4.62
529.271	4.62
529.616	4.62
529.961	4.63
530.306	4.65
530.651	4.66
530.996	4.67
531.341	4.68
531.686	4.7
532.031	4.7
532.376	4.72
532.721	4.72
533.065	4.72
533.41	4.74
533.755	4.72
534.099	4.73
534.444	4.73
534.788	4.73
535.133	4.73
535.477	4.71
535.822	4.7
536.166	4.69
536.51	4.68
536.855	4.68
537.199	4.68
537.543	4.67
537.887	4.67
538.231	4.69
538.576	4.68
538.92	4.67
539.264	4.68
539.608	4.67
539.951	4.67
540.295	4.69
540.639	4.7
540.983	4.71
541.327	4.72
541.671	4.74
542.014	4.74
542.358	4.75
542.701	4.77
543.045	4.78
543.389	4.8
543.732	4.8
544.075	4.81
544.419	4.79
544.762	4.79
545.105	4.79
545.449	4.79
545.792	4.79
546.135	4.8
546.478	4.8
546.821	4.81
547.165	4.83
547.508	4.79
547.851	4.78
548.194	4.79
548.536	4.78
548.879	4.76
549.222	4.77
549.565	4.79
549.908	4.76
550.25	4.76
550.593	4.78
550.936	4.8
551.278	4.79
551.621	4.83
551.963	4.85
552.306	4.86
552.648	4.87
552.991	4.87
553.333	4.85
553.675	4.86
554.017	4.84
554.36	4.83
554.702	4.82
555.044	4.82
555.386	4.84
555.728	4.81
556.07	4.8
556.412	4.8
556.754	4.76
557.096	4.76
557.438	4.75
557.78	4.69
558.121	4.68
558.463	4.74
558.805	4.74
559.147	4.75
559.488	4.73
559.83	4.72
560.171	4.73
560.513	4.73
560.854	4.74
561.196	4.75
561.537	4.75
561.878	4.76
562.22	4.79
562.561	4.77
562.902	4.83
563.243	4.84
563.584	4.84
563.925	4.89
564.266	4.9
564.607	4.9
564.948	4.9
565.289	4.93
565.63	4.91
565.971	4.89
566.312	4.87
566.653	4.92
566.993	4.89
567.334	4.86
567.675	4.87
568.015	4.87
568.356	4.9
568.696	4.91
569.037	4.91
569.377	4.89
569.718	4.9
570.058	4.85
570.398	4.86
570.739	4.85
571.079	4.83
571.419	4.82
571.759	4.81
572.099	4.83
572.439	4.81
572.779	4.81
573.119	4.84
573.459	4.84
573.799	4.8
574.139	4.8
574.479	4.85
574.819	4.87
575.158	4.87
575.498	4.87
575.838	4.84
576.177	4.86
576.517	4.86
576.856	4.86
577.196	4.9
577.535	4.9
577.875	4.9
578.214	4.89
578.553	4.92
578.893	4.95
579.232	4.91
579.571	4.96
579.91	4.93
580.25	4.94
580.589	4.92
580.928	4.92
581.267	4.94
581.606	4.94
581.945	4.94
582.283	4.92
582.622	4.87
582.961	4.88
583.3	4.85
583.639	4.85
583.977	4.85
584.316	4.82
584.654	4.82
584.993	4.84
585.332	4.83
585.67	4.86
586.008	4.85
586.347	4.93
586.685	4.9
587.024	4.95
587.362	4.91
587.7	4.97
588.038	5
588.376	4.99
588.715	5.02
589.053	5.02
589.391	5.02
589.729	5.07
590.067	5.1
590.404	5.11
590.742	5.14
591.08	5.18
591.418	5.16
591.756	5.19
592.093	5.19
592.431	5.24
592.769	5.22
593.106	5.22
593.444	5.19
593.781	5.19
594.119	5.16
594.456	5.15
594.793	5.14
595.131	5.15
595.468	5.17
595.805	5.17
596.143	5.17
596.48	5.17
596.817	5.16
597.154	5.16
597.491	5.19
597.828	5.2
598.165	5.2
598.502	5.21
598.839	5.17
599.176	5.2
599.512	5.12
599.849	5.12
600.186	5.06
600.523	5.09
600.859	5.1
601.196	5.11
601.532	5.14
601.869	5.13
602.205	5.12
602.542	5.11
602.878	5.09
603.215	5.08
603.551	5.11
603.887	5.14
604.223	5.12
604.56	5.11
604.896	5.09
605.232	5.05
605.568	5.07
605.904	5.04
606.24	5.01
606.576	5.05
606.912	5.05
607.248	5.09
607.583	5.05
607.919	5.05
608.255	5.09
608.591	5.11
608.926	5.08
609.262	5.05
609.597	5.09
609.933	5.08
610.268	5.11
610.604	5.06
610.939	5.07
611.275	5.11
611.61	5.09
611.945	5.09
612.281	5.12
612.616	5.14
612.951	5.22
613.286	5.25
613.621	5.25
613.956	5.29
614.291	5.28
614.626	5.3
614.961	5.3
615.296	5.26
615.631	5.25
615.966	5.31
616.3	5.41
616.635	5.36
616.97	5.34
617.304	5.31
617.639	5.37
617.973	5.32
618.308	5.32
618.642	5.36
618.977	5.33
619.311	5.34
619.646	5.31
619.98	5.3
620.314	5.19
620.648	5.22
620.983	5.23
621.317	5.28
621.651	5.34
621.985	5.28
622.319	5.32
622.653	5.32
622.987	5.31
623.321	5.2
623.655	5.22
623.988	5.26
624.322	5.28
624.656	5.32
624.99	5.32
625.323	5.32
625.657	5.34
625.99	5.38
626.324	5.34
626.657	5.32
626.991	5.32
627.324	5.39
627.658	5.4
627.991	5.36
628.324	5.33
628.657	5.28
628.991	5.37
629.324	5.33
629.657	5.33
629.99	5.36
630.323	5.39
630.656	5.41
630.989	5.4
631.322	5.34
631.655	5.31
631.987	5.34
632.32	5.32
632.653	5.28
632.986	5.21
633.318	5.25
633.651	5.36
633.984	5.44
634.316	5.42
634.649	5.43
634.981	5.5
635.313	5.53
635.646	5.56
635.978	5.49
636.31	5.5
636.643	5.51
636.975	5.5
637.307	5.52
637.639	5.5
637.971	5.46
638.303	5.52
638.635	5.51
638.967	5.52
639.299	5.53
639.631	5.54
639.963	5.53
640.295	5.56
640.626	5.45
640.958	5.33
641.29	5.38
641.621	5.32
641.953	5.18
642.285	5.11
642.616	5.13
642.948	5.18
643.279	5.2
643.61	5.17
643.942	5.13
644.273	5.21
644.604	5.24
644.936	5.26
645.267	5.24
645.598	5.2
645.929	5.08
646.26	5.09
646.591	5.1
646.922	5.18
647.253	5.12
647.584	5.16
647.915	5.26
648.245	5.24
648.576	5.2
648.907	5.23
649.238	5.28
649.568	5.23
649.899	5.21
650.229	5.27
650.56	5.29
650.89	5.29
651.221	5.27
651.551	5.22
651.882	5.21
652.212	5.23
652.542	5.3
652.872	5.46
653.203	5.5
653.533	5.48
653.863	5.5
654.193	5.5
654.523	5.45
654.853	5.5
655.183	5.56
655.513	5.59
655.843	5.58
656.172	5.58
656.502	5.51
656.832	5.51
657.162	5.43
657.491	5.46
657.821	5.46
658.15	5.47
658.48	5.51
658.809	5.56
659.139	5.6
659.468	5.56
659.798	5.51
660.127	5.53
660.456	5.52
660.785	5.46
661.115	5.47
661.444	5.52
661.773	5.44
662.102	5.4
662.431	5.48
662.76	5.53
663.089	5.6
663.418	5.66
663.747	5.72
664.076	5.76
664.404	5.73
664.733	5.76
665.062	5.79
665.39	5.74
665.719	5.7
666.048	5.56
666.376	5.59
666.705	5.62
667.033	5.54
667.362	5.65
667.69	5.77
668.018	5.83
668.347	5.82
668.675	5.74
669.003	5.8
669.331	5.82
669.659	5.88
669.987	5.8
670.315	5.9
670.643	5.79
670.971	5.82
671.299	5.8
671.627	5.86
671.955	5.67
672.283	5.68
672.61	5.68
672.938	5.78
673.266	5.79
673.593	5.78
673.921	5.85
674.249	5.77
674.576	5.82
674.904	5.78
675.231	5.82
675.558	5.91
675.886	5.95
676.213	5.91
676.54	5.99
676.867	6.02
677.195	5.95
677.522	6
677.849	6.01
