Data from BA56852_Reflection_00011.txt Node
Date: Mon Nov 18 15:23:13 EST 2019
User: vgr7
Spectrometer: USB2G7710
Scans to average: 3
Trigger mode: 4
Integration Time (sec): 2.000000E-2
Electric dark correction enabled: true
Boxcar width: 10
XAxis mode: Wavelengths
Number of Pixels in Spectrum: 2048
>>>>>Begin Spectral Data<<<<<
177.721	13.03
178.105	-65.9
178.488	-199.67
178.871	-174.09
179.254	-83.89
179.636	66.19
180.019	-568.25
180.402	48.39
180.785	351.23
181.168	123.96
181.55	155.65
181.933	114.96
182.316	117.07
182.698	83.54
183.081	101.13
183.463	117.16
183.846	115.37
184.228	121.8
184.611	172.39
184.993	142.4
185.376	96.29
185.758	113.56
186.14	96.38
186.522	106
186.904	101.05
187.287	98.94
187.669	68.94
188.051	89.6
188.433	70.15
188.815	61.75
189.197	84.81
189.579	67.05
189.961	61.16
190.342	78.95
190.724	188.31
191.106	191.66
191.488	180.76
191.869	149.01
192.251	220.58
192.633	168.59
193.014	225.13
193.396	391.38
193.777	148.11
194.159	215.7
194.54	194.61
194.922	-7636.84
195.303	-1413.76
195.684	-246.38
196.065	-78.81
196.447	-64.51
196.828	-103.01
197.209	-33.95
197.59	-90.43
197.971	-72.36
198.352	-44.65
198.733	-1.17
199.114	14.44
199.495	23.97
199.876	3.92
200.257	-4.87
200.638	-7.64
201.018	-18.94
201.399	-19.06
201.78	-22.67
202.16	-35.71
202.541	-62.85
202.922	-96.61
203.302	-116.85
203.683	-175.77
204.063	-235.05
204.444	-216.81
204.824	-210.45
205.204	-167.83
205.585	-117.73
205.965	-113.49
206.345	-149.89
206.725	-238.8
207.106	-364.87
207.486	-250.38
207.866	-222.56
208.246	-181.77
208.626	-199.68
209.006	-69.72
209.386	-96.04
209.766	-229.38
210.145	147.45
210.525	221.39
210.905	-810.11
211.285	91.13
211.664	73.81
212.044	60.91
212.424	122.95
212.803	118.89
213.183	86.07
213.562	136.2
213.942	488.09
214.321	255.95
214.701	198.33
215.08	158.06
215.459	156.6
215.838	301.96
216.218	273.48
216.597	131.54
216.976	78.02
217.355	45.01
217.734	41.78
218.113	49.21
218.492	40.3
218.871	5.78
219.25	-15.22
219.629	-9.71
220.008	-20.68
220.387	-32.52
220.766	-15.89
221.144	-18.59
221.523	-12.72
221.902	-28.99
222.28	-36.03
222.659	-38.79
223.037	-41.65
223.416	-42.92
223.794	-38.04
224.173	-36.1
224.551	-29.03
224.929	-25.34
225.308	-13.1
225.686	-5.84
226.064	-3.54
226.442	-3.2
226.821	4.74
227.199	10.3
227.577	10.72
227.955	14.11
228.333	11.28
228.711	10.01
229.089	13.17
229.467	9.19
229.845	12.77
230.222	10.51
230.6	9.71
230.978	8.35
231.356	7.94
231.733	7.8
232.111	9.55
232.488	6.49
232.866	4.68
233.243	6.28
233.621	5.1
233.998	5.4
234.376	7.32
234.753	6.15
235.13	5.35
235.508	4.11
235.885	1.25
236.262	1.44
236.639	1.94
237.016	0.16
237.393	1.5
237.77	1.48
238.147	1.51
238.524	1.19
238.901	1.88
239.278	2.79
239.655	3.41
240.032	3.19
240.409	3.26
240.785	3.61
241.162	2.58
241.539	2.41
241.915	2.32
242.292	2.25
242.668	2.21
243.045	2.48
243.421	2.61
243.798	2.91
244.174	2.79
244.551	2.76
244.927	2.96
245.303	3.32
245.679	3.31
246.056	3.6
246.432	3.75
246.808	3.92
247.184	3.54
247.56	3.33
247.936	3.37
248.312	3.55
248.688	3.69
249.064	3.61
249.44	3.78
249.815	3.84
250.191	3.84
250.567	3.84
250.943	3.89
251.318	4.06
251.694	4.01
252.069	4.34
252.445	4.4
252.82	4.35
253.196	3.99
253.571	3.74
253.947	3.48
254.322	3.79
254.697	3.84
255.073	3.85
255.448	3.72
255.823	3.62
256.198	3.48
256.573	3.52
256.948	3.86
257.323	3.83
257.698	3.75
258.073	3.63
258.448	3.77
258.823	3.58
259.198	3.43
259.573	3.58
259.948	3.51
260.322	3.68
260.697	3.64
261.072	3.63
261.446	3.72
261.821	3.78
262.195	3.76
262.57	3.68
262.944	3.83
263.319	3.9
263.693	3.8
264.067	3.76
264.442	3.9
264.816	3.66
265.19	3.66
265.564	3.69
265.938	3.8
266.313	3.63
266.687	3.81
267.061	4.03
267.435	3.91
267.809	3.87
268.183	3.64
268.556	3.72
268.93	3.86
269.304	3.96
269.678	3.96
270.051	3.71
270.425	3.69
270.799	3.6
271.172	3.73
271.546	3.92
271.919	3.97
272.293	3.75
272.666	3.87
273.04	3.91
273.413	3.88
273.787	3.83
274.16	3.88
274.533	3.7
274.906	3.51
275.279	3.53
275.653	3.45
276.026	3.41
276.399	3.31
276.772	3.43
277.145	3.17
277.518	3.1
277.891	3.21
278.263	3.24
278.636	3.39
279.009	3.23
279.382	3.23
279.755	3.26
280.127	3.24
280.5	3.17
280.872	3.12
281.245	3.07
281.617	3.09
281.99	3.23
282.362	3.27
282.735	3.19
283.107	3.17
283.479	3.12
283.852	3.24
284.224	3.29
284.596	3.12
284.968	3.23
285.34	3.25
285.713	3.21
286.085	3.19
286.457	3.17
286.829	3.29
287.201	3.34
287.572	3.31
287.944	3.16
288.316	3.31
288.688	3.27
289.06	3.19
289.431	3.15
289.803	3.09
290.175	3.08
290.546	3.24
290.918	3.17
291.289	3.36
291.661	3.35
292.032	3.39
292.403	3.37
292.775	3.48
293.146	3.65
293.517	3.82
293.889	3.9
294.26	3.84
294.631	3.81
295.002	3.7
295.373	3.68
295.744	3.92
296.115	3.8
296.486	3.72
296.857	3.84
297.228	3.94
297.599	3.82
297.97	3.98
298.34	4.07
298.711	4.27
299.082	4.24
299.452	4.21
299.823	4.34
300.194	4.53
300.564	4.5
300.935	4.4
301.305	4.32
301.676	4.27
302.046	4.41
302.416	4.49
302.787	4.46
303.157	4.56
303.527	4.56
303.897	4.67
304.267	4.98
304.637	5.09
305.008	5.11
305.378	5.39
305.748	5.38
306.117	5.35
306.487	5.32
306.857	5.39
307.227	5.48
307.597	5.38
307.967	5.41
308.336	5.52
308.706	5.62
309.076	5.77
309.445	5.74
309.815	5.77
310.184	5.75
310.554	5.88
310.923	5.94
311.293	5.88
311.662	5.87
312.031	5.85
312.401	5.97
312.77	6.14
313.139	6.19
313.508	6.3
313.877	6.39
314.246	6.4
314.616	6.36
314.985	6.44
315.353	6.65
315.722	6.66
316.091	6.75
316.46	6.73
316.829	6.79
317.198	7.12
317.567	7.16
317.935	7.28
318.304	7.59
318.672	7.67
319.041	7.89
319.41	8.15
319.778	8.31
320.147	8.19
320.515	8.12
320.883	8.12
321.252	8.22
321.62	8.34
321.988	8.62
322.357	8.76
322.725	8.82
323.093	8.94
323.461	9.05
323.829	9.08
324.197	9.29
324.565	9.5
324.933	9.28
325.301	9.4
325.669	9.46
326.037	9.43
326.405	9.62
326.772	9.86
327.14	9.87
327.508	9.86
327.875	9.88
328.243	10.24
328.61	10.31
328.978	10.28
329.346	10.26
329.713	10.14
330.08	10.35
330.448	10.35
330.815	10.32
331.182	10.49
331.55	10.55
331.917	10.72
332.284	10.65
332.651	10.93
333.018	11.02
333.385	11.02
333.752	11.09
334.119	11.09
334.486	11.04
334.853	11.1
335.22	11.15
335.587	11.39
335.954	11.26
336.32	11.28
336.687	11.36
337.054	11.55
337.42	11.72
337.787	11.72
338.153	11.91
338.52	12.02
338.886	11.94
339.253	11.95
339.619	11.79
339.986	11.82
340.352	11.98
340.718	11.84
341.084	11.9
341.451	11.96
341.817	12.01
342.183	11.92
342.549	12.03
342.915	12.18
343.281	12.29
343.647	12.4
344.013	12.5
344.379	12.52
344.745	12.46
345.11	12.53
345.476	12.64
345.842	12.54
346.208	12.59
346.573	12.68
346.939	12.75
347.304	12.82
347.67	12.81
348.035	12.75
348.401	12.91
348.766	13.01
349.132	13.1
349.497	13.14
349.862	13.35
350.228	13.32
350.593	13.3
350.958	13.22
351.323	13.16
351.688	13.14
352.053	13.16
352.418	13.17
352.783	13.15
353.148	13.06
353.513	13.16
353.878	13.13
354.243	13.21
354.608	13.2
354.972	13.24
355.337	13.29
355.702	13.3
356.066	13.31
356.431	13.28
356.795	13.18
357.16	13.03
357.524	12.89
357.889	12.89
358.253	12.9
358.618	12.96
358.982	12.97
359.346	12.94
359.71	12.92
360.075	12.92
360.439	12.86
360.803	12.83
361.167	12.77
361.531	12.73
361.895	12.61
362.259	12.59
362.623	12.54
362.987	12.46
363.351	12.39
363.714	12.36
364.078	12.25
364.442	12.21
364.806	12.26
365.169	12.27
365.533	12.18
365.896	12.06
366.26	11.92
366.623	11.82
366.987	11.77
367.35	11.65
367.714	11.55
368.077	11.54
368.44	11.44
368.803	11.41
369.167	11.27
369.53	11.16
369.893	11.12
370.256	11
370.619	10.95
370.982	10.88
371.345	10.77
371.708	10.77
372.071	10.64
372.434	10.52
372.797	10.42
373.159	10.29
373.522	10.26
373.885	10.17
374.247	10.1
374.61	10.08
374.973	10.02
375.335	9.91
375.698	9.8
376.06	9.8
376.423	9.65
376.785	9.62
377.147	9.58
377.51	9.48
377.872	9.46
378.234	9.45
378.596	9.35
378.958	9.27
379.321	9.17
379.683	9.13
380.045	9.09
380.407	8.93
380.769	8.91
381.13	8.75
381.492	8.68
381.854	8.58
382.216	8.45
382.578	8.37
382.939	8.29
383.301	8.22
383.663	8.08
384.024	8.02
384.386	7.98
384.747	7.92
385.109	7.87
385.47	7.71
385.832	7.57
386.193	7.49
386.554	7.4
386.916	7.36
387.277	7.26
387.638	7.18
387.999	7.12
388.36	7.06
388.721	7.05
389.082	6.99
389.443	6.91
389.804	6.82
390.165	6.78
390.526	6.74
390.887	6.65
391.248	6.58
391.609	6.54
391.969	6.46
392.33	6.39
392.691	6.28
393.051	6.27
393.412	6.21
393.772	6.15
394.133	6.1
394.493	6.03
394.854	5.99
395.214	5.9
395.574	5.88
395.935	5.79
396.295	5.75
396.655	5.7
397.015	5.63
397.376	5.59
397.736	5.51
398.096	5.48
398.456	5.42
398.816	5.43
399.176	5.34
399.535	5.26
399.895	5.21
400.255	5.16
400.615	5.09
400.975	5.06
401.334	5.01
401.694	4.99
402.054	4.93
402.413	4.93
402.773	4.89
403.132	4.84
403.492	4.84
403.851	4.78
404.211	4.75
404.57	4.74
404.929	4.76
405.288	4.69
405.648	4.67
406.007	4.64
406.366	4.55
406.725	4.56
407.084	4.5
407.443	4.49
407.802	4.52
408.161	4.51
408.52	4.46
408.879	4.46
409.238	4.41
409.596	4.41
409.955	4.37
410.314	4.36
410.673	4.33
411.031	4.31
411.39	4.26
411.748	4.25
412.107	4.23
412.465	4.17
412.824	4.17
413.182	4.1
413.54	4.09
413.899	4.1
414.257	4.06
414.615	4.05
414.974	4.03
415.332	3.98
415.69	3.97
416.048	3.97
416.406	3.94
416.764	3.93
417.122	3.9
417.48	3.87
417.838	3.84
418.195	3.81
418.553	3.79
418.911	3.76
419.269	3.74
419.626	3.71
419.984	3.69
420.342	3.69
420.699	3.69
421.057	3.68
421.414	3.65
421.772	3.64
422.129	3.63
422.486	3.61
422.844	3.6
423.201	3.57
423.558	3.55
423.915	3.53
424.273	3.51
424.63	3.49
424.987	3.49
425.344	3.48
425.701	3.46
426.058	3.44
426.415	3.45
426.772	3.43
427.128	3.43
427.485	3.42
427.842	3.38
428.199	3.35
428.555	3.32
428.912	3.32
429.269	3.31
429.625	3.3
429.982	3.29
430.338	3.27
430.695	3.27
431.051	3.28
431.407	3.28
431.764	3.28
432.12	3.28
432.476	3.27
432.832	3.26
433.189	3.28
433.545	3.26
433.901	3.26
434.257	3.25
434.613	3.28
434.969	3.28
435.325	3.27
435.681	3.3
436.036	3.31
436.392	3.32
436.748	3.32
437.104	3.3
437.459	3.29
437.815	3.3
438.171	3.31
438.526	3.32
438.882	3.31
439.237	3.31
439.593	3.31
439.948	3.31
440.304	3.31
440.659	3.31
441.014	3.32
441.369	3.32
441.725	3.3
442.08	3.28
442.435	3.28
442.79	3.29
443.145	3.26
443.5	3.25
443.855	3.24
444.21	3.23
444.565	3.24
444.92	3.24
445.275	3.22
445.629	3.22
445.984	3.19
446.339	3.17
446.693	3.14
447.048	3.12
447.403	3.11
447.757	3.1
448.112	3.07
448.466	3.06
448.82	3.05
449.175	3.06
449.529	3.05
449.883	3.02
450.238	3.01
450.592	3.02
450.946	3
451.3	3
451.654	3
452.008	2.99
452.362	2.97
452.716	2.96
453.07	2.94
453.424	2.94
453.778	2.93
454.132	2.94
454.486	2.94
454.839	2.94
455.193	2.94
455.547	2.95
455.9	2.94
456.254	2.94
456.607	2.93
456.961	2.95
457.314	2.95
457.668	2.95
458.021	2.93
458.375	2.94
458.728	2.93
459.081	2.93
459.434	2.93
459.787	2.93
460.141	2.93
460.494	2.95
460.847	2.95
461.2	2.95
461.553	2.98
461.906	2.99
462.259	2.99
462.611	3
462.964	3.02
463.317	3.03
463.67	3.03
464.022	3.03
464.375	3.02
464.728	3.04
465.08	3.04
465.433	3.08
465.785	3.08
466.138	3.08
466.49	3.1
466.843	3.11
467.195	3.13
467.547	3.16
467.899	3.14
468.252	3.17
468.604	3.19
468.956	3.18
469.308	3.17
469.66	3.18
470.012	3.19
470.364	3.17
470.716	3.18
471.068	3.21
471.42	3.23
471.772	3.26
472.123	3.26
472.475	3.28
472.827	3.27
473.178	3.28
473.53	3.3
473.882	3.31
474.233	3.31
474.585	3.3
474.936	3.29
475.288	3.32
475.639	3.31
475.99	3.3
476.342	3.3
476.693	3.3
477.044	3.31
477.395	3.32
477.746	3.32
478.097	3.31
478.448	3.3
478.8	3.28
479.15	3.26
479.501	3.24
479.852	3.22
480.203	3.22
480.554	3.21
480.905	3.21
481.255	3.2
481.606	3.2
481.957	3.22
482.307	3.22
482.658	3.22
483.009	3.23
483.359	3.23
483.709	3.25
484.06	3.25
484.41	3.25
484.761	3.25
485.111	3.26
485.461	3.25
485.811	3.26
486.162	3.27
486.512	3.28
486.862	3.28
487.212	3.28
487.562	3.3
487.912	3.3
488.262	3.3
488.612	3.32
488.961	3.33
489.311	3.33
489.661	3.35
490.011	3.35
490.36	3.33
490.71	3.34
491.06	3.34
491.409	3.35
491.759	3.35
492.108	3.35
492.458	3.35
492.807	3.36
493.157	3.36
493.506	3.37
493.855	3.39
494.204	3.42
494.554	3.43
494.903	3.45
495.252	3.47
495.601	3.49
495.95	3.5
496.299	3.51
496.648	3.51
496.997	3.51
497.346	3.55
497.695	3.6
498.043	3.62
498.392	3.64
498.741	3.65
499.09	3.68
499.438	3.72
499.787	3.76
500.135	3.78
500.484	3.84
500.832	3.87
501.181	3.92
501.529	3.95
501.878	4
502.226	4.05
502.574	4.1
502.923	4.13
503.271	4.19
503.619	4.26
503.967	4.34
504.315	4.38
504.663	4.43
505.011	4.5
505.359	4.55
505.707	4.64
506.055	4.69
506.403	4.8
506.751	4.88
507.098	4.96
507.446	5.05
507.794	5.11
508.141	5.19
508.489	5.27
508.837	5.37
509.184	5.47
509.531	5.56
509.879	5.64
510.226	5.75
510.574	5.85
510.921	5.95
511.268	6.05
511.616	6.21
511.963	6.34
512.31	6.44
512.657	6.57
513.004	6.7
513.351	6.87
513.698	7
514.045	7.15
514.392	7.32
514.739	7.49
515.086	7.67
515.432	7.85
515.779	8.01
516.126	8.18
516.473	8.35
516.819	8.53
517.166	8.72
517.512	8.9
517.859	9.05
518.205	9.22
518.552	9.39
518.898	9.53
519.245	9.67
519.591	9.85
519.937	10.03
520.283	10.25
520.629	10.47
520.976	10.71
521.322	10.96
521.668	11.21
522.014	11.48
522.36	11.75
522.706	12.03
523.052	12.37
523.398	12.74
523.743	13.09
524.089	13.44
524.435	13.79
524.781	14.13
525.126	14.42
525.472	14.72
525.817	14.99
526.163	15.26
526.509	15.53
526.854	15.78
527.199	16.03
527.545	16.25
527.89	16.47
528.235	16.69
528.581	16.92
528.926	17.15
529.271	17.4
529.616	17.64
529.961	17.92
530.306	18.18
530.651	18.42
530.996	18.69
531.341	18.97
531.686	19.27
532.031	19.57
532.376	19.91
532.721	20.24
533.065	20.58
533.41	20.92
533.755	21.3
534.099	21.69
534.444	22.03
534.788	22.38
535.133	22.75
535.477	23.14
535.822	23.53
536.166	23.95
536.51	24.4
536.855	24.84
537.199	25.26
537.543	25.74
537.887	26.21
538.231	26.7
538.576	27.2
538.92	27.66
539.264	28.1
539.608	28.49
539.951	28.87
540.295	29.24
540.639	29.61
540.983	29.92
541.327	30.23
541.671	30.58
542.014	30.9
542.358	31.22
542.701	31.55
543.045	31.84
543.389	32.16
543.732	32.48
544.075	32.81
544.419	33.13
544.762	33.42
545.105	33.78
545.449	34.1
545.792	34.43
546.135	34.76
546.478	35.14
546.821	35.56
547.165	36.01
547.508	36.43
547.851	36.84
548.194	37.26
548.536	37.68
548.879	38.07
549.222	38.47
549.565	38.83
549.908	39.18
550.25	39.58
550.593	39.93
550.936	40.25
551.278	40.64
551.621	41.01
551.963	41.38
552.306	41.73
552.648	42.12
552.991	42.51
553.333	42.92
553.675	43.23
554.017	43.53
554.36	43.71
554.702	43.98
555.044	44.24
555.386	44.57
555.728	44.9
556.07	45.22
556.412	45.4
556.754	45.72
557.096	46
557.438	46.34
557.78	46.56
558.121	46.92
558.463	47.22
558.805	47.55
559.147	47.86
559.488	48.14
559.83	48.39
560.171	48.59
560.513	48.83
560.854	49.05
561.196	49.3
561.537	49.66
561.878	49.93
562.22	50.21
562.561	50.39
562.902	50.53
563.243	50.69
563.584	50.97
563.925	51.15
564.266	51.39
564.607	51.59
564.948	51.81
565.289	51.92
565.63	52.1
565.971	52.25
566.312	52.4
566.653	52.6
566.993	52.76
567.334	52.95
567.675	53.08
568.015	53.27
568.356	53.4
568.696	53.52
569.037	53.66
569.377	53.76
569.718	53.95
570.058	54.15
570.398	54.33
570.739	54.51
571.079	54.66
571.419	54.84
571.759	54.95
572.099	55.1
572.439	55.23
572.779	55.33
573.119	55.44
573.459	55.54
573.799	55.67
574.139	55.8
574.479	55.91
574.819	56.05
575.158	56.17
575.498	56.34
575.838	56.47
576.177	56.6
576.517	56.72
576.856	56.86
577.196	56.99
577.535	57.17
577.875	57.3
578.214	57.5
578.553	57.62
578.893	57.73
579.232	57.92
579.571	58.05
579.91	58.14
580.25	58.31
580.589	58.49
580.928	58.52
581.267	58.63
581.606	58.73
581.945	58.86
582.283	59.02
582.622	59.16
582.961	59.22
583.3	59.33
583.639	59.46
583.977	59.43
584.316	59.47
584.654	59.55
584.993	59.57
585.332	59.56
585.67	59.59
586.008	59.74
586.347	59.77
586.685	59.79
587.024	59.96
587.362	60.06
587.7	60.09
588.038	60.15
588.376	60.27
588.715	60.38
589.053	60.43
589.391	60.54
589.729	60.61
590.067	60.71
590.404	60.81
590.742	60.88
591.08	61.07
591.418	61.23
591.756	61.33
592.093	61.48
592.431	61.59
592.769	61.69
593.106	61.72
593.444	61.74
593.781	61.88
594.119	61.88
594.456	61.95
594.793	62.05
595.131	62.15
595.468	62.15
595.805	62.16
596.143	62.17
596.48	62.2
596.817	62.25
597.154	62.3
597.491	62.36
597.828	62.43
598.165	62.47
598.502	62.41
598.839	62.48
599.176	62.47
599.512	62.47
599.849	62.49
600.186	62.55
600.523	62.62
600.859	62.61
601.196	62.67
601.532	62.59
601.869	62.63
602.205	62.66
602.542	62.74
602.878	62.78
603.215	62.87
603.551	62.85
603.887	62.85
604.223	62.9
604.56	62.84
604.896	62.86
605.232	62.86
605.568	62.96
605.904	62.91
606.24	62.99
606.576	63.01
606.912	63.04
607.248	63.11
607.583	63.15
607.919	63.18
608.255	63.28
608.591	63.37
608.926	63.42
609.262	63.44
609.597	63.45
609.933	63.48
610.268	63.49
610.604	63.55
610.939	63.54
611.275	63.6
611.61	63.69
611.945	63.76
612.281	63.78
612.616	63.77
612.951	63.83
613.286	63.85
613.621	63.95
613.956	63.95
614.291	63.91
614.626	64.05
614.961	64.23
615.296	64.21
615.631	64.34
615.966	64.33
616.3	64.46
616.635	64.53
616.97	64.71
617.304	64.76
617.639	64.78
617.973	64.94
618.308	64.97
618.642	65.14
618.977	65.14
619.311	65.22
619.646	65.29
619.98	65.26
620.314	65.29
620.648	65.31
620.983	65.33
621.317	65.37
621.651	65.36
621.985	65.21
622.319	65.17
622.653	65.16
622.987	65.06
623.321	65.08
623.655	65.08
623.988	65.03
624.322	65
624.656	65
624.99	64.96
625.323	64.98
625.657	64.91
625.99	64.95
626.324	64.96
626.657	64.93
626.991	65.03
627.324	65
627.658	65.03
627.991	65.13
628.324	65.23
628.657	65.18
628.991	65.32
629.324	65.35
629.657	65.38
629.99	65.51
630.323	65.46
630.656	65.54
630.989	65.55
631.322	65.65
631.655	65.75
631.987	65.8
632.32	65.9
632.653	65.91
632.986	65.94
633.318	65.96
633.651	65.94
633.984	66.08
634.316	66.29
634.649	66.27
634.981	66.28
635.313	66.26
635.646	66.36
635.978	66.35
636.31	66.5
636.643	66.58
636.975	66.63
637.307	66.74
637.639	66.68
637.971	66.69
638.303	66.68
638.635	66.6
638.967	66.57
639.299	66.46
639.631	66.49
639.963	66.47
640.295	66.45
640.626	66.56
640.958	66.52
641.29	66.36
641.621	66.49
641.953	66.44
642.285	66.42
642.616	66.46
642.948	66.42
643.279	66.34
643.61	66.4
643.942	66.36
644.273	66.25
644.604	66.41
644.936	66.48
645.267	66.5
645.598	66.5
645.929	66.55
646.26	66.66
646.591	66.7
646.922	66.82
647.253	66.86
647.584	66.89
647.915	66.82
648.245	66.83
648.576	66.77
648.907	66.84
649.238	66.85
649.568	66.77
649.899	66.75
650.229	66.86
650.56	66.81
650.89	66.88
651.221	67
651.551	66.87
651.882	66.86
652.212	66.85
652.542	67.06
652.872	67.04
653.203	66.91
653.533	66.86
653.863	66.91
654.193	66.95
654.523	66.98
654.853	67.12
655.183	67.17
655.513	67.31
655.843	67.32
656.172	67.49
656.502	67.55
656.832	67.67
657.162	67.69
657.491	67.69
657.821	67.75
658.15	67.76
658.48	67.82
658.809	67.74
659.139	67.82
659.468	67.72
659.798	67.73
660.127	67.83
660.456	67.81
660.785	67.73
661.115	67.73
661.444	67.85
661.773	67.77
662.102	67.77
662.431	67.64
662.76	67.68
663.089	67.61
663.418	67.62
663.747	67.65
664.076	67.55
664.404	67.57
