Data from BA56814_Reflection_00007.txt Node
Date: Mon Nov 18 15:40:32 EST 2019
User: vgr7
Spectrometer: USB2G7710
Scans to average: 3
Trigger mode: 4
Integration Time (sec): 2.000000E-2
Electric dark correction enabled: true
Boxcar width: 10
XAxis mode: Wavelengths
Number of Pixels in Spectrum: 2048
>>>>>Begin Spectral Data<<<<<
177.721	-113.45
178.105	-1.88
178.488	53.91
178.871	25.3
179.254	97.59
179.636	42.73
180.019	27.53
180.402	148.28
180.785	-1026.21
181.168	-69.2
181.55	-50.13
181.933	63.93
182.316	119.11
182.698	132.32
183.081	68.12
183.463	82.65
183.846	149.28
184.228	129.87
184.611	83.02
184.993	145.59
185.376	137.59
185.758	171.49
186.14	130.38
186.522	148.93
186.904	117.96
187.287	150.02
187.669	168.85
188.051	133.98
188.433	172.22
188.815	243.86
189.197	228.72
189.579	192.83
189.961	219.43
190.342	123.63
190.724	98.93
191.106	142.03
191.488	124.34
191.869	130.72
192.251	113.17
192.633	123.57
193.014	140.46
193.396	179.49
193.777	323.29
194.159	527.48
194.54	1068.2
194.922	5083.61
195.303	819.03
195.684	2283.49
196.065	-192.73
196.447	-124.04
196.828	-530.23
197.209	-299.27
197.59	-156.73
197.971	-127.19
198.352	-94.76
198.733	-69.45
199.114	-39.12
199.495	-35.53
199.876	-34.68
200.257	-1.87
200.638	25.9
201.018	24.6
201.399	37.53
201.78	62.68
202.16	43.02
202.541	5.64
202.922	-19.63
203.302	-80.23
203.683	-54.19
204.063	-285.07
204.444	-483.55
204.824	-203.49
205.204	-207.05
205.585	-183.49
205.965	-229.95
206.345	-344.18
206.725	-563.92
207.106	-1933.52
207.486	498.04
207.866	-12334.78
208.246	-482.74
208.626	-585.54
209.006	-334.22
209.386	-306.99
209.766	-261.02
210.145	-245.17
210.525	-147.34
210.905	-120.18
211.285	-101.53
211.664	-65.78
212.044	-47.57
212.424	-43.05
212.803	-40.6
213.183	-18.46
213.562	-7.3
213.942	1.49
214.321	2.75
214.701	-0.11
215.08	4.43
215.459	2.96
215.838	-0.47
216.218	-6.52
216.597	-5.56
216.976	-15.56
217.355	-8.83
217.734	-1.63
218.113	-0.89
218.492	1.84
218.871	-6.46
219.25	-12.22
219.629	-28.45
220.008	-35.98
220.387	-32.78
220.766	-45.27
221.144	-92.24
221.523	-147.86
221.902	-135.15
222.28	-100.19
222.659	-93.99
223.037	-85.91
223.416	-80.9
223.794	-67.27
224.173	-63.15
224.551	-50.84
224.929	-45.54
225.308	-33.85
225.686	-27.72
226.064	-24.35
226.442	-20.96
226.821	-6.66
227.199	-2.93
227.577	-0.62
227.955	0.74
228.333	0.54
228.711	5.39
229.089	8.01
229.467	5.05
229.845	4.64
230.222	3.44
230.6	0.07
230.978	1.99
231.356	2.46
231.733	1.67
232.111	2.64
232.488	2.61
232.866	2.64
233.243	2.15
233.621	1.74
233.998	1.04
234.376	0.91
234.753	-0.84
235.13	-0.79
235.508	-1.09
235.885	-2.22
236.262	-3.19
236.639	-4.51
237.016	-4.38
237.393	-1.68
237.77	-1.36
238.147	-0.1
238.524	0.28
238.901	0.46
239.278	0.03
239.655	1.21
240.032	2.08
240.409	1.57
240.785	1.93
241.162	2.5
241.539	2.55
241.915	2.73
242.292	2.27
242.668	2.73
243.045	3.11
243.421	3.33
243.798	3.47
244.174	3.51
244.551	3.67
244.927	3.65
245.303	3.92
245.679	4.08
246.056	4.14
246.432	4.11
246.808	3.96
247.184	4.06
247.56	3.79
247.936	3.39
248.312	3.29
248.688	3.39
249.064	3.16
249.44	3.36
249.815	3.27
250.191	3.52
250.567	3.32
250.943	3.04
251.318	3.11
251.694	3.39
252.069	3.44
252.445	3.56
252.82	3.55
253.196	3.18
253.571	2.92
253.947	2.7
254.322	2.91
254.697	2.86
255.073	2.74
255.448	2.72
255.823	2.81
256.198	3.19
256.573	3.09
256.948	3.24
257.323	3.09
257.698	3.13
258.073	2.92
258.448	2.92
258.823	2.82
259.198	2.68
259.573	2.59
259.948	2.55
260.322	2.57
260.697	2.47
261.072	2.42
261.446	2.41
261.821	2.45
262.195	2.48
262.57	2.5
262.944	2.49
263.319	2.67
263.693	2.65
264.067	2.66
264.442	2.63
264.816	2.52
265.19	2.42
265.564	2.38
265.938	2.38
266.313	2.23
266.687	2.45
267.061	2.51
267.435	2.44
267.809	2.43
268.183	2.39
268.556	2.45
268.93	2.56
269.304	2.59
269.678	2.64
270.051	2.65
270.425	2.66
270.799	2.83
271.172	2.64
271.546	2.65
271.919	2.51
272.293	2.6
272.666	2.67
273.04	2.7
273.413	2.73
273.787	2.78
274.16	2.8
274.533	2.69
274.906	2.85
275.279	2.87
275.653	2.84
276.026	2.75
276.399	2.82
276.772	2.83
277.145	2.9
277.518	2.84
277.891	2.78
278.263	2.77
278.636	2.61
279.009	2.59
279.382	2.9
279.755	2.87
280.127	2.8
280.5	2.85
280.872	3
281.245	2.82
281.617	2.91
281.99	3.05
282.362	3.1
282.735	3.01
283.107	3.1
283.479	3.21
283.852	3.14
284.224	3.09
284.596	3.03
284.968	3.12
285.34	3.09
285.713	3.19
286.085	3.24
286.457	3.37
286.829	3.52
287.201	3.35
287.572	3.36
287.944	3.4
288.316	3.37
288.688	3.3
289.06	3.37
289.431	3.32
289.803	3.38
290.175	3.4
290.546	3.28
290.918	3.2
291.289	3.2
291.661	3.35
292.032	3.43
292.403	3.45
292.775	3.45
293.146	3.51
293.517	3.45
293.889	3.55
294.26	3.48
294.631	3.46
295.002	3.55
295.373	3.51
295.744	3.5
296.115	3.5
296.486	3.41
296.857	3.48
297.228	3.51
297.599	3.48
297.97	3.42
298.34	3.57
298.711	3.62
299.082	3.72
299.452	3.74
299.823	3.88
300.194	4.01
300.564	3.99
300.935	4.05
301.305	4.09
301.676	4.16
302.046	4.21
302.416	4.35
302.787	4.41
303.157	4.55
303.527	4.53
303.897	4.62
304.267	4.99
304.637	5.16
305.008	5.27
305.378	5.33
305.748	5.52
306.117	5.51
306.487	5.61
306.857	5.64
307.227	5.71
307.597	5.6
307.967	5.67
308.336	5.71
308.706	5.81
309.076	5.95
309.445	5.9
309.815	5.98
310.184	6.01
310.554	6.04
310.923	6.13
311.293	6.31
311.662	6.38
312.031	6.22
312.401	6.25
312.77	6.36
313.139	6.46
313.508	6.49
313.877	6.61
314.246	6.69
314.616	6.69
314.985	6.71
315.353	6.75
315.722	6.73
316.091	6.85
316.46	6.8
316.829	6.97
317.198	7.05
317.567	7.04
317.935	7.01
318.304	7
318.672	6.98
319.041	7.06
319.41	7.15
319.778	7.37
320.147	7.38
320.515	7.4
320.883	7.4
321.252	7.62
321.62	7.66
321.988	7.76
322.357	7.94
322.725	7.99
323.093	8.3
323.461	8.43
323.829	8.59
324.197	8.8
324.565	8.72
324.933	8.88
325.301	8.93
325.669	8.99
326.037	9
326.405	9.07
326.772	9.14
327.14	9.21
327.508	9.26
327.875	9.37
328.243	9.5
328.61	9.55
328.978	9.59
329.346	9.71
329.713	9.73
330.08	9.83
330.448	9.86
330.815	9.74
331.182	9.83
331.55	9.81
331.917	9.81
332.284	9.92
332.651	9.85
333.018	9.85
333.385	9.94
333.752	10.17
334.119	10.48
334.486	10.39
334.853	10.5
335.22	10.48
335.587	10.52
335.954	10.55
336.32	10.64
336.687	10.64
337.054	10.63
337.42	10.7
337.787	10.74
338.153	10.92
338.52	11
338.886	10.96
339.253	10.97
339.619	10.87
339.986	10.84
340.352	10.92
340.718	11.05
341.084	11.12
341.451	11.09
341.817	10.95
342.183	11.12
342.549	11.17
342.915	11.35
343.281	11.3
343.647	11.25
344.013	11.28
344.379	11.21
344.745	11.24
345.11	11.32
345.476	11.3
345.842	11.22
346.208	11.25
346.573	11.24
346.939	11.29
347.304	11.38
347.67	11.37
348.035	11.43
348.401	11.48
348.766	11.52
349.132	11.54
349.497	11.61
349.862	11.63
350.228	11.62
350.593	11.48
350.958	11.68
351.323	11.84
351.688	11.89
352.053	12.07
352.418	12.06
352.783	12.02
353.148	11.97
353.513	12.04
353.878	12.11
354.243	12.21
354.608	12.2
354.972	12.3
355.337	12.37
355.702	12.33
356.066	12.41
356.431	12.31
356.795	12.3
357.16	12.2
357.524	12.17
357.889	12.12
358.253	12.19
358.618	12.14
358.982	12.1
359.346	12.1
359.71	12.05
360.075	12.09
360.439	12.08
360.803	12.09
361.167	12.06
361.531	12.06
361.895	12
362.259	12.02
362.623	12.05
362.987	12.09
363.351	12.03
363.714	11.98
364.078	12.02
364.442	12.01
364.806	12.05
365.169	12.03
365.533	12.01
365.896	12
366.26	11.91
366.623	11.83
366.987	11.75
367.35	11.72
367.714	11.7
368.077	11.67
368.44	11.64
368.803	11.6
369.167	11.49
369.53	11.45
369.893	11.47
370.256	11.37
370.619	11.23
370.982	11.2
371.345	11.15
371.708	11.14
372.071	11.05
372.434	11.02
372.797	10.99
373.159	10.86
373.522	10.78
373.885	10.83
374.247	10.79
374.61	10.78
374.973	10.68
375.335	10.59
375.698	10.49
376.06	10.45
376.423	10.41
376.785	10.35
377.147	10.33
377.51	10.28
377.872	10.16
378.234	10.13
378.596	10.07
378.958	9.95
379.321	9.86
379.683	9.83
380.045	9.72
380.407	9.63
380.769	9.63
381.13	9.54
381.492	9.4
381.854	9.36
382.216	9.28
382.578	9.21
382.939	9.13
383.301	9.09
383.663	9
384.024	8.93
384.386	8.93
384.747	8.84
385.109	8.68
385.47	8.66
385.832	8.62
386.193	8.65
386.554	8.61
386.916	8.54
387.277	8.48
387.638	8.47
387.999	8.37
388.36	8.3
388.721	8.28
389.082	8.23
389.443	8.16
389.804	8.13
390.165	8.13
390.526	8.15
390.887	8.08
391.248	8.05
391.609	7.98
391.969	7.91
392.33	7.87
392.691	7.86
393.051	7.81
393.412	7.75
393.772	7.63
394.133	7.6
394.493	7.52
394.854	7.46
395.214	7.4
395.574	7.39
395.935	7.35
396.295	7.29
396.655	7.23
397.015	7.17
397.376	7.08
397.736	6.99
398.096	6.89
398.456	6.82
398.816	6.77
399.176	6.71
399.535	6.64
399.895	6.55
400.255	6.48
400.615	6.4
400.975	6.35
401.334	6.31
401.694	6.25
402.054	6.22
402.413	6.21
402.773	6.15
403.132	6.09
403.492	6.02
403.851	5.98
404.211	5.94
404.57	5.88
404.929	5.83
405.288	5.8
405.648	5.74
406.007	5.73
406.366	5.7
406.725	5.69
407.084	5.7
407.443	5.7
407.802	5.7
408.161	5.67
408.52	5.63
408.879	5.61
409.238	5.57
409.596	5.55
409.955	5.47
410.314	5.43
410.673	5.4
411.031	5.4
411.39	5.35
411.748	5.31
412.107	5.31
412.465	5.29
412.824	5.26
413.182	5.22
413.54	5.2
413.899	5.18
414.257	5.14
414.615	5.06
414.974	5.01
415.332	4.96
415.69	4.95
416.048	4.91
416.406	4.86
416.764	4.82
417.122	4.8
417.48	4.78
417.838	4.76
418.195	4.74
418.553	4.71
418.911	4.68
419.269	4.68
419.626	4.66
419.984	4.64
420.342	4.61
420.699	4.61
421.057	4.57
421.414	4.53
421.772	4.51
422.129	4.49
422.486	4.46
422.844	4.44
423.201	4.41
423.558	4.39
423.915	4.36
424.273	4.33
424.63	4.32
424.987	4.31
425.344	4.29
425.701	4.27
426.058	4.25
426.415	4.22
426.772	4.21
427.128	4.17
427.485	4.17
427.842	4.13
428.199	4.12
428.555	4.09
428.912	4.08
429.269	4.06
429.625	4.05
429.982	4.05
430.338	4.06
430.695	4.06
431.051	4.06
431.407	4.07
431.764	4.08
432.12	4.08
432.476	4.07
432.832	4.07
433.189	4.08
433.545	4.06
433.901	4.07
434.257	4.04
434.613	4.06
434.969	4.05
435.325	4.05
435.681	4.05
436.036	4.05
436.392	4.05
436.748	4.04
437.104	4.03
437.459	4.02
437.815	4
438.171	4
438.526	3.98
438.882	3.98
439.237	3.97
439.593	3.94
439.948	3.93
440.304	3.93
440.659	3.9
441.014	3.93
441.369	3.91
441.725	3.9
442.08	3.89
442.435	3.87
442.79	3.86
443.145	3.84
443.5	3.82
443.855	3.82
444.21	3.8
444.565	3.8
444.92	3.8
445.275	3.79
445.629	3.78
445.984	3.78
446.339	3.76
446.693	3.73
447.048	3.73
447.403	3.72
447.757	3.7
448.112	3.7
448.466	3.67
448.82	3.67
449.175	3.67
449.529	3.66
449.883	3.65
450.238	3.64
450.592	3.66
450.946	3.65
451.3	3.63
451.654	3.62
452.008	3.6
452.362	3.58
452.716	3.57
453.07	3.59
453.424	3.59
453.778	3.59
454.132	3.61
454.486	3.62
454.839	3.61
455.193	3.6
455.547	3.59
455.9	3.59
456.254	3.59
456.607	3.58
456.961	3.57
457.314	3.58
457.668	3.59
458.021	3.56
458.375	3.57
458.728	3.59
459.081	3.6
459.434	3.61
459.787	3.62
460.141	3.62
460.494	3.61
460.847	3.62
461.2	3.63
461.553	3.64
461.906	3.65
462.259	3.67
462.611	3.71
462.964	3.72
463.317	3.73
463.67	3.74
464.022	3.76
464.375	3.78
464.728	3.78
465.08	3.81
465.433	3.83
465.785	3.84
466.138	3.85
466.49	3.85
466.843	3.85
467.195	3.88
467.547	3.91
467.899	3.92
468.252	3.94
468.604	3.95
468.956	3.96
469.308	3.96
469.66	3.96
470.012	3.97
470.364	3.96
470.716	3.97
471.068	3.98
471.42	3.99
471.772	4.02
472.123	4.04
472.475	4.02
472.827	4.06
473.178	4.06
473.53	4.05
473.882	4.06
474.233	4.08
474.585	4.07
474.936	4.04
475.288	4.04
475.639	4.03
475.99	4.02
476.342	4.02
476.693	4.02
477.044	4.01
477.395	4.01
477.746	4.03
478.097	4.03
478.448	4.03
478.8	4.02
479.15	3.99
479.501	3.97
479.852	3.97
480.203	3.96
480.554	3.97
480.905	3.98
481.255	3.98
481.606	3.99
481.957	3.99
482.307	3.99
482.658	3.98
483.009	3.98
483.359	3.97
483.709	3.98
484.06	3.98
484.41	3.99
484.761	3.99
485.111	3.99
485.461	3.99
485.811	4
486.162	3.99
486.512	4.01
486.862	4.03
487.212	4.04
487.562	4.04
487.912	4.05
488.262	4.06
488.612	4.08
488.961	4.09
489.311	4.1
489.661	4.12
490.011	4.14
490.36	4.15
490.71	4.17
491.06	4.18
491.409	4.2
491.759	4.22
492.108	4.23
492.458	4.24
492.807	4.26
493.157	4.28
493.506	4.32
493.855	4.35
494.204	4.36
494.554	4.39
494.903	4.41
495.252	4.43
495.601	4.48
495.95	4.51
496.299	4.52
496.648	4.57
496.997	4.6
497.346	4.66
497.695	4.71
498.043	4.75
498.392	4.79
498.741	4.86
499.09	4.89
499.438	4.95
499.787	5.03
500.135	5.09
500.484	5.14
500.832	5.2
501.181	5.28
501.529	5.34
501.878	5.43
502.226	5.53
502.574	5.63
502.923	5.68
503.271	5.76
503.619	5.87
503.967	5.95
504.315	6.05
504.663	6.13
505.011	6.23
505.359	6.32
505.707	6.45
506.055	6.54
506.403	6.65
506.751	6.75
507.098	6.85
507.446	6.95
507.794	7.07
508.141	7.19
508.489	7.29
508.837	7.41
509.184	7.53
509.531	7.64
509.879	7.75
510.226	7.86
510.574	7.97
510.921	8.09
511.268	8.21
511.616	8.34
511.963	8.47
512.31	8.61
512.657	8.75
513.004	8.86
513.351	8.99
513.698	9.16
514.045	9.32
514.392	9.49
514.739	9.66
515.086	9.84
515.432	10
515.779	10.15
516.126	10.33
516.473	10.5
516.819	10.67
517.166	10.83
517.512	11
517.859	11.17
518.205	11.33
518.552	11.48
518.898	11.63
519.245	11.79
519.591	11.94
519.937	12.09
520.283	12.3
520.629	12.49
520.976	12.67
521.322	12.87
521.668	13.1
522.014	13.29
522.36	13.5
522.706	13.75
523.052	14
523.398	14.29
523.743	14.58
524.089	14.88
524.435	15.16
524.781	15.41
525.126	15.66
525.472	15.92
525.817	16.13
526.163	16.33
526.509	16.51
526.854	16.73
527.199	16.89
527.545	17.05
527.89	17.23
528.235	17.41
528.581	17.59
528.926	17.77
529.271	17.98
529.616	18.16
529.961	18.34
530.306	18.53
530.651	18.74
530.996	18.92
531.341	19.13
531.686	19.35
532.031	19.57
532.376	19.81
532.721	20.04
533.065	20.3
533.41	20.54
533.755	20.8
534.099	21.05
534.444	21.34
534.788	21.64
535.133	21.89
535.477	22.16
535.822	22.44
536.166	22.73
536.51	23
536.855	23.36
537.199	23.71
537.543	24.05
537.887	24.38
538.231	24.73
538.576	25.08
538.92	25.42
539.264	25.74
539.608	26.05
539.951	26.29
540.295	26.55
540.639	26.84
540.983	27.11
541.327	27.32
541.671	27.55
542.014	27.76
542.358	28.02
542.701	28.26
543.045	28.5
543.389	28.75
543.732	28.98
544.075	29.19
544.419	29.42
544.762	29.64
545.105	29.89
545.449	30.16
545.792	30.39
546.135	30.66
546.478	30.96
546.821	31.27
547.165	31.63
547.508	31.94
547.851	32.22
548.194	32.52
548.536	32.88
548.879	33.21
549.222	33.49
549.565	33.78
549.908	34.09
550.25	34.4
550.593	34.67
550.936	35
551.278	35.31
551.621	35.59
551.963	35.92
552.306	36.19
552.648	36.47
552.991	36.8
553.333	37.05
553.675	37.3
554.017	37.48
554.36	37.68
554.702	37.91
555.044	38.18
555.386	38.4
555.728	38.64
556.07	38.93
556.412	39.16
556.754	39.38
557.096	39.59
557.438	39.82
557.78	40.06
558.121	40.28
558.463	40.51
558.805	40.7
559.147	40.9
559.488	41.04
559.83	41.27
560.171	41.48
560.513	41.71
560.854	41.92
561.196	42.17
561.537	42.37
561.878	42.5
562.22	42.67
562.561	42.87
562.902	43.03
563.243	43.17
563.584	43.31
563.925	43.49
564.266	43.59
564.607	43.68
564.948	43.84
565.289	43.94
565.63	44.06
565.971	44.21
566.312	44.35
566.653	44.52
566.993	44.6
567.334	44.69
567.675	44.82
568.015	44.86
568.356	45
568.696	45.11
569.037	45.24
569.377	45.36
569.718	45.48
570.058	45.53
570.398	45.61
570.739	45.75
571.079	45.83
571.419	45.91
571.759	46.04
572.099	46.07
572.439	46.23
572.779	46.36
573.119	46.52
573.459	46.59
573.799	46.74
574.139	46.83
574.479	46.9
574.819	46.99
575.158	47.13
575.498	47.18
575.838	47.31
576.177	47.41
576.517	47.5
576.856	47.57
577.196	47.71
577.535	47.85
577.875	47.95
578.214	48
578.553	48.21
578.893	48.35
579.232	48.54
579.571	48.54
579.91	48.58
580.25	48.6
580.589	48.72
580.928	48.86
581.267	48.91
581.606	49.05
581.945	49.09
582.283	49.16
582.622	49.22
582.961	49.29
583.3	49.36
583.639	49.43
583.977	49.45
584.316	49.5
584.654	49.45
584.993	49.5
585.332	49.68
585.67	49.73
586.008	49.75
586.347	49.76
586.685	49.83
587.024	49.93
587.362	49.98
587.7	50.02
588.038	50.07
588.376	50.22
588.715	50.23
589.053	50.34
589.391	50.44
589.729	50.6
590.067	50.61
590.404	50.65
590.742	50.73
591.08	50.75
591.418	50.79
591.756	50.93
592.093	50.98
592.431	51.02
592.769	50.98
593.106	50.94
593.444	50.96
593.781	51.06
594.119	51.17
594.456	51.15
594.793	51.21
595.131	51.19
595.468	51.15
595.805	51.12
596.143	51.21
596.48	51.24
596.817	51.13
597.154	51.16
597.491	51.14
597.828	51.13
598.165	51.24
598.502	51.26
598.839	51.26
599.176	51.24
599.512	51.22
599.849	51.32
600.186	51.39
600.523	51.49
600.859	51.51
601.196	51.47
601.532	51.59
601.869	51.61
602.205	51.57
602.542	51.59
602.878	51.62
603.215	51.6
603.551	51.61
603.887	51.64
604.223	51.65
604.56	51.75
604.896	51.83
605.232	51.87
605.568	51.89
605.904	51.91
606.24	51.96
606.576	51.95
606.912	51.94
607.248	51.97
607.583	51.97
607.919	51.96
608.255	51.97
608.591	51.89
608.926	51.91
609.262	51.96
609.597	52.02
609.933	52.09
610.268	52.08
610.604	52.09
610.939	52.19
611.275	52.27
611.61	52.27
611.945	52.29
612.281	52.23
612.616	52.28
612.951	52.31
613.286	52.4
613.621	52.48
613.956	52.51
614.291	52.6
614.626	52.61
614.961	52.66
615.296	52.7
615.631	52.8
615.966	52.8
616.3	52.91
616.635	53.01
616.97	53.01
617.304	53.07
617.639	53.05
617.973	52.95
618.308	52.93
618.642	53.02
618.977	53
619.311	53.09
619.646	53.1
619.98	53.11
620.314	53.08
620.648	53.22
620.983	53.23
621.317	53.14
621.651	53.16
621.985	53.15
622.319	53.21
622.653	53.2
622.987	53.28
623.321	53.33
623.655	53.28
623.988	53.28
624.322	53.37
624.656	53.47
624.99	53.62
625.323	53.63
625.657	53.58
625.99	53.53
626.324	53.58
626.657	53.58
626.991	53.64
627.324	53.62
627.658	53.57
627.991	53.68
628.324	53.75
628.657	53.82
628.991	53.88
629.324	53.86
629.657	53.96
629.99	53.95
630.323	53.91
630.656	53.93
630.989	54.03
631.322	53.96
631.655	53.95
631.987	53.9
632.32	53.9
632.653	53.92
632.986	54.1
633.318	54.11
633.651	54.15
633.984	54.11
634.316	54.16
634.649	54.24
634.981	54.25
635.313	54.25
635.646	54.25
635.978	54.28
636.31	54.31
636.643	54.32
636.975	54.29
637.307	54.3
637.639	54.33
637.971	54.4
638.303	54.4
638.635	54.3
638.967	54.38
639.299	54.42
639.631	54.46
639.963	54.35
640.295	54.34
640.626	54.42
640.958	54.53
641.29	54.54
641.621	54.39
641.953	54.36
642.285	54.45
642.616	54.44
642.948	54.4
643.279	54.47
643.61	54.44
643.942	54.46
644.273	54.39
644.604	54.3
644.936	54.17
645.267	54.25
645.598	54.33
645.929	54.3
646.26	54.36
646.591	54.37
646.922	54.39
647.253	54.43
647.584	54.37
647.915	54.37
648.245	54.45
648.576	54.56
648.907	54.49
649.238	54.37
649.568	54.34
649.899	54.42
650.229	54.47
650.56	54.5
650.89	54.57
651.221	54.79
651.551	54.88
651.882	54.95
652.212	55.03
652.542	55.08
652.872	55.16
653.203	55.12
653.533	55.22
653.863	55.23
654.193	55.08
654.523	55.13
654.853	55.18
655.183	55.07
655.513	55.03
655.843	55.18
656.172	55.29
656.502	55.38
656.832	55.32
657.162	55.19
657.491	55.22
657.821	55.25
658.15	55.08
658.48	55.16
658.809	55.12
659.139	55.02
659.468	54.98
659.798	54.97
660.127	54.96
660.456	54.87
660.785	54.97
661.115	55.06
661.444	54.97
661.773	54.87
662.102	54.88
662.431	54.84
662.76	54.84
663.089	54.86
663.418	54.77
663.747	54.69
664.076	54.8
664.404	54.8
