Data from BA56830_Reflection_00008.txt Node
Date: Mon Nov 18 16:04:01 EST 2019
User: vgr7
Spectrometer: USB2G7710
Scans to average: 3
Trigger mode: 4
Integration Time (sec): 2.000000E-2
Electric dark correction enabled: true
Boxcar width: 10
XAxis mode: Wavelengths
Number of Pixels in Spectrum: 2048
>>>>>Begin Spectral Data<<<<<
177.721	82.08
178.105	217.65
178.488	138.14
178.871	132.52
179.254	205.69
179.636	60.78
180.019	-3566.67
180.402	184.21
180.785	-74.13
181.168	76.61
181.55	23.08
181.933	88.48
182.316	79.74
182.698	109.54
183.081	105.59
183.463	101.12
183.846	147.36
184.228	254.73
184.611	1100
184.993	-1263.64
185.376	1734.15
185.758	450.32
186.14	693.5
186.522	305.21
186.904	696.9
187.287	1456.16
187.669	-493.98
188.051	1296.08
188.433	-64900
188.815	-310.63
189.197	-98.4
189.579	-82.61
189.961	-59.42
190.342	-53.77
190.724	-54.25
191.106	-90.98
191.488	-113.68
191.869	-101.4
192.251	-135.6
192.633	-162.09
193.014	-193.23
193.396	-299.42
193.777	-246.44
194.159	-283.13
194.54	-186.38
194.922	-192.5
195.303	-168.85
195.684	-181
196.065	-86.77
196.447	-91.79
196.828	-114.83
197.209	-76.59
197.59	-82.46
197.971	-61.21
198.352	-56.28
198.733	-71.72
199.114	-45.81
199.495	-31.51
199.876	-40.66
200.257	-36.7
200.638	-30.11
201.018	-38.91
201.399	-6.6
201.78	3.47
202.16	7.5
202.541	-1.63
202.922	-0.1
203.302	-6.3
203.683	-34.52
204.063	-74.31
204.444	-77.05
204.824	-76.15
205.204	-105.48
205.585	-105.72
205.965	-91.77
206.345	-96.9
206.725	-94.31
207.106	-110.07
207.486	-131.94
207.866	-100.83
208.246	-78.03
208.626	-105.98
209.006	-35.18
209.386	-58.74
209.766	-86.07
210.145	-66.2
210.525	-47.08
210.905	-30.36
211.285	-28.89
211.664	-12.02
212.044	-17.99
212.424	-1.19
212.803	17.88
213.183	25.13
213.562	44.6
213.942	19.72
214.321	19.84
214.701	24.48
215.08	27.94
215.459	18.96
215.838	20.1
216.218	4.89
216.597	21.99
216.976	-16.9
217.355	-15.1
217.734	-21.48
218.113	-24.92
218.492	-17.23
218.871	-32.14
219.25	-22.07
219.629	-21.26
220.008	-13.87
220.387	-23.96
220.766	-32.49
221.144	-32.65
221.523	-35.49
221.902	-27.83
222.28	-34.2
222.659	-29.7
223.037	-22.22
223.416	-22.73
223.794	-19.21
224.173	-8.72
224.551	-11.56
224.929	-13.33
225.308	-12.04
225.686	-8.85
226.064	-1.62
226.442	1.43
226.821	4.99
227.199	2.98
227.577	-0.95
227.955	-1.69
228.333	-0.47
228.711	4.37
229.089	3.49
229.467	3.94
229.845	2.14
230.222	2.37
230.6	1.77
230.978	0.9
231.356	0.85
231.733	-2.33
232.111	-2.88
232.488	-3.56
232.866	-1.44
233.243	0.34
233.621	1.49
233.998	2.23
234.376	1.78
234.753	1.85
235.13	2.75
235.508	3.95
235.885	3.64
236.262	4.18
236.639	2.18
237.016	2.54
237.393	3.92
237.77	4.8
238.147	5.23
238.524	5.11
238.901	5.11
239.278	5.34
239.655	6.11
240.032	5.8
240.409	5.75
240.785	5.58
241.162	4.81
241.539	4.69
241.915	4.3
242.292	4.01
242.668	4.24
243.045	3.99
243.421	3.92
243.798	3.95
244.174	3.48
244.551	3.64
244.927	3.74
245.303	3.63
245.679	3.62
246.056	3.43
246.432	3.42
246.808	3.58
247.184	3.47
247.56	3.54
247.936	3.43
248.312	3.51
248.688	3.59
249.064	3.5
249.44	3.36
249.815	3.48
250.191	3.39
250.567	3.24
250.943	3.32
251.318	3.48
251.694	3.49
252.069	3.57
252.445	3.87
252.82	3.64
253.196	3.5
253.571	3.37
253.947	3.4
254.322	3.55
254.697	3.26
255.073	3.09
255.448	3.11
255.823	3.6
256.198	3.45
256.573	3.34
256.948	3.6
257.323	3.7
257.698	3.43
258.073	3.3
258.448	3.48
258.823	3.34
259.198	3.34
259.573	3.35
259.948	3.4
260.322	3.22
260.697	3.21
261.072	3.23
261.446	3.35
261.821	3.34
262.195	3.39
262.57	3.38
262.944	3.45
263.319	3.32
263.693	3
264.067	3.29
264.442	3.28
264.816	3.2
265.19	3.15
265.564	3.27
265.938	3.28
266.313	3.09
266.687	3.14
267.061	3.12
267.435	3.1
267.809	3.06
268.183	3.01
268.556	3.06
268.93	3.08
269.304	2.87
269.678	2.88
270.051	2.74
270.425	2.75
270.799	2.68
271.172	2.73
271.546	2.76
271.919	2.51
272.293	2.64
272.666	2.69
273.04	2.71
273.413	2.63
273.787	2.69
274.16	2.74
274.533	2.75
274.906	2.73
275.279	2.78
275.653	2.78
276.026	2.79
276.399	2.75
276.772	2.86
277.145	2.91
277.518	2.94
277.891	3.06
278.263	3.05
278.636	3.11
279.009	3.1
279.382	3.38
279.755	3.34
280.127	3.14
280.5	3.19
280.872	3.29
281.245	3.31
281.617	3.45
281.99	3.47
282.362	3.55
282.735	3.3
283.107	3.26
283.479	3.33
283.852	3.53
284.224	3.69
284.596	3.42
284.968	3.51
285.34	3.51
285.713	3.36
286.085	3.47
286.457	3.62
286.829	3.72
287.201	3.64
287.572	3.54
287.944	3.59
288.316	3.58
288.688	3.49
289.06	3.56
289.431	3.49
289.803	3.52
290.175	3.61
290.546	3.87
290.918	3.88
291.289	3.96
291.661	3.86
292.032	3.91
292.403	4.14
292.775	4.16
293.146	4.16
293.517	4.24
293.889	4.19
294.26	4.09
294.631	3.98
295.002	3.99
295.373	4.14
295.744	4.29
296.115	4.23
296.486	4.16
296.857	4.23
297.228	4.17
297.599	4.24
297.97	4.17
298.34	4.17
298.711	4.3
299.082	4.1
299.452	4.06
299.823	4.05
300.194	4.06
300.564	4.06
300.935	4.23
301.305	4.2
301.676	4.23
302.046	4.29
302.416	4.59
302.787	4.72
303.157	4.81
303.527	4.65
303.897	4.68
304.267	4.95
304.637	4.99
305.008	5.21
305.378	5.22
305.748	5.32
306.117	5.19
306.487	5.15
306.857	5.39
307.227	5.4
307.597	5.41
307.967	5.45
308.336	5.41
308.706	5.33
309.076	5.4
309.445	5.39
309.815	5.47
310.184	5.31
310.554	5.16
310.923	5.08
311.293	5.23
311.662	5.26
312.031	5.19
312.401	5.13
312.77	5.19
313.139	5.29
313.508	5.25
313.877	5.31
314.246	5.39
314.616	5.41
314.985	5.46
315.353	5.44
315.722	5.52
316.091	5.63
316.46	5.66
316.829	5.72
317.198	5.92
317.567	5.9
317.935	5.95
318.304	6.05
318.672	6.12
319.041	6.2
319.41	6.3
319.778	6.5
320.147	6.54
320.515	6.48
320.883	6.33
321.252	6.58
321.62	6.71
321.988	6.64
322.357	6.75
322.725	6.89
323.093	7.05
323.461	7.03
323.829	7.03
324.197	7.1
324.565	7.34
324.933	7.27
325.301	7.39
325.669	7.51
326.037	7.56
326.405	7.72
326.772	7.7
327.14	7.76
327.508	7.74
327.875	7.71
328.243	7.91
328.61	7.96
328.978	7.83
329.346	7.89
329.713	7.99
330.08	8.11
330.448	8.11
330.815	8.05
331.182	8.18
331.55	8.33
331.917	8.33
332.284	8.3
332.651	8.3
333.018	8.35
333.385	8.38
333.752	8.47
334.119	8.49
334.486	8.54
334.853	8.59
335.22	8.54
335.587	8.78
335.954	8.73
336.32	8.78
336.687	8.99
337.054	9.02
337.42	9.1
337.787	9.03
338.153	9.02
338.52	9.11
338.886	8.99
339.253	8.88
339.619	8.95
339.986	8.93
340.352	9.08
340.718	9.02
341.084	8.97
341.451	9.03
341.817	9.04
342.183	9.08
342.549	9.06
342.915	9.16
343.281	9.03
343.647	9.03
344.013	9.13
344.379	9.01
344.745	8.97
345.11	8.93
345.476	8.91
345.842	8.92
346.208	8.88
346.573	8.97
346.939	9.12
347.304	9.12
347.67	9.12
348.035	9.09
348.401	9.12
348.766	9.2
349.132	9.19
349.497	9.18
349.862	9.27
350.228	9.36
350.593	9.25
350.958	9.27
351.323	9.25
351.688	9.26
352.053	9.34
352.418	9.39
352.783	9.41
353.148	9.5
353.513	9.45
353.878	9.44
354.243	9.42
354.608	9.39
354.972	9.41
355.337	9.41
355.702	9.5
356.066	9.51
356.431	9.5
356.795	9.47
357.16	9.43
357.524	9.36
357.889	9.28
358.253	9.3
358.618	9.3
358.982	9.28
359.346	9.2
359.71	9.15
360.075	9.14
360.439	9.14
360.803	9.07
361.167	9.08
361.531	9.04
361.895	9
362.259	8.91
362.623	8.87
362.987	8.83
363.351	8.74
363.714	8.74
364.078	8.65
364.442	8.62
364.806	8.54
365.169	8.48
365.533	8.46
365.896	8.46
366.26	8.45
366.623	8.37
366.987	8.36
367.35	8.32
367.714	8.26
368.077	8.2
368.44	8.2
368.803	8.15
369.167	8.18
369.53	8.14
369.893	8.11
370.256	8.07
370.619	8.05
370.982	7.98
371.345	7.89
371.708	7.88
372.071	7.84
372.434	7.84
372.797	7.8
373.159	7.8
373.522	7.76
373.885	7.69
374.247	7.7
374.61	7.65
374.973	7.56
375.335	7.55
375.698	7.5
376.06	7.43
376.423	7.36
376.785	7.31
377.147	7.27
377.51	7.21
377.872	7.18
378.234	7.15
378.596	7.16
378.958	7.11
379.321	7.12
379.683	7.06
380.045	7.06
380.407	7
380.769	6.92
381.13	6.86
381.492	6.81
381.854	6.75
382.216	6.68
382.578	6.62
382.939	6.55
383.301	6.53
383.663	6.44
384.024	6.43
384.386	6.43
384.747	6.43
385.109	6.46
385.47	6.38
385.832	6.31
386.193	6.26
386.554	6.24
386.916	6.14
387.277	6.12
387.638	6.1
387.999	6.09
388.36	6.06
388.721	6.01
389.082	5.99
389.443	5.96
389.804	5.93
390.165	5.92
390.526	5.9
390.887	5.83
391.248	5.86
391.609	5.85
391.969	5.75
392.33	5.67
392.691	5.64
393.051	5.59
393.412	5.55
393.772	5.51
394.133	5.46
394.493	5.44
394.854	5.41
395.214	5.34
395.574	5.27
395.935	5.21
396.295	5.22
396.655	5.18
397.015	5.14
397.376	5.1
397.736	5.07
398.096	5.01
398.456	4.97
398.816	4.94
399.176	4.88
399.535	4.86
399.895	4.86
400.255	4.84
400.615	4.83
400.975	4.79
401.334	4.72
401.694	4.73
402.054	4.69
402.413	4.63
402.773	4.59
403.132	4.57
403.492	4.58
403.851	4.54
404.211	4.51
404.57	4.5
404.929	4.49
405.288	4.44
405.648	4.43
406.007	4.44
406.366	4.4
406.725	4.4
407.084	4.41
407.443	4.37
407.802	4.32
408.161	4.32
408.52	4.32
408.879	4.35
409.238	4.32
409.596	4.34
409.955	4.36
410.314	4.37
410.673	4.35
411.031	4.33
411.39	4.29
411.748	4.25
412.107	4.23
412.465	4.23
412.824	4.21
413.182	4.2
413.54	4.17
413.899	4.17
414.257	4.16
414.615	4.15
414.974	4.15
415.332	4.13
415.69	4.1
416.048	4.07
416.406	4.02
416.764	3.99
417.122	3.96
417.48	3.92
417.838	3.91
418.195	3.91
418.553	3.89
418.911	3.88
419.269	3.89
419.626	3.86
419.984	3.83
420.342	3.85
420.699	3.84
421.057	3.82
421.414	3.8
421.772	3.79
422.129	3.78
422.486	3.76
422.844	3.75
423.201	3.74
423.558	3.73
423.915	3.72
424.273	3.72
424.63	3.71
424.987	3.71
425.344	3.7
425.701	3.68
426.058	3.66
426.415	3.66
426.772	3.65
427.128	3.64
427.485	3.65
427.842	3.63
428.199	3.62
428.555	3.62
428.912	3.61
429.269	3.6
429.625	3.58
429.982	3.57
430.338	3.57
430.695	3.57
431.051	3.56
431.407	3.55
431.764	3.54
432.12	3.54
432.476	3.53
432.832	3.52
433.189	3.53
433.545	3.55
433.901	3.54
434.257	3.54
434.613	3.55
434.969	3.56
435.325	3.56
435.681	3.57
436.036	3.55
436.392	3.55
436.748	3.54
437.104	3.55
437.459	3.55
437.815	3.54
438.171	3.54
438.526	3.56
438.882	3.56
439.237	3.57
439.593	3.57
439.948	3.55
440.304	3.55
440.659	3.55
441.014	3.55
441.369	3.54
441.725	3.53
442.08	3.52
442.435	3.51
442.79	3.49
443.145	3.49
443.5	3.49
443.855	3.48
444.21	3.48
444.565	3.46
444.92	3.45
445.275	3.43
445.629	3.44
445.984	3.43
446.339	3.43
446.693	3.4
447.048	3.39
447.403	3.39
447.757	3.37
448.112	3.35
448.466	3.34
448.82	3.34
449.175	3.35
449.529	3.34
449.883	3.32
450.238	3.32
450.592	3.31
450.946	3.29
451.3	3.28
451.654	3.27
452.008	3.28
452.362	3.28
452.716	3.29
453.07	3.26
453.424	3.26
453.778	3.26
454.132	3.25
454.486	3.24
454.839	3.25
455.193	3.26
455.547	3.27
455.9	3.28
456.254	3.27
456.607	3.24
456.961	3.24
457.314	3.23
457.668	3.25
458.021	3.25
458.375	3.25
458.728	3.26
459.081	3.26
459.434	3.25
459.787	3.25
460.141	3.28
460.494	3.27
460.847	3.26
461.2	3.25
461.553	3.27
461.906	3.28
462.259	3.29
462.611	3.29
462.964	3.29
463.317	3.29
463.67	3.31
464.022	3.34
464.375	3.34
464.728	3.36
465.08	3.35
465.433	3.37
465.785	3.38
466.138	3.38
466.49	3.39
466.843	3.37
467.195	3.38
467.547	3.37
467.899	3.39
468.252	3.4
468.604	3.42
468.956	3.42
469.308	3.44
469.66	3.42
470.012	3.43
470.364	3.44
470.716	3.44
471.068	3.44
471.42	3.44
471.772	3.46
472.123	3.47
472.475	3.49
472.827	3.49
473.178	3.5
473.53	3.51
473.882	3.52
474.233	3.56
474.585	3.55
474.936	3.54
475.288	3.52
475.639	3.53
475.99	3.53
476.342	3.54
476.693	3.53
477.044	3.53
477.395	3.54
477.746	3.55
478.097	3.52
478.448	3.51
478.8	3.51
479.15	3.48
479.501	3.48
479.852	3.45
480.203	3.45
480.554	3.46
480.905	3.48
481.255	3.47
481.606	3.45
481.957	3.46
482.307	3.47
482.658	3.47
483.009	3.47
483.359	3.48
483.709	3.48
484.06	3.48
484.41	3.48
484.761	3.48
485.111	3.47
485.461	3.48
485.811	3.5
486.162	3.5
486.512	3.51
486.862	3.51
487.212	3.53
487.562	3.52
487.912	3.51
488.262	3.5
488.612	3.5
488.961	3.51
489.311	3.52
489.661	3.52
490.011	3.52
490.36	3.52
490.71	3.53
491.06	3.54
491.409	3.54
491.759	3.56
492.108	3.58
492.458	3.59
492.807	3.6
493.157	3.61
493.506	3.62
493.855	3.62
494.204	3.63
494.554	3.64
494.903	3.66
495.252	3.69
495.601	3.71
495.95	3.73
496.299	3.74
496.648	3.76
496.997	3.77
497.346	3.81
497.695	3.85
498.043	3.86
498.392	3.89
498.741	3.91
499.09	3.92
499.438	3.96
499.787	3.97
500.135	4
500.484	4.03
500.832	4.05
501.181	4.07
501.529	4.12
501.878	4.18
502.226	4.23
502.574	4.27
502.923	4.32
503.271	4.36
503.619	4.42
503.967	4.47
504.315	4.51
504.663	4.57
505.011	4.64
505.359	4.68
505.707	4.73
506.055	4.79
506.403	4.86
506.751	4.9
507.098	4.98
507.446	5.05
507.794	5.11
508.141	5.18
508.489	5.25
508.837	5.32
509.184	5.37
509.531	5.45
509.879	5.54
510.226	5.63
510.574	5.69
510.921	5.75
511.268	5.81
511.616	5.88
511.963	5.96
512.31	6.02
512.657	6.09
513.004	6.18
513.351	6.27
513.698	6.34
514.045	6.41
514.392	6.49
514.739	6.56
515.086	6.65
515.432	6.73
515.779	6.8
516.126	6.85
516.473	6.94
516.819	7.02
517.166	7.08
517.512	7.15
517.859	7.23
518.205	7.32
518.552	7.39
518.898	7.46
519.245	7.53
519.591	7.61
519.937	7.68
520.283	7.76
520.629	7.84
520.976	7.94
521.322	8.04
521.668	8.15
522.014	8.26
522.36	8.4
522.706	8.53
523.052	8.7
523.398	8.86
523.743	8.97
524.089	9.11
524.435	9.25
524.781	9.4
525.126	9.53
525.472	9.67
525.817	9.8
526.163	9.93
526.509	10.02
526.854	10.14
527.199	10.25
527.545	10.34
527.89	10.44
528.235	10.54
528.581	10.66
528.926	10.77
529.271	10.9
529.616	11
529.961	11.12
530.306	11.25
530.651	11.38
530.996	11.54
531.341	11.68
531.686	11.84
532.031	12
532.376	12.18
532.721	12.35
533.065	12.54
533.41	12.73
533.755	12.94
534.099	13.14
534.444	13.35
534.788	13.55
535.133	13.78
535.477	14.01
535.822	14.23
536.166	14.49
536.51	14.76
536.855	15.05
537.199	15.35
537.543	15.64
537.887	15.93
538.231	16.24
538.576	16.56
538.92	16.86
539.264	17.1
539.608	17.38
539.951	17.64
540.295	17.88
540.639	18.12
540.983	18.35
541.327	18.61
541.671	18.86
542.014	19.11
542.358	19.36
542.701	19.59
543.045	19.83
543.389	20.06
543.732	20.3
544.075	20.57
544.419	20.86
544.762	21.12
545.105	21.41
545.449	21.72
545.792	22.02
546.135	22.34
546.478	22.71
546.821	23.07
547.165	23.43
547.508	23.81
547.851	24.16
548.194	24.54
548.536	24.92
548.879	25.26
549.222	25.63
549.565	25.95
549.908	26.35
550.25	26.75
550.593	27.13
550.936	27.46
551.278	27.81
551.621	28.1
551.963	28.49
552.306	28.85
552.648	29.2
552.991	29.56
553.333	29.92
553.675	30.25
554.017	30.56
554.36	30.87
554.702	31.18
555.044	31.47
555.386	31.77
555.728	32.06
556.07	32.38
556.412	32.71
556.754	33.03
557.096	33.36
557.438	33.69
557.78	34.04
558.121	34.39
558.463	34.71
558.805	35.01
559.147	35.35
559.488	35.58
559.83	35.85
560.171	36.12
560.513	36.39
560.854	36.65
561.196	36.92
561.537	37.22
561.878	37.43
562.22	37.71
562.561	38.02
562.902	38.24
563.243	38.54
563.584	38.8
563.925	39.05
564.266	39.24
564.607	39.43
564.948	39.59
565.289	39.84
565.63	40.01
565.971	40.27
566.312	40.45
566.653	40.69
566.993	40.92
567.334	41.17
567.675	41.37
568.015	41.59
568.356	41.79
568.696	41.95
569.037	42.25
569.377	42.48
569.718	42.65
570.058	42.87
570.398	42.98
570.739	43.13
571.079	43.32
571.419	43.56
571.759	43.73
572.099	43.93
572.439	44.06
572.779	44.25
573.119	44.34
573.459	44.51
573.799	44.64
574.139	44.8
574.479	44.86
574.819	44.98
575.158	45.14
575.498	45.26
575.838	45.44
576.177	45.54
576.517	45.72
576.856	45.84
577.196	45.98
577.535	46.14
577.875	46.36
578.214	46.53
578.553	46.63
578.893	46.81
579.232	46.96
579.571	47.13
579.91	47.27
580.25	47.43
580.589	47.54
580.928	47.7
581.267	47.85
581.606	48.01
581.945	48.08
582.283	48.18
582.622	48.38
582.961	48.49
583.3	48.49
583.639	48.58
583.977	48.7
584.316	48.79
584.654	48.96
584.993	48.96
585.332	49.03
585.67	49.07
586.008	49.14
586.347	49.23
586.685	49.29
587.024	49.41
587.362	49.56
587.7	49.65
588.038	49.76
588.376	49.79
588.715	49.92
589.053	50.13
589.391	50.23
589.729	50.29
590.067	50.33
590.404	50.5
590.742	50.55
591.08	50.6
591.418	50.68
591.756	50.7
592.093	50.81
592.431	50.91
592.769	51
593.106	51.09
593.444	51.15
593.781	51.25
594.119	51.23
594.456	51.22
594.793	51.31
595.131	51.4
595.468	51.5
595.805	51.58
596.143	51.57
596.48	51.64
596.817	51.77
597.154	51.78
597.491	51.87
597.828	51.91
598.165	52.05
598.502	52.18
598.839	52.3
599.176	52.4
599.512	52.46
599.849	52.55
600.186	52.66
600.523	52.77
600.859	52.83
601.196	52.96
601.532	53.12
601.869	53.17
602.205	53.13
602.542	53.15
602.878	53.2
603.215	53.2
603.551	53.24
603.887	53.23
604.223	53.35
604.56	53.42
604.896	53.42
605.232	53.4
605.568	53.43
605.904	53.42
606.24	53.45
606.576	53.49
606.912	53.56
607.248	53.56
607.583	53.59
607.919	53.57
608.255	53.62
608.591	53.66
608.926	53.74
609.262	53.89
609.597	54.08
609.933	54.17
610.268	54.41
610.604	54.46
610.939	54.53
611.275	54.62
611.61	54.65
611.945	54.78
612.281	54.92
612.616	54.98
612.951	55.14
613.286	55.27
613.621	55.33
613.956	55.39
614.291	55.48
614.626	55.47
614.961	55.65
615.296	55.71
615.631	55.72
615.966	55.7
616.3	55.75
616.635	55.65
616.97	55.68
617.304	55.66
617.639	55.7
617.973	55.8
618.308	55.81
618.642	55.78
618.977	55.86
619.311	55.82
619.646	55.88
619.98	55.88
620.314	55.82
620.648	55.91
620.983	55.97
621.317	56.06
621.651	56.1
621.985	56.09
622.319	56.1
622.653	56.17
622.987	56.26
623.321	56.26
623.655	56.38
623.988	56.42
624.322	56.42
624.656	56.47
624.99	56.46
625.323	56.45
625.657	56.55
625.99	56.56
626.324	56.54
626.657	56.53
626.991	56.54
627.324	56.63
627.658	56.57
627.991	56.63
628.324	56.61
628.657	56.69
628.991	56.73
629.324	56.73
629.657	56.75
629.99	56.8
630.323	56.79
630.656	56.75
630.989	56.78
631.322	56.83
631.655	56.8
631.987	56.88
632.32	56.91
632.653	56.99
632.986	56.99
633.318	57.09
633.651	57.15
633.984	57.23
634.316	57.24
634.649	57.37
634.981	57.44
635.313	57.42
635.646	57.41
635.978	57.48
636.31	57.52
636.643	57.56
636.975	57.55
637.307	57.75
637.639	57.78
637.971	57.78
638.303	57.72
638.635	57.78
638.967	57.65
639.299	57.67
639.631	57.58
639.963	57.61
640.295	57.61
640.626	57.6
640.958	57.62
641.29	57.62
641.621	57.64
641.953	57.53
642.285	57.7
642.616	57.82
642.948	57.79
643.279	57.81
643.61	57.8
643.942	57.7
644.273	57.54
644.604	57.46
644.936	57.39
645.267	57.48
645.598	57.54
645.929	57.63
646.26	57.67
646.591	57.7
646.922	57.68
647.253	57.85
647.584	57.87
647.915	57.92
648.245	57.95
648.576	57.94
648.907	58.06
649.238	57.95
649.568	58.03
649.899	58.04
650.229	58.15
650.56	58.17
650.89	58.32
651.221	58.37
651.551	58.52
651.882	58.67
652.212	58.67
652.542	58.64
652.872	58.71
653.203	58.74
653.533	58.95
653.863	58.99
654.193	58.93
654.523	58.95
654.853	58.9
655.183	59.03
655.513	58.98
655.843	59
656.172	59.05
656.502	59.02
656.832	59.07
657.162	59.06
657.491	59.1
657.821	59.11
658.15	59.05
658.48	59.05
658.809	59.15
659.139	59.12
659.468	59.27
659.798	59.25
660.127	59.23
660.456	59.11
660.785	59.16
661.115	59.15
661.444	59.24
661.773	59.25
662.102	59.08
662.431	59.19
662.76	59.29
663.089	59.26
663.418	59.19
663.747	59.24
664.076	59.21
664.404	59.22
664.733	59.39
665.062	59.36
665.39	59.24
665.719	59.01
666.048	59.11
666.376	59.08
666.705	59.14
667.033	59.13
667.362	59.19
