Data from BA56813_Reflection_00003.txt Node
Date: Mon Nov 18 15:50:33 EST 2019
User: vgr7
Spectrometer: USB2G7710
Scans to average: 3
Trigger mode: 4
Integration Time (sec): 2.000000E-2
Electric dark correction enabled: true
Boxcar width: 10
XAxis mode: Wavelengths
Number of Pixels in Spectrum: 2048
>>>>>Begin Spectral Data<<<<<
177.721	-41.36
178.105	-23.67
178.488	14.49
178.871	130.34
179.254	67.46
179.636	54.92
180.019	180.4
180.402	107.69
180.785	264.44
181.168	538.42
181.55	302.4
181.933	174.15
182.316	128.2
182.698	130.84
183.081	164.3
183.463	188.33
183.846	180.52
184.228	123.8
184.611	113.63
184.993	108.27
185.376	94.84
185.758	115.73
186.14	118.56
186.522	113.14
186.904	174.15
187.287	138.56
187.669	161.45
188.051	166.29
188.433	233.97
188.815	231.4
189.197	205.99
189.579	194.3
189.961	151.57
190.342	180.92
190.724	329.03
191.106	495.01
191.488	-1217.37
191.869	-488.24
192.251	-724.05
192.633	-508.08
193.014	-2474.85
193.396	-1498.66
193.777	-2591.1
194.159	-4994.74
194.54	-1485.01
194.922	-3067.79
195.303	-398.61
195.684	-338.36
196.065	-197.92
196.447	-286.9
196.828	-269.46
197.209	-220.24
197.59	-215.42
197.971	-177.76
198.352	-122.67
198.733	-225.46
199.114	-188.25
199.495	-239.16
199.876	-262.64
200.257	-209.68
200.638	-222.06
201.018	-190.25
201.399	-214.45
201.78	-195.61
202.16	-241.98
202.541	-366.71
202.922	-410.1
203.302	-448.16
203.683	-316.91
204.063	-443.79
204.444	-434.12
204.824	-560.4
205.204	-416.58
205.585	-325.4
205.965	-311.34
206.345	-2571.33
206.725	983.12
207.106	439.42
207.486	324.1
207.866	351.7
208.246	387.4
208.626	572.64
209.006	375.86
209.386	344.98
209.766	506.05
210.145	740.43
210.525	-2863.5
210.905	-580.19
211.285	-1483.67
211.664	-5662.71
212.044	-10300
212.424	-764.14
212.803	4788.52
213.183	-1930.46
213.562	-1033.14
213.942	-519.12
214.321	-191.12
214.701	-110.69
215.08	-122.31
215.459	-123.73
215.838	-93.58
216.218	-88.77
216.597	-67.42
216.976	-70.52
217.355	-65.28
217.734	-66.48
218.113	-49.18
218.492	-64.12
218.871	-77.28
219.25	-84.84
219.629	-106.42
220.008	-97.35
220.387	-107.65
220.766	-100.12
221.144	-117.04
221.523	-140.72
221.902	-151.77
222.28	-179.47
222.659	-184.58
223.037	-144.86
223.416	-145.73
223.794	-174.89
224.173	-138.08
224.551	-134.86
224.929	-126.99
225.308	-100.48
225.686	-80.87
226.064	-71.79
226.442	-55.16
226.821	-39.96
227.199	-34.15
227.577	-31.05
227.955	-31.15
228.333	-26.26
228.711	-24.26
229.089	-19.31
229.467	-18.88
229.845	-18.63
230.222	-14.11
230.6	-16.09
230.978	-16.88
231.356	-11.39
231.733	-9.35
232.111	-7.41
232.488	-5.66
232.866	-5.11
233.243	-6.59
233.621	-7.24
233.998	-5.34
234.376	-7.01
234.753	-8.31
235.13	-7.52
235.508	-6.33
235.885	-4.47
236.262	-5.85
236.639	-5.61
237.016	-4.05
237.393	-2.69
237.77	-0.82
238.147	-0.46
238.524	1.06
238.901	2.51
239.278	1.81
239.655	2.34
240.032	2.33
240.409	2.03
240.785	2.68
241.162	3.48
241.539	3.88
241.915	3.58
242.292	4.18
242.668	4.5
243.045	4.29
243.421	4.43
243.798	4.39
244.174	4.63
244.551	4.55
244.927	4.18
245.303	4.4
245.679	4.31
246.056	4.24
246.432	4.09
246.808	3.84
247.184	3.67
247.56	3.65
247.936	3.65
248.312	3.77
248.688	3.92
249.064	3.63
249.44	3.58
249.815	3.45
250.191	3.38
250.567	3.22
250.943	3.29
251.318	3.23
251.694	3.06
252.069	2.84
252.445	2.76
252.82	2.68
253.196	2.38
253.571	2.2
253.947	2.15
254.322	2.37
254.697	2.28
255.073	2.33
255.448	2.42
255.823	2.56
256.198	2.61
256.573	2.53
256.948	2.69
257.323	2.86
257.698	3.05
258.073	2.95
258.448	3.01
258.823	3.07
259.198	3.03
259.573	3.19
259.948	3.26
260.322	3.36
260.697	3.37
261.072	3.39
261.446	3.5
261.821	3.49
262.195	3.62
262.57	3.57
262.944	3.52
263.319	3.51
263.693	3.52
264.067	3.58
264.442	3.56
264.816	3.58
265.19	3.52
265.564	3.44
265.938	3.47
266.313	3.4
266.687	3.32
267.061	3.23
267.435	3.16
267.809	3.23
268.183	3.15
268.556	3.17
268.93	3.12
269.304	3.07
269.678	3.17
270.051	3.05
270.425	3.25
270.799	3.32
271.172	3.31
271.546	3.21
271.919	3.17
272.293	3.21
272.666	3.32
273.04	3.2
273.413	3.23
273.787	3.19
274.16	3.21
274.533	3.31
274.906	3.36
275.279	3.55
275.653	3.46
276.026	3.39
276.399	3.33
276.772	3.62
277.145	3.55
277.518	3.54
277.891	3.5
278.263	3.36
278.636	3.37
279.009	3.37
279.382	3.51
279.755	3.43
280.127	3.53
280.5	3.47
280.872	3.63
281.245	3.54
281.617	3.64
281.99	3.74
282.362	3.69
282.735	3.61
283.107	3.45
283.479	3.45
283.852	3.59
284.224	3.57
284.596	3.47
284.968	3.48
285.34	3.61
285.713	3.68
286.085	3.72
286.457	3.83
286.829	3.87
287.201	3.79
287.572	3.83
287.944	3.76
288.316	3.67
288.688	3.52
289.06	3.52
289.431	3.58
289.803	3.61
290.175	3.62
290.546	3.79
290.918	3.72
291.289	3.81
291.661	3.94
292.032	4.12
292.403	4.21
292.775	4.37
293.146	4.28
293.517	4.18
293.889	4.24
294.26	4.22
294.631	4.35
295.002	4.38
295.373	4.41
295.744	4.45
296.115	4.65
296.486	4.61
296.857	4.7
297.228	4.79
297.599	4.7
297.97	4.77
298.34	4.78
298.711	5
299.082	4.97
299.452	4.96
299.823	5.08
300.194	5.02
300.564	4.94
300.935	5.05
301.305	5.2
301.676	5.19
302.046	5.19
302.416	5.23
302.787	5.29
303.157	5.36
303.527	5.31
303.897	5.34
304.267	5.56
304.637	5.7
305.008	5.71
305.378	5.8
305.748	5.9
306.117	5.88
306.487	5.93
306.857	6.06
307.227	5.92
307.597	5.8
307.967	5.72
308.336	5.79
308.706	5.69
309.076	5.68
309.445	5.73
309.815	5.69
310.184	5.49
310.554	5.54
310.923	5.51
311.293	5.51
311.662	5.36
312.031	5.37
312.401	5.37
312.77	5.36
313.139	5.37
313.508	5.34
313.877	5.35
314.246	5.23
314.616	5.12
314.985	5.15
315.353	5.21
315.722	5.42
316.091	5.39
316.46	5.33
316.829	5.41
317.198	5.38
317.567	5.41
317.935	5.53
318.304	5.57
318.672	5.65
319.041	5.69
319.41	5.78
319.778	5.67
320.147	5.67
320.515	5.59
320.883	5.64
321.252	5.56
321.62	5.45
321.988	5.38
322.357	5.49
322.725	5.39
323.093	5.37
323.461	5.23
323.829	5.31
324.197	5.43
324.565	5.29
324.933	5.52
325.301	5.55
325.669	5.57
326.037	5.46
326.405	5.45
326.772	5.6
327.14	5.56
327.508	5.65
327.875	5.68
328.243	5.65
328.61	5.65
328.978	5.76
329.346	5.83
329.713	5.88
330.08	5.87
330.448	5.94
330.815	5.84
331.182	6.01
331.55	6.08
331.917	6.02
332.284	6.15
332.651	6.06
333.018	6.06
333.385	5.99
333.752	6.02
334.119	6.02
334.486	5.92
334.853	5.95
335.22	5.94
335.587	5.9
335.954	5.94
336.32	5.93
336.687	5.92
337.054	5.94
337.42	5.99
337.787	6.01
338.153	5.97
338.52	6.16
338.886	6.01
339.253	5.88
339.619	5.87
339.986	5.8
340.352	5.8
340.718	5.77
341.084	5.81
341.451	5.9
341.817	5.94
342.183	5.98
342.549	5.97
342.915	6.03
343.281	6
343.647	5.94
344.013	5.91
344.379	5.81
344.745	5.85
345.11	5.84
345.476	5.82
345.842	5.84
346.208	5.72
346.573	5.75
346.939	5.84
347.304	5.82
347.67	5.79
348.035	5.75
348.401	5.74
348.766	5.67
349.132	5.6
349.497	5.62
349.862	5.69
350.228	5.68
350.593	5.64
350.958	5.65
351.323	5.72
351.688	5.79
352.053	5.88
352.418	5.94
352.783	5.88
353.148	5.91
353.513	5.91
353.878	5.95
354.243	5.98
354.608	5.97
354.972	5.98
355.337	6.06
355.702	6.1
356.066	6.21
356.431	6.28
356.795	6.32
357.16	6.27
357.524	6.24
357.889	6.18
358.253	6.11
358.618	6.2
358.982	6.19
359.346	6.15
359.71	6.16
360.075	6.1
360.439	6.21
360.803	6.22
361.167	6.22
361.531	6.2
361.895	6.16
362.259	6.08
362.623	6.1
362.987	6.01
363.351	6.01
363.714	5.96
364.078	5.91
364.442	5.92
364.806	5.94
365.169	5.93
365.533	6.03
365.896	6.08
366.26	5.99
366.623	5.98
366.987	5.99
367.35	5.93
367.714	5.95
368.077	5.92
368.44	5.9
368.803	5.91
369.167	5.86
369.53	5.82
369.893	5.93
370.256	5.91
370.619	5.98
370.982	5.96
371.345	5.96
371.708	5.99
372.071	5.93
372.434	5.9
372.797	5.86
373.159	5.78
373.522	5.8
373.885	5.84
374.247	5.89
374.61	5.86
374.973	5.87
375.335	5.82
375.698	5.81
376.06	5.75
376.423	5.76
376.785	5.83
377.147	5.92
377.51	5.89
377.872	5.95
378.234	5.98
378.596	6.02
378.958	5.99
379.321	6.01
379.683	6.05
380.045	6.07
380.407	6.07
380.769	6.14
381.13	6.12
381.492	6.12
381.854	6.13
382.216	6.17
382.578	6.22
382.939	6.22
383.301	6.17
383.663	6.26
384.024	6.26
384.386	6.26
384.747	6.24
385.109	6.26
385.47	6.25
385.832	6.21
386.193	6.2
386.554	6.22
386.916	6.25
387.277	6.24
387.638	6.25
387.999	6.26
388.36	6.26
388.721	6.27
389.082	6.25
389.443	6.22
389.804	6.23
390.165	6.21
390.526	6.23
390.887	6.26
391.248	6.24
391.609	6.22
391.969	6.23
392.33	6.21
392.691	6.21
393.051	6.22
393.412	6.27
393.772	6.23
394.133	6.22
394.493	6.25
394.854	6.23
395.214	6.25
395.574	6.25
395.935	6.22
396.295	6.25
396.655	6.25
397.015	6.27
397.376	6.24
397.736	6.26
398.096	6.29
398.456	6.3
398.816	6.33
399.176	6.33
399.535	6.32
399.895	6.34
400.255	6.36
400.615	6.35
400.975	6.33
401.334	6.34
401.694	6.36
402.054	6.32
402.413	6.35
402.773	6.28
403.132	6.25
403.492	6.23
403.851	6.19
404.211	6.2
404.57	6.17
404.929	6.2
405.288	6.17
405.648	6.15
406.007	6.13
406.366	6.12
406.725	6.15
407.084	6.14
407.443	6.15
407.802	6.15
408.161	6.13
408.52	6.1
408.879	6.1
409.238	6.08
409.596	6.08
409.955	6.05
410.314	6.08
410.673	6.08
411.031	6.12
411.39	6.17
411.748	6.16
412.107	6.19
412.465	6.19
412.824	6.22
413.182	6.22
413.54	6.25
413.899	6.24
414.257	6.26
414.615	6.27
414.974	6.29
415.332	6.29
415.69	6.29
416.048	6.32
416.406	6.33
416.764	6.36
417.122	6.38
417.48	6.41
417.838	6.42
418.195	6.42
418.553	6.42
418.911	6.42
419.269	6.46
419.626	6.45
419.984	6.45
420.342	6.45
420.699	6.45
421.057	6.45
421.414	6.46
421.772	6.45
422.129	6.45
422.486	6.45
422.844	6.45
423.201	6.45
423.558	6.44
423.915	6.44
424.273	6.45
424.63	6.43
424.987	6.42
425.344	6.42
425.701	6.45
426.058	6.46
426.415	6.45
426.772	6.43
427.128	6.45
427.485	6.45
427.842	6.42
428.199	6.45
428.555	6.44
428.912	6.43
429.269	6.44
429.625	6.41
429.982	6.42
430.338	6.42
430.695	6.43
431.051	6.43
431.407	6.43
431.764	6.42
432.12	6.41
432.476	6.41
432.832	6.39
433.189	6.38
433.545	6.36
433.901	6.37
434.257	6.37
434.613	6.36
434.969	6.37
435.325	6.37
435.681	6.36
436.036	6.36
436.392	6.33
436.748	6.34
437.104	6.36
437.459	6.36
437.815	6.35
438.171	6.35
438.526	6.36
438.882	6.37
439.237	6.37
439.593	6.38
439.948	6.38
440.304	6.4
440.659	6.4
441.014	6.39
441.369	6.37
441.725	6.37
442.08	6.36
442.435	6.37
442.79	6.39
443.145	6.4
443.5	6.4
443.855	6.43
444.21	6.42
444.565	6.42
444.92	6.43
445.275	6.42
445.629	6.43
445.984	6.44
446.339	6.44
446.693	6.43
447.048	6.44
447.403	6.45
447.757	6.45
448.112	6.45
448.466	6.47
448.82	6.48
449.175	6.5
449.529	6.5
449.883	6.48
450.238	6.46
450.592	6.45
450.946	6.44
451.3	6.44
451.654	6.43
452.008	6.43
452.362	6.4
452.716	6.41
453.07	6.43
453.424	6.42
453.778	6.42
454.132	6.43
454.486	6.43
454.839	6.41
455.193	6.41
455.547	6.42
455.9	6.42
456.254	6.43
456.607	6.42
456.961	6.42
457.314	6.43
457.668	6.46
458.021	6.46
458.375	6.47
458.728	6.46
459.081	6.49
459.434	6.48
459.787	6.5
460.141	6.49
460.494	6.49
460.847	6.47
461.2	6.45
461.553	6.45
461.906	6.45
462.259	6.46
462.611	6.47
462.964	6.48
463.317	6.48
463.67	6.46
464.022	6.45
464.375	6.45
464.728	6.46
465.08	6.45
465.433	6.44
465.785	6.44
466.138	6.45
466.49	6.44
466.843	6.42
467.195	6.42
467.547	6.42
467.899	6.41
468.252	6.41
468.604	6.46
468.956	6.46
469.308	6.46
469.66	6.43
470.012	6.44
470.364	6.43
470.716	6.42
471.068	6.43
471.42	6.43
471.772	6.45
472.123	6.46
472.475	6.47
472.827	6.49
473.178	6.51
473.53	6.49
473.882	6.5
474.233	6.52
474.585	6.54
474.936	6.52
475.288	6.53
475.639	6.56
475.99	6.54
476.342	6.56
476.693	6.58
477.044	6.6
477.395	6.58
477.746	6.57
478.097	6.58
478.448	6.57
478.8	6.6
479.15	6.59
479.501	6.6
479.852	6.59
480.203	6.58
480.554	6.59
480.905	6.61
481.255	6.61
481.606	6.63
481.957	6.64
482.307	6.66
482.658	6.67
483.009	6.67
483.359	6.67
483.709	6.67
484.06	6.65
484.41	6.67
484.761	6.68
485.111	6.67
485.461	6.67
485.811	6.68
486.162	6.68
486.512	6.68
486.862	6.68
487.212	6.67
487.562	6.68
487.912	6.68
488.262	6.67
488.612	6.67
488.961	6.66
489.311	6.65
489.661	6.64
490.011	6.64
490.36	6.63
490.71	6.63
491.06	6.63
491.409	6.63
491.759	6.61
492.108	6.6
492.458	6.61
492.807	6.61
493.157	6.6
493.506	6.61
493.855	6.59
494.204	6.59
494.554	6.59
494.903	6.59
495.252	6.58
495.601	6.58
495.95	6.59
496.299	6.59
496.648	6.59
496.997	6.6
497.346	6.62
497.695	6.64
498.043	6.62
498.392	6.62
498.741	6.64
499.09	6.65
499.438	6.65
499.787	6.65
500.135	6.65
500.484	6.66
500.832	6.67
501.181	6.7
501.529	6.72
501.878	6.74
502.226	6.75
502.574	6.74
502.923	6.74
503.271	6.74
503.619	6.73
503.967	6.75
504.315	6.74
504.663	6.73
505.011	6.72
505.359	6.74
505.707	6.76
506.055	6.75
506.403	6.76
506.751	6.77
507.098	6.78
507.446	6.81
507.794	6.79
508.141	6.78
508.489	6.76
508.837	6.77
509.184	6.76
509.531	6.76
509.879	6.76
510.226	6.77
510.574	6.77
510.921	6.78
511.268	6.78
511.616	6.77
511.963	6.76
512.31	6.76
512.657	6.77
513.004	6.77
513.351	6.79
513.698	6.77
514.045	6.78
514.392	6.79
514.739	6.79
515.086	6.82
515.432	6.82
515.779	6.82
516.126	6.81
516.473	6.83
516.819	6.84
517.166	6.85
517.512	6.84
517.859	6.84
518.205	6.82
518.552	6.83
518.898	6.84
519.245	6.86
519.591	6.86
519.937	6.84
520.283	6.84
520.629	6.84
520.976	6.86
521.322	6.85
521.668	6.85
522.014	6.86
522.36	6.86
522.706	6.88
523.052	6.9
523.398	6.93
523.743	6.92
524.089	6.93
524.435	6.95
524.781	6.96
525.126	6.98
525.472	7
525.817	7
526.163	6.99
526.509	6.98
526.854	6.99
527.199	6.99
527.545	6.99
527.89	6.99
528.235	6.99
528.581	7
528.926	7.01
529.271	7.01
529.616	7
529.961	6.99
530.306	7
530.651	6.99
530.996	6.99
531.341	7
531.686	6.99
532.031	6.99
532.376	6.99
532.721	6.98
533.065	6.98
533.41	6.99
533.755	7.01
534.099	7.02
534.444	7.03
534.788	7.05
535.133	7.05
535.477	7.04
535.822	7.05
536.166	7.04
536.51	7.03
536.855	7.03
537.199	7.05
537.543	7.04
537.887	7.05
538.231	7.04
538.576	7.05
538.92	7.05
539.264	7.05
539.608	7.05
539.951	7.06
540.295	7.05
540.639	7.05
540.983	7.04
541.327	7.04
541.671	7.03
542.014	7.02
542.358	7.03
542.701	7.02
543.045	6.99
543.389	7.01
543.732	7.01
544.075	7
544.419	7.01
544.762	7
545.105	6.98
545.449	6.98
545.792	6.98
546.135	6.99
546.478	6.99
546.821	6.98
547.165	6.98
547.508	6.99
547.851	7
548.194	6.98
548.536	6.97
548.879	7
549.222	6.99
549.565	6.98
549.908	7.02
550.25	7.03
550.593	7.02
550.936	7
551.278	7.01
551.621	6.99
551.963	7
552.306	7.01
552.648	7.01
552.991	7.03
553.333	7.02
553.675	7.01
554.017	7.04
554.36	7.02
554.702	7.02
555.044	7.03
555.386	7.05
555.728	7.04
556.07	7.04
556.412	7.04
556.754	7.06
557.096	7.04
557.438	7.04
557.78	7.06
558.121	7.11
558.463	7.11
558.805	7.15
559.147	7.18
559.488	7.18
559.83	7.21
560.171	7.19
560.513	7.21
560.854	7.22
561.196	7.21
561.537	7.24
561.878	7.22
562.22	7.22
562.561	7.17
562.902	7.21
563.243	7.19
563.584	7.21
563.925	7.23
564.266	7.25
564.607	7.27
564.948	7.27
565.289	7.23
565.63	7.23
565.971	7.2
566.312	7.16
566.653	7.16
566.993	7.15
567.334	7.14
567.675	7.14
568.015	7.13
568.356	7.11
568.696	7.11
569.037	7.1
569.377	7.11
569.718	7.14
570.058	7.13
570.398	7.15
570.739	7.16
571.079	7.16
571.419	7.16
571.759	7.14
572.099	7.15
572.439	7.18
572.779	7.16
573.119	7.18
573.459	7.2
573.799	7.21
574.139	7.2
574.479	7.2
574.819	7.23
575.158	7.22
575.498	7.24
575.838	7.24
576.177	7.24
576.517	7.22
576.856	7.23
577.196	7.21
577.535	7.19
577.875	7.18
578.214	7.16
578.553	7.17
578.893	7.17
579.232	7.19
579.571	7.18
579.91	7.2
580.25	7.18
580.589	7.16
580.928	7.16
581.267	7.17
581.606	7.16
581.945	7.11
582.283	7.13
582.622	7.14
582.961	7.13
583.3	7.16
583.639	7.2
583.977	7.19
584.316	7.21
584.654	7.24
584.993	7.21
585.332	7.25
585.67	7.23
586.008	7.24
586.347	7.2
586.685	7.18
587.024	7.17
587.362	7.19
587.7	7.2
588.038	7.18
588.376	7.19
588.715	7.17
589.053	7.23
589.391	7.2
589.729	7.21
590.067	7.21
590.404	7.21
590.742	7.2
591.08	7.21
591.418	7.24
591.756	7.22
592.093	7.23
592.431	7.23
592.769	7.27
593.106	7.27
593.444	7.27
593.781	7.3
594.119	7.34
594.456	7.34
594.793	7.32
595.131	7.36
595.468	7.39
595.805	7.41
596.143	7.39
596.48	7.42
596.817	7.42
597.154	7.48
597.491	7.46
597.828	7.46
598.165	7.46
598.502	7.44
598.839	7.47
599.176	7.48
599.512	7.44
599.849	7.46
600.186	7.45
600.523	7.5
600.859	7.47
601.196	7.48
601.532	7.48
601.869	7.52
602.205	7.47
602.542	7.46
602.878	7.46
603.215	7.48
603.551	7.47
603.887	7.48
604.223	7.45
604.56	7.49
604.896	7.48
605.232	7.51
605.568	7.49
605.904	7.45
606.24	7.46
606.576	7.48
606.912	7.46
607.248	7.45
607.583	7.44
607.919	7.5
608.255	7.45
608.591	7.46
608.926	7.48
609.262	7.52
609.597	7.5
609.933	7.52
610.268	7.53
610.604	7.53
610.939	7.53
611.275	7.55
611.61	7.52
611.945	7.54
612.281	7.51
612.616	7.58
612.951	7.62
613.286	7.66
613.621	7.64
613.956	7.64
614.291	7.66
614.626	7.64
614.961	7.61
615.296	7.63
615.631	7.66
615.966	7.59
616.3	7.56
616.635	7.6
616.97	7.66
617.304	7.64
617.639	7.65
617.973	7.65
618.308	7.64
618.642	7.62
618.977	7.62
619.311	7.6
619.646	7.56
619.98	7.55
620.314	7.5
620.648	7.56
620.983	7.55
621.317	7.58
621.651	7.59
621.985	7.59
622.319	7.61
622.653	7.64
622.987	7.63
623.321	7.65
623.655	7.62
623.988	7.6
624.322	7.62
624.656	7.64
624.99	7.65
625.323	7.65
625.657	7.69
625.99	7.72
626.324	7.73
626.657	7.73
626.991	7.73
627.324	7.74
627.658	7.74
627.991	7.77
628.324	7.77
628.657	7.75
628.991	7.75
629.324	7.75
629.657	7.68
629.99	7.74
630.323	7.75
630.656	7.77
630.989	7.77
631.322	7.78
631.655	7.75
631.987	7.74
632.32	7.73
632.653	7.69
632.986	7.68
633.318	7.68
633.651	7.71
633.984	7.71
634.316	7.68
634.649	7.66
634.981	7.62
635.313	7.6
635.646	7.59
635.978	7.6
636.31	7.56
636.643	7.56
636.975	7.52
637.307	7.5
637.639	7.49
637.971	7.47
638.303	7.48
638.635	7.42
638.967	7.42
639.299	7.45
639.631	7.48
639.963	7.46
640.295	7.45
640.626	7.46
640.958	7.57
641.29	7.62
641.621	7.6
641.953	7.58
642.285	7.6
642.616	7.66
642.948	7.64
643.279	7.69
643.61	7.78
643.942	7.82
644.273	7.87
644.604	7.83
644.936	7.83
645.267	7.75
645.598	7.8
645.929	7.87
646.26	7.86
646.591	7.91
646.922	7.9
647.253	7.93
647.584	7.86
647.915	7.73
648.245	7.75
648.576	7.81
648.907	7.83
649.238	7.84
649.568	7.77
649.899	7.81
650.229	7.81
650.56	7.77
650.89	7.73
651.221	7.69
651.551	7.75
651.882	7.71
652.212	7.81
652.542	7.84
652.872	7.75
653.203	7.73
653.533	7.71
653.863	7.79
654.193	7.78
654.523	7.86
654.853	7.9
655.183	7.82
655.513	7.78
655.843	7.75
656.172	7.77
656.502	7.87
656.832	7.83
657.162	7.91
657.491	7.9
657.821	7.89
658.15	7.88
658.48	7.85
658.809	7.82
659.139	7.76
659.468	7.73
659.798	7.76
660.127	7.88
660.456	7.9
660.785	7.88
661.115	7.86
661.444	7.82
661.773	7.84
662.102	7.94
662.431	7.94
662.76	8.01
663.089	7.96
663.418	7.89
663.747	7.88
664.076	7.79
664.404	7.8
664.733	7.91
665.062	7.93
665.39	7.88
665.719	7.92
666.048	7.96
666.376	8.01
666.705	7.95
667.033	7.8
667.362	7.71
667.69	7.65
668.018	7.68
668.347	7.68
668.675	7.61
669.003	7.56
669.331	7.64
669.659	7.63
669.987	7.63
670.315	7.56
670.643	7.62
670.971	7.68
671.299	7.74
671.627	7.7
671.955	7.76
672.283	7.8
672.61	7.78
672.938	7.74
673.266	7.74
673.593	7.87
673.921	7.87
674.249	7.97
