Data from BA56832_Reflection_00010.txt Node
Date: Mon Nov 18 16:10:01 EST 2019
User: vgr7
Spectrometer: USB2G7710
Scans to average: 3
Trigger mode: 4
Integration Time (sec): 2.000000E-2
Electric dark correction enabled: true
Boxcar width: 10
XAxis mode: Wavelengths
Number of Pixels in Spectrum: 2048
>>>>>Begin Spectral Data<<<<<
177.721	7.06
178.105	1.9
178.488	-15.33
178.871	-49.38
179.254	-42.15
179.636	-148.09
180.019	19.77
180.402	184.62
180.785	-137.11
181.168	-50.68
181.55	-10.8
181.933	71.43
182.316	185.92
182.698	250.75
183.081	141.53
183.463	167.78
183.846	165
184.228	106.79
184.611	142.6
184.993	124.84
185.376	81.38
185.758	116.49
186.14	169.97
186.522	293.86
186.904	3780.85
187.287	3235.59
187.669	-1403.6
188.051	-352.54
188.433	-362.65
188.815	-484.2
189.197	-317.38
189.579	-165.59
189.961	-112.45
190.342	-114.33
190.724	-93.86
191.106	-86.6
191.488	-152.67
191.869	-112.23
192.251	-100.5
192.633	-130.35
193.014	-204.35
193.396	-345
193.777	-497.58
194.159	-598.88
194.54	-194.23
194.922	-109.86
195.303	-128.42
195.684	-87.93
196.065	-55.21
196.447	-48.22
196.828	-82.37
197.209	-104.34
197.59	-94.89
197.971	-152.9
198.352	-158.01
198.733	-273.81
199.114	-194.39
199.495	-150.13
199.876	-223.24
200.257	-174.41
200.638	-120.49
201.018	-95.16
201.399	-68.61
201.78	-67.75
202.16	-89.88
202.541	-155.76
202.922	-272.85
203.302	-305.23
203.683	-252.97
204.063	-262.9
204.444	-286.35
204.824	-180.5
205.204	-150.74
205.585	-168.05
205.965	-128.29
206.345	-124.67
206.725	-90.28
207.106	-168.9
207.486	-237.88
207.866	-186.14
208.246	-361.36
208.626	8755.17
209.006	-1978.26
209.386	-785.71
209.766	-382.17
210.145	-227.07
210.525	-136.41
210.905	-84.7
211.285	-50.9
211.664	-64.87
212.044	-67.68
212.424	-86.21
212.803	-115.38
213.183	-133.03
213.562	-91.95
213.942	-85.81
214.321	-77.23
214.701	-127.56
215.08	-94.59
215.459	-96.17
215.838	-91.89
216.218	-92.64
216.597	-73.14
216.976	-79.79
217.355	-76.17
217.734	-101.15
218.113	-96.26
218.492	-115.19
218.871	-134.96
219.25	-143.4
219.629	-136.66
220.008	-145.28
220.387	-135.38
220.766	-125.47
221.144	-135.54
221.523	-185.96
221.902	-219.12
222.28	-205.9
222.659	-107.89
223.037	-84.71
223.416	-59.41
223.794	-51.5
224.173	-31.19
224.551	-17.32
224.929	-17.92
225.308	-20.58
225.686	-11.05
226.064	-15.95
226.442	-16.93
226.821	-10.35
227.199	-12.64
227.577	-8.46
227.955	-8.9
228.333	-5.71
228.711	-3.13
229.089	-0.79
229.467	-1.32
229.845	-1.64
230.222	-0.03
230.6	-2.74
230.978	-3.58
231.356	-1.96
231.733	-1.15
232.111	-0.72
232.488	1.06
232.866	2.54
233.243	3.51
233.621	3.6
233.998	6.38
234.376	5.81
234.753	5.06
235.13	6.2
235.508	5.3
235.885	4.64
236.262	3.99
236.639	3.01
237.016	3.16
237.393	4.3
237.77	3.79
238.147	5.02
238.524	4.47
238.901	5.3
239.278	4.9
239.655	5.08
240.032	5.1
240.409	4.48
240.785	4.47
241.162	5.1
241.539	5.08
241.915	5.1
242.292	5.51
242.668	5.52
243.045	5.56
243.421	5.32
243.798	5.49
244.174	5.59
244.551	5.55
244.927	5.55
245.303	5.35
245.679	5.45
246.056	5.32
246.432	5.49
246.808	5.57
247.184	5.3
247.56	5.27
247.936	5.08
248.312	5.04
248.688	4.88
249.064	4.84
249.44	4.84
249.815	4.56
250.191	4.83
250.567	4.99
250.943	4.67
251.318	4.86
251.694	4.64
252.069	4.79
252.445	4.87
252.82	4.66
253.196	4.43
253.571	4.54
253.947	4.23
254.322	4.29
254.697	3.98
255.073	4.09
255.448	3.7
255.823	3.56
256.198	3.62
256.573	3.79
256.948	3.68
257.323	3.79
257.698	4.04
258.073	3.73
258.448	3.66
258.823	3.86
259.198	3.71
259.573	3.72
259.948	3.57
260.322	3.65
260.697	3.69
261.072	3.76
261.446	3.8
261.821	3.98
262.195	4
262.57	4.07
262.944	3.93
263.319	4.06
263.693	4.16
264.067	4.18
264.442	4.09
264.816	4.05
265.19	3.88
265.564	3.62
265.938	3.58
266.313	3.45
266.687	3.57
267.061	3.67
267.435	3.68
267.809	3.76
268.183	3.67
268.556	3.76
268.93	3.89
269.304	3.7
269.678	3.65
270.051	3.67
270.425	3.52
270.799	3.66
271.172	3.66
271.546	3.7
271.919	3.51
272.293	3.55
272.666	3.64
273.04	3.84
273.413	3.8
273.787	3.84
274.16	3.85
274.533	3.81
274.906	3.79
275.279	3.95
275.653	3.87
276.026	3.87
276.399	3.77
276.772	3.78
277.145	3.83
277.518	3.88
277.891	3.87
278.263	3.81
278.636	3.87
279.009	3.92
279.382	4.08
279.755	4.19
280.127	4.31
280.5	4.37
280.872	4.29
281.245	4.39
281.617	4.4
281.99	4.56
282.362	4.33
282.735	4.29
283.107	4.23
283.479	4.31
283.852	4.27
284.224	4.33
284.596	4.37
284.968	4.36
285.34	4.4
285.713	4.38
286.085	4.52
286.457	4.63
286.829	4.68
287.201	4.58
287.572	4.68
287.944	4.6
288.316	4.51
288.688	4.44
289.06	4.46
289.431	4.46
289.803	4.31
290.175	4.42
290.546	4.51
290.918	4.51
291.289	4.57
291.661	4.68
292.032	4.67
292.403	4.71
292.775	4.79
293.146	4.62
293.517	4.57
293.889	4.62
294.26	4.61
294.631	4.58
295.002	4.57
295.373	4.67
295.744	4.7
296.115	4.73
296.486	4.71
296.857	4.72
297.228	4.78
297.599	4.85
297.97	4.89
298.34	4.9
298.711	5.01
299.082	4.96
299.452	5.1
299.823	5.26
300.194	5.31
300.564	5.36
300.935	5.55
301.305	5.62
301.676	5.72
302.046	5.76
302.416	5.96
302.787	6.12
303.157	6.12
303.527	6.16
303.897	6.29
304.267	6.55
304.637	6.68
305.008	6.83
305.378	7
305.748	7.11
306.117	7.24
306.487	7.27
306.857	7.4
307.227	7.38
307.597	7.33
307.967	7.3
308.336	7.39
308.706	7.56
309.076	7.63
309.445	7.69
309.815	7.75
310.184	7.71
310.554	7.79
310.923	7.69
311.293	7.84
311.662	7.9
312.031	7.89
312.401	7.96
312.77	8.03
313.139	8.09
313.508	8.1
313.877	8.16
314.246	8.19
314.616	8.18
314.985	8.23
315.353	8.22
315.722	8.24
316.091	8.26
316.46	8.1
316.829	8.15
317.198	8.12
317.567	8.12
317.935	8.15
318.304	8.25
318.672	8.39
319.041	8.43
319.41	8.48
319.778	8.53
320.147	8.56
320.515	8.61
320.883	8.56
321.252	8.8
321.62	8.83
321.988	8.96
322.357	9.1
322.725	9.27
323.093	9.48
323.461	9.54
323.829	9.41
324.197	9.6
324.565	9.73
324.933	9.87
325.301	9.89
325.669	9.95
326.037	9.79
326.405	9.85
326.772	10.05
327.14	10.16
327.508	10.28
327.875	10.28
328.243	10.29
328.61	10.35
328.978	10.34
329.346	10.41
329.713	10.34
330.08	10.38
330.448	10.2
330.815	10.15
331.182	10.31
331.55	10.51
331.917	10.57
332.284	10.65
332.651	10.57
333.018	10.61
333.385	10.66
333.752	10.84
334.119	11.01
334.486	11.07
334.853	10.99
335.22	11.02
335.587	11.21
335.954	11.2
336.32	11.15
336.687	11.12
337.054	11.18
337.42	11.18
337.787	11.22
338.153	11.33
338.52	11.38
338.886	11.21
339.253	11.3
339.619	11.29
339.986	11.27
340.352	11.33
340.718	11.4
341.084	11.43
341.451	11.58
341.817	11.49
342.183	11.35
342.549	11.44
342.915	11.56
343.281	11.6
343.647	11.58
344.013	11.64
344.379	11.7
344.745	11.67
345.11	11.79
345.476	11.78
345.842	11.77
346.208	11.79
346.573	11.9
346.939	11.98
347.304	12.05
347.67	11.98
348.035	11.99
348.401	12
348.766	12.05
349.132	11.93
349.497	11.94
349.862	12.02
350.228	12.04
350.593	11.86
350.958	11.79
351.323	11.88
351.688	12.03
352.053	11.99
352.418	12.03
352.783	12.01
353.148	12.02
353.513	11.98
353.878	12.05
354.243	12.16
354.608	12.1
354.972	12.07
355.337	12.09
355.702	12.16
356.066	12.19
356.431	12.14
356.795	12.15
357.16	12.14
357.524	12.12
357.889	12.08
358.253	12.12
358.618	12.18
358.982	12.07
359.346	11.91
359.71	11.88
360.075	11.85
360.439	11.86
360.803	11.9
361.167	11.87
361.531	11.76
361.895	11.67
362.259	11.55
362.623	11.48
362.987	11.52
363.351	11.44
363.714	11.48
364.078	11.43
364.442	11.31
364.806	11.27
365.169	11.22
365.533	11.17
365.896	11.13
366.26	10.96
366.623	10.99
366.987	10.95
367.35	10.95
367.714	10.93
368.077	10.81
368.44	10.69
368.803	10.69
369.167	10.72
369.53	10.63
369.893	10.74
370.256	10.7
370.619	10.6
370.982	10.54
371.345	10.41
371.708	10.4
372.071	10.35
372.434	10.31
372.797	10.21
373.159	10.08
373.522	10.04
373.885	10.03
374.247	9.89
374.61	9.87
374.973	9.76
375.335	9.65
375.698	9.58
376.06	9.49
376.423	9.39
376.785	9.29
377.147	9.26
377.51	9.15
377.872	9.12
378.234	9.03
378.596	9
378.958	8.89
379.321	8.8
379.683	8.8
380.045	8.77
380.407	8.76
380.769	8.76
381.13	8.65
381.492	8.57
381.854	8.58
382.216	8.55
382.578	8.57
382.939	8.51
383.301	8.45
383.663	8.42
384.024	8.38
384.386	8.33
384.747	8.31
385.109	8.23
385.47	8.14
385.832	8.13
386.193	8.04
386.554	7.99
386.916	7.95
387.277	7.9
387.638	7.83
387.999	7.72
388.36	7.66
388.721	7.66
389.082	7.61
389.443	7.51
389.804	7.46
390.165	7.36
390.526	7.34
390.887	7.26
391.248	7.22
391.609	7.2
391.969	7.2
392.33	7.13
392.691	7.11
393.051	7.07
393.412	7
393.772	6.95
394.133	6.93
394.493	6.84
394.854	6.76
395.214	6.71
395.574	6.67
395.935	6.64
396.295	6.57
396.655	6.52
397.015	6.48
397.376	6.39
397.736	6.34
398.096	6.28
398.456	6.28
398.816	6.27
399.176	6.21
399.535	6.11
399.895	6.03
400.255	6
400.615	5.94
400.975	5.91
401.334	5.87
401.694	5.81
402.054	5.79
402.413	5.83
402.773	5.78
403.132	5.76
403.492	5.7
403.851	5.67
404.211	5.62
404.57	5.6
404.929	5.57
405.288	5.55
405.648	5.49
406.007	5.45
406.366	5.38
406.725	5.37
407.084	5.35
407.443	5.35
407.802	5.31
408.161	5.27
408.52	5.22
408.879	5.19
409.238	5.16
409.596	5.15
409.955	5.08
410.314	5.07
410.673	5.06
411.031	5.04
411.39	5
411.748	5
412.107	4.98
412.465	4.95
412.824	4.9
413.182	4.89
413.54	4.86
413.899	4.83
414.257	4.78
414.615	4.74
414.974	4.72
415.332	4.7
415.69	4.7
416.048	4.65
416.406	4.65
416.764	4.61
417.122	4.59
417.48	4.55
417.838	4.53
418.195	4.49
418.553	4.46
418.911	4.45
419.269	4.41
419.626	4.4
419.984	4.38
420.342	4.36
420.699	4.34
421.057	4.33
421.414	4.31
421.772	4.29
422.129	4.28
422.486	4.25
422.844	4.22
423.201	4.18
423.558	4.16
423.915	4.13
424.273	4.12
424.63	4.09
424.987	4.06
425.344	4.04
425.701	4.02
426.058	4
426.415	3.97
426.772	3.95
427.128	3.92
427.485	3.9
427.842	3.9
428.199	3.89
428.555	3.87
428.912	3.87
429.269	3.86
429.625	3.84
429.982	3.84
430.338	3.85
430.695	3.87
431.051	3.87
431.407	3.88
431.764	3.88
432.12	3.88
432.476	3.91
432.832	3.89
433.189	3.9
433.545	3.9
433.901	3.9
434.257	3.9
434.613	3.92
434.969	3.93
435.325	3.91
435.681	3.89
436.036	3.89
436.392	3.89
436.748	3.86
437.104	3.88
437.459	3.86
437.815	3.85
438.171	3.85
438.526	3.85
438.882	3.85
439.237	3.84
439.593	3.83
439.948	3.81
440.304	3.81
440.659	3.81
441.014	3.82
441.369	3.8
441.725	3.79
442.08	3.76
442.435	3.76
442.79	3.76
443.145	3.76
443.5	3.75
443.855	3.75
444.21	3.74
444.565	3.73
444.92	3.73
445.275	3.72
445.629	3.71
445.984	3.69
446.339	3.66
446.693	3.64
447.048	3.64
447.403	3.63
447.757	3.61
448.112	3.59
448.466	3.55
448.82	3.55
449.175	3.54
449.529	3.55
449.883	3.54
450.238	3.51
450.592	3.51
450.946	3.5
451.3	3.48
451.654	3.47
452.008	3.46
452.362	3.44
452.716	3.43
453.07	3.44
453.424	3.45
453.778	3.45
454.132	3.45
454.486	3.44
454.839	3.46
455.193	3.48
455.547	3.49
455.9	3.52
456.254	3.52
456.607	3.52
456.961	3.53
457.314	3.52
457.668	3.53
458.021	3.51
458.375	3.51
458.728	3.52
459.081	3.51
459.434	3.52
459.787	3.53
460.141	3.53
460.494	3.5
460.847	3.51
461.2	3.51
461.553	3.53
461.906	3.54
462.259	3.52
462.611	3.53
462.964	3.53
463.317	3.54
463.67	3.55
464.022	3.54
464.375	3.53
464.728	3.54
465.08	3.57
465.433	3.59
465.785	3.61
466.138	3.6
466.49	3.62
466.843	3.61
467.195	3.63
467.547	3.63
467.899	3.65
468.252	3.65
468.604	3.66
468.956	3.65
469.308	3.66
469.66	3.68
470.012	3.67
470.364	3.68
470.716	3.67
471.068	3.67
471.42	3.69
471.772	3.73
472.123	3.74
472.475	3.75
472.827	3.76
473.178	3.75
473.53	3.77
473.882	3.76
474.233	3.78
474.585	3.77
474.936	3.77
475.288	3.78
475.639	3.79
475.99	3.8
476.342	3.8
476.693	3.8
477.044	3.81
477.395	3.8
477.746	3.79
478.097	3.8
478.448	3.8
478.8	3.77
479.15	3.74
479.501	3.73
479.852	3.72
480.203	3.71
480.554	3.71
480.905	3.71
481.255	3.71
481.606	3.71
481.957	3.72
482.307	3.73
482.658	3.71
483.009	3.72
483.359	3.72
483.709	3.72
484.06	3.72
484.41	3.73
484.761	3.74
485.111	3.75
485.461	3.76
485.811	3.76
486.162	3.77
486.512	3.78
486.862	3.79
487.212	3.8
487.562	3.81
487.912	3.82
488.262	3.82
488.612	3.83
488.961	3.84
489.311	3.85
489.661	3.84
490.011	3.85
490.36	3.86
490.71	3.87
491.06	3.89
491.409	3.89
491.759	3.9
492.108	3.9
492.458	3.9
492.807	3.9
493.157	3.91
493.506	3.92
493.855	3.94
494.204	3.93
494.554	3.94
494.903	3.94
495.252	3.95
495.601	3.97
495.95	3.99
496.299	4
496.648	4.01
496.997	4.05
497.346	4.08
497.695	4.11
498.043	4.13
498.392	4.16
498.741	4.19
499.09	4.23
499.438	4.27
499.787	4.3
500.135	4.35
500.484	4.39
500.832	4.44
501.181	4.47
501.529	4.52
501.878	4.59
502.226	4.65
502.574	4.69
502.923	4.73
503.271	4.75
503.619	4.81
503.967	4.87
504.315	4.93
504.663	4.98
505.011	5.03
505.359	5.07
505.707	5.11
506.055	5.14
506.403	5.19
506.751	5.23
507.098	5.28
507.446	5.32
507.794	5.38
508.141	5.42
508.489	5.46
508.837	5.52
509.184	5.56
509.531	5.6
509.879	5.67
510.226	5.73
510.574	5.79
510.921	5.83
511.268	5.87
511.616	5.92
511.963	5.98
512.31	6.03
512.657	6.08
513.004	6.12
513.351	6.21
513.698	6.26
514.045	6.31
514.392	6.37
514.739	6.44
515.086	6.52
515.432	6.58
515.779	6.64
516.126	6.71
516.473	6.78
516.819	6.85
517.166	6.92
517.512	7
517.859	7.07
518.205	7.12
518.552	7.21
518.898	7.26
519.245	7.32
519.591	7.36
519.937	7.41
520.283	7.51
520.629	7.57
520.976	7.64
521.322	7.74
521.668	7.82
522.014	7.91
522.36	8
522.706	8.1
523.052	8.2
523.398	8.3
523.743	8.42
524.089	8.53
524.435	8.62
524.781	8.72
525.126	8.83
525.472	8.94
525.817	9.01
526.163	9.1
526.509	9.18
526.854	9.28
527.199	9.36
527.545	9.43
527.89	9.51
528.235	9.58
528.581	9.66
528.926	9.74
529.271	9.82
529.616	9.9
529.961	10
530.306	10.09
530.651	10.19
530.996	10.27
531.341	10.37
531.686	10.49
532.031	10.6
532.376	10.72
532.721	10.83
533.065	10.97
533.41	11.1
533.755	11.24
534.099	11.37
534.444	11.53
534.788	11.69
535.133	11.83
535.477	12
535.822	12.17
536.166	12.35
536.51	12.54
536.855	12.76
537.199	12.96
537.543	13.17
537.887	13.4
538.231	13.64
538.576	13.9
538.92	14.15
539.264	14.36
539.608	14.57
539.951	14.79
540.295	14.99
540.639	15.19
540.983	15.36
541.327	15.55
541.671	15.73
542.014	15.89
542.358	16.08
542.701	16.27
543.045	16.46
543.389	16.67
543.732	16.88
544.075	17.1
544.419	17.32
544.762	17.56
545.105	17.78
545.449	18.04
545.792	18.27
546.135	18.5
546.478	18.78
546.821	19.06
547.165	19.37
547.508	19.67
547.851	19.97
548.194	20.29
548.536	20.64
548.879	20.98
549.222	21.33
549.565	21.67
549.908	22.02
550.25	22.35
550.593	22.69
550.936	23.02
551.278	23.35
551.621	23.67
551.963	24.01
552.306	24.35
552.648	24.66
552.991	25
553.333	25.32
553.675	25.63
554.017	25.95
554.36	26.24
554.702	26.57
555.044	26.92
555.386	27.24
555.728	27.57
556.07	27.88
556.412	28.22
556.754	28.55
557.096	28.84
557.438	29.17
557.78	29.52
558.121	29.87
558.463	30.22
558.805	30.57
559.147	30.91
559.488	31.27
559.83	31.57
560.171	31.87
560.513	32.26
560.854	32.58
561.196	32.95
561.537	33.27
561.878	33.62
562.22	33.92
562.561	34.28
562.902	34.53
563.243	34.87
563.584	35.17
563.925	35.49
564.266	35.77
564.607	36.05
564.948	36.31
565.289	36.59
565.63	36.87
565.971	37.2
566.312	37.42
566.653	37.68
566.993	37.99
567.334	38.28
567.675	38.49
568.015	38.78
568.356	39.03
568.696	39.3
569.037	39.53
569.377	39.77
569.718	39.93
570.058	40.18
570.398	40.39
570.739	40.6
571.079	40.81
571.419	41.07
571.759	41.31
572.099	41.5
572.439	41.67
572.779	41.81
573.119	41.94
573.459	42.16
573.799	42.37
574.139	42.5
574.479	42.69
574.819	42.86
575.158	43.05
575.498	43.23
575.838	43.43
576.177	43.56
576.517	43.78
576.856	44.04
577.196	44.27
577.535	44.47
577.875	44.68
578.214	44.82
578.553	45
578.893	45.13
579.232	45.25
579.571	45.44
579.91	45.62
580.25	45.79
580.589	45.98
580.928	46.04
581.267	46.19
581.606	46.3
581.945	46.46
582.283	46.61
582.622	46.72
582.961	46.85
583.3	47.01
583.639	47.11
583.977	47.22
584.316	47.31
584.654	47.37
584.993	47.51
585.332	47.67
585.67	47.77
586.008	47.93
586.347	48.09
586.685	48.27
587.024	48.4
587.362	48.55
587.7	48.6
588.038	48.74
588.376	48.88
588.715	48.98
589.053	49.11
589.391	49.19
589.729	49.27
590.067	49.33
590.404	49.44
590.742	49.51
591.08	49.58
591.418	49.73
591.756	49.82
592.093	49.96
592.431	50.14
592.769	50.24
593.106	50.36
593.444	50.46
593.781	50.52
594.119	50.56
594.456	50.59
594.793	50.67
595.131	50.74
595.468	50.88
595.805	51.01
596.143	51.09
596.48	51.15
596.817	51.26
597.154	51.3
597.491	51.36
597.828	51.48
598.165	51.57
598.502	51.6
598.839	51.73
599.176	51.72
599.512	51.74
599.849	51.87
600.186	51.93
600.523	52.01
600.859	52
601.196	52.06
601.532	52.19
601.869	52.27
602.205	52.31
602.542	52.4
602.878	52.42
603.215	52.45
603.551	52.52
603.887	52.57
604.223	52.65
604.56	52.67
604.896	52.73
605.232	52.79
605.568	52.86
605.904	52.91
606.24	52.92
606.576	53.01
606.912	53.02
607.248	53.06
607.583	53.15
607.919	53.27
608.255	53.35
608.591	53.37
608.926	53.44
609.262	53.57
609.597	53.54
609.933	53.58
610.268	53.55
610.604	53.55
610.939	53.59
611.275	53.62
611.61	53.63
611.945	53.61
612.281	53.59
612.616	53.62
612.951	53.6
613.286	53.69
613.621	53.67
613.956	53.66
614.291	53.68
614.626	53.67
614.961	53.72
615.296	53.8
615.631	53.82
615.966	53.85
616.3	53.91
616.635	53.95
616.97	53.93
617.304	54.09
617.639	54.21
617.973	54.24
618.308	54.27
618.642	54.29
618.977	54.37
619.311	54.5
619.646	54.49
619.98	54.54
620.314	54.58
620.648	54.57
620.983	54.67
621.317	54.71
621.651	54.73
621.985	54.76
622.319	54.77
622.653	54.7
622.987	54.65
623.321	54.64
623.655	54.71
623.988	54.82
624.322	54.84
624.656	54.85
624.99	54.93
625.323	55.01
625.657	55.21
625.99	55.23
626.324	55.27
626.657	55.3
626.991	55.31
627.324	55.43
627.658	55.52
627.991	55.59
628.324	55.63
628.657	55.63
628.991	55.62
629.324	55.68
629.657	55.8
629.99	55.9
630.323	55.93
630.656	55.95
630.989	55.95
631.322	56
631.655	55.98
631.987	55.99
632.32	56
632.653	55.93
632.986	55.98
633.318	55.89
633.651	55.97
633.984	56.05
634.316	55.98
634.649	56.01
634.981	56.01
635.313	56.03
635.646	56.11
635.978	56.21
636.31	56.22
636.643	56.28
636.975	56.32
637.307	56.39
637.639	56.3
637.971	56.31
638.303	56.31
638.635	56.33
638.967	56.2
639.299	56.23
639.631	56.22
639.963	56.18
640.295	56.27
640.626	56.31
640.958	56.24
641.29	56.29
641.621	56.23
641.953	56.18
642.285	56.24
642.616	56.19
642.948	56.19
643.279	56.14
643.61	56.14
643.942	56.1
644.273	56.13
644.604	56.17
644.936	56.29
645.267	56.23
645.598	56.29
645.929	56.43
646.26	56.38
646.591	56.39
646.922	56.46
647.253	56.49
647.584	56.47
647.915	56.55
648.245	56.57
648.576	56.63
648.907	56.74
649.238	56.83
649.568	56.87
649.899	56.79
650.229	56.83
650.56	56.87
650.89	56.79
651.221	56.74
651.551	56.76
651.882	56.74
652.212	56.81
652.542	56.82
652.872	56.76
653.203	56.84
653.533	56.88
653.863	56.89
654.193	56.81
654.523	56.75
654.853	56.76
655.183	56.72
655.513	56.69
655.843	56.55
656.172	56.56
656.502	56.69
656.832	56.75
657.162	56.93
657.491	56.93
657.821	57.04
658.15	57.07
658.48	57.1
658.809	57.01
659.139	57.07
659.468	57.01
659.798	57.2
660.127	57.21
660.456	57.14
660.785	57.23
661.115	57.28
661.444	57.36
661.773	57.34
662.102	57.37
662.431	57.41
662.76	57.56
663.089	57.48
663.418	57.42
663.747	57.38
664.076	57.3
