Data from BA56852_Reflection_00015.txt Node
Date: Mon Nov 18 15:23:26 EST 2019
User: vgr7
Spectrometer: USB2G7710
Scans to average: 3
Trigger mode: 4
Integration Time (sec): 2.000000E-2
Electric dark correction enabled: true
Boxcar width: 10
XAxis mode: Wavelengths
Number of Pixels in Spectrum: 2048
>>>>>Begin Spectral Data<<<<<
177.721	-11.77
178.105	-88.94
178.488	-286.39
178.871	-160.8
179.254	-92.64
179.636	-40.37
180.019	-336.02
180.402	64.52
180.785	-776.85
181.168	-83.71
181.55	-88.87
181.933	34.63
182.316	37.86
182.698	27.4
183.081	-3.59
183.463	5.85
183.846	10.92
184.228	18.77
184.611	17.43
184.993	9.55
185.376	-0.7
185.758	16.62
186.14	21.25
186.522	50.42
186.904	44.19
187.287	45.37
187.669	30.02
188.051	13.65
188.433	-9.74
188.815	8.47
189.197	19.68
189.579	20.8
189.961	27.81
190.342	55.75
190.724	123.19
191.106	180.92
191.488	121.01
191.869	173.95
192.251	299.76
192.633	213.46
193.014	272.94
193.396	414.64
193.777	135.92
194.159	177.13
194.54	114.24
194.922	-4110.53
195.303	-468.81
195.684	-162.23
196.065	-89.21
196.447	-123.33
196.828	-147.05
197.209	-75.76
197.59	-158.06
197.971	-67.27
198.352	-10.21
198.733	-4.61
199.114	31.19
199.495	11.92
199.876	28.03
200.257	48.38
200.638	50.27
201.018	48.74
201.399	47.8
201.78	21
202.16	5.03
202.541	-21.12
202.922	-33.68
203.302	-70.08
203.683	-62.52
204.063	-98.84
204.444	-85.42
204.824	-91.82
205.204	-83.54
205.585	-55.17
205.965	-56.49
206.345	-97.12
206.725	-143.53
207.106	-277.29
207.486	-224.81
207.866	-213.42
208.246	-261.48
208.626	-321.05
209.006	-231.47
209.386	-688.12
209.766	-867.36
210.145	440.95
210.525	1221.39
210.905	1538.2
211.285	-67.49
211.664	-70.58
212.044	-91.5
212.424	-98.94
212.803	-98.74
213.183	-64.57
213.562	-65.73
213.942	-64.27
214.321	-12.78
214.701	-5.69
215.08	31.96
215.459	44.05
215.838	60.83
216.218	71.79
216.597	29.16
216.976	40.4
217.355	52.75
217.734	33.36
218.113	22.78
218.492	14.94
218.871	-37.46
219.25	-31.42
219.629	-44.47
220.008	-3.17
220.387	20.91
220.766	8.63
221.144	-0.62
221.523	-3.14
221.902	-17.67
222.28	-9
222.659	-17.23
223.037	-22.38
223.416	-25.42
223.794	-25.76
224.173	-25.58
224.551	-23.16
224.929	-30.94
225.308	-25.58
225.686	-20.33
226.064	-13.75
226.442	-8.29
226.821	-3.59
227.199	-6.86
227.577	-8.42
227.955	-10.83
228.333	-14.89
228.711	-11.28
229.089	-10.17
229.467	-10.55
229.845	-10.03
230.222	-12.82
230.6	-10.81
230.978	-11.33
231.356	-9.29
231.733	-8.06
232.111	-6.32
232.488	-5.67
232.866	-3.6
233.243	-2.63
233.621	-2.28
233.998	-2.43
234.376	-3.63
234.753	-3.66
235.13	-1.99
235.508	-0.79
235.885	-1.12
236.262	0.24
236.639	0.06
237.016	-1.21
237.393	-0.76
237.77	0.8
238.147	2.46
238.524	2.43
238.901	3.09
239.278	3.89
239.655	4.5
240.032	4.8
240.409	4.69
240.785	4.5
241.162	4.73
241.539	4.64
241.915	4.38
242.292	4.6
242.668	4.67
243.045	4.63
243.421	4.64
243.798	4.59
244.174	4.23
244.551	4.13
244.927	4.34
245.303	4.73
245.679	4.72
246.056	4.67
246.432	4.66
246.808	4.59
247.184	4.45
247.56	4.16
247.936	3.88
248.312	3.73
248.688	3.94
249.064	3.81
249.44	3.61
249.815	3.72
250.191	3.67
250.567	3.76
250.943	3.5
251.318	3.55
251.694	3.49
252.069	3.61
252.445	3.84
252.82	3.92
253.196	3.54
253.571	3.36
253.947	2.89
254.322	3.03
254.697	2.97
255.073	2.86
255.448	2.93
255.823	3.09
256.198	3.32
256.573	3.03
256.948	2.83
257.323	2.93
257.698	2.85
258.073	2.99
258.448	2.96
258.823	3.02
259.198	3.03
259.573	3.16
259.948	3.15
260.322	3.06
260.697	2.79
261.072	2.82
261.446	2.85
261.821	2.89
262.195	2.86
262.57	2.76
262.944	2.81
263.319	2.86
263.693	2.66
264.067	2.56
264.442	2.67
264.816	2.71
265.19	2.63
265.564	2.57
265.938	2.33
266.313	2.35
266.687	2.41
267.061	2.41
267.435	2.36
267.809	2.24
268.183	2.14
268.556	2.37
268.93	2.35
269.304	2.3
269.678	2.28
270.051	2.34
270.425	2.45
270.799	2.38
271.172	2.29
271.546	2.25
271.919	2.35
272.293	2.25
272.666	2.26
273.04	2.36
273.413	2.45
273.787	2.58
274.16	2.45
274.533	2.46
274.906	2.37
275.279	2.39
275.653	2.54
276.026	2.66
276.399	2.56
276.772	2.66
277.145	2.59
277.518	2.62
277.891	2.52
278.263	2.46
278.636	2.51
279.009	2.47
279.382	2.76
279.755	2.71
280.127	2.83
280.5	2.95
280.872	2.96
281.245	2.9
281.617	2.84
281.99	3.04
282.362	3.06
282.735	3.21
283.107	3.07
283.479	2.99
283.852	2.92
284.224	3.07
284.596	2.97
284.968	2.99
285.34	3.02
285.713	3.13
286.085	3.24
286.457	3.16
286.829	3.21
287.201	3.21
287.572	3.21
287.944	3.2
288.316	3.14
288.688	3.09
289.06	3.04
289.431	3.09
289.803	2.97
290.175	2.98
290.546	2.94
290.918	3.05
291.289	3.11
291.661	3.24
292.032	3.33
292.403	3.49
292.775	3.66
293.146	3.72
293.517	3.64
293.889	3.57
294.26	3.66
294.631	3.72
295.002	3.8
295.373	3.84
295.744	3.87
296.115	3.79
296.486	3.85
296.857	3.89
297.228	3.88
297.599	3.93
297.97	3.87
298.34	3.86
298.711	3.95
299.082	3.92
299.452	3.73
299.823	3.62
300.194	3.47
300.564	3.37
300.935	3.43
301.305	3.53
301.676	3.6
302.046	3.56
302.416	3.66
302.787	3.69
303.157	3.65
303.527	3.6
303.897	3.7
304.267	3.92
304.637	4.05
305.008	4.14
305.378	4.3
305.748	4.48
306.117	4.42
306.487	4.59
306.857	4.8
307.227	5.01
307.597	5.02
307.967	5.19
308.336	5.3
308.706	5.23
309.076	5.29
309.445	5.31
309.815	5.48
310.184	5.39
310.554	5.38
310.923	5.49
311.293	5.58
311.662	5.71
312.031	5.6
312.401	5.65
312.77	5.7
313.139	5.72
313.508	5.78
313.877	6.02
314.246	6.1
314.616	6.22
314.985	6.23
315.353	6.32
315.722	6.43
316.091	6.53
316.46	6.63
316.829	6.66
317.198	6.92
317.567	6.92
317.935	7.04
318.304	7.12
318.672	7.19
319.041	7.35
319.41	7.37
319.778	7.51
320.147	7.58
320.515	7.67
320.883	7.73
321.252	7.86
321.62	7.87
321.988	7.8
322.357	7.8
322.725	7.92
323.093	8.22
323.461	8.28
323.829	8.31
324.197	8.56
324.565	8.8
324.933	8.86
325.301	8.98
325.669	9.09
326.037	9.14
326.405	9.26
326.772	9.26
327.14	9.41
327.508	9.45
327.875	9.63
328.243	9.84
328.61	9.94
328.978	9.98
329.346	10.12
329.713	10.19
330.08	10.35
330.448	10.46
330.815	10.47
331.182	10.62
331.55	10.77
331.917	10.89
332.284	10.98
332.651	11.05
333.018	11.21
333.385	11.36
333.752	11.48
334.119	11.58
334.486	11.68
334.853	11.83
335.22	12.01
335.587	12.12
335.954	12.15
336.32	12.21
336.687	12.36
337.054	12.4
337.42	12.48
337.787	12.47
338.153	12.63
338.52	12.8
338.886	12.76
339.253	12.87
339.619	12.9
339.986	12.87
340.352	12.97
340.718	12.93
341.084	12.93
341.451	12.97
341.817	13.08
342.183	13.26
342.549	13.28
342.915	13.45
343.281	13.46
343.647	13.55
344.013	13.69
344.379	13.67
344.745	13.72
345.11	13.85
345.476	13.97
345.842	13.95
346.208	14.02
346.573	14.15
346.939	14.21
347.304	14.27
347.67	14.41
348.035	14.42
348.401	14.53
348.766	14.7
349.132	14.81
349.497	14.85
349.862	14.78
350.228	14.88
350.593	14.76
350.958	14.83
351.323	14.87
351.688	14.89
352.053	15.03
352.418	15.12
352.783	15.22
353.148	15.24
353.513	15.41
353.878	15.35
354.243	15.39
354.608	15.37
354.972	15.35
355.337	15.29
355.702	15.39
356.066	15.4
356.431	15.37
356.795	15.48
357.16	15.49
357.524	15.56
357.889	15.54
358.253	15.65
358.618	15.61
358.982	15.58
359.346	15.52
359.71	15.49
360.075	15.49
360.439	15.39
360.803	15.31
361.167	15.17
361.531	15.14
361.895	15.1
362.259	15.08
362.623	15.09
362.987	15.13
363.351	15.04
363.714	15.05
364.078	15.01
364.442	14.86
364.806	14.8
365.169	14.73
365.533	14.62
365.896	14.49
366.26	14.46
366.623	14.44
366.987	14.38
367.35	14.33
367.714	14.26
368.077	14.26
368.44	14.3
368.803	14.22
369.167	14.16
369.53	14.08
369.893	14.07
370.256	13.98
370.619	13.85
370.982	13.77
371.345	13.72
371.708	13.62
372.071	13.51
372.434	13.4
372.797	13.37
373.159	13.37
373.522	13.35
373.885	13.27
374.247	13.21
374.61	13.17
374.973	13.04
375.335	12.97
375.698	12.84
376.06	12.69
376.423	12.69
376.785	12.66
377.147	12.6
377.51	12.46
377.872	12.36
378.234	12.32
378.596	12.25
378.958	12.09
379.321	12.08
379.683	12.07
380.045	12.04
380.407	11.92
380.769	11.85
381.13	11.74
381.492	11.64
381.854	11.54
382.216	11.42
382.578	11.36
382.939	11.22
383.301	11.14
383.663	11.07
384.024	10.97
384.386	10.91
384.747	10.84
385.109	10.78
385.47	10.71
385.832	10.65
386.193	10.55
386.554	10.47
386.916	10.38
387.277	10.26
387.638	10.16
387.999	10.04
388.36	9.94
388.721	9.87
389.082	9.8
389.443	9.71
389.804	9.6
390.165	9.49
390.526	9.45
390.887	9.34
391.248	9.29
391.609	9.19
391.969	9.09
392.33	9
392.691	8.92
393.051	8.86
393.412	8.78
393.772	8.69
394.133	8.62
394.493	8.54
394.854	8.48
395.214	8.38
395.574	8.35
395.935	8.22
396.295	8.12
396.655	8.04
397.015	7.94
397.376	7.91
397.736	7.85
398.096	7.78
398.456	7.72
398.816	7.67
399.176	7.58
399.535	7.5
399.895	7.42
400.255	7.36
400.615	7.29
400.975	7.19
401.334	7.13
401.694	7.06
402.054	6.98
402.413	6.92
402.773	6.86
403.132	6.8
403.492	6.78
403.851	6.74
404.211	6.7
404.57	6.64
404.929	6.61
405.288	6.56
405.648	6.49
406.007	6.48
406.366	6.43
406.725	6.42
407.084	6.37
407.443	6.36
407.802	6.32
408.161	6.25
408.52	6.23
408.879	6.21
409.238	6.22
409.596	6.19
409.955	6.15
410.314	6.16
410.673	6.06
411.031	6.03
411.39	5.99
411.748	5.94
412.107	5.93
412.465	5.86
412.824	5.82
413.182	5.75
413.54	5.71
413.899	5.68
414.257	5.63
414.615	5.59
414.974	5.54
415.332	5.48
415.69	5.43
416.048	5.37
416.406	5.33
416.764	5.26
417.122	5.22
417.48	5.17
417.838	5.12
418.195	5.1
418.553	5.05
418.911	5.03
419.269	5
419.626	4.97
419.984	4.94
420.342	4.92
420.699	4.91
421.057	4.85
421.414	4.81
421.772	4.77
422.129	4.74
422.486	4.7
422.844	4.68
423.201	4.65
423.558	4.63
423.915	4.6
424.273	4.59
424.63	4.56
424.987	4.54
425.344	4.52
425.701	4.5
426.058	4.49
426.415	4.47
426.772	4.45
427.128	4.41
427.485	4.39
427.842	4.36
428.199	4.34
428.555	4.31
428.912	4.3
429.269	4.3
429.625	4.29
429.982	4.28
430.338	4.27
430.695	4.27
431.051	4.24
431.407	4.23
431.764	4.19
432.12	4.17
432.476	4.14
432.832	4.12
433.189	4.12
433.545	4.12
433.901	4.11
434.257	4.09
434.613	4.1
434.969	4.1
435.325	4.12
435.681	4.11
436.036	4.12
436.392	4.11
436.748	4.1
437.104	4.09
437.459	4.07
437.815	4.06
438.171	4.07
438.526	4.08
438.882	4.07
439.237	4.08
439.593	4.1
439.948	4.11
440.304	4.11
440.659	4.1
441.014	4.08
441.369	4.06
441.725	4.05
442.08	4.03
442.435	4.04
442.79	4
443.145	3.98
443.5	3.97
443.855	3.95
444.21	3.93
444.565	3.93
444.92	3.95
445.275	3.93
445.629	3.9
445.984	3.88
446.339	3.86
446.693	3.83
447.048	3.8
447.403	3.77
447.757	3.76
448.112	3.72
448.466	3.71
448.82	3.69
449.175	3.69
449.529	3.66
449.883	3.63
450.238	3.61
450.592	3.61
450.946	3.6
451.3	3.59
451.654	3.58
452.008	3.56
452.362	3.54
452.716	3.53
453.07	3.54
453.424	3.54
453.778	3.54
454.132	3.53
454.486	3.54
454.839	3.54
455.193	3.52
455.547	3.53
455.9	3.54
456.254	3.57
456.607	3.55
456.961	3.54
457.314	3.54
457.668	3.56
458.021	3.54
458.375	3.53
458.728	3.54
459.081	3.55
459.434	3.53
459.787	3.54
460.141	3.56
460.494	3.57
460.847	3.58
461.2	3.59
461.553	3.6
461.906	3.6
462.259	3.62
462.611	3.64
462.964	3.66
463.317	3.66
463.67	3.65
464.022	3.66
464.375	3.69
464.728	3.7
465.08	3.7
465.433	3.74
465.785	3.77
466.138	3.78
466.49	3.81
466.843	3.84
467.195	3.87
467.547	3.86
467.899	3.88
468.252	3.88
468.604	3.89
468.956	3.92
469.308	3.94
469.66	3.93
470.012	3.95
470.364	3.96
470.716	3.99
471.068	4.03
471.42	4.06
471.772	4.08
472.123	4.1
472.475	4.14
472.827	4.15
473.178	4.15
473.53	4.17
473.882	4.17
474.233	4.18
474.585	4.15
474.936	4.16
475.288	4.16
475.639	4.18
475.99	4.18
476.342	4.17
476.693	4.17
477.044	4.18
477.395	4.16
477.746	4.16
478.097	4.15
478.448	4.14
478.8	4.12
479.15	4.09
479.501	4.08
479.852	4.06
480.203	4.07
480.554	4.07
480.905	4.08
481.255	4.07
481.606	4.07
481.957	4.07
482.307	4.06
482.658	4.05
483.009	4.04
483.359	4.03
483.709	4.05
484.06	4.04
484.41	4.05
484.761	4.06
485.111	4.06
485.461	4.06
485.811	4.06
486.162	4.07
486.512	4.08
486.862	4.09
487.212	4.09
487.562	4.1
487.912	4.1
488.262	4.09
488.612	4.1
488.961	4.1
489.311	4.11
489.661	4.14
490.011	4.14
490.36	4.15
490.71	4.17
491.06	4.16
491.409	4.18
491.759	4.19
492.108	4.21
492.458	4.23
492.807	4.26
493.157	4.28
493.506	4.31
493.855	4.34
494.204	4.37
494.554	4.4
494.903	4.42
495.252	4.46
495.601	4.52
495.95	4.58
496.299	4.63
496.648	4.68
496.997	4.72
497.346	4.8
497.695	4.86
498.043	4.92
498.392	4.97
498.741	5.04
499.09	5.1
499.438	5.16
499.787	5.22
500.135	5.27
500.484	5.33
500.832	5.4
501.181	5.5
501.529	5.57
501.878	5.67
502.226	5.75
502.574	5.84
502.923	5.9
503.271	5.97
503.619	6.07
503.967	6.17
504.315	6.26
504.663	6.34
505.011	6.43
505.359	6.53
505.707	6.67
506.055	6.78
506.403	6.89
506.751	7
507.098	7.12
507.446	7.25
507.794	7.37
508.141	7.5
508.489	7.62
508.837	7.74
509.184	7.86
509.531	7.99
509.879	8.14
510.226	8.27
510.574	8.41
510.921	8.53
511.268	8.66
511.616	8.82
511.963	9
512.31	9.19
512.657	9.37
513.004	9.53
513.351	9.72
513.698	9.9
514.045	10.09
514.392	10.29
514.739	10.49
515.086	10.69
515.432	10.88
515.779	11.06
516.126	11.28
516.473	11.46
516.819	11.66
517.166	11.85
517.512	12.03
517.859	12.24
518.205	12.43
518.552	12.61
518.898	12.78
519.245	12.96
519.591	13.12
519.937	13.28
520.283	13.47
520.629	13.67
520.976	13.9
521.322	14.15
521.668	14.41
522.014	14.69
522.36	14.96
522.706	15.25
523.052	15.57
523.398	15.89
523.743	16.25
524.089	16.59
524.435	16.89
524.781	17.21
525.126	17.46
525.472	17.75
525.817	18.01
526.163	18.24
526.509	18.47
526.854	18.68
527.199	18.92
527.545	19.13
527.89	19.35
528.235	19.57
528.581	19.78
528.926	19.99
529.271	20.21
529.616	20.43
529.961	20.65
530.306	20.87
530.651	21.09
530.996	21.34
531.341	21.59
531.686	21.87
532.031	22.14
532.376	22.43
532.721	22.73
533.065	23.04
533.41	23.36
533.755	23.67
534.099	24.02
534.444	24.32
534.788	24.66
535.133	24.97
535.477	25.28
535.822	25.59
536.166	25.95
536.51	26.31
536.855	26.67
537.199	27.07
537.543	27.48
537.887	27.89
538.231	28.27
538.576	28.68
538.92	29.07
539.264	29.45
539.608	29.83
539.951	30.13
540.295	30.41
540.639	30.69
540.983	30.95
541.327	31.22
541.671	31.5
542.014	31.75
542.358	31.99
542.701	32.26
543.045	32.51
543.389	32.74
543.732	32.99
544.075	33.28
544.419	33.52
544.762	33.78
545.105	34.05
545.449	34.37
545.792	34.68
546.135	34.96
546.478	35.3
546.821	35.61
547.165	35.94
547.508	36.3
547.851	36.64
548.194	37
548.536	37.36
548.879	37.67
549.222	38
549.565	38.34
549.908	38.61
550.25	38.97
550.593	39.27
550.936	39.58
551.278	39.85
551.621	40.2
551.963	40.51
552.306	40.78
552.648	41.05
552.991	41.28
553.333	41.55
553.675	41.79
554.017	42
554.36	42.17
554.702	42.41
555.044	42.63
555.386	42.86
555.728	43.11
556.07	43.38
556.412	43.52
556.754	43.72
557.096	43.96
557.438	44.22
557.78	44.4
558.121	44.68
558.463	44.93
558.805	45.1
559.147	45.27
559.488	45.47
559.83	45.64
560.171	45.8
560.513	46
560.854	46.09
561.196	46.26
561.537	46.52
561.878	46.62
562.22	46.79
562.561	46.94
562.902	46.99
563.243	47.07
563.584	47.27
563.925	47.37
564.266	47.45
564.607	47.52
564.948	47.62
565.289	47.66
565.63	47.74
565.971	47.8
566.312	47.89
566.653	47.98
566.993	48.12
567.334	48.21
567.675	48.31
568.015	48.43
568.356	48.53
568.696	48.54
569.037	48.61
569.377	48.75
569.718	48.82
570.058	48.92
570.398	49
570.739	49.09
571.079	49.21
571.419	49.31
571.759	49.43
572.099	49.55
572.439	49.61
572.779	49.65
573.119	49.75
573.459	49.81
573.799	49.87
574.139	49.87
574.479	49.92
574.819	49.95
575.158	50.01
575.498	50.12
575.838	50.24
576.177	50.35
576.517	50.33
576.856	50.43
577.196	50.54
577.535	50.62
577.875	50.75
578.214	50.82
578.553	50.98
578.893	51.03
579.232	51.13
579.571	51.26
579.91	51.43
580.25	51.56
580.589	51.66
580.928	51.77
581.267	51.91
581.606	52.08
581.945	52.2
582.283	52.33
582.622	52.39
582.961	52.46
583.3	52.59
583.639	52.71
583.977	52.77
584.316	52.85
584.654	52.9
584.993	52.86
585.332	52.86
585.67	52.87
586.008	52.98
586.347	52.96
586.685	52.98
587.024	52.96
587.362	52.99
587.7	53.06
588.038	53.08
588.376	53.15
588.715	53.16
589.053	53.18
589.391	53.26
589.729	53.26
590.067	53.22
590.404	53.16
590.742	53.24
591.08	53.25
591.418	53.3
591.756	53.41
592.093	53.42
592.431	53.47
592.769	53.42
593.106	53.41
593.444	53.39
593.781	53.46
594.119	53.43
594.456	53.41
594.793	53.39
595.131	53.36
595.468	53.25
595.805	53.24
596.143	53.3
596.48	53.25
596.817	53.27
597.154	53.33
597.491	53.4
597.828	53.31
598.165	53.32
598.502	53.29
598.839	53.29
599.176	53.3
599.512	53.37
599.849	53.44
600.186	53.39
600.523	53.48
600.859	53.54
601.196	53.57
601.532	53.56
601.869	53.6
602.205	53.65
602.542	53.76
602.878	53.85
603.215	53.8
603.551	53.81
603.887	53.9
604.223	53.92
604.56	53.86
604.896	53.95
605.232	53.99
605.568	54
605.904	53.98
606.24	54.06
606.576	54.07
606.912	54.06
607.248	54.15
607.583	54.18
607.919	54.09
608.255	54.17
608.591	54.25
608.926	54.3
609.262	54.35
609.597	54.4
609.933	54.41
610.268	54.45
610.604	54.53
610.939	54.55
611.275	54.64
611.61	54.79
611.945	54.81
612.281	54.85
612.616	54.93
612.951	55
613.286	54.98
613.621	54.99
613.956	55.08
614.291	55.14
614.626	55.18
614.961	55.33
615.296	55.31
615.631	55.35
615.966	55.4
616.3	55.44
616.635	55.41
616.97	55.38
617.304	55.42
617.639	55.49
617.973	55.53
618.308	55.52
618.642	55.53
618.977	55.55
619.311	55.63
619.646	55.68
619.98	55.68
620.314	55.81
620.648	55.87
620.983	55.92
621.317	55.86
621.651	55.97
621.985	55.99
622.319	56.01
622.653	56.02
622.987	55.91
623.321	55.93
623.655	55.95
623.988	55.97
624.322	55.93
624.656	55.83
624.99	55.74
625.323	55.77
625.657	55.75
625.99	55.75
626.324	55.66
626.657	55.61
626.991	55.71
627.324	55.65
627.658	55.69
627.991	55.73
628.324	55.83
628.657	55.82
628.991	55.82
629.324	55.82
629.657	55.9
629.99	56.03
630.323	56.03
630.656	56.1
630.989	56.12
631.322	56.15
631.655	56.29
631.987	56.33
632.32	56.3
632.653	56.33
632.986	56.35
633.318	56.4
633.651	56.41
633.984	56.38
634.316	56.46
634.649	56.42
634.981	56.46
635.313	56.41
635.646	56.48
635.978	56.51
636.31	56.62
636.643	56.62
636.975	56.61
637.307	56.71
637.639	56.7
637.971	56.76
638.303	56.83
638.635	56.71
638.967	56.68
639.299	56.69
639.631	56.66
639.963	56.76
640.295	56.75
640.626	56.88
640.958	56.95
641.29	57.01
641.621	57.05
641.953	56.91
642.285	56.94
642.616	56.76
642.948	56.75
643.279	56.63
643.61	56.61
643.942	56.67
644.273	56.67
644.604	56.74
644.936	56.7
645.267	56.64
645.598	56.74
645.929	56.78
646.26	56.86
646.591	56.97
646.922	56.95
647.253	57.02
647.584	56.87
647.915	56.73
648.245	56.61
648.576	56.68
648.907	56.74
649.238	56.79
649.568	56.84
649.899	56.73
650.229	56.83
650.56	56.87
650.89	56.93
651.221	56.95
651.551	56.85
651.882	56.94
652.212	57.08
652.542	57.11
652.872	57.12
653.203	57.01
653.533	56.93
653.863	56.93
654.193	56.84
654.523	56.89
654.853	57.08
655.183	57.11
655.513	57.08
655.843	57.03
656.172	57.02
656.502	57.12
656.832	57.25
657.162	57.24
657.491	57.22
657.821	57.17
658.15	57.18
658.48	57.14
658.809	56.96
659.139	56.95
659.468	56.92
659.798	56.98
660.127	57.14
660.456	57.2
660.785	57.22
661.115	57.31
661.444	57.42
661.773	57.28
662.102	57.36
662.431	57.32
662.76	57.5
663.089	57.57
