Data from BA56852_Reflection_00003.txt Node
Date: Mon Nov 18 15:22:27 EST 2019
User: vgr7
Spectrometer: USB2G7710
Scans to average: 3
Trigger mode: 4
Integration Time (sec): 2.000000E-2
Electric dark correction enabled: true
Boxcar width: 10
XAxis mode: Wavelengths
Number of Pixels in Spectrum: 2048
>>>>>Begin Spectral Data<<<<<
177.721	35.03
178.105	100
178.488	-71.24
178.871	-159.14
179.254	-68.13
179.636	10.86
180.019	-354.98
180.402	48.39
180.785	-225.12
181.168	138.34
181.55	39.29
181.933	63.43
182.316	55.36
182.698	46.81
183.081	56.9
183.463	39.29
183.846	29.05
184.228	17.91
184.611	26.01
184.993	21.99
185.376	38.09
185.758	36.72
186.14	22.86
186.522	52.02
186.904	70.7
187.287	65.95
187.669	52.87
188.051	69.74
188.433	43.93
188.815	50.96
189.197	14.95
189.579	42.1
189.961	52.92
190.342	70.86
190.724	67.89
191.106	85.14
191.488	60.6
191.869	100
192.251	202.31
192.633	105.08
193.014	136.62
193.396	190.29
193.777	107.7
194.159	186.1
194.54	173.25
194.922	-7478.95
195.303	-1441.28
195.684	-287.48
196.065	-41.91
196.447	-79.46
196.828	-67.56
197.209	-91.35
197.59	-68.57
197.971	-22.18
198.352	21.1
198.733	-28.01
199.114	-0.5
199.495	5.28
199.876	5
200.257	13.75
200.638	16.87
201.018	1.48
201.399	3.47
201.78	18.22
202.16	24.14
202.541	7.75
202.922	-1.73
203.302	-6.69
203.683	-18.84
204.063	-47.19
204.444	-10.06
204.824	-30.24
205.204	-1.75
205.585	5.61
205.965	4.89
206.345	-30.83
206.725	-62.78
207.106	-130.99
207.486	-111.47
207.866	-102.39
208.246	-132.04
208.626	-209.34
209.006	-76.89
209.386	-256.44
209.766	-469.73
210.145	215.99
210.525	273.41
210.905	167.42
211.285	5.42
211.664	39.56
212.044	8.22
212.424	-23.6
212.803	-34.36
213.183	-43.33
213.562	-83.43
213.942	-146.41
214.321	-26.87
214.701	-32.44
215.08	-12.61
215.459	-5.4
215.838	26.56
216.218	-60.79
216.597	-2.93
216.976	-14.31
217.355	7.13
217.734	1.14
218.113	-1.57
218.492	-10.03
218.871	-14.7
219.25	5.6
219.629	2.48
220.008	3.45
220.387	11.65
220.766	13.34
221.144	-5.85
221.523	-10.39
221.902	-17.26
222.28	-23.3
222.659	-13.04
223.037	-19.42
223.416	-15.67
223.794	-17.69
224.173	-1.43
224.551	2.87
224.929	2.03
225.308	-0.07
225.686	-1.6
226.064	-4.5
226.442	-1.91
226.821	6.28
227.199	1.27
227.577	-0.61
227.955	0.72
228.333	2.93
228.711	2.84
229.089	4.02
229.467	4.91
229.845	6.34
230.222	6.25
230.6	5.36
230.978	7.21
231.356	7.59
231.733	7.47
232.111	7.74
232.488	7.22
232.866	7.67
233.243	8.6
233.621	8.44
233.998	9.42
234.376	8.64
234.753	4.13
235.13	4.58
235.508	4.52
235.885	4.7
236.262	2.59
236.639	3.92
237.016	4.81
237.393	5.35
237.77	4.23
238.147	5.11
238.524	4.54
238.901	5.07
239.278	5.09
239.655	5.38
240.032	4.69
240.409	4.9
240.785	5.16
241.162	4.91
241.539	5.43
241.915	5.47
242.292	5.25
242.668	5.41
243.045	5.43
243.421	5.31
243.798	5.11
244.174	5.11
244.551	4.84
244.927	4.92
245.303	4.76
245.679	4.98
246.056	4.96
246.432	5.06
246.808	4.89
247.184	4.62
247.56	4.34
247.936	4.38
248.312	4.24
248.688	4.27
249.064	4.23
249.44	4.07
249.815	4.15
250.191	4.25
250.567	4.3
250.943	4.29
251.318	4.36
251.694	4.32
252.069	4.26
252.445	4.32
252.82	4.31
253.196	4.16
253.571	4.36
253.947	4.17
254.322	4.4
254.697	4.34
255.073	4.17
255.448	3.84
255.823	3.78
256.198	3.96
256.573	3.87
256.948	4
257.323	4.06
257.698	3.93
258.073	3.94
258.448	3.95
258.823	4.06
259.198	3.93
259.573	4.06
259.948	4.12
260.322	4.1
260.697	4.05
261.072	4.14
261.446	3.97
261.821	3.99
262.195	4.05
262.57	3.95
262.944	3.95
263.319	4.17
263.693	4.1
264.067	4.04
264.442	4.06
264.816	3.94
265.19	3.96
265.564	3.89
265.938	3.72
266.313	3.73
266.687	3.57
267.061	3.79
267.435	3.87
267.809	4.04
268.183	4.16
268.556	4.06
268.93	4.18
269.304	4.08
269.678	4.13
270.051	4.15
270.425	4.2
270.799	4.29
271.172	4.36
271.546	4.43
271.919	4.48
272.293	4.48
272.666	4.56
273.04	4.57
273.413	4.57
273.787	4.64
274.16	4.7
274.533	4.82
274.906	4.68
275.279	4.74
275.653	4.57
276.026	4.56
276.399	4.68
276.772	4.7
277.145	4.69
277.518	4.62
277.891	4.54
278.263	4.6
278.636	4.66
279.009	4.75
279.382	4.97
279.755	4.77
280.127	4.76
280.5	4.69
280.872	4.71
281.245	4.62
281.617	4.63
281.99	4.63
282.362	4.61
282.735	4.49
283.107	4.31
283.479	4.4
283.852	4.39
284.224	4.44
284.596	4.43
284.968	4.47
285.34	4.57
285.713	4.66
286.085	4.69
286.457	4.67
286.829	4.57
287.201	4.39
287.572	4.46
287.944	4.4
288.316	4.34
288.688	4.32
289.06	4.37
289.431	4.32
289.803	4.35
290.175	4.34
290.546	4.55
290.918	4.72
291.289	4.66
291.661	4.67
292.032	4.58
292.403	4.57
292.775	4.69
293.146	4.62
293.517	4.55
293.889	4.58
294.26	4.57
294.631	4.64
295.002	4.67
295.373	4.67
295.744	4.72
296.115	4.96
296.486	4.94
296.857	5.05
297.228	5.13
297.599	4.99
297.97	4.95
298.34	4.89
298.711	4.93
299.082	4.96
299.452	5.04
299.823	5.01
300.194	5.08
300.564	5.05
300.935	5.22
301.305	5.14
301.676	5.13
302.046	5.27
302.416	5.24
302.787	5.28
303.157	5.33
303.527	5.39
303.897	5.29
304.267	5.34
304.637	5.43
305.008	5.44
305.378	5.67
305.748	5.7
306.117	5.81
306.487	5.52
306.857	5.45
307.227	5.41
307.597	5.39
307.967	5.22
308.336	5.25
308.706	5.19
309.076	5.26
309.445	5.29
309.815	5.15
310.184	5.08
310.554	5.13
310.923	5.08
311.293	5.12
311.662	5.12
312.031	5
312.401	4.96
312.77	5
313.139	4.83
313.508	4.83
313.877	4.67
314.246	4.88
314.616	4.88
314.985	4.89
315.353	4.9
315.722	5
316.091	4.97
316.46	4.86
316.829	4.88
317.198	4.96
317.567	4.96
317.935	5.02
318.304	4.94
318.672	4.86
319.041	4.84
319.41	4.86
319.778	4.91
320.147	4.94
320.515	4.84
320.883	4.9
321.252	4.95
321.62	5.01
321.988	5.04
322.357	5.18
322.725	5.15
323.093	5.24
323.461	5.29
323.829	5.32
324.197	5.25
324.565	5.16
324.933	5.03
325.301	5.11
325.669	5.19
326.037	5.2
326.405	5.35
326.772	5.4
327.14	5.39
327.508	5.58
327.875	5.39
328.243	5.45
328.61	5.43
328.978	5.43
329.346	5.43
329.713	5.21
330.08	5.12
330.448	5.05
330.815	4.91
331.182	4.81
331.55	4.73
331.917	4.75
332.284	4.8
332.651	4.84
333.018	4.78
333.385	4.72
333.752	4.77
334.119	4.75
334.486	4.57
334.853	4.58
335.22	4.35
335.587	4.5
335.954	4.54
336.32	4.62
336.687	4.62
337.054	4.62
337.42	4.72
337.787	4.72
338.153	4.77
338.52	4.95
338.886	4.92
339.253	4.92
339.619	5.12
339.986	5.12
340.352	5.09
340.718	5.04
341.084	5.06
341.451	5.02
341.817	5.04
342.183	5.04
342.549	5.01
342.915	5.09
343.281	5.04
343.647	4.94
344.013	4.88
344.379	4.85
344.745	4.96
345.11	4.94
345.476	4.89
345.842	4.84
346.208	4.79
346.573	4.84
346.939	4.91
347.304	4.74
347.67	4.72
348.035	4.63
348.401	4.65
348.766	4.64
349.132	4.65
349.497	4.57
349.862	4.63
350.228	4.58
350.593	4.54
350.958	4.5
351.323	4.48
351.688	4.41
352.053	4.49
352.418	4.36
352.783	4.35
353.148	4.35
353.513	4.33
353.878	4.39
354.243	4.39
354.608	4.38
354.972	4.45
355.337	4.52
355.702	4.69
356.066	4.76
356.431	4.76
356.795	4.8
357.16	4.84
357.524	4.71
357.889	4.71
358.253	4.68
358.618	4.69
358.982	4.67
359.346	4.65
359.71	4.58
360.075	4.63
360.439	4.68
360.803	4.69
361.167	4.67
361.531	4.62
361.895	4.55
362.259	4.49
362.623	4.51
362.987	4.41
363.351	4.34
363.714	4.33
364.078	4.28
364.442	4.24
364.806	4.2
365.169	4.29
365.533	4.27
365.896	4.37
366.26	4.38
366.623	4.37
366.987	4.44
367.35	4.43
367.714	4.46
368.077	4.41
368.44	4.43
368.803	4.47
369.167	4.41
369.53	4.43
369.893	4.49
370.256	4.47
370.619	4.5
370.982	4.48
371.345	4.4
371.708	4.42
372.071	4.43
372.434	4.45
372.797	4.4
373.159	4.42
373.522	4.36
373.885	4.43
374.247	4.48
374.61	4.43
374.973	4.42
375.335	4.38
375.698	4.41
376.06	4.38
376.423	4.33
376.785	4.35
377.147	4.4
377.51	4.38
377.872	4.37
378.234	4.37
378.596	4.36
378.958	4.4
379.321	4.46
379.683	4.48
380.045	4.48
380.407	4.5
380.769	4.51
381.13	4.48
381.492	4.45
381.854	4.47
382.216	4.49
382.578	4.52
382.939	4.52
383.301	4.52
383.663	4.5
384.024	4.53
384.386	4.57
384.747	4.54
385.109	4.56
385.47	4.53
385.832	4.53
386.193	4.53
386.554	4.49
386.916	4.46
387.277	4.43
387.638	4.45
387.999	4.47
388.36	4.46
388.721	4.45
389.082	4.42
389.443	4.39
389.804	4.41
390.165	4.37
390.526	4.36
390.887	4.39
391.248	4.45
391.609	4.45
391.969	4.45
392.33	4.46
392.691	4.43
393.051	4.41
393.412	4.43
393.772	4.43
394.133	4.46
394.493	4.47
394.854	4.49
395.214	4.44
395.574	4.44
395.935	4.45
396.295	4.51
396.655	4.51
397.015	4.52
397.376	4.51
397.736	4.49
398.096	4.53
398.456	4.49
398.816	4.45
399.176	4.44
399.535	4.43
399.895	4.42
400.255	4.43
400.615	4.47
400.975	4.45
401.334	4.47
401.694	4.46
402.054	4.41
402.413	4.45
402.773	4.42
403.132	4.41
403.492	4.42
403.851	4.39
404.211	4.39
404.57	4.37
404.929	4.38
405.288	4.42
405.648	4.39
406.007	4.4
406.366	4.41
406.725	4.41
407.084	4.38
407.443	4.35
407.802	4.38
408.161	4.37
408.52	4.36
408.879	4.35
409.238	4.37
409.596	4.39
409.955	4.33
410.314	4.35
410.673	4.29
411.031	4.29
411.39	4.28
411.748	4.26
412.107	4.25
412.465	4.23
412.824	4.23
413.182	4.22
413.54	4.22
413.899	4.22
414.257	4.24
414.615	4.23
414.974	4.25
415.332	4.24
415.69	4.25
416.048	4.27
416.406	4.27
416.764	4.25
417.122	4.26
417.48	4.29
417.838	4.29
418.195	4.33
418.553	4.3
418.911	4.31
419.269	4.32
419.626	4.33
419.984	4.32
420.342	4.32
420.699	4.32
421.057	4.31
421.414	4.3
421.772	4.3
422.129	4.31
422.486	4.31
422.844	4.3
423.201	4.29
423.558	4.28
423.915	4.27
424.273	4.25
424.63	4.24
424.987	4.23
425.344	4.24
425.701	4.23
426.058	4.23
426.415	4.22
426.772	4.22
427.128	4.21
427.485	4.2
427.842	4.2
428.199	4.2
428.555	4.21
428.912	4.22
429.269	4.21
429.625	4.2
429.982	4.19
430.338	4.19
430.695	4.18
431.051	4.17
431.407	4.19
431.764	4.2
432.12	4.2
432.476	4.2
432.832	4.18
433.189	4.17
433.545	4.16
433.901	4.18
434.257	4.16
434.613	4.17
434.969	4.18
435.325	4.16
435.681	4.16
436.036	4.16
436.392	4.15
436.748	4.12
437.104	4.13
437.459	4.13
437.815	4.15
438.171	4.12
438.526	4.12
438.882	4.11
439.237	4.13
439.593	4.13
439.948	4.13
440.304	4.14
440.659	4.15
441.014	4.17
441.369	4.15
441.725	4.15
442.08	4.14
442.435	4.15
442.79	4.17
443.145	4.16
443.5	4.16
443.855	4.16
444.21	4.16
444.565	4.15
444.92	4.17
445.275	4.15
445.629	4.17
445.984	4.17
446.339	4.16
446.693	4.14
447.048	4.13
447.403	4.12
447.757	4.1
448.112	4.1
448.466	4.09
448.82	4.1
449.175	4.12
449.529	4.12
449.883	4.11
450.238	4.09
450.592	4.11
450.946	4.1
451.3	4.09
451.654	4.08
452.008	4.09
452.362	4.06
452.716	4.07
453.07	4.06
453.424	4.06
453.778	4.06
454.132	4.07
454.486	4.08
454.839	4.06
455.193	4.06
455.547	4.06
455.9	4.08
456.254	4.07
456.607	4.05
456.961	4.06
457.314	4.06
457.668	4.04
458.021	4.02
458.375	4.03
458.728	4.04
459.081	4.07
459.434	4.06
459.787	4.08
460.141	4.07
460.494	4.08
460.847	4.1
461.2	4.12
461.553	4.12
461.906	4.12
462.259	4.15
462.611	4.18
462.964	4.18
463.317	4.17
463.67	4.17
464.022	4.17
464.375	4.16
464.728	4.15
465.08	4.19
465.433	4.2
465.785	4.21
466.138	4.22
466.49	4.21
466.843	4.2
467.195	4.21
467.547	4.21
467.899	4.22
468.252	4.21
468.604	4.2
468.956	4.2
469.308	4.2
469.66	4.17
470.012	4.16
470.364	4.16
470.716	4.17
471.068	4.17
471.42	4.18
471.772	4.22
472.123	4.26
472.475	4.26
472.827	4.26
473.178	4.24
473.53	4.22
473.882	4.23
474.233	4.23
474.585	4.2
474.936	4.21
475.288	4.23
475.639	4.24
475.99	4.24
476.342	4.24
476.693	4.24
477.044	4.27
477.395	4.27
477.746	4.27
478.097	4.26
478.448	4.26
478.8	4.25
479.15	4.21
479.501	4.21
479.852	4.21
480.203	4.22
480.554	4.22
480.905	4.23
481.255	4.23
481.606	4.24
481.957	4.25
482.307	4.24
482.658	4.23
483.009	4.21
483.359	4.22
483.709	4.23
484.06	4.22
484.41	4.22
484.761	4.22
485.111	4.23
485.461	4.22
485.811	4.22
486.162	4.23
486.512	4.24
486.862	4.24
487.212	4.24
487.562	4.24
487.912	4.25
488.262	4.25
488.612	4.24
488.961	4.24
489.311	4.24
489.661	4.25
490.011	4.25
490.36	4.24
490.71	4.23
491.06	4.23
491.409	4.22
491.759	4.22
492.108	4.22
492.458	4.21
492.807	4.22
493.157	4.23
493.506	4.24
493.855	4.23
494.204	4.21
494.554	4.21
494.903	4.21
495.252	4.2
495.601	4.22
495.95	4.23
496.299	4.22
496.648	4.22
496.997	4.23
497.346	4.24
497.695	4.28
498.043	4.28
498.392	4.28
498.741	4.29
499.09	4.3
499.438	4.3
499.787	4.3
500.135	4.29
500.484	4.31
500.832	4.31
501.181	4.34
501.529	4.36
501.878	4.36
502.226	4.37
502.574	4.37
502.923	4.36
503.271	4.36
503.619	4.39
503.967	4.39
504.315	4.36
504.663	4.35
505.011	4.35
505.359	4.36
505.707	4.38
506.055	4.37
506.403	4.38
506.751	4.39
507.098	4.43
507.446	4.45
507.794	4.43
508.141	4.45
508.489	4.43
508.837	4.42
509.184	4.42
509.531	4.4
509.879	4.42
510.226	4.42
510.574	4.43
510.921	4.41
511.268	4.41
511.616	4.43
511.963	4.45
512.31	4.43
512.657	4.45
513.004	4.46
513.351	4.48
513.698	4.48
514.045	4.48
514.392	4.45
514.739	4.44
515.086	4.46
515.432	4.44
515.779	4.44
516.126	4.48
516.473	4.49
516.819	4.54
517.166	4.53
517.512	4.53
517.859	4.55
518.205	4.57
518.552	4.59
518.898	4.58
519.245	4.57
519.591	4.59
519.937	4.57
520.283	4.57
520.629	4.56
520.976	4.56
521.322	4.56
521.668	4.57
522.014	4.57
522.36	4.58
522.706	4.59
523.052	4.59
523.398	4.59
523.743	4.59
524.089	4.57
524.435	4.58
524.781	4.59
525.126	4.58
525.472	4.58
525.817	4.58
526.163	4.62
526.509	4.62
526.854	4.63
527.199	4.64
527.545	4.64
527.89	4.64
528.235	4.66
528.581	4.65
528.926	4.66
529.271	4.66
529.616	4.66
529.961	4.65
530.306	4.67
530.651	4.65
530.996	4.65
531.341	4.66
531.686	4.67
532.031	4.68
532.376	4.67
532.721	4.67
533.065	4.68
533.41	4.65
533.755	4.66
534.099	4.66
534.444	4.65
534.788	4.67
535.133	4.68
535.477	4.67
535.822	4.67
536.166	4.66
536.51	4.66
536.855	4.68
537.199	4.7
537.543	4.7
537.887	4.7
538.231	4.69
538.576	4.7
538.92	4.69
539.264	4.68
539.608	4.7
539.951	4.71
540.295	4.69
540.639	4.69
540.983	4.68
541.327	4.67
541.671	4.69
542.014	4.68
542.358	4.68
542.701	4.69
543.045	4.69
543.389	4.71
543.732	4.72
544.075	4.71
544.419	4.69
544.762	4.7
545.105	4.71
545.449	4.72
545.792	4.71
546.135	4.71
546.478	4.72
546.821	4.72
547.165	4.7
547.508	4.74
547.851	4.76
548.194	4.77
548.536	4.77
548.879	4.77
549.222	4.77
549.565	4.77
549.908	4.78
550.25	4.78
550.593	4.79
550.936	4.75
551.278	4.77
551.621	4.79
551.963	4.75
552.306	4.76
552.648	4.78
552.991	4.78
553.333	4.79
553.675	4.76
554.017	4.77
554.36	4.81
554.702	4.79
555.044	4.77
555.386	4.79
555.728	4.8
556.07	4.8
556.412	4.8
556.754	4.77
557.096	4.78
557.438	4.81
557.78	4.8
558.121	4.86
558.463	4.84
558.805	4.85
559.147	4.86
559.488	4.81
559.83	4.8
560.171	4.81
560.513	4.83
560.854	4.85
561.196	4.84
561.537	4.87
561.878	4.85
562.22	4.85
562.561	4.84
562.902	4.83
563.243	4.82
563.584	4.86
563.925	4.9
564.266	4.88
564.607	4.87
564.948	4.88
565.289	4.85
565.63	4.85
565.971	4.85
566.312	4.87
566.653	4.91
566.993	4.91
567.334	4.91
567.675	4.89
568.015	4.89
568.356	4.89
568.696	4.86
569.037	4.88
569.377	4.89
569.718	4.89
570.058	4.9
570.398	4.89
570.739	4.88
571.079	4.87
571.419	4.87
571.759	4.87
572.099	4.88
572.439	4.87
572.779	4.87
573.119	4.89
573.459	4.92
573.799	4.91
574.139	4.92
574.479	4.91
574.819	4.93
575.158	4.93
575.498	4.91
575.838	4.91
576.177	4.88
576.517	4.87
576.856	4.88
577.196	4.87
577.535	4.89
577.875	4.88
578.214	4.9
578.553	4.9
578.893	4.88
579.232	4.84
579.571	4.88
579.91	4.89
580.25	4.88
580.589	4.85
580.928	4.87
581.267	4.85
581.606	4.84
581.945	4.85
582.283	4.85
582.622	4.86
582.961	4.87
583.3	4.88
583.639	4.92
583.977	4.92
584.316	4.93
584.654	4.94
584.993	4.92
585.332	4.92
585.67	4.88
586.008	4.9
586.347	4.91
586.685	4.89
587.024	4.91
587.362	4.91
587.7	4.95
588.038	4.93
588.376	4.98
588.715	4.99
589.053	4.96
589.391	4.99
589.729	5.01
590.067	4.99
590.404	4.99
590.742	5
591.08	4.99
591.418	4.99
591.756	5
592.093	5.01
592.431	5.01
592.769	5.06
593.106	5.05
593.444	5.02
593.781	5.02
594.119	5.02
594.456	5
594.793	4.93
595.131	4.91
595.468	4.9
595.805	4.91
596.143	4.89
596.48	4.84
596.817	4.86
597.154	4.87
597.491	4.87
597.828	4.84
598.165	4.82
598.502	4.81
598.839	4.84
599.176	4.83
599.512	4.83
599.849	4.78
600.186	4.79
600.523	4.85
600.859	4.84
601.196	4.82
601.532	4.8
601.869	4.81
602.205	4.82
602.542	4.8
602.878	4.77
603.215	4.79
603.551	4.8
603.887	4.82
604.223	4.83
604.56	4.84
604.896	4.85
605.232	4.9
605.568	4.94
605.904	4.9
606.24	4.92
606.576	4.95
606.912	4.99
607.248	4.99
607.583	4.99
607.919	4.99
608.255	4.99
608.591	4.99
608.926	5.02
609.262	5.05
609.597	5.06
609.933	5.11
610.268	5.15
610.604	5.16
610.939	5.11
611.275	5.12
611.61	5.13
611.945	5.17
612.281	5.14
612.616	5.13
612.951	5.09
613.286	5.08
613.621	5.08
613.956	5.07
614.291	5.07
614.626	5.08
614.961	5.1
615.296	5.07
615.631	5.06
615.966	5.08
616.3	5.06
616.635	5.03
616.97	5.03
617.304	5
617.639	5.03
617.973	5.07
618.308	5.04
618.642	5.04
618.977	5.02
619.311	5.02
619.646	5
619.98	5.08
620.314	5.09
620.648	5.07
620.983	5.09
621.317	5.07
621.651	5.07
621.985	5.09
622.319	5.13
622.653	5.16
622.987	5.15
623.321	5.16
623.655	5.23
623.988	5.24
624.322	5.24
624.656	5.24
624.99	5.22
625.323	5.22
625.657	5.22
625.99	5.22
626.324	5.24
626.657	5.22
626.991	5.21
627.324	5.19
627.658	5.17
627.991	5.19
628.324	5.18
628.657	5.14
628.991	5.13
629.324	5.12
629.657	5.1
629.99	5.12
630.323	5.11
630.656	5.05
630.989	5.04
631.322	5.04
631.655	5.06
631.987	5.1
632.32	5.09
632.653	5.09
632.986	5.07
633.318	5.04
633.651	5.09
633.984	5.04
634.316	5.05
634.649	5.06
634.981	5.04
635.313	5.08
635.646	5.14
635.978	5.11
636.31	5.15
636.643	5.2
636.975	5.23
637.307	5.24
637.639	5.24
637.971	5.26
638.303	5.22
638.635	5.18
638.967	5.1
639.299	5.15
639.631	5.2
639.963	5.14
640.295	5.19
640.626	5.17
640.958	5.26
641.29	5.3
641.621	5.32
641.953	5.29
642.285	5.3
642.616	5.27
642.948	5.35
643.279	5.33
643.61	5.31
643.942	5.22
644.273	5.25
644.604	5.27
644.936	5.2
645.267	5.26
645.598	5.2
645.929	5.25
646.26	5.29
646.591	5.24
646.922	5.32
647.253	5.28
647.584	5.24
647.915	5.17
648.245	5.09
648.576	5.13
648.907	5.23
649.238	5.2
649.568	5.2
649.899	5.16
650.229	5.12
650.56	5.13
650.89	5.09
651.221	5.06
651.551	5.05
651.882	5.1
652.212	5.15
652.542	5.25
652.872	5.26
653.203	5.16
653.533	5.2
653.863	5.15
654.193	5.13
654.523	5.2
654.853	5.24
655.183	5.3
655.513	5.23
655.843	5.17
656.172	5.22
656.502	5.19
656.832	5.11
657.162	5.18
657.491	5.15
657.821	5.2
658.15	5.17
658.48	5.22
658.809	5.23
659.139	5.13
659.468	5.06
659.798	5.12
660.127	5.16
660.456	5.14
660.785	5.16
661.115	5.2
661.444	5.17
661.773	5.19
662.102	5.15
662.431	5.17
662.76	5.18
663.089	5.19
663.418	5.23
663.747	5.28
664.076	5.25
664.404	5.3
664.733	5.28
665.062	5.28
665.39	5.28
665.719	5.21
666.048	5.21
666.376	5.19
666.705	5.12
667.033	5.08
667.362	5.12
667.69	5.13
668.018	5.13
668.347	5.16
668.675	5.15
669.003	5.17
669.331	5.15
669.659	5.14
669.987	5.05
670.315	5.05
670.643	5.03
670.971	5.06
671.299	5.08
671.627	5.06
671.955	5.07
672.283	5.07
672.61	5.08
672.938	5.18
673.266	5.27
673.593	5.35
673.921	5.34
674.249	5.24
674.576	5.22
674.904	5.2
675.231	5.15
675.558	5.16
675.886	5.17
676.213	5.23
676.54	5.28
676.867	5.3
677.195	5.29
677.522	5.32
677.849	5.3
678.176	5.24
678.503	5.31
678.83	5.33
679.157	5.31
