Data from BA56830_Reflection_00010.txt Node
Date: Mon Nov 18 16:04:07 EST 2019
User: vgr7
Spectrometer: USB2G7710
Scans to average: 3
Trigger mode: 4
Integration Time (sec): 2.000000E-2
Electric dark correction enabled: true
Boxcar width: 10
XAxis mode: Wavelengths
Number of Pixels in Spectrum: 2048
>>>>>Begin Spectral Data<<<<<
177.721	166.91
178.105	93.46
178.488	62.41
178.871	24.12
179.254	89.16
179.636	-102.61
180.019	16988.89
180.402	147.37
180.785	23.71
181.168	2.53
181.55	-0.66
181.933	63
182.316	77.68
182.698	96.47
183.081	91.81
183.463	71.57
183.846	92.78
184.228	83.06
184.611	317.54
184.993	-168.4
185.376	506.5
185.758	78.77
186.14	-40.92
186.522	-2.06
186.904	-3.36
187.287	191.32
187.669	4.76
188.051	191.5
188.433	15433.33
188.815	145.09
189.197	14.5
189.579	14.7
189.961	16.76
190.342	0.24
190.724	23.75
191.106	18.54
191.488	-5.82
191.869	3.76
192.251	-47.76
192.633	-120.53
193.014	-147.28
193.396	-222.64
193.777	-191.56
194.159	-185.94
194.54	-113.88
194.922	-78.66
195.303	-77.34
195.684	-92.57
196.065	-40.01
196.447	-50.46
196.828	-59.94
197.209	-36.54
197.59	-73.5
197.971	-68.08
198.352	-53.9
198.733	-96.03
199.114	-71.84
199.495	-42.82
199.876	-45.5
200.257	-33.11
200.638	-12.02
201.018	-14.47
201.399	-2.01
201.78	-3.89
202.16	-22.85
202.541	-33.95
202.922	-48.36
203.302	-57.55
203.683	-81.25
204.063	-113.19
204.444	-110.83
204.824	-99.34
205.204	-108.83
205.585	-102.28
205.965	-99.73
206.345	-112.09
206.725	-101.58
207.106	-105.87
207.486	-151.8
207.866	-127.54
208.246	-111.4
208.626	-152.58
209.006	-104.48
209.386	-115.84
209.766	-124.88
210.145	-82.61
210.525	-65.94
210.905	-70.16
211.285	-64.15
211.664	-46.09
212.044	-66.25
212.424	-49.8
212.803	-66.28
213.183	-59.13
213.562	-35.03
213.942	-41.39
214.321	-29.7
214.701	-25.03
215.08	-38.19
215.459	-41.41
215.838	-34.52
216.218	-22.5
216.597	-9.27
216.976	10.29
217.355	17.82
217.734	4.83
218.113	-5.08
218.492	-14.46
218.871	-11.29
219.25	-6.96
219.629	-6.39
220.008	0.22
220.387	-2.65
220.766	3.98
221.144	3.27
221.523	-8.14
221.902	-11.06
222.28	-12.87
222.659	-16.28
223.037	-12
223.416	-10.78
223.794	-12.74
224.173	-23.89
224.551	-18.86
224.929	-27.84
225.308	-29.77
225.686	-25.01
226.064	-22.63
226.442	-19.34
226.821	-17.71
227.199	-14.42
227.577	-13.36
227.955	-13.09
228.333	-12.17
228.711	-10.02
229.089	-8.58
229.467	-11.32
229.845	-10.36
230.222	-8.83
230.6	-11.2
230.978	-8.19
231.356	-6.76
231.733	-7.77
232.111	-5.61
232.488	-5.11
232.866	-4.3
233.243	-3.11
233.621	-3.64
233.998	-3.41
234.376	-3.54
234.753	-3.82
235.13	-4.63
235.508	-3.25
235.885	-2.46
236.262	-2.05
236.639	-2.01
237.016	-1.17
237.393	1.53
237.77	3
238.147	3.26
238.524	4.67
238.901	4.71
239.278	4.98
239.655	5.51
240.032	5.5
240.409	5.18
240.785	4.98
241.162	5.03
241.539	4.94
241.915	5.05
242.292	4.89
242.668	5.1
243.045	5.18
243.421	5.06
243.798	4.85
244.174	5.01
244.551	5.01
244.927	4.95
245.303	4.88
245.679	4.83
246.056	4.82
246.432	4.84
246.808	4.73
247.184	4.4
247.56	4.35
247.936	4.27
248.312	4.24
248.688	4.27
249.064	4.08
249.44	3.93
249.815	3.97
250.191	4.1
250.567	3.9
250.943	3.8
251.318	3.94
251.694	3.78
252.069	3.65
252.445	3.54
252.82	3.43
253.196	3.42
253.571	3.14
253.947	2.94
254.322	2.99
254.697	2.94
255.073	2.96
255.448	2.81
255.823	2.9
256.198	3.09
256.573	3.19
256.948	3.26
257.323	3.62
257.698	3.59
258.073	3.71
258.448	3.87
258.823	3.79
259.198	3.7
259.573	3.89
259.948	3.89
260.322	4.02
260.697	3.95
261.072	3.82
261.446	3.79
261.821	3.75
262.195	3.8
262.57	3.73
262.944	3.84
263.319	3.96
263.693	4
264.067	3.96
264.442	4.06
264.816	4.1
265.19	3.96
265.564	3.89
265.938	3.83
266.313	3.69
266.687	3.8
267.061	3.73
267.435	3.65
267.809	3.54
268.183	3.51
268.556	3.68
268.93	3.82
269.304	3.95
269.678	4.15
270.051	4.05
270.425	4.05
270.799	4.1
271.172	4.22
271.546	4.31
271.919	4.22
272.293	3.99
272.666	3.98
273.04	3.96
273.413	4.1
273.787	4.15
274.16	4.31
274.533	4.35
274.906	4.39
275.279	4.4
275.653	4.54
276.026	4.47
276.399	4.36
276.772	4.4
277.145	4.33
277.518	4.27
277.891	4.19
278.263	4.11
278.636	4.11
279.009	3.98
279.382	3.89
279.755	3.9
280.127	4.22
280.5	4.27
280.872	4.44
281.245	4.28
281.617	4.29
281.99	4.24
282.362	4.29
282.735	4.07
283.107	4.18
283.479	4.22
283.852	4.23
284.224	4.4
284.596	4.47
284.968	4.53
285.34	4.53
285.713	4.62
286.085	4.78
286.457	4.85
286.829	4.89
287.201	4.81
287.572	4.77
287.944	4.58
288.316	4.5
288.688	4.37
289.06	4.35
289.431	4.34
289.803	4.31
290.175	4.27
290.546	4.49
290.918	4.47
291.289	4.45
291.661	4.53
292.032	4.41
292.403	4.32
292.775	4.56
293.146	4.6
293.517	4.53
293.889	4.6
294.26	4.6
294.631	4.7
295.002	4.77
295.373	4.94
295.744	5.11
296.115	5.23
296.486	5.23
296.857	5.37
297.228	5.45
297.599	5.55
297.97	5.59
298.34	5.68
298.711	5.79
299.082	5.77
299.452	5.75
299.823	5.93
300.194	5.95
300.564	5.73
300.935	5.89
301.305	6.02
301.676	6.17
302.046	6.19
302.416	6.21
302.787	6.35
303.157	6.26
303.527	6.13
303.897	6.17
304.267	6.31
304.637	6.39
305.008	6.5
305.378	6.48
305.748	6.54
306.117	6.41
306.487	6.37
306.857	6.43
307.227	6.52
307.597	6.51
307.967	6.55
308.336	6.69
308.706	6.6
309.076	6.68
309.445	6.55
309.815	6.55
310.184	6.65
310.554	6.54
310.923	6.66
311.293	6.7
311.662	6.78
312.031	6.95
312.401	6.96
312.77	6.96
313.139	7.06
313.508	7.01
313.877	7.17
314.246	7.21
314.616	7.43
314.985	7.46
315.353	7.43
315.722	7.5
316.091	7.44
316.46	7.58
316.829	7.74
317.198	7.91
317.567	7.96
317.935	7.87
318.304	8.2
318.672	8.14
319.041	8.57
319.41	8.59
319.778	8.53
320.147	8.51
320.515	8.55
320.883	8.5
321.252	8.72
321.62	8.85
321.988	8.89
322.357	8.79
322.725	8.87
323.093	8.99
323.461	9.09
323.829	9.31
324.197	9.24
324.565	9.22
324.933	9.17
325.301	9.32
325.669	9.34
326.037	9.27
326.405	9.46
326.772	9.36
327.14	9.5
327.508	9.53
327.875	9.49
328.243	9.59
328.61	9.69
328.978	9.75
329.346	9.71
329.713	9.75
330.08	9.85
330.448	9.83
330.815	9.8
331.182	9.89
331.55	9.98
331.917	10.06
332.284	10.19
332.651	10.26
333.018	10.25
333.385	10.38
333.752	10.62
334.119	10.6
334.486	10.65
334.853	10.69
335.22	10.66
335.587	10.97
335.954	10.93
336.32	10.9
336.687	10.93
337.054	10.97
337.42	11.01
337.787	10.97
338.153	11.08
338.52	11.22
338.886	11.11
339.253	11.14
339.619	11.24
339.986	11.19
340.352	11.22
340.718	11.29
341.084	11.35
341.451	11.28
341.817	11.39
342.183	11.38
342.549	11.45
342.915	11.54
343.281	11.5
343.647	11.58
344.013	11.64
344.379	11.62
344.745	11.75
345.11	11.86
345.476	11.93
345.842	11.86
346.208	11.96
346.573	12.09
346.939	12.06
347.304	12.04
347.67	12.12
348.035	12.16
348.401	12.16
348.766	12.16
349.132	12.1
349.497	12.01
349.862	12.12
350.228	12.03
350.593	12.02
350.958	11.98
351.323	11.97
351.688	12.04
352.053	12.16
352.418	12.12
352.783	12.08
353.148	12.04
353.513	12.16
353.878	12.09
354.243	12.1
354.608	12.1
354.972	12.09
355.337	12.02
355.702	12.11
356.066	12.14
356.431	11.98
356.795	12.01
357.16	12.02
357.524	11.88
357.889	11.8
358.253	11.83
358.618	11.86
358.982	11.85
359.346	11.77
359.71	11.73
360.075	11.62
360.439	11.61
360.803	11.56
361.167	11.51
361.531	11.48
361.895	11.42
362.259	11.39
362.623	11.37
362.987	11.38
363.351	11.25
363.714	11.22
364.078	11.24
364.442	11.2
364.806	11.21
365.169	11.19
365.533	11.21
365.896	11.13
366.26	11.01
366.623	10.9
366.987	10.9
367.35	10.89
367.714	10.99
368.077	10.86
368.44	10.9
368.803	10.86
369.167	10.75
369.53	10.64
369.893	10.57
370.256	10.53
370.619	10.44
370.982	10.36
371.345	10.29
371.708	10.29
372.071	10.21
372.434	10.11
372.797	10.09
373.159	9.96
373.522	9.98
373.885	9.99
374.247	9.97
374.61	9.92
374.973	9.73
375.335	9.57
375.698	9.57
376.06	9.45
376.423	9.39
376.785	9.4
377.147	9.36
377.51	9.29
377.872	9.2
378.234	9.14
378.596	9.14
378.958	9.01
379.321	8.92
379.683	8.92
380.045	8.86
380.407	8.77
380.769	8.77
381.13	8.66
381.492	8.54
381.854	8.52
382.216	8.42
382.578	8.38
382.939	8.32
383.301	8.23
383.663	8.16
384.024	8.12
384.386	8.05
384.747	8.06
385.109	8.05
385.47	7.99
385.832	7.95
386.193	7.89
386.554	7.85
386.916	7.78
387.277	7.74
387.638	7.74
387.999	7.68
388.36	7.63
388.721	7.59
389.082	7.56
389.443	7.46
389.804	7.38
390.165	7.34
390.526	7.31
390.887	7.27
391.248	7.24
391.609	7.18
391.969	7.13
392.33	7.05
392.691	6.98
393.051	6.92
393.412	6.88
393.772	6.83
394.133	6.81
394.493	6.78
394.854	6.71
395.214	6.62
395.574	6.57
395.935	6.5
396.295	6.46
396.655	6.4
397.015	6.38
397.376	6.33
397.736	6.28
398.096	6.23
398.456	6.18
398.816	6.12
399.176	6.05
399.535	5.97
399.895	5.92
400.255	5.91
400.615	5.87
400.975	5.77
401.334	5.72
401.694	5.67
402.054	5.64
402.413	5.59
402.773	5.53
403.132	5.49
403.492	5.49
403.851	5.47
404.211	5.44
404.57	5.4
404.929	5.41
405.288	5.34
405.648	5.31
406.007	5.27
406.366	5.27
406.725	5.28
407.084	5.28
407.443	5.27
407.802	5.24
408.161	5.22
408.52	5.2
408.879	5.19
409.238	5.16
409.596	5.15
409.955	5.13
410.314	5.14
410.673	5.15
411.031	5.11
411.39	5.06
411.748	5.06
412.107	5.05
412.465	5.03
412.824	5.02
413.182	4.98
413.54	5.02
413.899	4.99
414.257	4.96
414.615	4.91
414.974	4.92
415.332	4.85
415.69	4.84
416.048	4.83
416.406	4.79
416.764	4.77
417.122	4.72
417.48	4.69
417.838	4.66
418.195	4.62
418.553	4.61
418.911	4.58
419.269	4.55
419.626	4.51
419.984	4.47
420.342	4.45
420.699	4.43
421.057	4.37
421.414	4.35
421.772	4.32
422.129	4.31
422.486	4.27
422.844	4.27
423.201	4.24
423.558	4.22
423.915	4.2
424.273	4.17
424.63	4.16
424.987	4.14
425.344	4.13
425.701	4.1
426.058	4.08
426.415	4.05
426.772	4.04
427.128	4.03
427.485	4.03
427.842	4.02
428.199	4.02
428.555	4.01
428.912	4.01
429.269	4.03
429.625	4.04
429.982	4.03
430.338	4.01
430.695	4.02
431.051	4
431.407	4
431.764	4
432.12	3.99
432.476	4
432.832	4
433.189	3.99
433.545	3.99
433.901	4
434.257	4
434.613	4
434.969	4.01
435.325	4
435.681	3.98
436.036	3.98
436.392	3.98
436.748	3.95
437.104	3.96
437.459	3.95
437.815	3.94
438.171	3.95
438.526	3.97
438.882	3.98
439.237	3.96
439.593	3.97
439.948	3.95
440.304	3.95
440.659	3.95
441.014	3.96
441.369	3.94
441.725	3.93
442.08	3.92
442.435	3.91
442.79	3.9
443.145	3.89
443.5	3.89
443.855	3.87
444.21	3.84
444.565	3.82
444.92	3.82
445.275	3.82
445.629	3.81
445.984	3.79
446.339	3.77
446.693	3.76
447.048	3.74
447.403	3.74
447.757	3.72
448.112	3.72
448.466	3.69
448.82	3.67
449.175	3.68
449.529	3.66
449.883	3.65
450.238	3.65
450.592	3.67
450.946	3.64
451.3	3.64
451.654	3.63
452.008	3.62
452.362	3.61
452.716	3.61
453.07	3.58
453.424	3.59
453.778	3.58
454.132	3.57
454.486	3.58
454.839	3.58
455.193	3.58
455.547	3.55
455.9	3.59
456.254	3.6
456.607	3.6
456.961	3.6
457.314	3.61
457.668	3.61
458.021	3.59
458.375	3.61
458.728	3.61
459.081	3.61
459.434	3.61
459.787	3.63
460.141	3.63
460.494	3.65
460.847	3.63
461.2	3.64
461.553	3.66
461.906	3.65
462.259	3.66
462.611	3.67
462.964	3.7
463.317	3.69
463.67	3.67
464.022	3.67
464.375	3.67
464.728	3.66
465.08	3.68
465.433	3.7
465.785	3.7
466.138	3.71
466.49	3.71
466.843	3.72
467.195	3.72
467.547	3.74
467.899	3.73
468.252	3.74
468.604	3.78
468.956	3.77
469.308	3.78
469.66	3.79
470.012	3.81
470.364	3.81
470.716	3.84
471.068	3.85
471.42	3.88
471.772	3.89
472.123	3.91
472.475	3.9
472.827	3.91
473.178	3.92
473.53	3.91
473.882	3.92
474.233	3.92
474.585	3.9
474.936	3.89
475.288	3.89
475.639	3.91
475.99	3.9
476.342	3.88
476.693	3.89
477.044	3.9
477.395	3.9
477.746	3.88
478.097	3.86
478.448	3.87
478.8	3.86
479.15	3.84
479.501	3.83
479.852	3.82
480.203	3.82
480.554	3.84
480.905	3.85
481.255	3.85
481.606	3.85
481.957	3.85
482.307	3.86
482.658	3.85
483.009	3.85
483.359	3.84
483.709	3.84
484.06	3.83
484.41	3.83
484.761	3.82
485.111	3.83
485.461	3.82
485.811	3.82
486.162	3.82
486.512	3.83
486.862	3.84
487.212	3.85
487.562	3.85
487.912	3.84
488.262	3.83
488.612	3.85
488.961	3.84
489.311	3.84
489.661	3.85
490.011	3.86
490.36	3.86
490.71	3.89
491.06	3.9
491.409	3.91
491.759	3.92
492.108	3.93
492.458	3.94
492.807	3.96
493.157	3.97
493.506	3.99
493.855	4.01
494.204	4.01
494.554	4.03
494.903	4.04
495.252	4.07
495.601	4.11
495.95	4.12
496.299	4.15
496.648	4.17
496.997	4.18
497.346	4.24
497.695	4.27
498.043	4.28
498.392	4.29
498.741	4.33
499.09	4.37
499.438	4.41
499.787	4.43
500.135	4.5
500.484	4.54
500.832	4.59
501.181	4.62
501.529	4.65
501.878	4.69
502.226	4.74
502.574	4.79
502.923	4.83
503.271	4.91
503.619	4.99
503.967	5.07
504.315	5.12
504.663	5.18
505.011	5.22
505.359	5.3
505.707	5.39
506.055	5.48
506.403	5.54
506.751	5.61
507.098	5.69
507.446	5.74
507.794	5.8
508.141	5.86
508.489	5.94
508.837	6.03
509.184	6.09
509.531	6.16
509.879	6.23
510.226	6.3
510.574	6.36
510.921	6.43
511.268	6.49
511.616	6.55
511.963	6.62
512.31	6.72
512.657	6.79
513.004	6.87
513.351	6.94
513.698	7.04
514.045	7.12
514.392	7.2
514.739	7.3
515.086	7.4
515.432	7.51
515.779	7.61
516.126	7.73
516.473	7.85
516.819	7.96
517.166	8.04
517.512	8.14
517.859	8.24
518.205	8.33
518.552	8.43
518.898	8.56
519.245	8.67
519.591	8.76
519.937	8.85
520.283	8.93
520.629	9.04
520.976	9.15
521.322	9.29
521.668	9.43
522.014	9.56
522.36	9.71
522.706	9.88
523.052	10.04
523.398	10.2
523.743	10.4
524.089	10.57
524.435	10.78
524.781	10.98
525.126	11.14
525.472	11.28
525.817	11.45
526.163	11.59
526.509	11.73
526.854	11.87
527.199	12.02
527.545	12.17
527.89	12.32
528.235	12.48
528.581	12.63
528.926	12.77
529.271	12.93
529.616	13.09
529.961	13.23
530.306	13.4
530.651	13.58
530.996	13.74
531.341	13.95
531.686	14.14
532.031	14.35
532.376	14.58
532.721	14.82
533.065	15.07
533.41	15.31
533.755	15.58
534.099	15.83
534.444	16.09
534.788	16.35
535.133	16.6
535.477	16.87
535.822	17.15
536.166	17.49
536.51	17.83
536.855	18.2
537.199	18.6
537.543	18.99
537.887	19.36
538.231	19.77
538.576	20.16
538.92	20.57
539.264	20.93
539.608	21.28
539.951	21.63
540.295	21.94
540.639	22.26
540.983	22.55
541.327	22.89
541.671	23.2
542.014	23.48
542.358	23.81
542.701	24.11
543.045	24.4
543.389	24.68
543.732	24.99
544.075	25.29
544.419	25.6
544.762	25.94
545.105	26.31
545.449	26.66
545.792	27.03
546.135	27.4
546.478	27.81
546.821	28.24
547.165	28.7
547.508	29.16
547.851	29.59
548.194	30.04
548.536	30.45
548.879	30.84
549.222	31.32
549.565	31.74
549.908	32.2
550.25	32.63
550.593	33.08
550.936	33.48
551.278	33.93
551.621	34.37
551.963	34.76
552.306	35.17
552.648	35.62
552.991	36.07
553.333	36.5
553.675	36.93
554.017	37.31
554.36	37.6
554.702	37.96
555.044	38.33
555.386	38.7
555.728	39.09
556.07	39.56
556.412	39.93
556.754	40.31
557.096	40.64
557.438	41.1
557.78	41.53
558.121	41.95
558.463	42.35
558.805	42.71
559.147	43.17
559.488	43.45
559.83	43.77
560.171	44.05
560.513	44.32
560.854	44.62
561.196	44.98
561.537	45.37
561.878	45.67
562.22	45.97
562.561	46.32
562.902	46.59
563.243	46.84
563.584	47.13
563.925	47.42
564.266	47.69
564.607	47.95
564.948	48.19
565.289	48.48
565.63	48.66
565.971	48.94
566.312	49.1
566.653	49.4
566.993	49.64
567.334	49.9
567.675	50.15
568.015	50.43
568.356	50.71
568.696	50.91
569.037	51.16
569.377	51.43
569.718	51.61
570.058	51.84
570.398	52.01
570.739	52.22
571.079	52.43
571.419	52.67
571.759	52.92
572.099	53.13
572.439	53.29
572.779	53.49
573.119	53.66
573.459	53.85
573.799	54.05
574.139	54.25
574.479	54.41
574.819	54.56
575.158	54.69
575.498	54.82
575.838	55.03
576.177	55.21
576.517	55.36
576.856	55.52
577.196	55.68
577.535	55.91
577.875	56.14
578.214	56.35
578.553	56.49
578.893	56.57
579.232	56.76
579.571	56.94
579.91	57.08
580.25	57.2
580.589	57.42
580.928	57.5
581.267	57.63
581.606	57.76
581.945	57.95
582.283	58.09
582.622	58.21
582.961	58.25
583.3	58.32
583.639	58.46
583.977	58.58
584.316	58.76
584.654	58.87
584.993	58.89
585.332	58.95
585.67	59.12
586.008	59.24
586.347	59.33
586.685	59.41
587.024	59.57
587.362	59.63
587.7	59.65
588.038	59.8
588.376	59.88
588.715	59.93
589.053	59.99
589.391	60.03
589.729	60.1
590.067	60.21
590.404	60.3
590.742	60.39
591.08	60.49
591.418	60.53
591.756	60.66
592.093	60.73
592.431	60.87
592.769	60.86
593.106	60.96
593.444	61.03
593.781	61.14
594.119	61.26
594.456	61.33
594.793	61.49
595.131	61.57
595.468	61.67
595.805	61.85
596.143	61.96
596.48	62.06
596.817	62.18
597.154	62.23
597.491	62.32
597.828	62.3
598.165	62.35
598.502	62.44
598.839	62.57
599.176	62.71
599.512	62.76
599.849	62.84
600.186	62.98
600.523	63.02
600.859	63.05
601.196	63.06
601.532	63.19
601.869	63.18
602.205	63.26
602.542	63.25
602.878	63.3
603.215	63.2
603.551	63.25
603.887	63.26
604.223	63.37
604.56	63.4
604.896	63.47
605.232	63.58
605.568	63.6
605.904	63.6
606.24	63.63
606.576	63.65
606.912	63.71
607.248	63.67
607.583	63.72
607.919	63.78
608.255	63.8
608.591	63.85
608.926	63.92
609.262	63.97
609.597	64.15
609.933	64.23
610.268	64.45
610.604	64.5
610.939	64.53
611.275	64.51
611.61	64.62
611.945	64.69
612.281	64.75
612.616	64.76
612.951	64.83
613.286	64.89
613.621	64.89
613.956	64.97
614.291	65.03
614.626	65.04
614.961	65.13
615.296	65.26
615.631	65.33
615.966	65.29
616.3	65.33
616.635	65.25
616.97	65.22
617.304	65.26
617.639	65.29
617.973	65.41
618.308	65.52
618.642	65.45
618.977	65.45
619.311	65.49
619.646	65.56
619.98	65.52
620.314	65.45
620.648	65.56
620.983	65.57
621.317	65.66
621.651	65.74
621.985	65.67
622.319	65.61
622.653	65.74
622.987	65.88
623.321	65.85
623.655	65.83
623.988	65.85
624.322	65.83
624.656	65.87
624.99	65.82
625.323	65.76
625.657	65.81
625.99	65.85
626.324	65.84
626.657	65.88
626.991	65.88
627.324	66.05
627.658	66.08
627.991	66.12
628.324	66.13
628.657	66.24
628.991	66.29
629.324	66.32
629.657	66.23
629.99	66.22
630.323	66.25
630.656	66.31
630.989	66.39
631.322	66.46
631.655	66.5
631.987	66.55
632.32	66.66
632.653	66.74
632.986	66.77
633.318	66.82
633.651	66.8
633.984	66.91
634.316	66.75
634.649	66.77
634.981	66.78
635.313	66.82
635.646	66.77
635.978	66.79
636.31	66.8
636.643	66.81
636.975	66.85
637.307	66.95
637.639	66.98
637.971	67
638.303	66.92
638.635	66.87
638.967	66.87
639.299	66.84
639.631	66.76
639.963	66.83
640.295	66.77
640.626	66.79
640.958	66.8
641.29	66.93
641.621	66.99
641.953	67.05
642.285	67.11
642.616	67.02
642.948	67.11
643.279	67.1
643.61	67.13
643.942	67.06
644.273	66.91
644.604	66.89
644.936	66.75
645.267	66.87
645.598	66.97
645.929	66.99
646.26	67.11
646.591	67.1
646.922	66.98
647.253	67.05
647.584	67.14
647.915	67.19
648.245	67.22
648.576	67.18
648.907	67.16
649.238	67.04
649.568	67.17
649.899	67.18
650.229	67.29
650.56	67.32
650.89	67.41
651.221	67.47
651.551	67.44
651.882	67.6
652.212	67.62
652.542	67.68
652.872	67.72
653.203	67.59
653.533	67.81
653.863	68.01
654.193	68.14
654.523	68.17
654.853	68.25
655.183	68.25
655.513	68.28
655.843	68.4
656.172	68.49
656.502	68.48
656.832	68.46
657.162	68.51
657.491	68.52
657.821	68.52
658.15	68.49
658.48	68.65
658.809	68.63
659.139	68.42
659.468	68.39
659.798	68.29
660.127	68.34
660.456	68.28
660.785	68.15
661.115	68.02
661.444	68.15
661.773	68.06
662.102	67.97
662.431	67.88
662.76	67.74
663.089	67.69
663.418	67.71
663.747	67.81
664.076	67.69
664.404	67.69
664.733	67.75
