Data from BA56814_Reflection_00013.txt Node
Date: Mon Nov 18 15:40:50 EST 2019
User: vgr7
Spectrometer: USB2G7710
Scans to average: 3
Trigger mode: 4
Integration Time (sec): 2.000000E-2
Electric dark correction enabled: true
Boxcar width: 10
XAxis mode: Wavelengths
Number of Pixels in Spectrum: 2048
>>>>>Begin Spectral Data<<<<<
177.721	-49.41
178.105	-9.92
178.488	-37.05
178.871	-2.72
179.254	112.06
179.636	135.24
180.019	89.18
180.402	48.28
180.785	-94.17
181.168	-57.79
181.55	-98.39
181.933	41.64
182.316	106.83
182.698	102.49
183.081	117.48
183.463	129.49
183.846	205.35
184.228	179.16
184.611	121.22
184.993	193.16
185.376	75.37
185.758	98.38
186.14	86.38
186.522	55.23
186.904	66.77
187.287	115.19
187.669	102.22
188.051	79.28
188.433	91.85
188.815	131.27
189.197	122.53
189.579	102.73
189.961	138.69
190.342	88.19
190.724	47.34
191.106	22.09
191.488	6
191.869	-10.42
192.251	-14.68
192.633	-10.52
193.014	13.9
193.396	70.78
193.777	138.5
194.159	206.87
194.54	559.36
194.922	2329.51
195.303	383.99
195.684	1017.43
196.065	-69.91
196.447	-45.54
196.828	-163.67
197.209	-157.71
197.59	-96.77
197.971	-83.69
198.352	-58.93
198.733	-64.79
199.114	-56.33
199.495	-45.73
199.876	-38.61
200.257	-37.93
200.638	-19.25
201.018	-18.3
201.399	-17.59
201.78	-0.29
202.16	5.49
202.541	-14.57
202.922	-60.07
203.302	-51.98
203.683	-120.9
204.063	-414.73
204.444	-531.3
204.824	-192.18
205.204	-162.24
205.585	-152.38
205.965	-163.59
206.345	-264.95
206.725	-489.69
207.106	-1531.28
207.486	546.98
207.866	-14682.61
208.246	-584.58
208.626	-648.14
209.006	-436.9
209.386	-406.55
209.766	-331.02
210.145	-349.22
210.525	-254.78
210.905	-172.69
211.285	-199.74
211.664	-105.05
212.044	-95.84
212.424	-83.38
212.803	-77.82
213.183	-81.51
213.562	-63.94
213.942	-65.37
214.321	-56.17
214.701	-58.32
215.08	-47.46
215.459	-27.62
215.838	-35.71
216.218	-25.39
216.597	-22.65
216.976	-21.6
217.355	-6.64
217.734	-9.3
218.113	-16.92
218.492	-2.45
218.871	-17.27
219.25	-7.33
219.629	-19.95
220.008	-24.36
220.387	-25.46
220.766	-43.55
221.144	-37.71
221.523	-74.85
221.902	-68.78
222.28	-72.9
222.659	-67.07
223.037	-66.06
223.416	-69.56
223.794	-62.24
224.173	-50.34
224.551	-40.4
224.929	-42.19
225.308	-23.53
225.686	-17.45
226.064	-11.12
226.442	-15.25
226.821	-8.11
227.199	-12.14
227.577	-13.22
227.955	-10.26
228.333	-9.12
228.711	-4.84
229.089	-3.97
229.467	-6.02
229.845	-5.5
230.222	-6.14
230.6	-8.13
230.978	-6.78
231.356	-4.42
231.733	-3.06
232.111	-1.91
232.488	-1.24
232.866	-1.39
233.243	-3.87
233.621	-3.93
233.998	-3.14
234.376	-3.46
234.753	-4.08
235.13	-3.64
235.508	-1.24
235.885	-2.37
236.262	-3.47
236.639	-4.9
237.016	-4.63
237.393	-2.36
237.77	-1.68
238.147	-0.3
238.524	1.86
238.901	1.74
239.278	1.56
239.655	2.08
240.032	2.14
240.409	2.21
240.785	2.59
241.162	3.01
241.539	3.04
241.915	2.86
242.292	2.7
242.668	3.04
243.045	3.29
243.421	3.06
243.798	2.91
244.174	3.02
244.551	3.19
244.927	2.9
245.303	3.21
245.679	3.36
246.056	3.38
246.432	3.26
246.808	3.36
247.184	2.97
247.56	2.68
247.936	2.65
248.312	2.65
248.688	2.64
249.064	2.41
249.44	2.3
249.815	2.16
250.191	2.42
250.567	2.27
250.943	2.26
251.318	2.37
251.694	2.74
252.069	2.81
252.445	2.97
252.82	3.41
253.196	2.79
253.571	2.66
253.947	2.49
254.322	2.65
254.697	2.23
255.073	2.43
255.448	2.64
255.823	2.53
256.198	2.48
256.573	2.5
256.948	2.89
257.323	2.94
257.698	2.83
258.073	2.61
258.448	2.71
258.823	2.67
259.198	2.65
259.573	2.54
259.948	2.48
260.322	2.48
260.697	2.32
261.072	2.35
261.446	2.34
261.821	2.49
262.195	2.46
262.57	2.52
262.944	2.57
263.319	2.65
263.693	2.77
264.067	2.84
264.442	2.9
264.816	2.81
265.19	2.81
265.564	2.92
265.938	2.88
266.313	2.79
266.687	2.92
267.061	3.01
267.435	3.14
267.809	3.22
268.183	3.22
268.556	3.19
268.93	3.27
269.304	3.16
269.678	3.04
270.051	3.01
270.425	3.13
270.799	3.12
271.172	2.96
271.546	2.85
271.919	2.83
272.293	2.67
272.666	2.7
273.04	2.78
273.413	2.84
273.787	2.96
274.16	3.05
274.533	3.02
274.906	2.87
275.279	2.75
275.653	2.66
276.026	2.67
276.399	2.74
276.772	2.9
277.145	2.98
277.518	2.98
277.891	2.95
278.263	2.95
278.636	2.97
279.009	3.04
279.382	3.22
279.755	3.17
280.127	3.34
280.5	3.32
280.872	3.34
281.245	3.31
281.617	3.28
281.99	3.38
282.362	3.33
282.735	3.33
283.107	3.29
283.479	3.24
283.852	3.12
284.224	3.12
284.596	2.88
284.968	2.93
285.34	2.99
285.713	3.05
286.085	2.98
286.457	3.05
286.829	3.02
287.201	3.03
287.572	3.09
287.944	3.09
288.316	3.12
288.688	3.09
289.06	3.12
289.431	3.13
289.803	3.05
290.175	3.1
290.546	3.15
290.918	3.24
291.289	3.33
291.661	3.4
292.032	3.47
292.403	3.63
292.775	3.65
293.146	3.65
293.517	3.63
293.889	3.72
294.26	3.64
294.631	3.64
295.002	3.56
295.373	3.51
295.744	3.49
296.115	3.41
296.486	3.33
296.857	3.32
297.228	3.33
297.599	3.27
297.97	3.26
298.34	3.15
298.711	3.08
299.082	3.02
299.452	3.08
299.823	3.09
300.194	3.03
300.564	2.91
300.935	2.78
301.305	2.67
301.676	2.67
302.046	2.73
302.416	2.9
302.787	2.81
303.157	2.76
303.527	2.71
303.897	2.76
304.267	2.81
304.637	2.77
305.008	2.89
305.378	3.01
305.748	2.95
306.117	3.04
306.487	3.15
306.857	3.29
307.227	3.26
307.597	3.18
307.967	3.18
308.336	3.3
308.706	3.29
309.076	3.37
309.445	3.39
309.815	3.27
310.184	3.08
310.554	3.19
310.923	3.24
311.293	3.2
311.662	3.21
312.031	3.17
312.401	3.3
312.77	3.35
313.139	3.41
313.508	3.5
313.877	3.54
314.246	3.53
314.616	3.45
314.985	3.48
315.353	3.41
315.722	3.55
316.091	3.61
316.46	3.66
316.829	3.74
317.198	3.65
317.567	3.61
317.935	3.67
318.304	3.65
318.672	3.64
319.041	3.76
319.41	3.77
319.778	4.04
320.147	3.84
320.515	3.73
320.883	3.52
321.252	3.45
321.62	3.39
321.988	3.36
322.357	3.33
322.725	3.25
323.093	3.35
323.461	3.28
323.829	3.29
324.197	3.42
324.565	3.46
324.933	3.46
325.301	3.68
325.669	3.83
326.037	3.81
326.405	3.85
326.772	3.97
327.14	3.97
327.508	3.75
327.875	3.84
328.243	3.75
328.61	3.87
328.978	3.92
329.346	3.99
329.713	3.96
330.08	4.07
330.448	4.07
330.815	4.04
331.182	4.11
331.55	4
331.917	4
332.284	4.01
332.651	4.04
333.018	3.94
333.385	3.8
333.752	3.93
334.119	3.88
334.486	3.84
334.853	3.84
335.22	3.89
335.587	3.95
335.954	4.02
336.32	4.01
336.687	4.02
337.054	4.04
337.42	4.17
337.787	4.24
338.153	4.29
338.52	4.37
338.886	4.24
339.253	4.23
339.619	4.27
339.986	4.16
340.352	4.19
340.718	4.17
341.084	4.19
341.451	4.14
341.817	4.28
342.183	4.19
342.549	4.26
342.915	4.34
343.281	4.29
343.647	4.21
344.013	4.25
344.379	4.21
344.745	4.15
345.11	4.13
345.476	4.1
345.842	4.13
346.208	4.12
346.573	4.24
346.939	4.31
347.304	4.26
347.67	4.31
348.035	4.33
348.401	4.39
348.766	4.4
349.132	4.36
349.497	4.36
349.862	4.46
350.228	4.45
350.593	4.32
350.958	4.35
351.323	4.47
351.688	4.46
352.053	4.55
352.418	4.67
352.783	4.63
353.148	4.61
353.513	4.62
353.878	4.6
354.243	4.57
354.608	4.54
354.972	4.57
355.337	4.63
355.702	4.67
356.066	4.71
356.431	4.74
356.795	4.74
357.16	4.63
357.524	4.55
357.889	4.44
358.253	4.49
358.618	4.55
358.982	4.53
359.346	4.52
359.71	4.42
360.075	4.4
360.439	4.45
360.803	4.39
361.167	4.34
361.531	4.29
361.895	4.26
362.259	4.31
362.623	4.31
362.987	4.22
363.351	4.13
363.714	4.15
364.078	4.11
364.442	4.09
364.806	4.13
365.169	4.12
365.533	4.18
365.896	4.22
366.26	4.13
366.623	4.19
366.987	4.17
367.35	4.23
367.714	4.22
368.077	4.18
368.44	4.25
368.803	4.29
369.167	4.33
369.53	4.28
369.893	4.24
370.256	4.2
370.619	4.2
370.982	4.24
371.345	4.18
371.708	4.25
372.071	4.27
372.434	4.22
372.797	4.24
373.159	4.18
373.522	4.14
373.885	4.15
374.247	4.05
374.61	4.02
374.973	3.93
375.335	3.93
375.698	3.94
376.06	3.85
376.423	3.81
376.785	3.85
377.147	3.84
377.51	3.85
377.872	3.85
378.234	3.87
378.596	3.83
378.958	3.73
379.321	3.6
379.683	3.61
380.045	3.61
380.407	3.61
380.769	3.61
381.13	3.6
381.492	3.53
381.854	3.53
382.216	3.58
382.578	3.59
382.939	3.53
383.301	3.55
383.663	3.56
384.024	3.53
384.386	3.49
384.747	3.52
385.109	3.47
385.47	3.44
385.832	3.43
386.193	3.44
386.554	3.49
386.916	3.53
387.277	3.48
387.638	3.49
387.999	3.44
388.36	3.46
388.721	3.46
389.082	3.51
389.443	3.48
389.804	3.46
390.165	3.45
390.526	3.46
390.887	3.38
391.248	3.36
391.609	3.37
391.969	3.37
392.33	3.35
392.691	3.35
393.051	3.32
393.412	3.32
393.772	3.3
394.133	3.3
394.493	3.28
394.854	3.26
395.214	3.25
395.574	3.28
395.935	3.27
396.295	3.26
396.655	3.21
397.015	3.2
397.376	3.17
397.736	3.15
398.096	3.17
398.456	3.2
398.816	3.22
399.176	3.18
399.535	3.16
399.895	3.16
400.255	3.15
400.615	3.16
400.975	3.13
401.334	3.12
401.694	3.11
402.054	3.06
402.413	3.06
402.773	3.06
403.132	3.03
403.492	3.04
403.851	3.02
404.211	3
404.57	3.03
404.929	3.04
405.288	3.05
405.648	3
406.007	3
406.366	2.99
406.725	3
407.084	3
407.443	2.99
407.802	2.98
408.161	2.97
408.52	2.95
408.879	2.95
409.238	2.95
409.596	2.99
409.955	2.99
410.314	2.96
410.673	2.94
411.031	2.92
411.39	2.9
411.748	2.92
412.107	2.9
412.465	2.91
412.824	2.91
413.182	2.91
413.54	2.87
413.899	2.85
414.257	2.85
414.615	2.85
414.974	2.85
415.332	2.82
415.69	2.82
416.048	2.83
416.406	2.85
416.764	2.83
417.122	2.83
417.48	2.83
417.838	2.83
418.195	2.82
418.553	2.83
418.911	2.83
419.269	2.83
419.626	2.82
419.984	2.79
420.342	2.78
420.699	2.79
421.057	2.8
421.414	2.79
421.772	2.79
422.129	2.77
422.486	2.76
422.844	2.77
423.201	2.77
423.558	2.77
423.915	2.75
424.273	2.76
424.63	2.75
424.987	2.75
425.344	2.75
425.701	2.75
426.058	2.74
426.415	2.75
426.772	2.74
427.128	2.73
427.485	2.74
427.842	2.73
428.199	2.74
428.555	2.73
428.912	2.74
429.269	2.72
429.625	2.74
429.982	2.76
430.338	2.75
430.695	2.76
431.051	2.75
431.407	2.74
431.764	2.73
432.12	2.72
432.476	2.7
432.832	2.69
433.189	2.68
433.545	2.67
433.901	2.64
434.257	2.64
434.613	2.64
434.969	2.64
435.325	2.64
435.681	2.63
436.036	2.64
436.392	2.64
436.748	2.64
437.104	2.62
437.459	2.62
437.815	2.62
438.171	2.62
438.526	2.63
438.882	2.65
439.237	2.64
439.593	2.65
439.948	2.66
440.304	2.65
440.659	2.65
441.014	2.66
441.369	2.67
441.725	2.67
442.08	2.68
442.435	2.67
442.79	2.69
443.145	2.7
443.5	2.69
443.855	2.69
444.21	2.7
444.565	2.71
444.92	2.71
445.275	2.7
445.629	2.69
445.984	2.69
446.339	2.67
446.693	2.67
447.048	2.67
447.403	2.67
447.757	2.68
448.112	2.69
448.466	2.69
448.82	2.68
449.175	2.68
449.529	2.67
449.883	2.66
450.238	2.63
450.592	2.63
450.946	2.62
451.3	2.61
451.654	2.6
452.008	2.6
452.362	2.61
452.716	2.6
453.07	2.59
453.424	2.59
453.778	2.6
454.132	2.6
454.486	2.59
454.839	2.59
455.193	2.57
455.547	2.57
455.9	2.57
456.254	2.58
456.607	2.58
456.961	2.59
457.314	2.6
457.668	2.6
458.021	2.59
458.375	2.59
458.728	2.59
459.081	2.6
459.434	2.59
459.787	2.61
460.141	2.61
460.494	2.61
460.847	2.61
461.2	2.6
461.553	2.6
461.906	2.62
462.259	2.62
462.611	2.64
462.964	2.65
463.317	2.65
463.67	2.65
464.022	2.65
464.375	2.66
464.728	2.67
465.08	2.68
465.433	2.68
465.785	2.7
466.138	2.69
466.49	2.67
466.843	2.67
467.195	2.65
467.547	2.66
467.899	2.67
468.252	2.67
468.604	2.68
468.956	2.67
469.308	2.66
469.66	2.67
470.012	2.66
470.364	2.67
470.716	2.66
471.068	2.66
471.42	2.64
471.772	2.65
472.123	2.66
472.475	2.66
472.827	2.68
473.178	2.66
473.53	2.67
473.882	2.69
474.233	2.67
474.585	2.66
474.936	2.66
475.288	2.67
475.639	2.69
475.99	2.69
476.342	2.67
476.693	2.66
477.044	2.67
477.395	2.66
477.746	2.62
478.097	2.62
478.448	2.62
478.8	2.64
479.15	2.6
479.501	2.6
479.852	2.6
480.203	2.58
480.554	2.6
480.905	2.61
481.255	2.61
481.606	2.63
481.957	2.64
482.307	2.64
482.658	2.64
483.009	2.64
483.359	2.64
483.709	2.66
484.06	2.65
484.41	2.65
484.761	2.66
485.111	2.67
485.461	2.68
485.811	2.68
486.162	2.68
486.512	2.7
486.862	2.7
487.212	2.7
487.562	2.71
487.912	2.71
488.262	2.71
488.612	2.71
488.961	2.71
489.311	2.72
489.661	2.72
490.011	2.73
490.36	2.71
490.71	2.72
491.06	2.72
491.409	2.74
491.759	2.74
492.108	2.73
492.458	2.74
492.807	2.73
493.157	2.74
493.506	2.75
493.855	2.74
494.204	2.75
494.554	2.74
494.903	2.74
495.252	2.76
495.601	2.77
495.95	2.78
496.299	2.79
496.648	2.79
496.997	2.81
497.346	2.81
497.695	2.85
498.043	2.86
498.392	2.85
498.741	2.85
499.09	2.86
499.438	2.87
499.787	2.88
500.135	2.9
500.484	2.91
500.832	2.91
501.181	2.94
501.529	2.95
501.878	2.97
502.226	3
502.574	3
502.923	3.01
503.271	3.02
503.619	3.03
503.967	3.02
504.315	3.04
504.663	3.07
505.011	3.09
505.359	3.07
505.707	3.11
506.055	3.12
506.403	3.14
506.751	3.16
507.098	3.17
507.446	3.21
507.794	3.26
508.141	3.29
508.489	3.31
508.837	3.34
509.184	3.37
509.531	3.38
509.879	3.41
510.226	3.43
510.574	3.46
510.921	3.49
511.268	3.51
511.616	3.53
511.963	3.56
512.31	3.58
512.657	3.63
513.004	3.66
513.351	3.7
513.698	3.74
514.045	3.76
514.392	3.79
514.739	3.8
515.086	3.81
515.432	3.85
515.779	3.86
516.126	3.91
516.473	3.95
516.819	4.01
517.166	4.05
517.512	4.1
517.859	4.13
518.205	4.15
518.552	4.21
518.898	4.25
519.245	4.27
519.591	4.32
519.937	4.36
520.283	4.4
520.629	4.46
520.976	4.52
521.322	4.59
521.668	4.65
522.014	4.74
522.36	4.82
522.706	4.88
523.052	4.98
523.398	5.07
523.743	5.14
524.089	5.24
524.435	5.31
524.781	5.4
525.126	5.49
525.472	5.57
525.817	5.65
526.163	5.72
526.509	5.79
526.854	5.85
527.199	5.94
527.545	6.01
527.89	6.08
528.235	6.14
528.581	6.21
528.926	6.29
529.271	6.36
529.616	6.44
529.961	6.53
530.306	6.61
530.651	6.69
530.996	6.78
531.341	6.87
531.686	6.98
532.031	7.09
532.376	7.21
532.721	7.33
533.065	7.46
533.41	7.6
533.755	7.74
534.099	7.89
534.444	8.02
534.788	8.17
535.133	8.31
535.477	8.46
535.822	8.62
536.166	8.81
536.51	9.01
536.855	9.25
537.199	9.47
537.543	9.69
537.887	9.91
538.231	10.13
538.576	10.38
538.92	10.6
539.264	10.81
539.608	11.01
539.951	11.21
540.295	11.39
540.639	11.57
540.983	11.78
541.327	11.96
541.671	12.14
542.014	12.32
542.358	12.52
542.701	12.73
543.045	12.92
543.389	13.12
543.732	13.32
544.075	13.48
544.419	13.67
544.762	13.88
545.105	14.1
545.449	14.34
545.792	14.55
546.135	14.81
546.478	15.1
546.821	15.38
547.165	15.66
547.508	15.96
547.851	16.25
548.194	16.52
548.536	16.84
548.879	17.19
549.222	17.49
549.565	17.8
549.908	18.09
550.25	18.38
550.593	18.67
550.936	18.96
551.278	19.26
551.621	19.55
551.963	19.85
552.306	20.17
552.648	20.5
552.991	20.81
553.333	21.13
553.675	21.38
554.017	21.69
554.36	21.97
554.702	22.24
555.044	22.52
555.386	22.76
555.728	23.01
556.07	23.3
556.412	23.56
556.754	23.8
557.096	24.07
557.438	24.36
557.78	24.67
558.121	24.97
558.463	25.29
558.805	25.58
559.147	25.88
559.488	26.15
559.83	26.39
560.171	26.67
560.513	26.9
560.854	27.2
561.196	27.41
561.537	27.63
561.878	27.84
562.22	28.11
562.561	28.34
562.902	28.58
563.243	28.76
563.584	28.99
563.925	29.22
564.266	29.39
564.607	29.56
564.948	29.75
565.289	29.96
565.63	30.17
565.971	30.38
566.312	30.53
566.653	30.68
566.993	30.9
567.334	31.09
567.675	31.32
568.015	31.53
568.356	31.72
568.696	31.94
569.037	32.14
569.377	32.3
569.718	32.54
570.058	32.69
570.398	32.88
570.739	33.06
571.079	33.24
571.419	33.46
571.759	33.69
572.099	33.84
572.439	33.95
572.779	34.09
573.119	34.28
573.459	34.45
573.799	34.69
574.139	34.82
574.479	34.94
574.819	35.06
575.158	35.16
575.498	35.31
575.838	35.47
576.177	35.63
576.517	35.78
576.856	35.95
577.196	36.11
577.535	36.25
577.875	36.44
578.214	36.61
578.553	36.79
578.893	36.97
579.232	37.16
579.571	37.31
579.91	37.38
580.25	37.5
580.589	37.67
580.928	37.77
581.267	37.92
581.606	38.13
581.945	38.17
582.283	38.28
582.622	38.42
582.961	38.51
583.3	38.65
583.639	38.8
583.977	38.85
584.316	39.02
584.654	39.12
584.993	39.28
585.332	39.37
585.67	39.44
586.008	39.44
586.347	39.5
586.685	39.61
587.024	39.82
587.362	39.9
587.7	40.02
588.038	40.09
588.376	40.18
588.715	40.25
589.053	40.42
589.391	40.54
589.729	40.64
590.067	40.76
590.404	40.87
590.742	40.96
591.08	41.05
591.418	41.08
591.756	41.19
592.093	41.18
592.431	41.27
592.769	41.38
593.106	41.51
593.444	41.54
593.781	41.62
594.119	41.7
594.456	41.71
594.793	41.72
595.131	41.82
595.468	41.88
595.805	41.9
596.143	41.97
596.48	42
596.817	42.09
597.154	42.16
597.491	42.2
597.828	42.22
598.165	42.33
598.502	42.42
598.839	42.54
599.176	42.63
599.512	42.72
599.849	42.77
600.186	42.8
600.523	42.92
600.859	43
601.196	43.06
601.532	43.22
601.869	43.3
602.205	43.33
602.542	43.36
602.878	43.44
603.215	43.49
603.551	43.6
603.887	43.58
604.223	43.62
604.56	43.69
604.896	43.76
605.232	43.72
605.568	43.75
605.904	43.75
606.24	43.86
606.576	43.89
606.912	43.96
607.248	44.02
607.583	44.08
607.919	44.12
608.255	44.17
608.591	44.15
608.926	44.22
609.262	44.26
609.597	44.3
609.933	44.38
610.268	44.46
610.604	44.47
610.939	44.53
611.275	44.55
611.61	44.53
611.945	44.58
612.281	44.67
612.616	44.73
612.951	44.83
613.286	44.8
613.621	44.87
613.956	44.88
614.291	44.98
614.626	45.03
614.961	45.02
615.296	45.05
615.631	45.16
615.966	45.19
616.3	45.37
616.635	45.55
616.97	45.57
617.304	45.62
617.639	45.67
617.973	45.71
618.308	45.87
618.642	45.93
618.977	45.97
619.311	46.1
619.646	46.17
619.98	46.13
620.314	46.18
620.648	46.2
620.983	46.26
621.317	46.31
621.651	46.33
621.985	46.44
622.319	46.52
622.653	46.5
622.987	46.56
623.321	46.54
623.655	46.49
623.988	46.53
624.322	46.46
624.656	46.56
624.99	46.64
625.323	46.61
625.657	46.74
625.99	46.82
626.324	46.83
626.657	46.85
626.991	46.87
627.324	46.86
627.658	46.91
627.991	46.91
628.324	46.94
628.657	46.97
628.991	47.04
629.324	47.03
629.657	47.07
629.99	47.1
630.323	47.15
630.656	47.2
630.989	47.2
631.322	47.25
631.655	47.24
631.987	47.23
632.32	47.22
632.653	47.15
632.986	47.11
633.318	47.08
633.651	47.13
633.984	47.17
634.316	47.23
634.649	47.29
634.981	47.39
635.313	47.38
635.646	47.41
635.978	47.35
636.31	47.41
636.643	47.48
636.975	47.48
637.307	47.45
637.639	47.46
637.971	47.52
638.303	47.53
638.635	47.49
638.967	47.63
639.299	47.78
639.631	47.82
639.963	47.83
640.295	47.87
640.626	47.88
640.958	47.95
641.29	47.88
641.621	47.83
641.953	47.79
642.285	47.92
642.616	47.95
642.948	48.04
643.279	48.11
643.61	48.17
643.942	48.23
644.273	48.27
644.604	48.27
644.936	48.26
645.267	48.38
645.598	48.54
645.929	48.49
646.26	48.46
646.591	48.37
646.922	48.42
647.253	48.49
647.584	48.51
647.915	48.55
648.245	48.67
648.576	48.68
648.907	48.69
649.238	48.56
649.568	48.5
649.899	48.67
650.229	48.67
650.56	48.74
650.89	48.7
651.221	48.73
651.551	48.82
651.882	48.98
652.212	48.99
652.542	48.94
652.872	48.95
653.203	48.91
653.533	49.08
653.863	49.21
654.193	49.21
654.523	49.15
654.853	49.25
655.183	49.3
655.513	49.37
655.843	49.44
656.172	49.55
656.502	49.76
656.832	49.74
657.162	49.76
657.491	49.69
657.821	49.72
658.15	49.73
658.48	49.84
658.809	49.72
659.139	49.69
659.468	49.71
659.798	49.76
660.127	49.79
660.456	49.79
660.785	49.81
661.115	49.83
661.444	49.85
661.773	49.8
662.102	49.79
662.431	49.78
662.76	49.91
663.089	49.9
663.418	49.88
663.747	49.69
664.076	49.68
664.404	49.69
664.733	49.74
665.062	49.76
665.39	49.61
665.719	49.67
666.048	49.74
666.376	49.79
666.705	49.66
667.033	49.77
667.362	49.72
