Data from BA56852_Reflection_00002.txt Node
Date: Mon Nov 18 15:22:24 EST 2019
User: vgr7
Spectrometer: USB2G7710
Scans to average: 3
Trigger mode: 4
Integration Time (sec): 2.000000E-2
Electric dark correction enabled: true
Boxcar width: 10
XAxis mode: Wavelengths
Number of Pixels in Spectrum: 2048
>>>>>Begin Spectral Data<<<<<
177.721	94.06
178.105	35.48
178.488	-65.75
178.871	-81.06
179.254	-87.39
179.636	48.77
180.019	161.61
180.402	116.13
180.785	390.64
181.168	122.36
181.55	169.14
181.933	109.42
182.316	102.19
182.698	127.44
183.081	104.16
183.463	112.76
183.846	94.88
184.228	107.27
184.611	112.33
184.993	92.65
185.376	87.21
185.758	111.55
186.14	135.76
186.522	149.98
186.904	135.23
187.287	146.47
187.669	118.92
188.051	107.25
188.433	103.32
188.815	119.29
189.197	115.86
189.579	83.69
189.961	106.67
190.342	109.17
190.724	157.98
191.106	173.49
191.488	91.46
191.869	155.89
192.251	179.17
192.633	180.44
193.014	257.68
193.396	271
193.777	103.21
194.159	136.77
194.54	117.29
194.922	-4268.42
195.303	-1266.97
195.684	-297.26
196.065	-137.46
196.447	-126.32
196.828	-118.05
197.209	-56.63
197.59	-154.94
197.971	-104.36
198.352	-139.82
198.733	-97.52
199.114	-51.65
199.495	-66.6
199.876	-35.66
200.257	-48.64
200.638	-31.79
201.018	-36.56
201.399	-41.22
201.78	-41.59
202.16	-49.76
202.541	-82.3
202.922	-103.13
203.302	-126.9
203.683	-152.41
204.063	-236.35
204.444	-164.25
204.824	-138.77
205.204	-138.9
205.585	-81.98
205.965	-57.5
206.345	-67.03
206.725	-130.28
207.106	-239.75
207.486	-185.42
207.866	-207.1
208.246	-202.29
208.626	-266.27
209.006	-147.81
209.386	-480.2
209.766	-573.59
210.145	256.41
210.525	510.4
210.905	830.34
211.285	-40.89
211.664	-12.16
212.044	32.58
212.424	-15.95
212.803	-46.26
213.183	-26.74
213.562	-58.49
213.942	-230.6
214.321	-100
214.701	-116.05
215.08	-138.71
215.459	-145.28
215.838	-258.63
216.218	-270.94
216.597	-108.63
216.976	-116.41
217.355	-73.12
217.734	-68.8
218.113	-56.52
218.492	-61.14
218.871	-71.6
219.25	-49.47
219.629	-51.24
220.008	-75.58
220.387	-56.08
220.766	-70.98
221.144	-123.13
221.523	-104.98
221.902	-78.77
222.28	-88.74
222.659	-84.43
223.037	-63.67
223.416	-79.26
223.794	-73.6
224.173	-86.13
224.551	-76
224.929	-70.8
225.308	-59.64
225.686	-61.51
226.064	-56.65
226.442	-45.79
226.821	-36.96
227.199	-32.69
227.577	-35.49
227.955	-32.79
228.333	-31.07
228.711	-22.27
229.089	-13.02
229.467	-10.1
229.845	-10.17
230.222	-6.91
230.6	-7.52
230.978	-7.92
231.356	-3.57
231.733	-1.55
232.111	1.63
232.488	0.43
232.866	2.68
233.243	1
233.621	1.78
233.998	4.8
234.376	3.54
234.753	3.46
235.13	4.09
235.508	4.22
235.885	4.4
236.262	4.15
236.639	2.92
237.016	4.28
237.393	4.11
237.77	5.31
238.147	4.61
238.524	6.63
238.901	6.69
239.278	6.58
239.655	7.26
240.032	7.11
240.409	6.84
240.785	6.33
241.162	6.24
241.539	6.67
241.915	6.5
242.292	6.04
242.668	5.84
243.045	5.55
243.421	5.93
243.798	5.89
244.174	5.9
244.551	5.87
244.927	5.23
245.303	5.23
245.679	4.96
246.056	5.13
246.432	4.95
246.808	5.26
247.184	4.94
247.56	4.51
247.936	4.47
248.312	4.46
248.688	4.34
249.064	4.36
249.44	4.25
249.815	4.15
250.191	4.25
250.567	4.28
250.943	4.03
251.318	3.96
251.694	4.05
252.069	3.98
252.445	4.03
252.82	4.01
253.196	3.87
253.571	3.95
253.947	3.72
254.322	3.72
254.697	3.29
255.073	3.21
255.448	3.29
255.823	3.31
256.198	3.47
256.573	3.62
256.948	3.82
257.323	3.9
257.698	4.05
258.073	4.09
258.448	4.11
258.823	4.04
259.198	4.03
259.573	3.81
259.948	3.8
260.322	3.79
260.697	3.82
261.072	3.7
261.446	3.59
261.821	3.6
262.195	3.66
262.57	3.49
262.944	3.67
263.319	3.78
263.693	3.82
264.067	3.79
264.442	3.73
264.816	3.7
265.19	3.43
265.564	3.4
265.938	3.59
266.313	3.49
266.687	3.73
267.061	3.71
267.435	3.96
267.809	3.94
268.183	3.84
268.556	3.85
268.93	3.97
269.304	4.18
269.678	4.18
270.051	4.18
270.425	4.33
270.799	4.22
271.172	4.13
271.546	3.88
271.919	3.92
272.293	3.82
272.666	3.8
273.04	4.06
273.413	3.96
273.787	3.79
274.16	3.7
274.533	3.65
274.906	3.66
275.279	3.55
275.653	3.58
276.026	3.64
276.399	3.68
276.772	3.85
277.145	3.57
277.518	3.61
277.891	3.42
278.263	3.44
278.636	3.43
279.009	3.53
279.382	3.76
279.755	3.63
280.127	3.74
280.5	3.81
280.872	3.83
281.245	3.86
281.617	4.04
281.99	4.14
282.362	4.25
282.735	4.16
283.107	4.14
283.479	4.18
283.852	4.22
284.224	4.23
284.596	4.23
284.968	4.43
285.34	4.48
285.713	4.47
286.085	4.46
286.457	4.58
286.829	4.56
287.201	4.46
287.572	4.48
287.944	4.52
288.316	4.48
288.688	4.47
289.06	4.55
289.431	4.47
289.803	4.58
290.175	4.45
290.546	4.54
290.918	4.67
291.289	4.68
291.661	4.59
292.032	4.58
292.403	4.55
292.775	4.62
293.146	4.57
293.517	4.61
293.889	4.66
294.26	4.71
294.631	4.82
295.002	4.83
295.373	4.89
295.744	4.88
296.115	4.97
296.486	4.76
296.857	4.73
297.228	4.78
297.599	4.68
297.97	4.69
298.34	4.79
298.711	4.86
299.082	4.74
299.452	4.85
299.823	4.99
300.194	4.89
300.564	4.78
300.935	4.94
301.305	5
301.676	5.08
302.046	5.02
302.416	5.03
302.787	5.16
303.157	5.2
303.527	5.24
303.897	5.24
304.267	5.39
304.637	5.27
305.008	5.23
305.378	5.34
305.748	5.47
306.117	5.42
306.487	5.3
306.857	5.39
307.227	5.41
307.597	5.3
307.967	5.35
308.336	5.35
308.706	5.24
309.076	5.3
309.445	5.17
309.815	5.25
310.184	5.17
310.554	5.15
310.923	5.2
311.293	5.09
311.662	5.13
312.031	5.19
312.401	5.19
312.77	5.22
313.139	5.25
313.508	5.14
313.877	5.13
314.246	5.18
314.616	5.3
314.985	5.32
315.353	5.28
315.722	5.32
316.091	5.34
316.46	5.42
316.829	5.43
317.198	5.6
317.567	5.64
317.935	5.56
318.304	5.54
318.672	5.41
319.041	5.55
319.41	5.37
319.778	5.32
320.147	5.35
320.515	5.3
320.883	5.21
321.252	5.25
321.62	5.29
321.988	5.19
322.357	5.08
322.725	5.05
323.093	5.06
323.461	5.14
323.829	5.12
324.197	5.03
324.565	5.14
324.933	4.97
325.301	4.82
325.669	4.88
326.037	4.92
326.405	5
326.772	4.91
327.14	4.97
327.508	5.03
327.875	5.06
328.243	5.15
328.61	5.11
328.978	5.15
329.346	4.97
329.713	4.99
330.08	5.01
330.448	4.91
330.815	4.8
331.182	4.69
331.55	4.69
331.917	4.75
332.284	4.61
332.651	4.73
333.018	4.75
333.385	4.75
333.752	4.84
334.119	4.78
334.486	4.83
334.853	4.81
335.22	4.8
335.587	4.8
335.954	4.76
336.32	4.83
336.687	4.88
337.054	4.99
337.42	4.99
337.787	5.04
338.153	5.01
338.52	5.18
338.886	5.17
339.253	5.11
339.619	5.03
339.986	5.06
340.352	5.05
340.718	5.07
341.084	5.01
341.451	5.03
341.817	5.11
342.183	5.16
342.549	5.12
342.915	5.04
343.281	4.94
343.647	4.88
344.013	4.93
344.379	4.91
344.745	4.96
345.11	5.06
345.476	4.98
345.842	5.08
346.208	5.04
346.573	5.15
346.939	5.32
347.304	5.3
347.67	5.19
348.035	5.15
348.401	5.12
348.766	5.2
349.132	5.13
349.497	5.05
349.862	5.1
350.228	5.18
350.593	5.14
350.958	5.25
351.323	5.31
351.688	5.19
352.053	5.18
352.418	5.2
352.783	5.15
353.148	5.13
353.513	5.12
353.878	5.14
354.243	5.13
354.608	5.09
354.972	5.11
355.337	5.21
355.702	5.14
356.066	5.23
356.431	5.21
356.795	5.2
357.16	5.25
357.524	5.14
357.889	5.09
358.253	5.22
358.618	5.2
358.982	5.15
359.346	5.14
359.71	5.14
360.075	5.13
360.439	5.13
360.803	5.16
361.167	5.12
361.531	5.13
361.895	5.05
362.259	5.06
362.623	5.06
362.987	4.99
363.351	5.06
363.714	5.09
364.078	5.06
364.442	5.03
364.806	5
365.169	5.06
365.533	5.06
365.896	5.01
366.26	5.01
366.623	5.04
366.987	5.08
367.35	5.07
367.714	5.03
368.077	5.01
368.44	5.02
368.803	5.02
369.167	4.98
369.53	4.97
369.893	4.98
370.256	4.95
370.619	5.03
370.982	4.98
371.345	4.88
371.708	4.92
372.071	4.91
372.434	4.85
372.797	4.85
373.159	4.89
373.522	4.88
373.885	4.92
374.247	4.88
374.61	4.88
374.973	4.86
375.335	4.86
375.698	4.88
376.06	4.88
376.423	4.92
376.785	4.95
377.147	5.04
377.51	4.97
377.872	5.06
378.234	5.02
378.596	5.08
378.958	5.1
379.321	5.1
379.683	5.13
380.045	5.2
380.407	5.16
380.769	5.13
381.13	5.13
381.492	5.1
381.854	5.11
382.216	5.12
382.578	5.14
382.939	5.12
383.301	5.14
383.663	5.14
384.024	5.11
384.386	5.11
384.747	5.06
385.109	5.09
385.47	5.04
385.832	5.01
386.193	4.99
386.554	4.99
386.916	4.99
387.277	5.02
387.638	5.04
387.999	5.06
388.36	5.08
388.721	5.09
389.082	5.1
389.443	5.07
389.804	5.05
390.165	5.03
390.526	5.04
390.887	5
391.248	4.99
391.609	5.01
391.969	4.99
392.33	5
392.691	4.98
393.051	4.98
393.412	5.02
393.772	5.01
394.133	5.04
394.493	5.01
394.854	4.98
395.214	4.99
395.574	4.98
395.935	4.95
396.295	4.98
396.655	4.98
397.015	5.01
397.376	5.02
397.736	4.98
398.096	5
398.456	5.03
398.816	5.04
399.176	5.03
399.535	5.02
399.895	4.99
400.255	5
400.615	5
400.975	4.95
401.334	4.9
401.694	4.88
402.054	4.87
402.413	4.89
402.773	4.84
403.132	4.82
403.492	4.83
403.851	4.84
404.211	4.83
404.57	4.79
404.929	4.79
405.288	4.8
405.648	4.82
406.007	4.79
406.366	4.78
406.725	4.77
407.084	4.78
407.443	4.77
407.802	4.79
408.161	4.8
408.52	4.82
408.879	4.84
409.238	4.83
409.596	4.83
409.955	4.82
410.314	4.83
410.673	4.8
411.031	4.76
411.39	4.73
411.748	4.75
412.107	4.78
412.465	4.78
412.824	4.8
413.182	4.76
413.54	4.77
413.899	4.79
414.257	4.81
414.615	4.81
414.974	4.8
415.332	4.78
415.69	4.73
416.048	4.74
416.406	4.75
416.764	4.76
417.122	4.79
417.48	4.77
417.838	4.77
418.195	4.79
418.553	4.82
418.911	4.82
419.269	4.82
419.626	4.8
419.984	4.79
420.342	4.79
420.699	4.79
421.057	4.79
421.414	4.76
421.772	4.74
422.129	4.74
422.486	4.75
422.844	4.74
423.201	4.76
423.558	4.75
423.915	4.75
424.273	4.75
424.63	4.73
424.987	4.74
425.344	4.73
425.701	4.74
426.058	4.72
426.415	4.72
426.772	4.71
427.128	4.7
427.485	4.71
427.842	4.68
428.199	4.67
428.555	4.67
428.912	4.69
429.269	4.71
429.625	4.71
429.982	4.69
430.338	4.7
430.695	4.69
431.051	4.67
431.407	4.68
431.764	4.68
432.12	4.67
432.476	4.67
432.832	4.67
433.189	4.67
433.545	4.67
433.901	4.66
434.257	4.65
434.613	4.67
434.969	4.67
435.325	4.68
435.681	4.69
436.036	4.69
436.392	4.69
436.748	4.66
437.104	4.65
437.459	4.64
437.815	4.63
438.171	4.63
438.526	4.65
438.882	4.65
439.237	4.65
439.593	4.66
439.948	4.64
440.304	4.65
440.659	4.65
441.014	4.67
441.369	4.66
441.725	4.65
442.08	4.66
442.435	4.66
442.79	4.65
443.145	4.65
443.5	4.66
443.855	4.66
444.21	4.67
444.565	4.68
444.92	4.71
445.275	4.7
445.629	4.7
445.984	4.69
446.339	4.66
446.693	4.67
447.048	4.66
447.403	4.67
447.757	4.65
448.112	4.64
448.466	4.63
448.82	4.62
449.175	4.63
449.529	4.63
449.883	4.63
450.238	4.64
450.592	4.64
450.946	4.63
451.3	4.64
451.654	4.62
452.008	4.62
452.362	4.57
452.716	4.59
453.07	4.6
453.424	4.61
453.778	4.64
454.132	4.62
454.486	4.61
454.839	4.6
455.193	4.61
455.547	4.6
455.9	4.62
456.254	4.63
456.607	4.63
456.961	4.62
457.314	4.6
457.668	4.58
458.021	4.57
458.375	4.58
458.728	4.58
459.081	4.59
459.434	4.59
459.787	4.62
460.141	4.62
460.494	4.59
460.847	4.61
461.2	4.6
461.553	4.61
461.906	4.61
462.259	4.63
462.611	4.64
462.964	4.64
463.317	4.62
463.67	4.62
464.022	4.62
464.375	4.6
464.728	4.63
465.08	4.65
465.433	4.66
465.785	4.64
466.138	4.63
466.49	4.64
466.843	4.63
467.195	4.63
467.547	4.63
467.899	4.64
468.252	4.61
468.604	4.62
468.956	4.6
469.308	4.6
469.66	4.58
470.012	4.56
470.364	4.58
470.716	4.58
471.068	4.58
471.42	4.59
471.772	4.62
472.123	4.61
472.475	4.61
472.827	4.63
473.178	4.63
473.53	4.63
473.882	4.61
474.233	4.65
474.585	4.63
474.936	4.61
475.288	4.62
475.639	4.65
475.99	4.64
476.342	4.64
476.693	4.63
477.044	4.66
477.395	4.67
477.746	4.66
478.097	4.66
478.448	4.65
478.8	4.64
479.15	4.62
479.501	4.63
479.852	4.64
480.203	4.63
480.554	4.65
480.905	4.65
481.255	4.67
481.606	4.67
481.957	4.69
482.307	4.71
482.658	4.71
483.009	4.71
483.359	4.72
483.709	4.73
484.06	4.74
484.41	4.73
484.761	4.72
485.111	4.74
485.461	4.73
485.811	4.74
486.162	4.75
486.512	4.76
486.862	4.76
487.212	4.76
487.562	4.77
487.912	4.77
488.262	4.78
488.612	4.77
488.961	4.77
489.311	4.76
489.661	4.77
490.011	4.77
490.36	4.77
490.71	4.76
491.06	4.77
491.409	4.77
491.759	4.77
492.108	4.78
492.458	4.76
492.807	4.76
493.157	4.76
493.506	4.77
493.855	4.75
494.204	4.74
494.554	4.73
494.903	4.73
495.252	4.74
495.601	4.74
495.95	4.73
496.299	4.72
496.648	4.73
496.997	4.72
497.346	4.74
497.695	4.73
498.043	4.74
498.392	4.71
498.741	4.74
499.09	4.73
499.438	4.74
499.787	4.74
500.135	4.76
500.484	4.75
500.832	4.75
501.181	4.75
501.529	4.78
501.878	4.8
502.226	4.82
502.574	4.82
502.923	4.81
503.271	4.83
503.619	4.85
503.967	4.84
504.315	4.82
504.663	4.82
505.011	4.84
505.359	4.84
505.707	4.87
506.055	4.85
506.403	4.88
506.751	4.87
507.098	4.88
507.446	4.88
507.794	4.89
508.141	4.92
508.489	4.95
508.837	4.95
509.184	4.94
509.531	4.92
509.879	4.92
510.226	4.96
510.574	4.98
510.921	4.97
511.268	4.98
511.616	5.01
511.963	5.01
512.31	5
512.657	5.01
513.004	5.02
513.351	5.04
513.698	5.04
514.045	5.05
514.392	5.06
514.739	5.06
515.086	5.07
515.432	5.05
515.779	5.04
516.126	5.05
516.473	5.08
516.819	5.08
517.166	5.08
517.512	5.07
517.859	5.07
518.205	5.1
518.552	5.11
518.898	5.11
519.245	5.1
519.591	5.1
519.937	5.07
520.283	5.07
520.629	5.07
520.976	5.08
521.322	5.09
521.668	5.1
522.014	5.13
522.36	5.13
522.706	5.14
523.052	5.17
523.398	5.18
523.743	5.16
524.089	5.18
524.435	5.2
524.781	5.19
525.126	5.21
525.472	5.2
525.817	5.19
526.163	5.18
526.509	5.2
526.854	5.2
527.199	5.23
527.545	5.23
527.89	5.23
528.235	5.23
528.581	5.24
528.926	5.25
529.271	5.23
529.616	5.24
529.961	5.23
530.306	5.23
530.651	5.21
530.996	5.24
531.341	5.22
531.686	5.22
532.031	5.22
532.376	5.2
532.721	5.21
533.065	5.21
533.41	5.22
533.755	5.23
534.099	5.24
534.444	5.23
534.788	5.25
535.133	5.23
535.477	5.24
535.822	5.23
536.166	5.23
536.51	5.25
536.855	5.25
537.199	5.25
537.543	5.25
537.887	5.27
538.231	5.26
538.576	5.26
538.92	5.27
539.264	5.28
539.608	5.29
539.951	5.27
540.295	5.27
540.639	5.28
540.983	5.27
541.327	5.27
541.671	5.27
542.014	5.26
542.358	5.26
542.701	5.27
543.045	5.26
543.389	5.26
543.732	5.24
544.075	5.22
544.419	5.23
544.762	5.22
545.105	5.2
545.449	5.2
545.792	5.21
546.135	5.23
546.478	5.23
546.821	5.22
547.165	5.24
547.508	5.25
547.851	5.26
548.194	5.25
548.536	5.22
548.879	5.23
549.222	5.24
549.565	5.26
549.908	5.27
550.25	5.29
550.593	5.29
550.936	5.31
551.278	5.35
551.621	5.38
551.963	5.41
552.306	5.41
552.648	5.39
552.991	5.41
553.333	5.37
553.675	5.35
554.017	5.35
554.36	5.35
554.702	5.36
555.044	5.33
555.386	5.35
555.728	5.4
556.07	5.41
556.412	5.36
556.754	5.39
557.096	5.35
557.438	5.32
557.78	5.34
558.121	5.35
558.463	5.32
558.805	5.29
559.147	5.28
559.488	5.3
559.83	5.32
560.171	5.31
560.513	5.32
560.854	5.31
561.196	5.33
561.537	5.34
561.878	5.33
562.22	5.34
562.561	5.3
562.902	5.3
563.243	5.29
563.584	5.33
563.925	5.3
564.266	5.31
564.607	5.32
564.948	5.35
565.289	5.32
565.63	5.33
565.971	5.31
566.312	5.3
566.653	5.29
566.993	5.27
567.334	5.27
567.675	5.27
568.015	5.29
568.356	5.27
568.696	5.27
569.037	5.25
569.377	5.26
569.718	5.26
570.058	5.22
570.398	5.24
570.739	5.25
571.079	5.25
571.419	5.24
571.759	5.25
572.099	5.22
572.439	5.25
572.779	5.24
573.119	5.26
573.459	5.27
573.799	5.28
574.139	5.3
574.479	5.31
574.819	5.3
575.158	5.31
575.498	5.3
575.838	5.29
576.177	5.31
576.517	5.31
576.856	5.34
577.196	5.37
577.535	5.37
577.875	5.35
578.214	5.36
578.553	5.38
578.893	5.36
579.232	5.37
579.571	5.36
579.91	5.36
580.25	5.36
580.589	5.36
580.928	5.42
581.267	5.39
581.606	5.38
581.945	5.39
582.283	5.36
582.622	5.38
582.961	5.41
583.3	5.4
583.639	5.41
583.977	5.39
584.316	5.38
584.654	5.38
584.993	5.42
585.332	5.41
585.67	5.38
586.008	5.41
586.347	5.37
586.685	5.36
587.024	5.37
587.362	5.4
587.7	5.39
588.038	5.39
588.376	5.37
588.715	5.38
589.053	5.4
589.391	5.45
589.729	5.47
590.067	5.43
590.404	5.45
590.742	5.46
591.08	5.43
591.418	5.45
591.756	5.51
592.093	5.49
592.431	5.5
592.769	5.47
593.106	5.47
593.444	5.46
593.781	5.47
594.119	5.5
594.456	5.46
594.793	5.49
595.131	5.45
595.468	5.49
595.805	5.48
596.143	5.48
596.48	5.48
596.817	5.46
597.154	5.5
597.491	5.48
597.828	5.47
598.165	5.49
598.502	5.47
598.839	5.44
599.176	5.46
599.512	5.46
599.849	5.51
600.186	5.52
600.523	5.57
600.859	5.59
601.196	5.57
601.532	5.57
601.869	5.52
602.205	5.55
602.542	5.53
602.878	5.53
603.215	5.52
603.551	5.53
603.887	5.54
604.223	5.51
604.56	5.54
604.896	5.57
605.232	5.57
605.568	5.58
605.904	5.56
606.24	5.56
606.576	5.59
606.912	5.58
607.248	5.56
607.583	5.55
607.919	5.54
608.255	5.53
608.591	5.56
608.926	5.59
609.262	5.61
609.597	5.64
609.933	5.65
610.268	5.65
610.604	5.63
610.939	5.62
611.275	5.68
611.61	5.65
611.945	5.65
612.281	5.63
612.616	5.65
612.951	5.67
613.286	5.67
613.621	5.63
613.956	5.64
614.291	5.7
614.626	5.67
614.961	5.65
615.296	5.64
615.631	5.61
615.966	5.61
616.3	5.53
616.635	5.52
616.97	5.51
617.304	5.49
617.639	5.49
617.973	5.47
618.308	5.46
618.642	5.45
618.977	5.41
619.311	5.42
619.646	5.45
619.98	5.43
620.314	5.45
620.648	5.47
620.983	5.49
621.317	5.45
621.651	5.49
621.985	5.54
622.319	5.53
622.653	5.56
622.987	5.56
623.321	5.58
623.655	5.56
623.988	5.59
624.322	5.58
624.656	5.61
624.99	5.62
625.323	5.62
625.657	5.67
625.99	5.72
626.324	5.74
626.657	5.71
626.991	5.72
627.324	5.71
627.658	5.72
627.991	5.73
628.324	5.74
628.657	5.75
628.991	5.75
629.324	5.74
629.657	5.76
629.99	5.79
630.323	5.78
630.656	5.77
630.989	5.78
631.322	5.79
631.655	5.74
631.987	5.72
632.32	5.68
632.653	5.61
632.986	5.54
633.318	5.52
633.651	5.51
633.984	5.48
634.316	5.4
634.649	5.44
634.981	5.43
635.313	5.39
635.646	5.35
635.978	5.36
636.31	5.42
636.643	5.36
636.975	5.34
637.307	5.38
637.639	5.39
637.971	5.39
638.303	5.43
638.635	5.42
638.967	5.47
639.299	5.58
639.631	5.63
639.963	5.65
640.295	5.66
640.626	5.68
640.958	5.75
641.29	5.82
641.621	5.76
641.953	5.71
642.285	5.77
642.616	5.83
642.948	5.82
643.279	5.73
643.61	5.83
643.942	5.82
644.273	5.85
644.604	5.84
644.936	5.85
645.267	5.85
645.598	5.87
645.929	5.89
646.26	5.83
646.591	5.85
646.922	5.82
647.253	5.77
647.584	5.74
647.915	5.67
648.245	5.62
648.576	5.66
648.907	5.71
649.238	5.63
649.568	5.61
649.899	5.59
650.229	5.67
650.56	5.65
650.89	5.62
651.221	5.57
651.551	5.56
651.882	5.56
652.212	5.57
652.542	5.56
652.872	5.55
653.203	5.49
653.533	5.48
653.863	5.58
654.193	5.63
654.523	5.68
654.853	5.69
655.183	5.75
655.513	5.68
655.843	5.7
656.172	5.77
656.502	5.82
656.832	5.88
657.162	5.9
657.491	5.85
657.821	5.9
658.15	5.91
658.48	5.94
658.809	5.91
659.139	5.91
659.468	5.89
659.798	5.91
660.127	5.94
660.456	5.99
660.785	5.94
661.115	5.92
661.444	5.94
661.773	5.97
662.102	5.95
662.431	6.04
662.76	6.01
663.089	6
663.418	5.91
663.747	5.79
664.076	5.75
664.404	5.77
664.733	5.8
665.062	5.78
665.39	5.81
665.719	5.8
666.048	5.81
666.376	5.85
666.705	5.81
667.033	5.71
667.362	5.68
667.69	5.7
668.018	5.67
668.347	5.63
668.675	5.67
669.003	5.76
669.331	5.72
669.659	5.67
669.987	5.65
670.315	5.67
670.643	5.69
670.971	5.69
671.299	5.73
671.627	5.68
671.955	5.63
672.283	5.63
672.61	5.6
672.938	5.6
673.266	5.64
673.593	5.76
673.921	5.88
674.249	5.87
674.576	5.92
674.904	5.95
675.231	5.92
675.558	5.86
675.886	5.74
676.213	5.77
