Data from BA56832_Reflection_00007.txt Node
Date: Mon Nov 18 16:09:53 EST 2019
User: vgr7
Spectrometer: USB2G7710
Scans to average: 3
Trigger mode: 4
Integration Time (sec): 2.000000E-2
Electric dark correction enabled: true
Boxcar width: 10
XAxis mode: Wavelengths
Number of Pixels in Spectrum: 2048
>>>>>Begin Spectral Data<<<<<
177.721	61.97
178.105	45.83
178.488	11.87
178.871	3.34
179.254	-94.07
179.636	-228.24
180.019	-3.72
180.402	307.69
180.785	-1003.09
181.168	-153.42
181.55	31.28
181.933	89.34
182.316	181.59
182.698	236.94
183.081	153.04
183.463	181.49
183.846	226.08
184.228	184.62
184.611	246.57
184.993	235.56
185.376	242.22
185.758	273.62
186.14	266.85
186.522	409.02
186.904	4163.83
187.287	2523.73
187.669	-1058.27
188.051	-352.54
188.433	-315.47
188.815	-322.04
189.197	-302.69
189.579	-154.02
189.961	-112.45
190.342	-106.37
190.724	-73.39
191.106	-53.09
191.488	-27.74
191.869	7.4
192.251	1.2
192.633	-24.79
193.014	-5.38
193.396	-71.46
193.777	-116.34
194.159	-342.7
194.54	-131.79
194.922	-91.93
195.303	-87.17
195.684	-99.25
196.065	-41.56
196.447	-43.43
196.828	-73.77
197.209	-73.02
197.59	-66.99
197.971	-113.92
198.352	-130.05
198.733	-195.75
199.114	-142.34
199.495	-125.97
199.876	-215.34
200.257	-163.3
200.638	-90.89
201.018	-81.05
201.399	-58.37
201.78	-66.05
202.16	-54.99
202.541	-92.29
202.922	-176.82
203.302	-213.34
203.683	-164.6
204.063	-210.98
204.444	-218.72
204.824	-112.97
205.204	-100
205.585	-98.94
205.965	-66.99
206.345	-87.88
206.725	-76.66
207.106	-158.67
207.486	-354.72
207.866	-293.82
208.246	-431.62
208.626	7720.69
209.006	-1769.57
209.386	-567.53
209.766	-247.42
210.145	-206.58
210.525	-119.23
210.905	-84.7
211.285	-43.04
211.664	-29.31
212.044	-11.67
212.424	-29.44
212.803	-65.11
213.183	-70.38
213.562	-53.93
213.942	-41.49
214.321	-22.58
214.701	-32.36
215.08	-26.02
215.459	-1.94
215.838	-4.83
216.218	-27.93
216.597	-21.48
216.976	-24.06
217.355	-17.78
217.734	-20.59
218.113	-5.8
218.492	-6.4
218.871	-7.21
219.25	-16.62
219.629	-24.24
220.008	-40.36
220.387	-45.53
220.766	-55.79
221.144	-88.34
221.523	-131.38
221.902	-119.19
222.28	-80.96
222.659	-64.05
223.037	-44.49
223.416	-34.98
223.794	-35.85
224.173	-21.45
224.551	-24.07
224.929	-27.66
225.308	-32.55
225.686	-22.96
226.064	-22.25
226.442	-14.64
226.821	-8.34
227.199	-4.92
227.577	-7.59
227.955	-4.01
228.333	0.67
228.711	4.24
229.089	8.97
229.467	9.63
229.845	5.08
230.222	4.93
230.6	3.52
230.978	3.17
231.356	1.34
231.733	0.68
232.111	0.8
232.488	2.93
232.866	3.73
233.243	5.23
233.621	3.79
233.998	4.19
234.376	3.08
234.753	2.24
235.13	1.02
235.508	3.52
235.885	2.05
236.262	0.16
236.639	-0.7
237.016	-0.54
237.393	-0.18
237.77	1.1
238.147	1.19
238.524	1.48
238.901	1.87
239.278	2.73
239.655	3.94
240.032	3.7
240.409	3.4
240.785	3.41
241.162	3.09
241.539	3.2
241.915	3.6
242.292	3.26
242.668	3.68
243.045	3.86
243.421	3.5
243.798	3.66
244.174	3.8
244.551	3.76
244.927	3.92
245.303	3.93
245.679	3.64
246.056	3.71
246.432	3.72
246.808	3.87
247.184	3.49
247.56	3.16
247.936	3.06
248.312	2.97
248.688	2.99
249.064	3.03
249.44	3.02
249.815	2.94
250.191	3.11
250.567	3
250.943	2.93
251.318	2.99
251.694	2.73
252.069	2.7
252.445	2.9
252.82	2.76
253.196	2.84
253.571	2.91
253.947	2.94
254.322	2.91
254.697	2.53
255.073	2.3
255.448	2.33
255.823	2.56
256.198	2.68
256.573	2.75
256.948	2.68
257.323	2.98
257.698	2.93
258.073	2.95
258.448	2.97
258.823	2.94
259.198	2.91
259.573	3.03
259.948	3.02
260.322	2.99
260.697	2.98
261.072	2.94
261.446	3.06
261.821	2.93
262.195	2.98
262.57	2.97
262.944	3.09
263.319	2.96
263.693	2.93
264.067	2.95
264.442	2.94
264.816	2.83
265.19	2.59
265.564	2.58
265.938	2.48
266.313	2.24
266.687	2.24
267.061	2.23
267.435	2.25
267.809	2.29
268.183	2.17
268.556	2.13
268.93	2.2
269.304	2.24
269.678	2.38
270.051	2.34
270.425	2.38
270.799	2.41
271.172	2.62
271.546	2.62
271.919	2.61
272.293	2.59
272.666	2.79
273.04	2.82
273.413	2.71
273.787	2.79
274.16	2.95
274.533	2.93
274.906	2.84
275.279	2.86
275.653	2.97
276.026	2.98
276.399	2.94
276.772	2.88
277.145	2.72
277.518	2.59
277.891	2.67
278.263	2.7
278.636	2.75
279.009	2.69
279.382	2.73
279.755	2.55
280.127	2.67
280.5	2.66
280.872	2.74
281.245	2.73
281.617	2.83
281.99	2.83
282.362	2.91
282.735	2.88
283.107	2.8
283.479	2.76
283.852	2.72
284.224	2.75
284.596	2.75
284.968	2.71
285.34	2.72
285.713	2.72
286.085	2.75
286.457	2.87
286.829	2.91
287.201	3.07
287.572	3.25
287.944	3.07
288.316	3.09
288.688	3.1
289.06	3.17
289.431	3.04
289.803	3.07
290.175	3.11
290.546	3.32
290.918	3.37
291.289	3.32
291.661	3.4
292.032	3.48
292.403	3.57
292.775	3.79
293.146	3.85
293.517	3.74
293.889	3.81
294.26	3.76
294.631	3.78
295.002	3.56
295.373	3.39
295.744	3.52
296.115	3.44
296.486	3.44
296.857	3.39
297.228	3.54
297.599	3.5
297.97	3.44
298.34	3.35
298.711	3.5
299.082	3.62
299.452	3.76
299.823	3.76
300.194	3.77
300.564	3.54
300.935	3.62
301.305	3.75
301.676	3.81
302.046	3.93
302.416	4.01
302.787	4.12
303.157	4.34
303.527	4.35
303.897	4.5
304.267	4.59
304.637	4.62
305.008	4.7
305.378	4.86
305.748	4.95
306.117	5.09
306.487	5.08
306.857	4.99
307.227	4.86
307.597	4.81
307.967	4.77
308.336	5.01
308.706	4.94
309.076	5.03
309.445	5.07
309.815	4.99
310.184	4.85
310.554	4.85
310.923	4.75
311.293	4.85
311.662	4.84
312.031	4.84
312.401	4.93
312.77	4.95
313.139	4.84
313.508	4.9
313.877	4.76
314.246	4.75
314.616	4.76
314.985	4.84
315.353	4.84
315.722	4.85
316.091	4.74
316.46	4.69
316.829	4.64
317.198	4.6
317.567	4.57
317.935	4.68
318.304	4.82
318.672	4.82
319.041	4.84
319.41	4.8
319.778	4.79
320.147	4.99
320.515	4.82
320.883	4.95
321.252	5.02
321.62	5.16
321.988	5.2
322.357	5.33
322.725	5.27
323.093	5.41
323.461	5.45
323.829	5.66
324.197	5.82
324.565	5.88
324.933	5.85
325.301	5.85
325.669	6
326.037	6
326.405	6.18
326.772	6.18
327.14	6.38
327.508	6.51
327.875	6.39
328.243	6.65
328.61	6.64
328.978	6.61
329.346	6.75
329.713	6.68
330.08	6.69
330.448	6.75
330.815	6.74
331.182	6.82
331.55	6.74
331.917	6.77
332.284	6.87
332.651	6.79
333.018	6.88
333.385	6.78
333.752	6.78
334.119	6.69
334.486	6.78
334.853	6.78
335.22	6.64
335.587	6.77
335.954	6.64
336.32	6.69
336.687	6.69
337.054	6.67
337.42	6.8
337.787	6.9
338.153	7.06
338.52	7.1
338.886	7.07
339.253	7.09
339.619	7.17
339.986	7.15
340.352	7.35
340.718	7.43
341.084	7.48
341.451	7.63
341.817	7.82
342.183	7.79
342.549	7.73
342.915	7.89
343.281	7.92
343.647	7.98
344.013	7.94
344.379	7.93
344.745	7.9
345.11	7.98
345.476	7.98
345.842	7.88
346.208	8.03
346.573	8.13
346.939	8.22
347.304	8.1
347.67	8.06
348.035	8
348.401	7.96
348.766	7.99
349.132	7.97
349.497	7.82
349.862	7.81
350.228	7.85
350.593	7.69
350.958	7.65
351.323	7.69
351.688	7.79
352.053	7.88
352.418	7.9
352.783	7.87
353.148	7.75
353.513	7.84
353.878	7.75
354.243	7.81
354.608	7.81
354.972	7.9
355.337	7.94
355.702	8.05
356.066	8.03
356.431	8.02
356.795	8
357.16	8.04
357.524	8
357.889	7.92
358.253	7.97
358.618	7.98
358.982	7.89
359.346	7.75
359.71	7.65
360.075	7.61
360.439	7.59
360.803	7.67
361.167	7.64
361.531	7.58
361.895	7.47
362.259	7.44
362.623	7.39
362.987	7.41
363.351	7.34
363.714	7.4
364.078	7.4
364.442	7.35
364.806	7.35
365.169	7.37
365.533	7.39
365.896	7.37
366.26	7.31
366.623	7.31
366.987	7.43
367.35	7.48
367.714	7.48
368.077	7.42
368.44	7.29
368.803	7.24
369.167	7.22
369.53	7.21
369.893	7.25
370.256	7.23
370.619	7.12
370.982	7.09
371.345	6.96
371.708	6.87
372.071	6.84
372.434	6.74
372.797	6.68
373.159	6.66
373.522	6.67
373.885	6.65
374.247	6.66
374.61	6.55
374.973	6.5
375.335	6.5
375.698	6.46
376.06	6.44
376.423	6.41
376.785	6.42
377.147	6.44
377.51	6.38
377.872	6.35
378.234	6.33
378.596	6.31
378.958	6.31
379.321	6.28
379.683	6.28
380.045	6.28
380.407	6.27
380.769	6.27
381.13	6.24
381.492	6.19
381.854	6.14
382.216	6.13
382.578	6.12
382.939	6.02
383.301	6.05
383.663	5.96
384.024	5.93
384.386	5.91
384.747	5.86
385.109	5.83
385.47	5.8
385.832	5.82
386.193	5.78
386.554	5.71
386.916	5.73
387.277	5.62
387.638	5.59
387.999	5.52
388.36	5.41
388.721	5.34
389.082	5.33
389.443	5.28
389.804	5.27
390.165	5.21
390.526	5.26
390.887	5.19
391.248	5.27
391.609	5.26
391.969	5.22
392.33	5.17
392.691	5.11
393.051	5.08
393.412	5.04
393.772	5.01
394.133	4.99
394.493	4.96
394.854	4.98
395.214	4.93
395.574	4.92
395.935	4.94
396.295	4.94
396.655	4.88
397.015	4.86
397.376	4.81
397.736	4.79
398.096	4.75
398.456	4.76
398.816	4.69
399.176	4.63
399.535	4.58
399.895	4.53
400.255	4.51
400.615	4.48
400.975	4.47
401.334	4.4
401.694	4.41
402.054	4.4
402.413	4.36
402.773	4.34
403.132	4.32
403.492	4.3
403.851	4.27
404.211	4.25
404.57	4.24
404.929	4.22
405.288	4.18
405.648	4.14
406.007	4.11
406.366	4.11
406.725	4.13
407.084	4.13
407.443	4.16
407.802	4.18
408.161	4.18
408.52	4.12
408.879	4.14
409.238	4.13
409.596	4.07
409.955	4.06
410.314	4.09
410.673	4.08
411.031	4.06
411.39	4.03
411.748	4.02
412.107	4
412.465	4
412.824	4.03
413.182	4.03
413.54	4.01
413.899	3.99
414.257	3.96
414.615	3.95
414.974	3.91
415.332	3.89
415.69	3.84
416.048	3.83
416.406	3.84
416.764	3.8
417.122	3.79
417.48	3.76
417.838	3.73
418.195	3.7
418.553	3.67
418.911	3.66
419.269	3.65
419.626	3.65
419.984	3.62
420.342	3.62
420.699	3.59
421.057	3.59
421.414	3.55
421.772	3.54
422.129	3.52
422.486	3.5
422.844	3.49
423.201	3.47
423.558	3.46
423.915	3.44
424.273	3.43
424.63	3.43
424.987	3.43
425.344	3.42
425.701	3.44
426.058	3.44
426.415	3.45
426.772	3.44
427.128	3.43
427.485	3.42
427.842	3.4
428.199	3.4
428.555	3.38
428.912	3.39
429.269	3.38
429.625	3.38
429.982	3.38
430.338	3.37
430.695	3.39
431.051	3.39
431.407	3.39
431.764	3.38
432.12	3.35
432.476	3.32
432.832	3.33
433.189	3.32
433.545	3.31
433.901	3.28
434.257	3.29
434.613	3.27
434.969	3.29
435.325	3.28
435.681	3.27
436.036	3.27
436.392	3.28
436.748	3.28
437.104	3.28
437.459	3.27
437.815	3.28
438.171	3.28
438.526	3.3
438.882	3.29
439.237	3.29
439.593	3.32
439.948	3.32
440.304	3.31
440.659	3.3
441.014	3.3
441.369	3.28
441.725	3.27
442.08	3.27
442.435	3.26
442.79	3.25
443.145	3.24
443.5	3.21
443.855	3.21
444.21	3.2
444.565	3.19
444.92	3.2
445.275	3.18
445.629	3.16
445.984	3.14
446.339	3.14
446.693	3.12
447.048	3.11
447.403	3.11
447.757	3.1
448.112	3.09
448.466	3.08
448.82	3.08
449.175	3.1
449.529	3.09
449.883	3.07
450.238	3.06
450.592	3.06
450.946	3.07
451.3	3.06
451.654	3.06
452.008	3.06
452.362	3.04
452.716	3.04
453.07	3.05
453.424	3.05
453.778	3.04
454.132	3.04
454.486	3.04
454.839	3.04
455.193	3.05
455.547	3.06
455.9	3.05
456.254	3.06
456.607	3.05
456.961	3.06
457.314	3.06
457.668	3.07
458.021	3.06
458.375	3.06
458.728	3.05
459.081	3.06
459.434	3.05
459.787	3.06
460.141	3.07
460.494	3.05
460.847	3.07
461.2	3.07
461.553	3.09
461.906	3.08
462.259	3.09
462.611	3.09
462.964	3.08
463.317	3.1
463.67	3.1
464.022	3.1
464.375	3.07
464.728	3.09
465.08	3.09
465.433	3.12
465.785	3.12
466.138	3.15
466.49	3.15
466.843	3.17
467.195	3.17
467.547	3.18
467.899	3.19
468.252	3.18
468.604	3.19
468.956	3.18
469.308	3.19
469.66	3.18
470.012	3.2
470.364	3.19
470.716	3.17
471.068	3.18
471.42	3.19
471.772	3.22
472.123	3.22
472.475	3.23
472.827	3.22
473.178	3.23
473.53	3.23
473.882	3.25
474.233	3.25
474.585	3.24
474.936	3.23
475.288	3.22
475.639	3.23
475.99	3.24
476.342	3.25
476.693	3.25
477.044	3.26
477.395	3.25
477.746	3.27
478.097	3.27
478.448	3.27
478.8	3.26
479.15	3.23
479.501	3.23
479.852	3.22
480.203	3.21
480.554	3.22
480.905	3.2
481.255	3.19
481.606	3.18
481.957	3.19
482.307	3.19
482.658	3.19
483.009	3.18
483.359	3.17
483.709	3.18
484.06	3.18
484.41	3.18
484.761	3.18
485.111	3.18
485.461	3.17
485.811	3.18
486.162	3.18
486.512	3.19
486.862	3.19
487.212	3.2
487.562	3.2
487.912	3.2
488.262	3.21
488.612	3.21
488.961	3.21
489.311	3.21
489.661	3.23
490.011	3.23
490.36	3.24
490.71	3.26
491.06	3.27
491.409	3.26
491.759	3.27
492.108	3.28
492.458	3.29
492.807	3.31
493.157	3.32
493.506	3.33
493.855	3.34
494.204	3.34
494.554	3.36
494.903	3.37
495.252	3.38
495.601	3.4
495.95	3.42
496.299	3.45
496.648	3.45
496.997	3.47
497.346	3.49
497.695	3.52
498.043	3.52
498.392	3.51
498.741	3.55
499.09	3.56
499.438	3.57
499.787	3.6
500.135	3.63
500.484	3.64
500.832	3.66
501.181	3.69
501.529	3.69
501.878	3.7
502.226	3.71
502.574	3.76
502.923	3.78
503.271	3.82
503.619	3.85
503.967	3.89
504.315	3.91
504.663	3.93
505.011	3.95
505.359	3.99
505.707	4.04
506.055	4.06
506.403	4.11
506.751	4.14
507.098	4.17
507.446	4.2
507.794	4.24
508.141	4.3
508.489	4.34
508.837	4.4
509.184	4.44
509.531	4.49
509.879	4.52
510.226	4.56
510.574	4.58
510.921	4.62
511.268	4.65
511.616	4.68
511.963	4.72
512.31	4.74
512.657	4.79
513.004	4.82
513.351	4.85
513.698	4.86
514.045	4.91
514.392	4.95
514.739	4.97
515.086	5.03
515.432	5.05
515.779	5.07
516.126	5.12
516.473	5.15
516.819	5.19
517.166	5.22
517.512	5.24
517.859	5.28
518.205	5.31
518.552	5.37
518.898	5.41
519.245	5.45
519.591	5.49
519.937	5.5
520.283	5.54
520.629	5.6
520.976	5.65
521.322	5.68
521.668	5.73
522.014	5.8
522.36	5.82
522.706	5.89
523.052	5.97
523.398	6.04
523.743	6.11
524.089	6.18
524.435	6.25
524.781	6.32
525.126	6.38
525.472	6.44
525.817	6.48
526.163	6.53
526.509	6.59
526.854	6.64
527.199	6.7
527.545	6.74
527.89	6.77
528.235	6.81
528.581	6.87
528.926	6.9
529.271	6.95
529.616	6.99
529.961	7.04
530.306	7.09
530.651	7.14
530.996	7.19
531.341	7.26
531.686	7.33
532.031	7.39
532.376	7.47
532.721	7.53
533.065	7.61
533.41	7.7
533.755	7.78
534.099	7.86
534.444	7.94
534.788	8.04
535.133	8.14
535.477	8.28
535.822	8.39
536.166	8.52
536.51	8.65
536.855	8.8
537.199	8.95
537.543	9.1
537.887	9.25
538.231	9.41
538.576	9.58
538.92	9.72
539.264	9.87
539.608	10.02
539.951	10.15
540.295	10.29
540.639	10.43
540.983	10.55
541.327	10.67
541.671	10.82
542.014	10.93
542.358	11.07
542.701	11.17
543.045	11.32
543.389	11.48
543.732	11.62
544.075	11.78
544.419	11.92
544.762	12.09
545.105	12.26
545.449	12.44
545.792	12.62
546.135	12.83
546.478	13.06
546.821	13.29
547.165	13.55
547.508	13.79
547.851	14.07
548.194	14.33
548.536	14.61
548.879	14.88
549.222	15.15
549.565	15.46
549.908	15.78
550.25	16.05
550.593	16.34
550.936	16.63
551.278	16.91
551.621	17.22
551.963	17.53
552.306	17.82
552.648	18.1
552.991	18.44
553.333	18.71
553.675	19
554.017	19.28
554.36	19.52
554.702	19.83
555.044	20.1
555.386	20.43
555.728	20.74
556.07	21.08
556.412	21.42
556.754	21.7
557.096	22.06
557.438	22.43
557.78	22.77
558.121	23.11
558.463	23.47
558.805	23.8
559.147	24.14
559.488	24.47
559.83	24.79
560.171	25.08
560.513	25.43
560.854	25.71
561.196	26.07
561.537	26.47
561.878	26.76
562.22	27.03
562.561	27.28
562.902	27.61
563.243	27.86
563.584	28.19
563.925	28.51
564.266	28.75
564.607	29.03
564.948	29.3
565.289	29.56
565.63	29.86
565.971	30.14
566.312	30.41
566.653	30.71
566.993	30.95
567.334	31.19
567.675	31.45
568.015	31.72
568.356	31.96
568.696	32.25
569.037	32.5
569.377	32.8
569.718	33.06
570.058	33.25
570.398	33.5
570.739	33.71
571.079	33.9
571.419	34.17
571.759	34.4
572.099	34.6
572.439	34.84
572.779	34.99
573.119	35.17
573.459	35.39
573.799	35.63
574.139	35.84
574.479	36.03
574.819	36.25
575.158	36.47
575.498	36.68
575.838	36.87
576.177	37.05
576.517	37.24
576.856	37.47
577.196	37.72
577.535	37.89
577.875	38.07
578.214	38.29
578.553	38.47
578.893	38.6
579.232	38.8
579.571	38.94
579.91	39.2
580.25	39.43
580.589	39.56
580.928	39.64
581.267	39.82
581.606	40
581.945	40.18
582.283	40.38
582.622	40.49
582.961	40.58
583.3	40.72
583.639	40.88
583.977	41.06
584.316	41.2
584.654	41.39
584.993	41.52
585.332	41.66
585.67	41.75
586.008	41.95
586.347	42.08
586.685	42.3
587.024	42.4
587.362	42.42
587.7	42.54
588.038	42.66
588.376	42.77
588.715	42.86
589.053	42.95
589.391	43.04
589.729	43.17
590.067	43.36
590.404	43.47
590.742	43.58
591.08	43.58
591.418	43.73
591.756	43.81
592.093	43.89
592.431	44.03
592.769	44.13
593.106	44.17
593.444	44.2
593.781	44.22
594.119	44.29
594.456	44.42
594.793	44.49
595.131	44.57
595.468	44.65
595.805	44.73
596.143	44.79
596.48	44.81
596.817	44.88
597.154	44.86
597.491	44.99
597.828	45.08
598.165	45.24
598.502	45.21
598.839	45.36
599.176	45.47
599.512	45.51
599.849	45.63
600.186	45.72
600.523	45.85
600.859	45.94
601.196	46
601.532	46.06
601.869	46.12
602.205	46.2
602.542	46.35
602.878	46.44
603.215	46.47
603.551	46.55
603.887	46.63
604.223	46.74
604.56	46.68
604.896	46.74
605.232	46.79
605.568	46.81
605.904	46.82
606.24	46.84
606.576	46.89
606.912	46.93
607.248	46.92
607.583	46.95
607.919	47.04
608.255	47.1
608.591	47.14
608.926	47.24
609.262	47.27
609.597	47.25
609.933	47.29
610.268	47.33
610.604	47.42
610.939	47.4
611.275	47.38
611.61	47.46
611.945	47.46
612.281	47.51
612.616	47.61
612.951	47.63
613.286	47.71
613.621	47.8
613.956	47.85
614.291	48
614.626	48.06
614.961	48.18
615.296	48.21
615.631	48.27
615.966	48.28
616.3	48.3
616.635	48.36
616.97	48.37
617.304	48.5
617.639	48.57
617.973	48.61
618.308	48.71
618.642	48.74
618.977	48.77
619.311	48.74
619.646	48.73
619.98	48.79
620.314	48.79
620.648	48.75
620.983	48.84
621.317	48.84
621.651	48.87
621.985	48.86
622.319	48.95
622.653	49.04
622.987	49.05
623.321	49.1
623.655	49.12
623.988	49.12
624.322	49.01
624.656	49.01
624.99	49.02
625.323	49.04
625.657	49.07
625.99	49.15
626.324	49.19
626.657	49.31
626.991	49.28
627.324	49.28
627.658	49.33
627.991	49.32
628.324	49.37
628.657	49.39
628.991	49.42
629.324	49.37
629.657	49.37
629.99	49.44
630.323	49.52
630.656	49.54
630.989	49.61
631.322	49.71
631.655	49.69
631.987	49.71
632.32	49.72
632.653	49.8
632.986	49.78
633.318	49.73
633.651	49.66
633.984	49.76
634.316	49.87
634.649	49.93
634.981	49.92
635.313	49.92
635.646	49.99
635.978	50.04
636.31	50.11
636.643	50.11
636.975	50.14
637.307	50.17
637.639	50.19
637.971	50.27
638.303	50.34
638.635	50.43
638.967	50.51
639.299	50.5
639.631	50.49
639.963	50.55
640.295	50.59
640.626	50.65
640.958	50.67
641.29	50.71
641.621	50.65
641.953	50.6
642.285	50.66
642.616	50.64
642.948	50.71
643.279	50.71
643.61	50.8
643.942	50.73
644.273	50.53
644.604	50.59
644.936	50.56
645.267	50.46
645.598	50.44
645.929	50.45
646.26	50.49
646.591	50.51
646.922	50.52
647.253	50.54
647.584	50.61
647.915	50.6
648.245	50.5
648.576	50.55
648.907	50.68
649.238	50.61
649.568	50.73
649.899	50.54
650.229	50.47
650.56	50.49
650.89	50.6
651.221	50.72
651.551	50.68
651.882	50.72
652.212	50.82
652.542	50.84
652.872	50.69
653.203	50.73
653.533	50.75
653.863	50.66
654.193	50.67
654.523	50.64
654.853	50.69
655.183	50.75
655.513	50.7
655.843	50.61
656.172	50.69
656.502	50.63
656.832	50.74
657.162	50.85
657.491	50.85
657.821	50.86
658.15	50.84
658.48	50.91
658.809	50.86
659.139	50.9
659.468	50.91
659.798	51.11
660.127	51.14
660.456	51.13
660.785	51.27
661.115	51.36
661.444	51.4
661.773	51.47
662.102	51.55
662.431	51.64
662.76	51.78
663.089	51.79
663.418	51.81
663.747	51.73
664.076	51.74
664.404	51.86
664.733	52
665.062	52.13
665.39	52.03
665.719	52.02
666.048	51.98
666.376	51.97
666.705	51.91
667.033	52.02
667.362	52.07
667.69	52.01
