Data from BA56813_Reflection_00001.txt Node
Date: Mon Nov 18 15:50:28 EST 2019
User: vgr7
Spectrometer: USB2G7710
Scans to average: 3
Trigger mode: 4
Integration Time (sec): 2.000000E-2
Electric dark correction enabled: true
Boxcar width: 10
XAxis mode: Wavelengths
Number of Pixels in Spectrum: 2048
>>>>>Begin Spectral Data<<<<<
177.721	33.62
178.105	110.6
178.488	24.92
178.871	40.63
179.254	47.43
179.636	-121.31
180.019	-352.26
180.402	73.08
180.785	7.5
181.168	55.67
181.55	58.83
181.933	118.8
182.316	88.87
182.698	109.03
183.081	117.54
183.463	91.36
183.846	84.9
184.228	39.75
184.611	75.47
184.993	86.46
185.376	82.31
185.758	144.42
186.14	160.51
186.522	150.68
186.904	169.33
187.287	134.92
187.669	151.93
188.051	151.66
188.433	217.37
188.815	287.93
189.197	269.3
189.579	291.63
189.961	171.17
190.342	181.98
190.724	323.7
191.106	586.49
191.488	-2235.33
191.869	-776.66
192.251	-1062.58
192.633	-574.87
193.014	-1588.62
193.396	-1003.68
193.777	-1345.03
194.159	-2236.84
194.54	-505.19
194.922	-1027.52
195.303	-178.04
195.684	-107.9
196.065	-67.77
196.447	-128.48
196.828	-125.72
197.209	-111.12
197.59	-119.99
197.971	-101.93
198.352	-67.87
198.733	-143.42
199.114	-104.52
199.495	-98.39
199.876	-147.42
200.257	-148.58
200.638	-188.83
201.018	-130.26
201.399	-114.77
201.78	-107.85
202.16	-106.46
202.541	-213.53
202.922	-250.04
203.302	-242.99
203.683	-210.9
204.063	-235.28
204.444	-172.96
204.824	-118.57
205.204	-68.84
205.585	-56.08
205.965	-31.17
206.345	-906.99
206.725	255.84
207.106	145.11
207.486	182.89
207.866	154.26
208.246	150.72
208.626	211.76
209.006	165.02
209.386	232.06
209.766	236.19
210.145	443.47
210.525	-1170.07
210.905	-171.45
211.285	51.02
211.664	303.39
212.044	-1442.86
212.424	-260.8
212.803	2067.21
213.183	-478.68
213.562	-256.94
213.942	-162.56
214.321	-44.41
214.701	-30.69
215.08	-36.2
215.459	-21.84
215.838	2.93
216.218	29.21
216.597	35.97
216.976	27.31
217.355	41.52
217.734	43
218.113	39.32
218.492	39.2
218.871	34
219.25	19.67
219.629	15.81
220.008	16.86
220.387	22.29
220.766	15.44
221.144	5.8
221.523	16.29
221.902	22.27
222.28	27.16
222.659	34.7
223.037	50.64
223.416	38.82
223.794	27.69
224.173	9.19
224.551	1.46
224.929	-15.36
225.308	-9.44
225.686	-14.77
226.064	-9.34
226.442	-8.88
226.821	-4.46
227.199	-7.35
227.577	-3.11
227.955	-3.06
228.333	-1.91
228.711	-0.99
229.089	-0.44
229.467	-1.29
229.845	-2.74
230.222	-1.12
230.6	-2.72
230.978	-2.52
231.356	2.89
231.733	1.5
232.111	1.99
232.488	4.97
232.866	6.85
233.243	8.29
233.621	8
233.998	7.51
234.376	6.71
234.753	5.42
235.13	5.31
235.508	5.95
235.885	4.83
236.262	3.35
236.639	2.58
237.016	3.77
237.393	4.42
237.77	4.89
238.147	5.52
238.524	5.79
238.901	5.48
239.278	4.88
239.655	5.94
240.032	5.75
240.409	4.93
240.785	4.76
241.162	4.15
241.539	4.61
241.915	4.56
242.292	4.26
242.668	4.4
243.045	4.43
243.421	4.14
243.798	4.44
244.174	4.5
244.551	4.6
244.927	4.14
245.303	4.1
245.679	3.97
246.056	3.87
246.432	3.77
246.808	3.77
247.184	3.55
247.56	3.41
247.936	3.49
248.312	3.53
248.688	3.72
249.064	3.75
249.44	3.68
249.815	3.69
250.191	3.99
250.567	4.19
250.943	3.93
251.318	4.02
251.694	4.05
252.069	4.1
252.445	4.04
252.82	4.29
253.196	4.21
253.571	4.28
253.947	4.32
254.322	4.64
254.697	4.85
255.073	5.1
255.448	4.97
255.823	4.77
256.198	4.76
256.573	4.56
256.948	4.55
257.323	4.44
257.698	4.59
258.073	4.54
258.448	4.39
258.823	4.6
259.198	4.6
259.573	4.65
259.948	4.7
260.322	4.71
260.697	4.71
261.072	4.68
261.446	4.68
261.821	4.57
262.195	4.48
262.57	4.38
262.944	4.3
263.319	4.31
263.693	4.24
264.067	4.2
264.442	4.22
264.816	4.2
265.19	4.28
265.564	4.15
265.938	3.92
266.313	3.82
266.687	3.78
267.061	3.8
267.435	3.62
267.809	3.7
268.183	3.73
268.556	3.48
268.93	3.47
269.304	3.47
269.678	3.64
270.051	3.66
270.425	3.66
270.799	3.74
271.172	3.82
271.546	3.81
271.919	3.82
272.293	3.8
272.666	3.76
273.04	3.8
273.413	3.66
273.787	3.74
274.16	3.9
274.533	3.95
274.906	3.79
275.279	3.8
275.653	3.81
276.026	3.91
276.399	4.02
276.772	4.13
277.145	4.06
277.518	4.03
277.891	4.05
278.263	4.01
278.636	3.86
279.009	3.84
279.382	4.14
279.755	4.16
280.127	4.32
280.5	4.46
280.872	4.41
281.245	4.46
281.617	4.53
281.99	4.44
282.362	4.39
282.735	4.35
283.107	4.28
283.479	4.14
283.852	4.12
284.224	4.29
284.596	4.17
284.968	4.19
285.34	4.14
285.713	4.07
286.085	4.11
286.457	4.18
286.829	4.19
287.201	4.03
287.572	3.91
287.944	3.87
288.316	3.83
288.688	3.78
289.06	3.75
289.431	3.81
289.803	3.8
290.175	3.81
290.546	3.98
290.918	4.17
291.289	4.21
291.661	4.24
292.032	4.22
292.403	4.32
292.775	4.51
293.146	4.48
293.517	4.47
293.889	4.47
294.26	4.47
294.631	4.62
295.002	4.59
295.373	4.81
295.744	4.93
296.115	4.97
296.486	4.98
296.857	5.11
297.228	5.09
297.599	5.16
297.97	5.27
298.34	5.17
298.711	5.19
299.082	5.2
299.452	5.19
299.823	5.33
300.194	5.36
300.564	5.27
300.935	5.43
301.305	5.57
301.676	5.57
302.046	5.57
302.416	5.53
302.787	5.63
303.157	5.58
303.527	5.46
303.897	5.36
304.267	5.5
304.637	5.49
305.008	5.52
305.378	5.48
305.748	5.59
306.117	5.57
306.487	5.48
306.857	5.49
307.227	5.49
307.597	5.26
307.967	5.24
308.336	5.34
308.706	5.22
309.076	5.35
309.445	5.39
309.815	5.4
310.184	5.25
310.554	5.32
310.923	5.37
311.293	5.41
311.662	5.44
312.031	5.38
312.401	5.33
312.77	5.3
313.139	5.39
313.508	5.18
313.877	5.21
314.246	5.23
314.616	5.21
314.985	5.09
315.353	5.11
315.722	5.15
316.091	5.07
316.46	5.12
316.829	4.94
317.198	5.02
317.567	5.15
317.935	5.14
318.304	5.21
318.672	5.17
319.041	5.23
319.41	5.3
319.778	5.31
320.147	5.45
320.515	5.49
320.883	5.42
321.252	5.49
321.62	5.73
321.988	5.75
322.357	5.83
322.725	5.99
323.093	6.13
323.461	6.21
323.829	6.11
324.197	6.1
324.565	6.24
324.933	6.18
325.301	6.14
325.669	6.31
326.037	6.2
326.405	6.14
326.772	6.24
327.14	6.26
327.508	6.31
327.875	6.2
328.243	6.24
328.61	6.21
328.978	6.32
329.346	6.22
329.713	6.19
330.08	6.22
330.448	6.09
330.815	5.88
331.182	5.77
331.55	5.83
331.917	5.92
332.284	5.79
332.651	5.81
333.018	5.85
333.385	5.81
333.752	5.81
334.119	5.86
334.486	5.7
334.853	5.69
335.22	5.71
335.587	5.9
335.954	5.87
336.32	5.84
336.687	5.77
337.054	5.83
337.42	5.95
337.787	6.02
338.153	6.08
338.52	6.22
338.886	6.15
339.253	6.2
339.619	6.05
339.986	6.07
340.352	6.12
340.718	6.08
341.084	6.05
341.451	6.04
341.817	6.09
342.183	6.11
342.549	6.11
342.915	6.08
343.281	5.95
343.647	5.95
344.013	5.98
344.379	5.95
344.745	5.91
345.11	5.8
345.476	5.8
345.842	5.74
346.208	5.69
346.573	5.82
346.939	5.94
347.304	6
347.67	5.97
348.035	5.89
348.401	5.95
348.766	5.88
349.132	5.88
349.497	5.83
349.862	5.82
350.228	5.85
350.593	5.82
350.958	5.72
351.323	5.69
351.688	5.83
352.053	5.82
352.418	5.86
352.783	5.94
353.148	5.81
353.513	5.87
353.878	5.91
354.243	5.9
354.608	5.77
354.972	5.74
355.337	5.76
355.702	5.91
356.066	5.88
356.431	5.94
356.795	5.93
357.16	5.89
357.524	5.87
357.889	5.82
358.253	5.82
358.618	5.88
358.982	5.86
359.346	5.74
359.71	5.72
360.075	5.69
360.439	5.73
360.803	5.77
361.167	5.8
361.531	5.75
361.895	5.78
362.259	5.78
362.623	5.78
362.987	5.74
363.351	5.69
363.714	5.7
364.078	5.7
364.442	5.7
364.806	5.7
365.169	5.68
365.533	5.74
365.896	5.71
366.26	5.76
366.623	5.73
366.987	5.81
367.35	5.84
367.714	5.91
368.077	5.86
368.44	5.78
368.803	5.7
369.167	5.72
369.53	5.64
369.893	5.72
370.256	5.72
370.619	5.77
370.982	5.72
371.345	5.68
371.708	5.7
372.071	5.71
372.434	5.69
372.797	5.7
373.159	5.64
373.522	5.69
373.885	5.66
374.247	5.74
374.61	5.7
374.973	5.72
375.335	5.65
375.698	5.64
376.06	5.68
376.423	5.75
376.785	5.79
377.147	5.86
377.51	5.8
377.872	5.83
378.234	5.84
378.596	5.87
378.958	5.81
379.321	5.82
379.683	5.89
380.045	5.94
380.407	5.93
380.769	5.96
381.13	5.97
381.492	5.94
381.854	5.92
382.216	5.86
382.578	5.89
382.939	5.88
383.301	5.89
383.663	5.91
384.024	5.89
384.386	5.95
384.747	5.94
385.109	5.95
385.47	5.96
385.832	5.92
386.193	5.95
386.554	5.99
386.916	5.98
387.277	5.94
387.638	5.92
387.999	5.89
388.36	5.89
388.721	5.87
389.082	5.88
389.443	5.89
389.804	5.91
390.165	5.86
390.526	5.86
390.887	5.82
391.248	5.81
391.609	5.84
391.969	5.8
392.33	5.79
392.691	5.76
393.051	5.75
393.412	5.77
393.772	5.73
394.133	5.74
394.493	5.75
394.854	5.74
395.214	5.75
395.574	5.78
395.935	5.76
396.295	5.8
396.655	5.76
397.015	5.77
397.376	5.76
397.736	5.79
398.096	5.81
398.456	5.86
398.816	5.89
399.176	5.84
399.535	5.84
399.895	5.84
400.255	5.84
400.615	5.86
400.975	5.83
401.334	5.85
401.694	5.86
402.054	5.84
402.413	5.84
402.773	5.82
403.132	5.84
403.492	5.86
403.851	5.84
404.211	5.86
404.57	5.84
404.929	5.85
405.288	5.85
405.648	5.85
406.007	5.8
406.366	5.79
406.725	5.79
407.084	5.79
407.443	5.81
407.802	5.85
408.161	5.86
408.52	5.85
408.879	5.87
409.238	5.88
409.596	5.9
409.955	5.92
410.314	5.94
410.673	5.93
411.031	5.93
411.39	5.94
411.748	5.94
412.107	5.98
412.465	5.99
412.824	6
413.182	5.99
413.54	6.03
413.899	6.04
414.257	6.09
414.615	6.06
414.974	6.05
415.332	6.03
415.69	6.02
416.048	6.02
416.406	5.99
416.764	5.95
417.122	5.93
417.48	5.9
417.838	5.92
418.195	5.92
418.553	5.9
418.911	5.89
419.269	5.92
419.626	5.91
419.984	5.92
420.342	5.92
420.699	5.9
421.057	5.91
421.414	5.89
421.772	5.87
422.129	5.89
422.486	5.88
422.844	5.89
423.201	5.88
423.558	5.89
423.915	5.9
424.273	5.93
424.63	5.93
424.987	5.96
425.344	5.94
425.701	5.96
426.058	5.99
426.415	5.99
426.772	5.98
427.128	5.97
427.485	5.95
427.842	5.94
428.199	5.95
428.555	5.93
428.912	5.93
429.269	5.96
429.625	5.94
429.982	5.95
430.338	5.94
430.695	5.95
431.051	5.93
431.407	5.94
431.764	5.96
432.12	5.96
432.476	5.94
432.832	5.94
433.189	5.93
433.545	5.92
433.901	5.91
434.257	5.91
434.613	5.9
434.969	5.92
435.325	5.93
435.681	5.96
436.036	5.95
436.392	5.98
436.748	5.98
437.104	5.97
437.459	5.97
437.815	5.98
438.171	5.97
438.526	5.99
438.882	5.97
439.237	5.97
439.593	5.98
439.948	5.96
440.304	5.95
440.659	5.95
441.014	5.94
441.369	5.94
441.725	5.93
442.08	5.93
442.435	5.93
442.79	5.93
443.145	5.92
443.5	5.92
443.855	5.89
444.21	5.89
444.565	5.9
444.92	5.9
445.275	5.89
445.629	5.91
445.984	5.9
446.339	5.89
446.693	5.87
447.048	5.86
447.403	5.87
447.757	5.87
448.112	5.86
448.466	5.86
448.82	5.87
449.175	5.9
449.529	5.89
449.883	5.88
450.238	5.88
450.592	5.9
450.946	5.88
451.3	5.9
451.654	5.89
452.008	5.89
452.362	5.87
452.716	5.85
453.07	5.85
453.424	5.86
453.778	5.89
454.132	5.89
454.486	5.9
454.839	5.9
455.193	5.9
455.547	5.92
455.9	5.94
456.254	5.94
456.607	5.93
456.961	5.95
457.314	5.97
457.668	5.97
458.021	5.98
458.375	5.99
458.728	5.98
459.081	5.99
459.434	5.97
459.787	6
460.141	6.01
460.494	6
460.847	6
461.2	6
461.553	6.01
461.906	6.01
462.259	6.02
462.611	6.07
462.964	6.06
463.317	6.03
463.67	6.03
464.022	6.04
464.375	6.01
464.728	6
465.08	6.01
465.433	6.01
465.785	6
466.138	6.01
466.49	6.01
466.843	6.03
467.195	6.04
467.547	6.06
467.899	6.06
468.252	6.05
468.604	6.05
468.956	6.04
469.308	6.07
469.66	6.06
470.012	6.03
470.364	6.03
470.716	6.05
471.068	6.05
471.42	6.04
471.772	6.07
472.123	6.08
472.475	6.09
472.827	6.1
473.178	6.12
473.53	6.13
473.882	6.13
474.233	6.15
474.585	6.13
474.936	6.12
475.288	6.11
475.639	6.1
475.99	6.11
476.342	6.12
476.693	6.12
477.044	6.15
477.395	6.16
477.746	6.16
478.097	6.15
478.448	6.16
478.8	6.17
479.15	6.15
479.501	6.15
479.852	6.15
480.203	6.15
480.554	6.17
480.905	6.17
481.255	6.18
481.606	6.18
481.957	6.19
482.307	6.19
482.658	6.2
483.009	6.21
483.359	6.2
483.709	6.21
484.06	6.21
484.41	6.21
484.761	6.2
485.111	6.2
485.461	6.21
485.811	6.2
486.162	6.2
486.512	6.22
486.862	6.23
487.212	6.22
487.562	6.21
487.912	6.21
488.262	6.21
488.612	6.19
488.961	6.19
489.311	6.19
489.661	6.18
490.011	6.18
490.36	6.17
490.71	6.18
491.06	6.18
491.409	6.17
491.759	6.16
492.108	6.17
492.458	6.17
492.807	6.16
493.157	6.17
493.506	6.18
493.855	6.19
494.204	6.19
494.554	6.2
494.903	6.19
495.252	6.18
495.601	6.19
495.95	6.21
496.299	6.22
496.648	6.22
496.997	6.24
497.346	6.25
497.695	6.25
498.043	6.27
498.392	6.25
498.741	6.27
499.09	6.24
499.438	6.24
499.787	6.25
500.135	6.28
500.484	6.28
500.832	6.28
501.181	6.28
501.529	6.27
501.878	6.32
502.226	6.35
502.574	6.35
502.923	6.35
503.271	6.34
503.619	6.35
503.967	6.36
504.315	6.35
504.663	6.37
505.011	6.38
505.359	6.36
505.707	6.37
506.055	6.37
506.403	6.42
506.751	6.42
507.098	6.42
507.446	6.43
507.794	6.4
508.141	6.41
508.489	6.39
508.837	6.41
509.184	6.4
509.531	6.39
509.879	6.41
510.226	6.43
510.574	6.41
510.921	6.41
511.268	6.39
511.616	6.41
511.963	6.39
512.31	6.39
512.657	6.42
513.004	6.45
513.351	6.44
513.698	6.44
514.045	6.42
514.392	6.42
514.739	6.41
515.086	6.42
515.432	6.42
515.779	6.42
516.126	6.41
516.473	6.41
516.819	6.41
517.166	6.4
517.512	6.4
517.859	6.42
518.205	6.43
518.552	6.45
518.898	6.46
519.245	6.46
519.591	6.47
519.937	6.45
520.283	6.42
520.629	6.43
520.976	6.43
521.322	6.47
521.668	6.45
522.014	6.47
522.36	6.47
522.706	6.51
523.052	6.52
523.398	6.53
523.743	6.52
524.089	6.53
524.435	6.52
524.781	6.52
525.126	6.53
525.472	6.54
525.817	6.53
526.163	6.53
526.509	6.52
526.854	6.51
527.199	6.53
527.545	6.54
527.89	6.53
528.235	6.53
528.581	6.52
528.926	6.52
529.271	6.53
529.616	6.52
529.961	6.52
530.306	6.53
530.651	6.52
530.996	6.52
531.341	6.52
531.686	6.52
532.031	6.53
532.376	6.53
532.721	6.51
533.065	6.52
533.41	6.53
533.755	6.56
534.099	6.58
534.444	6.58
534.788	6.58
535.133	6.59
535.477	6.59
535.822	6.59
536.166	6.59
536.51	6.58
536.855	6.58
537.199	6.58
537.543	6.59
537.887	6.61
538.231	6.61
538.576	6.62
538.92	6.63
539.264	6.63
539.608	6.63
539.951	6.65
540.295	6.65
540.639	6.65
540.983	6.63
541.327	6.61
541.671	6.6
542.014	6.62
542.358	6.63
542.701	6.64
543.045	6.64
543.389	6.66
543.732	6.66
544.075	6.66
544.419	6.65
544.762	6.64
545.105	6.64
545.449	6.65
545.792	6.64
546.135	6.64
546.478	6.66
546.821	6.65
547.165	6.65
547.508	6.64
547.851	6.64
548.194	6.64
548.536	6.65
548.879	6.65
549.222	6.62
549.565	6.62
549.908	6.64
550.25	6.66
550.593	6.67
550.936	6.67
551.278	6.69
551.621	6.72
551.963	6.7
552.306	6.71
552.648	6.7
552.991	6.73
553.333	6.71
553.675	6.68
554.017	6.7
554.36	6.7
554.702	6.71
555.044	6.74
555.386	6.76
555.728	6.78
556.07	6.8
556.412	6.8
556.754	6.8
557.096	6.8
557.438	6.79
557.78	6.79
558.121	6.8
558.463	6.83
558.805	6.82
559.147	6.83
559.488	6.85
559.83	6.85
560.171	6.83
560.513	6.88
560.854	6.87
561.196	6.84
561.537	6.84
561.878	6.81
562.22	6.8
562.561	6.78
562.902	6.8
563.243	6.79
563.584	6.82
563.925	6.83
564.266	6.82
564.607	6.84
564.948	6.86
565.289	6.87
565.63	6.86
565.971	6.88
566.312	6.84
566.653	6.81
566.993	6.81
567.334	6.79
567.675	6.8
568.015	6.8
568.356	6.8
568.696	6.82
569.037	6.85
569.377	6.86
569.718	6.86
570.058	6.84
570.398	6.84
570.739	6.83
571.079	6.82
571.419	6.8
571.759	6.8
572.099	6.77
572.439	6.73
572.779	6.71
573.119	6.7
573.459	6.74
573.799	6.77
574.139	6.76
574.479	6.78
574.819	6.75
575.158	6.72
575.498	6.74
575.838	6.69
576.177	6.66
576.517	6.63
576.856	6.64
577.196	6.66
577.535	6.65
577.875	6.63
578.214	6.63
578.553	6.68
578.893	6.67
579.232	6.67
579.571	6.7
579.91	6.69
580.25	6.68
580.589	6.67
580.928	6.67
581.267	6.66
581.606	6.67
581.945	6.68
582.283	6.74
582.622	6.72
582.961	6.75
583.3	6.78
583.639	6.81
583.977	6.81
584.316	6.8
584.654	6.79
584.993	6.81
585.332	6.84
585.67	6.81
586.008	6.79
586.347	6.78
586.685	6.79
587.024	6.81
587.362	6.8
587.7	6.8
588.038	6.81
588.376	6.82
588.715	6.79
589.053	6.84
589.391	6.85
589.729	6.87
590.067	6.87
590.404	6.85
590.742	6.85
591.08	6.82
591.418	6.83
591.756	6.84
592.093	6.79
592.431	6.77
592.769	6.8
593.106	6.84
593.444	6.84
593.781	6.85
594.119	6.86
594.456	6.84
594.793	6.83
595.131	6.79
595.468	6.85
595.805	6.84
596.143	6.82
596.48	6.82
596.817	6.8
597.154	6.82
597.491	6.82
597.828	6.82
598.165	6.84
598.502	6.87
598.839	6.9
599.176	6.93
599.512	6.91
599.849	6.92
600.186	6.91
600.523	6.96
600.859	6.97
601.196	6.99
601.532	7.03
601.869	7.05
602.205	7.06
602.542	7.03
602.878	7.06
603.215	7.06
603.551	7.06
603.887	7.05
604.223	7.05
604.56	7.08
604.896	7.08
605.232	7.08
605.568	7.05
605.904	7.03
606.24	7.06
606.576	7.07
606.912	7.04
607.248	7.04
607.583	7.02
607.919	6.99
608.255	6.98
608.591	7.01
608.926	7.03
609.262	7.03
609.597	7
609.933	6.99
610.268	7
610.604	7.05
610.939	7.05
611.275	7.02
611.61	7
611.945	7
612.281	6.96
612.616	7
612.951	7.04
613.286	7.02
613.621	7.04
613.956	7.05
614.291	7.05
614.626	7.06
614.961	7.08
615.296	7.05
615.631	7.04
615.966	7.02
616.3	7.01
616.635	7.07
616.97	7.1
617.304	7.11
617.639	7.05
617.973	7.06
618.308	7.08
618.642	7.12
618.977	7.13
619.311	7.22
619.646	7.25
619.98	7.21
620.314	7.27
620.648	7.29
620.983	7.32
621.317	7.32
621.651	7.31
621.985	7.33
622.319	7.39
622.653	7.39
622.987	7.44
623.321	7.46
623.655	7.41
623.988	7.45
624.322	7.44
624.656	7.46
624.99	7.5
625.323	7.5
625.657	7.47
625.99	7.51
626.324	7.47
626.657	7.43
626.991	7.45
627.324	7.39
627.658	7.35
627.991	7.33
628.324	7.34
628.657	7.32
628.991	7.28
629.324	7.29
629.657	7.31
629.99	7.31
630.323	7.34
630.656	7.39
630.989	7.33
631.322	7.36
631.655	7.33
631.987	7.31
632.32	7.31
632.653	7.3
632.986	7.28
633.318	7.24
633.651	7.24
633.984	7.23
634.316	7.28
634.649	7.3
634.981	7.29
635.313	7.32
635.646	7.3
635.978	7.38
636.31	7.34
636.643	7.31
636.975	7.29
637.307	7.24
637.639	7.24
637.971	7.24
638.303	7.22
638.635	7.22
638.967	7.22
639.299	7.25
639.631	7.26
639.963	7.24
640.295	7.25
640.626	7.28
640.958	7.29
641.29	7.3
641.621	7.31
641.953	7.28
642.285	7.29
642.616	7.34
642.948	7.25
643.279	7.22
643.61	7.24
643.942	7.24
644.273	7.26
644.604	7.22
644.936	7.22
645.267	7.24
645.598	7.22
645.929	7.25
646.26	7.23
646.591	7.22
646.922	7.22
647.253	7.31
647.584	7.34
647.915	7.33
648.245	7.32
648.576	7.35
648.907	7.41
649.238	7.39
649.568	7.42
649.899	7.41
650.229	7.45
650.56	7.46
650.89	7.41
651.221	7.44
651.551	7.42
651.882	7.47
652.212	7.42
652.542	7.45
652.872	7.4
653.203	7.38
653.533	7.4
653.863	7.38
654.193	7.38
654.523	7.37
654.853	7.37
655.183	7.36
655.513	7.33
655.843	7.25
656.172	7.18
656.502	7.19
656.832	7.2
657.162	7.29
657.491	7.31
657.821	7.3
658.15	7.31
658.48	7.38
658.809	7.37
659.139	7.44
659.468	7.41
659.798	7.43
660.127	7.49
660.456	7.51
660.785	7.6
661.115	7.54
661.444	7.51
661.773	7.53
662.102	7.48
662.431	7.54
662.76	7.62
663.089	7.69
663.418	7.7
663.747	7.8
664.076	7.7
664.404	7.73
664.733	7.83
665.062	7.81
665.39	7.88
665.719	7.84
666.048	7.83
666.376	7.79
666.705	7.83
667.033	7.73
667.362	7.71
667.69	7.64
668.018	7.71
668.347	7.7
668.675	7.74
669.003	7.79
669.331	7.87
669.659	7.89
669.987	7.93
670.315	7.87
670.643	7.83
670.971	7.82
671.299	7.77
671.627	7.64
671.955	7.66
672.283	7.59
672.61	7.63
672.938	7.6
673.266	7.66
673.593	7.72
673.921	7.79
674.249	7.76
674.576	7.71
674.904	7.67
675.231	7.7
675.558	7.72
675.886	7.73
676.213	7.6
676.54	7.62
676.867	7.64
677.195	7.73
677.522	7.68
677.849	7.77
