Data from BA56814_Reflection_00001.txt Node
Date: Mon Nov 18 15:40:16 EST 2019
User: vgr7
Spectrometer: USB2G7710
Scans to average: 3
Trigger mode: 4
Integration Time (sec): 2.000000E-2
Electric dark correction enabled: true
Boxcar width: 10
XAxis mode: Wavelengths
Number of Pixels in Spectrum: 2048
>>>>>Begin Spectral Data<<<<<
177.721	114.94
178.105	81.23
178.488	215.22
178.871	118.68
179.254	58.99
179.636	25.11
180.019	23.2
180.402	13.79
180.785	-230.1
181.168	103.8
181.55	266.22
181.933	129.71
182.316	203.75
182.698	213.11
183.081	147.3
183.463	174.59
183.846	162.87
184.228	114.94
184.611	113.79
184.993	226.86
185.376	171.29
185.758	218.6
186.14	138.76
186.522	179.13
186.904	135.92
187.287	114.29
187.669	104.44
188.051	90.88
188.433	94.18
188.815	110.95
189.197	62.99
189.579	-9.22
189.961	15.9
190.342	23.21
190.724	17.25
191.106	57.97
191.488	60.55
191.869	72.16
192.251	61.26
192.633	71.56
193.014	72.45
193.396	97.66
193.777	130.8
194.159	231.3
194.54	297.88
194.922	1313.11
195.303	214.8
195.684	613.76
196.065	30.4
196.447	-29.19
196.828	-215.11
197.209	-230.31
197.59	-150.58
197.971	-86.1
198.352	-44.24
198.733	-24.37
199.114	-19.04
199.495	-16.25
199.876	-20.3
200.257	-24.01
200.638	-13.46
201.018	1.85
201.399	21.91
201.78	-20.12
202.16	-59.83
202.541	-124.09
202.922	-204.97
203.302	-212.04
203.683	-270.64
204.063	-846.95
204.444	-1083.02
204.824	-478.7
205.204	-384.65
205.585	-384.01
205.965	-427.19
206.345	-529.05
206.725	-968.04
207.106	-2592.74
207.486	807.99
207.866	-19030.43
208.246	-607.21
208.626	-627.27
209.006	-454.01
209.386	-436.24
209.766	-247.29
210.145	-307.93
210.525	-199.94
210.905	-146.89
211.285	-143.48
211.664	-80.12
212.044	-70.32
212.424	-57.03
212.803	-41.64
213.183	-33.75
213.562	-35.85
213.942	-28.82
214.321	-49.94
214.701	-44.65
215.08	-44.43
215.459	-32.91
215.838	-60.83
216.218	-69.01
216.597	-50.75
216.976	-57.44
217.355	-41.22
217.734	-56.1
218.113	-30.62
218.492	-28.86
218.871	-26.48
219.25	-14.26
219.629	-8.15
220.008	2.25
220.387	-0.07
220.766	3.35
221.144	-16.04
221.523	-0.95
221.902	-1.6
222.28	-4
222.659	-2.17
223.037	-3.87
223.416	-6.52
223.794	8.81
224.173	11.31
224.551	-4.76
224.929	-0.61
225.308	-9.15
225.686	-6.91
226.064	-12.28
226.442	-8.77
226.821	-6.02
227.199	-9.49
227.577	-14.66
227.955	-15.64
228.333	-15
228.711	-9.85
229.089	-4.7
229.467	-7.48
229.845	-7.84
230.222	-4.66
230.6	-4.73
230.978	-3.16
231.356	-1.4
231.733	0.22
232.111	2.89
232.488	4.24
232.866	3.7
233.243	5.63
233.621	6.65
233.998	5.58
234.376	4.54
234.753	2.9
235.13	4.2
235.508	5.39
235.885	4.77
236.262	4.88
236.639	3.56
237.016	3.46
237.393	5.67
237.77	5.44
238.147	5.14
238.524	5.95
238.901	5.68
239.278	5.23
239.655	5.31
240.032	3.97
240.409	3.33
240.785	2.88
241.162	2.98
241.539	2.96
241.915	3.29
242.292	3.13
242.668	3.72
243.045	3.59
243.421	3.71
243.798	3.54
244.174	3.6
244.551	3.65
244.927	3.31
245.303	3.33
245.679	3.59
246.056	3.69
246.432	3.57
246.808	3.55
247.184	3.43
247.56	3.1
247.936	3.5
248.312	3.76
248.688	3.98
249.064	3.96
249.44	3.96
249.815	3.96
250.191	4.17
250.567	4.07
250.943	3.89
251.318	3.91
251.694	3.92
252.069	3.75
252.445	3.7
252.82	3.84
253.196	3.53
253.571	3.31
253.947	3.26
254.322	3.1
254.697	2.82
255.073	2.77
255.448	2.85
255.823	2.73
256.198	2.67
256.573	2.72
256.948	2.86
257.323	3.06
257.698	3.03
258.073	3.04
258.448	2.96
258.823	3.03
259.198	2.88
259.573	2.9
259.948	2.88
260.322	2.83
260.697	2.83
261.072	2.96
261.446	2.98
261.821	2.96
262.195	3.02
262.57	3.07
262.944	3.09
263.319	3.26
263.693	3.29
264.067	3.29
264.442	3.32
264.816	3.18
265.19	3.01
265.564	3.05
265.938	2.79
266.313	2.79
266.687	2.78
267.061	2.9
267.435	3.15
267.809	3.26
268.183	3.47
268.556	3.45
268.93	3.46
269.304	3.6
269.678	3.59
270.051	3.5
270.425	3.53
270.799	3.53
271.172	3.56
271.546	3.59
271.919	3.65
272.293	3.66
272.666	3.68
273.04	3.78
273.413	3.73
273.787	3.95
274.16	4.04
274.533	4.17
274.906	4.18
275.279	4.01
275.653	3.83
276.026	3.88
276.399	3.82
276.772	3.79
277.145	3.56
277.518	3.63
277.891	3.76
278.263	3.73
278.636	3.74
279.009	3.77
279.382	3.71
279.755	3.67
280.127	3.8
280.5	3.82
280.872	3.73
281.245	3.76
281.617	3.82
281.99	3.79
282.362	3.82
282.735	3.68
283.107	3.76
283.479	3.87
283.852	3.78
284.224	3.97
284.596	3.94
284.968	4.08
285.34	4.17
285.713	4.19
286.085	4.31
286.457	4.47
286.829	4.42
287.201	4.31
287.572	4.33
287.944	4.29
288.316	4.24
288.688	4.25
289.06	4.17
289.431	4.06
289.803	4.13
290.175	4.06
290.546	4.26
290.918	4.2
291.289	4.26
291.661	4.38
292.032	4.35
292.403	4.36
292.775	4.39
293.146	4.16
293.517	4.11
293.889	4.14
294.26	3.94
294.631	3.95
295.002	3.95
295.373	3.96
295.744	3.98
296.115	4.09
296.486	4.09
296.857	4.18
297.228	4.15
297.599	4.08
297.97	4.14
298.34	4.13
298.711	4.27
299.082	4.33
299.452	4.3
299.823	4.28
300.194	4.23
300.564	4.17
300.935	4.31
301.305	4.35
301.676	4.37
302.046	4.38
302.416	4.42
302.787	4.55
303.157	4.53
303.527	4.48
303.897	4.44
304.267	4.4
304.637	4.4
305.008	4.57
305.378	4.74
305.748	4.68
306.117	4.44
306.487	4.4
306.857	4.32
307.227	4.26
307.597	4.26
307.967	4.35
308.336	4.34
308.706	4.32
309.076	4.24
309.445	4.18
309.815	4.21
310.184	4.12
310.554	4.07
310.923	4.05
311.293	4.09
311.662	4.08
312.031	4.15
312.401	4.15
312.77	4.13
313.139	4.14
313.508	4.13
313.877	4.36
314.246	4.37
314.616	4.28
314.985	4.35
315.353	4.33
315.722	4.27
316.091	4.31
316.46	4.19
316.829	4.3
317.198	4.3
317.567	4.39
317.935	4.36
318.304	4.43
318.672	4.43
319.041	4.52
319.41	4.51
319.778	4.61
320.147	4.69
320.515	4.62
320.883	4.53
321.252	4.65
321.62	4.58
321.988	4.46
322.357	4.52
322.725	4.56
323.093	4.55
323.461	4.5
323.829	4.6
324.197	4.75
324.565	4.72
324.933	4.77
325.301	4.72
325.669	4.8
326.037	4.72
326.405	4.79
326.772	4.75
327.14	4.83
327.508	4.79
327.875	4.66
328.243	4.75
328.61	4.76
328.978	4.77
329.346	4.8
329.713	4.88
330.08	5.07
330.448	4.78
330.815	4.8
331.182	4.94
331.55	4.91
331.917	4.84
332.284	4.9
332.651	4.88
333.018	4.82
333.385	4.78
333.752	4.82
334.119	4.76
334.486	4.64
334.853	4.64
335.22	4.64
335.587	4.69
335.954	4.67
336.32	4.62
336.687	4.55
337.054	4.53
337.42	4.48
337.787	4.48
338.153	4.71
338.52	4.84
338.886	4.73
339.253	4.61
339.619	4.6
339.986	4.66
340.352	4.64
340.718	4.7
341.084	4.74
341.451	4.81
341.817	4.77
342.183	4.77
342.549	4.64
342.915	4.68
343.281	4.61
343.647	4.59
344.013	4.54
344.379	4.5
344.745	4.51
345.11	4.56
345.476	4.52
345.842	4.47
346.208	4.39
346.573	4.45
346.939	4.55
347.304	4.59
347.67	4.53
348.035	4.53
348.401	4.55
348.766	4.58
349.132	4.58
349.497	4.59
349.862	4.74
350.228	4.78
350.593	4.61
350.958	4.68
351.323	4.72
351.688	4.83
352.053	4.92
352.418	4.99
352.783	4.94
353.148	4.88
353.513	4.93
353.878	4.9
354.243	4.95
354.608	4.97
354.972	4.94
355.337	4.91
355.702	4.98
356.066	5.01
356.431	5.03
356.795	5.01
357.16	5.04
357.524	4.91
357.889	4.96
358.253	5.06
358.618	5.11
358.982	5.04
359.346	4.96
359.71	4.9
360.075	4.78
360.439	4.8
360.803	4.8
361.167	4.77
361.531	4.8
361.895	4.77
362.259	4.74
362.623	4.77
362.987	4.79
363.351	4.76
363.714	4.76
364.078	4.73
364.442	4.69
364.806	4.73
365.169	4.74
365.533	4.72
365.896	4.67
366.26	4.58
366.623	4.62
366.987	4.6
367.35	4.62
367.714	4.75
368.077	4.75
368.44	4.75
368.803	4.74
369.167	4.69
369.53	4.69
369.893	4.67
370.256	4.71
370.619	4.74
370.982	4.64
371.345	4.61
371.708	4.63
372.071	4.63
372.434	4.62
372.797	4.67
373.159	4.62
373.522	4.63
373.885	4.69
374.247	4.7
374.61	4.75
374.973	4.72
375.335	4.66
375.698	4.63
376.06	4.6
376.423	4.61
376.785	4.62
377.147	4.69
377.51	4.75
377.872	4.77
378.234	4.72
378.596	4.78
378.958	4.8
379.321	4.78
379.683	4.74
380.045	4.73
380.407	4.72
380.769	4.72
381.13	4.73
381.492	4.73
381.854	4.72
382.216	4.7
382.578	4.74
382.939	4.73
383.301	4.72
383.663	4.72
384.024	4.71
384.386	4.76
384.747	4.69
385.109	4.68
385.47	4.61
385.832	4.63
386.193	4.64
386.554	4.64
386.916	4.63
387.277	4.67
387.638	4.68
387.999	4.67
388.36	4.72
388.721	4.75
389.082	4.73
389.443	4.71
389.804	4.72
390.165	4.72
390.526	4.74
390.887	4.76
391.248	4.79
391.609	4.84
391.969	4.82
392.33	4.8
392.691	4.79
393.051	4.77
393.412	4.78
393.772	4.74
394.133	4.72
394.493	4.72
394.854	4.74
395.214	4.74
395.574	4.74
395.935	4.74
396.295	4.75
396.655	4.76
397.015	4.78
397.376	4.78
397.736	4.77
398.096	4.75
398.456	4.79
398.816	4.79
399.176	4.73
399.535	4.72
399.895	4.73
400.255	4.7
400.615	4.75
400.975	4.72
401.334	4.72
401.694	4.73
402.054	4.75
402.413	4.75
402.773	4.71
403.132	4.7
403.492	4.69
403.851	4.66
404.211	4.69
404.57	4.66
404.929	4.65
405.288	4.65
405.648	4.65
406.007	4.64
406.366	4.64
406.725	4.66
407.084	4.65
407.443	4.68
407.802	4.7
408.161	4.67
408.52	4.67
408.879	4.7
409.238	4.72
409.596	4.69
409.955	4.68
410.314	4.73
410.673	4.72
411.031	4.69
411.39	4.69
411.748	4.67
412.107	4.72
412.465	4.71
412.824	4.71
413.182	4.72
413.54	4.73
413.899	4.73
414.257	4.73
414.615	4.73
414.974	4.72
415.332	4.72
415.69	4.72
416.048	4.72
416.406	4.73
416.764	4.72
417.122	4.75
417.48	4.72
417.838	4.7
418.195	4.69
418.553	4.71
418.911	4.71
419.269	4.72
419.626	4.71
419.984	4.72
420.342	4.72
420.699	4.72
421.057	4.72
421.414	4.7
421.772	4.7
422.129	4.71
422.486	4.71
422.844	4.7
423.201	4.72
423.558	4.71
423.915	4.71
424.273	4.7
424.63	4.69
424.987	4.7
425.344	4.72
425.701	4.73
426.058	4.74
426.415	4.73
426.772	4.72
427.128	4.71
427.485	4.71
427.842	4.72
428.199	4.72
428.555	4.73
428.912	4.75
429.269	4.75
429.625	4.73
429.982	4.74
430.338	4.76
430.695	4.75
431.051	4.77
431.407	4.76
431.764	4.76
432.12	4.74
432.476	4.74
432.832	4.73
433.189	4.74
433.545	4.73
433.901	4.74
434.257	4.75
434.613	4.76
434.969	4.76
435.325	4.75
435.681	4.72
436.036	4.7
436.392	4.69
436.748	4.69
437.104	4.69
437.459	4.68
437.815	4.67
438.171	4.65
438.526	4.66
438.882	4.66
439.237	4.68
439.593	4.68
439.948	4.71
440.304	4.71
440.659	4.71
441.014	4.71
441.369	4.69
441.725	4.68
442.08	4.67
442.435	4.67
442.79	4.7
443.145	4.7
443.5	4.71
443.855	4.72
444.21	4.73
444.565	4.74
444.92	4.76
445.275	4.74
445.629	4.76
445.984	4.75
446.339	4.75
446.693	4.75
447.048	4.75
447.403	4.74
447.757	4.72
448.112	4.72
448.466	4.72
448.82	4.72
449.175	4.72
449.529	4.73
449.883	4.73
450.238	4.7
450.592	4.72
450.946	4.7
451.3	4.7
451.654	4.68
452.008	4.68
452.362	4.65
452.716	4.67
453.07	4.67
453.424	4.67
453.778	4.65
454.132	4.63
454.486	4.63
454.839	4.61
455.193	4.62
455.547	4.61
455.9	4.63
456.254	4.66
456.607	4.66
456.961	4.64
457.314	4.65
457.668	4.64
458.021	4.65
458.375	4.67
458.728	4.66
459.081	4.65
459.434	4.65
459.787	4.67
460.141	4.66
460.494	4.66
460.847	4.67
461.2	4.67
461.553	4.68
461.906	4.67
462.259	4.69
462.611	4.69
462.964	4.69
463.317	4.68
463.67	4.67
464.022	4.66
464.375	4.66
464.728	4.65
465.08	4.67
465.433	4.65
465.785	4.65
466.138	4.66
466.49	4.69
466.843	4.7
467.195	4.71
467.547	4.73
467.899	4.72
468.252	4.72
468.604	4.75
468.956	4.74
469.308	4.74
469.66	4.71
470.012	4.74
470.364	4.74
470.716	4.73
471.068	4.71
471.42	4.71
471.772	4.73
472.123	4.75
472.475	4.74
472.827	4.75
473.178	4.75
473.53	4.74
473.882	4.74
474.233	4.73
474.585	4.69
474.936	4.68
475.288	4.68
475.639	4.67
475.99	4.64
476.342	4.66
476.693	4.68
477.044	4.7
477.395	4.7
477.746	4.71
478.097	4.73
478.448	4.74
478.8	4.75
479.15	4.76
479.501	4.74
479.852	4.75
480.203	4.74
480.554	4.76
480.905	4.77
481.255	4.77
481.606	4.77
481.957	4.79
482.307	4.79
482.658	4.8
483.009	4.81
483.359	4.82
483.709	4.82
484.06	4.83
484.41	4.83
484.761	4.84
485.111	4.84
485.461	4.84
485.811	4.84
486.162	4.84
486.512	4.84
486.862	4.84
487.212	4.85
487.562	4.85
487.912	4.86
488.262	4.86
488.612	4.86
488.961	4.86
489.311	4.86
489.661	4.87
490.011	4.87
490.36	4.86
490.71	4.85
491.06	4.85
491.409	4.84
491.759	4.83
492.108	4.84
492.458	4.82
492.807	4.82
493.157	4.82
493.506	4.82
493.855	4.82
494.204	4.82
494.554	4.81
494.903	4.79
495.252	4.79
495.601	4.78
495.95	4.78
496.299	4.79
496.648	4.76
496.997	4.75
497.346	4.75
497.695	4.77
498.043	4.78
498.392	4.77
498.741	4.8
499.09	4.82
499.438	4.82
499.787	4.82
500.135	4.83
500.484	4.86
500.832	4.86
501.181	4.88
501.529	4.9
501.878	4.9
502.226	4.92
502.574	4.93
502.923	4.95
503.271	4.95
503.619	4.96
503.967	4.99
504.315	4.98
504.663	4.98
505.011	4.99
505.359	4.99
505.707	5
506.055	4.99
506.403	5.01
506.751	4.99
507.098	5.02
507.446	5.01
507.794	4.99
508.141	5.01
508.489	5
508.837	5
509.184	5.01
509.531	5.01
509.879	5.02
510.226	5.02
510.574	5.02
510.921	5.02
511.268	5.01
511.616	5.02
511.963	5.03
512.31	5.01
512.657	5.02
513.004	5.02
513.351	5.05
513.698	5.01
514.045	5.01
514.392	4.99
514.739	4.99
515.086	5
515.432	5
515.779	5.01
516.126	5.05
516.473	5.07
516.819	5.05
517.166	5.04
517.512	5.03
517.859	5.05
518.205	5.05
518.552	5.07
518.898	5.09
519.245	5.09
519.591	5.09
519.937	5.06
520.283	5.06
520.629	5.05
520.976	5.08
521.322	5.1
521.668	5.12
522.014	5.13
522.36	5.13
522.706	5.14
523.052	5.15
523.398	5.13
523.743	5.12
524.089	5.15
524.435	5.15
524.781	5.15
525.126	5.15
525.472	5.15
525.817	5.15
526.163	5.15
526.509	5.16
526.854	5.17
527.199	5.18
527.545	5.19
527.89	5.19
528.235	5.2
528.581	5.21
528.926	5.21
529.271	5.22
529.616	5.22
529.961	5.21
530.306	5.21
530.651	5.21
530.996	5.21
531.341	5.21
531.686	5.21
532.031	5.23
532.376	5.23
532.721	5.25
533.065	5.26
533.41	5.26
533.755	5.26
534.099	5.26
534.444	5.27
534.788	5.28
535.133	5.29
535.477	5.28
535.822	5.26
536.166	5.27
536.51	5.26
536.855	5.27
537.199	5.29
537.543	5.29
537.887	5.28
538.231	5.28
538.576	5.28
538.92	5.29
539.264	5.27
539.608	5.28
539.951	5.27
540.295	5.25
540.639	5.27
540.983	5.27
541.327	5.25
541.671	5.24
542.014	5.22
542.358	5.22
542.701	5.23
543.045	5.25
543.389	5.23
543.732	5.23
544.075	5.22
544.419	5.22
544.762	5.22
545.105	5.23
545.449	5.22
545.792	5.21
546.135	5.21
546.478	5.2
546.821	5.17
547.165	5.16
547.508	5.18
547.851	5.15
548.194	5.16
548.536	5.18
548.879	5.19
549.222	5.22
549.565	5.2
549.908	5.2
550.25	5.19
550.593	5.23
550.936	5.21
551.278	5.2
551.621	5.19
551.963	5.2
552.306	5.2
552.648	5.21
552.991	5.27
553.333	5.27
553.675	5.29
554.017	5.34
554.36	5.34
554.702	5.36
555.044	5.35
555.386	5.33
555.728	5.33
556.07	5.34
556.412	5.31
556.754	5.32
557.096	5.32
557.438	5.34
557.78	5.34
558.121	5.39
558.463	5.41
558.805	5.42
559.147	5.42
559.488	5.43
559.83	5.43
560.171	5.41
560.513	5.41
560.854	5.41
561.196	5.36
561.537	5.37
561.878	5.39
562.22	5.4
562.561	5.4
562.902	5.38
563.243	5.38
563.584	5.37
563.925	5.38
564.266	5.35
564.607	5.32
564.948	5.29
565.289	5.26
565.63	5.26
565.971	5.23
566.312	5.24
566.653	5.23
566.993	5.22
567.334	5.2
567.675	5.21
568.015	5.22
568.356	5.25
568.696	5.25
569.037	5.22
569.377	5.23
569.718	5.26
570.058	5.25
570.398	5.25
570.739	5.26
571.079	5.24
571.419	5.27
571.759	5.27
572.099	5.28
572.439	5.29
572.779	5.29
573.119	5.34
573.459	5.34
573.799	5.38
574.139	5.39
574.479	5.38
574.819	5.37
575.158	5.35
575.498	5.33
575.838	5.32
576.177	5.34
576.517	5.36
576.856	5.37
577.196	5.4
577.535	5.4
577.875	5.39
578.214	5.4
578.553	5.38
578.893	5.4
579.232	5.38
579.571	5.38
579.91	5.37
580.25	5.36
580.589	5.34
580.928	5.35
581.267	5.35
581.606	5.36
581.945	5.3
582.283	5.31
582.622	5.3
582.961	5.33
583.3	5.32
583.639	5.29
583.977	5.26
584.316	5.28
584.654	5.29
584.993	5.31
585.332	5.31
585.67	5.34
586.008	5.36
586.347	5.33
586.685	5.34
587.024	5.31
587.362	5.3
587.7	5.29
588.038	5.26
588.376	5.28
588.715	5.29
589.053	5.36
589.391	5.39
589.729	5.4
590.067	5.39
590.404	5.37
590.742	5.39
591.08	5.36
591.418	5.34
591.756	5.36
592.093	5.35
592.431	5.32
592.769	5.33
593.106	5.28
593.444	5.3
593.781	5.29
594.119	5.3
594.456	5.25
594.793	5.27
595.131	5.26
595.468	5.25
595.805	5.25
596.143	5.26
596.48	5.24
596.817	5.25
597.154	5.25
597.491	5.3
597.828	5.28
598.165	5.29
598.502	5.26
598.839	5.26
599.176	5.29
599.512	5.31
599.849	5.34
600.186	5.36
600.523	5.41
600.859	5.48
601.196	5.51
601.532	5.57
601.869	5.56
602.205	5.55
602.542	5.54
602.878	5.54
603.215	5.52
603.551	5.52
603.887	5.54
604.223	5.54
604.56	5.52
604.896	5.53
605.232	5.55
605.568	5.59
605.904	5.57
606.24	5.56
606.576	5.57
606.912	5.58
607.248	5.58
607.583	5.59
607.919	5.54
608.255	5.53
608.591	5.53
608.926	5.54
609.262	5.56
609.597	5.59
609.933	5.58
610.268	5.59
610.604	5.62
610.939	5.6
611.275	5.58
611.61	5.6
611.945	5.61
612.281	5.6
612.616	5.57
612.951	5.6
613.286	5.57
613.621	5.59
613.956	5.53
614.291	5.57
614.626	5.53
614.961	5.52
615.296	5.51
615.631	5.52
615.966	5.51
616.3	5.47
616.635	5.47
616.97	5.5
617.304	5.5
617.639	5.5
617.973	5.5
618.308	5.47
618.642	5.44
618.977	5.41
619.311	5.43
619.646	5.43
619.98	5.39
620.314	5.44
620.648	5.44
620.983	5.49
621.317	5.49
621.651	5.56
621.985	5.58
622.319	5.59
622.653	5.6
622.987	5.64
623.321	5.68
623.655	5.64
623.988	5.68
624.322	5.64
624.656	5.64
624.99	5.66
625.323	5.7
625.657	5.74
625.99	5.72
626.324	5.69
626.657	5.76
626.991	5.77
627.324	5.71
627.658	5.71
627.991	5.68
628.324	5.67
628.657	5.63
628.991	5.63
629.324	5.63
629.657	5.63
629.99	5.63
630.323	5.61
630.656	5.7
630.989	5.66
631.322	5.69
631.655	5.69
631.987	5.65
632.32	5.64
632.653	5.61
632.986	5.66
633.318	5.68
633.651	5.67
633.984	5.7
634.316	5.77
634.649	5.78
634.981	5.79
635.313	5.73
635.646	5.69
635.978	5.67
636.31	5.66
636.643	5.62
636.975	5.6
637.307	5.59
637.639	5.54
637.971	5.49
638.303	5.5
638.635	5.47
638.967	5.48
639.299	5.55
639.631	5.53
639.963	5.43
640.295	5.41
640.626	5.39
640.958	5.37
641.29	5.4
641.621	5.37
641.953	5.42
642.285	5.51
642.616	5.55
642.948	5.57
643.279	5.58
643.61	5.62
643.942	5.58
644.273	5.56
644.604	5.49
644.936	5.54
645.267	5.55
645.598	5.53
645.929	5.55
646.26	5.56
646.591	5.6
646.922	5.62
647.253	5.61
647.584	5.59
647.915	5.58
648.245	5.47
648.576	5.52
648.907	5.5
649.238	5.48
649.568	5.48
649.899	5.45
650.229	5.45
650.56	5.52
650.89	5.58
651.221	5.67
651.551	5.73
651.882	5.74
652.212	5.73
652.542	5.73
652.872	5.65
653.203	5.64
653.533	5.63
653.863	5.7
654.193	5.73
654.523	5.69
654.853	5.69
655.183	5.7
655.513	5.67
655.843	5.69
656.172	5.72
656.502	5.75
656.832	5.75
657.162	5.74
657.491	5.63
657.821	5.67
658.15	5.6
658.48	5.58
658.809	5.55
659.139	5.56
659.468	5.55
659.798	5.58
660.127	5.52
660.456	5.54
660.785	5.57
661.115	5.56
661.444	5.58
661.773	5.57
662.102	5.59
662.431	5.65
662.76	5.58
663.089	5.6
663.418	5.64
663.747	5.62
664.076	5.68
664.404	5.7
664.733	5.72
665.062	5.72
665.39	5.74
665.719	5.76
666.048	5.73
666.376	5.8
666.705	5.83
667.033	5.84
667.362	5.86
667.69	5.77
668.018	5.8
668.347	5.85
668.675	5.92
669.003	6.01
669.331	6.04
669.659	6.08
669.987	6.05
670.315	6.03
670.643	6.04
670.971	5.92
671.299	5.95
671.627	5.87
671.955	5.9
672.283	5.85
672.61	5.83
672.938	5.84
673.266	5.87
673.593	5.99
673.921	6.04
674.249	6.07
674.576	6.09
674.904	6.03
675.231	6.02
675.558	5.99
675.886	5.96
676.213	5.96
676.54	6.01
676.867	6.01
677.195	5.98
