Data from BA56852_Reflection_00013.txt Node
Date: Mon Nov 18 15:23:21 EST 2019
User: vgr7
Spectrometer: USB2G7710
Scans to average: 3
Trigger mode: 4
Integration Time (sec): 2.000000E-2
Electric dark correction enabled: true
Boxcar width: 10
XAxis mode: Wavelengths
Number of Pixels in Spectrum: 2048
>>>>>Begin Spectral Data<<<<<
177.721	-0.59
178.105	-24.42
178.488	-38.31
178.871	-109.3
179.254	-89.14
179.636	7.79
180.019	14.69
180.402	80.65
180.785	-77.34
181.168	28.12
181.55	49.41
181.933	83.38
182.316	78.99
182.698	102.53
183.081	86.39
183.463	86.8
183.846	114.19
184.228	141.04
184.611	145.04
184.993	137.31
185.376	97.52
185.758	142.19
186.14	116.87
186.522	92.8
186.904	81.16
187.287	102.13
187.669	85.01
188.051	94.33
188.433	83.72
188.815	101.96
189.197	87.85
189.579	80.03
189.961	104.71
190.342	145.33
190.724	212.4
191.106	233.77
191.488	237.89
191.869	234.14
192.251	268.09
192.633	155.88
193.014	167.14
193.396	272.37
193.777	119.24
194.159	126.91
194.54	185.45
194.922	-11268.42
195.303	-2156.88
195.684	-534.05
196.065	-212.2
196.447	-240.98
196.828	-241.57
197.209	-210.42
197.59	-262.12
197.971	-135.64
198.352	-80.34
198.733	-61.05
199.114	-24.94
199.495	-9.68
199.876	-36.02
200.257	-48.97
200.638	-76.91
201.018	-89.83
201.399	-73.76
201.78	-50.21
202.16	-80.39
202.541	-103.33
202.922	-134.76
203.302	-155.12
203.683	-155.97
204.063	-175.02
204.444	-135
204.824	-99.9
205.204	-70.57
205.585	-71.61
205.965	-80.1
206.345	-135.5
206.725	-263.41
207.106	-419.73
207.486	-322.94
207.866	-279.48
208.246	-226.76
208.626	-286.68
209.006	-210.76
209.386	-612.87
209.766	-932.64
210.145	447.98
210.525	1140.46
210.905	1650.56
211.285	-100.99
211.664	-109.54
212.044	-73.37
212.424	-65.98
212.803	-109.94
213.183	-99.07
213.562	-117.22
213.942	-171.05
214.321	-58.59
214.701	-12.37
215.08	-30.21
215.459	10.21
215.838	19.22
216.218	-60.79
216.597	-32.82
216.976	-40.69
217.355	-34.42
217.734	-12.05
218.113	-22.96
218.492	-38.12
218.871	-36.55
219.25	-27.72
219.629	-30.02
220.008	-61.86
220.387	-64.07
220.766	-53.17
221.144	-76.41
221.523	-67.92
221.902	-51.82
222.28	-44.74
222.659	-36.91
223.037	-27.04
223.416	-36.94
223.794	-37.49
224.173	-35.59
224.551	-37.12
224.929	-32.54
225.308	-28.66
225.686	-29.31
226.064	-22.57
226.442	-18.46
226.821	-12.28
227.199	-12.18
227.577	-12.51
227.955	-9.28
228.333	-7.28
228.711	-8.63
229.089	-4.07
229.467	-3.07
229.845	-4.51
230.222	-3.38
230.6	-4.4
230.978	-4.17
231.356	-1.51
231.733	0.62
232.111	3.08
232.488	4.53
232.866	2.26
233.243	4.88
233.621	4.1
233.998	4.59
234.376	4.04
234.753	2.9
235.13	2.35
235.508	4.19
235.885	2.77
236.262	2.13
236.639	3.33
237.016	2.45
237.393	3.71
237.77	4.59
238.147	3.96
238.524	3.78
238.901	3.71
239.278	3.53
239.655	2.8
240.032	2.36
240.409	2.48
240.785	3.82
241.162	3.98
241.539	4.14
241.915	4.54
242.292	4.47
242.668	4.6
243.045	4.53
243.421	4.04
243.798	4.17
244.174	4.27
244.551	4.2
244.927	4.24
245.303	4.09
245.679	3.94
246.056	3.89
246.432	3.97
246.808	4.07
247.184	3.89
247.56	3.96
247.936	3.76
248.312	3.8
248.688	3.49
249.064	3.09
249.44	3.22
249.815	3.22
250.191	3.23
250.567	3.27
250.943	3.29
251.318	3.43
251.694	3.38
252.069	3.03
252.445	2.99
252.82	2.86
253.196	2.99
253.571	2.82
253.947	2.81
254.322	2.84
254.697	2.81
255.073	2.62
255.448	2.65
255.823	2.82
256.198	2.99
256.573	3.15
256.948	3.6
257.323	3.76
257.698	3.6
258.073	3.51
258.448	3.38
258.823	3.47
259.198	3.54
259.573	3.48
259.948	3.69
260.322	3.64
260.697	3.72
261.072	3.56
261.446	3.61
261.821	3.67
262.195	3.88
262.57	3.79
262.944	3.9
263.319	3.8
263.693	3.73
264.067	3.74
264.442	3.74
264.816	3.56
265.19	3.3
265.564	3.32
265.938	3.3
266.313	3.28
266.687	3.29
267.061	3.24
267.435	3.25
267.809	3.2
268.183	3.08
268.556	3.02
268.93	3.1
269.304	3.08
269.678	3.1
270.051	2.95
270.425	3.01
270.799	3.09
271.172	3.21
271.546	3.21
271.919	3.16
272.293	3.23
272.666	3.3
273.04	3.4
273.413	3.4
273.787	3.47
274.16	3.61
274.533	3.42
274.906	3.28
275.279	3.39
275.653	3.37
276.026	3.4
276.399	3.57
276.772	3.54
277.145	3.57
277.518	3.63
277.891	3.34
278.263	3.21
278.636	3.18
279.009	3.3
279.382	3.53
279.755	3.62
280.127	3.56
280.5	3.64
280.872	3.5
281.245	3.42
281.617	3.51
281.99	3.54
282.362	3.71
282.735	3.75
283.107	3.7
283.479	3.71
283.852	3.84
284.224	3.68
284.596	3.58
284.968	3.66
285.34	3.66
285.713	3.85
286.085	4.05
286.457	4.11
286.829	4.04
287.201	4
287.572	3.9
287.944	3.87
288.316	3.79
288.688	3.82
289.06	3.98
289.431	3.91
289.803	3.91
290.175	3.94
290.546	4.06
290.918	4.03
291.289	4.04
291.661	4.04
292.032	4.17
292.403	4.33
292.775	4.36
293.146	4.26
293.517	4.32
293.889	4.11
294.26	4.09
294.631	4.15
295.002	4.12
295.373	4.14
295.744	4.13
296.115	4.25
296.486	4.17
296.857	4.12
297.228	4.24
297.599	4.24
297.97	4.24
298.34	4.24
298.711	4.28
299.082	4.26
299.452	4.27
299.823	4.39
300.194	4.42
300.564	4.43
300.935	4.52
301.305	4.35
301.676	4.5
302.046	4.61
302.416	4.69
302.787	4.74
303.157	4.75
303.527	4.84
303.897	4.78
304.267	5.12
304.637	5.09
305.008	5.01
305.378	5
305.748	5.05
306.117	5.09
306.487	5.19
306.857	5.27
307.227	5.39
307.597	5.33
307.967	5.48
308.336	5.57
308.706	5.57
309.076	5.88
309.445	6.06
309.815	6.07
310.184	5.92
310.554	5.88
310.923	5.94
311.293	6.03
311.662	6.01
312.031	5.97
312.401	6.2
312.77	6.46
313.139	6.55
313.508	6.54
313.877	6.57
314.246	6.65
314.616	6.68
314.985	6.66
315.353	6.69
315.722	6.71
316.091	6.78
316.46	6.83
316.829	6.77
317.198	6.83
317.567	6.84
317.935	7.16
318.304	7.53
318.672	7.65
319.041	7.8
319.41	8.1
319.778	8.18
320.147	8.21
320.515	8.19
320.883	8.42
321.252	8.71
321.62	8.86
321.988	9.02
322.357	9.28
322.725	9.41
323.093	9.7
323.461	9.75
323.829	9.87
324.197	10.15
324.565	10.27
324.933	10.36
325.301	10.45
325.669	10.45
326.037	10.39
326.405	10.49
326.772	10.51
327.14	10.63
327.508	10.74
327.875	10.75
328.243	10.83
328.61	10.8
328.978	10.89
329.346	11.04
329.713	11.12
330.08	11.23
330.448	11.3
330.815	11.22
331.182	11.24
331.55	11.25
331.917	11.29
332.284	11.51
332.651	11.55
333.018	11.61
333.385	11.74
333.752	11.85
334.119	12.04
334.486	12.11
334.853	12.09
335.22	12.15
335.587	12.38
335.954	12.49
336.32	12.57
336.687	12.72
337.054	12.84
337.42	13.04
337.787	13.16
338.153	13.26
338.52	13.53
338.886	13.69
339.253	13.78
339.619	13.85
339.986	13.88
340.352	13.99
340.718	14.13
341.084	14.19
341.451	14.28
341.817	14.3
342.183	14.38
342.549	14.54
342.915	14.68
343.281	14.75
343.647	14.71
344.013	14.88
344.379	14.86
344.745	14.89
345.11	14.85
345.476	14.97
345.842	15.07
346.208	14.93
346.573	14.93
346.939	15.05
347.304	15.1
347.67	15.12
348.035	15.13
348.401	15.18
348.766	15.29
349.132	15.37
349.497	15.37
349.862	15.44
350.228	15.48
350.593	15.52
350.958	15.44
351.323	15.6
351.688	15.65
352.053	15.69
352.418	15.79
352.783	15.76
353.148	15.73
353.513	15.77
353.878	15.86
354.243	15.94
354.608	15.95
354.972	16.02
355.337	15.98
355.702	16.08
356.066	16.19
356.431	16.17
356.795	16.1
357.16	16.16
357.524	16.23
357.889	16.14
358.253	16.17
358.618	16.24
358.982	16.2
359.346	16.11
359.71	16.05
360.075	16.03
360.439	16.09
360.803	16
361.167	15.95
361.531	15.88
361.895	15.8
362.259	15.8
362.623	15.74
362.987	15.71
363.351	15.67
363.714	15.58
364.078	15.52
364.442	15.52
364.806	15.54
365.169	15.47
365.533	15.43
365.896	15.31
366.26	15.19
366.623	15.16
366.987	15.16
367.35	15.12
367.714	15.06
368.077	14.99
368.44	15.07
368.803	14.94
369.167	14.95
369.53	14.94
369.893	14.82
370.256	14.71
370.619	14.71
370.982	14.55
371.345	14.43
371.708	14.34
372.071	14.27
372.434	14.1
372.797	13.97
373.159	13.94
373.522	13.86
373.885	13.79
374.247	13.67
374.61	13.51
374.973	13.4
375.335	13.21
375.698	13.12
376.06	12.94
376.423	12.91
376.785	12.8
377.147	12.74
377.51	12.64
377.872	12.7
378.234	12.58
378.596	12.49
378.958	12.45
379.321	12.34
379.683	12.24
380.045	12.19
380.407	12.1
380.769	12
381.13	11.93
381.492	11.86
381.854	11.81
382.216	11.76
382.578	11.73
382.939	11.68
383.301	11.59
383.663	11.48
384.024	11.45
384.386	11.3
384.747	11.24
385.109	11.22
385.47	11.01
385.832	10.88
386.193	10.84
386.554	10.73
386.916	10.67
387.277	10.58
387.638	10.49
387.999	10.41
388.36	10.31
388.721	10.22
389.082	10.18
389.443	10.08
389.804	10.03
390.165	9.91
390.526	9.82
390.887	9.73
391.248	9.7
391.609	9.59
391.969	9.56
392.33	9.45
392.691	9.35
393.051	9.29
393.412	9.27
393.772	9.18
394.133	9.13
394.493	9.07
394.854	9
395.214	8.89
395.574	8.84
395.935	8.74
396.295	8.68
396.655	8.59
397.015	8.52
397.376	8.39
397.736	8.32
398.096	8.26
398.456	8.16
398.816	8.06
399.176	7.95
399.535	7.88
399.895	7.83
400.255	7.76
400.615	7.68
400.975	7.54
401.334	7.47
401.694	7.4
402.054	7.31
402.413	7.25
402.773	7.22
403.132	7.13
403.492	7.11
403.851	7.06
404.211	6.97
404.57	6.92
404.929	6.91
405.288	6.88
405.648	6.81
406.007	6.78
406.366	6.77
406.725	6.76
407.084	6.7
407.443	6.65
407.802	6.65
408.161	6.61
408.52	6.62
408.879	6.58
409.238	6.59
409.596	6.55
409.955	6.53
410.314	6.48
410.673	6.47
411.031	6.44
411.39	6.42
411.748	6.4
412.107	6.36
412.465	6.31
412.824	6.25
413.182	6.21
413.54	6.19
413.899	6.15
414.257	6.08
414.615	6.03
414.974	6.01
415.332	5.92
415.69	5.88
416.048	5.81
416.406	5.78
416.764	5.71
417.122	5.69
417.48	5.62
417.838	5.61
418.195	5.57
418.553	5.54
418.911	5.48
419.269	5.46
419.626	5.41
419.984	5.37
420.342	5.34
420.699	5.31
421.057	5.27
421.414	5.23
421.772	5.22
422.129	5.21
422.486	5.18
422.844	5.18
423.201	5.15
423.558	5.13
423.915	5.09
424.273	5.06
424.63	5.04
424.987	5.03
425.344	5
425.701	4.96
426.058	4.92
426.415	4.91
426.772	4.86
427.128	4.85
427.485	4.85
427.842	4.83
428.199	4.82
428.555	4.81
428.912	4.8
429.269	4.77
429.625	4.74
429.982	4.7
430.338	4.68
430.695	4.68
431.051	4.66
431.407	4.68
431.764	4.65
432.12	4.63
432.476	4.59
432.832	4.58
433.189	4.59
433.545	4.59
433.901	4.59
434.257	4.59
434.613	4.6
434.969	4.58
435.325	4.56
435.681	4.56
436.036	4.55
436.392	4.54
436.748	4.53
437.104	4.52
437.459	4.53
437.815	4.51
438.171	4.5
438.526	4.51
438.882	4.5
439.237	4.52
439.593	4.54
439.948	4.53
440.304	4.53
440.659	4.52
441.014	4.52
441.369	4.47
441.725	4.46
442.08	4.44
442.435	4.44
442.79	4.43
443.145	4.41
443.5	4.39
443.855	4.38
444.21	4.37
444.565	4.36
444.92	4.33
445.275	4.3
445.629	4.29
445.984	4.27
446.339	4.24
446.693	4.2
447.048	4.19
447.403	4.19
447.757	4.17
448.112	4.16
448.466	4.13
448.82	4.14
449.175	4.12
449.529	4.1
449.883	4.08
450.238	4.06
450.592	4.05
450.946	4.04
451.3	4.01
451.654	3.98
452.008	3.98
452.362	3.98
452.716	3.99
453.07	3.99
453.424	4
453.778	4.01
454.132	4.01
454.486	3.98
454.839	3.95
455.193	3.95
455.547	3.93
455.9	3.96
456.254	3.96
456.607	3.98
456.961	3.97
457.314	3.98
457.668	3.99
458.021	3.98
458.375	3.99
458.728	4.01
459.081	4.03
459.434	4.01
459.787	4.01
460.141	4.01
460.494	4.01
460.847	4
461.2	4
461.553	4.01
461.906	4.03
462.259	4.07
462.611	4.07
462.964	4.08
463.317	4.06
463.67	4.08
464.022	4.09
464.375	4.1
464.728	4.12
465.08	4.13
465.433	4.15
465.785	4.17
466.138	4.19
466.49	4.22
466.843	4.23
467.195	4.26
467.547	4.29
467.899	4.31
468.252	4.3
468.604	4.33
468.956	4.32
469.308	4.34
469.66	4.35
470.012	4.38
470.364	4.41
470.716	4.42
471.068	4.44
471.42	4.45
471.772	4.49
472.123	4.5
472.475	4.56
472.827	4.57
473.178	4.58
473.53	4.58
473.882	4.59
474.233	4.59
474.585	4.57
474.936	4.57
475.288	4.56
475.639	4.59
475.99	4.6
476.342	4.62
476.693	4.61
477.044	4.62
477.395	4.61
477.746	4.6
478.097	4.59
478.448	4.57
478.8	4.54
479.15	4.5
479.501	4.51
479.852	4.49
480.203	4.49
480.554	4.48
480.905	4.47
481.255	4.47
481.606	4.46
481.957	4.47
482.307	4.47
482.658	4.46
483.009	4.46
483.359	4.45
483.709	4.45
484.06	4.45
484.41	4.47
484.761	4.47
485.111	4.47
485.461	4.48
485.811	4.48
486.162	4.49
486.512	4.51
486.862	4.5
487.212	4.5
487.562	4.51
487.912	4.51
488.262	4.52
488.612	4.53
488.961	4.55
489.311	4.55
489.661	4.56
490.011	4.58
490.36	4.59
490.71	4.61
491.06	4.63
491.409	4.63
491.759	4.63
492.108	4.64
492.458	4.66
492.807	4.67
493.157	4.7
493.506	4.73
493.855	4.76
494.204	4.81
494.554	4.84
494.903	4.86
495.252	4.92
495.601	4.96
495.95	4.99
496.299	5.02
496.648	5.08
496.997	5.12
497.346	5.18
497.695	5.22
498.043	5.28
498.392	5.33
498.741	5.38
499.09	5.42
499.438	5.49
499.787	5.56
500.135	5.62
500.484	5.69
500.832	5.74
501.181	5.82
501.529	5.86
501.878	5.94
502.226	6.03
502.574	6.1
502.923	6.18
503.271	6.29
503.619	6.39
503.967	6.51
504.315	6.62
504.663	6.7
505.011	6.79
505.359	6.88
505.707	7
506.055	7.11
506.403	7.25
506.751	7.35
507.098	7.46
507.446	7.6
507.794	7.7
508.141	7.83
508.489	7.93
508.837	8.08
509.184	8.2
509.531	8.33
509.879	8.46
510.226	8.61
510.574	8.71
510.921	8.83
511.268	8.93
511.616	9.06
511.963	9.23
512.31	9.4
512.657	9.57
513.004	9.76
513.351	9.94
513.698	10.12
514.045	10.32
514.392	10.54
514.739	10.74
515.086	10.94
515.432	11.15
515.779	11.37
516.126	11.57
516.473	11.77
516.819	11.97
517.166	12.16
517.512	12.36
517.859	12.58
518.205	12.8
518.552	13.01
518.898	13.22
519.245	13.41
519.591	13.59
519.937	13.76
520.283	13.97
520.629	14.22
520.976	14.47
521.322	14.74
521.668	15.02
522.014	15.31
522.36	15.59
522.706	15.91
523.052	16.23
523.398	16.62
523.743	16.97
524.089	17.36
524.435	17.74
524.781	18.07
525.126	18.4
525.472	18.68
525.817	18.97
526.163	19.24
526.509	19.48
526.854	19.75
527.199	20
527.545	20.23
527.89	20.46
528.235	20.69
528.581	20.92
528.926	21.15
529.271	21.39
529.616	21.63
529.961	21.88
530.306	22.16
530.651	22.39
530.996	22.67
531.341	22.95
531.686	23.24
532.031	23.55
532.376	23.86
532.721	24.19
533.065	24.5
533.41	24.84
533.755	25.22
534.099	25.55
534.444	25.91
534.788	26.25
535.133	26.59
535.477	26.95
535.822	27.32
536.166	27.73
536.51	28.15
536.855	28.58
537.199	29.02
537.543	29.46
537.887	29.95
538.231	30.39
538.576	30.85
538.92	31.25
539.264	31.67
539.608	32.07
539.951	32.45
540.295	32.83
540.639	33.18
540.983	33.48
541.327	33.79
541.671	34.14
542.014	34.44
542.358	34.76
542.701	35.06
543.045	35.34
543.389	35.62
543.732	35.92
544.075	36.24
544.419	36.51
544.762	36.78
545.105	37.08
545.449	37.44
545.792	37.76
546.135	38.11
546.478	38.47
546.821	38.82
547.165	39.21
547.508	39.54
547.851	39.88
548.194	40.26
548.536	40.65
548.879	40.95
549.222	41.27
549.565	41.6
549.908	41.94
550.25	42.31
550.593	42.63
550.936	42.94
551.278	43.26
551.621	43.59
551.963	43.95
552.306	44.26
552.648	44.55
552.991	44.87
553.333	45.19
553.675	45.44
554.017	45.66
554.36	45.82
554.702	46.12
555.044	46.39
555.386	46.61
555.728	46.88
556.07	47.15
556.412	47.43
556.754	47.67
557.096	47.91
557.438	48.2
557.78	48.43
558.121	48.66
558.463	48.9
558.805	49.11
559.147	49.3
559.488	49.45
559.83	49.68
560.171	49.82
560.513	50.07
560.854	50.2
561.196	50.39
561.537	50.66
561.878	50.77
562.22	50.93
562.561	51.1
562.902	51.21
563.243	51.39
563.584	51.53
563.925	51.67
564.266	51.83
564.607	51.92
564.948	52.08
565.289	52.23
565.63	52.39
565.971	52.52
566.312	52.64
566.653	52.79
566.993	52.87
567.334	52.96
567.675	53.06
568.015	53.25
568.356	53.38
568.696	53.5
569.037	53.66
569.377	53.78
569.718	53.9
570.058	54.04
570.398	54.12
570.739	54.25
571.079	54.31
571.419	54.43
571.759	54.5
572.099	54.6
572.439	54.64
572.779	54.67
573.119	54.75
573.459	54.85
573.799	54.9
574.139	55
574.479	55.11
574.819	55.14
575.158	55.11
575.498	55.19
575.838	55.24
576.177	55.27
576.517	55.36
576.856	55.45
577.196	55.56
577.535	55.65
577.875	55.75
578.214	55.89
578.553	55.92
578.893	56.05
579.232	56.12
579.571	56.27
579.91	56.35
580.25	56.44
580.589	56.51
580.928	56.61
581.267	56.69
581.606	56.77
581.945	56.95
582.283	57.17
582.622	57.36
582.961	57.47
583.3	57.54
583.639	57.62
583.977	57.66
584.316	57.68
584.654	57.66
584.993	57.6
585.332	57.62
585.67	57.69
586.008	57.75
586.347	57.77
586.685	57.8
587.024	57.97
587.362	58.07
587.7	58.12
588.038	58.19
588.376	58.23
588.715	58.31
589.053	58.32
589.391	58.35
589.729	58.28
590.067	58.2
590.404	58.26
590.742	58.25
591.08	58.29
591.418	58.35
591.756	58.45
592.093	58.55
592.431	58.65
592.769	58.67
593.106	58.68
593.444	58.75
593.781	58.72
594.119	58.67
594.456	58.65
594.793	58.66
595.131	58.67
595.468	58.66
595.805	58.7
596.143	58.77
596.48	58.76
596.817	58.83
597.154	58.94
597.491	59
597.828	59.1
598.165	59.15
598.502	59.09
598.839	59.1
599.176	59.1
599.512	59.12
599.849	59.19
600.186	59.24
600.523	59.17
600.859	59.23
601.196	59.22
601.532	59.3
601.869	59.35
602.205	59.36
602.542	59.43
602.878	59.4
603.215	59.4
603.551	59.44
603.887	59.45
604.223	59.52
604.56	59.49
604.896	59.51
605.232	59.53
605.568	59.62
605.904	59.58
606.24	59.64
606.576	59.61
606.912	59.62
607.248	59.68
607.583	59.74
607.919	59.76
608.255	59.85
608.591	59.8
608.926	59.85
609.262	59.91
609.597	59.94
609.933	60.04
610.268	60.07
610.604	60.08
610.939	60.12
611.275	60.13
611.61	60.16
611.945	60.13
612.281	60.17
612.616	60.17
612.951	60.28
613.286	60.29
613.621	60.36
613.956	60.36
614.291	60.36
614.626	60.5
614.961	60.64
615.296	60.65
615.631	60.87
615.966	60.91
616.3	60.91
616.635	60.87
616.97	60.87
617.304	60.87
617.639	60.98
617.973	61.01
618.308	61.04
618.642	61.19
618.977	61.21
619.311	61.29
619.646	61.35
619.98	61.33
620.314	61.36
620.648	61.42
620.983	61.49
621.317	61.48
621.651	61.46
621.985	61.44
622.319	61.44
622.653	61.3
622.987	61.21
623.321	61.26
623.655	61.33
623.988	61.34
624.322	61.4
624.656	61.34
624.99	61.34
625.323	61.34
625.657	61.36
625.99	61.43
626.324	61.33
626.657	61.33
626.991	61.38
627.324	61.43
627.658	61.45
627.991	61.43
628.324	61.42
628.657	61.43
628.991	61.45
629.324	61.4
629.657	61.54
629.99	61.57
630.323	61.67
630.656	61.72
630.989	61.8
631.322	61.8
631.655	61.87
631.987	61.93
632.32	61.94
632.653	61.82
632.986	61.76
633.318	61.75
633.651	61.68
633.984	61.79
634.316	61.86
634.649	61.88
634.981	61.91
635.313	61.97
635.646	62
635.978	61.98
636.31	62.21
636.643	62.14
636.975	62.32
637.307	62.26
637.639	62.21
637.971	62.15
638.303	62.2
638.635	62.17
638.967	62.26
639.299	62.3
639.631	62.38
639.963	62.5
640.295	62.58
640.626	62.73
640.958	62.76
641.29	62.76
641.621	62.84
641.953	62.88
642.285	62.83
642.616	62.82
642.948	62.82
643.279	62.7
643.61	62.71
643.942	62.64
644.273	62.71
644.604	62.71
644.936	62.86
645.267	62.81
645.598	62.79
645.929	62.72
646.26	62.65
646.591	62.73
646.922	62.75
647.253	62.89
647.584	62.82
647.915	62.67
648.245	62.68
648.576	62.64
648.907	62.75
649.238	62.8
649.568	62.87
649.899	62.82
650.229	62.98
650.56	63.01
650.89	63.1
651.221	63.09
651.551	63.09
651.882	62.99
652.212	63.14
652.542	63.07
652.872	63.03
653.203	63.11
653.533	63.08
653.863	63.13
654.193	63.11
654.523	63.18
654.853	63.45
655.183	63.38
655.513	63.45
655.843	63.3
656.172	63.33
656.502	63.31
656.832	63.39
657.162	63.31
657.491	63.33
657.821	63.29
658.15	63.27
658.48	63.21
658.809	63.2
659.139	63.08
659.468	63.18
659.798	63.2
660.127	63.18
660.456	63.18
660.785	63.11
661.115	63.1
661.444	63.18
661.773	62.94
662.102	62.96
662.431	62.81
