Data from BA56825_Reflection_00014.txt Node
Date: Mon Nov 18 15:37:53 EST 2019
User: vgr7
Spectrometer: USB2G7710
Scans to average: 3
Trigger mode: 4
Integration Time (sec): 2.000000E-2
Electric dark correction enabled: true
Boxcar width: 10
XAxis mode: Wavelengths
Number of Pixels in Spectrum: 2048
>>>>>Begin Spectral Data<<<<<
177.721	758.08
178.105	121.45
178.488	105.16
178.871	107.23
179.254	47.06
179.636	-143.8
180.019	-25.28
180.402	60
180.785	232.24
181.168	-275.95
181.55	-6194.12
181.933	223.15
182.316	122.43
182.698	144.83
183.081	177.4
183.463	365.87
183.846	921.86
184.228	-514.15
184.611	-669.86
184.993	-198.95
185.376	-106.33
185.758	-174.62
186.14	-264.94
186.522	-286.21
186.904	-179.21
187.287	-285.63
187.669	-113.34
188.051	-135.27
188.433	-106.15
188.815	-77.9
189.197	-83.11
189.579	-66.72
189.961	-52.35
190.342	-47.74
190.724	-17.83
191.106	-14.07
191.488	-20.73
191.869	-31.05
192.251	-54.54
192.633	-35.46
193.014	-43.08
193.396	-67.56
193.777	-60.55
194.159	-65.53
194.54	-44.93
194.922	-52.13
195.303	-43.2
195.684	-50.38
196.065	-26.79
196.447	-32.6
196.828	-41.61
197.209	-46.48
197.59	-51.16
197.971	-53.15
198.352	-39.93
198.733	-48.67
199.114	-54.76
199.495	-64.37
199.876	-59.49
200.257	-55.74
200.638	-54.61
201.018	-55.71
201.399	-60.79
201.78	-48.36
202.16	-47.6
202.541	-59.76
202.922	-61.43
203.302	-75.44
203.683	-75.15
204.063	-86.12
204.444	-67.34
204.824	-67.27
205.204	-60.35
205.585	-60.68
205.965	-68.49
206.345	-87.66
206.725	-113.63
207.106	-122.78
207.486	-123.92
207.866	-161.68
208.246	-153.28
208.626	-149.06
209.006	-93.72
209.386	-74.64
209.766	-79.27
210.145	-68.33
210.525	-55.14
210.905	-69
211.285	-60.4
211.664	-54.48
212.044	-51.93
212.424	-77.92
212.803	-90.6
213.183	-75.17
213.562	-66.72
213.942	-60.58
214.321	-54.51
214.701	-48.66
215.08	-42.63
215.459	-41.21
215.838	-40.59
216.218	-66.42
216.597	-52.01
216.976	-69.16
217.355	-66.72
217.734	-64.58
218.113	-75.2
218.492	-102.55
218.871	-91.27
219.25	-75.02
219.629	-82.21
220.008	-107.91
220.387	-86.72
220.766	-76.22
221.144	-86.97
221.523	-99.8
221.902	-110.08
222.28	-132.75
222.659	-105.86
223.037	-90.19
223.416	-106.38
223.794	-75.97
224.173	-72.41
224.551	-73.94
224.929	-74.88
225.308	-73.69
225.686	-62.85
226.064	-49.77
226.442	-38.17
226.821	-31
227.199	-28.53
227.577	-24.86
227.955	-19.2
228.333	-16.96
228.711	-12.9
229.089	-8.73
229.467	-10.02
229.845	-9.48
230.222	-7.12
230.6	-7.21
230.978	-5.97
231.356	-1.59
231.733	-2.57
232.111	-1.79
232.488	-1.31
232.866	-0.16
233.243	-0.07
233.621	-0.79
233.998	-1.25
234.376	-1.98
234.753	-2.21
235.13	-2.33
235.508	-2.59
235.885	-2.68
236.262	-2.67
236.639	-2.85
237.016	-4.01
237.393	-0.52
237.77	0.82
238.147	1.92
238.524	1.86
238.901	2.08
239.278	1.52
239.655	3.17
240.032	4.11
240.409	4.39
240.785	4.14
241.162	4.57
241.539	4.75
241.915	4.73
242.292	4.62
242.668	4.64
243.045	4.93
243.421	4.79
243.798	4.59
244.174	4.49
244.551	4.41
244.927	4.6
245.303	4.48
245.679	4.34
246.056	3.94
246.432	3.75
246.808	3.46
247.184	3.36
247.56	2.92
247.936	2.8
248.312	2.67
248.688	2.74
249.064	2.8
249.44	2.65
249.815	2.83
250.191	2.95
250.567	2.88
250.943	2.64
251.318	2.69
251.694	2.58
252.069	2.75
252.445	2.76
252.82	2.52
253.196	2.04
253.571	2.18
253.947	2.59
254.322	2.97
254.697	2.78
255.073	2.54
255.448	2.54
255.823	2.44
256.198	2.66
256.573	2.64
256.948	2.7
257.323	2.99
257.698	2.8
258.073	2.78
258.448	2.72
258.823	2.83
259.198	2.95
259.573	3.04
259.948	2.75
260.322	2.81
260.697	2.72
261.072	2.8
261.446	2.68
261.821	2.47
262.195	2.49
262.57	2.56
262.944	2.77
263.319	2.73
263.693	2.57
264.067	2.6
264.442	2.77
264.816	2.7
265.19	2.56
265.564	2.52
265.938	2.41
266.313	2.49
266.687	2.44
267.061	2.54
267.435	2.6
267.809	2.75
268.183	2.67
268.556	2.7
268.93	2.79
269.304	2.82
269.678	3.02
270.051	2.84
270.425	2.99
270.799	2.94
271.172	3.06
271.546	3.16
271.919	3.16
272.293	3.19
272.666	3.11
273.04	3.17
273.413	3.27
273.787	3.21
274.16	3.24
274.533	3.27
274.906	3.01
275.279	3.13
275.653	3.11
276.026	3.1
276.399	3.27
276.772	3.28
277.145	3.21
277.518	3.09
277.891	3.21
278.263	3.09
278.636	3.01
279.009	3.05
279.382	3.27
279.755	3
280.127	2.97
280.5	3
280.872	3.12
281.245	3.02
281.617	3.25
281.99	3.32
282.362	3.33
282.735	3.36
283.107	3.26
283.479	3.32
283.852	3.34
284.224	3.2
284.596	3.19
284.968	3.28
285.34	3.35
285.713	3.28
286.085	3.37
286.457	3.43
286.829	3.49
287.201	3.4
287.572	3.52
287.944	3.39
288.316	3.46
288.688	3.31
289.06	3.17
289.431	3.17
289.803	3.11
290.175	3.02
290.546	3.16
290.918	3.13
291.289	3.14
291.661	3.2
292.032	3.21
292.403	3.16
292.775	3.21
293.146	3.12
293.517	3.25
293.889	3.24
294.26	3.07
294.631	2.92
295.002	2.97
295.373	2.98
295.744	3.05
296.115	3.07
296.486	2.99
296.857	3.24
297.228	3.29
297.599	3.27
297.97	3.45
298.34	3.41
298.711	3.46
299.082	3.47
299.452	3.4
299.823	3.55
300.194	3.59
300.564	3.57
300.935	3.77
301.305	3.8
301.676	3.9
302.046	4.12
302.416	4.26
302.787	4.22
303.157	4.32
303.527	4.44
303.897	4.45
304.267	4.71
304.637	4.67
305.008	4.57
305.378	4.77
305.748	4.72
306.117	4.68
306.487	4.67
306.857	4.62
307.227	4.68
307.597	4.67
307.967	4.76
308.336	4.76
308.706	4.52
309.076	4.47
309.445	4.38
309.815	4.44
310.184	4.41
310.554	4.37
310.923	4.31
311.293	4.33
311.662	4.42
312.031	4.39
312.401	4.32
312.77	4.36
313.139	4.28
313.508	4.31
313.877	4.36
314.246	4.41
314.616	4.49
314.985	4.5
315.353	4.44
315.722	4.31
316.091	4.39
316.46	4.42
316.829	4.7
317.198	4.83
317.567	4.83
317.935	4.9
318.304	5.05
318.672	5.16
319.041	5.05
319.41	4.91
319.778	5.04
320.147	5.13
320.515	5.07
320.883	5.13
321.252	5.3
321.62	5.41
321.988	5.36
322.357	5.36
322.725	5.49
323.093	5.63
323.461	5.69
323.829	5.73
324.197	5.86
324.565	5.67
324.933	5.69
325.301	5.76
325.669	5.83
326.037	5.86
326.405	5.94
326.772	6.19
327.14	6.31
327.508	6.28
327.875	6.26
328.243	6.39
328.61	6.38
328.978	6.34
329.346	6.4
329.713	6.41
330.08	6.44
330.448	6.33
330.815	6.28
331.182	6.41
331.55	6.48
331.917	6.55
332.284	6.68
332.651	6.61
333.018	6.66
333.385	6.69
333.752	6.75
334.119	6.86
334.486	6.79
334.853	6.95
335.22	6.9
335.587	7.04
335.954	7.1
336.32	7.08
336.687	7.09
337.054	7.14
337.42	7.2
337.787	7.21
338.153	7.28
338.52	7.38
338.886	7.37
339.253	7.33
339.619	7.46
339.986	7.48
340.352	7.53
340.718	7.43
341.084	7.41
341.451	7.44
341.817	7.41
342.183	7.33
342.549	7.16
342.915	7.27
343.281	7.28
343.647	7.15
344.013	7.22
344.379	7.13
344.745	7.1
345.11	7.13
345.476	7.16
345.842	7.23
346.208	7.2
346.573	7.18
346.939	7.22
347.304	7.16
347.67	7.07
348.035	7.06
348.401	7.14
348.766	7.16
349.132	7.2
349.497	7.12
349.862	7.19
350.228	7.3
350.593	7.32
350.958	7.33
351.323	7.49
351.688	7.62
352.053	7.73
352.418	7.79
352.783	7.8
353.148	7.89
353.513	7.89
353.878	7.98
354.243	8.08
354.608	8.11
354.972	8.11
355.337	8.2
355.702	8.29
356.066	8.26
356.431	8.25
356.795	8.23
357.16	8.23
357.524	8.25
357.889	8.17
358.253	8.13
358.618	8.13
358.982	8.06
359.346	7.84
359.71	7.73
360.075	7.68
360.439	7.65
360.803	7.53
361.167	7.46
361.531	7.36
361.895	7.31
362.259	7.24
362.623	7.17
362.987	7.09
363.351	7.06
363.714	7.03
364.078	6.98
364.442	6.95
364.806	6.88
365.169	6.8
365.533	6.69
365.896	6.61
366.26	6.51
366.623	6.44
366.987	6.46
367.35	6.5
367.714	6.41
368.077	6.36
368.44	6.36
368.803	6.36
369.167	6.31
369.53	6.2
369.893	6.19
370.256	6.18
370.619	6.09
370.982	5.98
371.345	5.93
371.708	5.87
372.071	5.75
372.434	5.78
372.797	5.74
373.159	5.73
373.522	5.68
373.885	5.66
374.247	5.63
374.61	5.62
374.973	5.54
375.335	5.47
375.698	5.45
376.06	5.38
376.423	5.33
376.785	5.3
377.147	5.31
377.51	5.19
377.872	5.15
378.234	5.16
378.596	5.14
378.958	5.1
379.321	5.07
379.683	5.03
380.045	4.93
380.407	4.9
380.769	4.89
381.13	4.89
381.492	4.82
381.854	4.78
382.216	4.72
382.578	4.72
382.939	4.7
383.301	4.64
383.663	4.57
384.024	4.58
384.386	4.57
384.747	4.56
385.109	4.57
385.47	4.46
385.832	4.42
386.193	4.4
386.554	4.34
386.916	4.29
387.277	4.29
387.638	4.29
387.999	4.23
388.36	4.2
388.721	4.18
389.082	4.18
389.443	4.16
389.804	4.16
390.165	4.11
390.526	4.12
390.887	4.1
391.248	4.14
391.609	4.08
391.969	4.07
392.33	4.02
392.691	3.99
393.051	3.99
393.412	3.96
393.772	3.89
394.133	3.85
394.493	3.86
394.854	3.82
395.214	3.8
395.574	3.8
395.935	3.76
396.295	3.74
396.655	3.71
397.015	3.67
397.376	3.63
397.736	3.61
398.096	3.52
398.456	3.5
398.816	3.44
399.176	3.41
399.535	3.35
399.895	3.36
400.255	3.36
400.615	3.35
400.975	3.34
401.334	3.36
401.694	3.37
402.054	3.33
402.413	3.32
402.773	3.28
403.132	3.29
403.492	3.3
403.851	3.29
404.211	3.29
404.57	3.26
404.929	3.27
405.288	3.22
405.648	3.22
406.007	3.19
406.366	3.18
406.725	3.17
407.084	3.21
407.443	3.18
407.802	3.18
408.161	3.17
408.52	3.13
408.879	3.1
409.238	3.08
409.596	3.09
409.955	3.09
410.314	3.11
410.673	3.08
411.031	3.05
411.39	3.05
411.748	3.06
412.107	3.04
412.465	3.03
412.824	3.07
413.182	3.09
413.54	3.1
413.899	3.1
414.257	3.1
414.615	3.05
414.974	3.03
415.332	3.01
415.69	3
416.048	3.01
416.406	3.03
416.764	3.02
417.122	3
417.48	2.96
417.838	2.94
418.195	2.95
418.553	2.94
418.911	2.92
419.269	2.91
419.626	2.91
419.984	2.89
420.342	2.89
420.699	2.87
421.057	2.86
421.414	2.84
421.772	2.83
422.129	2.84
422.486	2.84
422.844	2.83
423.201	2.83
423.558	2.82
423.915	2.81
424.273	2.81
424.63	2.8
424.987	2.82
425.344	2.83
425.701	2.83
426.058	2.82
426.415	2.82
426.772	2.81
427.128	2.8
427.485	2.81
427.842	2.79
428.199	2.8
428.555	2.8
428.912	2.82
429.269	2.81
429.625	2.8
429.982	2.78
430.338	2.79
430.695	2.78
431.051	2.78
431.407	2.76
431.764	2.76
432.12	2.76
432.476	2.77
432.832	2.72
433.189	2.72
433.545	2.71
433.901	2.69
434.257	2.7
434.613	2.73
434.969	2.71
435.325	2.71
435.681	2.69
436.036	2.69
436.392	2.68
436.748	2.66
437.104	2.66
437.459	2.65
437.815	2.65
438.171	2.64
438.526	2.63
438.882	2.64
439.237	2.64
439.593	2.64
439.948	2.62
440.304	2.63
440.659	2.63
441.014	2.65
441.369	2.64
441.725	2.63
442.08	2.63
442.435	2.62
442.79	2.63
443.145	2.61
443.5	2.61
443.855	2.62
444.21	2.62
444.565	2.62
444.92	2.63
445.275	2.62
445.629	2.62
445.984	2.61
446.339	2.6
446.693	2.59
447.048	2.58
447.403	2.57
447.757	2.56
448.112	2.55
448.466	2.53
448.82	2.53
449.175	2.54
449.529	2.52
449.883	2.52
450.238	2.51
450.592	2.52
450.946	2.51
451.3	2.49
451.654	2.5
452.008	2.5
452.362	2.48
452.716	2.47
453.07	2.48
453.424	2.49
453.778	2.49
454.132	2.49
454.486	2.49
454.839	2.5
455.193	2.5
455.547	2.52
455.9	2.52
456.254	2.53
456.607	2.51
456.961	2.52
457.314	2.52
457.668	2.53
458.021	2.52
458.375	2.52
458.728	2.54
459.081	2.52
459.434	2.52
459.787	2.51
460.141	2.51
460.494	2.51
460.847	2.5
461.2	2.48
461.553	2.48
461.906	2.49
462.259	2.5
462.611	2.51
462.964	2.53
463.317	2.53
463.67	2.53
464.022	2.53
464.375	2.54
464.728	2.55
465.08	2.54
465.433	2.55
465.785	2.54
466.138	2.52
466.49	2.54
466.843	2.55
467.195	2.56
467.547	2.58
467.899	2.58
468.252	2.59
468.604	2.61
468.956	2.62
469.308	2.61
469.66	2.6
470.012	2.61
470.364	2.58
470.716	2.59
471.068	2.59
471.42	2.59
471.772	2.58
472.123	2.58
472.475	2.59
472.827	2.61
473.178	2.62
473.53	2.64
473.882	2.66
474.233	2.68
474.585	2.65
474.936	2.65
475.288	2.67
475.639	2.69
475.99	2.68
476.342	2.68
476.693	2.69
477.044	2.69
477.395	2.68
477.746	2.69
478.097	2.69
478.448	2.69
478.8	2.69
479.15	2.69
479.501	2.68
479.852	2.68
480.203	2.69
480.554	2.7
480.905	2.7
481.255	2.69
481.606	2.7
481.957	2.72
482.307	2.72
482.658	2.71
483.009	2.7
483.359	2.71
483.709	2.71
484.06	2.7
484.41	2.7
484.761	2.7
485.111	2.7
485.461	2.7
485.811	2.7
486.162	2.7
486.512	2.71
486.862	2.72
487.212	2.72
487.562	2.72
487.912	2.72
488.262	2.71
488.612	2.71
488.961	2.7
489.311	2.69
489.661	2.69
490.011	2.71
490.36	2.72
490.71	2.72
491.06	2.72
491.409	2.73
491.759	2.73
492.108	2.74
492.458	2.74
492.807	2.75
493.157	2.76
493.506	2.77
493.855	2.77
494.204	2.77
494.554	2.78
494.903	2.78
495.252	2.78
495.601	2.82
495.95	2.84
496.299	2.86
496.648	2.88
496.997	2.88
497.346	2.88
497.695	2.89
498.043	2.89
498.392	2.91
498.741	2.92
499.09	2.92
499.438	2.95
499.787	2.96
500.135	2.99
500.484	3.01
500.832	3.02
501.181	3.01
501.529	3.04
501.878	3.05
502.226	3.06
502.574	3.08
502.923	3.07
503.271	3.1
503.619	3.13
503.967	3.14
504.315	3.16
504.663	3.18
505.011	3.2
505.359	3.24
505.707	3.26
506.055	3.3
506.403	3.35
506.751	3.37
507.098	3.42
507.446	3.45
507.794	3.47
508.141	3.51
508.489	3.56
508.837	3.61
509.184	3.64
509.531	3.69
509.879	3.73
510.226	3.78
510.574	3.81
510.921	3.82
511.268	3.86
511.616	3.9
511.963	3.94
512.31	3.98
512.657	4.01
513.004	4.05
513.351	4.1
513.698	4.15
514.045	4.16
514.392	4.2
514.739	4.24
515.086	4.29
515.432	4.33
515.779	4.38
516.126	4.43
516.473	4.47
516.819	4.51
517.166	4.55
517.512	4.58
517.859	4.62
518.205	4.67
518.552	4.73
518.898	4.78
519.245	4.81
519.591	4.85
519.937	4.9
520.283	4.95
520.629	5.01
520.976	5.07
521.322	5.15
521.668	5.22
522.014	5.3
522.36	5.36
522.706	5.43
523.052	5.5
523.398	5.6
523.743	5.69
524.089	5.79
524.435	5.89
524.781	5.98
525.126	6.09
525.472	6.17
525.817	6.26
526.163	6.34
526.509	6.43
526.854	6.5
527.199	6.57
527.545	6.65
527.89	6.71
528.235	6.77
528.581	6.86
528.926	6.93
529.271	7.01
529.616	7.08
529.961	7.17
530.306	7.26
530.651	7.34
530.996	7.45
531.341	7.54
531.686	7.64
532.031	7.75
532.376	7.88
532.721	8
533.065	8.11
533.41	8.23
533.755	8.37
534.099	8.51
534.444	8.66
534.788	8.81
535.133	8.97
535.477	9.14
535.822	9.3
536.166	9.48
536.51	9.67
536.855	9.9
537.199	10.14
537.543	10.38
537.887	10.63
538.231	10.84
538.576	11.08
538.92	11.33
539.264	11.59
539.608	11.82
539.951	12.06
540.295	12.29
540.639	12.53
540.983	12.74
541.327	12.98
541.671	13.19
542.014	13.42
542.358	13.63
542.701	13.84
543.045	14.06
543.389	14.32
543.732	14.55
544.075	14.8
544.419	15.03
544.762	15.3
545.105	15.6
545.449	15.91
545.792	16.24
546.135	16.59
546.478	16.92
546.821	17.27
547.165	17.64
547.508	18.01
547.851	18.36
548.194	18.73
548.536	19.11
548.879	19.49
549.222	19.87
549.565	20.28
549.908	20.69
550.25	21.08
550.593	21.47
550.936	21.92
551.278	22.36
551.621	22.81
551.963	23.22
552.306	23.61
552.648	24.01
552.991	24.4
553.333	24.79
553.675	25.15
554.017	25.53
554.36	25.91
554.702	26.26
555.044	26.63
555.386	27.08
555.728	27.5
556.07	27.95
556.412	28.33
556.754	28.77
557.096	29.2
557.438	29.65
557.78	30.09
558.121	30.5
558.463	30.89
558.805	31.29
559.147	31.71
559.488	32.11
559.83	32.5
560.171	32.85
560.513	33.25
560.854	33.66
561.196	34.01
561.537	34.36
561.878	34.74
562.22	35.08
562.561	35.37
562.902	35.68
563.243	35.96
563.584	36.32
563.925	36.65
564.266	36.94
564.607	37.27
564.948	37.53
565.289	37.8
565.63	38.11
565.971	38.4
566.312	38.7
566.653	38.98
566.993	39.27
567.334	39.59
567.675	39.82
568.015	40.08
568.356	40.42
568.696	40.72
569.037	41
569.377	41.31
569.718	41.61
570.058	41.87
570.398	42.19
570.739	42.48
571.079	42.7
571.419	42.99
571.759	43.23
572.099	43.49
572.439	43.73
572.779	43.97
573.119	44.19
573.459	44.36
573.799	44.6
574.139	44.87
574.479	45.07
574.819	45.31
575.158	45.53
575.498	45.67
575.838	45.96
576.177	46.2
576.517	46.38
576.856	46.63
577.196	46.84
577.535	47.07
577.875	47.24
578.214	47.45
578.553	47.68
578.893	47.86
579.232	48.07
579.571	48.36
579.91	48.54
580.25	48.79
580.589	48.98
580.928	49.14
581.267	49.3
581.606	49.49
581.945	49.72
582.283	49.9
582.622	50.16
582.961	50.18
583.3	50.3
583.639	50.51
583.977	50.56
584.316	50.73
584.654	50.94
584.993	51.13
585.332	51.29
585.67	51.42
586.008	51.57
586.347	51.71
586.685	51.78
587.024	51.94
587.362	51.96
587.7	52.11
588.038	52.24
588.376	52.33
588.715	52.42
589.053	52.53
589.391	52.68
589.729	52.72
590.067	52.8
590.404	52.94
590.742	53
591.08	53.22
591.418	53.32
591.756	53.36
592.093	53.48
592.431	53.6
592.769	53.71
593.106	53.86
593.444	53.97
593.781	54.06
594.119	54.1
594.456	54.28
594.793	54.4
595.131	54.46
595.468	54.6
595.805	54.68
596.143	54.74
596.48	54.86
596.817	54.93
597.154	55.09
597.491	55.18
597.828	55.29
598.165	55.34
598.502	55.37
598.839	55.45
599.176	55.48
599.512	55.59
599.849	55.63
600.186	55.67
600.523	55.73
600.859	55.86
601.196	55.99
601.532	56.02
601.869	56.07
602.205	56.21
602.542	56.27
602.878	56.3
603.215	56.34
603.551	56.36
603.887	56.44
604.223	56.5
604.56	56.59
604.896	56.67
605.232	56.84
605.568	56.89
605.904	56.93
606.24	57
606.576	57.03
606.912	57.07
607.248	57.1
607.583	57.19
607.919	57.23
608.255	57.27
608.591	57.37
608.926	57.4
609.262	57.49
609.597	57.46
609.933	57.62
610.268	57.7
610.604	57.63
610.939	57.67
611.275	57.71
611.61	57.82
611.945	57.91
612.281	57.81
612.616	57.97
612.951	58
613.286	58.01
613.621	58.11
613.956	58.13
614.291	58.26
614.626	58.28
614.961	58.3
615.296	58.39
615.631	58.49
615.966	58.61
616.3	58.55
616.635	58.73
616.97	58.79
617.304	58.85
617.639	59.12
617.973	59.16
618.308	59.26
618.642	59.22
618.977	59.22
619.311	59.3
619.646	59.28
619.98	59.27
620.314	59.36
620.648	59.38
620.983	59.58
621.317	59.67
621.651	59.85
621.985	59.89
622.319	59.91
622.653	59.93
622.987	59.98
623.321	60.06
623.655	59.91
623.988	59.94
624.322	59.98
624.656	59.9
624.99	60.03
625.323	60
625.657	60.04
625.99	60.02
626.324	60.04
626.657	59.98
626.991	60.03
627.324	60.09
627.658	60.18
627.991	60.12
628.324	60.11
628.657	60.03
628.991	60.04
629.324	60.01
629.657	60
629.99	60.05
630.323	60.08
630.656	60.28
630.989	60.38
631.322	60.42
631.655	60.45
631.987	60.44
632.32	60.41
632.653	60.49
632.986	60.59
633.318	60.62
633.651	60.87
633.984	60.92
634.316	60.87
634.649	60.81
634.981	60.82
635.313	60.95
635.646	61.03
635.978	61.17
636.31	61.24
636.643	61.31
636.975	61.27
637.307	61.25
637.639	61.21
637.971	61.16
638.303	61.16
638.635	61.23
638.967	61.24
639.299	61.38
639.631	61.35
639.963	61.32
640.295	61.43
640.626	61.41
640.958	61.46
641.29	61.59
641.621	61.55
641.953	61.71
642.285	61.61
642.616	61.67
642.948	61.6
643.279	61.73
643.61	61.75
643.942	61.75
644.273	61.86
644.604	61.92
644.936	61.9
645.267	61.8
645.598	61.78
645.929	61.84
646.26	61.83
646.591	61.89
646.922	61.9
647.253	61.89
647.584	61.71
647.915	61.69
648.245	61.75
648.576	61.89
648.907	61.87
649.238	61.83
649.568	61.75
649.899	61.71
650.229	61.69
650.56	61.61
650.89	61.82
651.221	61.88
651.551	61.96
651.882	61.87
652.212	61.94
652.542	62
652.872	61.95
653.203	61.89
653.533	61.85
653.863	61.79
654.193	61.8
654.523	62
654.853	61.98
655.183	61.83
655.513	61.85
655.843	61.78
656.172	61.86
656.502	61.87
656.832	61.94
657.162	61.88
657.491	61.95
657.821	61.91
658.15	61.84
658.48	61.82
658.809	61.94
659.139	62.02
659.468	62.1
659.798	61.98
660.127	62.08
660.456	62.03
660.785	62.17
661.115	62.12
661.444	62.1
661.773	62.17
662.102	62.29
662.431	62.23
662.76	62.16
663.089	62.15
663.418	62.17
663.747	62.13
664.076	62.13
664.404	62.06
664.733	62.02
665.062	61.92
665.39	61.91
665.719	61.79
666.048	61.92
666.376	61.78
666.705	61.89
667.033	61.84
667.362	61.93
667.69	61.83
