Data from BA56832_Reflection_00004.txt Node
Date: Mon Nov 18 16:09:43 EST 2019
User: vgr7
Spectrometer: USB2G7710
Scans to average: 3
Trigger mode: 4
Integration Time (sec): 2.000000E-2
Electric dark correction enabled: true
Boxcar width: 10
XAxis mode: Wavelengths
Number of Pixels in Spectrum: 2048
>>>>>Begin Spectral Data<<<<<
177.721	-28.11
178.105	-15.67
178.488	-0.88
178.871	19.16
179.254	43.14
179.636	-39.31
180.019	84.34
180.402	230.77
180.785	-724.74
181.168	216.44
181.55	18.65
181.933	75.27
182.316	140.43
182.698	247.3
183.081	135.78
183.463	170.07
183.846	219.03
184.228	153.12
184.611	201.08
184.993	165.29
185.376	110.42
185.758	177.59
186.14	231.32
186.522	403.26
186.904	6142.55
187.287	5625.42
187.669	-1986.33
188.051	-373.18
188.433	-374.44
188.815	-527.86
189.197	-365.12
189.579	-209.97
189.961	-176.35
190.342	-239.75
190.724	-204.72
191.106	-202.47
191.488	-225.27
191.869	-153.43
192.251	-141.42
192.633	-171.58
193.014	-224.24
193.396	-347.97
193.777	-556.58
194.159	-807.87
194.54	-316.27
194.922	-138.98
195.303	-126.13
195.684	-93.59
196.065	-29.27
196.447	-23.05
196.828	-46.9
197.209	-42.91
197.59	-49.55
197.971	-76.33
198.352	-93.36
198.733	-120.29
199.114	-57.32
199.495	-51.99
199.876	-79.07
200.257	-67.52
200.638	-53.32
201.018	-53.85
201.399	-40.46
201.78	-31.26
202.16	-40.16
202.541	-50.36
202.922	-175.04
203.302	-211.42
203.683	-178.31
204.063	-238.56
204.444	-291.98
204.824	-195.36
205.204	-164.69
205.585	-172.04
205.965	-131.83
206.345	-119.26
206.725	-114.59
207.106	-232.01
207.486	-421.91
207.866	-434.4
208.246	-888.29
208.626	14237.93
209.006	-3413.04
209.386	-1058.44
209.766	-520.87
210.145	-275.75
210.525	-227.42
210.905	-159.98
211.285	-118.66
211.664	-118.19
212.044	-109.69
212.424	-101.42
212.803	-131.64
213.183	-125.91
213.562	-90.83
213.942	-86.92
214.321	-87.48
214.701	-96.24
215.08	-50.38
215.459	-29.89
215.838	-23.59
216.218	-24.76
216.597	-9.43
216.976	-7.22
217.355	-1.69
217.734	13.21
218.113	2.78
218.492	17.21
218.871	49.94
219.25	43.11
219.629	23.42
220.008	-11.37
220.387	9.22
220.766	12.7
221.144	10.23
221.523	10.18
221.902	22.72
222.28	24.64
222.659	26.93
223.037	24.91
223.416	16.69
223.794	13.43
224.173	15.07
224.551	10.38
224.929	8.26
225.308	1.72
225.686	-1.92
226.064	1.18
226.442	-5.17
226.821	-4.07
227.199	-2.42
227.577	-5.19
227.955	-0.54
228.333	-1.02
228.711	-1.2
229.089	0.68
229.467	0.71
229.845	-1.5
230.222	1.21
230.6	2.87
230.978	3.55
231.356	5.93
231.733	7.42
232.111	8.53
232.488	7.62
232.866	8.17
233.243	7.62
233.621	5.98
233.998	6.47
234.376	6.62
234.753	7.98
235.13	9.74
235.508	12.52
235.885	11.73
236.262	10.4
236.639	9.55
237.016	8.32
237.393	10.25
237.77	11.47
238.147	10.77
238.524	9.5
238.901	9.67
239.278	9.11
239.655	9.3
240.032	8.99
240.409	9.21
240.785	9.05
241.162	9.07
241.539	8.98
241.915	8.84
242.292	8.98
242.668	8.45
243.045	8.23
243.421	7.76
243.798	7.82
244.174	8.09
244.551	7.95
244.927	7.75
245.303	7.34
245.679	7.05
246.056	6.79
246.432	6.67
246.808	6.4
247.184	6.29
247.56	5.88
247.936	5.74
248.312	5.61
248.688	5.61
249.064	5.63
249.44	5.94
249.815	5.88
250.191	5.86
250.567	5.9
250.943	5.78
251.318	5.84
251.694	5.69
252.069	5.46
252.445	5.62
252.82	5.58
253.196	5.5
253.571	5.43
253.947	5.28
254.322	5.55
254.697	5.67
255.073	5.68
255.448	5.58
255.823	5.44
256.198	5.67
256.573	5.77
256.948	5.77
257.323	5.78
257.698	5.78
258.073	5.89
258.448	5.79
258.823	5.83
259.198	5.63
259.573	5.75
259.948	5.84
260.322	5.72
260.697	5.79
261.072	5.79
261.446	5.79
261.821	5.88
262.195	5.84
262.57	5.68
262.944	5.63
263.319	5.71
263.693	5.69
264.067	5.46
264.442	5.44
264.816	5.28
265.19	5.13
265.564	5.15
265.938	4.95
266.313	4.93
266.687	4.84
267.061	5.18
267.435	5.05
267.809	4.94
268.183	4.87
268.556	4.77
268.93	4.65
269.304	4.67
269.678	4.93
270.051	4.91
270.425	5.17
270.799	5.19
271.172	5.24
271.546	5.28
271.919	5.49
272.293	5.44
272.666	5.54
273.04	5.58
273.413	5.57
273.787	5.53
274.16	5.54
274.533	5.52
274.906	5.45
275.279	5.38
275.653	5.27
276.026	5.36
276.399	5.46
276.772	5.79
277.145	5.71
277.518	5.5
277.891	5.6
278.263	5.36
278.636	5.37
279.009	5.33
279.382	5.45
279.755	5.38
280.127	5.43
280.5	5.34
280.872	5.31
281.245	5.16
281.617	5.33
281.99	5.35
282.362	5.43
282.735	5.21
283.107	5.21
283.479	5.32
283.852	5.33
284.224	5.28
284.596	5.11
284.968	5.17
285.34	5.25
285.713	5.25
286.085	5.36
286.457	5.46
286.829	5.47
287.201	5.47
287.572	5.52
287.944	5.43
288.316	5.48
288.688	5.52
289.06	5.63
289.431	5.56
289.803	5.61
290.175	5.61
290.546	5.81
290.918	5.89
291.289	5.86
291.661	5.91
292.032	5.97
292.403	6.08
292.775	6.14
293.146	6.09
293.517	6.04
293.889	6.04
294.26	6.05
294.631	6.11
295.002	6.12
295.373	6.15
295.744	6.26
296.115	6.35
296.486	6.13
296.857	6.19
297.228	6.32
297.599	6.25
297.97	6.26
298.34	6.17
298.711	6.22
299.082	6.23
299.452	6.12
299.823	6.18
300.194	6.08
300.564	6.06
300.935	6.13
301.305	6.15
301.676	6.02
302.046	5.89
302.416	6
302.787	6
303.157	5.91
303.527	5.83
303.897	5.79
304.267	6.13
304.637	6.11
305.008	6.08
305.378	6.22
305.748	6.17
306.117	6.25
306.487	6.27
306.857	6.41
307.227	6.55
307.597	6.51
307.967	6.58
308.336	6.64
308.706	6.58
309.076	6.65
309.445	6.74
309.815	6.75
310.184	6.69
310.554	6.61
310.923	6.58
311.293	6.66
311.662	6.62
312.031	6.41
312.401	6.42
312.77	6.39
313.139	6.28
313.508	6.31
313.877	6.38
314.246	6.42
314.616	6.39
314.985	6.41
315.353	6.34
315.722	6.44
316.091	6.41
316.46	6.39
316.829	6.4
317.198	6.41
317.567	6.43
317.935	6.37
318.304	6.39
318.672	6.42
319.041	6.34
319.41	6.3
319.778	6.42
320.147	6.44
320.515	6.45
320.883	6.47
321.252	6.44
321.62	6.33
321.988	6.34
322.357	6.23
322.725	6.06
323.093	6.05
323.461	5.92
323.829	5.9
324.197	5.87
324.565	5.84
324.933	6.02
325.301	6.04
325.669	6.15
326.037	6.17
326.405	6.26
326.772	6.36
327.14	6.45
327.508	6.41
327.875	6.26
328.243	6.32
328.61	6.49
328.978	6.37
329.346	6.42
329.713	6.36
330.08	6.46
330.448	6.54
330.815	6.56
331.182	6.54
331.55	6.51
331.917	6.63
332.284	6.71
332.651	6.58
333.018	6.61
333.385	6.55
333.752	6.67
334.119	6.59
334.486	6.56
334.853	6.55
335.22	6.57
335.587	6.72
335.954	6.69
336.32	6.55
336.687	6.56
337.054	6.58
337.42	6.54
337.787	6.57
338.153	6.6
338.52	6.65
338.886	6.7
339.253	6.68
339.619	6.64
339.986	6.61
340.352	6.65
340.718	6.56
341.084	6.45
341.451	6.33
341.817	6.46
342.183	6.46
342.549	6.4
342.915	6.47
343.281	6.44
343.647	6.36
344.013	6.37
344.379	6.45
344.745	6.43
345.11	6.46
345.476	6.32
345.842	6.31
346.208	6.37
346.573	6.41
346.939	6.46
347.304	6.49
347.67	6.35
348.035	6.28
348.401	6.37
348.766	6.43
349.132	6.51
349.497	6.3
349.862	6.35
350.228	6.41
350.593	6.38
350.958	6.36
351.323	6.36
351.688	6.45
352.053	6.55
352.418	6.51
352.783	6.61
353.148	6.66
353.513	6.65
353.878	6.61
354.243	6.58
354.608	6.53
354.972	6.55
355.337	6.62
355.702	6.64
356.066	6.6
356.431	6.59
356.795	6.62
357.16	6.69
357.524	6.62
357.889	6.53
358.253	6.51
358.618	6.53
358.982	6.54
359.346	6.38
359.71	6.32
360.075	6.36
360.439	6.3
360.803	6.28
361.167	6.32
361.531	6.29
361.895	6.26
362.259	6.27
362.623	6.26
362.987	6.21
363.351	6.2
363.714	6.21
364.078	6.22
364.442	6.14
364.806	6.11
365.169	6.15
365.533	6.21
365.896	6.21
366.26	6.21
366.623	6.22
366.987	6.27
367.35	6.22
367.714	6.23
368.077	6.24
368.44	6.25
368.803	6.19
369.167	6.12
369.53	6.08
369.893	6.05
370.256	6.04
370.619	6.08
370.982	6.09
371.345	6.13
371.708	6.15
372.071	6.17
372.434	6.13
372.797	6.11
373.159	6.13
373.522	6.17
373.885	6.18
374.247	6.1
374.61	6.16
374.973	6.17
375.335	6.17
375.698	6.19
376.06	6.16
376.423	6.22
376.785	6.26
377.147	6.31
377.51	6.32
377.872	6.32
378.234	6.31
378.596	6.31
378.958	6.29
379.321	6.28
379.683	6.31
380.045	6.35
380.407	6.3
380.769	6.23
381.13	6.23
381.492	6.22
381.854	6.35
382.216	6.35
382.578	6.41
382.939	6.34
383.301	6.34
383.663	6.37
384.024	6.34
384.386	6.39
384.747	6.39
385.109	6.43
385.47	6.38
385.832	6.4
386.193	6.44
386.554	6.42
386.916	6.41
387.277	6.39
387.638	6.38
387.999	6.41
388.36	6.45
388.721	6.41
389.082	6.4
389.443	6.33
389.804	6.32
390.165	6.28
390.526	6.31
390.887	6.27
391.248	6.32
391.609	6.3
391.969	6.29
392.33	6.29
392.691	6.3
393.051	6.33
393.412	6.28
393.772	6.23
394.133	6.24
394.493	6.26
394.854	6.27
395.214	6.3
395.574	6.29
395.935	6.29
396.295	6.31
396.655	6.32
397.015	6.35
397.376	6.31
397.736	6.35
398.096	6.35
398.456	6.38
398.816	6.34
399.176	6.35
399.535	6.31
399.895	6.33
400.255	6.32
400.615	6.32
400.975	6.34
401.334	6.35
401.694	6.36
402.054	6.35
402.413	6.35
402.773	6.31
403.132	6.29
403.492	6.28
403.851	6.25
404.211	6.2
404.57	6.18
404.929	6.23
405.288	6.21
405.648	6.21
406.007	6.21
406.366	6.19
406.725	6.22
407.084	6.23
407.443	6.22
407.802	6.24
408.161	6.22
408.52	6.22
408.879	6.21
409.238	6.21
409.596	6.22
409.955	6.22
410.314	6.22
410.673	6.22
411.031	6.21
411.39	6.22
411.748	6.27
412.107	6.27
412.465	6.22
412.824	6.21
413.182	6.19
413.54	6.21
413.899	6.21
414.257	6.19
414.615	6.17
414.974	6.17
415.332	6.15
415.69	6.17
416.048	6.18
416.406	6.17
416.764	6.16
417.122	6.14
417.48	6.14
417.838	6.15
418.195	6.16
418.553	6.16
418.911	6.17
419.269	6.16
419.626	6.15
419.984	6.16
420.342	6.16
420.699	6.16
421.057	6.15
421.414	6.16
421.772	6.16
422.129	6.17
422.486	6.17
422.844	6.18
423.201	6.17
423.558	6.16
423.915	6.17
424.273	6.16
424.63	6.16
424.987	6.15
425.344	6.15
425.701	6.14
426.058	6.14
426.415	6.14
426.772	6.13
427.128	6.13
427.485	6.14
427.842	6.14
428.199	6.15
428.555	6.13
428.912	6.14
429.269	6.14
429.625	6.11
429.982	6.1
430.338	6.08
430.695	6.09
431.051	6.08
431.407	6.08
431.764	6.09
432.12	6.07
432.476	6.06
432.832	6.04
433.189	6.04
433.545	6.05
433.901	6.06
434.257	6.06
434.613	6.07
434.969	6.05
435.325	6.04
435.681	6.03
436.036	6.02
436.392	6
436.748	5.98
437.104	6
437.459	5.99
437.815	5.98
438.171	5.95
438.526	5.96
438.882	5.97
439.237	5.96
439.593	5.99
439.948	5.99
440.304	6.01
440.659	6
441.014	5.99
441.369	5.96
441.725	5.95
442.08	5.93
442.435	5.95
442.79	5.94
443.145	5.95
443.5	5.94
443.855	5.93
444.21	5.92
444.565	5.92
444.92	5.93
445.275	5.93
445.629	5.95
445.984	5.96
446.339	5.94
446.693	5.93
447.048	5.92
447.403	5.93
447.757	5.91
448.112	5.9
448.466	5.89
448.82	5.89
449.175	5.89
449.529	5.9
449.883	5.88
450.238	5.88
450.592	5.88
450.946	5.86
451.3	5.88
451.654	5.88
452.008	5.89
452.362	5.9
452.716	5.87
453.07	5.87
453.424	5.86
453.778	5.85
454.132	5.85
454.486	5.85
454.839	5.83
455.193	5.84
455.547	5.85
455.9	5.83
456.254	5.83
456.607	5.86
456.961	5.86
457.314	5.85
457.668	5.86
458.021	5.87
458.375	5.88
458.728	5.89
459.081	5.88
459.434	5.85
459.787	5.85
460.141	5.88
460.494	5.87
460.847	5.88
461.2	5.87
461.553	5.88
461.906	5.9
462.259	5.91
462.611	5.93
462.964	5.94
463.317	5.95
463.67	5.95
464.022	5.94
464.375	5.92
464.728	5.93
465.08	5.94
465.433	5.93
465.785	5.95
466.138	5.95
466.49	5.96
466.843	5.99
467.195	5.99
467.547	5.99
467.899	5.96
468.252	5.95
468.604	5.97
468.956	5.96
469.308	5.94
469.66	5.93
470.012	5.92
470.364	5.92
470.716	5.93
471.068	5.96
471.42	5.97
471.772	5.99
472.123	5.99
472.475	5.98
472.827	5.97
473.178	5.96
473.53	5.93
473.882	5.93
474.233	5.91
474.585	5.9
474.936	5.9
475.288	5.92
475.639	5.94
475.99	5.92
476.342	5.93
476.693	5.93
477.044	5.95
477.395	5.94
477.746	5.94
478.097	5.93
478.448	5.92
478.8	5.9
479.15	5.88
479.501	5.89
479.852	5.91
480.203	5.93
480.554	5.94
480.905	5.96
481.255	5.96
481.606	5.98
481.957	5.99
482.307	6
482.658	6
483.009	5.99
483.359	6.01
483.709	6.03
484.06	6.03
484.41	6.03
484.761	6.03
485.111	6.04
485.461	6.04
485.811	6.04
486.162	6.05
486.512	6.07
486.862	6.08
487.212	6.07
487.562	6.07
487.912	6.07
488.262	6.07
488.612	6.07
488.961	6.07
489.311	6.08
489.661	6.08
490.011	6.08
490.36	6.09
490.71	6.08
491.06	6.07
491.409	6.07
491.759	6.07
492.108	6.07
492.458	6.06
492.807	6.07
493.157	6.08
493.506	6.09
493.855	6.07
494.204	6.05
494.554	6.06
494.903	6.08
495.252	6.07
495.601	6.07
495.95	6.07
496.299	6.06
496.648	6.04
496.997	6.02
497.346	6.02
497.695	6.04
498.043	6.05
498.392	6.04
498.741	6.03
499.09	6.03
499.438	6.04
499.787	6.05
500.135	6.04
500.484	6.04
500.832	6.03
501.181	6.04
501.529	6.06
501.878	6.07
502.226	6.04
502.574	6.06
502.923	6.07
503.271	6.1
503.619	6.08
503.967	6.1
504.315	6.08
504.663	6.1
505.011	6.09
505.359	6.09
505.707	6.11
506.055	6.11
506.403	6.14
506.751	6.14
507.098	6.15
507.446	6.17
507.794	6.18
508.141	6.19
508.489	6.2
508.837	6.22
509.184	6.21
509.531	6.24
509.879	6.23
510.226	6.25
510.574	6.22
510.921	6.23
511.268	6.22
511.616	6.25
511.963	6.25
512.31	6.25
512.657	6.25
513.004	6.27
513.351	6.29
513.698	6.28
514.045	6.28
514.392	6.27
514.739	6.27
515.086	6.28
515.432	6.28
515.779	6.26
516.126	6.26
516.473	6.28
516.819	6.28
517.166	6.3
517.512	6.28
517.859	6.31
518.205	6.32
518.552	6.34
518.898	6.33
519.245	6.35
519.591	6.35
519.937	6.35
520.283	6.34
520.629	6.36
520.976	6.35
521.322	6.35
521.668	6.36
522.014	6.36
522.36	6.37
522.706	6.36
523.052	6.39
523.398	6.4
523.743	6.41
524.089	6.42
524.435	6.4
524.781	6.43
525.126	6.44
525.472	6.46
525.817	6.48
526.163	6.5
526.509	6.52
526.854	6.54
527.199	6.56
527.545	6.56
527.89	6.55
528.235	6.56
528.581	6.56
528.926	6.57
529.271	6.58
529.616	6.58
529.961	6.59
530.306	6.59
530.651	6.59
530.996	6.6
531.341	6.61
531.686	6.62
532.031	6.61
532.376	6.61
532.721	6.6
533.065	6.59
533.41	6.59
533.755	6.58
534.099	6.57
534.444	6.56
534.788	6.57
535.133	6.57
535.477	6.58
535.822	6.59
536.166	6.57
536.51	6.56
536.855	6.58
537.199	6.6
537.543	6.61
537.887	6.62
538.231	6.61
538.576	6.61
538.92	6.63
539.264	6.65
539.608	6.65
539.951	6.66
540.295	6.65
540.639	6.66
540.983	6.65
541.327	6.65
541.671	6.64
542.014	6.64
542.358	6.65
542.701	6.66
543.045	6.66
543.389	6.68
543.732	6.7
544.075	6.67
544.419	6.66
544.762	6.66
545.105	6.67
545.449	6.67
545.792	6.67
546.135	6.66
546.478	6.66
546.821	6.66
547.165	6.66
547.508	6.64
547.851	6.64
548.194	6.63
548.536	6.64
548.879	6.66
549.222	6.67
549.565	6.65
549.908	6.63
550.25	6.6
550.593	6.59
550.936	6.58
551.278	6.6
551.621	6.61
551.963	6.58
552.306	6.56
552.648	6.54
552.991	6.57
553.333	6.56
553.675	6.56
554.017	6.55
554.36	6.55
554.702	6.58
555.044	6.53
555.386	6.54
555.728	6.53
556.07	6.53
556.412	6.52
556.754	6.53
557.096	6.54
557.438	6.57
557.78	6.59
558.121	6.59
558.463	6.6
558.805	6.57
559.147	6.57
559.488	6.56
559.83	6.61
560.171	6.57
560.513	6.57
560.854	6.56
561.196	6.6
561.537	6.63
561.878	6.62
562.22	6.66
562.561	6.68
562.902	6.67
563.243	6.66
563.584	6.66
563.925	6.67
564.266	6.66
564.607	6.66
564.948	6.66
565.289	6.67
565.63	6.66
565.971	6.66
566.312	6.69
566.653	6.73
566.993	6.7
567.334	6.71
567.675	6.73
568.015	6.75
568.356	6.73
568.696	6.74
569.037	6.71
569.377	6.71
569.718	6.72
570.058	6.76
570.398	6.77
570.739	6.75
571.079	6.75
571.419	6.78
571.759	6.81
572.099	6.78
572.439	6.78
572.779	6.8
573.119	6.81
573.459	6.8
573.799	6.79
574.139	6.81
574.479	6.8
574.819	6.8
575.158	6.8
575.498	6.8
575.838	6.78
576.177	6.79
576.517	6.81
576.856	6.81
577.196	6.78
577.535	6.76
577.875	6.76
578.214	6.74
578.553	6.73
578.893	6.7
579.232	6.73
579.571	6.73
579.91	6.7
580.25	6.73
580.589	6.71
580.928	6.73
581.267	6.75
581.606	6.76
581.945	6.77
582.283	6.77
582.622	6.74
582.961	6.74
583.3	6.76
583.639	6.78
583.977	6.8
584.316	6.78
584.654	6.77
584.993	6.79
585.332	6.79
585.67	6.79
586.008	6.78
586.347	6.74
586.685	6.74
587.024	6.78
587.362	6.74
587.7	6.76
588.038	6.75
588.376	6.7
588.715	6.68
589.053	6.69
589.391	6.65
589.729	6.7
590.067	6.66
590.404	6.67
590.742	6.63
591.08	6.6
591.418	6.62
591.756	6.64
592.093	6.63
592.431	6.64
592.769	6.64
593.106	6.65
593.444	6.65
593.781	6.65
594.119	6.63
594.456	6.63
594.793	6.63
595.131	6.6
595.468	6.66
595.805	6.68
596.143	6.62
596.48	6.64
596.817	6.62
597.154	6.65
597.491	6.63
597.828	6.66
598.165	6.68
598.502	6.72
598.839	6.72
599.176	6.73
599.512	6.76
599.849	6.78
600.186	6.77
600.523	6.8
600.859	6.81
601.196	6.84
601.532	6.84
601.869	6.84
602.205	6.86
602.542	6.85
602.878	6.86
603.215	6.89
603.551	6.9
603.887	6.91
604.223	6.93
604.56	6.93
604.896	6.93
605.232	6.98
605.568	6.92
605.904	6.91
606.24	6.92
606.576	6.9
606.912	6.9
607.248	6.91
607.583	6.9
607.919	6.88
608.255	6.86
608.591	6.91
608.926	6.88
609.262	6.86
609.597	6.86
609.933	6.86
610.268	6.85
610.604	6.86
610.939	6.85
611.275	6.8
611.61	6.8
611.945	6.77
612.281	6.71
612.616	6.73
612.951	6.75
613.286	6.74
613.621	6.74
613.956	6.7
614.291	6.69
614.626	6.65
614.961	6.67
615.296	6.67
615.631	6.67
615.966	6.72
616.3	6.75
616.635	6.72
616.97	6.72
617.304	6.74
617.639	6.74
617.973	6.74
618.308	6.77
618.642	6.81
618.977	6.81
619.311	6.8
619.646	6.8
619.98	6.8
620.314	6.8
620.648	6.83
620.983	6.9
621.317	6.91
621.651	6.96
621.985	7.01
622.319	6.97
622.653	6.95
622.987	6.92
623.321	6.94
623.655	7.02
623.988	7.06
624.322	7.05
624.656	7.05
624.99	7.08
625.323	7.1
625.657	7.11
625.99	7.16
626.324	7.17
626.657	7.18
626.991	7.2
627.324	7.22
627.658	7.25
627.991	7.27
628.324	7.26
628.657	7.27
628.991	7.22
629.324	7.26
629.657	7.27
629.99	7.34
630.323	7.28
630.656	7.21
630.989	7.22
631.322	7.27
631.655	7.22
631.987	7.19
632.32	7.17
632.653	7.13
632.986	7.09
633.318	7.05
633.651	7.04
633.984	7.03
634.316	6.99
634.649	6.99
634.981	6.98
635.313	7
635.646	6.98
635.978	6.98
636.31	6.98
636.643	6.94
636.975	6.91
637.307	6.96
637.639	6.96
637.971	6.94
638.303	6.87
638.635	6.9
638.967	6.92
639.299	6.95
639.631	7.01
639.963	7
640.295	7.06
640.626	7.04
640.958	7.05
641.29	7.08
641.621	7.06
641.953	7.05
642.285	7.06
642.616	7.11
642.948	7.1
643.279	7.11
643.61	7.13
643.942	7.11
644.273	7.05
644.604	7.12
644.936	7.08
645.267	7.05
645.598	7.07
645.929	7.13
646.26	7.14
646.591	7.12
646.922	7.07
647.253	7.13
647.584	7.14
647.915	7.11
648.245	7.07
648.576	7.05
648.907	7.05
649.238	6.99
649.568	6.94
649.899	6.97
650.229	7.02
650.56	7.06
650.89	7.07
651.221	7.11
651.551	7.06
651.882	7.11
652.212	7.19
652.542	7.23
652.872	7.17
653.203	7.16
653.533	7.18
653.863	7.23
654.193	7.13
654.523	7.15
654.853	7.17
655.183	7.14
655.513	7.14
655.843	7.13
656.172	7.21
656.502	7.24
656.832	7.23
657.162	7.17
657.491	7.11
657.821	7.05
658.15	7.06
658.48	7.07
658.809	7.06
659.139	7.03
659.468	7.03
659.798	7.08
660.127	7.07
660.456	7.08
660.785	7.08
661.115	7.16
661.444	7.13
661.773	7.19
662.102	7.25
662.431	7.29
662.76	7.25
663.089	7.18
663.418	7.19
663.747	7.2
664.076	7.2
664.404	7.26
664.733	7.3
665.062	7.35
665.39	7.32
665.719	7.29
666.048	7.35
666.376	7.31
666.705	7.25
667.033	7.23
667.362	7.24
667.69	7.19
668.018	7.15
668.347	7.15
668.675	7.11
669.003	7.18
669.331	7.22
669.659	7.29
669.987	7.28
670.315	7.25
670.643	7.27
670.971	7.34
671.299	7.37
671.627	7.38
671.955	7.34
672.283	7.42
672.61	7.45
672.938	7.46
673.266	7.51
673.593	7.61
673.921	7.54
674.249	7.53
674.576	7.62
674.904	7.63
675.231	7.59
675.558	7.59
675.886	7.56
