Data from BA56830_Reflection_00013.txt Node
Date: Mon Nov 18 16:04:15 EST 2019
User: vgr7
Spectrometer: USB2G7710
Scans to average: 3
Trigger mode: 4
Integration Time (sec): 2.000000E-2
Electric dark correction enabled: true
Boxcar width: 10
XAxis mode: Wavelengths
Number of Pixels in Spectrum: 2048
>>>>>Begin Spectral Data<<<<<
177.721	176.46
178.105	165.36
178.488	101.11
178.871	110.84
179.254	175.88
179.636	-89.54
180.019	2544.44
180.402	136.84
180.785	-12.77
181.168	112.67
181.55	41.12
181.933	76.27
182.316	83.55
182.698	101.41
183.081	101.49
183.463	85.78
183.846	101.8
184.228	158.51
184.611	766.67
184.993	-1241.99
185.376	2230.08
185.758	719.96
186.14	923.85
186.522	377.96
186.904	916.54
187.287	1707.31
187.669	-977.69
188.051	2557.52
188.433	-139233.33
188.815	-689.05
189.197	-215.3
189.579	-132.71
189.961	-122.22
190.342	-91.26
190.724	-88.18
191.106	-91.38
191.488	-101.87
191.869	-113.43
192.251	-192.03
192.633	-234.18
193.014	-249.21
193.396	-358.7
193.777	-271.83
194.159	-259.84
194.54	-146.22
194.922	-116.44
195.303	-120.96
195.684	-115.59
196.065	-49.54
196.447	-47.49
196.828	-67.21
197.209	-79.03
197.59	-133.85
197.971	-114.95
198.352	-91.35
198.733	-108.01
199.114	-85.64
199.495	-71.49
199.876	-78.46
200.257	-61.83
200.638	-51.18
201.018	-80.62
201.399	-51.8
201.78	-42.17
202.16	-67.03
202.541	-82.57
202.922	-120.93
203.302	-122.22
203.683	-115.74
204.063	-166.49
204.444	-143.39
204.824	-85.49
205.204	-83.87
205.585	-56.74
205.965	-69
206.345	-93.34
206.725	-87.05
207.106	-81.35
207.486	-117.15
207.866	-67.88
208.246	-73.01
208.626	-95.66
209.006	-29.12
209.386	-53.66
209.766	-49.44
210.145	-42.37
210.525	-19.52
210.905	-10.6
211.285	-6.07
211.664	2.43
212.044	-18.27
212.424	-1.42
212.803	-11.54
213.183	-18.11
213.562	-30.18
213.942	-2.41
214.321	-13.1
214.701	-13.97
215.08	-30.63
215.459	-19.33
215.838	-30.21
216.218	-37.89
216.597	-22.41
216.976	-25.6
217.355	0.95
217.734	-6.61
218.113	6.26
218.492	3.05
218.871	3.57
219.25	8.65
219.629	13.21
220.008	17.79
220.387	14.77
220.766	13.51
221.144	16.98
221.523	6.55
221.902	7.09
222.28	21.44
222.659	19.73
223.037	17.12
223.416	7.49
223.794	5.21
224.173	9.23
224.551	7.2
224.929	-0.14
225.308	-5.6
225.686	-7.79
226.064	-7.37
226.442	-8.17
226.821	-9.57
227.199	-13.03
227.577	-15.21
227.955	-12.22
228.333	-11.96
228.711	-10.39
229.089	-5.51
229.467	-4.78
229.845	-6.42
230.222	-7.33
230.6	-8.02
230.978	-6.81
231.356	-1.34
231.733	0.28
232.111	-0.7
232.488	1.68
232.866	3.47
233.243	3.45
233.621	3.82
233.998	5.42
234.376	4.96
234.753	5.27
235.13	6.43
235.508	8.25
235.885	7.24
236.262	6.73
236.639	5.32
237.016	5.25
237.393	6.66
237.77	7.24
238.147	7.4
238.524	7.96
238.901	7.3
239.278	6.6
239.655	6.78
240.032	6.8
240.409	5.74
240.785	5.4
241.162	5.22
241.539	6.05
241.915	6.01
242.292	5.39
242.668	5.44
243.045	5.43
243.421	5.36
243.798	5.15
244.174	5.12
244.551	4.95
244.927	4.53
245.303	4.58
245.679	4.78
246.056	4.57
246.432	4.36
246.808	4.52
247.184	4.22
247.56	4.02
247.936	4.06
248.312	4.17
248.688	4.36
249.064	4.36
249.44	4.05
249.815	3.86
250.191	4.07
250.567	4.18
250.943	4.07
251.318	4.02
251.694	4.23
252.069	4.07
252.445	4.58
252.82	4.78
253.196	4.4
253.571	4.04
253.947	4.12
254.322	4.5
254.697	4.33
255.073	4.37
255.448	4.14
255.823	4.29
256.198	4.38
256.573	4.09
256.948	4.13
257.323	4.12
257.698	4.06
258.073	3.88
258.448	3.7
258.823	3.85
259.198	3.71
259.573	3.47
259.948	3.55
260.322	3.53
260.697	3.42
261.072	3.5
261.446	3.47
261.821	3.46
262.195	3.29
262.57	3.19
262.944	3.23
263.319	3.24
263.693	3.12
264.067	2.98
264.442	2.9
264.816	2.8
265.19	2.75
265.564	2.71
265.938	2.71
266.313	2.66
266.687	2.57
267.061	2.86
267.435	2.99
267.809	2.96
268.183	2.89
268.556	2.84
268.93	2.94
269.304	2.96
269.678	3.11
270.051	3.18
270.425	3.23
270.799	3.28
271.172	3.35
271.546	3.4
271.919	3.42
272.293	3.54
272.666	3.72
273.04	3.76
273.413	3.84
273.787	3.92
274.16	3.98
274.533	3.91
274.906	3.71
275.279	3.67
275.653	3.79
276.026	3.67
276.399	3.82
276.772	3.78
277.145	3.82
277.518	3.86
277.891	3.93
278.263	3.84
278.636	3.88
279.009	3.96
279.382	4.09
279.755	4.04
280.127	4.07
280.5	4.02
280.872	4.04
281.245	3.93
281.617	4.03
281.99	4.1
282.362	4.03
282.735	3.94
283.107	4.08
283.479	4.09
283.852	4.18
284.224	4.19
284.596	4.2
284.968	4.35
285.34	4.31
285.713	4.14
286.085	4.26
286.457	4.28
286.829	4.36
287.201	4.24
287.572	4.25
287.944	4.19
288.316	4.18
288.688	4.04
289.06	4.13
289.431	4.13
289.803	4.07
290.175	4.14
290.546	4.33
290.918	4.32
291.289	4.27
291.661	4.28
292.032	4.37
292.403	4.43
292.775	4.32
293.146	4.22
293.517	4.43
293.889	4.47
294.26	4.36
294.631	4.34
295.002	4.35
295.373	4.38
295.744	4.49
296.115	4.62
296.486	4.69
296.857	4.7
297.228	4.76
297.599	4.8
297.97	4.86
298.34	4.76
298.711	4.75
299.082	4.79
299.452	4.92
299.823	4.85
300.194	4.73
300.564	4.72
300.935	4.97
301.305	4.89
301.676	4.96
302.046	5.16
302.416	5.38
302.787	5.56
303.157	5.61
303.527	5.58
303.897	5.47
304.267	5.65
304.637	5.76
305.008	5.63
305.378	5.69
305.748	5.63
306.117	5.62
306.487	5.79
306.857	5.83
307.227	5.83
307.597	5.86
307.967	5.98
308.336	6.14
308.706	6.02
309.076	6.16
309.445	6.19
309.815	6.12
310.184	5.89
310.554	5.75
310.923	5.74
311.293	5.84
311.662	5.81
312.031	5.75
312.401	5.68
312.77	5.78
313.139	5.82
313.508	6.01
313.877	6.17
314.246	6.16
314.616	6.18
314.985	6.22
315.353	6.23
315.722	6.28
316.091	6.29
316.46	6.11
316.829	6.12
317.198	6.12
317.567	6.16
317.935	6.3
318.304	6.47
318.672	6.63
319.041	6.7
319.41	6.77
319.778	6.84
320.147	7.01
320.515	6.85
320.883	6.73
321.252	6.78
321.62	6.76
321.988	6.88
322.357	7.11
322.725	7.11
323.093	7.15
323.461	7.25
323.829	7.27
324.197	7.63
324.565	7.69
324.933	7.72
325.301	7.77
325.669	7.76
326.037	7.82
326.405	7.84
326.772	7.84
327.14	7.98
327.508	7.99
327.875	7.95
328.243	8.09
328.61	8.17
328.978	8.17
329.346	8.37
329.713	8.25
330.08	8.14
330.448	8.12
330.815	8.16
331.182	8.15
331.55	8.24
331.917	8.26
332.284	8.31
332.651	8.41
333.018	8.4
333.385	8.55
333.752	8.48
334.119	8.53
334.486	8.58
334.853	8.51
335.22	8.57
335.587	8.63
335.954	8.76
336.32	8.83
336.687	8.89
337.054	8.87
337.42	8.97
337.787	8.95
338.153	8.99
338.52	9.01
338.886	9.03
339.253	9
339.619	8.97
339.986	8.9
340.352	8.89
340.718	8.88
341.084	8.69
341.451	8.76
341.817	8.85
342.183	8.82
342.549	8.86
342.915	8.92
343.281	8.89
343.647	8.87
344.013	8.91
344.379	8.81
344.745	8.83
345.11	8.82
345.476	8.95
345.842	9.09
346.208	9.13
346.573	9.16
346.939	9.32
347.304	9.31
347.67	9.31
348.035	9.34
348.401	9.46
348.766	9.57
349.132	9.59
349.497	9.42
349.862	9.56
350.228	9.6
350.593	9.58
350.958	9.63
351.323	9.66
351.688	9.71
352.053	9.87
352.418	9.86
352.783	9.86
353.148	9.78
353.513	9.71
353.878	9.74
354.243	9.79
354.608	9.69
354.972	9.68
355.337	9.81
355.702	9.9
356.066	9.86
356.431	9.82
356.795	9.86
357.16	9.86
357.524	9.74
357.889	9.73
358.253	9.73
358.618	9.77
358.982	9.75
359.346	9.62
359.71	9.53
360.075	9.52
360.439	9.54
360.803	9.52
361.167	9.46
361.531	9.43
361.895	9.42
362.259	9.34
362.623	9.38
362.987	9.33
363.351	9.19
363.714	9.2
364.078	9.25
364.442	9.17
364.806	9.23
365.169	9.18
365.533	9.12
365.896	9.09
366.26	9
366.623	8.97
366.987	9
367.35	9
367.714	8.93
368.077	8.92
368.44	8.9
368.803	8.86
369.167	8.76
369.53	8.64
369.893	8.64
370.256	8.57
370.619	8.5
370.982	8.48
371.345	8.38
371.708	8.27
372.071	8.19
372.434	8.1
372.797	8.09
373.159	8.07
373.522	8.01
373.885	8
374.247	7.92
374.61	7.87
374.973	7.78
375.335	7.79
375.698	7.7
376.06	7.65
376.423	7.6
376.785	7.59
377.147	7.61
377.51	7.53
377.872	7.49
378.234	7.45
378.596	7.42
378.958	7.37
379.321	7.36
379.683	7.32
380.045	7.26
380.407	7.24
380.769	7.21
381.13	7.17
381.492	7.11
381.854	7.08
382.216	7.05
382.578	6.99
382.939	6.9
383.301	6.85
383.663	6.83
384.024	6.85
384.386	6.83
384.747	6.8
385.109	6.8
385.47	6.73
385.832	6.69
386.193	6.68
386.554	6.65
386.916	6.6
387.277	6.66
387.638	6.62
387.999	6.58
388.36	6.54
388.721	6.55
389.082	6.51
389.443	6.47
389.804	6.43
390.165	6.39
390.526	6.38
390.887	6.34
391.248	6.31
391.609	6.26
391.969	6.19
392.33	6.11
392.691	6.06
393.051	6.05
393.412	6.03
393.772	5.98
394.133	5.93
394.493	5.9
394.854	5.8
395.214	5.77
395.574	5.72
395.935	5.69
396.295	5.59
396.655	5.56
397.015	5.51
397.376	5.48
397.736	5.43
398.096	5.38
398.456	5.37
398.816	5.3
399.176	5.21
399.535	5.18
399.895	5.15
400.255	5.14
400.615	5.09
400.975	5.03
401.334	5.01
401.694	4.99
402.054	4.96
402.413	4.95
402.773	4.92
403.132	4.87
403.492	4.85
403.851	4.86
404.211	4.84
404.57	4.82
404.929	4.8
405.288	4.78
405.648	4.76
406.007	4.73
406.366	4.69
406.725	4.73
407.084	4.74
407.443	4.71
407.802	4.69
408.161	4.69
408.52	4.66
408.879	4.63
409.238	4.6
409.596	4.59
409.955	4.57
410.314	4.57
410.673	4.57
411.031	4.54
411.39	4.51
411.748	4.5
412.107	4.5
412.465	4.48
412.824	4.48
413.182	4.46
413.54	4.45
413.899	4.46
414.257	4.4
414.615	4.37
414.974	4.4
415.332	4.36
415.69	4.34
416.048	4.31
416.406	4.31
416.764	4.29
417.122	4.26
417.48	4.2
417.838	4.18
418.195	4.17
418.553	4.14
418.911	4.14
419.269	4.12
419.626	4.1
419.984	4.07
420.342	4.06
420.699	4.06
421.057	4.04
421.414	4.01
421.772	4.01
422.129	3.98
422.486	3.95
422.844	3.94
423.201	3.91
423.558	3.9
423.915	3.89
424.273	3.88
424.63	3.86
424.987	3.86
425.344	3.84
425.701	3.84
426.058	3.84
426.415	3.83
426.772	3.82
427.128	3.8
427.485	3.8
427.842	3.77
428.199	3.77
428.555	3.76
428.912	3.78
429.269	3.76
429.625	3.78
429.982	3.77
430.338	3.77
430.695	3.79
431.051	3.77
431.407	3.75
431.764	3.74
432.12	3.75
432.476	3.76
432.832	3.76
433.189	3.75
433.545	3.74
433.901	3.73
434.257	3.7
434.613	3.71
434.969	3.72
435.325	3.75
435.681	3.74
436.036	3.72
436.392	3.7
436.748	3.7
437.104	3.68
437.459	3.68
437.815	3.67
438.171	3.68
438.526	3.7
438.882	3.7
439.237	3.7
439.593	3.71
439.948	3.69
440.304	3.69
440.659	3.69
441.014	3.72
441.369	3.7
441.725	3.68
442.08	3.68
442.435	3.68
442.79	3.65
443.145	3.64
443.5	3.64
443.855	3.64
444.21	3.63
444.565	3.64
444.92	3.65
445.275	3.65
445.629	3.63
445.984	3.62
446.339	3.61
446.693	3.6
447.048	3.6
447.403	3.59
447.757	3.58
448.112	3.57
448.466	3.55
448.82	3.55
449.175	3.58
449.529	3.56
449.883	3.53
450.238	3.52
450.592	3.53
450.946	3.52
451.3	3.52
451.654	3.52
452.008	3.51
452.362	3.49
452.716	3.48
453.07	3.5
453.424	3.49
453.778	3.48
454.132	3.48
454.486	3.45
454.839	3.45
455.193	3.45
455.547	3.44
455.9	3.45
456.254	3.46
456.607	3.47
456.961	3.47
457.314	3.48
457.668	3.47
458.021	3.46
458.375	3.46
458.728	3.46
459.081	3.44
459.434	3.44
459.787	3.45
460.141	3.45
460.494	3.44
460.847	3.44
461.2	3.45
461.553	3.47
461.906	3.49
462.259	3.51
462.611	3.52
462.964	3.54
463.317	3.52
463.67	3.52
464.022	3.51
464.375	3.54
464.728	3.53
465.08	3.54
465.433	3.56
465.785	3.58
466.138	3.58
466.49	3.61
466.843	3.61
467.195	3.61
467.547	3.61
467.899	3.62
468.252	3.61
468.604	3.63
468.956	3.63
469.308	3.63
469.66	3.61
470.012	3.62
470.364	3.63
470.716	3.64
471.068	3.65
471.42	3.64
471.772	3.64
472.123	3.69
472.475	3.71
472.827	3.71
473.178	3.71
473.53	3.74
473.882	3.72
474.233	3.76
474.585	3.75
474.936	3.75
475.288	3.73
475.639	3.74
475.99	3.75
476.342	3.74
476.693	3.72
477.044	3.74
477.395	3.74
477.746	3.73
478.097	3.73
478.448	3.73
478.8	3.73
479.15	3.71
479.501	3.69
479.852	3.67
480.203	3.67
480.554	3.67
480.905	3.66
481.255	3.65
481.606	3.64
481.957	3.64
482.307	3.64
482.658	3.65
483.009	3.63
483.359	3.62
483.709	3.63
484.06	3.64
484.41	3.65
484.761	3.65
485.111	3.65
485.461	3.65
485.811	3.65
486.162	3.65
486.512	3.66
486.862	3.66
487.212	3.66
487.562	3.66
487.912	3.66
488.262	3.66
488.612	3.67
488.961	3.68
489.311	3.68
489.661	3.68
490.011	3.69
490.36	3.7
490.71	3.71
491.06	3.71
491.409	3.71
491.759	3.7
492.108	3.7
492.458	3.71
492.807	3.72
493.157	3.72
493.506	3.74
493.855	3.74
494.204	3.76
494.554	3.78
494.903	3.78
495.252	3.8
495.601	3.82
495.95	3.85
496.299	3.86
496.648	3.89
496.997	3.91
497.346	3.94
497.695	4
498.043	4.03
498.392	4.04
498.741	4.08
499.09	4.12
499.438	4.18
499.787	4.2
500.135	4.25
500.484	4.29
500.832	4.31
501.181	4.35
501.529	4.4
501.878	4.46
502.226	4.53
502.574	4.57
502.923	4.61
503.271	4.64
503.619	4.7
503.967	4.75
504.315	4.81
504.663	4.86
505.011	4.9
505.359	4.97
505.707	5.06
506.055	5.12
506.403	5.18
506.751	5.22
507.098	5.3
507.446	5.38
507.794	5.44
508.141	5.53
508.489	5.59
508.837	5.65
509.184	5.72
509.531	5.8
509.879	5.87
510.226	5.97
510.574	6.07
510.921	6.13
511.268	6.19
511.616	6.27
511.963	6.35
512.31	6.42
512.657	6.49
513.004	6.57
513.351	6.67
513.698	6.75
514.045	6.86
514.392	6.92
514.739	6.98
515.086	7.07
515.432	7.15
515.779	7.24
516.126	7.33
516.473	7.42
516.819	7.5
517.166	7.59
517.512	7.65
517.859	7.75
518.205	7.85
518.552	7.95
518.898	8.03
519.245	8.12
519.591	8.22
519.937	8.3
520.283	8.39
520.629	8.49
520.976	8.61
521.322	8.71
521.668	8.86
522.014	8.99
522.36	9.14
522.706	9.29
523.052	9.45
523.398	9.62
523.743	9.77
524.089	9.93
524.435	10.06
524.781	10.21
525.126	10.35
525.472	10.49
525.817	10.62
526.163	10.73
526.509	10.86
526.854	11
527.199	11.12
527.545	11.23
527.89	11.35
528.235	11.46
528.581	11.58
528.926	11.71
529.271	11.87
529.616	12.01
529.961	12.14
530.306	12.28
530.651	12.41
530.996	12.57
531.341	12.76
531.686	12.96
532.031	13.16
532.376	13.36
532.721	13.54
533.065	13.76
533.41	13.97
533.755	14.18
534.099	14.39
534.444	14.6
534.788	14.87
535.133	15.09
535.477	15.34
535.822	15.59
536.166	15.85
536.51	16.12
536.855	16.43
537.199	16.76
537.543	17.09
537.887	17.41
538.231	17.76
538.576	18.09
538.92	18.43
539.264	18.74
539.608	19.06
539.951	19.35
540.295	19.61
540.639	19.9
540.983	20.17
541.327	20.45
541.671	20.71
542.014	20.96
542.358	21.23
542.701	21.51
543.045	21.79
543.389	22.03
543.732	22.29
544.075	22.55
544.419	22.86
544.762	23.12
545.105	23.46
545.449	23.77
545.792	24.09
546.135	24.44
546.478	24.79
546.821	25.14
547.165	25.53
547.508	25.9
547.851	26.3
548.194	26.69
548.536	27.09
548.879	27.49
549.222	27.9
549.565	28.25
549.908	28.58
550.25	28.95
550.593	29.37
550.936	29.74
551.278	30.12
551.621	30.46
551.963	30.89
552.306	31.25
552.648	31.63
552.991	31.98
553.333	32.3
553.675	32.63
554.017	32.95
554.36	33.26
554.702	33.62
555.044	33.9
555.386	34.18
555.728	34.43
556.07	34.75
556.412	35.03
556.754	35.36
557.096	35.72
557.438	36.09
557.78	36.41
558.121	36.76
558.463	37.11
558.805	37.37
559.147	37.66
559.488	37.93
559.83	38.18
560.171	38.44
560.513	38.75
560.854	39.04
561.196	39.32
561.537	39.57
561.878	39.81
562.22	40.05
562.561	40.32
562.902	40.57
563.243	40.84
563.584	41.09
563.925	41.4
564.266	41.61
564.607	41.8
564.948	42.01
565.289	42.23
565.63	42.4
565.971	42.66
566.312	42.84
566.653	43.04
566.993	43.25
567.334	43.46
567.675	43.62
568.015	43.78
568.356	43.98
568.696	44.18
569.037	44.36
569.377	44.62
569.718	44.78
570.058	44.99
570.398	45.14
570.739	45.37
571.079	45.47
571.419	45.63
571.759	45.8
572.099	45.95
572.439	46.11
572.779	46.26
573.119	46.32
573.459	46.47
573.799	46.65
574.139	46.77
574.479	46.87
574.819	47
575.158	47.15
575.498	47.29
575.838	47.48
576.177	47.68
576.517	47.83
576.856	48.02
577.196	48.16
577.535	48.27
577.875	48.37
578.214	48.53
578.553	48.63
578.893	48.74
579.232	48.89
579.571	49.06
579.91	49.23
580.25	49.44
580.589	49.61
580.928	49.74
581.267	49.92
581.606	50.08
581.945	50.21
582.283	50.4
582.622	50.52
582.961	50.56
583.3	50.58
583.639	50.68
583.977	50.8
584.316	50.87
584.654	51
584.993	51.11
585.332	51.24
585.67	51.39
586.008	51.46
586.347	51.58
586.685	51.59
587.024	51.65
587.362	51.7
587.7	51.75
588.038	51.86
588.376	51.89
588.715	51.99
589.053	52.09
589.391	52.11
589.729	52.15
590.067	52.21
590.404	52.29
590.742	52.38
591.08	52.37
591.418	52.48
591.756	52.57
592.093	52.59
592.431	52.69
592.769	52.68
593.106	52.84
593.444	52.84
593.781	53.01
594.119	53.1
594.456	53.2
594.793	53.25
595.131	53.29
595.468	53.37
595.805	53.43
596.143	53.49
596.48	53.56
596.817	53.66
597.154	53.72
597.491	53.83
597.828	53.8
598.165	53.93
598.502	53.99
598.839	54.01
599.176	54.15
599.512	54.2
599.849	54.34
600.186	54.36
600.523	54.47
600.859	54.56
601.196	54.56
601.532	54.55
601.869	54.62
602.205	54.7
602.542	54.7
602.878	54.71
603.215	54.71
603.551	54.74
603.887	54.83
604.223	54.92
604.56	54.91
604.896	55.01
605.232	55.05
605.568	55.08
605.904	55.09
606.24	55.12
606.576	55.13
606.912	55.12
607.248	55.15
607.583	55.15
607.919	55.14
608.255	55.2
608.591	55.35
608.926	55.4
609.262	55.5
609.597	55.65
609.933	55.79
610.268	55.95
610.604	56.03
610.939	56.06
611.275	56.14
611.61	56.17
611.945	56.23
612.281	56.28
612.616	56.32
612.951	56.42
613.286	56.47
613.621	56.5
613.956	56.61
614.291	56.72
614.626	56.77
614.961	56.81
615.296	56.9
615.631	56.93
615.966	56.96
616.3	56.92
616.635	56.91
616.97	56.88
617.304	56.85
617.639	56.97
617.973	56.95
618.308	56.91
618.642	56.96
618.977	56.92
619.311	56.93
619.646	57.04
619.98	57.09
620.314	57.03
620.648	57.1
620.983	57.12
621.317	57.18
621.651	57.22
621.985	57.28
622.319	57.23
622.653	57.28
622.987	57.27
623.321	57.24
623.655	57.18
623.988	57.23
624.322	57.28
624.656	57.24
624.99	57.28
625.323	57.33
625.657	57.39
625.99	57.43
626.324	57.54
626.657	57.54
626.991	57.54
627.324	57.6
627.658	57.68
627.991	57.75
628.324	57.77
628.657	57.8
628.991	57.77
629.324	57.82
629.657	57.81
629.99	57.91
630.323	57.97
630.656	58
630.989	58.02
631.322	58.08
631.655	57.99
631.987	58.11
632.32	58.08
632.653	58.17
632.986	58.23
633.318	58.19
633.651	58.29
633.984	58.38
634.316	58.47
634.649	58.5
634.981	58.56
635.313	58.61
635.646	58.62
635.978	58.64
636.31	58.71
636.643	58.77
636.975	58.78
637.307	58.93
637.639	59.02
637.971	59.08
638.303	58.99
638.635	59.06
638.967	59.03
639.299	59.1
639.631	59.04
639.963	59.01
640.295	59.07
640.626	58.91
640.958	58.93
641.29	58.93
641.621	58.91
641.953	58.83
642.285	58.84
642.616	58.9
642.948	59.03
643.279	59.08
643.61	58.97
643.942	58.82
644.273	58.57
644.604	58.57
644.936	58.48
645.267	58.54
645.598	58.59
645.929	58.49
646.26	58.49
646.591	58.51
646.922	58.55
647.253	58.56
647.584	58.56
647.915	58.56
648.245	58.49
648.576	58.53
648.907	58.55
649.238	58.47
649.568	58.52
649.899	58.5
650.229	58.57
650.56	58.64
650.89	58.78
651.221	58.92
651.551	58.95
651.882	59.06
652.212	59.17
652.542	59.23
652.872	59.29
653.203	59.26
653.533	59.38
653.863	59.49
654.193	59.51
654.523	59.62
654.853	59.58
655.183	59.69
655.513	59.77
655.843	59.83
656.172	59.97
656.502	60
656.832	60.05
657.162	59.99
657.491	59.99
657.821	60.04
658.15	60
658.48	60.12
658.809	60.14
659.139	59.99
659.468	60.04
659.798	60.01
660.127	60.13
660.456	60.1
660.785	59.99
661.115	59.99
661.444	60.05
661.773	60.14
662.102	60.04
662.431	59.95
662.76	59.92
663.089	59.86
663.418	59.82
663.747	59.8
664.076	59.83
664.404	59.95
664.733	59.93
665.062	60.04
665.39	59.92
665.719	59.83
666.048	60.01
666.376	60.01
666.705	60.16
667.033	60.17
667.362	60.18
