Data from BA56825_Reflection_00006.txt Node
Date: Mon Nov 18 15:37:27 EST 2019
User: vgr7
Spectrometer: USB2G7710
Scans to average: 3
Trigger mode: 4
Integration Time (sec): 2.000000E-2
Electric dark correction enabled: true
Boxcar width: 10
XAxis mode: Wavelengths
Number of Pixels in Spectrum: 2048
>>>>>Begin Spectral Data<<<<<
177.721	273.3
178.105	81.23
178.488	94.44
178.871	135.12
179.254	113.47
179.636	97.93
180.019	241.23
180.402	81.82
180.785	-209.06
181.168	-35.5
181.55	-3194.12
181.933	184.73
182.316	92.36
182.698	112.27
183.081	179.26
183.463	422.47
183.846	1346.96
184.228	-1025.4
184.611	-941.1
184.993	-298.07
185.376	-177.6
185.758	-219.96
186.14	-379.25
186.522	-332.91
186.904	-236.81
187.287	-421.88
187.669	-191.46
188.051	-159.53
188.433	-131.21
188.815	-134.43
189.197	-138.81
189.579	-100.3
189.961	-108.92
190.342	-79.75
190.724	-47.03
191.106	-56.23
191.488	-64.25
191.869	-59.82
192.251	-67.58
192.633	-34.76
193.014	-27.95
193.396	-19.24
193.777	-19.54
194.159	-16.65
194.54	-12.6
194.922	-19.67
195.303	-17.29
195.684	-24.06
196.065	-19.55
196.447	-7.02
196.828	-14.89
197.209	-9.54
197.59	-18.81
197.971	-8.42
198.352	-8.14
198.733	-18.15
199.114	-2.3
199.495	-0.05
199.876	8.59
200.257	15.63
200.638	2.43
201.018	-1.44
201.399	-8.66
201.78	-3.9
202.16	-15.93
202.541	-23.06
202.922	-41.38
203.302	-38.08
203.683	-34.23
204.063	-47.07
204.444	-52.74
204.824	-39.17
205.204	-38.98
205.585	-23.96
205.965	-27.22
206.345	-51.05
206.725	-67.23
207.106	-100.65
207.486	-117.09
207.866	-137.75
208.246	-195.58
208.626	-160.39
209.006	-119.15
209.386	-145.96
209.766	-167.14
210.145	-124.26
210.525	-108.7
210.905	-79.32
211.285	-73.23
211.664	-59.15
212.044	-49.94
212.424	-75.4
212.803	-96.29
213.183	-85.9
213.562	-99.2
213.942	-79.73
214.321	-56.62
214.701	-63.05
215.08	-54.8
215.459	-51.91
215.838	-57.32
216.218	-55.02
216.597	-77.4
216.976	-87.32
217.355	-38.88
217.734	-20.67
218.113	-27.84
218.492	-44.05
218.871	-59.72
219.25	-37.19
219.629	-57.25
220.008	-66.07
220.387	-44.92
220.766	-55.28
221.144	-69.89
221.523	-87.01
221.902	-92.16
222.28	-117.51
222.659	-84.57
223.037	-77.21
223.416	-76.78
223.794	-70.3
224.173	-63.6
224.551	-47.92
224.929	-50.7
225.308	-49.43
225.686	-41.95
226.064	-36.89
226.442	-37.94
226.821	-29.56
227.199	-34.92
227.577	-35.96
227.955	-38.36
228.333	-34.99
228.711	-31.04
229.089	-24.55
229.467	-21.95
229.845	-23.67
230.222	-20.34
230.6	-19.81
230.978	-18.16
231.356	-15.96
231.733	-13.98
232.111	-14.41
232.488	-15.78
232.866	-12.77
233.243	-12.79
233.621	-13.38
233.998	-12.22
234.376	-11.94
234.753	-12.3
235.13	-10.8
235.508	-7.64
235.885	-5.39
236.262	-5.01
236.639	-3.2
237.016	-3.68
237.393	-1.9
237.77	-0.34
238.147	-1.02
238.524	-0.73
238.901	0.05
239.278	0.71
239.655	1.64
240.032	2.14
240.409	2.93
240.785	2.36
241.162	2.67
241.539	2.91
241.915	3.09
242.292	3.27
242.668	3.57
243.045	3.82
243.421	3.85
243.798	4.14
244.174	4.17
244.551	3.91
244.927	4.15
245.303	4.16
245.679	4.11
246.056	4.31
246.432	4.33
246.808	4.5
247.184	4.27
247.56	4.21
247.936	4.25
248.312	4.34
248.688	4.63
249.064	4.55
249.44	4.64
249.815	4.54
250.191	4.67
250.567	4.68
250.943	4.53
251.318	4.62
251.694	4.29
252.069	4.2
252.445	4.16
252.82	4.08
253.196	3.98
253.571	3.82
253.947	3.92
254.322	4.07
254.697	3.64
255.073	3.69
255.448	3.61
255.823	3.49
256.198	3.72
256.573	3.59
256.948	3.79
257.323	3.75
257.698	3.99
258.073	3.98
258.448	4.05
258.823	4.02
259.198	3.78
259.573	3.99
259.948	3.98
260.322	4.04
260.697	3.97
261.072	3.9
261.446	4.19
261.821	4.12
262.195	4.07
262.57	4.1
262.944	4.03
263.319	3.97
263.693	4.05
264.067	3.85
264.442	3.94
264.816	3.81
265.19	3.69
265.564	3.58
265.938	3.65
266.313	3.47
266.687	3.67
267.061	3.92
267.435	3.81
267.809	3.68
268.183	3.74
268.556	3.7
268.93	3.86
269.304	3.77
269.678	3.78
270.051	3.89
270.425	3.89
270.799	3.91
271.172	3.91
271.546	3.94
271.919	4
272.293	3.96
272.666	4.13
273.04	4.24
273.413	4.25
273.787	4.23
274.16	4.23
274.533	4.18
274.906	4.08
275.279	4.14
275.653	4.17
276.026	4.04
276.399	4.16
276.772	4.2
277.145	4.19
277.518	4.19
277.891	4.21
278.263	4.26
278.636	4.37
279.009	4.36
279.382	4.26
279.755	4.28
280.127	4.48
280.5	4.39
280.872	4.51
281.245	4.45
281.617	4.42
281.99	4.6
282.362	4.61
282.735	4.46
283.107	4.46
283.479	4.6
283.852	4.75
284.224	4.69
284.596	4.59
284.968	4.53
285.34	4.62
285.713	4.54
286.085	4.65
286.457	4.84
286.829	4.89
287.201	4.91
287.572	4.83
287.944	4.73
288.316	4.71
288.688	4.66
289.06	4.51
289.431	4.55
289.803	4.41
290.175	4.34
290.546	4.56
290.918	4.52
291.289	4.48
291.661	4.46
292.032	4.47
292.403	4.56
292.775	4.76
293.146	4.65
293.517	4.63
293.889	4.53
294.26	4.4
294.631	4.45
295.002	4.44
295.373	4.55
295.744	4.52
296.115	4.61
296.486	4.55
296.857	4.66
297.228	4.71
297.599	4.86
297.97	5.02
298.34	4.97
298.711	5.05
299.082	5.06
299.452	5.17
299.823	5.29
300.194	5.26
300.564	5.14
300.935	5.24
301.305	5.32
301.676	5.46
302.046	5.55
302.416	5.58
302.787	5.74
303.157	5.67
303.527	5.8
303.897	5.79
304.267	5.8
304.637	6.06
305.008	6.05
305.378	5.98
305.748	5.91
306.117	5.95
306.487	5.95
306.857	6.01
307.227	5.93
307.597	5.81
307.967	5.73
308.336	5.8
308.706	5.77
309.076	5.81
309.445	5.66
309.815	5.57
310.184	5.49
310.554	5.4
310.923	5.43
311.293	5.44
311.662	5.38
312.031	5.39
312.401	5.1
312.77	5.11
313.139	5.1
313.508	5.08
313.877	5.01
314.246	5.02
314.616	4.98
314.985	4.79
315.353	4.77
315.722	4.82
316.091	4.75
316.46	4.72
316.829	4.56
317.198	4.66
317.567	4.71
317.935	4.68
318.304	4.76
318.672	4.7
319.041	4.67
319.41	4.72
319.778	4.94
320.147	5.12
320.515	5.1
320.883	5.04
321.252	5.16
321.62	5.27
321.988	5.25
322.357	5.19
322.725	5.36
323.093	5.39
323.461	5.32
323.829	5.35
324.197	5.42
324.565	5.57
324.933	5.6
325.301	5.58
325.669	5.65
326.037	5.68
326.405	5.72
326.772	5.82
327.14	5.84
327.508	5.75
327.875	5.74
328.243	5.83
328.61	5.85
328.978	5.82
329.346	5.8
329.713	5.76
330.08	5.82
330.448	5.8
330.815	5.64
331.182	5.74
331.55	5.69
331.917	5.63
332.284	5.67
332.651	5.68
333.018	5.69
333.385	5.7
333.752	5.83
334.119	6.01
334.486	5.89
334.853	5.86
335.22	5.83
335.587	5.92
335.954	5.8
336.32	5.77
336.687	5.7
337.054	5.6
337.42	5.64
337.787	5.73
338.153	5.74
338.52	5.88
338.886	5.79
339.253	5.75
339.619	5.78
339.986	5.65
340.352	5.68
340.718	5.72
341.084	5.69
341.451	5.59
341.817	5.5
342.183	5.46
342.549	5.43
342.915	5.44
343.281	5.38
343.647	5.46
344.013	5.49
344.379	5.44
344.745	5.54
345.11	5.51
345.476	5.47
345.842	5.5
346.208	5.53
346.573	5.65
346.939	5.87
347.304	5.77
347.67	5.78
348.035	5.64
348.401	5.7
348.766	5.67
349.132	5.65
349.497	5.59
349.862	5.66
350.228	5.7
350.593	5.77
350.958	5.75
351.323	5.69
351.688	5.66
352.053	5.83
352.418	5.78
352.783	5.87
353.148	5.8
353.513	5.8
353.878	5.85
354.243	5.76
354.608	5.69
354.972	5.77
355.337	5.85
355.702	6.01
356.066	5.99
356.431	5.99
356.795	5.99
357.16	5.98
357.524	5.99
357.889	6
358.253	5.99
358.618	6.01
358.982	6.01
359.346	5.99
359.71	5.84
360.075	5.87
360.439	5.82
360.803	5.89
361.167	5.82
361.531	5.71
361.895	5.78
362.259	5.76
362.623	5.77
362.987	5.72
363.351	5.65
363.714	5.61
364.078	5.59
364.442	5.54
364.806	5.53
365.169	5.5
365.533	5.51
365.896	5.47
366.26	5.49
366.623	5.57
366.987	5.6
367.35	5.64
367.714	5.68
368.077	5.71
368.44	5.7
368.803	5.8
369.167	5.79
369.53	5.74
369.893	5.7
370.256	5.78
370.619	5.81
370.982	5.82
371.345	5.78
371.708	5.8
372.071	5.88
372.434	5.88
372.797	5.85
373.159	5.78
373.522	5.76
373.885	5.77
374.247	5.69
374.61	5.71
374.973	5.69
375.335	5.67
375.698	5.68
376.06	5.67
376.423	5.63
376.785	5.74
377.147	5.74
377.51	5.78
377.872	5.73
378.234	5.69
378.596	5.66
378.958	5.67
379.321	5.66
379.683	5.67
380.045	5.68
380.407	5.7
380.769	5.72
381.13	5.76
381.492	5.74
381.854	5.79
382.216	5.82
382.578	5.84
382.939	5.8
383.301	5.78
383.663	5.72
384.024	5.68
384.386	5.68
384.747	5.64
385.109	5.65
385.47	5.58
385.832	5.61
386.193	5.63
386.554	5.6
386.916	5.6
387.277	5.59
387.638	5.59
387.999	5.56
388.36	5.56
388.721	5.56
389.082	5.56
389.443	5.54
389.804	5.5
390.165	5.51
390.526	5.56
390.887	5.54
391.248	5.6
391.609	5.6
391.969	5.58
392.33	5.62
392.691	5.62
393.051	5.64
393.412	5.65
393.772	5.61
394.133	5.64
394.493	5.68
394.854	5.66
395.214	5.67
395.574	5.68
395.935	5.65
396.295	5.66
396.655	5.65
397.015	5.66
397.376	5.67
397.736	5.69
398.096	5.69
398.456	5.69
398.816	5.69
399.176	5.71
399.535	5.68
399.895	5.66
400.255	5.7
400.615	5.72
400.975	5.7
401.334	5.7
401.694	5.72
402.054	5.69
402.413	5.67
402.773	5.61
403.132	5.6
403.492	5.62
403.851	5.58
404.211	5.59
404.57	5.57
404.929	5.58
405.288	5.55
405.648	5.49
406.007	5.5
406.366	5.48
406.725	5.51
407.084	5.54
407.443	5.54
407.802	5.51
408.161	5.49
408.52	5.49
408.879	5.5
409.238	5.48
409.596	5.47
409.955	5.5
410.314	5.53
410.673	5.53
411.031	5.51
411.39	5.51
411.748	5.47
412.107	5.51
412.465	5.49
412.824	5.52
413.182	5.54
413.54	5.51
413.899	5.53
414.257	5.51
414.615	5.49
414.974	5.51
415.332	5.52
415.69	5.51
416.048	5.49
416.406	5.52
416.764	5.5
417.122	5.5
417.48	5.47
417.838	5.5
418.195	5.49
418.553	5.52
418.911	5.52
419.269	5.54
419.626	5.51
419.984	5.51
420.342	5.5
420.699	5.5
421.057	5.52
421.414	5.52
421.772	5.51
422.129	5.5
422.486	5.5
422.844	5.51
423.201	5.49
423.558	5.5
423.915	5.49
424.273	5.51
424.63	5.49
424.987	5.49
425.344	5.49
425.701	5.5
426.058	5.5
426.415	5.49
426.772	5.47
427.128	5.48
427.485	5.5
427.842	5.48
428.199	5.5
428.555	5.48
428.912	5.48
429.269	5.47
429.625	5.45
429.982	5.43
430.338	5.42
430.695	5.44
431.051	5.45
431.407	5.44
431.764	5.42
432.12	5.44
432.476	5.45
432.832	5.43
433.189	5.44
433.545	5.43
433.901	5.43
434.257	5.44
434.613	5.44
434.969	5.43
435.325	5.43
435.681	5.42
436.036	5.41
436.392	5.43
436.748	5.42
437.104	5.45
437.459	5.44
437.815	5.43
438.171	5.43
438.526	5.39
438.882	5.4
439.237	5.4
439.593	5.4
439.948	5.4
440.304	5.41
440.659	5.4
441.014	5.4
441.369	5.4
441.725	5.39
442.08	5.4
442.435	5.39
442.79	5.39
443.145	5.4
443.5	5.41
443.855	5.41
444.21	5.42
444.565	5.43
444.92	5.45
445.275	5.43
445.629	5.44
445.984	5.46
446.339	5.45
446.693	5.45
447.048	5.45
447.403	5.45
447.757	5.43
448.112	5.42
448.466	5.41
448.82	5.42
449.175	5.43
449.529	5.42
449.883	5.4
450.238	5.4
450.592	5.41
450.946	5.38
451.3	5.35
451.654	5.33
452.008	5.32
452.362	5.31
452.716	5.29
453.07	5.27
453.424	5.26
453.778	5.27
454.132	5.26
454.486	5.26
454.839	5.27
455.193	5.28
455.547	5.29
455.9	5.28
456.254	5.29
456.607	5.29
456.961	5.3
457.314	5.32
457.668	5.33
458.021	5.3
458.375	5.32
458.728	5.35
459.081	5.37
459.434	5.36
459.787	5.36
460.141	5.39
460.494	5.39
460.847	5.4
461.2	5.39
461.553	5.39
461.906	5.4
462.259	5.42
462.611	5.44
462.964	5.44
463.317	5.46
463.67	5.46
464.022	5.46
464.375	5.45
464.728	5.45
465.08	5.47
465.433	5.46
465.785	5.45
466.138	5.42
466.49	5.42
466.843	5.43
467.195	5.44
467.547	5.46
467.899	5.44
468.252	5.45
468.604	5.47
468.956	5.46
469.308	5.45
469.66	5.43
470.012	5.43
470.364	5.41
470.716	5.4
471.068	5.4
471.42	5.41
471.772	5.47
472.123	5.46
472.475	5.44
472.827	5.48
473.178	5.49
473.53	5.5
473.882	5.5
474.233	5.49
474.585	5.48
474.936	5.47
475.288	5.51
475.639	5.52
475.99	5.53
476.342	5.54
476.693	5.54
477.044	5.54
477.395	5.53
477.746	5.53
478.097	5.53
478.448	5.55
478.8	5.55
479.15	5.53
479.501	5.56
479.852	5.57
480.203	5.56
480.554	5.57
480.905	5.58
481.255	5.59
481.606	5.6
481.957	5.62
482.307	5.63
482.658	5.62
483.009	5.63
483.359	5.63
483.709	5.65
484.06	5.65
484.41	5.66
484.761	5.67
485.111	5.67
485.461	5.68
485.811	5.68
486.162	5.68
486.512	5.68
486.862	5.68
487.212	5.69
487.562	5.7
487.912	5.69
488.262	5.69
488.612	5.69
488.961	5.69
489.311	5.69
489.661	5.69
490.011	5.69
490.36	5.68
490.71	5.68
491.06	5.67
491.409	5.68
491.759	5.68
492.108	5.67
492.458	5.68
492.807	5.67
493.157	5.69
493.506	5.69
493.855	5.68
494.204	5.67
494.554	5.67
494.903	5.67
495.252	5.69
495.601	5.69
495.95	5.68
496.299	5.69
496.648	5.67
496.997	5.68
497.346	5.68
497.695	5.69
498.043	5.69
498.392	5.71
498.741	5.72
499.09	5.71
499.438	5.72
499.787	5.72
500.135	5.72
500.484	5.71
500.832	5.73
501.181	5.73
501.529	5.74
501.878	5.76
502.226	5.77
502.574	5.77
502.923	5.8
503.271	5.83
503.619	5.83
503.967	5.85
504.315	5.83
504.663	5.85
505.011	5.86
505.359	5.86
505.707	5.85
506.055	5.86
506.403	5.87
506.751	5.87
507.098	5.88
507.446	5.92
507.794	5.92
508.141	5.94
508.489	5.96
508.837	5.97
509.184	5.97
509.531	5.97
509.879	5.99
510.226	6
510.574	6.01
510.921	6.04
511.268	6.05
511.616	6.07
511.963	6.07
512.31	6.09
512.657	6.12
513.004	6.14
513.351	6.15
513.698	6.18
514.045	6.2
514.392	6.19
514.739	6.19
515.086	6.2
515.432	6.19
515.779	6.19
516.126	6.2
516.473	6.22
516.819	6.23
517.166	6.22
517.512	6.22
517.859	6.2
518.205	6.19
518.552	6.21
518.898	6.23
519.245	6.25
519.591	6.23
519.937	6.22
520.283	6.22
520.629	6.24
520.976	6.23
521.322	6.21
521.668	6.22
522.014	6.22
522.36	6.22
522.706	6.24
523.052	6.26
523.398	6.28
523.743	6.28
524.089	6.29
524.435	6.31
524.781	6.32
525.126	6.34
525.472	6.35
525.817	6.37
526.163	6.36
526.509	6.37
526.854	6.38
527.199	6.4
527.545	6.4
527.89	6.39
528.235	6.4
528.581	6.43
528.926	6.42
529.271	6.42
529.616	6.42
529.961	6.43
530.306	6.43
530.651	6.43
530.996	6.43
531.341	6.43
531.686	6.44
532.031	6.46
532.376	6.46
532.721	6.47
533.065	6.45
533.41	6.45
533.755	6.46
534.099	6.47
534.444	6.47
534.788	6.49
535.133	6.49
535.477	6.51
535.822	6.49
536.166	6.5
536.51	6.5
536.855	6.52
537.199	6.52
537.543	6.51
537.887	6.51
538.231	6.51
538.576	6.52
538.92	6.51
539.264	6.49
539.608	6.49
539.951	6.48
540.295	6.48
540.639	6.5
540.983	6.49
541.327	6.49
541.671	6.49
542.014	6.48
542.358	6.48
542.701	6.48
543.045	6.5
543.389	6.5
543.732	6.52
544.075	6.53
544.419	6.52
544.762	6.53
545.105	6.54
545.449	6.54
545.792	6.55
546.135	6.56
546.478	6.56
546.821	6.56
547.165	6.57
547.508	6.57
547.851	6.57
548.194	6.56
548.536	6.55
548.879	6.55
549.222	6.56
549.565	6.57
549.908	6.57
550.25	6.55
550.593	6.54
550.936	6.53
551.278	6.52
551.621	6.55
551.963	6.56
552.306	6.57
552.648	6.6
552.991	6.61
553.333	6.61
553.675	6.61
554.017	6.62
554.36	6.61
554.702	6.64
555.044	6.61
555.386	6.64
555.728	6.66
556.07	6.68
556.412	6.64
556.754	6.64
557.096	6.61
557.438	6.65
557.78	6.68
558.121	6.72
558.463	6.71
558.805	6.68
559.147	6.68
559.488	6.68
559.83	6.65
560.171	6.64
560.513	6.65
560.854	6.67
561.196	6.69
561.537	6.72
561.878	6.72
562.22	6.73
562.561	6.71
562.902	6.7
563.243	6.69
563.584	6.73
563.925	6.73
564.266	6.74
564.607	6.74
564.948	6.73
565.289	6.69
565.63	6.7
565.971	6.72
566.312	6.7
566.653	6.7
566.993	6.7
567.334	6.69
567.675	6.69
568.015	6.69
568.356	6.68
568.696	6.69
569.037	6.68
569.377	6.69
569.718	6.69
570.058	6.69
570.398	6.68
570.739	6.69
571.079	6.66
571.419	6.66
571.759	6.68
572.099	6.67
572.439	6.7
572.779	6.69
573.119	6.68
573.459	6.7
573.799	6.73
574.139	6.75
574.479	6.74
574.819	6.75
575.158	6.74
575.498	6.75
575.838	6.7
576.177	6.7
576.517	6.69
576.856	6.74
577.196	6.74
577.535	6.75
577.875	6.74
578.214	6.76
578.553	6.78
578.893	6.75
579.232	6.74
579.571	6.72
579.91	6.75
580.25	6.76
580.589	6.76
580.928	6.75
581.267	6.74
581.606	6.73
581.945	6.73
582.283	6.73
582.622	6.71
582.961	6.73
583.3	6.73
583.639	6.77
583.977	6.74
584.316	6.74
584.654	6.77
584.993	6.8
585.332	6.8
585.67	6.82
586.008	6.83
586.347	6.86
586.685	6.9
587.024	6.87
587.362	6.9
587.7	6.92
588.038	6.94
588.376	6.97
588.715	6.99
589.053	6.96
589.391	6.98
589.729	7
590.067	6.97
590.404	6.97
590.742	6.96
591.08	6.98
591.418	6.99
591.756	6.95
592.093	6.92
592.431	6.95
592.769	6.94
593.106	6.92
593.444	6.92
593.781	6.9
594.119	6.91
594.456	6.91
594.793	6.87
595.131	6.81
595.468	6.81
595.805	6.81
596.143	6.84
596.48	6.85
596.817	6.84
597.154	6.89
597.491	6.89
597.828	6.9
598.165	6.88
598.502	6.88
598.839	6.9
599.176	6.93
599.512	6.91
599.849	6.91
600.186	6.92
600.523	6.95
600.859	6.98
601.196	6.98
601.532	6.96
601.869	6.95
602.205	6.98
602.542	7.01
602.878	6.98
603.215	6.98
603.551	6.95
603.887	6.99
604.223	6.97
604.56	6.97
604.896	6.96
605.232	6.98
605.568	7
605.904	6.98
606.24	7.01
606.576	7.03
606.912	7.05
607.248	7.06
607.583	7.06
607.919	7.03
608.255	7.02
608.591	7.04
608.926	7.06
609.262	7.08
609.597	7.03
609.933	7.06
610.268	7.03
610.604	7.07
610.939	7.06
611.275	7.05
611.61	7.06
611.945	7.05
612.281	7.01
612.616	6.95
612.951	6.96
613.286	6.92
613.621	6.93
613.956	6.93
614.291	6.96
614.626	6.96
614.961	6.95
615.296	6.95
615.631	6.99
615.966	6.97
616.3	6.94
616.635	6.94
616.97	6.94
617.304	7
617.639	6.99
617.973	7
618.308	7.06
618.642	7.09
618.977	7.11
619.311	7.2
619.646	7.23
619.98	7.19
620.314	7.19
620.648	7.17
620.983	7.13
621.317	7.13
621.651	7.14
621.985	7.17
622.319	7.15
622.653	7.11
622.987	7.16
623.321	7.2
623.655	7.22
623.988	7.2
624.322	7.13
624.656	7.16
624.99	7.18
625.323	7.11
625.657	7.11
625.99	7.16
626.324	7.13
626.657	7.17
626.991	7.22
627.324	7.22
627.658	7.24
627.991	7.28
628.324	7.25
628.657	7.24
628.991	7.22
629.324	7.26
629.657	7.25
629.99	7.25
630.323	7.2
630.656	7.2
630.989	7.26
631.322	7.29
631.655	7.23
631.987	7.22
632.32	7.3
632.653	7.32
632.986	7.24
633.318	7.19
633.651	7.2
633.984	7.19
634.316	7.19
634.649	7.18
634.981	7.15
635.313	7.17
635.646	7.16
635.978	7.2
636.31	7.14
636.643	7.15
636.975	7.18
637.307	7.21
637.639	7.2
637.971	7.18
638.303	7.22
638.635	7.18
638.967	7.1
639.299	7.09
639.631	7.02
639.963	7.02
640.295	7.08
640.626	7.02
640.958	7.04
641.29	7.05
641.621	7.06
641.953	7.04
642.285	7.05
642.616	7.1
642.948	7.04
643.279	7.08
643.61	7.13
643.942	7.09
644.273	7.18
644.604	7.22
644.936	7.18
645.267	7.15
645.598	7.24
645.929	7.36
646.26	7.38
646.591	7.41
646.922	7.39
647.253	7.37
647.584	7.45
647.915	7.43
648.245	7.44
648.576	7.45
648.907	7.54
649.238	7.47
649.568	7.44
649.899	7.49
650.229	7.48
650.56	7.47
650.89	7.47
651.221	7.4
651.551	7.34
651.882	7.38
652.212	7.41
652.542	7.45
652.872	7.37
653.203	7.32
653.533	7.31
653.863	7.37
654.193	7.4
654.523	7.39
654.853	7.36
655.183	7.39
655.513	7.34
655.843	7.31
656.172	7.36
656.502	7.36
656.832	7.33
657.162	7.34
657.491	7.29
657.821	7.28
658.15	7.28
658.48	7.3
658.809	7.3
659.139	7.27
659.468	7.28
659.798	7.3
660.127	7.35
660.456	7.37
660.785	7.41
661.115	7.44
661.444	7.42
661.773	7.45
662.102	7.4
662.431	7.48
662.76	7.42
663.089	7.45
663.418	7.43
663.747	7.45
664.076	7.52
664.404	7.58
664.733	7.59
665.062	7.58
665.39	7.57
665.719	7.52
666.048	7.56
666.376	7.45
666.705	7.45
667.033	7.33
667.362	7.33
667.69	7.19
668.018	7.15
668.347	7.18
668.675	7.23
669.003	7.28
669.331	7.29
669.659	7.37
669.987	7.34
670.315	7.44
670.643	7.41
670.971	7.45
671.299	7.45
671.627	7.48
671.955	7.5
672.283	7.53
672.61	7.58
672.938	7.64
673.266	7.74
673.593	7.84
673.921	7.9
674.249	7.93
674.576	8.03
674.904	7.99
675.231	7.89
675.558	7.84
675.886	7.78
676.213	7.69
676.54	7.67
