Data from BA56825_Reflection_00015.txt Node
Date: Mon Nov 18 15:37:56 EST 2019
User: vgr7
Spectrometer: USB2G7710
Scans to average: 3
Trigger mode: 4
Integration Time (sec): 2.000000E-2
Electric dark correction enabled: true
Boxcar width: 10
XAxis mode: Wavelengths
Number of Pixels in Spectrum: 2048
>>>>>Begin Spectral Data<<<<<
177.721	324.82
178.105	51.74
178.488	11.87
178.871	38.02
179.254	24.93
179.636	-92.15
180.019	195.67
180.402	20
180.785	82.17
181.168	-83.21
181.55	-5900
181.933	218.23
182.316	125.78
182.698	133.98
183.081	200.31
183.463	521.96
183.846	1363.16
184.228	-999.68
184.611	-1100
184.993	-315.79
185.376	-168.28
185.758	-190.78
186.14	-321.68
186.522	-238.03
186.904	-199.51
187.287	-306.28
187.669	-132.98
188.051	-131.04
188.433	-118.51
188.815	-105.05
189.197	-131.53
189.579	-90.62
189.961	-92.16
190.342	-79.27
190.724	-70.22
191.106	-92.9
191.488	-110.97
191.869	-87.36
192.251	-122.67
192.633	-70.67
193.014	-87.95
193.396	-117.01
193.777	-104.23
194.159	-85.6
194.54	-86.06
194.922	-64.27
195.303	-65.09
195.684	-61.6
196.065	-58.16
196.447	-58.9
196.828	-61.43
197.209	-57.69
197.59	-52.44
197.971	-57.99
198.352	-43.34
198.733	-46.71
199.114	-32.37
199.495	-5.7
199.876	-4.24
200.257	0.16
200.638	-9.65
201.018	-2.98
201.399	8.89
201.78	2.83
202.16	-7.56
202.541	-19.41
202.922	-43.41
203.302	-56
203.683	-64.97
204.063	-67.16
204.444	-44.7
204.824	-38.79
205.204	-38.59
205.585	-45.72
205.965	-42.37
206.345	-56.11
206.725	-63.56
207.106	-77.04
207.486	-137.89
207.866	-193.96
208.246	-244.19
208.626	-194.83
209.006	-165.62
209.386	-185.26
209.766	-174.22
210.145	-126.97
210.525	-114.23
210.905	-99.5
211.285	-86.28
211.664	-74.71
212.044	-70.67
212.424	-89.97
212.803	-125.09
213.183	-100.84
213.562	-80.02
213.942	-65.43
214.321	-74.44
214.701	-87.87
215.08	-96.48
215.459	-76.04
215.838	-58.5
216.218	-52.68
216.597	-56.79
216.976	-57.45
217.355	-26.72
217.734	-30.67
218.113	-45.55
218.492	-31.32
218.871	-28.55
219.25	-5.2
219.629	-22.24
220.008	-24.55
220.387	-23.13
220.766	-23.12
221.144	-29.81
221.523	-45.9
221.902	-63.59
222.28	-63.13
222.659	-47.01
223.037	-27.34
223.416	-34.79
223.794	-37
224.173	-40.1
224.551	-48.49
224.929	-43.53
225.308	-36.87
225.686	-34.48
226.064	-27.77
226.442	-22.1
226.821	-19.56
227.199	-22.01
227.577	-20.18
227.955	-19.59
228.333	-19.52
228.711	-16.49
229.089	-11.48
229.467	-11.6
229.845	-9.03
230.222	-7.16
230.6	-6.36
230.978	-7.91
231.356	-4.95
231.733	-3.34
232.111	-2.35
232.488	0.35
232.866	0.31
233.243	-0.42
233.621	0.3
233.998	1.87
234.376	-0.16
234.753	0.26
235.13	1.23
235.508	1.31
235.885	1.24
236.262	0.87
236.639	1.07
237.016	0.1
237.393	0.78
237.77	2.02
238.147	2.81
238.524	3.75
238.901	4.98
239.278	3.96
239.655	4.38
240.032	4.89
240.409	4.7
240.785	4.71
241.162	5.28
241.539	5.15
241.915	4.72
242.292	4.66
242.668	4.93
243.045	4.92
243.421	5
243.798	4.72
244.174	5.04
244.551	5.12
244.927	5.08
245.303	5.29
245.679	4.96
246.056	4.74
246.432	4.29
246.808	4.22
247.184	4.3
247.56	4.2
247.936	3.82
248.312	3.55
248.688	3.74
249.064	3.5
249.44	3.4
249.815	3.49
250.191	3.84
250.567	3.75
250.943	3.52
251.318	3.48
251.694	3.89
252.069	3.59
252.445	3.36
252.82	3.2
253.196	3.04
253.571	3.11
253.947	3.23
254.322	3.37
254.697	3.23
255.073	3.01
255.448	3.02
255.823	3.24
256.198	3.61
256.573	3.33
256.948	3.48
257.323	3.65
257.698	3.5
258.073	3.26
258.448	3.14
258.823	3.38
259.198	3.2
259.573	3.19
259.948	3.24
260.322	3.29
260.697	3.43
261.072	3.22
261.446	3.35
261.821	3.33
262.195	3.44
262.57	3.32
262.944	3.26
263.319	3.24
263.693	3.3
264.067	3.36
264.442	3.54
264.816	3.54
265.19	3.48
265.564	3.4
265.938	3.53
266.313	3.62
266.687	3.5
267.061	3.68
267.435	3.48
267.809	3.46
268.183	3.45
268.556	3.31
268.93	3.6
269.304	3.56
269.678	3.69
270.051	3.71
270.425	3.95
270.799	4.08
271.172	4.14
271.546	3.99
271.919	3.9
272.293	3.97
272.666	3.96
273.04	3.95
273.413	4.04
273.787	4.07
274.16	4.12
274.533	4.18
274.906	4.14
275.279	4.27
275.653	4.23
276.026	4.29
276.399	4.4
276.772	4.28
277.145	4.26
277.518	4.22
277.891	4.35
278.263	4.17
278.636	4.22
279.009	4.19
279.382	4.3
279.755	4.13
280.127	4.18
280.5	4.3
280.872	4.42
281.245	4.47
281.617	4.42
281.99	4.5
282.362	4.43
282.735	4.21
283.107	4.02
283.479	4.14
283.852	4.03
284.224	3.97
284.596	4.08
284.968	4.02
285.34	3.98
285.713	3.86
286.085	3.96
286.457	4.05
286.829	4.02
287.201	4.1
287.572	4.18
287.944	4
288.316	3.83
288.688	3.71
289.06	3.77
289.431	3.87
289.803	3.82
290.175	3.89
290.546	4.15
290.918	4.24
291.289	4.2
291.661	4.38
292.032	4.5
292.403	4.37
292.775	4.38
293.146	4.36
293.517	4.38
293.889	4.4
294.26	4.36
294.631	4.41
295.002	4.27
295.373	4.34
295.744	4.39
296.115	4.44
296.486	4.38
296.857	4.3
297.228	4.22
297.599	4.25
297.97	4.2
298.34	4.05
298.711	4.13
299.082	4.15
299.452	4.12
299.823	4.18
300.194	4.17
300.564	4.18
300.935	4.24
301.305	4.29
301.676	4.25
302.046	4.31
302.416	4.47
302.787	4.64
303.157	4.74
303.527	4.7
303.897	4.71
304.267	4.94
304.637	5.03
305.008	5.19
305.378	5.21
305.748	5.35
306.117	5.62
306.487	5.55
306.857	5.6
307.227	5.59
307.597	5.54
307.967	5.69
308.336	5.83
308.706	5.76
309.076	5.81
309.445	5.84
309.815	5.78
310.184	5.71
310.554	5.77
310.923	5.74
311.293	5.85
311.662	5.87
312.031	5.84
312.401	5.82
312.77	5.69
313.139	5.73
313.508	5.85
313.877	5.76
314.246	5.89
314.616	5.97
314.985	6.05
315.353	6
315.722	6.11
316.091	6.11
316.46	6.24
316.829	6.17
317.198	6.33
317.567	6.49
317.935	6.63
318.304	6.63
318.672	6.5
319.041	6.61
319.41	6.74
319.778	6.95
320.147	7.07
320.515	7.28
320.883	7.31
321.252	7.19
321.62	7.38
321.988	7.31
322.357	7.3
322.725	7.31
323.093	7.47
323.461	7.47
323.829	7.61
324.197	7.66
324.565	7.78
324.933	7.78
325.301	7.82
325.669	7.72
326.037	7.74
326.405	7.8
326.772	7.88
327.14	7.91
327.508	7.75
327.875	7.62
328.243	7.66
328.61	7.76
328.978	7.82
329.346	7.82
329.713	7.95
330.08	7.97
330.448	7.85
330.815	7.77
331.182	7.74
331.55	7.56
331.917	7.59
332.284	7.65
332.651	7.67
333.018	7.73
333.385	7.84
333.752	7.96
334.119	8.07
334.486	8.03
334.853	8.01
335.22	8.14
335.587	8.17
335.954	8.12
336.32	8.11
336.687	8.11
337.054	8.2
337.42	8.26
337.787	8.38
338.153	8.59
338.52	8.68
338.886	8.74
339.253	8.82
339.619	8.79
339.986	8.82
340.352	8.8
340.718	8.68
341.084	8.64
341.451	8.69
341.817	8.74
342.183	8.68
342.549	8.69
342.915	8.77
343.281	8.87
343.647	8.97
344.013	8.93
344.379	8.88
344.745	8.87
345.11	8.81
345.476	8.77
345.842	8.68
346.208	8.66
346.573	8.71
346.939	8.83
347.304	8.93
347.67	8.85
348.035	8.83
348.401	8.87
348.766	8.82
349.132	8.81
349.497	8.72
349.862	8.86
350.228	8.9
350.593	8.75
350.958	8.77
351.323	8.7
351.688	8.77
352.053	8.88
352.418	8.87
352.783	9
353.148	8.96
353.513	8.97
353.878	8.96
354.243	8.95
354.608	8.94
354.972	8.87
355.337	8.88
355.702	8.95
356.066	8.98
356.431	9
356.795	8.92
357.16	8.97
357.524	8.91
357.889	8.86
358.253	8.91
358.618	8.92
358.982	8.92
359.346	8.83
359.71	8.69
360.075	8.61
360.439	8.48
360.803	8.49
361.167	8.45
361.531	8.4
361.895	8.36
362.259	8.3
362.623	8.26
362.987	8.2
363.351	8.13
363.714	8.12
364.078	8.1
364.442	8
364.806	7.96
365.169	7.92
365.533	7.91
365.896	7.85
366.26	7.75
366.623	7.68
366.987	7.64
367.35	7.63
367.714	7.64
368.077	7.58
368.44	7.54
368.803	7.47
369.167	7.44
369.53	7.36
369.893	7.26
370.256	7.25
370.619	7.25
370.982	7.24
371.345	7.13
371.708	7.15
372.071	7.09
372.434	7.03
372.797	6.99
373.159	6.87
373.522	6.81
373.885	6.76
374.247	6.7
374.61	6.62
374.973	6.59
375.335	6.5
375.698	6.47
376.06	6.38
376.423	6.35
376.785	6.35
377.147	6.35
377.51	6.31
377.872	6.29
378.234	6.25
378.596	6.19
378.958	6.14
379.321	6.03
379.683	6.06
380.045	6.06
380.407	6.01
380.769	6.03
381.13	5.97
381.492	5.92
381.854	5.94
382.216	5.95
382.578	5.89
382.939	5.78
383.301	5.71
383.663	5.66
384.024	5.62
384.386	5.61
384.747	5.61
385.109	5.59
385.47	5.53
385.832	5.5
386.193	5.45
386.554	5.43
386.916	5.43
387.277	5.45
387.638	5.35
387.999	5.31
388.36	5.23
388.721	5.19
389.082	5.17
389.443	5.08
389.804	5
390.165	4.98
390.526	5.04
390.887	5.01
391.248	5.02
391.609	5.03
391.969	4.98
392.33	4.9
392.691	4.87
393.051	4.82
393.412	4.79
393.772	4.74
394.133	4.71
394.493	4.68
394.854	4.59
395.214	4.56
395.574	4.51
395.935	4.52
396.295	4.5
396.655	4.48
397.015	4.46
397.376	4.48
397.736	4.44
398.096	4.4
398.456	4.39
398.816	4.35
399.176	4.3
399.535	4.23
399.895	4.15
400.255	4.14
400.615	4.11
400.975	4.08
401.334	4.08
401.694	4.06
402.054	4.05
402.413	4.03
402.773	3.99
403.132	3.97
403.492	3.93
403.851	3.89
404.211	3.86
404.57	3.83
404.929	3.79
405.288	3.78
405.648	3.77
406.007	3.77
406.366	3.76
406.725	3.76
407.084	3.8
407.443	3.83
407.802	3.83
408.161	3.83
408.52	3.81
408.879	3.78
409.238	3.76
409.596	3.72
409.955	3.71
410.314	3.73
410.673	3.74
411.031	3.73
411.39	3.75
411.748	3.75
412.107	3.74
412.465	3.72
412.824	3.7
413.182	3.66
413.54	3.64
413.899	3.66
414.257	3.64
414.615	3.59
414.974	3.59
415.332	3.53
415.69	3.54
416.048	3.55
416.406	3.56
416.764	3.54
417.122	3.54
417.48	3.53
417.838	3.53
418.195	3.52
418.553	3.5
418.911	3.48
419.269	3.49
419.626	3.47
419.984	3.48
420.342	3.48
420.699	3.49
421.057	3.48
421.414	3.46
421.772	3.45
422.129	3.44
422.486	3.43
422.844	3.44
423.201	3.42
423.558	3.4
423.915	3.39
424.273	3.4
424.63	3.37
424.987	3.36
425.344	3.35
425.701	3.34
426.058	3.34
426.415	3.32
426.772	3.31
427.128	3.29
427.485	3.29
427.842	3.27
428.199	3.26
428.555	3.26
428.912	3.25
429.269	3.28
429.625	3.27
429.982	3.27
430.338	3.26
430.695	3.26
431.051	3.26
431.407	3.26
431.764	3.25
432.12	3.24
432.476	3.25
432.832	3.23
433.189	3.23
433.545	3.21
433.901	3.23
434.257	3.24
434.613	3.26
434.969	3.24
435.325	3.26
435.681	3.26
436.036	3.26
436.392	3.25
436.748	3.22
437.104	3.2
437.459	3.18
437.815	3.18
438.171	3.19
438.526	3.18
438.882	3.17
439.237	3.19
439.593	3.21
439.948	3.19
440.304	3.19
440.659	3.19
441.014	3.21
441.369	3.18
441.725	3.18
442.08	3.17
442.435	3.16
442.79	3.15
443.145	3.15
443.5	3.13
443.855	3.12
444.21	3.12
444.565	3.13
444.92	3.12
445.275	3.11
445.629	3.1
445.984	3.11
446.339	3.1
446.693	3.07
447.048	3.06
447.403	3.05
447.757	3.06
448.112	3.05
448.466	3.03
448.82	3.03
449.175	3.03
449.529	3.03
449.883	3.03
450.238	3.02
450.592	3.01
450.946	3
451.3	3
451.654	2.99
452.008	2.99
452.362	2.99
452.716	3
453.07	3.01
453.424	3
453.778	3
454.132	3
454.486	2.99
454.839	3.01
455.193	2.99
455.547	3.01
455.9	3.01
456.254	3.02
456.607	3
456.961	3
457.314	3
457.668	3
458.021	3.02
458.375	3
458.728	3
459.081	3.01
459.434	2.99
459.787	2.98
460.141	2.98
460.494	2.97
460.847	2.98
461.2	2.97
461.553	2.98
461.906	2.99
462.259	2.99
462.611	2.99
462.964	2.99
463.317	2.98
463.67	2.99
464.022	3
464.375	2.98
464.728	3
465.08	2.99
465.433	2.97
465.785	2.98
466.138	3
466.49	3.01
466.843	3.01
467.195	3.04
467.547	3.06
467.899	3.08
468.252	3.07
468.604	3.09
468.956	3.09
469.308	3.1
469.66	3.08
470.012	3.11
470.364	3.11
470.716	3.12
471.068	3.11
471.42	3.1
471.772	3.12
472.123	3.11
472.475	3.15
472.827	3.16
473.178	3.18
473.53	3.16
473.882	3.16
474.233	3.17
474.585	3.14
474.936	3.12
475.288	3.1
475.639	3.09
475.99	3.09
476.342	3.09
476.693	3.09
477.044	3.11
477.395	3.09
477.746	3.09
478.097	3.09
478.448	3.1
478.8	3.1
479.15	3.09
479.501	3.09
479.852	3.07
480.203	3.09
480.554	3.1
480.905	3.11
481.255	3.11
481.606	3.13
481.957	3.15
482.307	3.16
482.658	3.17
483.009	3.18
483.359	3.18
483.709	3.19
484.06	3.18
484.41	3.2
484.761	3.2
485.111	3.2
485.461	3.21
485.811	3.22
486.162	3.23
486.512	3.23
486.862	3.24
487.212	3.25
487.562	3.25
487.912	3.25
488.262	3.25
488.612	3.26
488.961	3.25
489.311	3.25
489.661	3.25
490.011	3.25
490.36	3.25
490.71	3.25
491.06	3.25
491.409	3.26
491.759	3.25
492.108	3.26
492.458	3.28
492.807	3.25
493.157	3.25
493.506	3.25
493.855	3.26
494.204	3.27
494.554	3.27
494.903	3.28
495.252	3.29
495.601	3.32
495.95	3.33
496.299	3.35
496.648	3.35
496.997	3.36
497.346	3.38
497.695	3.4
498.043	3.42
498.392	3.43
498.741	3.45
499.09	3.45
499.438	3.47
499.787	3.48
500.135	3.53
500.484	3.56
500.832	3.57
501.181	3.59
501.529	3.58
501.878	3.61
502.226	3.64
502.574	3.67
502.923	3.69
503.271	3.7
503.619	3.74
503.967	3.8
504.315	3.8
504.663	3.85
505.011	3.88
505.359	3.92
505.707	3.95
506.055	4.01
506.403	4.04
506.751	4.06
507.098	4.1
507.446	4.14
507.794	4.17
508.141	4.21
508.489	4.23
508.837	4.32
509.184	4.35
509.531	4.4
509.879	4.47
510.226	4.52
510.574	4.55
510.921	4.58
511.268	4.62
511.616	4.68
511.963	4.7
512.31	4.76
512.657	4.8
513.004	4.85
513.351	4.9
513.698	4.96
514.045	5
514.392	5.06
514.739	5.1
515.086	5.17
515.432	5.22
515.779	5.28
516.126	5.34
516.473	5.39
516.819	5.43
517.166	5.45
517.512	5.5
517.859	5.56
518.205	5.61
518.552	5.66
518.898	5.71
519.245	5.79
519.591	5.83
519.937	5.88
520.283	5.91
520.629	5.97
520.976	6.05
521.322	6.12
521.668	6.18
522.014	6.27
522.36	6.34
522.706	6.44
523.052	6.53
523.398	6.63
523.743	6.74
524.089	6.87
524.435	6.98
524.781	7.07
525.126	7.2
525.472	7.28
525.817	7.38
526.163	7.47
526.509	7.54
526.854	7.63
527.199	7.72
527.545	7.81
527.89	7.89
528.235	7.97
528.581	8.07
528.926	8.17
529.271	8.24
529.616	8.33
529.961	8.43
530.306	8.53
530.651	8.63
530.996	8.74
531.341	8.84
531.686	8.98
532.031	9.11
532.376	9.23
532.721	9.38
533.065	9.52
533.41	9.67
533.755	9.82
534.099	9.98
534.444	10.14
534.788	10.32
535.133	10.5
535.477	10.68
535.822	10.86
536.166	11.05
536.51	11.3
536.855	11.54
537.199	11.81
537.543	12.07
537.887	12.31
538.231	12.56
538.576	12.83
538.92	13.09
539.264	13.35
539.608	13.62
539.951	13.86
540.295	14.09
540.639	14.33
540.983	14.56
541.327	14.79
541.671	15.02
542.014	15.25
542.358	15.45
542.701	15.69
543.045	15.94
543.389	16.21
543.732	16.44
544.075	16.72
544.419	16.96
544.762	17.21
545.105	17.53
545.449	17.84
545.792	18.18
546.135	18.52
546.478	18.89
546.821	19.24
547.165	19.62
547.508	19.99
547.851	20.34
548.194	20.75
548.536	21.16
548.879	21.56
549.222	21.97
549.565	22.41
549.908	22.83
550.25	23.24
550.593	23.64
550.936	24.09
551.278	24.53
551.621	24.98
551.963	25.45
552.306	25.86
552.648	26.32
552.991	26.73
553.333	27.13
553.675	27.5
554.017	27.92
554.36	28.32
554.702	28.71
555.044	29.17
555.386	29.53
555.728	29.97
556.07	30.36
556.412	30.75
556.754	31.2
557.096	31.59
557.438	32.06
557.78	32.51
558.121	32.95
558.463	33.32
558.805	33.75
559.147	34.13
559.488	34.55
559.83	34.91
560.171	35.31
560.513	35.72
560.854	36.08
561.196	36.45
561.537	36.84
561.878	37.24
562.22	37.59
562.561	37.94
562.902	38.3
563.243	38.67
563.584	39.05
563.925	39.38
564.266	39.73
564.607	40
564.948	40.27
565.289	40.54
565.63	40.9
565.971	41.16
566.312	41.47
566.653	41.85
566.993	42.13
567.334	42.39
567.675	42.65
568.015	43
568.356	43.31
568.696	43.61
569.037	43.9
569.377	44.21
569.718	44.56
570.058	44.78
570.398	45.08
570.739	45.33
571.079	45.57
571.419	45.84
571.759	46.16
572.099	46.44
572.439	46.7
572.779	46.86
573.119	47.15
573.459	47.37
573.799	47.57
574.139	47.8
574.479	47.98
574.819	48.21
575.158	48.41
575.498	48.55
575.838	48.82
576.177	49.02
576.517	49.19
576.856	49.37
577.196	49.66
577.535	49.91
577.875	50.12
578.214	50.33
578.553	50.59
578.893	50.7
579.232	50.94
579.571	51.19
579.91	51.39
580.25	51.63
580.589	51.88
580.928	51.99
581.267	52.23
581.606	52.47
581.945	52.71
582.283	52.85
582.622	53.06
582.961	53.14
583.3	53.36
583.639	53.59
583.977	53.74
584.316	53.86
584.654	54.01
584.993	54.24
585.332	54.41
585.67	54.48
586.008	54.63
586.347	54.76
586.685	54.91
587.024	55.09
587.362	55.21
587.7	55.36
588.038	55.51
588.376	55.64
588.715	55.79
589.053	55.89
589.391	56.1
589.729	56.25
590.067	56.33
590.404	56.48
590.742	56.57
591.08	56.67
591.418	56.78
591.756	56.86
592.093	56.89
592.431	57.01
592.769	57.21
593.106	57.38
593.444	57.43
593.781	57.48
594.119	57.49
594.456	57.56
594.793	57.69
595.131	57.83
595.468	57.96
595.805	58.04
596.143	58.1
596.48	58.17
596.817	58.21
597.154	58.36
597.491	58.41
597.828	58.56
598.165	58.67
598.502	58.73
598.839	58.84
599.176	58.97
599.512	59.04
599.849	59.09
600.186	59.1
600.523	59.16
600.859	59.27
601.196	59.46
601.532	59.55
601.869	59.59
602.205	59.66
602.542	59.68
602.878	59.77
603.215	59.85
603.551	59.85
603.887	60
604.223	60.01
604.56	60.04
604.896	60.06
605.232	60.19
605.568	60.21
605.904	60.24
606.24	60.32
606.576	60.46
606.912	60.46
607.248	60.55
607.583	60.65
607.919	60.69
608.255	60.8
608.591	60.82
608.926	60.86
609.262	60.92
609.597	60.92
609.933	60.99
610.268	61.1
610.604	61.15
610.939	61.22
611.275	61.34
611.61	61.51
611.945	61.58
612.281	61.56
612.616	61.71
612.951	61.78
613.286	61.78
613.621	61.77
613.956	61.91
614.291	62.04
614.626	62.07
614.961	62.15
615.296	62.16
615.631	62.25
615.966	62.32
616.3	62.26
616.635	62.39
616.97	62.46
617.304	62.51
617.639	62.7
617.973	62.72
618.308	62.81
618.642	62.78
618.977	62.82
619.311	62.92
619.646	62.91
619.98	62.87
620.314	62.96
620.648	63.05
620.983	63.14
621.317	63.22
621.651	63.32
621.985	63.33
622.319	63.39
622.653	63.45
622.987	63.46
623.321	63.56
623.655	63.51
623.988	63.58
624.322	63.56
624.656	63.52
624.99	63.53
625.323	63.44
625.657	63.5
625.99	63.5
626.324	63.5
626.657	63.49
626.991	63.61
627.324	63.64
627.658	63.7
627.991	63.61
628.324	63.62
628.657	63.69
628.991	63.74
629.324	63.73
629.657	63.73
629.99	63.83
630.323	63.85
630.656	64.01
630.989	64.09
631.322	64.09
631.655	64.16
631.987	64.16
632.32	64.22
632.653	64.25
632.986	64.31
633.318	64.34
633.651	64.48
633.984	64.44
634.316	64.46
634.649	64.5
634.981	64.58
635.313	64.64
635.646	64.62
635.978	64.69
636.31	64.77
636.643	64.78
636.975	64.78
637.307	64.86
637.639	64.88
637.971	64.79
638.303	64.9
638.635	64.85
638.967	64.86
639.299	64.91
639.631	64.79
639.963	64.84
640.295	64.87
640.626	64.93
640.958	64.98
641.29	65.03
641.621	65.02
641.953	64.99
642.285	64.98
642.616	65.16
642.948	65.15
643.279	65.15
643.61	65.21
643.942	65.23
644.273	65.32
644.604	65.35
644.936	65.33
645.267	65.2
645.598	65.22
645.929	65.31
646.26	65.3
646.591	65.46
646.922	65.38
647.253	65.37
647.584	65.23
647.915	65.27
648.245	65.28
648.576	65.28
648.907	65.5
649.238	65.45
649.568	65.43
649.899	65.41
650.229	65.43
650.56	65.48
650.89	65.49
651.221	65.4
651.551	65.33
651.882	65.29
652.212	65.46
652.542	65.58
652.872	65.55
653.203	65.6
653.533	65.6
653.863	65.61
654.193	65.61
654.523	65.75
654.853	65.66
655.183	65.57
655.513	65.53
655.843	65.39
656.172	65.36
656.502	65.33
656.832	65.47
657.162	65.43
657.491	65.47
657.821	65.44
658.15	65.5
658.48	65.55
658.809	65.62
659.139	65.57
659.468	65.56
659.798	65.6
660.127	65.7
660.456	65.71
660.785	65.79
661.115	65.83
661.444	65.78
661.773	65.85
662.102	65.97
662.431	66.06
662.76	66.08
663.089	66.18
663.418	66.05
663.747	65.88
664.076	65.95
664.404	65.98
664.733	66.07
665.062	66.05
665.39	66.1
665.719	66.06
666.048	66.19
666.376	66.25
666.705	66.23
667.033	66.21
667.362	66.32
667.69	66.32
668.018	66.35
668.347	66.32
668.675	66.36
