Data from BA56813_Reflection_00004.txt Node
Date: Mon Nov 18 15:50:36 EST 2019
User: vgr7
Spectrometer: USB2G7710
Scans to average: 3
Trigger mode: 4
Integration Time (sec): 2.000000E-2
Electric dark correction enabled: true
Boxcar width: 10
XAxis mode: Wavelengths
Number of Pixels in Spectrum: 2048
>>>>>Begin Spectral Data<<<<<
177.721	-69.02
178.105	-119.08
178.488	-107.51
178.871	-59.63
179.254	18.65
179.636	-203.28
180.019	406.53
180.402	115.38
180.785	-40.8
181.168	-126.6
181.55	-11.49
181.933	87.99
182.316	66.98
182.698	59.76
183.081	45.3
183.463	39.99
183.846	52.19
184.228	26.74
184.611	16.52
184.993	-3.42
185.376	-30.11
185.758	-41.14
186.14	-73.86
186.522	-71.28
186.904	-69.96
187.287	-28.41
187.669	-60.54
188.051	-36.46
188.433	-102.13
188.815	-169.67
189.197	-105.78
189.579	-204.94
189.961	-131.56
190.342	-154.86
190.724	-314.11
191.106	-521.62
191.488	1782.63
191.869	599.05
192.251	725.84
192.633	583.3
193.014	2070.06
193.396	919.4
193.777	1414.14
194.159	2363.16
194.54	667.72
194.922	1583.22
195.303	254.77
195.684	200.73
196.065	166.6
196.447	250.04
196.828	119.65
197.209	123.97
197.59	72.38
197.971	67.12
198.352	51.25
198.733	70.13
199.114	79.62
199.495	76.85
199.876	103.03
200.257	68.41
200.638	68.48
201.018	38.69
201.399	72.36
201.78	74.6
202.16	61.36
202.541	26.27
202.922	13.99
203.302	-46.44
203.683	2.92
204.063	-20.93
204.444	-103.03
204.824	-70.39
205.204	-3.52
205.585	39.56
205.965	-12.55
206.345	-662.24
206.725	164.94
207.106	88.18
207.486	59.32
207.866	82.67
208.246	60.27
208.626	129.1
209.006	41.87
209.386	123.92
209.766	139.09
210.145	69.59
210.525	136.5
210.905	117.16
211.285	781.63
211.664	2422.03
212.044	3842.86
212.424	458.57
212.803	-2932.79
213.183	856.35
213.562	556.09
213.942	438.74
214.321	202.58
214.701	132.87
215.08	109
215.459	106.06
215.838	93.15
216.218	73.58
216.597	85.53
216.976	76.89
217.355	65.69
217.734	79.42
218.113	57.56
218.492	77.15
218.871	69.33
219.25	67.39
219.629	79.79
220.008	64.52
220.387	59.68
220.766	63.56
221.144	56.82
221.523	45.85
221.902	38.16
222.28	34.99
222.659	34.43
223.037	40.24
223.416	21.74
223.794	25.68
224.173	30.65
224.551	27.12
224.929	22.53
225.308	30.37
225.686	24.92
226.064	23.34
226.442	13.04
226.821	18.21
227.199	12.09
227.577	8.56
227.955	9.41
228.333	7.9
228.711	9.12
229.089	14.12
229.467	14.53
229.845	15.19
230.222	16
230.6	14.31
230.978	14.56
231.356	16.76
231.733	15.59
232.111	13.9
232.488	14.83
232.866	15.22
233.243	12.74
233.621	11.33
233.998	13.75
234.376	14.28
234.753	12.47
235.13	13.01
235.508	13.76
235.885	14.32
236.262	14.83
236.639	15.42
237.016	14.32
237.393	13.61
237.77	13.38
238.147	12.63
238.524	12.64
238.901	11.95
239.278	11.21
239.655	11.92
240.032	11.39
240.409	10.32
240.785	9.93
241.162	9.87
241.539	9.64
241.915	8.85
242.292	8.02
242.668	8.14
243.045	7.61
243.421	7.34
243.798	6.74
244.174	6.45
244.551	6.25
244.927	6
245.303	5.99
245.679	5.8
246.056	5.65
246.432	5.59
246.808	5.5
247.184	5.53
247.56	5.14
247.936	5.19
248.312	5.38
248.688	5.17
249.064	5.1
249.44	5.06
249.815	5.09
250.191	5.45
250.567	5.3
250.943	5.28
251.318	5.22
251.694	5.31
252.069	5.43
252.445	5.06
252.82	5.25
253.196	5.19
253.571	5
253.947	4.98
254.322	5
254.697	4.65
255.073	4.39
255.448	4.17
255.823	4.2
256.198	4.27
256.573	4.31
256.948	4.59
257.323	4.82
257.698	4.68
258.073	4.52
258.448	4.44
258.823	4.44
259.198	4.27
259.573	4.38
259.948	4.24
260.322	4.36
260.697	4.31
261.072	4.14
261.446	4.37
261.821	4.46
262.195	4.44
262.57	4.67
262.944	4.58
263.319	4.73
263.693	4.64
264.067	4.46
264.442	4.68
264.816	4.63
265.19	4.39
265.564	4.31
265.938	4.2
266.313	4.16
266.687	4.12
267.061	4.13
267.435	4.09
267.809	4.09
268.183	4.3
268.556	4.2
268.93	4.36
269.304	4.35
269.678	4.33
270.051	4.26
270.425	4.18
270.799	4.29
271.172	4.18
271.546	4.18
271.919	4.29
272.293	4.1
272.666	4.02
273.04	3.92
273.413	3.96
273.787	4
274.16	4.03
274.533	4.13
274.906	4.21
275.279	4.11
275.653	4.11
276.026	3.87
276.399	3.84
276.772	3.68
277.145	3.55
277.518	3.49
277.891	3.51
278.263	3.58
278.636	3.57
279.009	3.51
279.382	3.69
279.755	3.56
280.127	3.71
280.5	3.72
280.872	3.86
281.245	3.86
281.617	4
281.99	4.02
282.362	4.02
282.735	3.94
283.107	3.87
283.479	4.1
283.852	4.02
284.224	4.06
284.596	4.02
284.968	4.03
285.34	4.06
285.713	4.06
286.085	3.99
286.457	4.01
286.829	4.2
287.201	4.1
287.572	4.12
287.944	4.04
288.316	4.08
288.688	4.04
289.06	4.04
289.431	3.9
289.803	4.01
290.175	4.02
290.546	4.21
290.918	4.35
291.289	4.12
291.661	4.19
292.032	4.1
292.403	4.22
292.775	4.3
293.146	4.15
293.517	4.13
293.889	4.15
294.26	4.28
294.631	4.21
295.002	4.16
295.373	4.31
295.744	4.32
296.115	4.33
296.486	4.25
296.857	4.35
297.228	4.43
297.599	4.3
297.97	4.23
298.34	4.14
298.711	4.07
299.082	4.19
299.452	4.26
299.823	4.37
300.194	4.37
300.564	4.11
300.935	4.29
301.305	4.31
301.676	4.36
302.046	4.38
302.416	4.47
302.787	4.66
303.157	4.54
303.527	4.56
303.897	4.5
304.267	4.8
304.637	4.65
305.008	4.69
305.378	4.86
305.748	4.99
306.117	4.96
306.487	4.99
306.857	4.91
307.227	4.91
307.597	4.75
307.967	4.84
308.336	5.07
308.706	5.02
309.076	5.12
309.445	5
309.815	4.88
310.184	4.66
310.554	4.48
310.923	4.47
311.293	4.42
311.662	4.46
312.031	4.3
312.401	4.33
312.77	4.35
313.139	4.42
313.508	4.47
313.877	4.45
314.246	4.47
314.616	4.46
314.985	4.38
315.353	4.48
315.722	4.34
316.091	4.32
316.46	4.2
316.829	4.17
317.198	4.22
317.567	4.15
317.935	4.23
318.304	4.4
318.672	4.43
319.041	4.47
319.41	4.52
319.778	4.59
320.147	4.58
320.515	4.53
320.883	4.31
321.252	4.28
321.62	4.38
321.988	4.45
322.357	4.52
322.725	4.48
323.093	4.58
323.461	4.62
323.829	4.58
324.197	4.68
324.565	4.71
324.933	4.7
325.301	4.78
325.669	4.79
326.037	4.79
326.405	4.87
326.772	4.82
327.14	4.78
327.508	4.75
327.875	4.8
328.243	4.93
328.61	4.92
328.978	4.88
329.346	4.81
329.713	4.7
330.08	4.62
330.448	4.59
330.815	4.43
331.182	4.42
331.55	4.55
331.917	4.72
332.284	4.69
332.651	4.66
333.018	4.69
333.385	4.68
333.752	4.72
334.119	4.7
334.486	4.84
334.853	4.82
335.22	4.79
335.587	4.81
335.954	4.79
336.32	4.89
336.687	4.93
337.054	4.93
337.42	4.97
337.787	4.93
338.153	5.01
338.52	5.07
338.886	4.94
339.253	4.79
339.619	4.64
339.986	4.59
340.352	4.68
340.718	4.57
341.084	4.66
341.451	4.58
341.817	4.48
342.183	4.37
342.549	4.47
342.915	4.5
343.281	4.47
343.647	4.35
344.013	4.17
344.379	4.1
344.745	4.09
345.11	4.06
345.476	4.07
345.842	4.07
346.208	4.08
346.573	4.25
346.939	4.36
347.304	4.28
347.67	4.25
348.035	4.17
348.401	4.2
348.766	4.11
349.132	4.06
349.497	4.05
349.862	4.07
350.228	4.03
350.593	3.97
350.958	4.07
351.323	4.09
351.688	4.14
352.053	4.17
352.418	4.23
352.783	4.29
353.148	4.25
353.513	4.24
353.878	4.28
354.243	4.24
354.608	4.23
354.972	4.3
355.337	4.38
355.702	4.41
356.066	4.45
356.431	4.45
356.795	4.5
357.16	4.61
357.524	4.61
357.889	4.48
358.253	4.52
358.618	4.46
358.982	4.43
359.346	4.4
359.71	4.38
360.075	4.35
360.439	4.32
360.803	4.38
361.167	4.36
361.531	4.31
361.895	4.28
362.259	4.19
362.623	4.17
362.987	4.11
363.351	4.11
363.714	4.07
364.078	4.05
364.442	4.02
364.806	3.96
365.169	3.98
365.533	4.04
365.896	4.05
366.26	4.02
366.623	4.06
366.987	4.14
367.35	4.17
367.714	4.19
368.077	4.18
368.44	4.15
368.803	4.19
369.167	4.17
369.53	4.17
369.893	4.21
370.256	4.26
370.619	4.25
370.982	4.27
371.345	4.24
371.708	4.25
372.071	4.2
372.434	4.18
372.797	4.11
373.159	4.08
373.522	4.02
373.885	4.05
374.247	4.02
374.61	4
374.973	3.96
375.335	3.96
375.698	3.97
376.06	3.96
376.423	3.94
376.785	4.01
377.147	4.06
377.51	4.04
377.872	4.04
378.234	4.09
378.596	4.1
378.958	4.12
379.321	4.14
379.683	4.2
380.045	4.18
380.407	4.23
380.769	4.28
381.13	4.29
381.492	4.29
381.854	4.31
382.216	4.27
382.578	4.3
382.939	4.27
383.301	4.23
383.663	4.25
384.024	4.25
384.386	4.21
384.747	4.19
385.109	4.23
385.47	4.19
385.832	4.16
386.193	4.14
386.554	4.12
386.916	4.12
387.277	4.11
387.638	4.18
387.999	4.14
388.36	4.13
388.721	4.1
389.082	4.11
389.443	4.08
389.804	4.08
390.165	4.07
390.526	4.07
390.887	4.09
391.248	4.1
391.609	4.12
391.969	4.14
392.33	4.12
392.691	4.11
393.051	4.13
393.412	4.13
393.772	4.11
394.133	4.12
394.493	4.11
394.854	4.11
395.214	4.05
395.574	4.06
395.935	4.07
396.295	4.12
396.655	4.1
397.015	4.14
397.376	4.16
397.736	4.18
398.096	4.15
398.456	4.18
398.816	4.23
399.176	4.18
399.535	4.14
399.895	4.17
400.255	4.16
400.615	4.15
400.975	4.16
401.334	4.2
401.694	4.24
402.054	4.23
402.413	4.25
402.773	4.26
403.132	4.28
403.492	4.29
403.851	4.25
404.211	4.25
404.57	4.22
404.929	4.21
405.288	4.17
405.648	4.2
406.007	4.14
406.366	4.1
406.725	4.15
407.084	4.17
407.443	4.15
407.802	4.17
408.161	4.16
408.52	4.14
408.879	4.11
409.238	4.1
409.596	4.11
409.955	4.1
410.314	4.12
410.673	4.1
411.031	4.09
411.39	4.09
411.748	4.1
412.107	4.15
412.465	4.14
412.824	4.18
413.182	4.18
413.54	4.19
413.899	4.21
414.257	4.21
414.615	4.19
414.974	4.2
415.332	4.19
415.69	4.19
416.048	4.2
416.406	4.2
416.764	4.19
417.122	4.21
417.48	4.19
417.838	4.17
418.195	4.18
418.553	4.18
418.911	4.17
419.269	4.16
419.626	4.16
419.984	4.15
420.342	4.14
420.699	4.13
421.057	4.13
421.414	4.12
421.772	4.12
422.129	4.13
422.486	4.13
422.844	4.14
423.201	4.14
423.558	4.14
423.915	4.13
424.273	4.13
424.63	4.13
424.987	4.14
425.344	4.15
425.701	4.15
426.058	4.14
426.415	4.17
426.772	4.17
427.128	4.17
427.485	4.19
427.842	4.19
428.199	4.22
428.555	4.22
428.912	4.24
429.269	4.24
429.625	4.23
429.982	4.22
430.338	4.21
430.695	4.2
431.051	4.2
431.407	4.22
431.764	4.23
432.12	4.19
432.476	4.17
432.832	4.17
433.189	4.19
433.545	4.18
433.901	4.18
434.257	4.16
434.613	4.18
434.969	4.19
435.325	4.17
435.681	4.17
436.036	4.17
436.392	4.14
436.748	4.14
437.104	4.15
437.459	4.15
437.815	4.16
438.171	4.17
438.526	4.18
438.882	4.19
439.237	4.19
439.593	4.21
439.948	4.23
440.304	4.22
440.659	4.21
441.014	4.22
441.369	4.22
441.725	4.22
442.08	4.21
442.435	4.21
442.79	4.23
443.145	4.23
443.5	4.24
443.855	4.25
444.21	4.25
444.565	4.25
444.92	4.26
445.275	4.27
445.629	4.27
445.984	4.27
446.339	4.27
446.693	4.25
447.048	4.26
447.403	4.27
447.757	4.27
448.112	4.26
448.466	4.25
448.82	4.25
449.175	4.25
449.529	4.25
449.883	4.24
450.238	4.25
450.592	4.26
450.946	4.24
451.3	4.24
451.654	4.23
452.008	4.24
452.362	4.23
452.716	4.24
453.07	4.25
453.424	4.22
453.778	4.21
454.132	4.21
454.486	4.2
454.839	4.2
455.193	4.2
455.547	4.21
455.9	4.22
456.254	4.23
456.607	4.23
456.961	4.22
457.314	4.24
457.668	4.24
458.021	4.23
458.375	4.24
458.728	4.24
459.081	4.26
459.434	4.25
459.787	4.26
460.141	4.25
460.494	4.25
460.847	4.27
461.2	4.27
461.553	4.29
461.906	4.3
462.259	4.3
462.611	4.3
462.964	4.31
463.317	4.31
463.67	4.32
464.022	4.32
464.375	4.32
464.728	4.32
465.08	4.33
465.433	4.34
465.785	4.34
466.138	4.33
466.49	4.31
466.843	4.32
467.195	4.33
467.547	4.33
467.899	4.32
468.252	4.33
468.604	4.35
468.956	4.35
469.308	4.36
469.66	4.36
470.012	4.37
470.364	4.36
470.716	4.38
471.068	4.37
471.42	4.4
471.772	4.41
472.123	4.43
472.475	4.43
472.827	4.43
473.178	4.46
473.53	4.49
473.882	4.51
474.233	4.52
474.585	4.53
474.936	4.51
475.288	4.51
475.639	4.49
475.99	4.48
476.342	4.47
476.693	4.48
477.044	4.5
477.395	4.51
477.746	4.51
478.097	4.49
478.448	4.48
478.8	4.47
479.15	4.44
479.501	4.44
479.852	4.45
480.203	4.45
480.554	4.45
480.905	4.46
481.255	4.45
481.606	4.44
481.957	4.46
482.307	4.46
482.658	4.48
483.009	4.49
483.359	4.5
483.709	4.51
484.06	4.51
484.41	4.5
484.761	4.49
485.111	4.5
485.461	4.51
485.811	4.52
486.162	4.52
486.512	4.54
486.862	4.54
487.212	4.53
487.562	4.54
487.912	4.54
488.262	4.55
488.612	4.56
488.961	4.56
489.311	4.56
489.661	4.56
490.011	4.55
490.36	4.55
490.71	4.56
491.06	4.56
491.409	4.55
491.759	4.56
492.108	4.58
492.458	4.57
492.807	4.56
493.157	4.56
493.506	4.56
493.855	4.56
494.204	4.56
494.554	4.58
494.903	4.58
495.252	4.58
495.601	4.58
495.95	4.58
496.299	4.59
496.648	4.59
496.997	4.6
497.346	4.63
497.695	4.64
498.043	4.62
498.392	4.62
498.741	4.63
499.09	4.62
499.438	4.63
499.787	4.64
500.135	4.67
500.484	4.69
500.832	4.71
501.181	4.72
501.529	4.72
501.878	4.72
502.226	4.74
502.574	4.76
502.923	4.76
503.271	4.78
503.619	4.79
503.967	4.8
504.315	4.79
504.663	4.8
505.011	4.79
505.359	4.83
505.707	4.85
506.055	4.85
506.403	4.87
506.751	4.86
507.098	4.89
507.446	4.88
507.794	4.89
508.141	4.9
508.489	4.88
508.837	4.91
509.184	4.93
509.531	4.93
509.879	4.95
510.226	4.98
510.574	5
510.921	4.99
511.268	5
511.616	5.03
511.963	5.02
512.31	5.05
512.657	5.07
513.004	5.07
513.351	5.09
513.698	5.11
514.045	5.11
514.392	5.11
514.739	5.14
515.086	5.15
515.432	5.14
515.779	5.14
516.126	5.15
516.473	5.15
516.819	5.16
517.166	5.15
517.512	5.14
517.859	5.15
518.205	5.16
518.552	5.17
518.898	5.16
519.245	5.16
519.591	5.15
519.937	5.14
520.283	5.15
520.629	5.15
520.976	5.15
521.322	5.15
521.668	5.15
522.014	5.15
522.36	5.16
522.706	5.18
523.052	5.2
523.398	5.23
523.743	5.23
524.089	5.23
524.435	5.24
524.781	5.24
525.126	5.24
525.472	5.25
525.817	5.25
526.163	5.26
526.509	5.28
526.854	5.3
527.199	5.31
527.545	5.31
527.89	5.32
528.235	5.32
528.581	5.33
528.926	5.34
529.271	5.35
529.616	5.35
529.961	5.35
530.306	5.35
530.651	5.34
530.996	5.35
531.341	5.36
531.686	5.37
532.031	5.37
532.376	5.37
532.721	5.38
533.065	5.38
533.41	5.39
533.755	5.38
534.099	5.37
534.444	5.36
534.788	5.37
535.133	5.36
535.477	5.38
535.822	5.39
536.166	5.38
536.51	5.39
536.855	5.4
537.199	5.41
537.543	5.43
537.887	5.45
538.231	5.46
538.576	5.46
538.92	5.44
539.264	5.47
539.608	5.48
539.951	5.49
540.295	5.51
540.639	5.52
540.983	5.53
541.327	5.54
541.671	5.54
542.014	5.55
542.358	5.55
542.701	5.55
543.045	5.54
543.389	5.55
543.732	5.55
544.075	5.54
544.419	5.54
544.762	5.53
545.105	5.55
545.449	5.56
545.792	5.56
546.135	5.58
546.478	5.58
546.821	5.59
547.165	5.58
547.508	5.59
547.851	5.59
548.194	5.59
548.536	5.61
548.879	5.63
549.222	5.62
549.565	5.61
549.908	5.62
550.25	5.62
550.593	5.63
550.936	5.66
551.278	5.65
551.621	5.66
551.963	5.68
552.306	5.68
552.648	5.67
552.991	5.71
553.333	5.7
553.675	5.69
554.017	5.69
554.36	5.7
554.702	5.7
555.044	5.7
555.386	5.71
555.728	5.71
556.07	5.7
556.412	5.69
556.754	5.71
557.096	5.71
557.438	5.72
557.78	5.77
558.121	5.74
558.463	5.76
558.805	5.77
559.147	5.73
559.488	5.69
559.83	5.7
560.171	5.69
560.513	5.71
560.854	5.72
561.196	5.71
561.537	5.71
561.878	5.69
562.22	5.68
562.561	5.67
562.902	5.69
563.243	5.69
563.584	5.73
563.925	5.76
564.266	5.77
564.607	5.76
564.948	5.72
565.289	5.74
565.63	5.75
565.971	5.73
566.312	5.78
566.653	5.8
566.993	5.79
567.334	5.8
567.675	5.8
568.015	5.81
568.356	5.82
568.696	5.82
569.037	5.84
569.377	5.85
569.718	5.85
570.058	5.84
570.398	5.84
570.739	5.82
571.079	5.8
571.419	5.8
571.759	5.81
572.099	5.82
572.439	5.8
572.779	5.82
573.119	5.81
573.459	5.78
573.799	5.81
574.139	5.81
574.479	5.81
574.819	5.81
575.158	5.82
575.498	5.83
575.838	5.81
576.177	5.79
576.517	5.79
576.856	5.79
577.196	5.79
577.535	5.78
577.875	5.81
578.214	5.83
578.553	5.85
578.893	5.85
579.232	5.85
579.571	5.84
579.91	5.85
580.25	5.87
580.589	5.88
580.928	5.88
581.267	5.88
581.606	5.89
581.945	5.87
582.283	5.87
582.622	5.86
582.961	5.88
583.3	5.94
583.639	5.94
583.977	5.95
584.316	5.97
584.654	6
584.993	6
585.332	5.97
585.67	5.97
586.008	5.97
586.347	5.98
586.685	6.02
587.024	6.01
587.362	6
587.7	6
588.038	5.99
588.376	6
588.715	5.98
589.053	6.01
589.391	5.99
589.729	6.01
590.067	6.02
590.404	6.01
590.742	6.01
591.08	6.01
591.418	5.98
591.756	5.99
592.093	6.01
592.431	6.03
592.769	6.02
593.106	6.01
593.444	6.01
593.781	5.98
594.119	5.94
594.456	5.95
594.793	5.94
595.131	5.92
595.468	5.93
595.805	5.92
596.143	5.93
596.48	5.94
596.817	5.9
597.154	5.93
597.491	5.94
597.828	5.91
598.165	5.9
598.502	5.92
598.839	5.94
599.176	5.93
599.512	5.93
599.849	5.92
600.186	5.97
600.523	5.94
600.859	5.96
601.196	6.01
601.532	5.98
601.869	5.99
602.205	5.98
602.542	5.99
602.878	5.99
603.215	6
603.551	5.98
603.887	6.02
604.223	6
604.56	6.01
604.896	6.06
605.232	6.1
605.568	6.1
605.904	6.07
606.24	6.06
606.576	6.08
606.912	6.12
607.248	6.1
607.583	6.13
607.919	6.12
608.255	6.12
608.591	6.2
608.926	6.24
609.262	6.29
609.597	6.26
609.933	6.28
610.268	6.31
610.604	6.35
610.939	6.39
611.275	6.39
611.61	6.4
611.945	6.39
612.281	6.37
612.616	6.39
612.951	6.42
613.286	6.41
613.621	6.37
613.956	6.38
614.291	6.42
614.626	6.4
614.961	6.4
615.296	6.37
615.631	6.35
615.966	6.37
616.3	6.32
616.635	6.36
616.97	6.38
617.304	6.3
617.639	6.3
617.973	6.3
618.308	6.33
618.642	6.31
618.977	6.3
619.311	6.28
619.646	6.32
619.98	6.34
620.314	6.4
620.648	6.45
620.983	6.5
621.317	6.52
621.651	6.56
621.985	6.62
622.319	6.64
622.653	6.64
622.987	6.59
623.321	6.56
623.655	6.58
623.988	6.62
624.322	6.62
624.656	6.64
624.99	6.59
625.323	6.61
625.657	6.63
625.99	6.66
626.324	6.61
626.657	6.58
626.991	6.55
627.324	6.51
627.658	6.52
627.991	6.51
628.324	6.49
628.657	6.5
628.991	6.48
629.324	6.46
629.657	6.49
629.99	6.54
630.323	6.57
630.656	6.58
630.989	6.57
631.322	6.64
631.655	6.62
631.987	6.63
632.32	6.58
632.653	6.5
632.986	6.48
633.318	6.59
633.651	6.62
633.984	6.62
634.316	6.63
634.649	6.56
634.981	6.54
635.313	6.57
635.646	6.57
635.978	6.62
636.31	6.67
636.643	6.65
636.975	6.67
637.307	6.72
637.639	6.67
637.971	6.62
638.303	6.57
638.635	6.56
638.967	6.56
639.299	6.61
639.631	6.69
639.963	6.64
640.295	6.63
640.626	6.6
640.958	6.61
641.29	6.58
641.621	6.64
641.953	6.69
642.285	6.64
642.616	6.67
642.948	6.56
643.279	6.57
643.61	6.54
643.942	6.45
644.273	6.47
644.604	6.5
644.936	6.58
645.267	6.6
645.598	6.62
645.929	6.66
646.26	6.65
646.591	6.66
646.922	6.72
647.253	6.66
647.584	6.71
647.915	6.75
648.245	6.78
648.576	6.78
648.907	6.7
649.238	6.71
649.568	6.74
649.899	6.76
650.229	6.74
650.56	6.76
650.89	6.86
651.221	6.86
651.551	6.83
651.882	6.83
652.212	6.84
652.542	6.87
652.872	6.88
653.203	6.88
653.533	6.85
653.863	6.92
654.193	6.91
654.523	6.86
654.853	6.85
655.183	6.83
655.513	6.83
655.843	6.88
656.172	6.88
656.502	6.83
656.832	6.89
657.162	6.94
657.491	6.98
657.821	6.97
658.15	6.93
658.48	6.99
658.809	6.93
659.139	6.9
659.468	6.9
659.798	6.84
660.127	6.83
660.456	6.88
660.785	6.85
661.115	6.85
661.444	6.9
661.773	6.93
662.102	6.9
662.431	6.93
662.76	6.96
663.089	6.93
663.418	6.93
663.747	6.93
664.076	6.87
664.404	6.84
664.733	6.88
665.062	6.9
665.39	6.82
665.719	6.83
666.048	6.91
666.376	6.86
666.705	6.94
667.033	6.92
667.362	6.86
667.69	6.85
668.018	6.9
668.347	6.91
668.675	6.92
669.003	6.95
669.331	7
669.659	6.99
669.987	6.99
670.315	7.05
670.643	7.03
670.971	7.04
671.299	7.03
671.627	6.95
671.955	6.86
672.283	6.95
672.61	6.97
672.938	6.96
673.266	7.03
673.593	7.08
673.921	7.13
674.249	7.21
674.576	7.16
674.904	7.21
675.231	7.14
675.558	7.16
675.886	7.16
676.213	7.18
676.54	7.29
676.867	7.42
677.195	7.32
677.522	7.32
677.849	7.31
678.176	7.27
