Data from BA56825_Reflection_00001.txt Node
Date: Mon Nov 18 15:37:11 EST 2019
User: vgr7
Spectrometer: USB2G7710
Scans to average: 3
Trigger mode: 4
Integration Time (sec): 2.000000E-2
Electric dark correction enabled: true
Boxcar width: 10
XAxis mode: Wavelengths
Number of Pixels in Spectrum: 2048
>>>>>Begin Spectral Data<<<<<
177.721	-134.19
178.105	41.02
178.488	13.46
178.871	82.44
179.254	38.4
179.636	-1.24
180.019	-32.12
180.402	74.55
180.785	94.06
181.168	-98.47
181.55	-1429.41
181.933	149.26
182.316	141.05
182.698	157.57
183.081	179.26
183.463	350.43
183.846	1006.88
184.228	-832.48
184.611	-694.52
184.993	-201.37
185.376	-96.55
185.758	-91.77
186.14	-201.44
186.522	-150.56
186.904	-154.53
187.287	-218.74
187.669	-95.52
188.051	-83.29
188.433	-79.08
188.815	-48.2
189.197	-60.17
189.579	-62.18
189.961	-47.86
190.342	-25.68
190.724	1.43
191.106	5.22
191.488	-15.56
191.869	3.61
192.251	-3.22
192.633	-10.98
193.014	-8.84
193.396	-44.67
193.777	-42.05
194.159	-42.15
194.54	-44.27
194.922	-23.65
195.303	-26.93
195.684	-25.28
196.065	-18.43
196.447	-15.73
196.828	-21.43
197.209	-19.46
197.59	-14.42
197.971	-28.17
198.352	-21.07
198.733	-26.72
199.114	-29.76
199.495	-15.01
199.876	-20.52
200.257	-22.9
200.638	-14.37
201.018	-11.64
201.399	1.47
201.78	7.1
202.16	10.2
202.541	-0.05
202.922	-13.43
203.302	-21.04
203.683	-27.73
204.063	-27.88
204.444	-12.12
204.824	-24.26
205.204	-12.42
205.585	-9.97
205.965	3.89
206.345	-8.22
206.725	-35.78
207.106	-28.06
207.486	-39.1
207.866	-48.88
208.246	-49.73
208.626	-72.2
209.006	-55.1
209.386	-62.28
209.766	-64.79
210.145	-44.83
210.525	-27.23
210.905	-9.15
211.285	-4.39
211.664	-5.8
212.044	-2.32
212.424	-18.24
212.803	-21.26
213.183	-35.2
213.562	-30.53
213.942	-41.43
214.321	-31.3
214.701	-19.04
215.08	-36.94
215.459	-48.62
215.838	-37.95
216.218	-40.98
216.597	-28.82
216.976	-21.92
217.355	-10.08
217.734	-16.39
218.113	-30.15
218.492	-32.11
218.871	-48.03
219.25	-20.58
219.629	-19.37
220.008	-27.15
220.387	-25.16
220.766	-14.66
221.144	-20.7
221.523	-29.86
221.902	-25.16
222.28	-36.84
222.659	-24.11
223.037	-7.97
223.416	-7.5
223.794	-17.77
224.173	-2.37
224.551	2.43
224.929	-1.57
225.308	0.54
225.686	2.88
226.064	3.08
226.442	5.3
226.821	7.83
227.199	6.53
227.577	6.28
227.955	6.95
228.333	7.67
228.711	9.95
229.089	14.41
229.467	12.94
229.845	12.35
230.222	13
230.6	10.29
230.978	8.55
231.356	12.19
231.733	12.92
232.111	10.3
232.488	10.11
232.866	11.11
233.243	10.7
233.621	8.9
233.998	9.08
234.376	8.43
234.753	6.78
235.13	6.62
235.508	7.15
235.885	6.9
236.262	5.37
236.639	3.35
237.016	0.57
237.393	2.06
237.77	2.31
238.147	2.37
238.524	3.35
238.901	4.04
239.278	3.24
239.655	3.42
240.032	3.41
240.409	3.3
240.785	3.23
241.162	3.49
241.539	3.68
241.915	3.92
242.292	3.54
242.668	3.44
243.045	3.63
243.421	3.56
243.798	3.31
244.174	3.68
244.551	4.08
244.927	4.37
245.303	4.29
245.679	4.59
246.056	4.59
246.432	4.17
246.808	4.21
247.184	3.93
247.56	3.88
247.936	3.94
248.312	3.89
248.688	3.82
249.064	3.55
249.44	3.84
249.815	3.82
250.191	4.23
250.567	4.44
250.943	4.31
251.318	4.53
251.694	4.88
252.069	4.9
252.445	4.79
252.82	4.81
253.196	4.83
253.571	4.34
253.947	4.54
254.322	5.12
254.697	5.03
255.073	4.84
255.448	4.8
255.823	4.85
256.198	5.02
256.573	4.91
256.948	5.21
257.323	5.23
257.698	5.25
258.073	5.01
258.448	4.99
258.823	4.87
259.198	4.65
259.573	4.58
259.948	4.55
260.322	4.75
260.697	4.65
261.072	4.51
261.446	4.7
261.821	4.44
262.195	4.42
262.57	4.55
262.944	4.67
263.319	4.54
263.693	4.63
264.067	4.6
264.442	4.58
264.816	4.59
265.19	4.53
265.564	4.42
265.938	4.45
266.313	4.33
266.687	4.48
267.061	4.66
267.435	4.57
267.809	4.57
268.183	4.36
268.556	4.41
268.93	4.56
269.304	4.63
269.678	4.87
270.051	4.81
270.425	4.75
270.799	4.71
271.172	4.84
271.546	4.71
271.919	4.61
272.293	4.79
272.666	4.68
273.04	4.6
273.413	4.76
273.787	4.63
274.16	4.55
274.533	4.73
274.906	4.64
275.279	4.62
275.653	4.65
276.026	4.54
276.399	4.56
276.772	4.65
277.145	4.53
277.518	4.45
277.891	4.53
278.263	4.46
278.636	4.44
279.009	4.43
279.382	4.59
279.755	4.62
280.127	4.65
280.5	4.73
280.872	4.82
281.245	4.62
281.617	4.79
281.99	5.04
282.362	4.83
282.735	4.77
283.107	4.86
283.479	4.86
283.852	4.88
284.224	4.77
284.596	4.69
284.968	4.74
285.34	4.79
285.713	4.67
286.085	4.73
286.457	4.78
286.829	4.76
287.201	4.71
287.572	4.64
287.944	4.63
288.316	4.67
288.688	4.49
289.06	4.55
289.431	4.6
289.803	4.57
290.175	4.7
290.546	4.83
290.918	4.79
291.289	4.8
291.661	4.9
292.032	5.03
292.403	5.01
292.775	4.98
293.146	4.91
293.517	5.03
293.889	5
294.26	4.98
294.631	4.98
295.002	4.97
295.373	5.07
295.744	4.99
296.115	4.98
296.486	4.99
296.857	4.96
297.228	4.98
297.599	4.94
297.97	4.88
298.34	4.91
298.711	5
299.082	4.97
299.452	4.9
299.823	4.96
300.194	5.01
300.564	4.99
300.935	5.13
301.305	4.96
301.676	5.14
302.046	5.19
302.416	5.34
302.787	5.38
303.157	5.46
303.527	5.5
303.897	5.46
304.267	5.6
304.637	5.68
305.008	5.58
305.378	5.6
305.748	5.58
306.117	5.43
306.487	5.29
306.857	5.29
307.227	5.34
307.597	5.5
307.967	5.5
308.336	5.43
308.706	5.42
309.076	5.6
309.445	5.39
309.815	5.28
310.184	5.27
310.554	5.25
310.923	5.06
311.293	5
311.662	5.06
312.031	4.96
312.401	4.92
312.77	5
313.139	5.12
313.508	5.29
313.877	5.32
314.246	5.38
314.616	5.36
314.985	5.33
315.353	4.99
315.722	4.98
316.091	4.94
316.46	4.74
316.829	4.67
317.198	4.69
317.567	4.9
317.935	4.83
318.304	4.86
318.672	4.89
319.041	5.08
319.41	4.97
319.778	5.1
320.147	5.16
320.515	5.13
320.883	4.92
321.252	4.83
321.62	4.79
321.988	4.86
322.357	4.93
322.725	5.1
323.093	5.18
323.461	5.27
323.829	5.43
324.197	5.5
324.565	5.48
324.933	5.48
325.301	5.25
325.669	5.34
326.037	5.15
326.405	5.14
326.772	5.11
327.14	5.3
327.508	5.38
327.875	5.19
328.243	5.12
328.61	5.21
328.978	5.2
329.346	5.25
329.713	5.13
330.08	5.21
330.448	5.12
330.815	5.18
331.182	5.12
331.55	5.07
331.917	5.17
332.284	5.29
332.651	5.33
333.018	5.41
333.385	5.37
333.752	5.55
334.119	5.72
334.486	5.61
334.853	5.51
335.22	5.37
335.587	5.57
335.954	5.69
336.32	5.67
336.687	5.57
337.054	5.53
337.42	5.53
337.787	5.49
338.153	5.37
338.52	5.39
338.886	5.34
339.253	5.36
339.619	5.29
339.986	5.2
340.352	5.26
340.718	5.3
341.084	5.13
341.451	5.2
341.817	5.18
342.183	5.21
342.549	5.22
342.915	5.26
343.281	5.24
343.647	5.08
344.013	5.03
344.379	5.05
344.745	5.15
345.11	5.07
345.476	5.11
345.842	5.17
346.208	5.16
346.573	5.2
346.939	5.28
347.304	5.26
347.67	5.25
348.035	5.14
348.401	5.12
348.766	5.23
349.132	5.12
349.497	5.07
349.862	5.21
350.228	5.13
350.593	4.98
350.958	4.94
351.323	5.05
351.688	5.11
352.053	5.15
352.418	5.16
352.783	5.19
353.148	5.16
353.513	5.23
353.878	5.21
354.243	5.26
354.608	5.16
354.972	5.23
355.337	5.31
355.702	5.39
356.066	5.43
356.431	5.42
356.795	5.49
357.16	5.41
357.524	5.31
357.889	5.3
358.253	5.46
358.618	5.53
358.982	5.48
359.346	5.44
359.71	5.4
360.075	5.36
360.439	5.41
360.803	5.4
361.167	5.32
361.531	5.28
361.895	5.26
362.259	5.21
362.623	5.18
362.987	5.15
363.351	5.1
363.714	5.15
364.078	5.15
364.442	5.05
364.806	5.12
365.169	5.13
365.533	5.17
365.896	5.13
366.26	5.08
366.623	5.06
366.987	5.04
367.35	5.06
367.714	5.06
368.077	5.06
368.44	5.04
368.803	5.02
369.167	5.02
369.53	4.93
369.893	4.95
370.256	4.99
370.619	4.96
370.982	4.92
371.345	4.84
371.708	4.82
372.071	4.87
372.434	4.85
372.797	4.79
373.159	4.78
373.522	4.79
373.885	4.86
374.247	4.89
374.61	4.88
374.973	4.84
375.335	4.82
375.698	4.87
376.06	4.83
376.423	4.85
376.785	4.92
377.147	4.97
377.51	5.02
377.872	5.06
378.234	5.11
378.596	5.18
378.958	5.17
379.321	5.18
379.683	5.22
380.045	5.22
380.407	5.25
380.769	5.27
381.13	5.28
381.492	5.22
381.854	5.23
382.216	5.23
382.578	5.26
382.939	5.25
383.301	5.25
383.663	5.24
384.024	5.21
384.386	5.25
384.747	5.25
385.109	5.28
385.47	5.25
385.832	5.19
386.193	5.2
386.554	5.22
386.916	5.24
387.277	5.23
387.638	5.25
387.999	5.26
388.36	5.25
388.721	5.25
389.082	5.26
389.443	5.27
389.804	5.3
390.165	5.27
390.526	5.32
390.887	5.28
391.248	5.34
391.609	5.37
391.969	5.34
392.33	5.36
392.691	5.32
393.051	5.29
393.412	5.35
393.772	5.33
394.133	5.36
394.493	5.34
394.854	5.29
395.214	5.27
395.574	5.31
395.935	5.29
396.295	5.3
396.655	5.27
397.015	5.27
397.376	5.28
397.736	5.32
398.096	5.3
398.456	5.32
398.816	5.31
399.176	5.26
399.535	5.28
399.895	5.27
400.255	5.3
400.615	5.3
400.975	5.23
401.334	5.23
401.694	5.2
402.054	5.22
402.413	5.28
402.773	5.26
403.132	5.22
403.492	5.25
403.851	5.23
404.211	5.26
404.57	5.24
404.929	5.23
405.288	5.23
405.648	5.21
406.007	5.2
406.366	5.21
406.725	5.27
407.084	5.26
407.443	5.27
407.802	5.28
408.161	5.28
408.52	5.31
408.879	5.28
409.238	5.25
409.596	5.22
409.955	5.21
410.314	5.25
410.673	5.26
411.031	5.27
411.39	5.29
411.748	5.27
412.107	5.27
412.465	5.26
412.824	5.28
413.182	5.25
413.54	5.25
413.899	5.28
414.257	5.25
414.615	5.23
414.974	5.22
415.332	5.21
415.69	5.21
416.048	5.2
416.406	5.21
416.764	5.22
417.122	5.25
417.48	5.23
417.838	5.23
418.195	5.23
418.553	5.21
418.911	5.21
419.269	5.21
419.626	5.22
419.984	5.24
420.342	5.23
420.699	5.26
421.057	5.26
421.414	5.23
421.772	5.24
422.129	5.25
422.486	5.24
422.844	5.25
423.201	5.24
423.558	5.25
423.915	5.27
424.273	5.29
424.63	5.28
424.987	5.29
425.344	5.3
425.701	5.28
426.058	5.29
426.415	5.3
426.772	5.3
427.128	5.29
427.485	5.27
427.842	5.26
428.199	5.26
428.555	5.24
428.912	5.26
429.269	5.24
429.625	5.23
429.982	5.24
430.338	5.22
430.695	5.25
431.051	5.23
431.407	5.22
431.764	5.18
432.12	5.18
432.476	5.17
432.832	5.15
433.189	5.16
433.545	5.15
433.901	5.14
434.257	5.15
434.613	5.17
434.969	5.16
435.325	5.15
435.681	5.14
436.036	5.14
436.392	5.14
436.748	5.15
437.104	5.14
437.459	5.14
437.815	5.15
438.171	5.15
438.526	5.14
438.882	5.15
439.237	5.17
439.593	5.15
439.948	5.15
440.304	5.17
440.659	5.17
441.014	5.19
441.369	5.17
441.725	5.17
442.08	5.16
442.435	5.18
442.79	5.2
443.145	5.22
443.5	5.22
443.855	5.21
444.21	5.21
444.565	5.21
444.92	5.21
445.275	5.2
445.629	5.19
445.984	5.2
446.339	5.18
446.693	5.18
447.048	5.18
447.403	5.17
447.757	5.19
448.112	5.2
448.466	5.17
448.82	5.17
449.175	5.18
449.529	5.17
449.883	5.15
450.238	5.13
450.592	5.14
450.946	5.13
451.3	5.15
451.654	5.15
452.008	5.14
452.362	5.14
452.716	5.15
453.07	5.17
453.424	5.16
453.778	5.17
454.132	5.16
454.486	5.17
454.839	5.18
455.193	5.14
455.547	5.13
455.9	5.15
456.254	5.17
456.607	5.16
456.961	5.16
457.314	5.17
457.668	5.17
458.021	5.14
458.375	5.16
458.728	5.17
459.081	5.16
459.434	5.17
459.787	5.16
460.141	5.14
460.494	5.14
460.847	5.14
461.2	5.12
461.553	5.12
461.906	5.12
462.259	5.12
462.611	5.15
462.964	5.15
463.317	5.14
463.67	5.14
464.022	5.15
464.375	5.14
464.728	5.15
465.08	5.16
465.433	5.17
465.785	5.17
466.138	5.15
466.49	5.18
466.843	5.19
467.195	5.18
467.547	5.21
467.899	5.22
468.252	5.23
468.604	5.26
468.956	5.29
469.308	5.28
469.66	5.28
470.012	5.26
470.364	5.26
470.716	5.26
471.068	5.25
471.42	5.24
471.772	5.26
472.123	5.25
472.475	5.23
472.827	5.25
473.178	5.22
473.53	5.23
473.882	5.23
474.233	5.23
474.585	5.23
474.936	5.2
475.288	5.18
475.639	5.19
475.99	5.2
476.342	5.18
476.693	5.18
477.044	5.19
477.395	5.19
477.746	5.19
478.097	5.19
478.448	5.19
478.8	5.2
479.15	5.2
479.501	5.2
479.852	5.23
480.203	5.24
480.554	5.26
480.905	5.27
481.255	5.28
481.606	5.28
481.957	5.29
482.307	5.31
482.658	5.33
483.009	5.34
483.359	5.34
483.709	5.35
484.06	5.36
484.41	5.37
484.761	5.38
485.111	5.38
485.461	5.39
485.811	5.4
486.162	5.4
486.512	5.41
486.862	5.42
487.212	5.42
487.562	5.43
487.912	5.42
488.262	5.42
488.612	5.42
488.961	5.42
489.311	5.42
489.661	5.42
490.011	5.41
490.36	5.4
490.71	5.41
491.06	5.4
491.409	5.4
491.759	5.4
492.108	5.39
492.458	5.38
492.807	5.36
493.157	5.36
493.506	5.34
493.855	5.33
494.204	5.33
494.554	5.35
494.903	5.33
495.252	5.34
495.601	5.36
495.95	5.36
496.299	5.36
496.648	5.37
496.997	5.38
497.346	5.39
497.695	5.42
498.043	5.4
498.392	5.39
498.741	5.4
499.09	5.38
499.438	5.41
499.787	5.42
500.135	5.45
500.484	5.45
500.832	5.46
501.181	5.47
501.529	5.46
501.878	5.46
502.226	5.46
502.574	5.43
502.923	5.41
503.271	5.41
503.619	5.42
503.967	5.44
504.315	5.42
504.663	5.41
505.011	5.41
505.359	5.41
505.707	5.41
506.055	5.42
506.403	5.46
506.751	5.43
507.098	5.45
507.446	5.46
507.794	5.47
508.141	5.47
508.489	5.48
508.837	5.48
509.184	5.47
509.531	5.48
509.879	5.5
510.226	5.51
510.574	5.51
510.921	5.5
511.268	5.49
511.616	5.5
511.963	5.5
512.31	5.48
512.657	5.5
513.004	5.54
513.351	5.55
513.698	5.55
514.045	5.58
514.392	5.6
514.739	5.59
515.086	5.59
515.432	5.6
515.779	5.57
516.126	5.62
516.473	5.63
516.819	5.64
517.166	5.64
517.512	5.67
517.859	5.67
518.205	5.69
518.552	5.7
518.898	5.71
519.245	5.75
519.591	5.74
519.937	5.74
520.283	5.72
520.629	5.71
520.976	5.72
521.322	5.72
521.668	5.7
522.014	5.72
522.36	5.72
522.706	5.72
523.052	5.77
523.398	5.76
523.743	5.76
524.089	5.76
524.435	5.77
524.781	5.78
525.126	5.77
525.472	5.77
525.817	5.77
526.163	5.77
526.509	5.76
526.854	5.78
527.199	5.78
527.545	5.78
527.89	5.8
528.235	5.79
528.581	5.8
528.926	5.8
529.271	5.79
529.616	5.79
529.961	5.79
530.306	5.8
530.651	5.8
530.996	5.81
531.341	5.82
531.686	5.81
532.031	5.81
532.376	5.83
532.721	5.84
533.065	5.83
533.41	5.84
533.755	5.84
534.099	5.84
534.444	5.84
534.788	5.86
535.133	5.86
535.477	5.86
535.822	5.85
536.166	5.85
536.51	5.86
536.855	5.87
537.199	5.87
537.543	5.86
537.887	5.85
538.231	5.84
538.576	5.84
538.92	5.85
539.264	5.84
539.608	5.83
539.951	5.82
540.295	5.83
540.639	5.84
540.983	5.84
541.327	5.85
541.671	5.84
542.014	5.85
542.358	5.85
542.701	5.85
543.045	5.87
543.389	5.87
543.732	5.87
544.075	5.88
544.419	5.89
544.762	5.89
545.105	5.89
545.449	5.9
545.792	5.92
546.135	5.93
546.478	5.94
546.821	5.94
547.165	5.96
547.508	5.97
547.851	5.97
548.194	5.97
548.536	5.95
548.879	5.98
549.222	5.94
549.565	5.93
549.908	5.94
550.25	5.94
550.593	5.93
550.936	5.93
551.278	5.93
551.621	5.95
551.963	5.96
552.306	5.96
552.648	5.95
552.991	5.95
553.333	5.92
553.675	5.9
554.017	5.95
554.36	5.95
554.702	5.96
555.044	5.94
555.386	5.93
555.728	5.96
556.07	5.99
556.412	6
556.754	6.01
557.096	6
557.438	5.99
557.78	6
558.121	6.01
558.463	6.02
558.805	6.01
559.147	5.99
559.488	6.01
559.83	6.04
560.171	6.02
560.513	6.05
560.854	6.03
561.196	6.01
561.537	5.98
561.878	5.96
562.22	5.98
562.561	6
562.902	5.98
563.243	5.93
563.584	5.94
563.925	5.96
564.266	5.92
564.607	5.91
564.948	5.92
565.289	5.91
565.63	5.93
565.971	5.9
566.312	5.92
566.653	5.93
566.993	5.9
567.334	5.94
567.675	5.94
568.015	5.96
568.356	5.96
568.696	6
569.037	6.01
569.377	6.02
569.718	6.04
570.058	6.06
570.398	6.04
570.739	6.05
571.079	6.02
571.419	6.07
571.759	6.07
572.099	6.08
572.439	6.08
572.779	6.06
573.119	6.12
573.459	6.13
573.799	6.14
574.139	6.15
574.479	6.15
574.819	6.15
575.158	6.15
575.498	6.14
575.838	6.16
576.177	6.14
576.517	6.14
576.856	6.13
577.196	6.11
577.535	6.15
577.875	6.16
578.214	6.19
578.553	6.2
578.893	6.23
579.232	6.23
579.571	6.23
579.91	6.23
580.25	6.2
580.589	6.18
580.928	6.16
581.267	6.17
581.606	6.18
581.945	6.16
582.283	6.17
582.622	6.19
582.961	6.15
583.3	6.17
583.639	6.19
583.977	6.22
584.316	6.23
584.654	6.23
584.993	6.19
585.332	6.18
585.67	6.17
586.008	6.15
586.347	6.12
586.685	6.09
587.024	6.11
587.362	6.1
587.7	6.11
588.038	6.1
588.376	6.07
588.715	6.03
589.053	6.08
589.391	6.05
589.729	6.05
590.067	6.02
590.404	6.05
590.742	6.04
591.08	5.97
591.418	5.96
591.756	5.95
592.093	5.98
592.431	5.98
592.769	6
593.106	6.04
593.444	6.04
593.781	6.08
594.119	6.08
594.456	6.13
594.793	6.15
595.131	6.16
595.468	6.19
595.805	6.25
596.143	6.22
596.48	6.24
596.817	6.25
597.154	6.27
597.491	6.27
597.828	6.27
598.165	6.33
598.502	6.36
598.839	6.38
599.176	6.39
599.512	6.4
599.849	6.42
600.186	6.39
600.523	6.43
600.859	6.44
601.196	6.45
601.532	6.44
601.869	6.39
602.205	6.36
602.542	6.37
602.878	6.32
603.215	6.33
603.551	6.34
603.887	6.35
604.223	6.36
604.56	6.34
604.896	6.35
605.232	6.32
605.568	6.32
605.904	6.33
606.24	6.31
606.576	6.32
606.912	6.31
607.248	6.33
607.583	6.35
607.919	6.33
608.255	6.3
608.591	6.33
608.926	6.35
609.262	6.42
609.597	6.43
609.933	6.47
610.268	6.47
610.604	6.47
610.939	6.44
611.275	6.49
611.61	6.51
611.945	6.55
612.281	6.55
612.616	6.61
612.951	6.6
613.286	6.63
613.621	6.63
613.956	6.67
614.291	6.72
614.626	6.72
614.961	6.72
615.296	6.74
615.631	6.73
615.966	6.74
616.3	6.67
616.635	6.65
616.97	6.63
617.304	6.63
617.639	6.61
617.973	6.64
618.308	6.6
618.642	6.63
618.977	6.57
619.311	6.59
619.646	6.56
619.98	6.54
620.314	6.59
620.648	6.6
620.983	6.55
621.317	6.53
621.651	6.48
621.985	6.48
622.319	6.49
622.653	6.4
622.987	6.41
623.321	6.44
623.655	6.45
623.988	6.49
624.322	6.5
624.656	6.55
624.99	6.57
625.323	6.53
625.657	6.52
625.99	6.55
626.324	6.55
626.657	6.52
626.991	6.56
627.324	6.55
627.658	6.55
627.991	6.57
628.324	6.53
628.657	6.54
628.991	6.53
629.324	6.52
629.657	6.6
629.99	6.61
630.323	6.62
630.656	6.61
630.989	6.59
631.322	6.63
631.655	6.64
631.987	6.62
632.32	6.64
632.653	6.61
632.986	6.6
633.318	6.61
633.651	6.64
633.984	6.6
634.316	6.54
634.649	6.51
634.981	6.49
635.313	6.54
635.646	6.6
635.978	6.62
636.31	6.66
636.643	6.63
636.975	6.59
637.307	6.62
637.639	6.65
637.971	6.64
638.303	6.65
638.635	6.56
638.967	6.59
639.299	6.62
639.631	6.65
639.963	6.65
640.295	6.65
640.626	6.69
640.958	6.71
641.29	6.75
641.621	6.73
641.953	6.7
642.285	6.74
642.616	6.7
642.948	6.77
643.279	6.76
643.61	6.81
643.942	6.86
644.273	6.81
644.604	6.85
644.936	6.83
645.267	6.82
645.598	6.89
645.929	6.9
646.26	6.88
646.591	6.88
646.922	6.86
647.253	6.92
647.584	6.86
647.915	6.86
648.245	6.87
648.576	6.89
648.907	6.97
649.238	6.84
649.568	6.82
649.899	6.72
650.229	6.74
650.56	6.71
650.89	6.68
651.221	6.73
651.551	6.66
651.882	6.66
652.212	6.65
652.542	6.63
652.872	6.53
653.203	6.56
653.533	6.6
653.863	6.65
654.193	6.58
654.523	6.65
654.853	6.69
655.183	6.66
655.513	6.65
655.843	6.63
656.172	6.68
656.502	6.69
656.832	6.8
657.162	6.81
657.491	6.77
657.821	6.83
658.15	6.84
658.48	6.86
658.809	6.87
659.139	6.83
659.468	6.85
659.798	6.9
660.127	6.92
660.456	6.89
660.785	6.86
661.115	6.87
661.444	6.82
661.773	6.78
662.102	6.79
662.431	6.81
662.76	6.83
663.089	6.82
663.418	6.77
663.747	6.65
664.076	6.67
664.404	6.69
664.733	6.68
665.062	6.71
665.39	6.69
665.719	6.64
666.048	6.74
666.376	6.73
666.705	6.72
667.033	6.67
667.362	6.71
667.69	6.68
668.018	6.75
668.347	6.74
668.675	6.76
669.003	6.81
669.331	6.84
669.659	6.78
669.987	6.77
670.315	6.84
670.643	6.97
670.971	7.01
671.299	7.11
671.627	7.1
671.955	7.1
672.283	7.05
672.61	7.13
672.938	7.05
673.266	7.1
673.593	7.13
673.921	7.13
674.249	7.1
674.576	7.05
674.904	6.96
675.231	6.93
675.558	7.01
675.886	6.95
676.213	6.98
676.54	7.09
676.867	7.15
677.195	6.97
677.522	6.89
677.849	6.84
678.176	6.77
