Data from BA56830_Reflection_00005.txt Node
Date: Mon Nov 18 16:03:53 EST 2019
User: vgr7
Spectrometer: USB2G7710
Scans to average: 3
Trigger mode: 4
Integration Time (sec): 2.000000E-2
Electric dark correction enabled: true
Boxcar width: 10
XAxis mode: Wavelengths
Number of Pixels in Spectrum: 2048
>>>>>Begin Spectral Data<<<<<
177.721	169.3
178.105	165.36
178.488	124.32
178.871	155.56
179.254	208.4
179.636	-40.52
180.019	7877.78
180.402	68.42
180.785	126.53
181.168	80.51
181.55	35.42
181.933	76.27
182.316	67.69
182.698	84.45
183.081	92.55
183.463	70.07
183.846	112.63
184.228	204.7
184.611	808.77
184.993	-696.54
185.376	1059.35
185.758	312.31
186.14	549.86
186.522	267.21
186.904	730.49
187.287	1488.13
187.669	-707.02
188.051	1969.28
188.433	-105233.33
188.815	-457.17
189.197	-159.19
189.579	-102.9
189.961	-91.01
190.342	-103.65
190.724	-86.08
191.106	-110.36
191.488	-94.55
191.869	-83.16
192.251	-125.71
192.633	-239.27
193.014	-224.14
193.396	-364.53
193.777	-276.74
194.159	-245.38
194.54	-143.09
194.922	-144
195.303	-115.27
195.684	-109.31
196.065	-42.39
196.447	-10.02
196.828	-30.13
197.209	-35.14
197.59	-54.64
197.971	-61.62
198.352	-36.19
198.733	-56.38
199.114	-40.48
199.495	-36.75
199.876	-17.08
200.257	-12.12
200.638	0.87
201.018	-15.04
201.399	0.41
201.78	-16.93
202.16	-24.79
202.541	-39.13
202.922	-54.84
203.302	-78.88
203.683	-70.59
204.063	-119.31
204.444	-143.39
204.824	-107.17
205.204	-114.92
205.585	-104.4
205.965	-88.75
206.345	-116.62
206.725	-107.9
207.106	-114.26
207.486	-198.27
207.866	-194.83
208.246	-149.19
208.626	-206.65
209.006	-139.79
209.386	-173.84
209.766	-195.25
210.145	-155.65
210.525	-125.7
210.905	-110.88
211.285	-91.41
211.664	-82.61
212.044	-91.91
212.424	-68.41
212.803	-56.05
213.183	-59.62
213.562	-48.35
213.942	-42.05
214.321	-22.44
214.701	-30.57
215.08	-35.49
215.459	-26.38
215.838	-23.76
216.218	-36.04
216.597	1.23
216.976	4.68
217.355	14.01
217.734	16.72
218.113	4.95
218.492	-2.07
218.871	1.4
219.25	15.63
219.629	10.06
220.008	12.81
220.387	4.76
220.766	-9.58
221.144	-5.76
221.523	-18.77
221.902	-20.6
222.28	-20.89
222.659	-19.23
223.037	-15.64
223.416	-16.97
223.794	-14.59
224.173	-19.95
224.551	-23.81
224.929	-34.71
225.308	-31.75
225.686	-32.17
226.064	-23.32
226.442	-19.04
226.821	-15.78
227.199	-17.59
227.577	-12.44
227.955	-12.22
228.333	-8.05
228.711	-4
229.089	-0.77
229.467	-2.22
229.845	-3.34
230.222	-2.39
230.6	-2.17
230.978	-2.24
231.356	1.41
231.733	1.79
232.111	2.61
232.488	2.03
232.866	2.79
233.243	3.29
233.621	3.19
233.998	4.04
234.376	2.52
234.753	1.52
235.13	0.8
235.508	0.89
235.885	-0.14
236.262	-0.19
236.639	-1.14
237.016	-2.2
237.393	-0.23
237.77	-0.24
238.147	-0.14
238.524	0.97
238.901	1.99
239.278	1.96
239.655	2.3
240.032	3.15
240.409	3.1
240.785	3.37
241.162	3.77
241.539	4.29
241.915	4.16
242.292	4.22
242.668	4.12
243.045	4.21
243.421	4.06
243.798	4.23
244.174	3.92
244.551	4.07
244.927	4.46
245.303	4.58
245.679	4.99
246.056	4.97
246.432	4.99
246.808	5
247.184	4.82
247.56	4.53
247.936	4.35
248.312	4.54
248.688	4.84
249.064	4.77
249.44	4.62
249.815	4.63
250.191	4.74
250.567	4.91
250.943	4.73
251.318	4.91
251.694	5.19
252.069	5.42
252.445	5.42
252.82	5.29
253.196	5.15
253.571	4.75
253.947	4.49
254.322	4.44
254.697	4.58
255.073	4.48
255.448	4.72
255.823	4.68
256.198	4.82
256.573	4.58
256.948	4.48
257.323	4.54
257.698	4.4
258.073	4.56
258.448	4.4
258.823	4.54
259.198	4.35
259.573	4.19
259.948	4.08
260.322	4.18
260.697	4.1
261.072	3.98
261.446	4.06
261.821	4.15
262.195	4.26
262.57	4.01
262.944	4.01
263.319	4.04
263.693	4.05
264.067	3.89
264.442	3.97
264.816	4.05
265.19	4
265.564	4.09
265.938	3.99
266.313	4.12
266.687	4.22
267.061	4.33
267.435	4.54
267.809	4.5
268.183	4.49
268.556	4.5
268.93	4.77
269.304	4.7
269.678	4.85
270.051	4.71
270.425	4.84
270.799	4.83
271.172	4.93
271.546	4.92
271.919	4.89
272.293	4.75
272.666	4.8
273.04	4.91
273.413	4.94
273.787	4.97
274.16	4.87
274.533	4.75
274.906	4.47
275.279	4.3
275.653	4.48
276.026	4.47
276.399	4.49
276.772	4.41
277.145	4.52
277.518	4.38
277.891	4.27
278.263	4.18
278.636	4.24
279.009	4.28
279.382	4.2
279.755	4.15
280.127	4.36
280.5	4.38
280.872	4.28
281.245	4.28
281.617	4.22
281.99	4.48
282.362	4.55
282.735	4.7
283.107	4.74
283.479	4.73
283.852	4.72
284.224	4.81
284.596	4.78
284.968	4.74
285.34	4.88
285.713	4.9
286.085	4.98
286.457	5.09
286.829	4.85
287.201	4.96
287.572	4.92
287.944	4.91
288.316	4.86
288.688	4.91
289.06	4.89
289.431	4.92
289.803	4.8
290.175	4.79
290.546	4.93
290.918	4.99
291.289	5.01
291.661	5.09
292.032	5.06
292.403	4.97
292.775	4.95
293.146	4.79
293.517	4.87
293.889	4.96
294.26	4.88
294.631	5
295.002	4.91
295.373	5.1
295.744	5.05
296.115	5.12
296.486	5.09
296.857	5.17
297.228	5.17
297.599	5.08
297.97	5
298.34	5
298.711	5.07
299.082	4.95
299.452	4.97
299.823	5.04
300.194	5.15
300.564	5.07
300.935	5.15
301.305	5.12
301.676	5.09
302.046	5.2
302.416	5.33
302.787	5.48
303.157	5.3
303.527	5.26
303.897	5.24
304.267	5.26
304.637	5.2
305.008	5.21
305.378	5.36
305.748	5.5
306.117	5.4
306.487	5.31
306.857	5.4
307.227	5.35
307.597	5.19
307.967	5.22
308.336	5.46
308.706	5.43
309.076	5.57
309.445	5.54
309.815	5.42
310.184	5.34
310.554	5.26
310.923	5.3
311.293	5.27
311.662	5.23
312.031	5.26
312.401	5.26
312.77	5.33
313.139	5.34
313.508	5.37
313.877	5.37
314.246	5.25
314.616	5.12
314.985	5.11
315.353	5.11
315.722	5.21
316.091	5.04
316.46	4.89
316.829	4.82
317.198	4.84
317.567	4.87
317.935	4.9
318.304	5.01
318.672	5
319.041	5.16
319.41	5.16
319.778	5.04
320.147	5.02
320.515	4.88
320.883	4.8
321.252	4.85
321.62	4.98
321.988	5.26
322.357	5.52
322.725	5.41
323.093	5.44
323.461	5.34
323.829	5.35
324.197	5.46
324.565	5.51
324.933	5.53
325.301	5.48
325.669	5.48
326.037	5.4
326.405	5.49
326.772	5.42
327.14	5.56
327.508	5.64
327.875	5.62
328.243	5.69
328.61	5.67
328.978	5.68
329.346	5.64
329.713	5.46
330.08	5.32
330.448	5.26
330.815	5.24
331.182	5.15
331.55	5.18
331.917	5.27
332.284	5.15
332.651	5.08
333.018	5.15
333.385	5.01
333.752	5.08
334.119	5.14
334.486	5.08
334.853	5.07
335.22	5.01
335.587	5.07
335.954	5.03
336.32	5.09
336.687	5.07
337.054	5.02
337.42	5.07
337.787	5.04
338.153	5.16
338.52	5.21
338.886	5.25
339.253	5.33
339.619	5.28
339.986	5.28
340.352	5.21
340.718	5.18
341.084	5.33
341.451	5.28
341.817	5.23
342.183	5.25
342.549	5.21
342.915	5.24
343.281	5.23
343.647	5.22
344.013	5.18
344.379	5.11
344.745	5.11
345.11	5.07
345.476	5.11
345.842	5.05
346.208	5.09
346.573	5.06
346.939	5.08
347.304	5.09
347.67	5.06
348.035	5.2
348.401	5.21
348.766	5.12
349.132	5.1
349.497	4.99
349.862	5.11
350.228	5.02
350.593	5
350.958	5.01
351.323	5.01
351.688	4.93
352.053	4.97
352.418	4.98
352.783	4.99
353.148	4.97
353.513	5.03
353.878	5.01
354.243	5.1
354.608	5.06
354.972	5.07
355.337	5.15
355.702	5.09
356.066	5.18
356.431	5.17
356.795	5.25
357.16	5.29
357.524	5.25
357.889	5.26
358.253	5.25
358.618	5.25
358.982	5.28
359.346	5.33
359.71	5.28
360.075	5.31
360.439	5.32
360.803	5.34
361.167	5.31
361.531	5.27
361.895	5.21
362.259	5.18
362.623	5.17
362.987	5.17
363.351	5.17
363.714	5.11
364.078	5.11
364.442	5.06
364.806	5.09
365.169	5.13
365.533	5.13
365.896	5.18
366.26	5.18
366.623	5.17
366.987	5.19
367.35	5.2
367.714	5.14
368.077	5.17
368.44	5.19
368.803	5.13
369.167	5.13
369.53	5.12
369.893	5.11
370.256	5.12
370.619	5.1
370.982	5.11
371.345	5.06
371.708	5.09
372.071	5.06
372.434	5.03
372.797	4.96
373.159	4.95
373.522	4.98
373.885	5.02
374.247	5.06
374.61	5.11
374.973	5.1
375.335	5.12
375.698	5.09
376.06	5.06
376.423	5.09
376.785	5.15
377.147	5.2
377.51	5.2
377.872	5.22
378.234	5.21
378.596	5.27
378.958	5.3
379.321	5.32
379.683	5.31
380.045	5.3
380.407	5.31
380.769	5.33
381.13	5.34
381.492	5.24
381.854	5.18
382.216	5.12
382.578	5.12
382.939	5.07
383.301	5.1
383.663	5.12
384.024	5.12
384.386	5.12
384.747	5.1
385.109	5.08
385.47	5.03
385.832	5.06
386.193	5.01
386.554	4.97
386.916	4.96
387.277	4.97
387.638	4.99
387.999	4.99
388.36	4.98
388.721	4.96
389.082	5.02
389.443	5.01
389.804	5
390.165	5.01
390.526	5.09
390.887	5.05
391.248	5.06
391.609	5.07
391.969	5.08
392.33	5.05
392.691	5.07
393.051	5.09
393.412	5.06
393.772	5.06
394.133	5.1
394.493	5.13
394.854	5.13
395.214	5.11
395.574	5.07
395.935	5.09
396.295	5.09
396.655	5.07
397.015	5.08
397.376	5.12
397.736	5.11
398.096	5.1
398.456	5.12
398.816	5.13
399.176	5.13
399.535	5.1
399.895	5.12
400.255	5.14
400.615	5.15
400.975	5.17
401.334	5.18
401.694	5.13
402.054	5.1
402.413	5.1
402.773	5.11
403.132	5.1
403.492	5.11
403.851	5.1
404.211	5.08
404.57	5.07
404.929	5.07
405.288	5.06
405.648	5.01
406.007	5.01
406.366	4.98
406.725	5.03
407.084	5.01
407.443	5.03
407.802	5.02
408.161	4.99
408.52	4.96
408.879	4.95
409.238	5
409.596	5.01
409.955	5.02
410.314	5.06
410.673	5.09
411.031	5.06
411.39	5.07
411.748	5.11
412.107	5.15
412.465	5.13
412.824	5.15
413.182	5.18
413.54	5.16
413.899	5.17
414.257	5.13
414.615	5.13
414.974	5.15
415.332	5.14
415.69	5.16
416.048	5.16
416.406	5.17
416.764	5.15
417.122	5.15
417.48	5.13
417.838	5.12
418.195	5.09
418.553	5.09
418.911	5.08
419.269	5.08
419.626	5.05
419.984	5.05
420.342	5.06
420.699	5.06
421.057	5.08
421.414	5.06
421.772	5.06
422.129	5.06
422.486	5.05
422.844	5.05
423.201	5.04
423.558	5.05
423.915	5.04
424.273	5.04
424.63	5.04
424.987	5.05
425.344	5.05
425.701	5.08
426.058	5.09
426.415	5.09
426.772	5.08
427.128	5.1
427.485	5.09
427.842	5.07
428.199	5.07
428.555	5.05
428.912	5.04
429.269	5.06
429.625	5.07
429.982	5.04
430.338	5.06
430.695	5.06
431.051	5.04
431.407	5.04
431.764	5.02
432.12	4.98
432.476	4.96
432.832	4.95
433.189	4.94
433.545	4.91
433.901	4.92
434.257	4.89
434.613	4.91
434.969	4.92
435.325	4.93
435.681	4.93
436.036	4.94
436.392	4.97
436.748	4.94
437.104	4.94
437.459	4.94
437.815	4.93
438.171	4.95
438.526	4.95
438.882	4.96
439.237	4.99
439.593	5.01
439.948	5.01
440.304	5.01
440.659	5.02
441.014	5.03
441.369	5.01
441.725	5.01
442.08	4.99
442.435	4.99
442.79	4.97
443.145	4.97
443.5	4.96
443.855	4.96
444.21	4.97
444.565	4.97
444.92	4.97
445.275	4.96
445.629	4.95
445.984	4.95
446.339	4.95
446.693	4.93
447.048	4.93
447.403	4.94
447.757	4.93
448.112	4.91
448.466	4.91
448.82	4.92
449.175	4.93
449.529	4.93
449.883	4.92
450.238	4.94
450.592	4.93
450.946	4.94
451.3	4.9
451.654	4.9
452.008	4.9
452.362	4.92
452.716	4.93
453.07	4.93
453.424	4.92
453.778	4.91
454.132	4.91
454.486	4.9
454.839	4.87
455.193	4.87
455.547	4.87
455.9	4.89
456.254	4.88
456.607	4.89
456.961	4.88
457.314	4.88
457.668	4.86
458.021	4.86
458.375	4.85
458.728	4.88
459.081	4.88
459.434	4.88
459.787	4.87
460.141	4.87
460.494	4.86
460.847	4.86
461.2	4.88
461.553	4.88
461.906	4.88
462.259	4.89
462.611	4.9
462.964	4.89
463.317	4.88
463.67	4.88
464.022	4.87
464.375	4.89
464.728	4.89
465.08	4.9
465.433	4.88
465.785	4.9
466.138	4.89
466.49	4.88
466.843	4.87
467.195	4.9
467.547	4.89
467.899	4.91
468.252	4.93
468.604	4.93
468.956	4.92
469.308	4.94
469.66	4.93
470.012	4.94
470.364	4.95
470.716	4.96
471.068	4.96
471.42	4.96
471.772	4.98
472.123	5
472.475	5.02
472.827	5.04
473.178	5.04
473.53	5.04
473.882	5.05
474.233	5.05
474.585	5.03
474.936	5.04
475.288	5.02
475.639	5.02
475.99	5.02
476.342	5.01
476.693	5.02
477.044	5.03
477.395	5.04
477.746	5.05
478.097	5.05
478.448	5.03
478.8	5.04
479.15	5.03
479.501	5.04
479.852	5.04
480.203	5.05
480.554	5.07
480.905	5.08
481.255	5.1
481.606	5.11
481.957	5.11
482.307	5.11
482.658	5.11
483.009	5.11
483.359	5.11
483.709	5.11
484.06	5.1
484.41	5.1
484.761	5.11
485.111	5.11
485.461	5.12
485.811	5.13
486.162	5.13
486.512	5.14
486.862	5.14
487.212	5.13
487.562	5.13
487.912	5.12
488.262	5.12
488.612	5.11
488.961	5.1
489.311	5.1
489.661	5.11
490.011	5.11
490.36	5.11
490.71	5.12
491.06	5.12
491.409	5.12
491.759	5.12
492.108	5.12
492.458	5.11
492.807	5.09
493.157	5.08
493.506	5.08
493.855	5.06
494.204	5.05
494.554	5.06
494.903	5.07
495.252	5.06
495.601	5.05
495.95	5.06
496.299	5.07
496.648	5.05
496.997	5.02
497.346	5.03
497.695	5.03
498.043	5.04
498.392	5.04
498.741	5.05
499.09	5.06
499.438	5.07
499.787	5.07
500.135	5.1
500.484	5.11
500.832	5.12
501.181	5.13
501.529	5.14
501.878	5.16
502.226	5.18
502.574	5.2
502.923	5.21
503.271	5.21
503.619	5.21
503.967	5.22
504.315	5.24
504.663	5.27
505.011	5.27
505.359	5.25
505.707	5.27
506.055	5.27
506.403	5.28
506.751	5.27
507.098	5.3
507.446	5.31
507.794	5.32
508.141	5.36
508.489	5.36
508.837	5.35
509.184	5.35
509.531	5.34
509.879	5.37
510.226	5.38
510.574	5.39
510.921	5.42
511.268	5.42
511.616	5.44
511.963	5.44
512.31	5.46
512.657	5.48
513.004	5.47
513.351	5.51
513.698	5.49
514.045	5.49
514.392	5.47
514.739	5.47
515.086	5.47
515.432	5.44
515.779	5.44
516.126	5.47
516.473	5.48
516.819	5.49
517.166	5.48
517.512	5.48
517.859	5.48
518.205	5.47
518.552	5.49
518.898	5.47
519.245	5.49
519.591	5.48
519.937	5.48
520.283	5.5
520.629	5.5
520.976	5.53
521.322	5.55
521.668	5.55
522.014	5.56
522.36	5.56
522.706	5.58
523.052	5.6
523.398	5.6
523.743	5.59
524.089	5.59
524.435	5.59
524.781	5.61
525.126	5.61
525.472	5.64
525.817	5.65
526.163	5.65
526.509	5.65
526.854	5.66
527.199	5.67
527.545	5.66
527.89	5.67
528.235	5.66
528.581	5.65
528.926	5.65
529.271	5.66
529.616	5.66
529.961	5.65
530.306	5.65
530.651	5.66
530.996	5.66
531.341	5.66
531.686	5.66
532.031	5.67
532.376	5.67
532.721	5.66
533.065	5.65
533.41	5.65
533.755	5.64
534.099	5.64
534.444	5.63
534.788	5.65
535.133	5.62
535.477	5.62
535.822	5.63
536.166	5.64
536.51	5.63
536.855	5.65
537.199	5.65
537.543	5.66
537.887	5.65
538.231	5.66
538.576	5.67
538.92	5.67
539.264	5.65
539.608	5.64
539.951	5.65
540.295	5.65
540.639	5.65
540.983	5.66
541.327	5.67
541.671	5.67
542.014	5.65
542.358	5.67
542.701	5.68
543.045	5.68
543.389	5.67
543.732	5.68
544.075	5.66
544.419	5.67
544.762	5.67
545.105	5.68
545.449	5.67
545.792	5.67
546.135	5.67
546.478	5.67
546.821	5.69
547.165	5.69
547.508	5.69
547.851	5.69
548.194	5.68
548.536	5.65
548.879	5.7
549.222	5.7
549.565	5.69
549.908	5.69
550.25	5.71
550.593	5.74
550.936	5.73
551.278	5.73
551.621	5.74
551.963	5.72
552.306	5.7
552.648	5.71
552.991	5.75
553.333	5.75
553.675	5.75
554.017	5.75
554.36	5.74
554.702	5.75
555.044	5.76
555.386	5.77
555.728	5.79
556.07	5.77
556.412	5.78
556.754	5.76
557.096	5.74
557.438	5.71
557.78	5.68
558.121	5.69
558.463	5.68
558.805	5.67
559.147	5.68
559.488	5.7
559.83	5.67
560.171	5.65
560.513	5.65
560.854	5.64
561.196	5.65
561.537	5.68
561.878	5.66
562.22	5.68
562.561	5.69
562.902	5.68
563.243	5.68
563.584	5.66
563.925	5.67
564.266	5.68
564.607	5.7
564.948	5.71
565.289	5.71
565.63	5.73
565.971	5.75
566.312	5.76
566.653	5.74
566.993	5.77
567.334	5.75
567.675	5.76
568.015	5.78
568.356	5.78
568.696	5.77
569.037	5.79
569.377	5.79
569.718	5.77
570.058	5.8
570.398	5.8
570.739	5.81
571.079	5.81
571.419	5.83
571.759	5.86
572.099	5.87
572.439	5.87
572.779	5.89
573.119	5.9
573.459	5.9
573.799	5.92
574.139	5.94
574.479	5.93
574.819	5.96
575.158	5.96
575.498	5.95
575.838	5.96
576.177	5.93
576.517	5.95
576.856	5.98
577.196	5.98
577.535	5.96
577.875	6.01
578.214	6.02
578.553	6.04
578.893	6.01
579.232	6.01
579.571	6.02
579.91	5.94
580.25	5.94
580.589	5.91
580.928	5.94
581.267	5.9
581.606	5.93
581.945	5.91
582.283	5.91
582.622	5.89
582.961	5.89
583.3	5.91
583.639	5.89
583.977	5.88
584.316	5.88
584.654	5.93
584.993	5.88
585.332	5.89
585.67	5.81
586.008	5.8
586.347	5.8
586.685	5.78
587.024	5.82
587.362	5.81
587.7	5.83
588.038	5.81
588.376	5.8
588.715	5.83
589.053	5.85
589.391	5.87
589.729	5.89
590.067	5.85
590.404	5.86
590.742	5.84
591.08	5.83
591.418	5.83
591.756	5.8
592.093	5.81
592.431	5.82
592.769	5.85
593.106	5.83
593.444	5.83
593.781	5.85
594.119	5.89
594.456	5.87
594.793	5.91
595.131	5.9
595.468	5.94
595.805	5.92
596.143	5.91
596.48	5.9
596.817	5.91
597.154	5.96
597.491	5.95
597.828	6
598.165	6.01
598.502	6
598.839	6.02
599.176	6.03
599.512	6.01
599.849	6.01
600.186	6.06
600.523	6.06
600.859	6.07
601.196	6.04
601.532	6.03
601.869	6.02
602.205	6.01
602.542	5.99
602.878	6.01
603.215	6.01
603.551	5.98
603.887	5.98
604.223	5.99
604.56	6
604.896	5.99
605.232	6
605.568	6.02
605.904	5.99
606.24	5.99
606.576	6.02
606.912	6.06
607.248	6.03
607.583	6.05
607.919	6.03
608.255	6.01
608.591	6.04
608.926	6.04
609.262	6.09
609.597	6.08
609.933	6.08
610.268	6.12
610.604	6.16
610.939	6.15
611.275	6.14
611.61	6.13
611.945	6.13
612.281	6.13
612.616	6.12
612.951	6.13
613.286	6.12
613.621	6.1
613.956	6.08
614.291	6.15
614.626	6.18
614.961	6.18
615.296	6.19
615.631	6.16
615.966	6.13
616.3	6.12
616.635	6.13
616.97	6.09
617.304	6.09
617.639	6.06
617.973	6.05
618.308	6.03
618.642	6.03
618.977	6.06
619.311	6.06
619.646	6.05
619.98	6.11
620.314	6.17
620.648	6.18
620.983	6.18
621.317	6.14
621.651	6.13
621.985	6.22
622.319	6.23
622.653	6.3
622.987	6.33
623.321	6.28
623.655	6.27
623.988	6.28
624.322	6.22
624.656	6.25
624.99	6.28
625.323	6.27
625.657	6.3
625.99	6.31
626.324	6.32
626.657	6.31
626.991	6.28
627.324	6.23
627.658	6.18
627.991	6.23
628.324	6.17
628.657	6.12
628.991	6.08
629.324	6.06
629.657	6.06
629.99	6.07
630.323	6.08
630.656	6.1
630.989	6.18
631.322	6.24
631.655	6.2
631.987	6.17
632.32	6.2
632.653	6.19
632.986	6.15
633.318	6.12
633.651	6.14
633.984	6.14
634.316	6.12
634.649	6.17
634.981	6.14
635.313	6.18
635.646	6.21
635.978	6.24
636.31	6.26
636.643	6.24
636.975	6.21
637.307	6.26
637.639	6.29
637.971	6.21
638.303	6.19
638.635	6.23
638.967	6.25
639.299	6.28
639.631	6.28
639.963	6.25
640.295	6.28
640.626	6.27
640.958	6.35
641.29	6.41
641.621	6.41
641.953	6.36
642.285	6.36
642.616	6.33
642.948	6.33
643.279	6.37
643.61	6.32
643.942	6.33
644.273	6.25
644.604	6.22
644.936	6.19
645.267	6.23
645.598	6.23
645.929	6.31
646.26	6.29
646.591	6.23
646.922	6.21
647.253	6.28
647.584	6.25
647.915	6.13
648.245	6.07
648.576	6.1
648.907	6.2
649.238	6.19
649.568	6.23
649.899	6.25
650.229	6.23
650.56	6.22
650.89	6.22
651.221	6.23
651.551	6.2
651.882	6.24
652.212	6.16
652.542	6.1
652.872	6
653.203	6
653.533	6.1
653.863	6.13
654.193	6.08
654.523	6.13
654.853	6.22
655.183	6.31
655.513	6.26
655.843	6.2
656.172	6.22
656.502	6.21
656.832	6.17
657.162	6.22
657.491	6.16
657.821	6.18
658.15	6.21
658.48	6.3
658.809	6.3
659.139	6.3
659.468	6.34
659.798	6.31
660.127	6.27
660.456	6.26
660.785	6.23
661.115	6.2
661.444	6.23
661.773	6.23
662.102	6.14
662.431	6.15
662.76	6.15
663.089	6.15
663.418	6.1
663.747	6.1
664.076	6.05
664.404	6.16
664.733	6.17
665.062	6.19
665.39	6.03
665.719	5.92
666.048	5.98
666.376	5.95
666.705	5.99
667.033	6.01
667.362	5.99
667.69	6.04
668.018	6.08
668.347	6.04
668.675	6.02
669.003	6.14
669.331	6.28
669.659	6.28
669.987	6.23
670.315	6.34
670.643	6.31
670.971	6.32
671.299	6.37
671.627	6.33
671.955	6.28
672.283	6.32
672.61	6.44
672.938	6.42
673.266	6.52
673.593	6.62
673.921	6.72
674.249	6.66
674.576	6.62
674.904	6.59
675.231	6.55
675.558	6.57
675.886	6.48
676.213	6.37
676.54	6.4
676.867	6.48
