Data from BA56813_Reflection_00013.txt Node
Date: Mon Nov 18 15:51:08 EST 2019
User: vgr7
Spectrometer: USB2G7710
Scans to average: 3
Trigger mode: 4
Integration Time (sec): 2.000000E-2
Electric dark correction enabled: true
Boxcar width: 10
XAxis mode: Wavelengths
Number of Pixels in Spectrum: 2048
>>>>>Begin Spectral Data<<<<<
177.721	2.27
178.105	36.4
178.488	96.87
178.871	36.68
179.254	-8.89
179.636	-256.56
180.019	-65.83
180.402	153.85
180.785	10.59
181.168	85.22
181.55	53.69
181.933	107.83
182.316	94.43
182.698	98.87
183.081	83.72
183.463	61.11
183.846	95.47
184.228	72.11
184.611	60.14
184.993	51.49
185.376	52.45
185.758	45.86
186.14	55.22
186.522	90.15
186.904	58.11
187.287	39.98
187.669	46.78
188.051	78.05
188.433	112.45
188.815	83.96
189.197	60.77
189.579	70.34
189.961	45.85
190.342	54.28
190.724	48.07
191.106	131.19
191.488	-169.46
191.869	-87.86
192.251	-200.67
192.633	-179.44
193.014	-852.1
193.396	-371.57
193.777	-732.46
194.159	-1005.26
194.54	-12.39
194.922	-403.36
195.303	-97.41
195.684	-28.12
196.065	22.22
196.447	38.31
196.828	-12.86
197.209	0.56
197.59	-0.95
197.971	-7.93
198.352	-11.62
198.733	-56.49
199.114	-41.16
199.495	-51.63
199.876	10.86
200.257	48.73
200.638	53.58
201.018	40.45
201.399	14.36
201.78	43.19
202.16	31.71
202.541	-18.11
202.922	-54.82
203.302	-62.1
203.683	-66.17
204.063	-132.69
204.444	-69.33
204.824	-107.99
205.204	-120.1
205.585	-72.15
205.965	-43.32
206.345	-214.69
206.725	92.21
207.106	103.22
207.486	134.54
207.866	147.48
208.246	153.25
208.626	131.43
209.006	43.84
209.386	45.45
209.766	118.92
210.145	180.5
210.525	121.9
210.905	160.84
211.285	700
211.664	2693.22
212.044	4128.57
212.424	120.04
212.803	-1621.31
213.183	541.62
213.562	363.46
213.942	231.28
214.321	94.84
214.701	77.43
215.08	87.08
215.459	79.69
215.838	53.11
216.218	43.83
216.597	30.99
216.976	25.29
217.355	21.42
217.734	34.18
218.113	29.02
218.492	15.95
218.871	1.63
219.25	3.48
219.629	7.97
220.008	14.97
220.387	17.9
220.766	13.63
221.144	13.41
221.523	2.81
221.902	8.34
222.28	5.31
222.659	25.94
223.037	22.33
223.416	27.35
223.794	25.11
224.173	27.49
224.551	21.78
224.929	10.96
225.308	15.78
225.686	5.14
226.064	4.14
226.442	7.94
226.821	13.38
227.199	14.26
227.577	10.51
227.955	10.06
228.333	8.87
228.711	5.96
229.089	8.73
229.467	8.32
229.845	5.96
230.222	8.01
230.6	2.32
230.978	2.25
231.356	4.14
231.733	4.17
232.111	2.3
232.488	3.68
232.866	4.85
233.243	5.96
233.621	6.23
233.998	7.42
234.376	5.74
234.753	4.63
235.13	3.85
235.508	5.87
235.885	5.71
236.262	6
236.639	7.28
237.016	7.22
237.393	7.51
237.77	8.15
238.147	7.48
238.524	8.04
238.901	7.76
239.278	7.56
239.655	7.72
240.032	7.92
240.409	7.32
240.785	7.3
241.162	7.28
241.539	7.83
241.915	7.18
242.292	6.99
242.668	6.85
243.045	6.42
243.421	5.9
243.798	5.76
244.174	5.51
244.551	5.31
244.927	5.02
245.303	5.21
245.679	4.89
246.056	4.98
246.432	4.83
246.808	4.94
247.184	4.71
247.56	4.58
247.936	4.59
248.312	4.7
248.688	4.68
249.064	4.44
249.44	4.37
249.815	4.4
250.191	4.33
250.567	4.35
250.943	4.39
251.318	4.74
251.694	4.75
252.069	5.17
252.445	5.15
252.82	5.02
253.196	4.38
253.571	4.67
253.947	4.5
254.322	4.71
254.697	4.73
255.073	4.6
255.448	4.62
255.823	4.63
256.198	4.58
256.573	4.33
256.948	4.54
257.323	4.64
257.698	4.68
258.073	4.79
258.448	4.79
258.823	4.83
259.198	4.5
259.573	4.45
259.948	4.04
260.322	4.1
260.697	4.06
261.072	4.32
261.446	4.15
261.821	4.23
262.195	4.26
262.57	4.18
262.944	4.07
263.319	3.98
263.693	3.86
264.067	3.86
264.442	4.19
264.816	4.09
265.19	3.88
265.564	3.82
265.938	3.79
266.313	3.73
266.687	3.7
267.061	3.88
267.435	4.03
267.809	4.38
268.183	4.51
268.556	4.7
268.93	4.82
269.304	4.83
269.678	4.77
270.051	4.5
270.425	4.64
270.799	4.94
271.172	5.1
271.546	5.13
271.919	4.98
272.293	4.84
272.666	4.85
273.04	4.85
273.413	4.88
273.787	4.89
274.16	4.85
274.533	4.76
274.906	4.74
275.279	4.67
275.653	4.59
276.026	4.38
276.399	4.27
276.772	4.28
277.145	4.26
277.518	4.21
277.891	4.39
278.263	4.24
278.636	4.19
279.009	4.14
279.382	4.16
279.755	4.17
280.127	4.32
280.5	4.41
280.872	4.49
281.245	4.56
281.617	4.53
281.99	4.68
282.362	4.83
282.735	4.76
283.107	4.78
283.479	4.86
283.852	4.91
284.224	4.85
284.596	4.74
284.968	4.88
285.34	4.91
285.713	4.89
286.085	4.89
286.457	4.94
286.829	4.97
287.201	4.95
287.572	4.97
287.944	4.73
288.316	4.69
288.688	4.59
289.06	4.63
289.431	4.54
289.803	4.45
290.175	4.43
290.546	4.5
290.918	4.47
291.289	4.33
291.661	4.31
292.032	4.59
292.403	4.6
292.775	4.54
293.146	4.57
293.517	4.74
293.889	4.81
294.26	4.82
294.631	4.71
295.002	4.72
295.373	4.8
295.744	4.96
296.115	5
296.486	4.96
296.857	4.83
297.228	4.9
297.599	4.89
297.97	4.89
298.34	4.92
298.711	4.98
299.082	5.12
299.452	5.15
299.823	5.14
300.194	5.05
300.564	5.08
300.935	5.16
301.305	5.06
301.676	5.1
302.046	5.19
302.416	5.41
302.787	5.43
303.157	5.48
303.527	5.44
303.897	5.46
304.267	5.75
304.637	5.79
305.008	5.91
305.378	6.04
305.748	6.12
306.117	6.03
306.487	6.19
306.857	6.2
307.227	6.23
307.597	6.15
307.967	6.31
308.336	6.48
308.706	6.4
309.076	6.37
309.445	6.32
309.815	6.19
310.184	6.02
310.554	6.1
310.923	6.03
311.293	6.09
311.662	6.01
312.031	5.92
312.401	5.9
312.77	6.06
313.139	6.21
313.508	6.16
313.877	6.2
314.246	6.2
314.616	6.24
314.985	6.29
315.353	6.37
315.722	6.44
316.091	6.29
316.46	6.21
316.829	6.41
317.198	6.53
317.567	6.45
317.935	6.62
318.304	6.72
318.672	6.85
319.041	6.84
319.41	6.94
319.778	6.99
320.147	7.12
320.515	6.91
320.883	6.68
321.252	6.77
321.62	6.86
321.988	6.83
322.357	6.79
322.725	6.86
323.093	6.92
323.461	7.01
323.829	7.1
324.197	7.21
324.565	7.12
324.933	7.18
325.301	7.4
325.669	7.34
326.037	7.31
326.405	7.35
326.772	7.47
327.14	7.62
327.508	7.64
327.875	7.69
328.243	7.92
328.61	7.89
328.978	7.93
329.346	7.92
329.713	7.92
330.08	7.97
330.448	7.9
330.815	7.78
331.182	7.68
331.55	7.59
331.917	7.72
332.284	7.84
332.651	7.88
333.018	7.87
333.385	7.92
333.752	8.01
334.119	8.07
334.486	8.09
334.853	7.98
335.22	7.98
335.587	8.05
335.954	7.95
336.32	8.08
336.687	8.18
337.054	8.26
337.42	8.23
337.787	8.26
338.153	8.36
338.52	8.45
338.886	8.47
339.253	8.49
339.619	8.52
339.986	8.57
340.352	8.48
340.718	8.47
341.084	8.6
341.451	8.63
341.817	8.6
342.183	8.65
342.549	8.69
342.915	8.85
343.281	8.87
343.647	8.81
344.013	8.89
344.379	8.89
344.745	8.98
345.11	9.02
345.476	9.04
345.842	9.05
346.208	9.08
346.573	9.24
346.939	9.42
347.304	9.39
347.67	9.34
348.035	9.42
348.401	9.53
348.766	9.51
349.132	9.4
349.497	9.44
349.862	9.42
350.228	9.38
350.593	9.27
350.958	9.3
351.323	9.45
351.688	9.43
352.053	9.45
352.418	9.46
352.783	9.5
353.148	9.55
353.513	9.57
353.878	9.51
354.243	9.47
354.608	9.41
354.972	9.39
355.337	9.41
355.702	9.43
356.066	9.36
356.431	9.35
356.795	9.41
357.16	9.39
357.524	9.32
357.889	9.45
358.253	9.55
358.618	9.58
358.982	9.54
359.346	9.48
359.71	9.46
360.075	9.42
360.439	9.47
360.803	9.46
361.167	9.47
361.531	9.46
361.895	9.46
362.259	9.45
362.623	9.51
362.987	9.53
363.351	9.53
363.714	9.59
364.078	9.52
364.442	9.52
364.806	9.56
365.169	9.59
365.533	9.52
365.896	9.46
366.26	9.45
366.623	9.44
366.987	9.54
367.35	9.46
367.714	9.48
368.077	9.36
368.44	9.35
368.803	9.27
369.167	9.29
369.53	9.21
369.893	9.21
370.256	9.16
370.619	9.12
370.982	9.05
371.345	8.99
371.708	9.01
372.071	8.99
372.434	8.93
372.797	8.91
373.159	8.91
373.522	8.85
373.885	8.82
374.247	8.82
374.61	8.78
374.973	8.79
375.335	8.68
375.698	8.71
376.06	8.62
376.423	8.58
376.785	8.56
377.147	8.56
377.51	8.54
377.872	8.52
378.234	8.45
378.596	8.47
378.958	8.42
379.321	8.41
379.683	8.43
380.045	8.4
380.407	8.37
380.769	8.34
381.13	8.3
381.492	8.27
381.854	8.23
382.216	8.2
382.578	8.2
382.939	8.16
383.301	8.14
383.663	8.13
384.024	8.16
384.386	8.16
384.747	8.14
385.109	8.14
385.47	8.09
385.832	8.12
386.193	8.1
386.554	8.07
386.916	8.01
387.277	7.94
387.638	7.92
387.999	7.87
388.36	7.79
388.721	7.78
389.082	7.74
389.443	7.72
389.804	7.66
390.165	7.63
390.526	7.63
390.887	7.58
391.248	7.63
391.609	7.6
391.969	7.58
392.33	7.55
392.691	7.51
393.051	7.5
393.412	7.42
393.772	7.38
394.133	7.38
394.493	7.38
394.854	7.38
395.214	7.36
395.574	7.39
395.935	7.37
396.295	7.35
396.655	7.29
397.015	7.27
397.376	7.25
397.736	7.2
398.096	7.2
398.456	7.16
398.816	7.07
399.176	6.99
399.535	6.92
399.895	6.84
400.255	6.79
400.615	6.71
400.975	6.7
401.334	6.66
401.694	6.59
402.054	6.56
402.413	6.48
402.773	6.4
403.132	6.33
403.492	6.36
403.851	6.32
404.211	6.29
404.57	6.23
404.929	6.23
405.288	6.2
405.648	6.16
406.007	6.14
406.366	6.11
406.725	6.12
407.084	6.09
407.443	6.12
407.802	6.14
408.161	6.14
408.52	6.13
408.879	6.1
409.238	6.11
409.596	6.1
409.955	6.12
410.314	6.1
410.673	6.1
411.031	6.01
411.39	6.01
411.748	6.03
412.107	6.06
412.465	6.02
412.824	6.02
413.182	6
413.54	6.02
413.899	6.02
414.257	6
414.615	5.95
414.974	5.92
415.332	5.84
415.69	5.8
416.048	5.79
416.406	5.78
416.764	5.76
417.122	5.75
417.48	5.72
417.838	5.74
418.195	5.72
418.553	5.71
418.911	5.68
419.269	5.65
419.626	5.63
419.984	5.6
420.342	5.58
420.699	5.57
421.057	5.54
421.414	5.52
421.772	5.49
422.129	5.49
422.486	5.48
422.844	5.49
423.201	5.47
423.558	5.45
423.915	5.42
424.273	5.4
424.63	5.37
424.987	5.35
425.344	5.32
425.701	5.31
426.058	5.31
426.415	5.3
426.772	5.29
427.128	5.26
427.485	5.25
427.842	5.23
428.199	5.21
428.555	5.18
428.912	5.17
429.269	5.17
429.625	5.15
429.982	5.11
430.338	5.08
430.695	5.09
431.051	5.09
431.407	5.08
431.764	5.07
432.12	5.04
432.476	5.02
432.832	5.01
433.189	4.99
433.545	4.98
433.901	4.97
434.257	4.95
434.613	4.96
434.969	4.95
435.325	4.95
435.681	4.96
436.036	4.96
436.392	4.97
436.748	4.96
437.104	4.96
437.459	4.97
437.815	4.97
438.171	4.97
438.526	4.96
438.882	4.96
439.237	4.98
439.593	5.01
439.948	5.03
440.304	5.04
440.659	5.05
441.014	5.03
441.369	5.03
441.725	5.03
442.08	5.02
442.435	5.02
442.79	5.01
443.145	5
443.5	4.99
443.855	4.98
444.21	4.98
444.565	4.98
444.92	4.98
445.275	4.97
445.629	4.96
445.984	4.97
446.339	4.97
446.693	4.93
447.048	4.92
447.403	4.9
447.757	4.88
448.112	4.86
448.466	4.85
448.82	4.86
449.175	4.88
449.529	4.86
449.883	4.84
450.238	4.81
450.592	4.8
450.946	4.78
451.3	4.77
451.654	4.76
452.008	4.75
452.362	4.71
452.716	4.7
453.07	4.7
453.424	4.68
453.778	4.66
454.132	4.67
454.486	4.64
454.839	4.64
455.193	4.64
455.547	4.64
455.9	4.64
456.254	4.64
456.607	4.61
456.961	4.62
457.314	4.64
457.668	4.66
458.021	4.66
458.375	4.68
458.728	4.7
459.081	4.71
459.434	4.71
459.787	4.74
460.141	4.74
460.494	4.74
460.847	4.73
461.2	4.75
461.553	4.75
461.906	4.76
462.259	4.75
462.611	4.78
462.964	4.8
463.317	4.81
463.67	4.82
464.022	4.83
464.375	4.82
464.728	4.83
465.08	4.82
465.433	4.83
465.785	4.82
466.138	4.82
466.49	4.83
466.843	4.81
467.195	4.82
467.547	4.83
467.899	4.84
468.252	4.86
468.604	4.88
468.956	4.88
469.308	4.9
469.66	4.91
470.012	4.93
470.364	4.94
470.716	4.95
471.068	4.96
471.42	4.97
471.772	5
472.123	5.03
472.475	5.05
472.827	5.08
473.178	5.09
473.53	5.1
473.882	5.11
474.233	5.16
474.585	5.15
474.936	5.15
475.288	5.18
475.639	5.19
475.99	5.19
476.342	5.19
476.693	5.21
477.044	5.22
477.395	5.22
477.746	5.22
478.097	5.22
478.448	5.2
478.8	5.19
479.15	5.17
479.501	5.16
479.852	5.16
480.203	5.15
480.554	5.15
480.905	5.14
481.255	5.15
481.606	5.14
481.957	5.15
482.307	5.15
482.658	5.14
483.009	5.14
483.359	5.14
483.709	5.15
484.06	5.14
484.41	5.14
484.761	5.14
485.111	5.14
485.461	5.13
485.811	5.13
486.162	5.13
486.512	5.14
486.862	5.14
487.212	5.14
487.562	5.15
487.912	5.15
488.262	5.16
488.612	5.15
488.961	5.15
489.311	5.15
489.661	5.15
490.011	5.15
490.36	5.16
490.71	5.17
491.06	5.17
491.409	5.18
491.759	5.18
492.108	5.19
492.458	5.2
492.807	5.21
493.157	5.23
493.506	5.26
493.855	5.27
494.204	5.27
494.554	5.27
494.903	5.28
495.252	5.3
495.601	5.33
495.95	5.35
496.299	5.39
496.648	5.41
496.997	5.46
497.346	5.5
497.695	5.52
498.043	5.56
498.392	5.59
498.741	5.63
499.09	5.66
499.438	5.72
499.787	5.77
500.135	5.81
500.484	5.83
500.832	5.87
501.181	5.92
501.529	5.99
501.878	6.07
502.226	6.13
502.574	6.2
502.923	6.23
503.271	6.3
503.619	6.37
503.967	6.44
504.315	6.49
504.663	6.55
505.011	6.62
505.359	6.68
505.707	6.74
506.055	6.81
506.403	6.89
506.751	6.96
507.098	7.05
507.446	7.15
507.794	7.25
508.141	7.33
508.489	7.43
508.837	7.5
509.184	7.59
509.531	7.68
509.879	7.77
510.226	7.87
510.574	7.95
510.921	8.08
511.268	8.18
511.616	8.28
511.963	8.38
512.31	8.47
512.657	8.6
513.004	8.76
513.351	8.9
513.698	9.03
514.045	9.13
514.392	9.25
514.739	9.35
515.086	9.49
515.432	9.63
515.779	9.76
516.126	9.92
516.473	10.06
516.819	10.2
517.166	10.32
517.512	10.44
517.859	10.58
518.205	10.68
518.552	10.8
518.898	10.94
519.245	11.1
519.591	11.23
519.937	11.34
520.283	11.46
520.629	11.62
520.976	11.78
521.322	11.97
521.668	12.14
522.014	12.35
522.36	12.53
522.706	12.77
523.052	12.97
523.398	13.21
523.743	13.45
524.089	13.67
524.435	13.92
524.781	14.17
525.126	14.39
525.472	14.58
525.817	14.77
526.163	14.95
526.509	15.13
526.854	15.3
527.199	15.48
527.545	15.64
527.89	15.81
528.235	15.97
528.581	16.14
528.926	16.31
529.271	16.48
529.616	16.68
529.961	16.84
530.306	17.05
530.651	17.23
530.996	17.45
531.341	17.67
531.686	17.9
532.031	18.13
532.376	18.37
532.721	18.63
533.065	18.89
533.41	19.14
533.755	19.38
534.099	19.66
534.444	19.95
534.788	20.23
535.133	20.5
535.477	20.77
535.822	21.08
536.166	21.4
536.51	21.75
536.855	22.1
537.199	22.47
537.543	22.82
537.887	23.21
538.231	23.56
538.576	23.96
538.92	24.33
539.264	24.69
539.608	25.02
539.951	25.34
540.295	25.63
540.639	25.93
540.983	26.24
541.327	26.51
541.671	26.77
542.014	27.05
542.358	27.3
542.701	27.57
543.045	27.82
543.389	28.1
543.732	28.36
544.075	28.65
544.419	28.94
544.762	29.24
545.105	29.54
545.449	29.86
545.792	30.15
546.135	30.51
546.478	30.85
546.821	31.2
547.165	31.57
547.508	31.95
547.851	32.36
548.194	32.72
548.536	33.15
548.879	33.51
549.222	33.84
549.565	34.25
549.908	34.67
550.25	35.03
550.593	35.41
550.936	35.73
551.278	36.08
551.621	36.44
551.963	36.77
552.306	37.09
552.648	37.43
552.991	37.78
553.333	37.99
553.675	38.29
554.017	38.63
554.36	38.98
554.702	39.28
555.044	39.52
555.386	39.82
555.728	40.07
556.07	40.4
556.412	40.66
556.754	40.94
557.096	41.24
557.438	41.49
557.78	41.78
558.121	42.09
558.463	42.4
558.805	42.7
559.147	42.98
559.488	43.27
559.83	43.53
560.171	43.81
560.513	44.17
560.854	44.35
561.196	44.58
561.537	44.85
561.878	45.13
562.22	45.41
562.561	45.62
562.902	45.87
563.243	46.06
563.584	46.35
563.925	46.58
564.266	46.74
564.607	47.06
564.948	47.22
565.289	47.38
565.63	47.56
565.971	47.73
566.312	47.93
566.653	48.12
566.993	48.32
567.334	48.51
567.675	48.7
568.015	48.97
568.356	49.12
568.696	49.24
569.037	49.4
569.377	49.55
569.718	49.74
570.058	49.93
570.398	50.12
570.739	50.26
571.079	50.4
571.419	50.63
571.759	50.74
572.099	50.93
572.439	51.13
572.779	51.26
573.119	51.36
573.459	51.43
573.799	51.6
574.139	51.71
574.479	51.91
574.819	51.99
575.158	52.07
575.498	52.28
575.838	52.43
576.177	52.58
576.517	52.7
576.856	52.87
577.196	52.95
577.535	53.1
577.875	53.17
578.214	53.29
578.553	53.37
578.893	53.51
579.232	53.59
579.571	53.78
579.91	53.99
580.25	54.15
580.589	54.36
580.928	54.49
581.267	54.6
581.606	54.69
581.945	54.73
582.283	54.87
582.622	54.91
582.961	54.97
583.3	55.05
583.639	55.17
583.977	55.2
584.316	55.33
584.654	55.48
584.993	55.67
585.332	55.81
585.67	55.83
586.008	55.86
586.347	56
586.685	56.08
587.024	56.06
587.362	56.14
587.7	56.23
588.038	56.3
588.376	56.37
588.715	56.33
589.053	56.51
589.391	56.62
589.729	56.7
590.067	56.77
590.404	56.89
590.742	56.94
591.08	57.02
591.418	57.06
591.756	57.11
592.093	57.19
592.431	57.28
592.769	57.49
593.106	57.55
593.444	57.66
593.781	57.7
594.119	57.83
594.456	57.91
594.793	57.97
595.131	58.01
595.468	58.14
595.805	58.18
596.143	58.17
596.48	58.22
596.817	58.33
597.154	58.48
597.491	58.52
597.828	58.63
598.165	58.72
598.502	58.87
598.839	58.93
599.176	58.94
599.512	59.04
599.849	59.07
600.186	59.22
600.523	59.19
600.859	59.24
601.196	59.31
601.532	59.39
601.869	59.45
602.205	59.47
602.542	59.53
602.878	59.67
603.215	59.77
603.551	59.83
603.887	59.78
604.223	59.83
604.56	59.86
604.896	59.9
605.232	59.92
605.568	59.93
605.904	59.94
606.24	59.99
606.576	59.89
606.912	59.96
607.248	59.9
607.583	59.96
607.919	60
608.255	60.07
608.591	60.1
608.926	60.15
609.262	60.23
609.597	60.26
609.933	60.3
610.268	60.32
610.604	60.42
610.939	60.57
611.275	60.56
611.61	60.59
611.945	60.66
612.281	60.7
612.616	60.71
612.951	60.82
613.286	60.9
613.621	61.05
613.956	60.98
614.291	61.1
614.626	61.18
614.961	61.25
615.296	61.24
615.631	61.3
615.966	61.36
616.3	61.35
616.635	61.32
616.97	61.36
617.304	61.42
617.639	61.35
617.973	61.35
618.308	61.35
618.642	61.36
618.977	61.3
619.311	61.42
619.646	61.4
619.98	61.38
620.314	61.4
620.648	61.45
620.983	61.53
621.317	61.61
621.651	61.67
621.985	61.62
622.319	61.59
622.653	61.56
622.987	61.59
623.321	61.74
623.655	61.86
623.988	61.84
624.322	61.91
624.656	61.96
624.99	61.99
625.323	62.02
625.657	62.11
625.99	62.21
626.324	62.12
626.657	62.24
626.991	62.31
627.324	62.33
627.658	62.33
627.991	62.36
628.324	62.29
628.657	62.27
628.991	62.38
629.324	62.51
629.657	62.55
629.99	62.52
630.323	62.49
630.656	62.4
630.989	62.44
631.322	62.42
631.655	62.45
631.987	62.53
632.32	62.59
632.653	62.51
632.986	62.44
633.318	62.46
633.651	62.46
633.984	62.41
634.316	62.49
634.649	62.53
634.981	62.58
635.313	62.68
635.646	62.76
635.978	62.77
636.31	62.73
636.643	62.78
636.975	62.79
637.307	62.76
637.639	62.75
637.971	62.86
638.303	62.9
638.635	62.93
638.967	62.87
639.299	62.92
639.631	62.98
639.963	63.05
640.295	63.16
640.626	63.28
640.958	63.34
641.29	63.33
641.621	63.4
641.953	63.33
642.285	63.33
642.616	63.29
642.948	63.32
643.279	63.34
643.61	63.36
643.942	63.46
644.273	63.58
644.604	63.67
644.936	63.69
645.267	63.71
645.598	63.71
645.929	63.68
646.26	63.71
646.591	63.71
646.922	63.78
647.253	63.88
647.584	63.81
647.915	63.77
648.245	63.78
648.576	63.8
648.907	63.91
649.238	63.96
649.568	64.08
649.899	64.01
650.229	64.03
650.56	64
650.89	63.98
651.221	63.97
651.551	64.05
651.882	64.01
652.212	64.01
652.542	64.04
652.872	64.06
653.203	63.98
653.533	64.04
653.863	64.08
654.193	63.92
654.523	63.96
654.853	64.1
655.183	64.15
655.513	64.08
655.843	64.1
656.172	64
656.502	63.96
656.832	63.98
657.162	64.16
657.491	64.22
657.821	64.23
658.15	64.28
658.48	64.24
658.809	64.26
659.139	64.12
659.468	64.09
659.798	64.13
660.127	64.07
660.456	64.14
660.785	64.07
661.115	64.23
661.444	64.23
661.773	64.29
662.102	64.29
662.431	64.36
662.76	64.43
663.089	64.54
663.418	64.54
663.747	64.69
664.076	64.58
664.404	64.58
664.733	64.58
665.062	64.55
665.39	64.46
665.719	64.5
666.048	64.68
666.376	64.73
666.705	64.66
667.033	64.9
667.362	64.79
667.69	64.84
668.018	64.85
668.347	64.8
