Data from BA56830_Reflection_00011.txt Node
Date: Mon Nov 18 16:04:09 EST 2019
User: vgr7
Spectrometer: USB2G7710
Scans to average: 3
Trigger mode: 4
Integration Time (sec): 2.000000E-2
Electric dark correction enabled: true
Boxcar width: 10
XAxis mode: Wavelengths
Number of Pixels in Spectrum: 2048
>>>>>Begin Spectral Data<<<<<
177.721	53.41
178.105	60.78
178.488	131.51
178.871	201.63
179.254	303.25
179.636	-184.31
180.019	-233.33
180.402	210.53
180.785	154.73
181.168	35.67
181.55	68.66
181.933	98.95
182.316	99.12
182.698	118.03
183.081	132.4
183.463	134.79
183.846	147.36
184.228	250.12
184.611	1373.68
184.993	-1679.22
185.376	2612.2
185.758	692.36
186.14	953.66
186.522	481.11
186.904	1053.49
187.287	2168.49
187.669	-930.08
188.051	2237.25
188.433	-110900
188.815	-426.57
189.197	-198.6
189.579	-114.91
189.961	-79.49
190.342	-74.41
190.724	-77.33
191.106	-86.24
191.488	-74.6
191.869	-96.74
192.251	-128.62
192.633	-182.44
193.014	-183.21
193.396	-264.43
193.777	-226.78
194.159	-230.12
194.54	-130.05
194.922	-143.49
195.303	-109.1
195.684	-165.31
196.065	-83.2
196.447	-84.66
196.828	-145.37
197.209	-147.65
197.59	-198.44
197.971	-175.15
198.352	-135.96
198.733	-152.53
199.114	-139.89
199.495	-114.23
199.876	-100.34
200.257	-101.33
200.638	-71.75
201.018	-59.62
201.399	-32.7
201.78	-20.5
202.16	-14.35
202.541	-18.7
202.922	-56.46
203.302	-66.15
203.683	-58.98
204.063	-108.39
204.444	-111.23
204.824	-70.73
205.204	-81.74
205.585	-73.95
205.965	-75.31
206.345	-89.14
206.725	-77.25
207.106	-65.54
207.486	-129.4
207.866	-121.64
208.246	-115.23
208.626	-150.8
209.006	-122.13
209.386	-171.75
209.766	-234.06
210.145	-198.05
210.525	-177.63
210.905	-157.98
211.285	-149.78
211.664	-126.49
212.044	-115.06
212.424	-91.91
212.803	-94.17
213.183	-54.93
213.562	-62.58
213.942	-67.49
214.321	-51.75
214.701	-55.19
215.08	-54.66
215.459	-30.37
215.838	-25.1
216.218	-41.27
216.597	-45.78
216.976	-32.04
217.355	-24.9
217.734	-5.01
218.113	-9.22
218.492	-17.23
218.871	-27.79
219.25	-23.07
219.629	-26.51
220.008	-25.81
220.387	-26.18
220.766	-29.19
221.144	-44.56
221.523	-33.61
221.902	-40.75
222.28	-45.74
222.659	-40.33
223.037	-33.14
223.416	-37.92
223.794	-39.01
224.173	-25.39
224.551	-16.28
224.929	-23.96
225.308	-17.38
225.686	-18.72
226.064	-18.6
226.442	-15.34
226.821	-5.78
227.199	-7.27
227.577	-6.84
227.955	-5.62
228.333	-4.38
228.711	-3.68
229.089	0.33
229.467	-3.71
229.845	-0.46
230.222	0.35
230.6	1.55
230.978	1.73
231.356	3.4
231.733	2.95
232.111	4.29
232.488	4
232.866	5.88
233.243	5.8
233.621	4.94
233.998	6.36
234.376	5.75
234.753	4.54
235.13	4.08
235.508	4.52
235.885	3.78
236.262	3.09
236.639	3.63
237.016	2.42
237.393	3.92
237.77	5.23
238.147	5.93
238.524	5.11
238.901	6.09
239.278	5.87
239.655	6.25
240.032	5.11
240.409	4.75
240.785	4.53
241.162	4.04
241.539	4.74
241.915	4.95
242.292	4.62
242.668	4.69
243.045	4.77
243.421	4.82
243.798	4.78
244.174	4.68
244.551	4.68
244.927	4.67
245.303	5
245.679	4.57
246.056	4.43
246.432	4.56
246.808	4.21
247.184	3.97
247.56	3.84
247.936	3.98
248.312	3.95
248.688	4
249.064	4.02
249.44	3.73
249.815	3.42
250.191	3.57
250.567	3.51
250.943	3.64
251.318	3.65
251.694	3.38
252.069	3.37
252.445	3.52
252.82	3.5
253.196	3.39
253.571	3.13
253.947	3.21
254.322	3.28
254.697	3.5
255.073	3.09
255.448	3.41
255.823	3.19
256.198	3.34
256.573	3.25
256.948	3.28
257.323	3.6
257.698	3.99
258.073	4.07
258.448	4.08
258.823	4.03
259.198	3.89
259.573	4.05
259.948	4.17
260.322	4.03
260.697	4.06
261.072	3.89
261.446	4.11
261.821	4.07
262.195	3.92
262.57	3.85
262.944	4.19
263.319	3.95
263.693	4.08
264.067	4.15
264.442	4.16
264.816	4.22
265.19	3.95
265.564	3.68
265.938	3.55
266.313	3.55
266.687	3.47
267.061	3.59
267.435	3.56
267.809	3.45
268.183	3.31
268.556	3.1
268.93	3.04
269.304	3.04
269.678	3.13
270.051	3.17
270.425	3.29
270.799	3.31
271.172	3.54
271.546	3.43
271.919	3.26
272.293	3.25
272.666	3.25
273.04	3.36
273.413	3.36
273.787	3.48
274.16	3.38
274.533	3.51
274.906	3.49
275.279	3.36
275.653	3.57
276.026	3.6
276.399	3.7
276.772	3.85
277.145	3.78
277.518	3.72
277.891	3.77
278.263	3.62
278.636	3.63
279.009	3.57
279.382	3.83
279.755	3.81
280.127	4.06
280.5	4.08
280.872	4.19
281.245	4.36
281.617	4.43
281.99	4.44
282.362	4.45
282.735	4.4
283.107	4.52
283.479	4.29
283.852	4.38
284.224	4.5
284.596	4.52
284.968	4.58
285.34	4.59
285.713	4.66
286.085	4.61
286.457	4.6
286.829	4.61
287.201	4.51
287.572	4.67
287.944	4.45
288.316	4.45
288.688	4.33
289.06	4.23
289.431	4.15
289.803	4.21
290.175	4.2
290.546	4.35
290.918	4.36
291.289	4.51
291.661	4.54
292.032	4.51
292.403	4.51
292.775	4.56
293.146	4.53
293.517	4.48
293.889	4.61
294.26	4.71
294.631	4.8
295.002	4.73
295.373	4.69
295.744	4.81
296.115	4.91
296.486	4.92
296.857	5.05
297.228	5.11
297.599	5.13
297.97	5.16
298.34	5.06
298.711	5.17
299.082	5.14
299.452	5.18
299.823	5.29
300.194	5.31
300.564	5.31
300.935	5.33
301.305	5.4
301.676	5.54
302.046	5.56
302.416	5.62
302.787	5.79
303.157	5.9
303.527	5.95
303.897	5.99
304.267	6.1
304.637	6.03
305.008	6.15
305.378	6.31
305.748	6.35
306.117	6.47
306.487	6.51
306.857	6.56
307.227	6.65
307.597	6.63
307.967	6.63
308.336	6.65
308.706	6.76
309.076	6.74
309.445	6.65
309.815	6.67
310.184	6.62
310.554	6.59
310.923	6.65
311.293	6.76
311.662	6.73
312.031	6.77
312.401	6.85
312.77	6.82
313.139	6.86
313.508	6.93
313.877	7.1
314.246	7.12
314.616	7.17
314.985	7.23
315.353	7.21
315.722	7.29
316.091	7.34
316.46	7.25
316.829	7.36
317.198	7.49
317.567	7.52
317.935	7.61
318.304	7.76
318.672	7.8
319.041	7.8
319.41	8.02
319.778	8.24
320.147	8.3
320.515	8.47
320.883	8.38
321.252	8.37
321.62	8.51
321.988	8.59
322.357	8.54
322.725	8.47
323.093	8.66
323.461	8.83
323.829	8.92
324.197	9
324.565	9.21
324.933	9.25
325.301	9.37
325.669	9.47
326.037	9.55
326.405	9.56
326.772	9.65
327.14	9.66
327.508	9.63
327.875	9.76
328.243	9.76
328.61	9.91
328.978	9.95
329.346	9.93
329.713	9.9
330.08	10.09
330.448	10.13
330.815	10.06
331.182	10.07
331.55	10.23
331.917	10.41
332.284	10.39
332.651	10.31
333.018	10.33
333.385	10.2
333.752	10.3
334.119	10.36
334.486	10.37
334.853	10.43
335.22	10.38
335.587	10.5
335.954	10.58
336.32	10.64
336.687	10.84
337.054	10.87
337.42	10.98
337.787	10.98
338.153	11.06
338.52	11.2
338.886	11.11
339.253	11.09
339.619	11.16
339.986	11.2
340.352	11.39
340.718	11.34
341.084	11.49
341.451	11.55
341.817	11.69
342.183	11.61
342.549	11.58
342.915	11.65
343.281	11.58
343.647	11.52
344.013	11.55
344.379	11.54
344.745	11.54
345.11	11.55
345.476	11.66
345.842	11.65
346.208	11.66
346.573	11.81
346.939	11.93
347.304	11.86
347.67	11.75
348.035	11.74
348.401	11.86
348.766	11.9
349.132	11.83
349.497	11.79
349.862	11.91
350.228	11.99
350.593	11.95
350.958	11.91
351.323	11.99
351.688	12.03
352.053	11.99
352.418	12.06
352.783	12.06
353.148	12
353.513	12.12
353.878	12.11
354.243	11.99
354.608	11.96
354.972	12.03
355.337	12.08
355.702	12.02
356.066	12.08
356.431	12.11
356.795	12.15
357.16	12.14
357.524	12.07
357.889	11.97
358.253	12
358.618	12.06
358.982	12
359.346	11.88
359.71	11.86
360.075	11.75
360.439	11.69
360.803	11.63
361.167	11.52
361.531	11.51
361.895	11.53
362.259	11.43
362.623	11.37
362.987	11.41
363.351	11.44
363.714	11.36
364.078	11.28
364.442	11.19
364.806	11.09
365.169	11.07
365.533	11.13
365.896	11.13
366.26	11.08
366.623	11.09
366.987	11.05
367.35	11.05
367.714	11.04
368.077	11.01
368.44	11.03
368.803	11.05
369.167	10.92
369.53	10.81
369.893	10.73
370.256	10.68
370.619	10.56
370.982	10.43
371.345	10.35
371.708	10.36
372.071	10.3
372.434	10.29
372.797	10.23
373.159	10.08
373.522	10.01
373.885	9.89
374.247	9.79
374.61	9.73
374.973	9.62
375.335	9.57
375.698	9.53
376.06	9.42
376.423	9.41
376.785	9.46
377.147	9.49
377.51	9.49
377.872	9.45
378.234	9.41
378.596	9.39
378.958	9.34
379.321	9.24
379.683	9.21
380.045	9.11
380.407	9.06
380.769	9.01
381.13	8.93
381.492	8.89
381.854	8.82
382.216	8.81
382.578	8.77
382.939	8.66
383.301	8.56
383.663	8.53
384.024	8.39
384.386	8.32
384.747	8.24
385.109	8.18
385.47	8.06
385.832	8.02
386.193	8
386.554	7.92
386.916	7.87
387.277	7.84
387.638	7.85
387.999	7.77
388.36	7.75
388.721	7.7
389.082	7.65
389.443	7.6
389.804	7.53
390.165	7.49
390.526	7.45
390.887	7.43
391.248	7.41
391.609	7.42
391.969	7.35
392.33	7.33
392.691	7.26
393.051	7.23
393.412	7.16
393.772	7.07
394.133	7.02
394.493	6.94
394.854	6.87
395.214	6.81
395.574	6.79
395.935	6.72
396.295	6.65
396.655	6.58
397.015	6.53
397.376	6.48
397.736	6.41
398.096	6.35
398.456	6.29
398.816	6.19
399.176	6.11
399.535	6.03
399.895	5.93
400.255	5.9
400.615	5.88
400.975	5.82
401.334	5.79
401.694	5.78
402.054	5.74
402.413	5.72
402.773	5.68
403.132	5.64
403.492	5.58
403.851	5.58
404.211	5.56
404.57	5.56
404.929	5.51
405.288	5.5
405.648	5.48
406.007	5.46
406.366	5.46
406.725	5.44
407.084	5.45
407.443	5.43
407.802	5.42
408.161	5.36
408.52	5.34
408.879	5.3
409.238	5.3
409.596	5.27
409.955	5.22
410.314	5.19
410.673	5.15
411.031	5.15
411.39	5.07
411.748	5.03
412.107	4.98
412.465	4.94
412.824	4.9
413.182	4.85
413.54	4.83
413.899	4.81
414.257	4.78
414.615	4.74
414.974	4.75
415.332	4.71
415.69	4.68
416.048	4.65
416.406	4.64
416.764	4.6
417.122	4.58
417.48	4.54
417.838	4.53
418.195	4.52
418.553	4.48
418.911	4.49
419.269	4.47
419.626	4.47
419.984	4.44
420.342	4.43
420.699	4.42
421.057	4.4
421.414	4.38
421.772	4.37
422.129	4.35
422.486	4.31
422.844	4.29
423.201	4.28
423.558	4.29
423.915	4.27
424.273	4.25
424.63	4.23
424.987	4.24
425.344	4.23
425.701	4.21
426.058	4.2
426.415	4.18
426.772	4.18
427.128	4.16
427.485	4.15
427.842	4.13
428.199	4.12
428.555	4.12
428.912	4.11
429.269	4.11
429.625	4.12
429.982	4.11
430.338	4.11
430.695	4.12
431.051	4.07
431.407	4.05
431.764	4.04
432.12	4.04
432.476	4.02
432.832	3.98
433.189	3.98
433.545	3.99
433.901	4
434.257	3.98
434.613	3.98
434.969	3.99
435.325	4
435.681	4
436.036	3.97
436.392	3.96
436.748	3.94
437.104	3.92
437.459	3.92
437.815	3.93
438.171	3.92
438.526	3.95
438.882	3.95
439.237	3.96
439.593	3.96
439.948	3.96
440.304	3.96
440.659	3.95
441.014	3.93
441.369	3.92
441.725	3.9
442.08	3.89
442.435	3.87
442.79	3.86
443.145	3.85
443.5	3.85
443.855	3.84
444.21	3.83
444.565	3.84
444.92	3.83
445.275	3.79
445.629	3.78
445.984	3.76
446.339	3.74
446.693	3.71
447.048	3.69
447.403	3.66
447.757	3.67
448.112	3.65
448.466	3.64
448.82	3.62
449.175	3.63
449.529	3.62
449.883	3.61
450.238	3.61
450.592	3.6
450.946	3.57
451.3	3.56
451.654	3.55
452.008	3.52
452.362	3.53
452.716	3.55
453.07	3.55
453.424	3.53
453.778	3.53
454.132	3.54
454.486	3.53
454.839	3.54
455.193	3.53
455.547	3.54
455.9	3.54
456.254	3.55
456.607	3.54
456.961	3.54
457.314	3.54
457.668	3.54
458.021	3.54
458.375	3.56
458.728	3.56
459.081	3.56
459.434	3.57
459.787	3.57
460.141	3.56
460.494	3.56
460.847	3.58
461.2	3.57
461.553	3.59
461.906	3.61
462.259	3.64
462.611	3.65
462.964	3.66
463.317	3.66
463.67	3.66
464.022	3.68
464.375	3.69
464.728	3.71
465.08	3.72
465.433	3.73
465.785	3.73
466.138	3.74
466.49	3.76
466.843	3.75
467.195	3.75
467.547	3.77
467.899	3.76
468.252	3.76
468.604	3.8
468.956	3.79
469.308	3.78
469.66	3.78
470.012	3.78
470.364	3.76
470.716	3.79
471.068	3.81
471.42	3.82
471.772	3.83
472.123	3.84
472.475	3.86
472.827	3.87
473.178	3.87
473.53	3.86
473.882	3.88
474.233	3.91
474.585	3.9
474.936	3.89
475.288	3.91
475.639	3.93
475.99	3.93
476.342	3.94
476.693	3.93
477.044	3.93
477.395	3.92
477.746	3.92
478.097	3.91
478.448	3.89
478.8	3.89
479.15	3.86
479.501	3.85
479.852	3.83
480.203	3.83
480.554	3.82
480.905	3.84
481.255	3.84
481.606	3.84
481.957	3.85
482.307	3.86
482.658	3.85
483.009	3.84
483.359	3.83
483.709	3.84
484.06	3.84
484.41	3.84
484.761	3.84
485.111	3.86
485.461	3.86
485.811	3.87
486.162	3.87
486.512	3.88
486.862	3.89
487.212	3.9
487.562	3.9
487.912	3.91
488.262	3.9
488.612	3.9
488.961	3.88
489.311	3.89
489.661	3.89
490.011	3.9
490.36	3.9
490.71	3.92
491.06	3.92
491.409	3.93
491.759	3.94
492.108	3.94
492.458	3.94
492.807	3.94
493.157	3.95
493.506	3.96
493.855	3.97
494.204	3.98
494.554	3.98
494.903	3.98
495.252	3.99
495.601	4.02
495.95	4.05
496.299	4.07
496.648	4.09
496.997	4.11
497.346	4.16
497.695	4.19
498.043	4.22
498.392	4.25
498.741	4.29
499.09	4.31
499.438	4.39
499.787	4.45
500.135	4.49
500.484	4.55
500.832	4.62
501.181	4.67
501.529	4.73
501.878	4.82
502.226	4.9
502.574	4.99
502.923	5.06
503.271	5.12
503.619	5.22
503.967	5.3
504.315	5.35
504.663	5.42
505.011	5.5
505.359	5.57
505.707	5.64
506.055	5.71
506.403	5.79
506.751	5.85
507.098	5.91
507.446	6
507.794	6.05
508.141	6.11
508.489	6.18
508.837	6.24
509.184	6.32
509.531	6.39
509.879	6.48
510.226	6.55
510.574	6.61
510.921	6.66
511.268	6.74
511.616	6.85
511.963	6.92
512.31	7
512.657	7.08
513.004	7.19
513.351	7.3
513.698	7.4
514.045	7.49
514.392	7.6
514.739	7.68
515.086	7.81
515.432	7.94
515.779	8.05
516.126	8.17
516.473	8.3
516.819	8.39
517.166	8.49
517.512	8.56
517.859	8.68
518.205	8.78
518.552	8.91
518.898	8.99
519.245	9.1
519.591	9.2
519.937	9.3
520.283	9.38
520.629	9.48
520.976	9.63
521.322	9.78
521.668	9.91
522.014	10.06
522.36	10.22
522.706	10.38
523.052	10.55
523.398	10.73
523.743	10.92
524.089	11.1
524.435	11.31
524.781	11.51
525.126	11.69
525.472	11.85
525.817	11.99
526.163	12.12
526.509	12.27
526.854	12.43
527.199	12.56
527.545	12.69
527.89	12.84
528.235	12.97
528.581	13.11
528.926	13.26
529.271	13.43
529.616	13.58
529.961	13.73
530.306	13.9
530.651	14.07
530.996	14.26
531.341	14.47
531.686	14.66
532.031	14.88
532.376	15.09
532.721	15.33
533.065	15.57
533.41	15.84
533.755	16.11
534.099	16.37
534.444	16.64
534.788	16.93
535.133	17.18
535.477	17.44
535.822	17.73
536.166	18.05
536.51	18.38
536.855	18.71
537.199	19.09
537.543	19.47
537.887	19.84
538.231	20.2
538.576	20.59
538.92	20.99
539.264	21.31
539.608	21.68
539.951	22.03
540.295	22.33
540.639	22.64
540.983	22.93
541.327	23.21
541.671	23.51
542.014	23.8
542.358	24.12
542.701	24.45
543.045	24.76
543.389	25.06
543.732	25.34
544.075	25.69
544.419	26
544.762	26.33
545.105	26.69
545.449	27.05
545.792	27.42
546.135	27.8
546.478	28.24
546.821	28.66
547.165	29.07
547.508	29.54
547.851	29.97
548.194	30.4
548.536	30.85
548.879	31.31
549.222	31.8
549.565	32.2
549.908	32.61
550.25	33.01
550.593	33.47
550.936	33.88
551.278	34.26
551.621	34.68
551.963	35.06
552.306	35.46
552.648	35.89
552.991	36.28
553.333	36.68
553.675	37.04
554.017	37.39
554.36	37.73
554.702	38.07
555.044	38.43
555.386	38.82
555.728	39.2
556.07	39.53
556.412	39.85
556.754	40.22
557.096	40.56
557.438	40.98
557.78	41.32
558.121	41.74
558.463	42.21
558.805	42.51
559.147	42.84
559.488	43.17
559.83	43.49
560.171	43.81
560.513	44.04
560.854	44.37
561.196	44.72
561.537	45.1
561.878	45.42
562.22	45.69
562.561	46.01
562.902	46.32
563.243	46.66
563.584	46.96
563.925	47.23
564.266	47.53
564.607	47.75
564.948	47.96
565.289	48.22
565.63	48.37
565.971	48.65
566.312	48.9
566.653	49.22
566.993	49.49
567.334	49.7
567.675	49.98
568.015	50.22
568.356	50.37
568.696	50.52
569.037	50.76
569.377	51.01
569.718	51.2
570.058	51.33
570.398	51.47
570.739	51.65
571.079	51.81
571.419	52
571.759	52.17
572.099	52.41
572.439	52.55
572.779	52.71
573.119	52.87
573.459	53.11
573.799	53.19
574.139	53.29
574.479	53.46
574.819	53.58
575.158	53.68
575.498	53.84
575.838	54.04
576.177	54.15
576.517	54.36
576.856	54.47
577.196	54.63
577.535	54.8
577.875	54.97
578.214	55.19
578.553	55.33
578.893	55.47
579.232	55.55
579.571	55.8
579.91	56.02
580.25	56.21
580.589	56.27
580.928	56.47
581.267	56.63
581.606	56.79
581.945	56.93
582.283	57.1
582.622	57.31
582.961	57.44
583.3	57.46
583.639	57.46
583.977	57.56
584.316	57.73
584.654	57.83
584.993	57.99
585.332	58.06
585.67	58.17
586.008	58.26
586.347	58.38
586.685	58.36
587.024	58.42
587.362	58.42
587.7	58.47
588.038	58.6
588.376	58.61
588.715	58.73
589.053	58.85
589.391	58.86
589.729	58.87
590.067	58.85
590.404	58.95
590.742	59.05
591.08	59.17
591.418	59.27
591.756	59.38
592.093	59.38
592.431	59.49
592.769	59.52
593.106	59.71
593.444	59.77
593.781	59.93
594.119	60.04
594.456	60.14
594.793	60.27
595.131	60.31
595.468	60.4
595.805	60.43
596.143	60.51
596.48	60.66
596.817	60.78
597.154	60.86
597.491	61.01
597.828	61.05
598.165	61.06
598.502	61.08
598.839	61.08
599.176	61.19
599.512	61.24
599.849	61.34
600.186	61.36
600.523	61.49
600.859	61.47
601.196	61.49
601.532	61.55
601.869	61.6
602.205	61.62
602.542	61.69
602.878	61.74
603.215	61.67
603.551	61.75
603.887	61.75
604.223	61.88
604.56	61.91
604.896	61.95
605.232	62.01
605.568	62.08
605.904	62.15
606.24	62.21
606.576	62.23
606.912	62.2
607.248	62.21
607.583	62.1
607.919	62.11
608.255	62.12
608.591	62.22
608.926	62.23
609.262	62.32
609.597	62.45
609.933	62.62
610.268	62.77
610.604	62.8
610.939	62.85
611.275	62.85
611.61	62.85
611.945	62.92
612.281	63.04
612.616	63
612.951	63.09
613.286	63.11
613.621	63.18
613.956	63.37
614.291	63.4
614.626	63.54
614.961	63.66
615.296	63.79
615.631	63.82
615.966	63.79
616.3	63.88
616.635	63.77
616.97	63.68
617.304	63.7
617.639	63.77
617.973	63.89
618.308	63.89
618.642	63.91
618.977	63.94
619.311	63.92
619.646	64.02
619.98	64.08
620.314	64.05
620.648	64.06
620.983	64.03
621.317	64.15
621.651	64.24
621.985	64.28
622.319	64.29
622.653	64.34
622.987	64.49
623.321	64.41
623.655	64.5
623.988	64.57
624.322	64.6
624.656	64.49
624.99	64.48
625.323	64.41
625.657	64.43
625.99	64.47
626.324	64.52
626.657	64.52
626.991	64.48
627.324	64.61
627.658	64.7
627.991	64.73
628.324	64.68
628.657	64.75
628.991	64.68
629.324	64.69
629.657	64.64
629.99	64.66
630.323	64.74
630.656	64.64
630.989	64.65
631.322	64.79
631.655	64.9
631.987	64.93
632.32	65.06
632.653	65.1
632.986	65.15
633.318	65.1
633.651	65.16
633.984	65.29
634.316	65.22
634.649	65.2
634.981	65.25
635.313	65.36
635.646	65.32
635.978	65.45
636.31	65.35
636.643	65.44
636.975	65.53
637.307	65.56
637.639	65.69
637.971	65.72
638.303	65.65
638.635	65.59
638.967	65.65
639.299	65.7
639.631	65.74
639.963	65.66
640.295	65.72
640.626	65.66
640.958	65.63
641.29	65.66
641.621	65.79
641.953	65.72
642.285	65.71
642.616	65.75
642.948	65.78
643.279	65.91
643.61	65.82
643.942	65.65
644.273	65.61
644.604	65.48
644.936	65.39
645.267	65.23
645.598	65.24
645.929	65.17
646.26	65.11
646.591	65.2
646.922	65.25
647.253	65.3
647.584	65.35
647.915	65.43
648.245	65.44
648.576	65.27
648.907	65.28
649.238	65.21
649.568	65.22
649.899	65.17
650.229	65.26
650.56	65.31
650.89	65.39
651.221	65.38
651.551	65.56
651.882	65.59
652.212	65.7
652.542	65.86
652.872	65.93
653.203	65.99
653.533	66.08
653.863	66.12
654.193	66.17
654.523	66.23
654.853	66.21
655.183	66.35
655.513	66.5
655.843	66.59
656.172	66.72
656.502	66.72
656.832	66.75
657.162	66.7
657.491	66.73
657.821	66.79
658.15	66.71
658.48	66.71
658.809	66.71
659.139	66.72
659.468	66.63
659.798	66.53
660.127	66.53
660.456	66.39
660.785	66.33
661.115	66.38
661.444	66.43
661.773	66.4
662.102	66.26
662.431	66.29
662.76	66.32
663.089	66.3
663.418	66.22
663.747	66.26
