Data from BA56825_Reflection_00011.txt Node
Date: Mon Nov 18 15:37:41 EST 2019
User: vgr7
Spectrometer: USB2G7710
Scans to average: 3
Trigger mode: 4
Integration Time (sec): 2.000000E-2
Electric dark correction enabled: true
Boxcar width: 10
XAxis mode: Wavelengths
Number of Pixels in Spectrum: 2048
>>>>>Begin Spectral Data<<<<<
177.721	252.22
178.105	32.98
178.488	-2.02
178.871	-32.23
179.254	0.87
179.636	-125.21
180.019	-189.29
180.402	81.82
180.785	499.7
181.168	-310.31
181.55	-7605.88
181.933	234.98
182.316	128.16
182.698	150.5
183.081	210.84
183.463	602.57
183.846	1869.23
184.228	-1787.46
184.611	-1524.66
184.993	-435.86
185.376	-265.63
185.758	-299.69
186.14	-488.48
186.522	-424.09
186.904	-300.99
187.287	-493.72
187.669	-264.09
188.051	-223.07
188.433	-196.36
188.815	-150.72
189.197	-192.32
189.579	-152.04
189.961	-158.31
190.342	-133.1
190.724	-93.62
191.106	-99.81
191.488	-79.74
191.869	-70.89
192.251	-66.71
192.633	-46.65
193.014	-71.75
193.396	-81.12
193.777	-78.24
194.159	-72.61
194.54	-56.81
194.922	-66.7
195.303	-57.66
195.684	-60.17
196.065	-50.18
196.447	-59.8
196.828	-66.7
197.209	-59.71
197.59	-62.13
197.971	-68.25
198.352	-51.79
198.733	-63.66
199.114	-53.78
199.495	-62.37
199.876	-53.86
200.257	-56.62
200.638	-59.91
201.018	-60.35
201.399	-66.86
201.78	-55.69
202.16	-67.7
202.541	-90.43
202.922	-100.32
203.302	-105.59
203.683	-108.92
204.063	-138.18
204.444	-111.76
204.824	-102.83
205.204	-100.77
205.585	-110.8
205.965	-110.37
206.345	-127.72
206.725	-157.67
207.106	-193.6
207.486	-207.77
207.866	-241.44
208.246	-290.37
208.626	-264.97
209.006	-191.68
209.386	-183.04
209.766	-200.93
210.145	-160.74
210.525	-135.1
210.905	-117.15
211.285	-127.9
211.664	-114.49
212.044	-111.47
212.424	-160.3
212.803	-215.65
213.183	-199.97
213.562	-165.08
213.942	-138.7
214.321	-123.45
214.701	-129.9
215.08	-131.94
215.459	-161.31
215.838	-163.87
216.218	-171.72
216.597	-208.8
216.976	-207.23
217.355	-162.72
217.734	-156.69
218.113	-137.58
218.492	-138.36
218.871	-135.68
219.25	-102.71
219.629	-102.87
220.008	-98.18
220.387	-66.96
220.766	-57.18
221.144	-70.58
221.523	-95.29
221.902	-92.94
222.28	-118.4
222.659	-88
223.037	-69.17
223.416	-58.51
223.794	-62.58
224.173	-46.44
224.551	-38.1
224.929	-43.41
225.308	-38.93
225.686	-33.77
226.064	-34.52
226.442	-32.95
226.821	-28.12
227.199	-26.59
227.577	-24.49
227.955	-22.87
228.333	-21.35
228.711	-16.44
229.089	-12.24
229.467	-10.79
229.845	-11.46
230.222	-11.49
230.6	-12.79
230.978	-12.96
231.356	-9.21
231.733	-7.39
232.111	-6.2
232.488	-6.39
232.866	-5.84
233.243	-5.42
233.621	-6.4
233.998	-4.88
234.376	-4.3
234.753	-5.65
235.13	-5.44
235.508	-5.76
235.885	-7.22
236.262	-8.36
236.639	-8.03
237.016	-7.11
237.393	-6.41
237.77	-4.59
238.147	-4.27
238.524	-2.95
238.901	-1.24
239.278	-1.4
239.655	-0.75
240.032	-1.36
240.409	-1.04
240.785	-0.59
241.162	-0.17
241.539	0.34
241.915	0.47
242.292	0.05
242.668	0.51
243.045	1.09
243.421	0.82
243.798	1.37
244.174	1.79
244.551	1.71
244.927	1.89
245.303	2.31
245.679	2.42
246.056	2.58
246.432	2.38
246.808	2.13
247.184	2.05
247.56	2.08
247.936	2.21
248.312	2.41
248.688	2.42
249.064	2.33
249.44	2.35
249.815	2.3
250.191	2.38
250.567	2.52
250.943	2.44
251.318	2.85
251.694	2.9
252.069	2.7
252.445	2.71
252.82	2.47
253.196	2.47
253.571	2.4
253.947	2.62
254.322	2.89
254.697	2.61
255.073	2.41
255.448	2.54
255.823	2.51
256.198	2.45
256.573	2.62
256.948	2.87
257.323	3.07
257.698	3.03
258.073	3.08
258.448	3.11
258.823	2.94
259.198	2.85
259.573	2.8
259.948	2.89
260.322	2.9
260.697	2.9
261.072	2.63
261.446	2.62
261.821	2.44
262.195	2.59
262.57	2.69
262.944	2.86
263.319	2.75
263.693	2.88
264.067	2.95
264.442	2.97
264.816	2.94
265.19	2.65
265.564	2.62
265.938	2.62
266.313	2.65
266.687	2.84
267.061	2.92
267.435	3.14
267.809	3.05
268.183	3.12
268.556	3.13
268.93	3.34
269.304	3.37
269.678	3.56
270.051	3.26
270.425	3.49
270.799	3.38
271.172	3.33
271.546	3.12
271.919	3.14
272.293	3.04
272.666	3.05
273.04	3.29
273.413	3.26
273.787	3.18
274.16	3.04
274.533	3.01
274.906	3.01
275.279	3.05
275.653	3.21
276.026	3.05
276.399	3.05
276.772	3.01
277.145	2.95
277.518	2.88
277.891	3.15
278.263	3.09
278.636	3.18
279.009	3.22
279.382	3.41
279.755	3.29
280.127	3.36
280.5	3.23
280.872	3.13
281.245	3.25
281.617	3.43
281.99	3.57
282.362	3.65
282.735	3.55
283.107	3.5
283.479	3.51
283.852	3.68
284.224	3.84
284.596	3.75
284.968	3.89
285.34	4.05
285.713	3.97
286.085	3.92
286.457	3.92
286.829	3.99
287.201	4.08
287.572	4.03
287.944	4.04
288.316	4.13
288.688	4.1
289.06	4.07
289.431	4.18
289.803	4.18
290.175	4.2
290.546	4.43
290.918	4.39
291.289	4.45
291.661	4.43
292.032	4.38
292.403	4.49
292.775	4.41
293.146	4.28
293.517	4.15
293.889	4.19
294.26	4.22
294.631	4.24
295.002	4.1
295.373	4.11
295.744	4.1
296.115	4.04
296.486	3.97
296.857	4
297.228	3.93
297.599	3.9
297.97	3.84
298.34	3.76
298.711	3.81
299.082	3.72
299.452	3.78
299.823	3.89
300.194	3.85
300.564	3.75
300.935	3.82
301.305	3.9
301.676	3.95
302.046	3.98
302.416	3.94
302.787	3.99
303.157	3.99
303.527	3.98
303.897	4.06
304.267	4.18
304.637	4.17
305.008	4.21
305.378	4.33
305.748	4.36
306.117	4.27
306.487	4.29
306.857	4.4
307.227	4.35
307.597	4.29
307.967	4.27
308.336	4.49
308.706	4.48
309.076	4.5
309.445	4.38
309.815	4.35
310.184	4.31
310.554	4.23
310.923	4.26
311.293	4.2
311.662	4.22
312.031	4.2
312.401	4.18
312.77	4.25
313.139	4.16
313.508	4.25
313.877	4.39
314.246	4.31
314.616	4.23
314.985	4.27
315.353	4.19
315.722	4.24
316.091	4.09
316.46	3.96
316.829	4.05
317.198	4.17
317.567	4.05
317.935	4.15
318.304	4.16
318.672	4.2
319.041	4.43
319.41	4.34
319.778	4.43
320.147	4.5
320.515	4.4
320.883	4.46
321.252	4.44
321.62	4.41
321.988	4.52
322.357	4.57
322.725	4.49
323.093	4.64
323.461	4.69
323.829	4.79
324.197	4.96
324.565	4.89
324.933	5
325.301	5.17
325.669	5.17
326.037	5.21
326.405	5.17
326.772	5.22
327.14	5.27
327.508	5.31
327.875	5.33
328.243	5.39
328.61	5.44
328.978	5.49
329.346	5.5
329.713	5.44
330.08	5.52
330.448	5.54
330.815	5.47
331.182	5.48
331.55	5.41
331.917	5.4
332.284	5.42
332.651	5.33
333.018	5.33
333.385	5.39
333.752	5.53
334.119	5.56
334.486	5.52
334.853	5.5
335.22	5.45
335.587	5.52
335.954	5.53
336.32	5.47
336.687	5.43
337.054	5.4
337.42	5.49
337.787	5.54
338.153	5.6
338.52	5.76
338.886	5.64
339.253	5.65
339.619	5.65
339.986	5.75
340.352	5.78
340.718	5.77
341.084	5.83
341.451	5.85
341.817	5.9
342.183	5.79
342.549	5.87
342.915	5.98
343.281	5.91
343.647	5.79
344.013	5.88
344.379	5.91
344.745	5.92
345.11	5.95
345.476	5.93
345.842	6.01
346.208	5.96
346.573	6.04
346.939	6.14
347.304	6.13
347.67	6
348.035	5.96
348.401	5.95
348.766	5.89
349.132	5.84
349.497	5.82
349.862	5.93
350.228	5.91
350.593	5.81
350.958	5.91
351.323	6.05
351.688	6.03
352.053	5.96
352.418	5.94
352.783	5.86
353.148	5.83
353.513	5.79
353.878	5.83
354.243	5.96
354.608	5.94
354.972	5.9
355.337	5.95
355.702	6.1
356.066	6.15
356.431	6.15
356.795	6.19
357.16	6.19
357.524	6.17
357.889	6.12
358.253	6.09
358.618	6.05
358.982	5.91
359.346	5.82
359.71	5.76
360.075	5.78
360.439	5.78
360.803	5.7
361.167	5.65
361.531	5.6
361.895	5.51
362.259	5.47
362.623	5.47
362.987	5.49
363.351	5.34
363.714	5.27
364.078	5.25
364.442	5.18
364.806	5.13
365.169	5.16
365.533	5.13
365.896	5.12
366.26	5.08
366.623	5.07
366.987	5.12
367.35	5.19
367.714	5.15
368.077	5.09
368.44	5.17
368.803	5.15
369.167	5.12
369.53	5.03
369.893	5.03
370.256	4.97
370.619	4.93
370.982	4.88
371.345	4.87
371.708	4.86
372.071	4.84
372.434	4.82
372.797	4.73
373.159	4.7
373.522	4.7
373.885	4.71
374.247	4.72
374.61	4.71
374.973	4.62
375.335	4.64
375.698	4.71
376.06	4.61
376.423	4.59
376.785	4.58
377.147	4.65
377.51	4.59
377.872	4.65
378.234	4.61
378.596	4.64
378.958	4.62
379.321	4.6
379.683	4.6
380.045	4.58
380.407	4.55
380.769	4.54
381.13	4.53
381.492	4.45
381.854	4.48
382.216	4.44
382.578	4.47
382.939	4.42
383.301	4.36
383.663	4.32
384.024	4.3
384.386	4.29
384.747	4.25
385.109	4.27
385.47	4.2
385.832	4.2
386.193	4.22
386.554	4.21
386.916	4.15
387.277	4.15
387.638	4.16
387.999	4.14
388.36	4.12
388.721	4.1
389.082	4.11
389.443	4.04
389.804	4
390.165	3.98
390.526	3.94
390.887	3.91
391.248	3.9
391.609	3.87
391.969	3.86
392.33	3.86
392.691	3.82
393.051	3.83
393.412	3.78
393.772	3.69
394.133	3.67
394.493	3.66
394.854	3.62
395.214	3.61
395.574	3.6
395.935	3.58
396.295	3.58
396.655	3.57
397.015	3.56
397.376	3.57
397.736	3.57
398.096	3.57
398.456	3.59
398.816	3.61
399.176	3.58
399.535	3.54
399.895	3.48
400.255	3.49
400.615	3.45
400.975	3.44
401.334	3.45
401.694	3.41
402.054	3.4
402.413	3.4
402.773	3.34
403.132	3.33
403.492	3.34
403.851	3.31
404.211	3.3
404.57	3.27
404.929	3.26
405.288	3.25
405.648	3.23
406.007	3.2
406.366	3.17
406.725	3.2
407.084	3.19
407.443	3.24
407.802	3.26
408.161	3.26
408.52	3.26
408.879	3.29
409.238	3.31
409.596	3.31
409.955	3.31
410.314	3.33
410.673	3.35
411.031	3.33
411.39	3.32
411.748	3.32
412.107	3.34
412.465	3.35
412.824	3.35
413.182	3.36
413.54	3.38
413.899	3.38
414.257	3.35
414.615	3.33
414.974	3.28
415.332	3.26
415.69	3.26
416.048	3.26
416.406	3.25
416.764	3.24
417.122	3.22
417.48	3.2
417.838	3.2
418.195	3.19
418.553	3.19
418.911	3.19
419.269	3.19
419.626	3.2
419.984	3.19
420.342	3.18
420.699	3.16
421.057	3.15
421.414	3.14
421.772	3.15
422.129	3.16
422.486	3.17
422.844	3.16
423.201	3.16
423.558	3.16
423.915	3.14
424.273	3.15
424.63	3.15
424.987	3.15
425.344	3.14
425.701	3.14
426.058	3.15
426.415	3.13
426.772	3.11
427.128	3.1
427.485	3.09
427.842	3.08
428.199	3.09
428.555	3.1
428.912	3.12
429.269	3.13
429.625	3.12
429.982	3.1
430.338	3.11
430.695	3.09
431.051	3.09
431.407	3.09
431.764	3.07
432.12	3.06
432.476	3.07
432.832	3.07
433.189	3.06
433.545	3.04
433.901	3.05
434.257	3.06
434.613	3.04
434.969	3.03
435.325	3.03
435.681	3.03
436.036	3.03
436.392	3.01
436.748	3
437.104	3
437.459	3
437.815	3
438.171	3.01
438.526	3
438.882	3.01
439.237	3.01
439.593	3.03
439.948	3.02
440.304	3.02
440.659	3.02
441.014	3.04
441.369	3.01
441.725	3.02
442.08	3.02
442.435	3.04
442.79	3.04
443.145	3.04
443.5	3.01
443.855	3.02
444.21	3.01
444.565	3.01
444.92	3.02
445.275	3
445.629	3
445.984	3.01
446.339	2.99
446.693	2.98
447.048	2.97
447.403	2.96
447.757	2.95
448.112	2.94
448.466	2.94
448.82	2.96
449.175	2.95
449.529	2.96
449.883	2.94
450.238	2.93
450.592	2.92
450.946	2.92
451.3	2.9
451.654	2.89
452.008	2.9
452.362	2.89
452.716	2.89
453.07	2.88
453.424	2.9
453.778	2.89
454.132	2.89
454.486	2.89
454.839	2.91
455.193	2.9
455.547	2.91
455.9	2.91
456.254	2.92
456.607	2.92
456.961	2.92
457.314	2.93
457.668	2.95
458.021	2.95
458.375	2.96
458.728	2.97
459.081	2.98
459.434	2.96
459.787	2.97
460.141	2.97
460.494	2.98
460.847	2.97
461.2	2.98
461.553	2.99
461.906	3
462.259	2.98
462.611	2.99
462.964	2.99
463.317	2.99
463.67	2.97
464.022	2.98
464.375	2.96
464.728	2.95
465.08	2.94
465.433	2.95
465.785	2.95
466.138	2.94
466.49	2.92
466.843	2.94
467.195	2.94
467.547	2.96
467.899	2.97
468.252	2.95
468.604	2.97
468.956	2.96
469.308	2.96
469.66	2.96
470.012	2.97
470.364	2.98
470.716	2.98
471.068	2.99
471.42	2.98
471.772	3.03
472.123	3.04
472.475	3.03
472.827	3.03
473.178	3.02
473.53	3.01
473.882	3.03
474.233	3.03
474.585	3.02
474.936	3.02
475.288	3
475.639	3.01
475.99	2.99
476.342	2.99
476.693	2.98
477.044	3
477.395	3
477.746	2.99
478.097	3
478.448	3
478.8	3.01
479.15	2.99
479.501	2.98
479.852	3
480.203	3.01
480.554	3.02
480.905	3.03
481.255	3.03
481.606	3.04
481.957	3.05
482.307	3.06
482.658	3.07
483.009	3.08
483.359	3.08
483.709	3.09
484.06	3.1
484.41	3.1
484.761	3.11
485.111	3.11
485.461	3.11
485.811	3.11
486.162	3.1
486.512	3.12
486.862	3.12
487.212	3.12
487.562	3.13
487.912	3.14
488.262	3.13
488.612	3.14
488.961	3.14
489.311	3.14
489.661	3.14
490.011	3.14
490.36	3.14
490.71	3.15
491.06	3.15
491.409	3.15
491.759	3.15
492.108	3.15
492.458	3.15
492.807	3.14
493.157	3.15
493.506	3.17
493.855	3.16
494.204	3.15
494.554	3.16
494.903	3.14
495.252	3.15
495.601	3.16
495.95	3.15
496.299	3.16
496.648	3.16
496.997	3.16
497.346	3.17
497.695	3.16
498.043	3.17
498.392	3.15
498.741	3.17
499.09	3.17
499.438	3.19
499.787	3.21
500.135	3.25
500.484	3.26
500.832	3.26
501.181	3.27
501.529	3.29
501.878	3.31
502.226	3.32
502.574	3.32
502.923	3.32
503.271	3.36
503.619	3.38
503.967	3.42
504.315	3.44
504.663	3.46
505.011	3.49
505.359	3.51
505.707	3.56
506.055	3.57
506.403	3.58
506.751	3.6
507.098	3.63
507.446	3.64
507.794	3.67
508.141	3.7
508.489	3.72
508.837	3.74
509.184	3.77
509.531	3.82
509.879	3.86
510.226	3.92
510.574	3.93
510.921	3.95
511.268	3.96
511.616	3.99
511.963	4.01
512.31	4.06
512.657	4.09
513.004	4.13
513.351	4.18
513.698	4.21
514.045	4.23
514.392	4.28
514.739	4.31
515.086	4.35
515.432	4.39
515.779	4.44
516.126	4.5
516.473	4.52
516.819	4.55
517.166	4.58
517.512	4.61
517.859	4.66
518.205	4.69
518.552	4.76
518.898	4.8
519.245	4.86
519.591	4.9
519.937	4.92
520.283	4.96
520.629	5.01
520.976	5.07
521.322	5.14
521.668	5.17
522.014	5.26
522.36	5.33
522.706	5.39
523.052	5.48
523.398	5.55
523.743	5.65
524.089	5.72
524.435	5.82
524.781	5.9
525.126	5.99
525.472	6.07
525.817	6.13
526.163	6.19
526.509	6.25
526.854	6.31
527.199	6.39
527.545	6.45
527.89	6.52
528.235	6.58
528.581	6.64
528.926	6.72
529.271	6.77
529.616	6.84
529.961	6.92
530.306	7
530.651	7.08
530.996	7.17
531.341	7.28
531.686	7.36
532.031	7.47
532.376	7.58
532.721	7.69
533.065	7.81
533.41	7.94
533.755	8.07
534.099	8.21
534.444	8.34
534.788	8.48
535.133	8.61
535.477	8.75
535.822	8.91
536.166	9.07
536.51	9.25
536.855	9.44
537.199	9.65
537.543	9.85
537.887	10.06
538.231	10.28
538.576	10.49
538.92	10.72
539.264	10.94
539.608	11.15
539.951	11.34
540.295	11.52
540.639	11.71
540.983	11.89
541.327	12.07
541.671	12.26
542.014	12.46
542.358	12.64
542.701	12.85
543.045	13.03
543.389	13.25
543.732	13.46
544.075	13.67
544.419	13.88
544.762	14.1
545.105	14.36
545.449	14.61
545.792	14.86
546.135	15.14
546.478	15.4
546.821	15.69
547.165	15.99
547.508	16.31
547.851	16.6
548.194	16.91
548.536	17.26
548.879	17.58
549.222	17.92
549.565	18.24
549.908	18.62
550.25	18.98
550.593	19.28
550.936	19.61
551.278	19.95
551.621	20.31
551.963	20.64
552.306	20.95
552.648	21.26
552.991	21.61
553.333	21.9
553.675	22.22
554.017	22.51
554.36	22.83
554.702	23.11
555.044	23.45
555.386	23.79
555.728	24.12
556.07	24.44
556.412	24.73
556.754	25.06
557.096	25.35
557.438	25.66
557.78	26.04
558.121	26.36
558.463	26.71
558.805	27.05
559.147	27.4
559.488	27.72
559.83	28.05
560.171	28.33
560.513	28.64
560.854	28.97
561.196	29.27
561.537	29.58
561.878	29.91
562.22	30.18
562.561	30.47
562.902	30.69
563.243	30.97
563.584	31.25
563.925	31.49
564.266	31.71
564.607	31.97
564.948	32.17
565.289	32.45
565.63	32.69
565.971	32.92
566.312	33.16
566.653	33.38
566.993	33.58
567.334	33.82
567.675	34.02
568.015	34.23
568.356	34.45
568.696	34.69
569.037	34.89
569.377	35.14
569.718	35.37
570.058	35.62
570.398	35.85
570.739	36.11
571.079	36.36
571.419	36.56
571.759	36.79
572.099	37.04
572.439	37.26
572.779	37.44
573.119	37.6
573.459	37.72
573.799	37.94
574.139	38.18
574.479	38.38
574.819	38.57
575.158	38.73
575.498	38.95
575.838	39.12
576.177	39.31
576.517	39.42
576.856	39.52
577.196	39.67
577.535	39.82
577.875	39.98
578.214	40.1
578.553	40.32
578.893	40.46
579.232	40.56
579.571	40.72
579.91	40.83
580.25	41.05
580.589	41.27
580.928	41.37
581.267	41.46
581.606	41.56
581.945	41.73
582.283	41.92
582.622	42.06
582.961	42.23
583.3	42.44
583.639	42.68
583.977	42.82
584.316	43.02
584.654	43.24
584.993	43.39
585.332	43.64
585.67	43.77
586.008	43.9
586.347	44.08
586.685	44.22
587.024	44.43
587.362	44.56
587.7	44.73
588.038	44.89
588.376	45.05
588.715	45.22
589.053	45.37
589.391	45.49
589.729	45.6
590.067	45.67
590.404	45.78
590.742	45.81
591.08	45.96
591.418	46.07
591.756	46.15
592.093	46.21
592.431	46.29
592.769	46.47
593.106	46.65
593.444	46.79
593.781	46.85
594.119	46.93
594.456	47.06
594.793	47.2
595.131	47.28
595.468	47.36
595.805	47.49
596.143	47.52
596.48	47.62
596.817	47.66
597.154	47.77
597.491	47.88
597.828	48.05
598.165	48.14
598.502	48.21
598.839	48.33
599.176	48.45
599.512	48.56
599.849	48.64
600.186	48.69
600.523	48.74
600.859	48.96
601.196	49.1
601.532	49.13
601.869	49.13
602.205	49.21
602.542	49.3
602.878	49.29
603.215	49.39
603.551	49.45
603.887	49.59
604.223	49.71
604.56	49.79
604.896	49.83
605.232	49.98
605.568	50.04
605.904	50.01
606.24	50.08
606.576	50.14
606.912	50.09
607.248	50.16
607.583	50.28
607.919	50.26
608.255	50.3
608.591	50.38
608.926	50.47
609.262	50.64
609.597	50.72
609.933	50.89
610.268	50.97
610.604	51.01
610.939	51.04
611.275	51.05
611.61	51.07
611.945	51.14
612.281	51.1
612.616	51.23
612.951	51.32
613.286	51.41
613.621	51.48
613.956	51.64
614.291	51.7
614.626	51.72
614.961	51.8
615.296	51.96
615.631	52.04
615.966	52.1
616.3	52.08
616.635	52.14
616.97	52.12
617.304	52.26
617.639	52.31
617.973	52.44
618.308	52.54
618.642	52.64
618.977	52.68
619.311	52.79
619.646	52.77
619.98	52.77
620.314	52.81
620.648	52.9
620.983	53
621.317	53.11
621.651	53.21
621.985	53.21
622.319	53.24
622.653	53.31
622.987	53.41
623.321	53.36
623.655	53.38
623.988	53.48
624.322	53.48
624.656	53.58
624.99	53.58
625.323	53.61
625.657	53.58
625.99	53.61
626.324	53.66
626.657	53.65
626.991	53.8
627.324	53.84
627.658	53.86
627.991	53.88
628.324	53.92
628.657	53.93
628.991	53.99
629.324	54.01
629.657	53.99
629.99	54.05
630.323	54.21
630.656	54.29
630.989	54.48
631.322	54.47
631.655	54.49
631.987	54.52
632.32	54.56
632.653	54.68
632.986	54.74
633.318	54.75
633.651	54.91
633.984	54.89
634.316	54.93
634.649	55
634.981	55.02
635.313	55.1
635.646	55.18
635.978	55.29
636.31	55.33
636.643	55.41
636.975	55.42
637.307	55.37
637.639	55.44
637.971	55.31
638.303	55.36
638.635	55.4
638.967	55.42
639.299	55.5
639.631	55.5
639.963	55.6
640.295	55.77
640.626	55.85
640.958	55.89
641.29	55.9
641.621	55.87
641.953	55.95
642.285	55.92
642.616	56.02
642.948	56.04
643.279	56.09
643.61	56.19
643.942	56.22
644.273	56.36
644.604	56.3
644.936	56.33
645.267	56.38
645.598	56.44
645.929	56.59
646.26	56.58
646.591	56.75
646.922	56.8
647.253	56.73
647.584	56.71
647.915	56.77
648.245	56.95
648.576	57.07
648.907	57.19
649.238	57.26
649.568	57.19
649.899	57.22
650.229	57.23
650.56	57.23
650.89	57.22
651.221	57.25
651.551	57.42
651.882	57.38
652.212	57.52
652.542	57.53
652.872	57.56
653.203	57.58
653.533	57.61
653.863	57.5
654.193	57.54
654.523	57.7
654.853	57.72
655.183	57.77
655.513	57.88
655.843	57.85
656.172	57.83
656.502	57.92
656.832	57.94
657.162	57.99
657.491	58.16
657.821	58.28
658.15	58.31
658.48	58.44
658.809	58.52
659.139	58.44
659.468	58.58
659.798	58.57
660.127	58.73
660.456	58.69
660.785	58.84
661.115	58.82
661.444	58.77
661.773	58.95
662.102	59
662.431	58.94
662.76	58.98
663.089	59.08
663.418	59.05
663.747	59.07
664.076	59.12
664.404	58.99
664.733	58.96
665.062	59.01
665.39	58.88
665.719	58.95
666.048	59.25
666.376	59.18
