Data from BA56852_Reflection_00012.txt Node
Date: Mon Nov 18 15:23:16 EST 2019
User: vgr7
Spectrometer: USB2G7710
Scans to average: 3
Trigger mode: 4
Integration Time (sec): 2.000000E-2
Electric dark correction enabled: true
Boxcar width: 10
XAxis mode: Wavelengths
Number of Pixels in Spectrum: 2048
>>>>>Begin Spectral Data<<<<<
177.721	50.4
178.105	53.92
178.488	25.36
178.871	36.88
179.254	-85.64
179.636	-30.12
180.019	-373.93
180.402	87.1
180.785	-28.08
181.168	15.34
181.55	-24.79
181.933	29.09
182.316	30.85
182.698	23.17
183.081	31.19
183.463	27.85
183.846	44.82
184.228	35.01
184.611	24.93
184.993	-9.67
185.376	-34.54
185.758	-33.6
186.14	-14.1
186.522	-6.36
186.904	-3.24
187.287	29.05
187.669	28.6
188.051	36.97
188.433	10.76
188.815	18.93
189.197	16.3
189.579	29.45
189.961	56.85
190.342	89.21
190.724	167.8
191.106	142.94
191.488	126.26
191.869	165.35
192.251	251.04
192.633	159.27
193.014	226.14
193.396	409.17
193.777	206.48
194.159	281.17
194.54	287.18
194.922	-13373.68
195.303	-2358.72
195.684	-412.72
196.065	-108.14
196.447	-167.2
196.828	-162.08
197.209	-89.94
197.59	-128.93
197.971	-42.55
198.352	-15.22
198.733	14.66
199.114	0.41
199.495	3.61
199.876	14.36
200.257	16.37
200.638	9.06
201.018	2.28
201.399	2.04
201.78	3.76
202.16	-22.51
202.541	-53.75
202.922	-53.9
203.302	-59.26
203.683	-90.96
204.063	-134.99
204.444	-104.26
204.824	-104.95
205.204	-117.46
205.585	-64.46
205.965	-67.28
206.345	-108.46
206.725	-190.22
207.106	-325.41
207.486	-226.19
207.866	-227.48
208.246	-215.71
208.626	-323.2
209.006	-204.38
209.386	-525.74
209.766	-730.86
210.145	317.93
210.525	643.35
210.905	1021.35
211.285	-63.55
211.664	-35.66
212.044	-51.84
212.424	-50.68
212.803	-95.94
213.183	-61.91
213.562	-105.95
213.942	-216.22
214.321	-114.98
214.701	-83.28
215.08	-53.67
215.459	-54.85
215.838	-110.53
216.218	-210.3
216.597	-48.31
216.976	-48.51
217.355	-48.27
217.734	-55.25
218.113	-27.71
218.492	-53.73
218.871	-117.57
219.25	-110.09
219.629	-115.8
220.008	-123.38
220.387	-118.76
220.766	-82.73
221.144	-89.48
221.523	-79.84
221.902	-69.92
222.28	-91.2
222.659	-80.45
223.037	-76.16
223.416	-87.02
223.794	-62.42
224.173	-50.77
224.551	-50.13
224.929	-53.35
225.308	-41.84
225.686	-37.52
226.064	-33.32
226.442	-27.08
226.821	-17
227.199	-20.02
227.577	-15.46
227.955	-14.52
228.333	-10.58
228.711	-6.93
229.089	-6.67
229.467	-5.92
229.845	-6.98
230.222	-1.91
230.6	-4.57
230.978	-4.34
231.356	-2.84
231.733	-4.16
232.111	-1.94
232.488	0.05
232.866	1.75
233.243	3.45
233.621	5.43
233.998	5.9
234.376	4.81
234.753	4.89
235.13	4.29
235.508	3.76
235.885	4.27
236.262	3.26
236.639	1.62
237.016	1.38
237.393	2.23
237.77	2.98
238.147	2.01
238.524	3.91
238.901	3.82
239.278	4.02
239.655	4.19
240.032	3.45
240.409	3.37
240.785	3.2
241.162	3.07
241.539	3.48
241.915	3.29
242.292	3.57
242.668	3.3
243.045	3.49
243.421	3.36
243.798	3.64
244.174	3.75
244.551	3.92
244.927	4.06
245.303	4.12
245.679	4
246.056	4.09
246.432	3.84
246.808	3.92
247.184	3.85
247.56	3.66
247.936	3.57
248.312	3.59
248.688	3.76
249.064	3.69
249.44	3.59
249.815	3.46
250.191	3.85
250.567	4.09
250.943	4.08
251.318	4.21
251.694	4.07
252.069	4.08
252.445	4.06
252.82	4.09
253.196	3.9
253.571	3.93
253.947	4.18
254.322	4.19
254.697	4.15
255.073	3.93
255.448	3.85
255.823	3.86
256.198	3.88
256.573	3.67
256.948	3.57
257.323	3.71
257.698	3.84
258.073	3.51
258.448	3.45
258.823	3.6
259.198	3.48
259.573	3.3
259.948	3.14
260.322	3.13
260.697	3.01
261.072	3.05
261.446	3.15
261.821	3.05
262.195	3.05
262.57	2.86
262.944	2.87
263.319	3.03
263.693	3.1
264.067	3.11
264.442	3.13
264.816	3.04
265.19	2.85
265.564	2.89
265.938	2.91
266.313	2.74
266.687	2.75
267.061	2.77
267.435	3.15
267.809	3.22
268.183	3.28
268.556	3.26
268.93	3.25
269.304	3.22
269.678	3.23
270.051	3.26
270.425	3.42
270.799	3.45
271.172	3.34
271.546	3.19
271.919	3.02
272.293	3
272.666	3.13
273.04	3.07
273.413	2.94
273.787	2.94
274.16	3.05
274.533	2.96
274.906	2.96
275.279	2.61
275.653	2.68
276.026	2.64
276.399	2.62
276.772	2.59
277.145	2.63
277.518	2.77
277.891	2.68
278.263	2.52
278.636	2.52
279.009	2.65
279.382	2.66
279.755	2.83
280.127	2.81
280.5	2.82
280.872	2.84
281.245	2.9
281.617	3.08
281.99	3.11
282.362	3.14
282.735	3.06
283.107	3.18
283.479	3.1
283.852	3.18
284.224	3.29
284.596	3.29
284.968	3.28
285.34	3.3
285.713	3.37
286.085	3.55
286.457	3.8
286.829	3.74
287.201	3.88
287.572	3.8
287.944	3.93
288.316	3.95
288.688	3.98
289.06	3.96
289.431	4
289.803	4.01
290.175	4
290.546	4.12
290.918	4.15
291.289	4.26
291.661	4.29
292.032	4.3
292.403	4.32
292.775	4.29
293.146	4.22
293.517	4.14
293.889	4.18
294.26	3.98
294.631	3.99
295.002	4.01
295.373	4.1
295.744	4.07
296.115	4.08
296.486	3.96
296.857	4.04
297.228	4.03
297.599	4.04
297.97	4.12
298.34	4.2
298.711	4.31
299.082	4.32
299.452	4.29
299.823	4.27
300.194	4.32
300.564	4.36
300.935	4.54
301.305	4.55
301.676	4.54
302.046	4.64
302.416	4.76
302.787	4.72
303.157	4.67
303.527	4.65
303.897	4.57
304.267	4.85
304.637	4.91
305.008	4.95
305.378	5.13
305.748	5.15
306.117	5.03
306.487	5.04
306.857	5.02
307.227	5.02
307.597	5.19
307.967	5.27
308.336	5.38
308.706	5.25
309.076	5.31
309.445	5.41
309.815	5.48
310.184	5.47
310.554	5.59
310.923	5.75
311.293	5.83
311.662	6.01
312.031	5.99
312.401	6.04
312.77	6.2
313.139	6.21
313.508	6.31
313.877	6.38
314.246	6.38
314.616	6.5
314.985	6.59
315.353	6.5
315.722	6.69
316.091	6.75
316.46	6.81
316.829	6.95
317.198	6.95
317.567	6.95
317.935	6.96
318.304	7.1
318.672	7.03
319.041	7.19
319.41	7.17
319.778	7.18
320.147	7.15
320.515	6.94
320.883	6.97
321.252	7.1
321.62	7.32
321.988	7.59
322.357	7.58
322.725	7.7
323.093	7.95
323.461	7.88
323.829	8.02
324.197	8.23
324.565	8.35
324.933	8.44
325.301	8.42
325.669	8.55
326.037	8.55
326.405	8.7
326.772	8.79
327.14	8.92
327.508	9.06
327.875	9.01
328.243	9.29
328.61	9.34
328.978	9.31
329.346	9.35
329.713	9.45
330.08	9.65
330.448	9.66
330.815	9.66
331.182	9.72
331.55	9.72
331.917	9.78
332.284	9.96
332.651	10.06
333.018	10.24
333.385	10.32
333.752	10.33
334.119	10.46
334.486	10.34
334.853	10.3
335.22	10.39
335.587	10.65
335.954	10.64
336.32	10.69
336.687	10.88
337.054	11.07
337.42	11.12
337.787	11.17
338.153	11.3
338.52	11.44
338.886	11.43
339.253	11.52
339.619	11.47
339.986	11.47
340.352	11.48
340.718	11.48
341.084	11.57
341.451	11.65
341.817	11.58
342.183	11.77
342.549	11.84
342.915	11.78
343.281	11.77
343.647	11.73
344.013	11.77
344.379	11.74
344.745	11.6
345.11	11.55
345.476	11.57
345.842	11.66
346.208	11.67
346.573	11.76
346.939	11.79
347.304	11.93
347.67	11.95
348.035	11.96
348.401	12.07
348.766	11.99
349.132	12.03
349.497	12.08
349.862	12.13
350.228	12.18
350.593	12.26
350.958	12.28
351.323	12.35
351.688	12.42
352.053	12.5
352.418	12.68
352.783	12.71
353.148	12.71
353.513	12.73
353.878	12.67
354.243	12.7
354.608	12.69
354.972	12.66
355.337	12.67
355.702	12.75
356.066	12.72
356.431	12.72
356.795	12.72
357.16	12.65
357.524	12.55
357.889	12.53
358.253	12.6
358.618	12.61
358.982	12.53
359.346	12.43
359.71	12.38
360.075	12.28
360.439	12.28
360.803	12.25
361.167	12.17
361.531	12.17
361.895	12.11
362.259	12.07
362.623	11.99
362.987	11.91
363.351	11.8
363.714	11.77
364.078	11.71
364.442	11.62
364.806	11.61
365.169	11.5
365.533	11.45
365.896	11.3
366.26	11.18
366.623	11.13
366.987	11.11
367.35	11.05
367.714	10.98
368.077	10.85
368.44	10.77
368.803	10.62
369.167	10.51
369.53	10.51
369.893	10.45
370.256	10.4
370.619	10.36
370.982	10.25
371.345	10.14
371.708	10.17
372.071	10.11
372.434	10.05
372.797	10.03
373.159	9.91
373.522	9.9
373.885	9.94
374.247	9.9
374.61	9.82
374.973	9.71
375.335	9.65
375.698	9.54
376.06	9.52
376.423	9.46
376.785	9.45
377.147	9.35
377.51	9.25
377.872	9.17
378.234	9.07
378.596	9.04
378.958	8.98
379.321	8.88
379.683	8.81
380.045	8.72
380.407	8.62
380.769	8.57
381.13	8.43
381.492	8.22
381.854	8.14
382.216	8.06
382.578	7.96
382.939	7.87
383.301	7.8
383.663	7.67
384.024	7.61
384.386	7.5
384.747	7.46
385.109	7.39
385.47	7.32
385.832	7.28
386.193	7.2
386.554	7.15
386.916	7.07
387.277	6.98
387.638	6.91
387.999	6.86
388.36	6.79
388.721	6.76
389.082	6.76
389.443	6.64
389.804	6.59
390.165	6.53
390.526	6.46
390.887	6.43
391.248	6.4
391.609	6.37
391.969	6.29
392.33	6.19
392.691	6.12
393.051	6.07
393.412	5.98
393.772	5.91
394.133	5.85
394.493	5.79
394.854	5.75
395.214	5.69
395.574	5.65
395.935	5.59
396.295	5.55
396.655	5.48
397.015	5.47
397.376	5.43
397.736	5.38
398.096	5.35
398.456	5.32
398.816	5.24
399.176	5.18
399.535	5.15
399.895	5.12
400.255	5.09
400.615	5.04
400.975	5.01
401.334	4.96
401.694	4.91
402.054	4.84
402.413	4.81
402.773	4.76
403.132	4.72
403.492	4.7
403.851	4.66
404.211	4.67
404.57	4.63
404.929	4.61
405.288	4.57
405.648	4.51
406.007	4.46
406.366	4.43
406.725	4.41
407.084	4.41
407.443	4.4
407.802	4.4
408.161	4.36
408.52	4.31
408.879	4.29
409.238	4.28
409.596	4.28
409.955	4.24
410.314	4.2
410.673	4.17
411.031	4.13
411.39	4.11
411.748	4.04
412.107	4.06
412.465	4.02
412.824	4.02
413.182	4.01
413.54	3.98
413.899	3.99
414.257	3.98
414.615	3.97
414.974	3.95
415.332	3.9
415.69	3.88
416.048	3.86
416.406	3.86
416.764	3.85
417.122	3.82
417.48	3.8
417.838	3.8
418.195	3.79
418.553	3.77
418.911	3.74
419.269	3.74
419.626	3.73
419.984	3.72
420.342	3.69
420.699	3.67
421.057	3.67
421.414	3.64
421.772	3.61
422.129	3.59
422.486	3.57
422.844	3.57
423.201	3.56
423.558	3.55
423.915	3.53
424.273	3.52
424.63	3.49
424.987	3.49
425.344	3.47
425.701	3.46
426.058	3.46
426.415	3.46
426.772	3.45
427.128	3.41
427.485	3.4
427.842	3.38
428.199	3.38
428.555	3.36
428.912	3.37
429.269	3.38
429.625	3.38
429.982	3.37
430.338	3.35
430.695	3.35
431.051	3.32
431.407	3.33
431.764	3.31
432.12	3.33
432.476	3.34
432.832	3.34
433.189	3.35
433.545	3.35
433.901	3.33
434.257	3.32
434.613	3.32
434.969	3.32
435.325	3.32
435.681	3.33
436.036	3.35
436.392	3.33
436.748	3.31
437.104	3.29
437.459	3.29
437.815	3.28
438.171	3.29
438.526	3.31
438.882	3.31
439.237	3.31
439.593	3.31
439.948	3.3
440.304	3.29
440.659	3.28
441.014	3.28
441.369	3.28
441.725	3.27
442.08	3.25
442.435	3.24
442.79	3.23
443.145	3.21
443.5	3.2
443.855	3.2
444.21	3.19
444.565	3.21
444.92	3.22
445.275	3.23
445.629	3.21
445.984	3.19
446.339	3.18
446.693	3.16
447.048	3.14
447.403	3.13
447.757	3.13
448.112	3.13
448.466	3.12
448.82	3.11
449.175	3.13
449.529	3.13
449.883	3.13
450.238	3.11
450.592	3.12
450.946	3.08
451.3	3.07
451.654	3.07
452.008	3.04
452.362	3
452.716	2.99
453.07	2.98
453.424	2.99
453.778	2.98
454.132	2.98
454.486	2.98
454.839	3
455.193	2.98
455.547	2.96
455.9	2.97
456.254	2.97
456.607	2.95
456.961	2.95
457.314	2.96
457.668	2.97
458.021	2.95
458.375	2.96
458.728	2.96
459.081	2.95
459.434	2.96
459.787	2.97
460.141	2.97
460.494	2.98
460.847	2.99
461.2	2.98
461.553	2.99
461.906	2.99
462.259	3
462.611	3.03
462.964	3.04
463.317	3.03
463.67	3.05
464.022	3.06
464.375	3.07
464.728	3.07
465.08	3.09
465.433	3.11
465.785	3.14
466.138	3.17
466.49	3.18
466.843	3.19
467.195	3.19
467.547	3.18
467.899	3.2
468.252	3.21
468.604	3.24
468.956	3.23
469.308	3.24
469.66	3.24
470.012	3.23
470.364	3.24
470.716	3.27
471.068	3.27
471.42	3.29
471.772	3.33
472.123	3.34
472.475	3.33
472.827	3.33
473.178	3.34
473.53	3.32
473.882	3.32
474.233	3.33
474.585	3.31
474.936	3.32
475.288	3.32
475.639	3.32
475.99	3.31
476.342	3.32
476.693	3.31
477.044	3.33
477.395	3.34
477.746	3.31
478.097	3.28
478.448	3.26
478.8	3.25
479.15	3.23
479.501	3.23
479.852	3.22
480.203	3.22
480.554	3.21
480.905	3.22
481.255	3.22
481.606	3.23
481.957	3.25
482.307	3.25
482.658	3.24
483.009	3.24
483.359	3.25
483.709	3.24
484.06	3.24
484.41	3.23
484.761	3.23
485.111	3.24
485.461	3.25
485.811	3.26
486.162	3.25
486.512	3.26
486.862	3.25
487.212	3.27
487.562	3.27
487.912	3.29
488.262	3.28
488.612	3.28
488.961	3.28
489.311	3.29
489.661	3.3
490.011	3.33
490.36	3.34
490.71	3.34
491.06	3.35
491.409	3.37
491.759	3.38
492.108	3.38
492.458	3.38
492.807	3.38
493.157	3.41
493.506	3.44
493.855	3.44
494.204	3.46
494.554	3.48
494.903	3.5
495.252	3.51
495.601	3.55
495.95	3.58
496.299	3.6
496.648	3.6
496.997	3.61
497.346	3.62
497.695	3.66
498.043	3.7
498.392	3.71
498.741	3.73
499.09	3.78
499.438	3.83
499.787	3.86
500.135	3.9
500.484	3.9
500.832	3.93
501.181	3.99
501.529	4.04
501.878	4.08
502.226	4.11
502.574	4.14
502.923	4.19
503.271	4.24
503.619	4.29
503.967	4.34
504.315	4.39
504.663	4.43
505.011	4.48
505.359	4.53
505.707	4.58
506.055	4.66
506.403	4.72
506.751	4.79
507.098	4.86
507.446	4.93
507.794	5.01
508.141	5.08
508.489	5.16
508.837	5.24
509.184	5.31
509.531	5.4
509.879	5.5
510.226	5.58
510.574	5.68
510.921	5.76
511.268	5.85
511.616	5.96
511.963	6.07
512.31	6.19
512.657	6.33
513.004	6.45
513.351	6.6
513.698	6.73
514.045	6.86
514.392	7.05
514.739	7.2
515.086	7.36
515.432	7.53
515.779	7.68
516.126	7.85
516.473	8.05
516.819	8.21
517.166	8.38
517.512	8.52
517.859	8.69
518.205	8.85
518.552	9.02
518.898	9.2
519.245	9.4
519.591	9.56
519.937	9.73
520.283	9.94
520.629	10.14
520.976	10.4
521.322	10.64
521.668	10.89
522.014	11.17
522.36	11.46
522.706	11.75
523.052	12.07
523.398	12.38
523.743	12.7
524.089	13.05
524.435	13.39
524.781	13.72
525.126	14.03
525.472	14.32
525.817	14.59
526.163	14.83
526.509	15.04
526.854	15.29
527.199	15.52
527.545	15.72
527.89	15.95
528.235	16.16
528.581	16.38
528.926	16.59
529.271	16.83
529.616	17.05
529.961	17.29
530.306	17.53
530.651	17.79
530.996	18.06
531.341	18.33
531.686	18.63
532.031	18.93
532.376	19.25
532.721	19.57
533.065	19.89
533.41	20.23
533.755	20.59
534.099	20.93
534.444	21.3
534.788	21.68
535.133	22.01
535.477	22.36
535.822	22.74
536.166	23.16
536.51	23.54
536.855	23.99
537.199	24.42
537.543	24.9
537.887	25.37
538.231	25.81
538.576	26.25
538.92	26.68
539.264	27.1
539.608	27.51
539.951	27.91
540.295	28.29
540.639	28.65
540.983	28.99
541.327	29.3
541.671	29.62
542.014	29.9
542.358	30.2
542.701	30.51
543.045	30.82
543.389	31.13
543.732	31.48
544.075	31.8
544.419	32.11
544.762	32.41
545.105	32.74
545.449	33.09
545.792	33.48
546.135	33.82
546.478	34.18
546.821	34.54
547.165	34.96
547.508	35.35
547.851	35.73
548.194	36.14
548.536	36.59
548.879	37.01
549.222	37.39
549.565	37.83
549.908	38.18
550.25	38.53
550.593	38.84
550.936	39.16
551.278	39.51
551.621	39.91
551.963	40.34
552.306	40.65
552.648	41.01
552.991	41.37
553.333	41.75
553.675	42.1
554.017	42.32
554.36	42.51
554.702	42.81
555.044	43.13
555.386	43.36
555.728	43.64
556.07	43.98
556.412	44.28
556.754	44.53
557.096	44.83
557.438	45.18
557.78	45.46
558.121	45.74
558.463	46.09
558.805	46.38
559.147	46.62
559.488	46.85
559.83	47.1
560.171	47.35
560.513	47.66
560.854	47.88
561.196	48.21
561.537	48.54
561.878	48.83
562.22	49.04
562.561	49.29
562.902	49.42
563.243	49.61
563.584	49.82
563.925	49.99
564.266	50.2
564.607	50.38
564.948	50.61
565.289	50.82
565.63	50.98
565.971	51.14
566.312	51.26
566.653	51.45
566.993	51.65
567.334	51.9
567.675	52.01
568.015	52.19
568.356	52.36
568.696	52.49
569.037	52.64
569.377	52.81
569.718	52.98
570.058	53.19
570.398	53.31
570.739	53.48
571.079	53.69
571.419	53.89
571.759	54.02
572.099	54.15
572.439	54.28
572.779	54.37
573.119	54.51
573.459	54.67
573.799	54.83
574.139	54.92
574.479	54.98
574.819	55.11
575.158	55.22
575.498	55.36
575.838	55.44
576.177	55.54
576.517	55.6
576.856	55.7
577.196	55.83
577.535	56
577.875	56.14
578.214	56.29
578.553	56.45
578.893	56.6
579.232	56.79
579.571	56.94
579.91	57.14
580.25	57.24
580.589	57.4
580.928	57.56
581.267	57.75
581.606	57.84
581.945	58.05
582.283	58.25
582.622	58.49
582.961	58.66
583.3	58.73
583.639	58.95
583.977	59.1
584.316	59.25
584.654	59.3
584.993	59.35
585.332	59.38
585.67	59.37
586.008	59.43
586.347	59.43
586.685	59.46
587.024	59.55
587.362	59.66
587.7	59.75
588.038	59.85
588.376	59.88
588.715	60.01
589.053	59.95
589.391	60
589.729	59.99
590.067	60
590.404	60.14
590.742	60.23
591.08	60.32
591.418	60.4
591.756	60.49
592.093	60.66
592.431	60.83
592.769	60.94
593.106	61.04
593.444	61.14
593.781	61.22
594.119	61.25
594.456	61.24
594.793	61.26
595.131	61.14
595.468	61.1
595.805	61.11
596.143	61.22
596.48	61.25
596.817	61.28
597.154	61.4
597.491	61.45
597.828	61.41
598.165	61.35
598.502	61.34
598.839	61.44
599.176	61.41
599.512	61.42
599.849	61.49
600.186	61.56
600.523	61.55
600.859	61.57
601.196	61.63
601.532	61.7
601.869	61.76
602.205	61.94
602.542	62.03
602.878	62.03
603.215	62.03
603.551	62.05
603.887	62.14
604.223	62.16
604.56	62.09
604.896	62.15
605.232	62.26
605.568	62.33
605.904	62.29
606.24	62.32
606.576	62.3
606.912	62.28
607.248	62.32
607.583	62.33
607.919	62.38
608.255	62.44
608.591	62.48
608.926	62.52
609.262	62.54
609.597	62.63
609.933	62.73
610.268	62.85
610.604	62.88
610.939	62.83
611.275	62.85
611.61	62.98
611.945	63.05
612.281	63.11
612.616	63.1
612.951	63.16
613.286	63.18
613.621	63.24
613.956	63.33
614.291	63.36
614.626	63.54
614.961	63.58
615.296	63.64
615.631	63.85
615.966	63.95
616.3	64.03
616.635	64.06
616.97	64.12
617.304	64.11
617.639	64.23
617.973	64.31
618.308	64.42
618.642	64.48
618.977	64.51
619.311	64.58
619.646	64.65
619.98	64.68
620.314	64.76
620.648	64.8
620.983	64.86
621.317	64.84
621.651	64.78
621.985	64.85
622.319	64.81
622.653	64.69
622.987	64.58
623.321	64.55
623.655	64.62
623.988	64.61
624.322	64.65
624.656	64.62
624.99	64.63
625.323	64.59
625.657	64.67
625.99	64.66
626.324	64.68
626.657	64.65
626.991	64.72
627.324	64.76
627.658	64.78
627.991	64.83
628.324	64.87
628.657	64.93
628.991	64.96
629.324	64.97
629.657	65.11
629.99	65.26
630.323	65.28
630.656	65.3
630.989	65.29
631.322	65.32
631.655	65.39
631.987	65.42
632.32	65.51
632.653	65.44
632.986	65.5
633.318	65.57
633.651	65.56
633.984	65.58
634.316	65.6
634.649	65.64
634.981	65.63
635.313	65.66
635.646	65.74
635.978	65.77
636.31	65.89
636.643	65.86
636.975	65.86
637.307	65.87
637.639	65.91
637.971	66
638.303	65.99
638.635	65.98
638.967	66.02
639.299	66
639.631	66.01
639.963	66.02
640.295	65.93
640.626	66.09
640.958	66.23
641.29	66.2
641.621	66.25
641.953	66.21
642.285	66.13
642.616	66.08
642.948	66.14
643.279	66.18
643.61	66.22
643.942	66.21
644.273	66.29
644.604	66.33
644.936	66.34
645.267	66.35
645.598	66.37
645.929	66.37
646.26	66.44
646.591	66.5
646.922	66.54
647.253	66.57
647.584	66.48
647.915	66.29
648.245	66.28
648.576	66.35
648.907	66.41
649.238	66.55
649.568	66.6
649.899	66.47
650.229	66.43
650.56	66.43
650.89	66.55
651.221	66.57
651.551	66.58
651.882	66.63
652.212	66.68
652.542	66.68
652.872	66.66
653.203	66.54
653.533	66.52
653.863	66.61
654.193	66.59
654.523	66.63
654.853	66.8
655.183	66.9
655.513	67.01
655.843	67.05
656.172	67.1
656.502	67.19
656.832	67.39
657.162	67.44
657.491	67.38
657.821	67.35
658.15	67.43
658.48	67.32
658.809	67.29
659.139	67.26
659.468	67.4
659.798	67.43
660.127	67.61
660.456	67.7
660.785	67.67
661.115	67.73
661.444	67.92
661.773	67.85
662.102	67.84
662.431	67.67
662.76	67.85
663.089	67.87
663.418	67.81
663.747	67.66
664.076	67.61
664.404	67.6
