Data from BA56814_Reflection_00008.txt Node
Date: Mon Nov 18 15:40:34 EST 2019
User: vgr7
Spectrometer: USB2G7710
Scans to average: 3
Trigger mode: 4
Integration Time (sec): 2.000000E-2
Electric dark correction enabled: true
Boxcar width: 10
XAxis mode: Wavelengths
Number of Pixels in Spectrum: 2048
>>>>>Begin Spectral Data<<<<<
177.721	98.93
178.105	89.28
178.488	115.16
178.871	39.73
179.254	33.66
179.636	-166.52
180.019	-33.59
180.402	148.28
180.785	-26.21
181.168	-10.27
181.55	-63.54
181.933	51.72
182.316	111.6
182.698	69.55
183.081	53.21
183.463	83.52
183.846	58.37
184.228	27.56
184.611	10.34
184.993	-55.6
185.376	-5.64
185.758	-42.16
186.14	-13.67
186.522	-9.84
186.904	-5.52
187.287	-13
187.669	-57.13
188.051	-27.23
188.433	-40.36
188.815	-32.13
189.197	12.31
189.579	46.08
189.961	58.79
190.342	60.43
190.724	41.43
191.106	28.75
191.488	34.12
191.869	44.79
192.251	39.17
192.633	45.96
193.014	60.83
193.396	148.51
193.777	254.96
194.159	428.24
194.54	817.31
194.922	2444.26
195.303	568.28
195.684	1797.25
196.065	-169.19
196.447	-115.04
196.828	-436.98
197.209	-192.2
197.59	-92.93
197.971	-73.41
198.352	-42.86
198.733	-41.86
199.114	-43.78
199.495	-22.2
199.876	-11.47
200.257	-2.18
200.638	6.51
201.018	-1.07
201.399	34.31
201.78	44.61
202.16	4.79
202.541	-86.18
202.922	-116.51
203.302	-56.69
203.683	-68.27
204.063	-263.46
204.444	-565.78
204.824	-181.81
205.204	-93.36
205.585	-13.22
205.965	-59.45
206.345	-150.9
206.725	-281.44
207.106	-1235.2
207.486	401.79
207.866	-10030.43
208.246	-382.32
208.626	-515.5
209.006	-354.55
209.386	-281.66
209.766	-208.17
210.145	-216.27
210.525	-74.03
210.905	-54.31
211.285	-80.56
211.664	-45.53
212.044	-17.89
212.424	-2.98
212.803	4.11
213.183	-2.94
213.562	-10.29
213.942	6.62
214.321	32.69
214.701	31.42
215.08	32.76
215.459	27.69
215.838	18.78
216.218	34.79
216.597	48.93
216.976	53.09
217.355	42.31
217.734	32.19
218.113	32.02
218.492	24.15
218.871	22.15
219.25	32.87
219.629	32.23
220.008	14.59
220.387	16.77
220.766	9.35
221.144	-14.99
221.523	-32.04
221.902	-61.82
222.28	-53.72
222.659	-50.85
223.037	-30.66
223.416	-39.62
223.794	-20.56
224.173	-37.78
224.551	-23.67
224.929	-21.22
225.308	-22.75
225.686	-10.47
226.064	-9.85
226.442	-3.91
226.821	-8.68
227.199	-6.77
227.577	-8.56
227.955	-7.76
228.333	-10.51
228.711	-7.89
229.089	-2.11
229.467	-1.69
229.845	0.74
230.222	-1.74
230.6	-2.63
230.978	-4.31
231.356	-1.5
231.733	0.31
232.111	1.52
232.488	-0.22
232.866	-0.75
233.243	0.5
233.621	-0.4
233.998	0.09
234.376	-0.52
234.753	0.05
235.13	-0.97
235.508	0.05
235.885	0.73
236.262	1.21
236.639	0.73
237.016	0.06
237.393	1.04
237.77	0.63
238.147	1.62
238.524	1.76
238.901	3.24
239.278	3.01
239.655	1.93
240.032	1.38
240.409	1.1
240.785	1.49
241.162	1.82
241.539	2.31
241.915	2.31
242.292	1.93
242.668	2.61
243.045	2.6
243.421	2.59
243.798	2.29
244.174	2.7
244.551	2.62
244.927	2.57
245.303	2.47
245.679	2.66
246.056	2.81
246.432	2.75
246.808	2.52
247.184	2.2
247.56	2.07
247.936	2.38
248.312	2.35
248.688	2.57
249.064	2.29
249.44	2.02
249.815	2.17
250.191	2.3
250.567	2.13
250.943	1.98
251.318	2.24
251.694	2.32
252.069	2.18
252.445	2.27
252.82	2.32
253.196	2.2
253.571	2.08
253.947	1.86
254.322	1.9
254.697	1.65
255.073	1.74
255.448	1.86
255.823	1.64
256.198	1.91
256.573	1.71
256.948	2.06
257.323	2.32
257.698	2.19
258.073	2.12
258.448	2.16
258.823	2.19
259.198	2.06
259.573	2.17
259.948	1.92
260.322	1.93
260.697	1.83
261.072	1.8
261.446	1.79
261.821	1.77
262.195	1.89
262.57	2.04
262.944	2.03
263.319	2.02
263.693	1.88
264.067	1.8
264.442	1.71
264.816	1.59
265.19	1.34
265.564	1.35
265.938	1.28
266.313	1.18
266.687	1.28
267.061	1.15
267.435	1.14
267.809	1.2
268.183	1.18
268.556	1.12
268.93	1.19
269.304	1.29
269.678	1.42
270.051	1.2
270.425	1.04
270.799	1.08
271.172	1.11
271.546	1.25
271.919	1.25
272.293	1.38
272.666	1.36
273.04	1.39
273.413	1.29
273.787	1.36
274.16	1.36
274.533	1.35
274.906	1.48
275.279	1.52
275.653	1.57
276.026	1.56
276.399	1.62
276.772	1.7
277.145	1.71
277.518	1.64
277.891	1.71
278.263	1.73
278.636	1.7
279.009	1.73
279.382	1.95
279.755	1.93
280.127	2
280.5	2.09
280.872	2.14
281.245	2.2
281.617	2.24
281.99	2.31
282.362	2.37
282.735	2.19
283.107	2.06
283.479	2.24
283.852	2.31
284.224	2.28
284.596	2.16
284.968	2.07
285.34	2.06
285.713	2.11
286.085	2.22
286.457	2.32
286.829	2.31
287.201	2.13
287.572	2.12
287.944	1.99
288.316	2
288.688	1.98
289.06	1.93
289.431	1.93
289.803	1.91
290.175	1.86
290.546	2.02
290.918	2.07
291.289	2.11
291.661	2.1
292.032	2.16
292.403	2.27
292.775	2.31
293.146	2.33
293.517	2.23
293.889	2.3
294.26	2.27
294.631	2.26
295.002	2.32
295.373	2.36
295.744	2.49
296.115	2.45
296.486	2.35
296.857	2.45
297.228	2.44
297.599	2.48
297.97	2.47
298.34	2.46
298.711	2.45
299.082	2.24
299.452	2.1
299.823	2.15
300.194	2.08
300.564	2.06
300.935	2.15
301.305	2.21
301.676	2.22
302.046	2.37
302.416	2.46
302.787	2.41
303.157	2.4
303.527	2.26
303.897	2.27
304.267	2.49
304.637	2.55
305.008	2.6
305.378	2.61
305.748	2.74
306.117	2.82
306.487	3.03
306.857	3.18
307.227	3.34
307.597	3.32
307.967	3.46
308.336	3.53
308.706	3.59
309.076	3.63
309.445	3.5
309.815	3.44
310.184	3.39
310.554	3.5
310.923	3.41
311.293	3.53
311.662	3.51
312.031	3.56
312.401	3.52
312.77	3.58
313.139	3.67
313.508	3.79
313.877	3.7
314.246	3.69
314.616	3.72
314.985	3.79
315.353	3.83
315.722	3.95
316.091	3.94
316.46	3.93
316.829	4.03
317.198	4.28
317.567	4.33
317.935	4.45
318.304	4.56
318.672	4.89
319.041	5.06
319.41	5.25
319.778	5.3
320.147	5.41
320.515	5.44
320.883	5.35
321.252	5.22
321.62	5.29
321.988	5.33
322.357	5.36
322.725	5.26
323.093	5.41
323.461	5.34
323.829	5.39
324.197	5.51
324.565	5.5
324.933	5.46
325.301	5.47
325.669	5.55
326.037	5.56
326.405	5.56
326.772	5.59
327.14	5.53
327.508	5.59
327.875	5.59
328.243	5.61
328.61	5.68
328.978	5.74
329.346	5.99
329.713	5.92
330.08	5.98
330.448	6.15
330.815	6.11
331.182	6.14
331.55	6.17
331.917	6.2
332.284	6.38
332.651	6.37
333.018	6.38
333.385	6.43
333.752	6.61
334.119	6.67
334.486	6.61
334.853	6.71
335.22	6.67
335.587	6.7
335.954	6.81
336.32	6.92
336.687	6.91
337.054	6.78
337.42	6.93
337.787	6.9
338.153	6.96
338.52	7.03
338.886	7.09
339.253	7.05
339.619	7.06
339.986	7.01
340.352	7.13
340.718	7.15
341.084	7.17
341.451	7.12
341.817	7.19
342.183	7.22
342.549	7.18
342.915	7.19
343.281	7.28
343.647	7.2
344.013	7.18
344.379	7.14
344.745	7.2
345.11	7.17
345.476	7.31
345.842	7.35
346.208	7.34
346.573	7.3
346.939	7.52
347.304	7.48
347.67	7.46
348.035	7.38
348.401	7.51
348.766	7.4
349.132	7.33
349.497	7.23
349.862	7.34
350.228	7.43
350.593	7.48
350.958	7.48
351.323	7.56
351.688	7.54
352.053	7.61
352.418	7.57
352.783	7.61
353.148	7.52
353.513	7.58
353.878	7.56
354.243	7.69
354.608	7.56
354.972	7.58
355.337	7.59
355.702	7.66
356.066	7.74
356.431	7.79
356.795	7.79
357.16	7.77
357.524	7.71
357.889	7.6
358.253	7.65
358.618	7.65
358.982	7.56
359.346	7.56
359.71	7.5
360.075	7.56
360.439	7.54
360.803	7.59
361.167	7.57
361.531	7.59
361.895	7.55
362.259	7.58
362.623	7.59
362.987	7.63
363.351	7.59
363.714	7.5
364.078	7.53
364.442	7.55
364.806	7.59
365.169	7.58
365.533	7.62
365.896	7.58
366.26	7.59
366.623	7.62
366.987	7.59
367.35	7.63
367.714	7.55
368.077	7.49
368.44	7.48
368.803	7.42
369.167	7.31
369.53	7.31
369.893	7.36
370.256	7.33
370.619	7.26
370.982	7.24
371.345	7.15
371.708	7.09
372.071	7.03
372.434	6.9
372.797	6.81
373.159	6.74
373.522	6.71
373.885	6.6
374.247	6.54
374.61	6.54
374.973	6.48
375.335	6.48
375.698	6.46
376.06	6.4
376.423	6.34
376.785	6.37
377.147	6.32
377.51	6.2
377.872	6.16
378.234	6.1
378.596	6.06
378.958	6.03
379.321	6
379.683	5.96
380.045	6.02
380.407	5.99
380.769	6
381.13	5.93
381.492	5.95
381.854	5.95
382.216	5.93
382.578	5.9
382.939	5.84
383.301	5.8
383.663	5.71
384.024	5.69
384.386	5.71
384.747	5.65
385.109	5.63
385.47	5.56
385.832	5.57
386.193	5.53
386.554	5.52
386.916	5.48
387.277	5.47
387.638	5.41
387.999	5.37
388.36	5.32
388.721	5.31
389.082	5.25
389.443	5.2
389.804	5.11
390.165	5.1
390.526	5.06
390.887	5.04
391.248	5.07
391.609	5
391.969	4.89
392.33	4.87
392.691	4.85
393.051	4.81
393.412	4.77
393.772	4.71
394.133	4.68
394.493	4.63
394.854	4.61
395.214	4.55
395.574	4.53
395.935	4.49
396.295	4.44
396.655	4.41
397.015	4.37
397.376	4.35
397.736	4.28
398.096	4.26
398.456	4.21
398.816	4.12
399.176	4.08
399.535	4.03
399.895	3.99
400.255	3.96
400.615	3.95
400.975	3.87
401.334	3.85
401.694	3.82
402.054	3.79
402.413	3.75
402.773	3.75
403.132	3.73
403.492	3.7
403.851	3.68
404.211	3.63
404.57	3.6
404.929	3.6
405.288	3.61
405.648	3.56
406.007	3.56
406.366	3.57
406.725	3.58
407.084	3.58
407.443	3.57
407.802	3.57
408.161	3.55
408.52	3.56
408.879	3.55
409.238	3.51
409.596	3.52
409.955	3.51
410.314	3.48
410.673	3.46
411.031	3.45
411.39	3.44
411.748	3.45
412.107	3.45
412.465	3.45
412.824	3.4
413.182	3.39
413.54	3.37
413.899	3.37
414.257	3.36
414.615	3.34
414.974	3.31
415.332	3.25
415.69	3.22
416.048	3.17
416.406	3.14
416.764	3.11
417.122	3.09
417.48	3.06
417.838	3.04
418.195	3.02
418.553	3
418.911	2.97
419.269	2.96
419.626	2.93
419.984	2.9
420.342	2.9
420.699	2.86
421.057	2.85
421.414	2.82
421.772	2.8
422.129	2.79
422.486	2.79
422.844	2.79
423.201	2.79
423.558	2.79
423.915	2.77
424.273	2.77
424.63	2.72
424.987	2.72
425.344	2.7
425.701	2.7
426.058	2.7
426.415	2.7
426.772	2.69
427.128	2.68
427.485	2.68
427.842	2.66
428.199	2.67
428.555	2.65
428.912	2.66
429.269	2.66
429.625	2.65
429.982	2.63
430.338	2.61
430.695	2.6
431.051	2.58
431.407	2.6
431.764	2.58
432.12	2.59
432.476	2.58
432.832	2.56
433.189	2.56
433.545	2.53
433.901	2.52
434.257	2.5
434.613	2.51
434.969	2.51
435.325	2.51
435.681	2.52
436.036	2.52
436.392	2.49
436.748	2.49
437.104	2.48
437.459	2.48
437.815	2.46
438.171	2.46
438.526	2.48
438.882	2.49
439.237	2.52
439.593	2.53
439.948	2.54
440.304	2.54
440.659	2.53
441.014	2.54
441.369	2.54
441.725	2.54
442.08	2.54
442.435	2.52
442.79	2.52
443.145	2.51
443.5	2.51
443.855	2.53
444.21	2.51
444.565	2.5
444.92	2.52
445.275	2.52
445.629	2.51
445.984	2.49
446.339	2.46
446.693	2.43
447.048	2.43
447.403	2.42
447.757	2.42
448.112	2.42
448.466	2.41
448.82	2.41
449.175	2.41
449.529	2.4
449.883	2.39
450.238	2.37
450.592	2.36
450.946	2.35
451.3	2.33
451.654	2.34
452.008	2.34
452.362	2.31
452.716	2.32
453.07	2.32
453.424	2.32
453.778	2.32
454.132	2.3
454.486	2.29
454.839	2.3
455.193	2.28
455.547	2.29
455.9	2.3
456.254	2.3
456.607	2.31
456.961	2.32
457.314	2.31
457.668	2.31
458.021	2.29
458.375	2.3
458.728	2.3
459.081	2.3
459.434	2.28
459.787	2.3
460.141	2.31
460.494	2.3
460.847	2.31
461.2	2.31
461.553	2.35
461.906	2.35
462.259	2.36
462.611	2.36
462.964	2.35
463.317	2.35
463.67	2.35
464.022	2.34
464.375	2.34
464.728	2.35
465.08	2.37
465.433	2.39
465.785	2.39
466.138	2.41
466.49	2.43
466.843	2.47
467.195	2.47
467.547	2.47
467.899	2.49
468.252	2.5
468.604	2.52
468.956	2.53
469.308	2.54
469.66	2.53
470.012	2.55
470.364	2.57
470.716	2.58
471.068	2.6
471.42	2.61
471.772	2.62
472.123	2.64
472.475	2.65
472.827	2.66
473.178	2.68
473.53	2.68
473.882	2.67
474.233	2.66
474.585	2.65
474.936	2.64
475.288	2.62
475.639	2.64
475.99	2.65
476.342	2.65
476.693	2.64
477.044	2.65
477.395	2.66
477.746	2.65
478.097	2.63
478.448	2.62
478.8	2.61
479.15	2.59
479.501	2.57
479.852	2.56
480.203	2.56
480.554	2.56
480.905	2.57
481.255	2.57
481.606	2.57
481.957	2.58
482.307	2.58
482.658	2.58
483.009	2.56
483.359	2.56
483.709	2.56
484.06	2.55
484.41	2.55
484.761	2.56
485.111	2.56
485.461	2.57
485.811	2.57
486.162	2.58
486.512	2.59
486.862	2.6
487.212	2.61
487.562	2.62
487.912	2.62
488.262	2.62
488.612	2.62
488.961	2.63
489.311	2.64
489.661	2.64
490.011	2.65
490.36	2.65
490.71	2.66
491.06	2.67
491.409	2.68
491.759	2.7
492.108	2.71
492.458	2.73
492.807	2.75
493.157	2.77
493.506	2.77
493.855	2.78
494.204	2.79
494.554	2.81
494.903	2.81
495.252	2.83
495.601	2.86
495.95	2.89
496.299	2.9
496.648	2.92
496.997	2.96
497.346	3.01
497.695	3.07
498.043	3.09
498.392	3.12
498.741	3.15
499.09	3.18
499.438	3.21
499.787	3.24
500.135	3.28
500.484	3.32
500.832	3.35
501.181	3.39
501.529	3.44
501.878	3.5
502.226	3.57
502.574	3.62
502.923	3.67
503.271	3.71
503.619	3.78
503.967	3.83
504.315	3.86
504.663	3.91
505.011	3.97
505.359	4.02
505.707	4.09
506.055	4.16
506.403	4.23
506.751	4.3
507.098	4.36
507.446	4.43
507.794	4.49
508.141	4.57
508.489	4.64
508.837	4.71
509.184	4.77
509.531	4.84
509.879	4.93
510.226	5.02
510.574	5.1
510.921	5.18
511.268	5.27
511.616	5.37
511.963	5.47
512.31	5.58
512.657	5.7
513.004	5.79
513.351	5.9
513.698	6.01
514.045	6.12
514.392	6.22
514.739	6.33
515.086	6.45
515.432	6.57
515.779	6.68
516.126	6.81
516.473	6.92
516.819	7.04
517.166	7.14
517.512	7.22
517.859	7.33
518.205	7.45
518.552	7.56
518.898	7.66
519.245	7.78
519.591	7.87
519.937	7.96
520.283	8.13
520.629	8.29
520.976	8.44
521.322	8.6
521.668	8.76
522.014	8.93
522.36	9.09
522.706	9.28
523.052	9.5
523.398	9.73
523.743	9.93
524.089	10.15
524.435	10.36
524.781	10.55
525.126	10.75
525.472	10.92
525.817	11.07
526.163	11.21
526.509	11.33
526.854	11.48
527.199	11.61
527.545	11.72
527.89	11.84
528.235	11.95
528.581	12.09
528.926	12.24
529.271	12.37
529.616	12.52
529.961	12.67
530.306	12.81
530.651	12.96
530.996	13.13
531.341	13.3
531.686	13.47
532.031	13.67
532.376	13.86
532.721	14.06
533.065	14.29
533.41	14.53
533.755	14.76
534.099	14.98
534.444	15.23
534.788	15.46
535.133	15.67
535.477	15.91
535.822	16.13
536.166	16.38
536.51	16.66
536.855	16.95
537.199	17.24
537.543	17.53
537.887	17.8
538.231	18.09
538.576	18.39
538.92	18.7
539.264	19
539.608	19.25
539.951	19.49
540.295	19.69
540.639	19.9
540.983	20.12
541.327	20.33
541.671	20.52
542.014	20.73
542.358	20.97
542.701	21.19
543.045	21.41
543.389	21.59
543.732	21.78
544.075	21.98
544.419	22.18
544.762	22.39
545.105	22.64
545.449	22.87
545.792	23.1
546.135	23.33
546.478	23.56
546.821	23.84
547.165	24.1
547.508	24.37
547.851	24.64
548.194	24.9
548.536	25.21
548.879	25.49
549.222	25.72
549.565	25.96
549.908	26.19
550.25	26.43
550.593	26.69
550.936	26.92
551.278	27.16
551.621	27.42
551.963	27.71
552.306	27.93
552.648	28.18
552.991	28.46
553.333	28.65
553.675	28.86
554.017	29.06
554.36	29.26
554.702	29.52
555.044	29.75
555.386	29.97
555.728	30.15
556.07	30.37
556.412	30.55
556.754	30.73
557.096	30.94
557.438	31.17
557.78	31.4
558.121	31.65
558.463	31.86
558.805	32.07
559.147	32.21
559.488	32.43
559.83	32.6
560.171	32.74
560.513	32.98
560.854	33.17
561.196	33.34
561.537	33.5
561.878	33.61
562.22	33.75
562.561	33.9
562.902	34.04
563.243	34.17
563.584	34.31
563.925	34.48
564.266	34.62
564.607	34.7
564.948	34.84
565.289	34.96
565.63	35.15
565.971	35.26
566.312	35.41
566.653	35.45
566.993	35.6
567.334	35.69
567.675	35.78
568.015	35.91
568.356	36
568.696	36.13
569.037	36.25
569.377	36.35
569.718	36.44
570.058	36.54
570.398	36.62
570.739	36.78
571.079	36.87
571.419	36.95
571.759	37.09
572.099	37.15
572.439	37.2
572.779	37.25
573.119	37.33
573.459	37.44
573.799	37.57
574.139	37.61
574.479	37.73
574.819	37.82
575.158	37.86
575.498	37.91
575.838	38
576.177	38.1
576.517	38.21
576.856	38.34
577.196	38.38
577.535	38.53
577.875	38.55
578.214	38.64
578.553	38.77
578.893	38.88
579.232	39.02
579.571	39.15
579.91	39.18
580.25	39.27
580.589	39.37
580.928	39.53
581.267	39.64
581.606	39.7
581.945	39.72
582.283	39.85
582.622	39.96
582.961	40.03
583.3	40.05
583.639	40.13
583.977	40.12
584.316	40.21
584.654	40.22
584.993	40.33
585.332	40.37
585.67	40.4
586.008	40.39
586.347	40.41
586.685	40.36
587.024	40.46
587.362	40.54
587.7	40.59
588.038	40.58
588.376	40.62
588.715	40.65
589.053	40.7
589.391	40.71
589.729	40.8
590.067	40.89
590.404	40.95
590.742	41.01
591.08	40.96
591.418	41.01
591.756	41.08
592.093	41.16
592.431	41.22
592.769	41.24
593.106	41.29
593.444	41.3
593.781	41.4
594.119	41.43
594.456	41.33
594.793	41.27
595.131	41.28
595.468	41.28
595.805	41.31
596.143	41.39
596.48	41.47
596.817	41.49
597.154	41.47
597.491	41.54
597.828	41.47
598.165	41.58
598.502	41.56
598.839	41.61
599.176	41.61
599.512	41.69
599.849	41.76
600.186	41.75
600.523	41.83
600.859	41.89
601.196	41.95
601.532	42.07
601.869	42.14
602.205	42.15
602.542	42.18
602.878	42.22
603.215	42.26
603.551	42.24
603.887	42.23
604.223	42.25
604.56	42.3
604.896	42.38
605.232	42.44
605.568	42.52
605.904	42.49
606.24	42.46
606.576	42.43
606.912	42.43
607.248	42.48
607.583	42.52
607.919	42.51
608.255	42.51
608.591	42.46
608.926	42.53
609.262	42.58
609.597	42.65
609.933	42.69
610.268	42.7
610.604	42.78
610.939	42.86
611.275	42.95
611.61	42.89
611.945	42.98
612.281	43.01
612.616	43.04
612.951	43.1
613.286	43.17
613.621	43.18
613.956	43.23
614.291	43.3
614.626	43.3
614.961	43.3
615.296	43.37
615.631	43.5
615.966	43.48
616.3	43.55
616.635	43.6
616.97	43.58
617.304	43.57
617.639	43.53
617.973	43.41
618.308	43.35
618.642	43.41
618.977	43.34
619.311	43.35
619.646	43.42
619.98	43.49
620.314	43.51
620.648	43.63
620.983	43.66
621.317	43.63
621.651	43.69
621.985	43.73
622.319	43.71
622.653	43.73
622.987	43.77
623.321	43.76
623.655	43.73
623.988	43.77
624.322	43.82
624.656	43.89
624.99	43.98
625.323	44
625.657	44.02
625.99	44.06
626.324	44.1
626.657	44.08
626.991	44.08
627.324	44.08
627.658	44.09
627.991	44.08
628.324	44.07
628.657	43.99
628.991	44.04
629.324	44.06
629.657	44
629.99	43.94
630.323	44.03
630.656	44.02
630.989	44.09
631.322	44.1
631.655	44.08
631.987	44.08
632.32	44.07
632.653	44.1
632.986	44.09
633.318	44.07
633.651	44.07
633.984	44.04
634.316	44.09
634.649	44.13
634.981	44.18
635.313	44.23
635.646	44.26
635.978	44.29
636.31	44.32
636.643	44.43
636.975	44.52
637.307	44.44
637.639	44.45
637.971	44.44
638.303	44.37
638.635	44.36
638.967	44.52
639.299	44.63
639.631	44.62
639.963	44.62
640.295	44.62
640.626	44.73
640.958	44.79
641.29	44.8
641.621	44.76
641.953	44.76
642.285	44.79
642.616	44.91
642.948	44.95
643.279	44.99
643.61	44.94
643.942	44.88
644.273	44.88
644.604	44.9
644.936	44.8
645.267	44.87
645.598	44.89
645.929	44.72
646.26	44.62
646.591	44.57
646.922	44.53
647.253	44.58
647.584	44.47
647.915	44.49
648.245	44.57
648.576	44.59
648.907	44.6
649.238	44.63
649.568	44.51
649.899	44.58
650.229	44.64
650.56	44.67
650.89	44.8
651.221	44.81
651.551	44.93
651.882	45.07
652.212	45.11
652.542	45.11
652.872	45.08
653.203	45.17
653.533	45.27
653.863	45.41
654.193	45.39
654.523	45.35
654.853	45.46
655.183	45.24
655.513	45.18
655.843	45.25
656.172	45.29
656.502	45.41
656.832	45.23
657.162	45.22
657.491	45.25
657.821	45.2
658.15	45.11
658.48	45.13
658.809	45.13
659.139	45.12
659.468	45.09
659.798	45.18
660.127	45.22
660.456	45.14
660.785	45.13
661.115	45.1
661.444	45.11
661.773	44.96
662.102	45.11
662.431	45.13
662.76	45.05
663.089	45.04
663.418	45.01
663.747	45.05
664.076	44.99
664.404	44.95
664.733	44.98
665.062	45.08
665.39	44.94
665.719	44.91
666.048	44.85
666.376	44.96
666.705	44.88
667.033	44.79
667.362	44.87
667.69	44.89
668.018	44.9
