Data from BA56830_Reflection_00002.txt Node
Date: Mon Nov 18 16:03:46 EST 2019
User: vgr7
Spectrometer: USB2G7710
Scans to average: 3
Trigger mode: 4
Integration Time (sec): 2.000000E-2
Electric dark correction enabled: true
Boxcar width: 10
XAxis mode: Wavelengths
Number of Pixels in Spectrum: 2048
>>>>>Begin Spectral Data<<<<<
177.721	-18.28
178.105	80.39
178.488	45.27
178.871	112.2
179.254	238.21
179.636	-194.12
180.019	7100
180.402	115.79
180.785	-213.43
181.168	-49.12
181.55	-79.49
181.933	34.03
182.316	30.4
182.698	35.31
183.081	18.44
183.463	38.27
183.846	47.23
184.228	88.45
184.611	489.47
184.993	-666.23
185.376	1392.68
185.758	412.1
186.14	709.76
186.522	344.3
186.904	882.95
187.287	1730.14
187.669	-930.08
188.051	2550.98
188.433	-112900
188.815	-639.13
189.197	-278.76
189.579	-189.44
189.961	-182.05
190.342	-173.48
190.724	-167.58
191.106	-176.39
191.488	-191.82
191.869	-150.29
192.251	-219.37
192.633	-294.4
193.014	-258.4
193.396	-334.4
193.777	-285.75
194.159	-249.4
194.54	-123.79
194.922	-88.36
195.303	-55.05
195.684	-67.97
196.065	-15.28
196.447	-22.21
196.828	-38.5
197.209	-34.8
197.59	-76.8
197.971	-51.52
198.352	-23.6
198.733	-13.36
199.114	-19.47
199.495	-6.7
199.876	-11.68
200.257	-8.53
200.638	2.6
201.018	-23.38
201.399	-18.2
201.78	-2.84
202.16	-9.98
202.541	-6.28
202.922	-48.69
203.302	-82.66
203.683	-72.15
204.063	-134.6
204.444	-128.33
204.824	-79.77
205.204	-87.21
205.585	-64.42
205.965	-75.31
206.345	-79.44
206.725	-101.9
207.106	-129.43
207.486	-187.71
207.866	-167.43
208.246	-136.49
208.626	-184.95
209.006	-112.65
209.386	-144.84
209.766	-188.36
210.145	-164.62
210.525	-153.26
210.905	-156.15
211.285	-148
211.664	-134.67
212.044	-123.43
212.424	-103.07
212.803	-129.47
213.183	-100.89
213.562	-115.26
213.942	-107.14
214.321	-104.67
214.701	-93.36
215.08	-74.09
215.459	-54.33
215.838	-63.84
216.218	-83.75
216.597	-63.12
216.976	-70.73
217.355	-57.55
217.734	-44.82
218.113	-34.07
218.492	-37.73
218.871	-24.52
219.25	-16.09
219.629	-23.36
220.008	-21.83
220.387	-18.4
220.766	-9.4
221.144	-38.06
221.523	-42.05
221.902	-44.44
222.28	-49.59
222.659	-47.41
223.037	-47.42
223.416	-57.32
223.794	-58.81
224.173	-46.93
224.551	-44.59
224.929	-41.24
225.308	-29.87
225.686	-23.95
226.064	-22.72
226.442	-20.33
226.821	-16.54
227.199	-21.32
227.577	-16.54
227.955	-17.41
228.333	-14.93
228.711	-14.23
229.089	-5.73
229.467	-5.24
229.845	-5.67
230.222	-1.67
230.6	-2.78
230.978	-1.59
231.356	1.83
231.733	3.14
232.111	2.82
232.488	2.94
232.866	3.15
233.243	1.99
233.621	-1.32
233.998	-0.99
234.376	-2.04
234.753	-3.84
235.13	-1.25
235.508	-0.09
235.885	0.72
236.262	-0.58
236.639	0.07
237.016	-1.31
237.393	-0.21
237.77	-1.07
238.147	-1.02
238.524	0.26
238.901	0.7
239.278	0.77
239.655	1.56
240.032	2.15
240.409	2.17
240.785	2.11
241.162	1.93
241.539	2.1
241.915	2.41
242.292	2.67
242.668	2.8
243.045	2.51
243.421	2.24
243.798	2.12
244.174	2.17
244.551	2
244.927	2.22
245.303	2.42
245.679	3.04
246.056	2.94
246.432	2.74
246.808	2.63
247.184	2.43
247.56	2.42
247.936	2.26
248.312	2.24
248.688	2.25
249.064	2.46
249.44	2.61
249.815	2.55
250.191	2.5
250.567	2.57
250.943	2.41
251.318	2.5
251.694	2.73
252.069	2.56
252.445	2.7
252.82	2.55
253.196	2.34
253.571	2.12
253.947	2.05
254.322	2.04
254.697	2.07
255.073	2.07
255.448	1.82
255.823	1.93
256.198	2.11
256.573	2.22
256.948	2.28
257.323	2.45
257.698	2.58
258.073	2.64
258.448	2.6
258.823	2.84
259.198	2.79
259.573	2.76
259.948	3.01
260.322	3.09
260.697	3.02
261.072	2.94
261.446	2.98
261.821	2.97
262.195	3.03
262.57	2.93
262.944	3.1
263.319	3.07
263.693	2.96
264.067	2.86
264.442	2.82
264.816	2.77
265.19	2.71
265.564	2.63
265.938	2.63
266.313	2.68
266.687	2.51
267.061	2.65
267.435	2.51
267.809	2.26
268.183	2.13
268.556	2.44
268.93	2.45
269.304	2.44
269.678	2.57
270.051	2.59
270.425	2.59
270.799	2.5
271.172	2.56
271.546	2.56
271.919	2.48
272.293	2.46
272.666	2.32
273.04	2.25
273.413	2.32
273.787	2.19
274.16	2.12
274.533	2.22
274.906	2.11
275.279	2.06
275.653	2.13
276.026	2.03
276.399	1.83
276.772	1.87
277.145	1.75
277.518	1.71
277.891	1.81
278.263	1.9
278.636	1.9
279.009	1.85
279.382	2.08
279.755	2.26
280.127	2.27
280.5	2.39
280.872	2.52
281.245	2.43
281.617	2.53
281.99	2.71
282.362	2.83
282.735	2.92
283.107	3.03
283.479	2.96
283.852	3.18
284.224	3.19
284.596	3.3
284.968	3.49
285.34	3.44
285.713	3.4
286.085	3.34
286.457	3.41
286.829	3.59
287.201	3.62
287.572	3.55
287.944	3.62
288.316	3.66
288.688	3.55
289.06	3.54
289.431	3.58
289.803	3.57
290.175	3.58
290.546	3.74
290.918	3.64
291.289	3.67
291.661	3.59
292.032	3.64
292.403	3.63
292.775	3.6
293.146	3.62
293.517	3.57
293.889	3.75
294.26	3.66
294.631	3.65
295.002	3.56
295.373	3.57
295.744	3.58
296.115	3.65
296.486	3.74
296.857	3.71
297.228	3.71
297.599	3.64
297.97	3.67
298.34	3.58
298.711	3.79
299.082	3.81
299.452	3.89
299.823	3.96
300.194	3.95
300.564	3.96
300.935	4.03
301.305	4.11
301.676	4.03
302.046	4.16
302.416	4.3
302.787	4.36
303.157	4.38
303.527	4.33
303.897	4.25
304.267	4.4
304.637	4.59
305.008	4.57
305.378	4.72
305.748	4.73
306.117	4.58
306.487	4.65
306.857	4.86
307.227	5.01
307.597	4.97
307.967	5.04
308.336	4.95
308.706	4.96
309.076	4.94
309.445	4.97
309.815	4.83
310.184	4.75
310.554	4.71
310.923	4.65
311.293	4.67
311.662	4.71
312.031	4.65
312.401	4.64
312.77	4.7
313.139	4.65
313.508	4.55
313.877	4.63
314.246	4.46
314.616	4.33
314.985	4.17
315.353	4.05
315.722	3.98
316.091	3.95
316.46	3.85
316.829	3.91
317.198	3.84
317.567	3.94
317.935	3.79
318.304	3.87
318.672	4.03
319.041	4.09
319.41	4.04
319.778	4.06
320.147	3.94
320.515	3.91
320.883	3.86
321.252	4.03
321.62	4.09
321.988	4.2
322.357	4.34
322.725	4.39
323.093	4.51
323.461	4.54
323.829	4.56
324.197	4.59
324.565	4.57
324.933	4.64
325.301	4.56
325.669	4.66
326.037	4.63
326.405	4.54
326.772	4.56
327.14	4.55
327.508	4.51
327.875	4.53
328.243	4.51
328.61	4.54
328.978	4.43
329.346	4.45
329.713	4.46
330.08	4.26
330.448	4.13
330.815	4
331.182	4.04
331.55	4.08
331.917	4.2
332.284	4.17
332.651	4.18
333.018	4.32
333.385	4.31
333.752	4.37
334.119	4.41
334.486	4.41
334.853	4.35
335.22	4.31
335.587	4.4
335.954	4.37
336.32	4.42
336.687	4.47
337.054	4.43
337.42	4.47
337.787	4.62
338.153	4.64
338.52	4.8
338.886	4.67
339.253	4.67
339.619	4.6
339.986	4.57
340.352	4.61
340.718	4.56
341.084	4.45
341.451	4.51
341.817	4.61
342.183	4.53
342.549	4.65
342.915	4.7
343.281	4.66
343.647	4.73
344.013	4.72
344.379	4.72
344.745	4.69
345.11	4.54
345.476	4.54
345.842	4.63
346.208	4.63
346.573	4.69
346.939	4.81
347.304	4.72
347.67	4.63
348.035	4.59
348.401	4.6
348.766	4.68
349.132	4.61
349.497	4.47
349.862	4.6
350.228	4.63
350.593	4.55
350.958	4.52
351.323	4.58
351.688	4.6
352.053	4.56
352.418	4.64
352.783	4.78
353.148	4.67
353.513	4.65
353.878	4.54
354.243	4.61
354.608	4.6
354.972	4.65
355.337	4.78
355.702	4.85
356.066	4.89
356.431	4.93
356.795	4.99
357.16	5.01
357.524	4.91
357.889	4.82
358.253	4.87
358.618	4.91
358.982	4.87
359.346	4.81
359.71	4.82
360.075	4.82
360.439	4.78
360.803	4.78
361.167	4.77
361.531	4.8
361.895	4.71
362.259	4.63
362.623	4.65
362.987	4.65
363.351	4.63
363.714	4.6
364.078	4.56
364.442	4.48
364.806	4.51
365.169	4.44
365.533	4.45
365.896	4.5
366.26	4.46
366.623	4.39
366.987	4.34
367.35	4.38
367.714	4.37
368.077	4.36
368.44	4.33
368.803	4.28
369.167	4.2
369.53	4.24
369.893	4.29
370.256	4.28
370.619	4.22
370.982	4.21
371.345	4.2
371.708	4.15
372.071	4.17
372.434	4.23
372.797	4.35
373.159	4.39
373.522	4.35
373.885	4.35
374.247	4.41
374.61	4.47
374.973	4.39
375.335	4.38
375.698	4.38
376.06	4.42
376.423	4.51
376.785	4.61
377.147	4.64
377.51	4.64
377.872	4.71
378.234	4.75
378.596	4.74
378.958	4.76
379.321	4.81
379.683	4.82
380.045	4.86
380.407	4.83
380.769	4.81
381.13	4.78
381.492	4.79
381.854	4.8
382.216	4.83
382.578	4.86
382.939	4.85
383.301	4.86
383.663	4.9
384.024	4.88
384.386	4.91
384.747	4.92
385.109	4.92
385.47	4.86
385.832	4.88
386.193	4.89
386.554	4.85
386.916	4.87
387.277	4.87
387.638	4.86
387.999	4.86
388.36	4.88
388.721	4.95
389.082	4.96
389.443	4.96
389.804	4.96
390.165	4.93
390.526	4.97
390.887	4.98
391.248	4.96
391.609	4.95
391.969	4.91
392.33	4.89
392.691	4.88
393.051	4.87
393.412	4.88
393.772	4.86
394.133	4.88
394.493	4.92
394.854	4.92
395.214	4.88
395.574	4.91
395.935	4.86
396.295	4.82
396.655	4.79
397.015	4.75
397.376	4.76
397.736	4.77
398.096	4.76
398.456	4.75
398.816	4.77
399.176	4.77
399.535	4.76
399.895	4.77
400.255	4.76
400.615	4.75
400.975	4.71
401.334	4.74
401.694	4.74
402.054	4.7
402.413	4.68
402.773	4.63
403.132	4.59
403.492	4.6
403.851	4.59
404.211	4.62
404.57	4.66
404.929	4.65
405.288	4.65
405.648	4.63
406.007	4.63
406.366	4.62
406.725	4.64
407.084	4.68
407.443	4.66
407.802	4.67
408.161	4.68
408.52	4.68
408.879	4.64
409.238	4.62
409.596	4.64
409.955	4.64
410.314	4.65
410.673	4.67
411.031	4.67
411.39	4.67
411.748	4.67
412.107	4.68
412.465	4.69
412.824	4.7
413.182	4.69
413.54	4.71
413.899	4.73
414.257	4.72
414.615	4.7
414.974	4.73
415.332	4.73
415.69	4.73
416.048	4.73
416.406	4.77
416.764	4.76
417.122	4.76
417.48	4.76
417.838	4.78
418.195	4.8
418.553	4.8
418.911	4.8
419.269	4.8
419.626	4.79
419.984	4.77
420.342	4.79
420.699	4.8
421.057	4.79
421.414	4.76
421.772	4.77
422.129	4.78
422.486	4.75
422.844	4.74
423.201	4.74
423.558	4.75
423.915	4.73
424.273	4.74
424.63	4.71
424.987	4.72
425.344	4.72
425.701	4.7
426.058	4.71
426.415	4.7
426.772	4.7
427.128	4.69
427.485	4.69
427.842	4.65
428.199	4.65
428.555	4.63
428.912	4.65
429.269	4.61
429.625	4.59
429.982	4.59
430.338	4.61
430.695	4.61
431.051	4.58
431.407	4.59
431.764	4.57
432.12	4.59
432.476	4.58
432.832	4.57
433.189	4.59
433.545	4.57
433.901	4.57
434.257	4.56
434.613	4.56
434.969	4.58
435.325	4.59
435.681	4.59
436.036	4.62
436.392	4.63
436.748	4.64
437.104	4.64
437.459	4.63
437.815	4.63
438.171	4.66
438.526	4.68
438.882	4.68
439.237	4.7
439.593	4.7
439.948	4.7
440.304	4.71
440.659	4.69
441.014	4.73
441.369	4.71
441.725	4.7
442.08	4.69
442.435	4.69
442.79	4.69
443.145	4.69
443.5	4.67
443.855	4.65
444.21	4.65
444.565	4.66
444.92	4.68
445.275	4.67
445.629	4.65
445.984	4.64
446.339	4.63
446.693	4.62
447.048	4.61
447.403	4.61
447.757	4.61
448.112	4.6
448.466	4.58
448.82	4.59
449.175	4.6
449.529	4.61
449.883	4.6
450.238	4.6
450.592	4.59
450.946	4.58
451.3	4.57
451.654	4.58
452.008	4.58
452.362	4.57
452.716	4.55
453.07	4.55
453.424	4.55
453.778	4.55
454.132	4.57
454.486	4.57
454.839	4.56
455.193	4.53
455.547	4.56
455.9	4.59
456.254	4.59
456.607	4.61
456.961	4.61
457.314	4.62
457.668	4.62
458.021	4.6
458.375	4.6
458.728	4.61
459.081	4.61
459.434	4.61
459.787	4.61
460.141	4.62
460.494	4.62
460.847	4.62
461.2	4.61
461.553	4.61
461.906	4.62
462.259	4.64
462.611	4.67
462.964	4.67
463.317	4.64
463.67	4.62
464.022	4.61
464.375	4.6
464.728	4.59
465.08	4.6
465.433	4.62
465.785	4.64
466.138	4.63
466.49	4.63
466.843	4.62
467.195	4.64
467.547	4.65
467.899	4.67
468.252	4.69
468.604	4.71
468.956	4.69
469.308	4.68
469.66	4.66
470.012	4.68
470.364	4.67
470.716	4.69
471.068	4.71
471.42	4.71
471.772	4.75
472.123	4.76
472.475	4.76
472.827	4.79
473.178	4.8
473.53	4.82
473.882	4.81
474.233	4.84
474.585	4.82
474.936	4.81
475.288	4.78
475.639	4.78
475.99	4.78
476.342	4.81
476.693	4.78
477.044	4.79
477.395	4.79
477.746	4.8
478.097	4.8
478.448	4.81
478.8	4.8
479.15	4.77
479.501	4.77
479.852	4.77
480.203	4.76
480.554	4.77
480.905	4.78
481.255	4.8
481.606	4.81
481.957	4.82
482.307	4.82
482.658	4.84
483.009	4.85
483.359	4.84
483.709	4.84
484.06	4.84
484.41	4.84
484.761	4.84
485.111	4.85
485.461	4.85
485.811	4.85
486.162	4.86
486.512	4.87
486.862	4.88
487.212	4.88
487.562	4.87
487.912	4.87
488.262	4.86
488.612	4.85
488.961	4.84
489.311	4.83
489.661	4.84
490.011	4.83
490.36	4.83
490.71	4.84
491.06	4.83
491.409	4.85
491.759	4.84
492.108	4.85
492.458	4.84
492.807	4.82
493.157	4.83
493.506	4.82
493.855	4.82
494.204	4.81
494.554	4.81
494.903	4.83
495.252	4.82
495.601	4.85
495.95	4.86
496.299	4.87
496.648	4.86
496.997	4.87
497.346	4.88
497.695	4.89
498.043	4.88
498.392	4.91
498.741	4.9
499.09	4.9
499.438	4.89
499.787	4.9
500.135	4.92
500.484	4.92
500.832	4.93
501.181	4.96
501.529	4.95
501.878	4.97
502.226	4.99
502.574	5
502.923	4.97
503.271	4.96
503.619	4.98
503.967	4.97
504.315	4.94
504.663	4.92
505.011	4.95
505.359	4.97
505.707	4.96
506.055	4.97
506.403	5.01
506.751	5
507.098	5
507.446	5.03
507.794	5.04
508.141	5.04
508.489	5.03
508.837	5.04
509.184	5.02
509.531	5.03
509.879	5.04
510.226	5.09
510.574	5.09
510.921	5.1
511.268	5.13
511.616	5.16
511.963	5.18
512.31	5.17
512.657	5.17
513.004	5.17
513.351	5.18
513.698	5.17
514.045	5.18
514.392	5.22
514.739	5.21
515.086	5.22
515.432	5.2
515.779	5.22
516.126	5.23
516.473	5.25
516.819	5.24
517.166	5.26
517.512	5.22
517.859	5.24
518.205	5.24
518.552	5.25
518.898	5.27
519.245	5.27
519.591	5.28
519.937	5.28
520.283	5.3
520.629	5.3
520.976	5.31
521.322	5.32
521.668	5.31
522.014	5.31
522.36	5.32
522.706	5.35
523.052	5.38
523.398	5.38
523.743	5.38
524.089	5.39
524.435	5.39
524.781	5.41
525.126	5.44
525.472	5.45
525.817	5.46
526.163	5.46
526.509	5.47
526.854	5.47
527.199	5.47
527.545	5.46
527.89	5.47
528.235	5.48
528.581	5.48
528.926	5.48
529.271	5.49
529.616	5.49
529.961	5.48
530.306	5.47
530.651	5.47
530.996	5.46
531.341	5.47
531.686	5.47
532.031	5.48
532.376	5.47
532.721	5.46
533.065	5.46
533.41	5.45
533.755	5.46
534.099	5.46
534.444	5.46
534.788	5.49
535.133	5.49
535.477	5.47
535.822	5.47
536.166	5.47
536.51	5.45
536.855	5.45
537.199	5.46
537.543	5.45
537.887	5.47
538.231	5.49
538.576	5.5
538.92	5.5
539.264	5.5
539.608	5.5
539.951	5.51
540.295	5.52
540.639	5.51
540.983	5.51
541.327	5.51
541.671	5.51
542.014	5.51
542.358	5.51
542.701	5.53
543.045	5.53
543.389	5.54
543.732	5.56
544.075	5.57
544.419	5.57
544.762	5.58
545.105	5.59
545.449	5.59
545.792	5.58
546.135	5.59
546.478	5.59
546.821	5.58
547.165	5.56
547.508	5.57
547.851	5.59
548.194	5.59
548.536	5.58
548.879	5.59
549.222	5.59
549.565	5.61
549.908	5.62
550.25	5.64
550.593	5.63
550.936	5.62
551.278	5.61
551.621	5.6
551.963	5.64
552.306	5.62
552.648	5.59
552.991	5.62
553.333	5.62
553.675	5.62
554.017	5.63
554.36	5.62
554.702	5.62
555.044	5.58
555.386	5.61
555.728	5.63
556.07	5.64
556.412	5.6
556.754	5.58
557.096	5.54
557.438	5.55
557.78	5.55
558.121	5.58
558.463	5.59
558.805	5.61
559.147	5.53
559.488	5.53
559.83	5.52
560.171	5.51
560.513	5.54
560.854	5.55
561.196	5.54
561.537	5.57
561.878	5.53
562.22	5.55
562.561	5.51
562.902	5.49
563.243	5.47
563.584	5.49
563.925	5.53
564.266	5.53
564.607	5.54
564.948	5.57
565.289	5.57
565.63	5.58
565.971	5.56
566.312	5.58
566.653	5.58
566.993	5.58
567.334	5.57
567.675	5.55
568.015	5.54
568.356	5.56
568.696	5.56
569.037	5.63
569.377	5.64
569.718	5.67
570.058	5.7
570.398	5.73
570.739	5.74
571.079	5.71
571.419	5.75
571.759	5.74
572.099	5.7
572.439	5.71
572.779	5.68
573.119	5.7
573.459	5.74
573.799	5.78
574.139	5.8
574.479	5.8
574.819	5.83
575.158	5.86
575.498	5.85
575.838	5.85
576.177	5.82
576.517	5.81
576.856	5.82
577.196	5.8
577.535	5.79
577.875	5.78
578.214	5.74
578.553	5.73
578.893	5.72
579.232	5.75
579.571	5.75
579.91	5.78
580.25	5.78
580.589	5.75
580.928	5.74
581.267	5.74
581.606	5.73
581.945	5.75
582.283	5.68
582.622	5.65
582.961	5.63
583.3	5.62
583.639	5.66
583.977	5.64
584.316	5.63
584.654	5.62
584.993	5.61
585.332	5.68
585.67	5.65
586.008	5.69
586.347	5.71
586.685	5.69
587.024	5.71
587.362	5.73
587.7	5.71
588.038	5.71
588.376	5.73
588.715	5.73
589.053	5.73
589.391	5.76
589.729	5.79
590.067	5.77
590.404	5.79
590.742	5.75
591.08	5.71
591.418	5.73
591.756	5.75
592.093	5.75
592.431	5.74
592.769	5.75
593.106	5.71
593.444	5.67
593.781	5.67
594.119	5.68
594.456	5.7
594.793	5.73
595.131	5.73
595.468	5.73
595.805	5.76
596.143	5.74
596.48	5.77
596.817	5.76
597.154	5.77
597.491	5.77
597.828	5.78
598.165	5.8
598.502	5.81
598.839	5.8
599.176	5.82
599.512	5.84
599.849	5.85
600.186	5.85
600.523	5.9
600.859	5.95
601.196	5.93
601.532	5.89
601.869	5.89
602.205	5.87
602.542	5.89
602.878	5.87
603.215	5.87
603.551	5.87
603.887	5.88
604.223	5.89
604.56	5.9
604.896	5.91
605.232	5.93
605.568	5.93
605.904	5.94
606.24	5.97
606.576	5.95
606.912	5.98
607.248	5.99
607.583	5.99
607.919	5.97
608.255	5.93
608.591	5.98
608.926	5.97
609.262	6
609.597	6.02
609.933	6.04
610.268	6.03
610.604	6.04
610.939	6.01
611.275	6.05
611.61	6.05
611.945	6.09
612.281	6.09
612.616	6.08
612.951	6.08
613.286	6.05
613.621	6.07
613.956	6.04
614.291	6.02
614.626	5.99
614.961	6.03
615.296	6.06
615.631	6.05
615.966	6.06
616.3	6.04
616.635	6.02
616.97	6
617.304	5.98
617.639	5.97
617.973	5.95
618.308	5.92
618.642	5.93
618.977	5.89
619.311	5.91
619.646	5.92
619.98	5.93
620.314	5.93
620.648	5.94
620.983	6
621.317	6.02
621.651	6.04
621.985	6.05
622.319	6.05
622.653	6.08
622.987	6.12
623.321	6.11
623.655	6.11
623.988	6.14
624.322	6.17
624.656	6.18
624.99	6.22
625.323	6.22
625.657	6.25
625.99	6.25
626.324	6.23
626.657	6.22
626.991	6.2
627.324	6.2
627.658	6.18
627.991	6.16
628.324	6.16
628.657	6.15
628.991	6.12
629.324	6.12
629.657	6.09
629.99	6.1
630.323	6.11
630.656	6.13
630.989	6.12
631.322	6.15
631.655	6.16
631.987	6.18
632.32	6.17
632.653	6.14
632.986	6.17
633.318	6.18
633.651	6.19
633.984	6.18
634.316	6.21
634.649	6.22
634.981	6.22
635.313	6.26
635.646	6.3
635.978	6.28
636.31	6.29
636.643	6.3
636.975	6.29
637.307	6.31
637.639	6.29
637.971	6.32
638.303	6.28
638.635	6.26
638.967	6.27
639.299	6.33
639.631	6.31
639.963	6.24
640.295	6.23
640.626	6.25
640.958	6.32
641.29	6.31
641.621	6.3
641.953	6.26
642.285	6.25
642.616	6.27
642.948	6.35
643.279	6.32
643.61	6.3
643.942	6.26
644.273	6.23
644.604	6.22
644.936	6.21
645.267	6.26
645.598	6.26
645.929	6.25
646.26	6.22
646.591	6.29
646.922	6.31
647.253	6.3
647.584	6.29
647.915	6.23
648.245	6.18
648.576	6.2
648.907	6.24
649.238	6.2
649.568	6.21
649.899	6.17
650.229	6.25
650.56	6.26
650.89	6.28
651.221	6.29
651.551	6.32
651.882	6.31
652.212	6.29
652.542	6.3
652.872	6.3
653.203	6.31
653.533	6.33
653.863	6.4
654.193	6.44
654.523	6.42
654.853	6.42
655.183	6.42
655.513	6.36
655.843	6.37
656.172	6.41
656.502	6.4
656.832	6.36
657.162	6.3
657.491	6.36
657.821	6.41
658.15	6.38
658.48	6.39
658.809	6.34
659.139	6.33
659.468	6.31
659.798	6.26
660.127	6.25
660.456	6.27
660.785	6.26
661.115	6.28
661.444	6.32
661.773	6.34
662.102	6.38
662.431	6.43
662.76	6.37
663.089	6.34
663.418	6.26
663.747	6.29
664.076	6.34
664.404	6.29
664.733	6.25
665.062	6.27
665.39	6.27
665.719	6.28
666.048	6.33
666.376	6.28
666.705	6.33
667.033	6.4
667.362	6.36
667.69	6.29
668.018	6.28
668.347	6.28
668.675	6.29
669.003	6.27
669.331	6.35
669.659	6.46
669.987	6.47
670.315	6.57
670.643	6.49
670.971	6.45
671.299	6.51
671.627	6.51
671.955	6.44
672.283	6.5
672.61	6.54
672.938	6.5
673.266	6.64
673.593	6.74
673.921	6.66
674.249	6.68
674.576	6.7
674.904	6.67
675.231	6.6
675.558	6.55
675.886	6.55
676.213	6.59
