Data from BA56813_Reflection_00012.txt Node
Date: Mon Nov 18 15:51:05 EST 2019
User: vgr7
Spectrometer: USB2G7710
Scans to average: 3
Trigger mode: 4
Integration Time (sec): 2.000000E-2
Electric dark correction enabled: true
Boxcar width: 10
XAxis mode: Wavelengths
Number of Pixels in Spectrum: 2048
>>>>>Begin Spectral Data<<<<<
177.721	65.58
178.105	114.13
178.488	189.68
178.871	55.15
179.254	82.48
179.636	251.64
180.019	331.16
180.402	57.69
180.785	36.28
181.168	146.8
181.55	96.57
181.933	124.02
182.316	65.86
182.698	87.97
183.081	104.18
183.463	113.44
183.846	132.21
184.228	112.64
184.611	93.19
184.993	101.5
185.376	72.72
185.758	76.86
186.14	89.51
186.522	73.72
186.904	73.04
187.287	79.63
187.669	88.75
188.051	91.39
188.433	95.26
188.815	107.64
189.197	98.62
189.579	89.35
189.961	83.5
190.342	105.25
190.724	201.2
191.106	395.22
191.488	-1145.51
191.869	-363
192.251	-430.07
192.633	-423.73
193.014	-1468.86
193.396	-976.92
193.777	-1680.1
194.159	-2973.68
194.54	-948.99
194.922	-2141.61
195.303	-237.35
195.684	-217.49
196.065	-100.31
196.447	-145.24
196.828	-131.33
197.209	-88.68
197.59	-82.82
197.971	-31.53
198.352	-4.99
198.733	-19.48
199.114	-1.52
199.495	13.08
199.876	2.97
200.257	1.61
200.638	39.26
201.018	29.42
201.399	19.35
201.78	20.55
202.16	-16.46
202.541	-61.78
202.922	-69.04
203.302	-119.26
203.683	-73.91
204.063	-188.57
204.444	-176.33
204.824	-236.08
205.204	-229.65
205.585	-187.68
205.965	-204.45
206.345	-2151.75
206.725	733.77
207.106	342.75
207.486	236.61
207.866	188.92
208.246	189.6
208.626	328.17
209.006	180.79
209.386	201.44
209.766	263.93
210.145	246.69
210.525	-542.34
210.905	65.68
211.285	377.55
211.664	1557.63
212.044	4271.43
212.424	304.9
212.803	-1604.92
213.183	841.12
213.562	496.6
213.942	288.01
214.321	101.15
214.701	53.27
215.08	49.12
215.459	34.45
215.838	21.58
216.218	26.65
216.597	22.22
216.976	12.95
217.355	13.91
217.734	1.38
218.113	11.5
218.492	16.95
218.871	-3.66
219.25	-16.17
219.629	-10.82
220.008	-1.62
220.387	-17.4
220.766	-7.11
221.144	-42.23
221.523	-54.17
221.902	-68.17
222.28	-69.41
222.659	-50.78
223.037	-31.62
223.416	-35.61
223.794	-38.88
224.173	-37.79
224.551	-27.69
224.929	-26.19
225.308	-11.97
225.686	3.45
226.064	-12.02
226.442	-14.79
226.821	-11.52
227.199	-8.59
227.577	-13.03
227.955	-15.08
228.333	-11.28
228.711	-7.31
229.089	-0.65
229.467	-0.57
229.845	1.63
230.222	3.6
230.6	2.28
230.978	-0.24
231.356	1.6
231.733	2
232.111	0.83
232.488	2.06
232.866	2.33
233.243	-0.61
233.621	-2.76
233.998	-0.5
234.376	-1.89
234.753	-1.23
235.13	-2.71
235.508	-1
235.885	0.13
236.262	-0.24
236.639	-1.7
237.016	-1.34
237.393	0.22
237.77	1.39
238.147	1.45
238.524	1.52
238.901	2.35
239.278	3.32
239.655	4.15
240.032	4.73
240.409	4.22
240.785	4.21
241.162	4.81
241.539	5.38
241.915	5.33
242.292	5.38
242.668	5.08
243.045	5.54
243.421	5.37
243.798	5.17
244.174	5.14
244.551	4.97
244.927	4.7
245.303	4.48
245.679	4.24
246.056	4.13
246.432	4.13
246.808	3.99
247.184	3.38
247.56	3.09
247.936	3.07
248.312	3.14
248.688	3
249.064	2.77
249.44	2.87
249.815	2.94
250.191	2.95
250.567	2.87
250.943	2.74
251.318	2.61
251.694	2.57
252.069	2.4
252.445	2.71
252.82	2.6
253.196	2.46
253.571	2.25
253.947	2.18
254.322	2.17
254.697	2.23
255.073	2.41
255.448	2.29
255.823	2.31
256.198	2.37
256.573	2.56
256.948	2.73
257.323	2.63
257.698	2.57
258.073	2.58
258.448	2.72
258.823	2.69
259.198	2.77
259.573	2.71
259.948	2.86
260.322	2.69
260.697	2.66
261.072	2.78
261.446	2.9
261.821	2.92
262.195	3.19
262.57	3.19
262.944	3.23
263.319	3.21
263.693	3.19
264.067	3.2
264.442	3.07
264.816	3.07
265.19	3.08
265.564	3.11
265.938	3.27
266.313	3.14
266.687	3.18
267.061	3.25
267.435	3.38
267.809	3.36
268.183	3.45
268.556	3.42
268.93	3.47
269.304	3.54
269.678	3.57
270.051	3.41
270.425	3.31
270.799	3.41
271.172	3.48
271.546	3.41
271.919	3.37
272.293	3.48
272.666	3.58
273.04	3.55
273.413	3.6
273.787	3.46
274.16	3.48
274.533	3.5
274.906	3.46
275.279	3.43
275.653	3.24
276.026	3.06
276.399	3.17
276.772	3.13
277.145	2.96
277.518	2.92
277.891	2.86
278.263	2.88
278.636	2.75
279.009	2.74
279.382	2.85
279.755	2.89
280.127	2.96
280.5	2.94
280.872	3.05
281.245	2.97
281.617	3.15
281.99	3.29
282.362	3.19
282.735	3.16
283.107	3.11
283.479	3.27
283.852	3.42
284.224	3.37
284.596	3.36
284.968	3.47
285.34	3.62
285.713	3.63
286.085	3.74
286.457	3.72
286.829	3.63
287.201	3.61
287.572	3.55
287.944	3.52
288.316	3.46
288.688	3.32
289.06	3.35
289.431	3.27
289.803	3.22
290.175	3.35
290.546	3.57
290.918	3.56
291.289	3.56
291.661	3.47
292.032	3.57
292.403	3.56
292.775	3.58
293.146	3.46
293.517	3.43
293.889	3.47
294.26	3.64
294.631	3.78
295.002	3.75
295.373	3.75
295.744	3.72
296.115	3.65
296.486	3.65
296.857	3.58
297.228	3.6
297.599	3.55
297.97	3.54
298.34	3.37
298.711	3.49
299.082	3.52
299.452	3.68
299.823	3.74
300.194	3.83
300.564	3.68
300.935	3.65
301.305	3.52
301.676	3.53
302.046	3.5
302.416	3.62
302.787	3.59
303.157	3.61
303.527	3.65
303.897	3.8
304.267	3.91
304.637	3.96
305.008	4.07
305.378	4.15
305.748	4.18
306.117	4.07
306.487	4.01
306.857	4.03
307.227	4
307.597	3.85
307.967	3.81
308.336	3.84
308.706	3.9
309.076	4.11
309.445	3.94
309.815	3.86
310.184	3.66
310.554	3.71
310.923	3.66
311.293	3.71
311.662	3.65
312.031	3.73
312.401	3.7
312.77	3.72
313.139	3.77
313.508	3.72
313.877	3.98
314.246	4.04
314.616	4.13
314.985	4.12
315.353	4.24
315.722	4.2
316.091	4.26
316.46	4.25
316.829	4.26
317.198	4.39
317.567	4.42
317.935	4.67
318.304	4.67
318.672	4.79
319.041	4.9
319.41	4.89
319.778	4.8
320.147	4.84
320.515	4.7
320.883	4.61
321.252	4.62
321.62	4.54
321.988	4.44
322.357	4.28
322.725	4.3
323.093	4.33
323.461	4.38
323.829	4.5
324.197	4.6
324.565	4.67
324.933	4.62
325.301	4.73
325.669	4.57
326.037	4.62
326.405	4.53
326.772	4.51
327.14	4.64
327.508	4.65
327.875	4.68
328.243	4.74
328.61	4.79
328.978	4.83
329.346	4.8
329.713	4.85
330.08	4.81
330.448	4.64
330.815	4.56
331.182	4.55
331.55	4.43
331.917	4.39
332.284	4.3
332.651	4.42
333.018	4.33
333.385	4.41
333.752	4.47
334.119	4.59
334.486	4.35
334.853	4.3
335.22	4.25
335.587	4.22
335.954	4.13
336.32	4.04
336.687	4.03
337.054	3.91
337.42	3.96
337.787	4.01
338.153	4.13
338.52	4.16
338.886	3.97
339.253	3.98
339.619	4.03
339.986	4.01
340.352	4
340.718	3.95
341.084	3.94
341.451	3.94
341.817	3.93
342.183	4.03
342.549	4.09
342.915	4.21
343.281	4.25
343.647	4.25
344.013	4.44
344.379	4.4
344.745	4.5
345.11	4.5
345.476	4.57
345.842	4.54
346.208	4.46
346.573	4.63
346.939	4.76
347.304	4.65
347.67	4.59
348.035	4.53
348.401	4.59
348.766	4.63
349.132	4.69
349.497	4.65
349.862	4.73
350.228	4.68
350.593	4.61
350.958	4.67
351.323	4.75
351.688	4.59
352.053	4.67
352.418	4.62
352.783	4.56
353.148	4.51
353.513	4.58
353.878	4.63
354.243	4.67
354.608	4.56
354.972	4.66
355.337	4.77
355.702	4.81
356.066	4.87
356.431	4.72
356.795	4.68
357.16	4.67
357.524	4.6
357.889	4.61
358.253	4.62
358.618	4.6
358.982	4.57
359.346	4.56
359.71	4.6
360.075	4.66
360.439	4.67
360.803	4.68
361.167	4.64
361.531	4.63
361.895	4.56
362.259	4.62
362.623	4.56
362.987	4.53
363.351	4.56
363.714	4.55
364.078	4.61
364.442	4.53
364.806	4.53
365.169	4.57
365.533	4.55
365.896	4.56
366.26	4.53
366.623	4.5
366.987	4.5
367.35	4.43
367.714	4.41
368.077	4.38
368.44	4.34
368.803	4.31
369.167	4.3
369.53	4.3
369.893	4.31
370.256	4.29
370.619	4.26
370.982	4.18
371.345	4.11
371.708	4.14
372.071	4.17
372.434	4.13
372.797	4.12
373.159	4.08
373.522	4.07
373.885	4.05
374.247	4.08
374.61	4.13
374.973	4.07
375.335	4.01
375.698	4.05
376.06	4.02
376.423	4
376.785	4.05
377.147	4.1
377.51	4.05
377.872	4.04
378.234	4.07
378.596	4.11
378.958	4.11
379.321	4.04
379.683	4.06
380.045	4.07
380.407	4.06
380.769	4.06
381.13	4.03
381.492	4.01
381.854	3.99
382.216	3.94
382.578	4
382.939	3.99
383.301	3.98
383.663	4.01
384.024	3.99
384.386	3.98
384.747	3.97
385.109	4
385.47	3.96
385.832	3.93
386.193	3.94
386.554	3.88
386.916	3.95
387.277	3.93
387.638	3.93
387.999	3.87
388.36	3.86
388.721	3.83
389.082	3.86
389.443	3.83
389.804	3.82
390.165	3.77
390.526	3.79
390.887	3.75
391.248	3.73
391.609	3.72
391.969	3.73
392.33	3.69
392.691	3.64
393.051	3.65
393.412	3.64
393.772	3.56
394.133	3.6
394.493	3.57
394.854	3.54
395.214	3.52
395.574	3.55
395.935	3.56
396.295	3.55
396.655	3.49
397.015	3.5
397.376	3.51
397.736	3.5
398.096	3.5
398.456	3.49
398.816	3.5
399.176	3.51
399.535	3.45
399.895	3.45
400.255	3.43
400.615	3.46
400.975	3.45
401.334	3.47
401.694	3.44
402.054	3.41
402.413	3.4
402.773	3.38
403.132	3.35
403.492	3.36
403.851	3.35
404.211	3.36
404.57	3.36
404.929	3.36
405.288	3.35
405.648	3.33
406.007	3.32
406.366	3.3
406.725	3.31
407.084	3.32
407.443	3.3
407.802	3.29
408.161	3.26
408.52	3.26
408.879	3.25
409.238	3.21
409.596	3.2
409.955	3.2
410.314	3.22
410.673	3.21
411.031	3.18
411.39	3.19
411.748	3.2
412.107	3.18
412.465	3.15
412.824	3.14
413.182	3.12
413.54	3.11
413.899	3.11
414.257	3.1
414.615	3.08
414.974	3.09
415.332	3.08
415.69	3.05
416.048	3.04
416.406	3.03
416.764	3.05
417.122	3.06
417.48	3.05
417.838	3.05
418.195	3.05
418.553	3.03
418.911	3.02
419.269	3
419.626	2.99
419.984	2.99
420.342	2.99
420.699	2.98
421.057	2.98
421.414	2.97
421.772	2.95
422.129	2.95
422.486	2.93
422.844	2.94
423.201	2.94
423.558	2.93
423.915	2.93
424.273	2.93
424.63	2.92
424.987	2.92
425.344	2.91
425.701	2.89
426.058	2.9
426.415	2.89
426.772	2.89
427.128	2.9
427.485	2.89
427.842	2.88
428.199	2.89
428.555	2.89
428.912	2.9
429.269	2.93
429.625	2.91
429.982	2.94
430.338	2.92
430.695	2.94
431.051	2.94
431.407	2.94
431.764	2.95
432.12	2.93
432.476	2.92
432.832	2.93
433.189	2.93
433.545	2.91
433.901	2.91
434.257	2.91
434.613	2.89
434.969	2.89
435.325	2.89
435.681	2.89
436.036	2.89
436.392	2.88
436.748	2.87
437.104	2.86
437.459	2.85
437.815	2.87
438.171	2.85
438.526	2.86
438.882	2.86
439.237	2.87
439.593	2.87
439.948	2.87
440.304	2.87
440.659	2.87
441.014	2.88
441.369	2.89
441.725	2.9
442.08	2.92
442.435	2.91
442.79	2.92
443.145	2.91
443.5	2.9
443.855	2.9
444.21	2.88
444.565	2.91
444.92	2.89
445.275	2.88
445.629	2.89
445.984	2.88
446.339	2.88
446.693	2.86
447.048	2.85
447.403	2.85
447.757	2.85
448.112	2.84
448.466	2.82
448.82	2.82
449.175	2.82
449.529	2.81
449.883	2.8
450.238	2.8
450.592	2.8
450.946	2.79
451.3	2.77
451.654	2.78
452.008	2.75
452.362	2.75
452.716	2.75
453.07	2.75
453.424	2.76
453.778	2.76
454.132	2.75
454.486	2.76
454.839	2.76
455.193	2.75
455.547	2.77
455.9	2.78
456.254	2.77
456.607	2.75
456.961	2.75
457.314	2.76
457.668	2.76
458.021	2.76
458.375	2.77
458.728	2.79
459.081	2.82
459.434	2.82
459.787	2.81
460.141	2.81
460.494	2.8
460.847	2.79
461.2	2.79
461.553	2.8
461.906	2.8
462.259	2.82
462.611	2.84
462.964	2.84
463.317	2.85
463.67	2.86
464.022	2.87
464.375	2.86
464.728	2.86
465.08	2.87
465.433	2.86
465.785	2.87
466.138	2.87
466.49	2.86
466.843	2.87
467.195	2.88
467.547	2.9
467.899	2.91
468.252	2.91
468.604	2.92
468.956	2.89
469.308	2.9
469.66	2.88
470.012	2.87
470.364	2.87
470.716	2.84
471.068	2.86
471.42	2.86
471.772	2.91
472.123	2.9
472.475	2.91
472.827	2.92
473.178	2.92
473.53	2.92
473.882	2.92
474.233	2.94
474.585	2.93
474.936	2.91
475.288	2.91
475.639	2.94
475.99	2.93
476.342	2.96
476.693	2.96
477.044	2.97
477.395	2.96
477.746	2.96
478.097	2.96
478.448	2.95
478.8	2.97
479.15	2.94
479.501	2.94
479.852	2.94
480.203	2.95
480.554	2.97
480.905	2.98
481.255	2.98
481.606	2.97
481.957	2.98
482.307	2.99
482.658	2.99
483.009	2.98
483.359	2.96
483.709	2.97
484.06	2.97
484.41	2.97
484.761	2.97
485.111	2.97
485.461	2.97
485.811	2.97
486.162	2.97
486.512	2.98
486.862	2.98
487.212	2.97
487.562	2.97
487.912	2.96
488.262	2.95
488.612	2.96
488.961	2.96
489.311	2.96
489.661	2.95
490.011	2.95
490.36	2.95
490.71	2.98
491.06	2.98
491.409	2.97
491.759	2.97
492.108	2.98
492.458	2.98
492.807	2.99
493.157	2.99
493.506	3
493.855	3.01
494.204	3.02
494.554	3.03
494.903	3.03
495.252	3.03
495.601	3.05
495.95	3.05
496.299	3.03
496.648	3.04
496.997	3.04
497.346	3.06
497.695	3.09
498.043	3.07
498.392	3.07
498.741	3.09
499.09	3.09
499.438	3.1
499.787	3.09
500.135	3.11
500.484	3.1
500.832	3.11
501.181	3.14
501.529	3.13
501.878	3.15
502.226	3.19
502.574	3.19
502.923	3.2
503.271	3.2
503.619	3.24
503.967	3.26
504.315	3.28
504.663	3.3
505.011	3.32
505.359	3.36
505.707	3.4
506.055	3.42
506.403	3.46
506.751	3.48
507.098	3.49
507.446	3.53
507.794	3.57
508.141	3.6
508.489	3.62
508.837	3.66
509.184	3.68
509.531	3.7
509.879	3.75
510.226	3.78
510.574	3.8
510.921	3.83
511.268	3.85
511.616	3.88
511.963	3.94
512.31	3.96
512.657	4
513.004	4.04
513.351	4.09
513.698	4.16
514.045	4.22
514.392	4.3
514.739	4.35
515.086	4.42
515.432	4.49
515.779	4.54
516.126	4.61
516.473	4.68
516.819	4.76
517.166	4.81
517.512	4.88
517.859	4.96
518.205	5.03
518.552	5.13
518.898	5.21
519.245	5.26
519.591	5.35
519.937	5.41
520.283	5.5
520.629	5.59
520.976	5.68
521.322	5.8
521.668	5.91
522.014	6.04
522.36	6.15
522.706	6.27
523.052	6.41
523.398	6.58
523.743	6.73
524.089	6.86
524.435	7
524.781	7.14
525.126	7.29
525.472	7.43
525.817	7.55
526.163	7.67
526.509	7.8
526.854	7.9
527.199	8.01
527.545	8.11
527.89	8.22
528.235	8.34
528.581	8.44
528.926	8.56
529.271	8.67
529.616	8.79
529.961	8.91
530.306	9.06
530.651	9.19
530.996	9.34
531.341	9.5
531.686	9.67
532.031	9.85
532.376	10.02
532.721	10.2
533.065	10.38
533.41	10.58
533.755	10.77
534.099	10.98
534.444	11.19
534.788	11.4
535.133	11.59
535.477	11.81
535.822	12.03
536.166	12.26
536.51	12.54
536.855	12.81
537.199	13.12
537.543	13.4
537.887	13.72
538.231	14
538.576	14.3
538.92	14.59
539.264	14.85
539.608	15.12
539.951	15.38
540.295	15.64
540.639	15.88
540.983	16.12
541.327	16.34
541.671	16.58
542.014	16.84
542.358	17.07
542.701	17.29
543.045	17.53
543.389	17.79
543.732	18.01
544.075	18.25
544.419	18.51
544.762	18.75
545.105	18.98
545.449	19.26
545.792	19.53
546.135	19.84
546.478	20.18
546.821	20.5
547.165	20.81
547.508	21.16
547.851	21.47
548.194	21.8
548.536	22.13
548.879	22.46
549.222	22.77
549.565	23.12
549.908	23.45
550.25	23.81
550.593	24.11
550.936	24.4
551.278	24.76
551.621	25.05
551.963	25.37
552.306	25.69
552.648	26.01
552.991	26.35
553.333	26.64
553.675	26.93
554.017	27.2
554.36	27.45
554.702	27.72
555.044	28.01
555.386	28.35
555.728	28.63
556.07	28.92
556.412	29.21
556.754	29.48
557.096	29.79
557.438	30.01
557.78	30.35
558.121	30.67
558.463	30.97
558.805	31.29
559.147	31.6
559.488	31.9
559.83	32.2
560.171	32.46
560.513	32.79
560.854	33.03
561.196	33.31
561.537	33.63
561.878	33.91
562.22	34.18
562.561	34.37
562.902	34.63
563.243	34.89
563.584	35.18
563.925	35.45
564.266	35.67
564.607	36
564.948	36.17
565.289	36.42
565.63	36.66
565.971	36.81
566.312	37.03
566.653	37.23
566.993	37.39
567.334	37.62
567.675	37.8
568.015	38.05
568.356	38.24
568.696	38.45
569.037	38.69
569.377	38.88
569.718	39.16
570.058	39.32
570.398	39.49
570.739	39.66
571.079	39.85
571.419	40.08
571.759	40.19
572.099	40.4
572.439	40.55
572.779	40.7
573.119	40.87
573.459	41.06
573.799	41.27
574.139	41.43
574.479	41.58
574.819	41.74
575.158	41.88
575.498	42.09
575.838	42.23
576.177	42.33
576.517	42.51
576.856	42.65
577.196	42.89
577.535	43.08
577.875	43.25
578.214	43.39
578.553	43.53
578.893	43.74
579.232	43.9
579.571	44.11
579.91	44.33
580.25	44.52
580.589	44.65
580.928	44.78
581.267	44.95
581.606	45.16
581.945	45.25
582.283	45.43
582.622	45.64
582.961	45.8
583.3	46
583.639	46.12
583.977	46.21
584.316	46.32
584.654	46.46
584.993	46.61
585.332	46.76
585.67	46.83
586.008	46.96
586.347	47.1
586.685	47.22
587.024	47.31
587.362	47.41
587.7	47.56
588.038	47.69
588.376	47.83
588.715	47.88
589.053	48.05
589.391	48.15
589.729	48.19
590.067	48.3
590.404	48.39
590.742	48.47
591.08	48.67
591.418	48.8
591.756	48.91
592.093	48.95
592.431	49.07
592.769	49.25
593.106	49.28
593.444	49.33
593.781	49.34
594.119	49.42
594.456	49.49
594.793	49.57
595.131	49.65
595.468	49.78
595.805	49.8
596.143	49.9
596.48	49.92
596.817	49.98
597.154	50.11
597.491	50.19
597.828	50.3
598.165	50.31
598.502	50.43
598.839	50.58
599.176	50.68
599.512	50.79
599.849	50.93
600.186	51.09
600.523	51.2
600.859	51.31
601.196	51.42
601.532	51.5
601.869	51.58
602.205	51.61
602.542	51.67
602.878	51.82
603.215	51.89
603.551	51.99
603.887	52.04
604.223	52.09
604.56	52.14
604.896	52.17
605.232	52.26
605.568	52.26
605.904	52.23
606.24	52.28
606.576	52.28
606.912	52.28
607.248	52.3
607.583	52.38
607.919	52.44
608.255	52.51
608.591	52.63
608.926	52.71
609.262	52.85
609.597	52.9
609.933	52.95
610.268	52.99
610.604	53.07
610.939	53.18
611.275	53.22
611.61	53.24
611.945	53.31
612.281	53.36
612.616	53.39
612.951	53.54
613.286	53.67
613.621	53.75
613.956	53.8
614.291	53.91
614.626	54
614.961	54.1
615.296	54.12
615.631	54.16
615.966	54.24
616.3	54.23
616.635	54.29
616.97	54.42
617.304	54.52
617.639	54.55
617.973	54.62
618.308	54.73
618.642	54.83
618.977	54.91
619.311	54.96
619.646	55.04
619.98	55.08
620.314	55.04
620.648	55.06
620.983	55.17
621.317	55.21
621.651	55.29
621.985	55.3
622.319	55.3
622.653	55.34
622.987	55.35
623.321	55.39
623.655	55.42
623.988	55.4
624.322	55.45
624.656	55.52
624.99	55.53
625.323	55.5
625.657	55.6
625.99	55.63
626.324	55.65
626.657	55.69
626.991	55.7
627.324	55.8
627.658	55.94
627.991	55.93
628.324	55.98
628.657	55.97
628.991	56.02
629.324	56.11
629.657	56.2
629.99	56.23
630.323	56.31
630.656	56.37
630.989	56.47
631.322	56.48
631.655	56.55
631.987	56.61
632.32	56.6
632.653	56.56
632.986	56.55
633.318	56.55
633.651	56.54
633.984	56.58
634.316	56.54
634.649	56.56
634.981	56.61
635.313	56.67
635.646	56.71
635.978	56.82
636.31	56.87
636.643	56.84
636.975	56.95
637.307	56.95
637.639	56.95
637.971	56.94
638.303	56.99
638.635	57.02
638.967	56.99
639.299	57.1
639.631	57.13
639.963	57.19
640.295	57.36
640.626	57.51
640.958	57.62
641.29	57.64
641.621	57.65
641.953	57.66
642.285	57.65
642.616	57.7
642.948	57.66
643.279	57.72
643.61	57.8
643.942	57.8
644.273	57.83
644.604	57.91
644.936	57.88
645.267	57.9
645.598	57.96
645.929	58
646.26	58.08
646.591	58.16
646.922	58.23
647.253	58.09
647.584	58.19
647.915	58.14
648.245	58.31
648.576	58.3
648.907	58.33
649.238	58.41
649.568	58.47
649.899	58.58
650.229	58.53
650.56	58.52
650.89	58.62
651.221	58.57
651.551	58.48
651.882	58.58
652.212	58.7
652.542	58.64
652.872	58.69
653.203	58.62
653.533	58.63
653.863	58.64
654.193	58.74
654.523	58.74
654.853	58.85
655.183	58.81
655.513	58.77
655.843	58.85
656.172	58.78
656.502	58.69
656.832	58.66
657.162	58.84
657.491	58.82
657.821	58.69
658.15	58.85
658.48	58.93
658.809	58.91
659.139	58.78
659.468	58.81
659.798	58.82
660.127	58.86
660.456	58.88
660.785	58.95
661.115	58.98
661.444	58.97
661.773	59.02
662.102	59.04
662.431	59.17
662.76	59.15
663.089	59.28
663.418	59.29
663.747	59.36
664.076	59.27
664.404	59.3
664.733	59.47
665.062	59.47
665.39	59.55
665.719	59.6
666.048	59.72
666.376	59.7
666.705	59.67
667.033	59.82
667.362	59.73
667.69	59.67
668.018	59.71
668.347	59.7
668.675	59.6
