Data from BA56830_Reflection_00009.txt Node
Date: Mon Nov 18 16:04:04 EST 2019
User: vgr7
Spectrometer: USB2G7710
Scans to average: 3
Trigger mode: 4
Integration Time (sec): 2.000000E-2
Electric dark correction enabled: true
Boxcar width: 10
XAxis mode: Wavelengths
Number of Pixels in Spectrum: 2048
>>>>>Begin Spectral Data<<<<<
177.721	-326.52
178.105	-272.55
178.488	-110.61
178.871	-147.97
179.254	-21.95
179.636	237.25
180.019	433.33
180.402	189.47
180.785	-14.43
181.168	6.43
181.55	5.98
181.933	69.63
182.316	60.35
182.698	69.25
183.081	87.71
183.463	67.45
183.846	95.94
184.228	111.55
184.611	405.26
184.993	-224.68
185.376	-460.98
185.758	-224.84
186.14	-233.33
186.522	-66.12
186.904	-140.31
187.287	360.27
187.669	77.44
188.051	-37.25
188.433	33100
188.815	153.14
189.197	29.86
189.579	36.65
189.961	43.14
190.342	24.66
190.724	29.7
191.106	44.25
191.488	42.61
191.869	40.63
192.251	28.45
192.633	36.39
193.014	22.31
193.396	-31.2
193.777	-30.22
194.159	-32.53
194.54	-4.85
194.922	3.52
195.303	35.99
195.684	-17.74
196.065	2.59
196.447	-27.56
196.828	-38.5
197.209	-11.81
197.59	-37.2
197.971	-24.85
198.352	-3.17
198.733	-4.38
199.114	3.1
199.495	4.88
199.876	8.78
200.257	13.01
200.638	1.12
201.018	-9.58
201.399	-24
201.78	-28.08
202.16	-37.65
202.541	-52.83
202.922	-83.67
203.302	-113.62
203.683	-96.61
204.063	-163.43
204.444	-140.54
204.824	-90.61
205.204	-94.52
205.585	-99.36
205.965	-101.65
206.345	-108.54
206.725	-136.02
207.106	-156.53
207.486	-210.52
207.866	-146.62
208.246	-111.69
208.626	-120.92
209.006	-76.28
209.386	-76.68
209.766	-86.07
210.145	-66.2
210.525	-45.34
210.905	-30.36
211.285	-14.67
211.664	-18.56
212.044	-21.34
212.424	-9.56
212.803	-23.56
213.183	-19.35
213.562	-4.45
213.942	-2.08
214.321	-9.73
214.701	-12.03
215.08	-25.51
215.459	-24.74
215.838	-38.01
216.218	-39.43
216.597	-39.48
216.976	-40.45
217.355	-26.53
217.734	-18.74
218.113	-18.38
218.492	-24.92
218.871	-25.61
219.25	-16.09
219.629	-22.31
220.008	-31.78
220.387	-46.19
220.766	-35.79
221.144	-49.97
221.523	-50.49
221.902	-57.36
222.28	-70.76
222.659	-56.26
223.037	-44.06
223.416	-44.66
223.794	-42.18
224.173	-41.37
224.551	-35.83
224.929	-36.59
225.308	-30.46
225.686	-30.33
226.064	-28.38
226.442	-22.59
226.821	-20.26
227.199	-21.32
227.577	-18.61
227.955	-13.48
228.333	-9.81
228.711	-9.78
229.089	-4.67
229.467	-5.24
229.845	-2.59
230.222	-0.55
230.6	-2.13
230.978	1.32
231.356	2.62
231.733	3.14
232.111	4.48
232.488	5.23
232.866	5.54
233.243	4.31
233.621	3.84
233.998	5.14
234.376	2.69
234.753	2.45
235.13	3.64
235.508	4.52
235.885	4.62
236.262	3.77
236.639	3.5
237.016	3.04
237.393	5.07
237.77	4.59
238.147	5.33
238.524	5.64
238.901	4.53
239.278	4.97
239.655	5.3
240.032	5.42
240.409	4.64
240.785	4.31
241.162	4.61
241.539	5.18
241.915	4.86
242.292	5.01
242.668	5.21
243.045	4.96
243.421	4.95
243.798	4.65
244.174	4.8
244.551	4.79
244.927	4.56
245.303	4.75
245.679	4.71
246.056	4.46
246.432	4.45
246.808	4.31
247.184	3.73
247.56	3.54
247.936	3.41
248.312	3.49
248.688	3.52
249.064	3.46
249.44	3.26
249.815	3.22
250.191	3.35
250.567	3.22
250.943	2.93
251.318	2.95
251.694	3.16
252.069	2.99
252.445	2.86
252.82	2.91
253.196	2.41
253.571	2.53
253.947	2.67
254.322	2.69
254.697	2.88
255.073	3.27
255.448	3.23
255.823	3.14
256.198	3.34
256.573	3.3
256.948	3.46
257.323	3.58
257.698	3.68
258.073	3.74
258.448	3.58
258.823	3.85
259.198	3.62
259.573	3.45
259.948	3.6
260.322	3.72
260.697	3.75
261.072	3.73
261.446	3.66
261.821	3.55
262.195	3.57
262.57	3.56
262.944	3.53
263.319	3.34
263.693	3.35
264.067	3.25
264.442	3.12
264.816	2.95
265.19	2.94
265.564	2.92
265.938	2.78
266.313	2.9
266.687	2.83
267.061	3.12
267.435	3.38
267.809	3.13
268.183	3.03
268.556	3.1
268.93	3.32
269.304	3.26
269.678	3.49
270.051	3.44
270.425	3.4
270.799	3.41
271.172	3.54
271.546	3.38
271.919	3.34
272.293	3.49
272.666	3.65
273.04	3.56
273.413	3.55
273.787	3.51
274.16	3.53
274.533	3.53
274.906	3.53
275.279	3.35
275.653	3.39
276.026	3.3
276.399	3.18
276.772	3.05
277.145	3.05
277.518	2.94
277.891	3.08
278.263	3.19
278.636	3.07
279.009	3.19
279.382	3.48
279.755	3.58
280.127	3.68
280.5	3.54
280.872	3.7
281.245	3.8
281.617	3.97
281.99	4
282.362	3.99
282.735	3.78
283.107	3.73
283.479	3.81
283.852	3.9
284.224	3.85
284.596	3.92
284.968	3.95
285.34	3.89
285.713	3.76
286.085	3.65
286.457	3.78
286.829	3.82
287.201	3.74
287.572	3.67
287.944	3.68
288.316	3.67
288.688	3.65
289.06	3.61
289.431	3.52
289.803	3.58
290.175	3.53
290.546	3.65
290.918	3.82
291.289	3.81
291.661	3.88
292.032	3.99
292.403	3.91
292.775	3.94
293.146	4.01
293.517	3.98
293.889	4.07
294.26	4.02
294.631	3.86
295.002	3.78
295.373	3.85
295.744	3.79
296.115	3.86
296.486	3.62
296.857	3.59
297.228	3.79
297.599	3.76
297.97	3.85
298.34	3.93
298.711	3.93
299.082	3.97
299.452	3.91
299.823	3.92
300.194	3.91
300.564	3.9
300.935	3.91
301.305	3.92
301.676	4
302.046	4.13
302.416	4.34
302.787	4.44
303.157	4.43
303.527	4.45
303.897	4.5
304.267	5.01
304.637	5.15
305.008	5
305.378	5.06
305.748	5.12
306.117	5.09
306.487	5.15
306.857	5.1
307.227	5.16
307.597	5.14
307.967	5.24
308.336	5.29
308.706	5.3
309.076	5.48
309.445	5.3
309.815	5.27
310.184	5.27
310.554	5.35
310.923	5.37
311.293	5.34
311.662	5.32
312.031	5.15
312.401	5.13
312.77	5.28
313.139	5.33
313.508	5.33
313.877	5.34
314.246	5.36
314.616	5.37
314.985	5.42
315.353	5.55
315.722	5.63
316.091	5.7
316.46	5.74
316.829	5.83
317.198	6.21
317.567	6.36
317.935	6.28
318.304	6.37
318.672	6.46
319.041	6.72
319.41	6.76
319.778	6.81
320.147	6.82
320.515	6.77
320.883	6.75
321.252	6.89
321.62	6.94
321.988	6.92
322.357	6.94
322.725	7.01
323.093	7.17
323.461	7.24
323.829	7.28
324.197	7.4
324.565	7.54
324.933	7.35
325.301	7.37
325.669	7.44
326.037	7.48
326.405	7.51
326.772	7.51
327.14	7.59
327.508	7.58
327.875	7.6
328.243	7.71
328.61	7.74
328.978	7.8
329.346	8.02
329.713	8.06
330.08	8.14
330.448	8.24
330.815	8.18
331.182	8.25
331.55	8.28
331.917	8.4
332.284	8.26
332.651	8.32
333.018	8.3
333.385	8.4
333.752	8.5
334.119	8.57
334.486	8.55
334.853	8.65
335.22	8.75
335.587	8.82
335.954	8.74
336.32	8.82
336.687	8.84
337.054	8.8
337.42	9.02
337.787	9.18
338.153	9.09
338.52	9.06
338.886	8.95
339.253	8.9
339.619	8.9
339.986	9
340.352	9.15
340.718	9.2
341.084	9.14
341.451	9.21
341.817	9.28
342.183	9.21
342.549	9.17
342.915	9.22
343.281	9.25
343.647	9.35
344.013	9.39
344.379	9.33
344.745	9.38
345.11	9.27
345.476	9.25
345.842	9.23
346.208	9.33
346.573	9.41
346.939	9.54
347.304	9.5
347.67	9.43
348.035	9.4
348.401	9.39
348.766	9.47
349.132	9.42
349.497	9.32
349.862	9.56
350.228	9.59
350.593	9.54
350.958	9.59
351.323	9.56
351.688	9.59
352.053	9.77
352.418	9.79
352.783	9.77
353.148	9.77
353.513	9.9
353.878	9.76
354.243	9.81
354.608	9.83
354.972	9.81
355.337	9.91
355.702	9.88
356.066	10
356.431	9.92
356.795	9.9
357.16	9.95
357.524	9.81
357.889	9.75
358.253	9.72
358.618	9.64
358.982	9.59
359.346	9.53
359.71	9.4
360.075	9.34
360.439	9.37
360.803	9.33
361.167	9.28
361.531	9.29
361.895	9.28
362.259	9.24
362.623	9.21
362.987	9.13
363.351	9.1
363.714	9.05
364.078	9.09
364.442	9.01
364.806	8.96
365.169	8.93
365.533	8.9
365.896	8.92
366.26	8.93
366.623	8.98
366.987	8.95
367.35	8.96
367.714	8.93
368.077	8.87
368.44	8.83
368.803	8.79
369.167	8.77
369.53	8.58
369.893	8.56
370.256	8.57
370.619	8.59
370.982	8.59
371.345	8.51
371.708	8.46
372.071	8.4
372.434	8.38
372.797	8.32
373.159	8.26
373.522	8.2
373.885	8.18
374.247	8.04
374.61	7.99
374.973	7.88
375.335	7.84
375.698	7.81
376.06	7.68
376.423	7.63
376.785	7.65
377.147	7.72
377.51	7.65
377.872	7.6
378.234	7.52
378.596	7.47
378.958	7.38
379.321	7.34
379.683	7.29
380.045	7.28
380.407	7.23
380.769	7.21
381.13	7.15
381.492	7.04
381.854	7.01
382.216	6.93
382.578	6.89
382.939	6.8
383.301	6.72
383.663	6.69
384.024	6.6
384.386	6.53
384.747	6.47
385.109	6.4
385.47	6.31
385.832	6.27
386.193	6.25
386.554	6.2
386.916	6.13
387.277	6.13
387.638	6.09
387.999	6.06
388.36	6.02
388.721	5.99
389.082	6
389.443	5.98
389.804	5.96
390.165	5.91
390.526	5.86
390.887	5.8
391.248	5.8
391.609	5.82
391.969	5.79
392.33	5.75
392.691	5.69
393.051	5.67
393.412	5.64
393.772	5.57
394.133	5.54
394.493	5.51
394.854	5.46
395.214	5.41
395.574	5.33
395.935	5.3
396.295	5.26
396.655	5.18
397.015	5.13
397.376	5.07
397.736	5.05
398.096	5.02
398.456	4.99
398.816	4.93
399.176	4.87
399.535	4.82
399.895	4.77
400.255	4.77
400.615	4.74
400.975	4.69
401.334	4.65
401.694	4.59
402.054	4.56
402.413	4.53
402.773	4.49
403.132	4.49
403.492	4.48
403.851	4.45
404.211	4.45
404.57	4.39
404.929	4.42
405.288	4.38
405.648	4.39
406.007	4.36
406.366	4.36
406.725	4.36
407.084	4.33
407.443	4.31
407.802	4.28
408.161	4.26
408.52	4.25
408.879	4.23
409.238	4.23
409.596	4.24
409.955	4.25
410.314	4.25
410.673	4.23
411.031	4.19
411.39	4.18
411.748	4.16
412.107	4.18
412.465	4.12
412.824	4.11
413.182	4.07
413.54	4.06
413.899	4.06
414.257	4.02
414.615	4.05
414.974	4.07
415.332	4.07
415.69	4.06
416.048	4.03
416.406	4.02
416.764	4
417.122	3.97
417.48	3.92
417.838	3.91
418.195	3.89
418.553	3.88
418.911	3.87
419.269	3.89
419.626	3.86
419.984	3.85
420.342	3.83
420.699	3.84
421.057	3.84
421.414	3.8
421.772	3.8
422.129	3.78
422.486	3.75
422.844	3.73
423.201	3.7
423.558	3.7
423.915	3.7
424.273	3.69
424.63	3.66
424.987	3.67
425.344	3.66
425.701	3.66
426.058	3.65
426.415	3.64
426.772	3.61
427.128	3.6
427.485	3.6
427.842	3.58
428.199	3.57
428.555	3.56
428.912	3.57
429.269	3.55
429.625	3.52
429.982	3.52
430.338	3.52
430.695	3.52
431.051	3.5
431.407	3.5
431.764	3.49
432.12	3.48
432.476	3.48
432.832	3.48
433.189	3.47
433.545	3.48
433.901	3.47
434.257	3.47
434.613	3.5
434.969	3.5
435.325	3.49
435.681	3.48
436.036	3.47
436.392	3.46
436.748	3.47
437.104	3.47
437.459	3.47
437.815	3.48
438.171	3.48
438.526	3.48
438.882	3.47
439.237	3.47
439.593	3.5
439.948	3.49
440.304	3.47
440.659	3.46
441.014	3.45
441.369	3.43
441.725	3.43
442.08	3.43
442.435	3.43
442.79	3.44
443.145	3.46
443.5	3.44
443.855	3.44
444.21	3.44
444.565	3.45
444.92	3.44
445.275	3.41
445.629	3.43
445.984	3.41
446.339	3.41
446.693	3.4
447.048	3.38
447.403	3.38
447.757	3.38
448.112	3.36
448.466	3.36
448.82	3.36
449.175	3.37
449.529	3.32
449.883	3.3
450.238	3.28
450.592	3.26
450.946	3.25
451.3	3.24
451.654	3.22
452.008	3.21
452.362	3.2
452.716	3.2
453.07	3.18
453.424	3.18
453.778	3.16
454.132	3.15
454.486	3.15
454.839	3.16
455.193	3.16
455.547	3.16
455.9	3.17
456.254	3.19
456.607	3.2
456.961	3.21
457.314	3.21
457.668	3.21
458.021	3.2
458.375	3.21
458.728	3.21
459.081	3.23
459.434	3.23
459.787	3.25
460.141	3.25
460.494	3.26
460.847	3.27
461.2	3.28
461.553	3.29
461.906	3.3
462.259	3.29
462.611	3.31
462.964	3.32
463.317	3.32
463.67	3.3
464.022	3.29
464.375	3.29
464.728	3.3
465.08	3.31
465.433	3.33
465.785	3.35
466.138	3.36
466.49	3.34
466.843	3.35
467.195	3.35
467.547	3.35
467.899	3.36
468.252	3.37
468.604	3.38
468.956	3.37
469.308	3.36
469.66	3.36
470.012	3.36
470.364	3.37
470.716	3.39
471.068	3.4
471.42	3.42
471.772	3.45
472.123	3.45
472.475	3.47
472.827	3.47
473.178	3.48
473.53	3.49
473.882	3.5
474.233	3.49
474.585	3.45
474.936	3.46
475.288	3.45
475.639	3.44
475.99	3.45
476.342	3.45
476.693	3.47
477.044	3.48
477.395	3.48
477.746	3.46
478.097	3.44
478.448	3.43
478.8	3.41
479.15	3.4
479.501	3.38
479.852	3.38
480.203	3.38
480.554	3.38
480.905	3.39
481.255	3.39
481.606	3.39
481.957	3.41
482.307	3.41
482.658	3.42
483.009	3.42
483.359	3.41
483.709	3.42
484.06	3.42
484.41	3.43
484.761	3.43
485.111	3.44
485.461	3.44
485.811	3.45
486.162	3.45
486.512	3.46
486.862	3.47
487.212	3.47
487.562	3.48
487.912	3.48
488.262	3.47
488.612	3.48
488.961	3.49
489.311	3.49
489.661	3.49
490.011	3.49
490.36	3.5
490.71	3.51
491.06	3.52
491.409	3.52
491.759	3.53
492.108	3.55
492.458	3.57
492.807	3.59
493.157	3.59
493.506	3.59
493.855	3.61
494.204	3.62
494.554	3.64
494.903	3.65
495.252	3.67
495.601	3.7
495.95	3.71
496.299	3.75
496.648	3.76
496.997	3.78
497.346	3.82
497.695	3.85
498.043	3.89
498.392	3.91
498.741	3.95
499.09	3.94
499.438	3.97
499.787	4
500.135	4.03
500.484	4.05
500.832	4.09
501.181	4.12
501.529	4.17
501.878	4.21
502.226	4.27
502.574	4.32
502.923	4.35
503.271	4.39
503.619	4.43
503.967	4.49
504.315	4.52
504.663	4.57
505.011	4.61
505.359	4.64
505.707	4.73
506.055	4.77
506.403	4.85
506.751	4.9
507.098	4.95
507.446	5.01
507.794	5.08
508.141	5.16
508.489	5.22
508.837	5.28
509.184	5.33
509.531	5.41
509.879	5.46
510.226	5.54
510.574	5.62
510.921	5.7
511.268	5.75
511.616	5.84
511.963	5.91
512.31	5.99
512.657	6.07
513.004	6.13
513.351	6.22
513.698	6.3
514.045	6.38
514.392	6.47
514.739	6.55
515.086	6.64
515.432	6.72
515.779	6.79
516.126	6.89
516.473	6.98
516.819	7.06
517.166	7.15
517.512	7.25
517.859	7.32
518.205	7.38
518.552	7.47
518.898	7.53
519.245	7.61
519.591	7.67
519.937	7.76
520.283	7.85
520.629	7.94
520.976	8.05
521.322	8.17
521.668	8.29
522.014	8.42
522.36	8.56
522.706	8.68
523.052	8.82
523.398	8.98
523.743	9.15
524.089	9.33
524.435	9.48
524.781	9.62
525.126	9.76
525.472	9.89
525.817	10.03
526.163	10.15
526.509	10.27
526.854	10.37
527.199	10.49
527.545	10.59
527.89	10.71
528.235	10.82
528.581	10.93
528.926	11.06
529.271	11.19
529.616	11.3
529.961	11.43
530.306	11.57
530.651	11.7
530.996	11.83
531.341	11.95
531.686	12.11
532.031	12.27
532.376	12.45
532.721	12.64
533.065	12.82
533.41	13.03
533.755	13.24
534.099	13.47
534.444	13.68
534.788	13.91
535.133	14.1
535.477	14.31
535.822	14.55
536.166	14.79
536.51	15.07
536.855	15.34
537.199	15.63
537.543	15.95
537.887	16.24
538.231	16.57
538.576	16.9
538.92	17.22
539.264	17.51
539.608	17.81
539.951	18.09
540.295	18.36
540.639	18.61
540.983	18.83
541.327	19.06
541.671	19.32
542.014	19.58
542.358	19.84
542.701	20.08
543.045	20.34
543.389	20.57
543.732	20.8
544.075	21.1
544.419	21.4
544.762	21.66
545.105	21.97
545.449	22.28
545.792	22.59
546.135	22.91
546.478	23.29
546.821	23.63
547.165	23.99
547.508	24.38
547.851	24.78
548.194	25.18
548.536	25.58
548.879	25.94
549.222	26.33
549.565	26.69
549.908	27.08
550.25	27.46
550.593	27.84
550.936	28.21
551.278	28.55
551.621	28.92
551.963	29.32
552.306	29.7
552.648	30.04
552.991	30.41
553.333	30.75
553.675	31.04
554.017	31.38
554.36	31.66
554.702	31.96
555.044	32.23
555.386	32.56
555.728	32.89
556.07	33.24
556.412	33.51
556.754	33.82
557.096	34.15
557.438	34.47
557.78	34.73
558.121	35.07
558.463	35.37
558.805	35.66
559.147	35.93
559.488	36.16
559.83	36.47
560.171	36.75
560.513	37.02
560.854	37.32
561.196	37.62
561.537	37.91
561.878	38.16
562.22	38.42
562.561	38.67
562.902	38.94
563.243	39.19
563.584	39.46
563.925	39.7
564.266	39.94
564.607	40.2
564.948	40.49
565.289	40.73
565.63	40.99
565.971	41.19
566.312	41.37
566.653	41.68
566.993	41.85
567.334	42.07
567.675	42.27
568.015	42.45
568.356	42.62
568.696	42.76
569.037	43
569.377	43.24
569.718	43.42
570.058	43.57
570.398	43.7
570.739	43.91
571.079	44.14
571.419	44.3
571.759	44.45
572.099	44.63
572.439	44.81
572.779	44.98
573.119	45.12
573.459	45.32
573.799	45.47
574.139	45.64
574.479	45.76
574.819	45.95
575.158	46.13
575.498	46.25
575.838	46.49
576.177	46.66
576.517	46.85
576.856	47.02
577.196	47.18
577.535	47.42
577.875	47.5
578.214	47.72
578.553	47.87
578.893	48.04
579.232	48.2
579.571	48.34
579.91	48.52
580.25	48.66
580.589	48.75
580.928	48.88
581.267	49
581.606	49.16
581.945	49.27
582.283	49.43
582.622	49.59
582.961	49.73
583.3	49.78
583.639	49.82
583.977	49.9
584.316	50.01
584.654	50.09
584.993	50.22
585.332	50.26
585.67	50.47
586.008	50.53
586.347	50.65
586.685	50.66
587.024	50.66
587.362	50.7
587.7	50.75
588.038	50.84
588.376	50.92
588.715	51.01
589.053	51.04
589.391	51.08
589.729	51.17
590.067	51.25
590.404	51.31
590.742	51.41
591.08	51.47
591.418	51.55
591.756	51.6
592.093	51.74
592.431	51.83
592.769	51.76
593.106	51.88
593.444	51.95
593.781	52.11
594.119	52.29
594.456	52.38
594.793	52.59
595.131	52.67
595.468	52.79
595.805	52.87
596.143	52.95
596.48	53.09
596.817	53.18
597.154	53.2
597.491	53.31
597.828	53.36
598.165	53.48
598.502	53.54
598.839	53.68
599.176	53.75
599.512	53.8
599.849	53.95
600.186	54.06
600.523	54.16
600.859	54.25
601.196	54.23
601.532	54.34
601.869	54.32
602.205	54.35
602.542	54.42
602.878	54.45
603.215	54.47
603.551	54.45
603.887	54.44
604.223	54.53
604.56	54.61
604.896	54.68
605.232	54.7
605.568	54.73
605.904	54.76
606.24	54.8
606.576	54.88
606.912	54.89
607.248	54.89
607.583	54.82
607.919	54.83
608.255	54.92
608.591	54.99
608.926	55.03
609.262	55.16
609.597	55.26
609.933	55.41
610.268	55.53
610.604	55.6
610.939	55.73
611.275	55.77
611.61	55.89
611.945	55.92
612.281	56.04
612.616	56.14
612.951	56.25
613.286	56.39
613.621	56.44
613.956	56.57
614.291	56.64
614.626	56.78
614.961	56.84
615.296	56.92
615.631	57.01
615.966	57.04
616.3	57.07
616.635	56.99
616.97	56.94
617.304	56.94
617.639	57.07
617.973	57.06
618.308	57.08
618.642	57
618.977	57.1
619.311	57.1
619.646	57.13
619.98	57.17
620.314	57.06
620.648	57.14
620.983	57.15
621.317	57.22
621.651	57.18
621.985	57.25
622.319	57.23
622.653	57.31
622.987	57.38
623.321	57.4
623.655	57.53
623.988	57.66
624.322	57.72
624.656	57.69
624.99	57.78
625.323	57.83
625.657	57.87
625.99	57.86
626.324	57.92
626.657	57.99
626.991	57.95
627.324	58.04
627.658	57.97
627.991	58.01
628.324	57.98
628.657	58.15
628.991	58.15
629.324	58.17
629.657	58.2
629.99	58.26
630.323	58.3
630.656	58.26
630.989	58.21
631.322	58.22
631.655	58.18
631.987	58.18
632.32	58.18
632.653	58.2
632.986	58.21
633.318	58.25
633.651	58.26
633.984	58.27
634.316	58.28
634.649	58.39
634.981	58.42
635.313	58.5
635.646	58.46
635.978	58.43
636.31	58.46
636.643	58.47
636.975	58.58
637.307	58.61
637.639	58.66
637.971	58.75
638.303	58.76
638.635	58.84
638.967	58.93
639.299	58.9
639.631	58.88
639.963	58.88
640.295	58.84
640.626	58.79
640.958	58.81
641.29	58.88
641.621	58.93
641.953	59.01
642.285	59.09
642.616	59.15
642.948	59.38
643.279	59.42
643.61	59.4
643.942	59.27
644.273	59.24
644.604	59.22
644.936	59.09
645.267	59.08
645.598	59.19
645.929	59.11
646.26	59.27
646.591	59.24
646.922	59.34
647.253	59.51
647.584	59.5
647.915	59.67
648.245	59.68
648.576	59.59
648.907	59.57
649.238	59.48
649.568	59.51
649.899	59.42
650.229	59.53
650.56	59.59
650.89	59.69
651.221	59.74
651.551	59.77
651.882	59.98
652.212	60.08
652.542	60.04
652.872	60.16
653.203	60.11
653.533	60.2
653.863	60.23
654.193	60.08
654.523	60.13
654.853	60.04
655.183	60.11
655.513	60.19
655.843	60.29
656.172	60.45
656.502	60.41
656.832	60.43
657.162	60.46
657.491	60.39
657.821	60.33
658.15	60.23
658.48	60.3
658.809	60.3
659.139	60.22
659.468	60.23
659.798	60.19
660.127	60.24
660.456	60.28
660.785	60.3
661.115	60.38
661.444	60.52
661.773	60.48
662.102	60.4
662.431	60.41
662.76	60.43
663.089	60.3
663.418	60.33
663.747	60.41
664.076	60.34
664.404	60.42
664.733	60.55
665.062	60.65
665.39	60.49
665.719	60.36
666.048	60.51
666.376	60.66
666.705	60.7
667.033	60.68
667.362	60.74
667.69	60.67
668.018	60.7
