Data from BA56832_Reflection_00008.txt Node
Date: Mon Nov 18 16:09:56 EST 2019
User: vgr7
Spectrometer: USB2G7710
Scans to average: 3
Trigger mode: 4
Integration Time (sec): 2.000000E-2
Electric dark correction enabled: true
Boxcar width: 10
XAxis mode: Wavelengths
Number of Pixels in Spectrum: 2048
>>>>>Begin Spectral Data<<<<<
177.721	-27.54
178.105	-30.31
178.488	-30.35
178.871	-45.87
179.254	-21.14
179.636	-178.63
180.019	-36.99
180.402	253.85
180.785	-436.08
181.168	209.59
181.55	13.04
181.933	53.09
182.316	137.55
182.698	215.07
183.081	102.56
183.463	103.05
183.846	103.13
184.228	83.94
184.611	68.23
184.993	51.74
185.376	49.37
185.758	-12.51
186.14	-31.32
186.522	50.1
186.904	823.4
187.287	1896.61
187.669	-360.43
188.051	-136.59
188.433	-70.38
188.815	-33.06
189.197	-0.37
189.579	-26.05
189.961	-23.43
190.342	-18.12
190.724	5.63
191.106	-2.37
191.488	-74.45
191.869	-29.38
192.251	-15.75
192.633	-30.84
193.014	-40.01
193.396	-58.57
193.777	-142.06
194.159	-326.97
194.54	-96.78
194.922	-73.26
195.303	-68.07
195.684	-102.39
196.065	-73.87
196.447	-81.38
196.828	-84.16
197.209	-120.79
197.59	-127.04
197.971	-180.28
198.352	-223.82
198.733	-356.2
199.114	-225.04
199.495	-125.47
199.876	-202.83
200.257	-162.84
200.638	-133.78
201.018	-143.2
201.399	-119.51
201.78	-109.9
202.16	-110.53
202.541	-150.85
202.922	-265.15
203.302	-296.94
203.683	-215.9
204.063	-252.62
204.444	-300.75
204.824	-247.59
205.204	-226.43
205.585	-215.46
205.965	-186.84
206.345	-174.07
206.725	-165.8
207.106	-318.42
207.486	-599.12
207.866	-615.85
208.246	-1342.62
208.626	18651.72
209.006	-3900
209.386	-1297.4
209.766	-737.52
210.145	-467.04
210.525	-290.38
210.905	-175.61
211.285	-135.02
211.664	-127.26
212.044	-88.87
212.424	-87.9
212.803	-123.76
213.183	-81.3
213.562	-82.63
213.942	-76.58
214.321	-83.68
214.701	-87.06
215.08	-56.39
215.459	-54.38
215.838	-42.11
216.218	-44.22
216.597	-19
216.976	-21.54
217.355	-18.77
217.734	-13.16
218.113	-8.66
218.492	-10.16
218.871	-29.25
219.25	-21.09
219.629	-40.94
220.008	-114.45
220.387	-84.37
220.766	-43.37
221.144	-85.1
221.523	-93.29
221.902	-122.52
222.28	-83.44
222.659	-39.57
223.037	-11.97
223.416	-6.48
223.794	-13.69
224.173	-16.31
224.551	-36.01
224.929	-40.86
225.308	-36.72
225.686	-22.83
226.064	-20.03
226.442	-17.98
226.821	-7.25
227.199	-5.75
227.577	-4.9
227.955	-5.57
228.333	-5.64
228.711	-5.18
229.089	0.89
229.467	0.3
229.845	1.91
230.222	1.12
230.6	0.17
230.978	-2.79
231.356	0.67
231.733	1.18
232.111	2.8
232.488	3.39
232.866	1.19
233.243	2.4
233.621	1.72
233.998	3.67
234.376	3.66
234.753	1.74
235.13	1.74
235.508	2.41
235.885	4.37
236.262	4.01
236.639	4
237.016	3.82
237.393	5.73
237.77	6.28
238.147	6.31
238.524	5.75
238.901	6.3
239.278	5.95
239.655	6.24
240.032	6.44
240.409	6.27
240.785	6.78
241.162	6.9
241.539	7.42
241.915	7.09
242.292	7.07
242.668	6.92
243.045	7.23
243.421	7.19
243.798	6.99
244.174	6.96
244.551	7.14
244.927	6.81
245.303	6.9
245.679	6.92
246.056	7.13
246.432	7.07
246.808	7.26
247.184	7.08
247.56	7.19
247.936	7.34
248.312	7.47
248.688	7.58
249.064	7.49
249.44	7.21
249.815	7.26
250.191	7.22
250.567	7.53
250.943	7.26
251.318	7.25
251.694	7.35
252.069	7.36
252.445	7.41
252.82	7.5
253.196	7.37
253.571	7.31
253.947	7.1
254.322	7
254.697	6.87
255.073	6.74
255.448	6.39
255.823	6.21
256.198	6.21
256.573	6.24
256.948	6.46
257.323	6.51
257.698	6.65
258.073	6.66
258.448	6.37
258.823	6.41
259.198	6.41
259.573	6.37
259.948	6.31
260.322	6.29
260.697	6.18
261.072	6.09
261.446	6.15
261.821	6.23
262.195	6.39
262.57	6.22
262.944	6.42
263.319	6.56
263.693	6.51
264.067	6.51
264.442	6.54
264.816	6.47
265.19	6.37
265.564	6.37
265.938	6.33
266.313	6.34
266.687	6.47
267.061	6.59
267.435	6.69
267.809	6.68
268.183	6.66
268.556	6.85
268.93	6.98
269.304	6.82
269.678	6.75
270.051	6.56
270.425	6.74
270.799	6.8
271.172	6.82
271.546	6.76
271.919	6.7
272.293	6.72
272.666	6.59
273.04	6.65
273.413	6.49
273.787	6.52
274.16	6.57
274.533	6.56
274.906	6.38
275.279	6.47
275.653	6.52
276.026	6.49
276.399	6.45
276.772	6.37
277.145	6.39
277.518	6.43
277.891	6.65
278.263	6.52
278.636	6.31
279.009	6.16
279.382	6.21
279.755	6.13
280.127	6.11
280.5	6.2
280.872	6.28
281.245	6.22
281.617	6.24
281.99	6.25
282.362	6.23
282.735	6.32
283.107	6.21
283.479	6.28
283.852	6.26
284.224	6.36
284.596	6.45
284.968	6.49
285.34	6.46
285.713	6.41
286.085	6.57
286.457	6.64
286.829	6.64
287.201	6.74
287.572	6.81
287.944	6.85
288.316	6.9
288.688	6.84
289.06	6.84
289.431	6.88
289.803	6.93
290.175	7.07
290.546	7.17
290.918	7.14
291.289	7.17
291.661	7.31
292.032	7.32
292.403	7.3
292.775	7.34
293.146	7.41
293.517	7.59
293.889	7.65
294.26	7.69
294.631	7.73
295.002	7.75
295.373	7.72
295.744	7.84
296.115	7.86
296.486	7.95
296.857	8.08
297.228	8.09
297.599	8.06
297.97	7.96
298.34	8.05
298.711	8.22
299.082	8.25
299.452	8.23
299.823	8.34
300.194	8.39
300.564	8.42
300.935	8.54
301.305	8.51
301.676	8.48
302.046	8.56
302.416	8.94
302.787	8.88
303.157	9.17
303.527	9.12
303.897	9.18
304.267	9.35
304.637	9.54
305.008	9.66
305.378	9.91
305.748	10.11
306.117	10.01
306.487	10.03
306.857	10.18
307.227	10.23
307.597	10.14
307.967	10.25
308.336	10.37
308.706	10.47
309.076	10.52
309.445	10.52
309.815	10.61
310.184	10.52
310.554	10.68
310.923	10.6
311.293	10.7
311.662	10.8
312.031	10.77
312.401	10.77
312.77	11.05
313.139	11.1
313.508	11.19
313.877	11.23
314.246	11.27
314.616	11.17
314.985	11.19
315.353	11.39
315.722	11.59
316.091	11.65
316.46	11.57
316.829	11.73
317.198	11.94
317.567	11.96
317.935	11.9
318.304	12.04
318.672	12.22
319.041	12.37
319.41	12.36
319.778	12.49
320.147	12.62
320.515	12.37
320.883	12.32
321.252	12.34
321.62	12.5
321.988	12.73
322.357	12.9
322.725	13.07
323.093	13.07
323.461	13.05
323.829	13.16
324.197	13.39
324.565	13.32
324.933	13.43
325.301	13.48
325.669	13.65
326.037	13.64
326.405	13.63
326.772	13.65
327.14	13.79
327.508	13.94
327.875	13.93
328.243	14.17
328.61	14.33
328.978	14.4
329.346	14.5
329.713	14.41
330.08	14.48
330.448	14.52
330.815	14.58
331.182	14.6
331.55	14.63
331.917	14.71
332.284	14.93
332.651	14.86
333.018	14.96
333.385	14.99
333.752	15.1
334.119	15.18
334.486	15.25
334.853	15.28
335.22	15.19
335.587	15.25
335.954	15.21
336.32	15.27
336.687	15.38
337.054	15.39
337.42	15.43
337.787	15.52
338.153	15.62
338.52	15.68
338.886	15.59
339.253	15.55
339.619	15.51
339.986	15.43
340.352	15.55
340.718	15.5
341.084	15.49
341.451	15.58
341.817	15.58
342.183	15.55
342.549	15.58
342.915	15.69
343.281	15.66
343.647	15.66
344.013	15.74
344.379	15.71
344.745	15.8
345.11	15.9
345.476	15.92
345.842	15.9
346.208	15.88
346.573	16.06
346.939	16.12
347.304	16.14
347.67	16.14
348.035	16.11
348.401	16.22
348.766	16.35
349.132	16.38
349.497	16.45
349.862	16.48
350.228	16.58
350.593	16.51
350.958	16.51
351.323	16.45
351.688	16.45
352.053	16.34
352.418	16.3
352.783	16.29
353.148	16.25
353.513	16.25
353.878	16.31
354.243	16.38
354.608	16.38
354.972	16.43
355.337	16.44
355.702	16.52
356.066	16.52
356.431	16.45
356.795	16.39
357.16	16.35
357.524	16.27
357.889	16.28
358.253	16.37
358.618	16.52
358.982	16.58
359.346	16.47
359.71	16.53
360.075	16.5
360.439	16.5
360.803	16.52
361.167	16.47
361.531	16.4
361.895	16.33
362.259	16.34
362.623	16.33
362.987	16.3
363.351	16.23
363.714	16.15
364.078	16.18
364.442	16.12
364.806	16.1
365.169	16.16
365.533	16.07
365.896	15.97
366.26	15.85
366.623	15.8
366.987	15.79
367.35	15.82
367.714	15.82
368.077	15.71
368.44	15.7
368.803	15.64
369.167	15.59
369.53	15.55
369.893	15.52
370.256	15.41
370.619	15.39
370.982	15.3
371.345	15.24
371.708	15.18
372.071	15.16
372.434	15.14
372.797	15.06
373.159	15.02
373.522	15.01
373.885	14.93
374.247	14.87
374.61	14.83
374.973	14.71
375.335	14.65
375.698	14.61
376.06	14.48
376.423	14.44
376.785	14.43
377.147	14.33
377.51	14.26
377.872	14.2
378.234	14.19
378.596	14.25
378.958	14.19
379.321	14.1
379.683	14.04
380.045	13.92
380.407	13.86
380.769	13.77
381.13	13.64
381.492	13.58
381.854	13.57
382.216	13.55
382.578	13.54
382.939	13.46
383.301	13.46
383.663	13.44
384.024	13.41
384.386	13.39
384.747	13.42
385.109	13.39
385.47	13.36
385.832	13.25
386.193	13.13
386.554	13.11
386.916	13.1
387.277	13.05
387.638	13.03
387.999	13
388.36	12.96
388.721	12.97
389.082	12.91
389.443	12.84
389.804	12.74
390.165	12.67
390.526	12.69
390.887	12.61
391.248	12.52
391.609	12.46
391.969	12.38
392.33	12.26
392.691	12.18
393.051	12.15
393.412	12.14
393.772	12.11
394.133	12.08
394.493	11.99
394.854	11.95
395.214	11.93
395.574	11.88
395.935	11.81
396.295	11.79
396.655	11.74
397.015	11.66
397.376	11.63
397.736	11.56
398.096	11.45
398.456	11.41
398.816	11.4
399.176	11.35
399.535	11.31
399.895	11.28
400.255	11.19
400.615	11.1
400.975	11.03
401.334	10.98
401.694	10.9
402.054	10.85
402.413	10.78
402.773	10.73
403.132	10.7
403.492	10.66
403.851	10.61
404.211	10.58
404.57	10.56
404.929	10.52
405.288	10.51
405.648	10.44
406.007	10.41
406.366	10.39
406.725	10.38
407.084	10.34
407.443	10.3
407.802	10.32
408.161	10.3
408.52	10.23
408.879	10.21
409.238	10.19
409.596	10.15
409.955	10.12
410.314	10.09
410.673	10.03
411.031	10.03
411.39	9.96
411.748	9.93
412.107	9.9
412.465	9.88
412.824	9.83
413.182	9.8
413.54	9.79
413.899	9.74
414.257	9.65
414.615	9.61
414.974	9.59
415.332	9.54
415.69	9.52
416.048	9.46
416.406	9.4
416.764	9.35
417.122	9.33
417.48	9.27
417.838	9.23
418.195	9.21
418.553	9.16
418.911	9.15
419.269	9.1
419.626	9.08
419.984	9.02
420.342	9
420.699	8.99
421.057	8.94
421.414	8.9
421.772	8.89
422.129	8.87
422.486	8.84
422.844	8.84
423.201	8.8
423.558	8.79
423.915	8.79
424.273	8.77
424.63	8.75
424.987	8.74
425.344	8.72
425.701	8.69
426.058	8.66
426.415	8.63
426.772	8.62
427.128	8.6
427.485	8.6
427.842	8.59
428.199	8.56
428.555	8.56
428.912	8.56
429.269	8.53
429.625	8.52
429.982	8.51
430.338	8.47
430.695	8.48
431.051	8.46
431.407	8.44
431.764	8.42
432.12	8.4
432.476	8.38
432.832	8.35
433.189	8.37
433.545	8.37
433.901	8.37
434.257	8.34
434.613	8.33
434.969	8.34
435.325	8.32
435.681	8.32
436.036	8.31
436.392	8.3
436.748	8.28
437.104	8.25
437.459	8.23
437.815	8.21
438.171	8.2
438.526	8.19
438.882	8.2
439.237	8.2
439.593	8.19
439.948	8.18
440.304	8.19
440.659	8.19
441.014	8.16
441.369	8.12
441.725	8.11
442.08	8.1
442.435	8.08
442.79	8.05
443.145	8.03
443.5	8
443.855	7.99
444.21	7.98
444.565	7.98
444.92	7.98
445.275	7.97
445.629	7.96
445.984	7.95
446.339	7.91
446.693	7.88
447.048	7.86
447.403	7.86
447.757	7.82
448.112	7.79
448.466	7.78
448.82	7.79
449.175	7.78
449.529	7.77
449.883	7.75
450.238	7.73
450.592	7.73
450.946	7.72
451.3	7.7
451.654	7.7
452.008	7.68
452.362	7.66
452.716	7.64
453.07	7.62
453.424	7.63
453.778	7.64
454.132	7.63
454.486	7.63
454.839	7.62
455.193	7.64
455.547	7.64
455.9	7.64
456.254	7.62
456.607	7.63
456.961	7.63
457.314	7.62
457.668	7.63
458.021	7.62
458.375	7.62
458.728	7.61
459.081	7.61
459.434	7.61
459.787	7.64
460.141	7.63
460.494	7.62
460.847	7.6
461.2	7.6
461.553	7.61
461.906	7.62
462.259	7.65
462.611	7.65
462.964	7.64
463.317	7.66
463.67	7.68
464.022	7.69
464.375	7.7
464.728	7.71
465.08	7.72
465.433	7.75
465.785	7.75
466.138	7.79
466.49	7.8
466.843	7.81
467.195	7.79
467.547	7.81
467.899	7.85
468.252	7.86
468.604	7.87
468.956	7.86
469.308	7.85
469.66	7.83
470.012	7.83
470.364	7.85
470.716	7.87
471.068	7.88
471.42	7.89
471.772	7.91
472.123	7.92
472.475	7.93
472.827	7.93
473.178	7.95
473.53	7.93
473.882	7.92
474.233	7.93
474.585	7.92
474.936	7.95
475.288	7.94
475.639	7.96
475.99	7.99
476.342	8.02
476.693	8.02
477.044	8.04
477.395	8.04
477.746	8.04
478.097	8
478.448	8
478.8	7.98
479.15	7.93
479.501	7.93
479.852	7.93
480.203	7.93
480.554	7.94
480.905	7.96
481.255	7.95
481.606	7.97
481.957	7.98
482.307	7.97
482.658	7.98
483.009	7.97
483.359	7.96
483.709	7.96
484.06	7.96
484.41	7.96
484.761	7.97
485.111	7.99
485.461	8
485.811	8.01
486.162	8.03
486.512	8.06
486.862	8.07
487.212	8.08
487.562	8.09
487.912	8.1
488.262	8.1
488.612	8.12
488.961	8.12
489.311	8.13
489.661	8.15
490.011	8.15
490.36	8.17
490.71	8.18
491.06	8.19
491.409	8.21
491.759	8.23
492.108	8.24
492.458	8.25
492.807	8.26
493.157	8.27
493.506	8.28
493.855	8.3
494.204	8.32
494.554	8.35
494.903	8.37
495.252	8.41
495.601	8.45
495.95	8.48
496.299	8.51
496.648	8.53
496.997	8.58
497.346	8.64
497.695	8.71
498.043	8.75
498.392	8.81
498.741	8.86
499.09	8.89
499.438	8.92
499.787	8.98
500.135	9.03
500.484	9.09
500.832	9.13
501.181	9.19
501.529	9.21
501.878	9.28
502.226	9.35
502.574	9.4
502.923	9.46
503.271	9.53
503.619	9.59
503.967	9.68
504.315	9.72
504.663	9.79
505.011	9.84
505.359	9.89
505.707	9.97
506.055	10
506.403	10.09
506.751	10.15
507.098	10.21
507.446	10.28
507.794	10.35
508.141	10.42
508.489	10.48
508.837	10.57
509.184	10.63
509.531	10.68
509.879	10.73
510.226	10.8
510.574	10.84
510.921	10.9
511.268	10.95
511.616	11.01
511.963	11.1
512.31	11.13
512.657	11.2
513.004	11.26
513.351	11.36
513.698	11.42
514.045	11.48
514.392	11.54
514.739	11.59
515.086	11.65
515.432	11.71
515.779	11.77
516.126	11.84
516.473	11.92
516.819	11.98
517.166	12.05
517.512	12.11
517.859	12.17
518.205	12.24
518.552	12.3
518.898	12.35
519.245	12.41
519.591	12.5
519.937	12.56
520.283	12.61
520.629	12.68
520.976	12.78
521.322	12.87
521.668	12.95
522.014	13.05
522.36	13.16
522.706	13.27
523.052	13.38
523.398	13.51
523.743	13.62
524.089	13.75
524.435	13.87
524.781	13.97
525.126	14.1
525.472	14.2
525.817	14.3
526.163	14.39
526.509	14.48
526.854	14.55
527.199	14.63
527.545	14.71
527.89	14.79
528.235	14.86
528.581	14.96
528.926	15.05
529.271	15.14
529.616	15.22
529.961	15.32
530.306	15.41
530.651	15.51
530.996	15.61
531.341	15.7
531.686	15.82
532.031	15.94
532.376	16.06
532.721	16.17
533.065	16.28
533.41	16.42
533.755	16.54
534.099	16.68
534.444	16.84
534.788	17.01
535.133	17.14
535.477	17.31
535.822	17.44
536.166	17.61
536.51	17.77
536.855	17.99
537.199	18.18
537.543	18.41
537.887	18.62
538.231	18.84
538.576	19.09
538.92	19.3
539.264	19.5
539.608	19.73
539.951	19.95
540.295	20.14
540.639	20.34
540.983	20.52
541.327	20.73
541.671	20.9
542.014	21.08
542.358	21.27
542.701	21.45
543.045	21.67
543.389	21.89
543.732	22.13
544.075	22.34
544.419	22.56
544.762	22.8
545.105	23.02
545.449	23.31
545.792	23.59
546.135	23.87
546.478	24.19
546.821	24.46
547.165	24.78
547.508	25.1
547.851	25.43
548.194	25.75
548.536	26.11
548.879	26.5
549.222	26.9
549.565	27.31
549.908	27.72
550.25	28.09
550.593	28.51
550.936	28.85
551.278	29.23
551.621	29.63
551.963	30
552.306	30.43
552.648	30.79
552.991	31.18
553.333	31.57
553.675	31.91
554.017	32.32
554.36	32.67
554.702	33.07
555.044	33.5
555.386	33.92
555.728	34.31
556.07	34.71
556.412	35.07
556.754	35.4
557.096	35.78
557.438	36.19
557.78	36.58
558.121	37.03
558.463	37.46
558.805	37.89
559.147	38.33
559.488	38.7
559.83	39.05
560.171	39.43
560.513	39.8
560.854	40.25
561.196	40.64
561.537	41.03
561.878	41.45
562.22	41.77
562.561	42.14
562.902	42.5
563.243	42.85
563.584	43.21
563.925	43.59
564.266	43.89
564.607	44.21
564.948	44.56
565.289	44.87
565.63	45.17
565.971	45.53
566.312	45.84
566.653	46.17
566.993	46.55
567.334	46.85
567.675	47.16
568.015	47.39
568.356	47.71
568.696	48.06
569.037	48.34
569.377	48.69
569.718	48.98
570.058	49.22
570.398	49.49
570.739	49.81
571.079	50.12
571.419	50.48
571.759	50.79
572.099	51.01
572.439	51.29
572.779	51.48
573.119	51.68
573.459	51.92
573.799	52.17
574.139	52.38
574.479	52.59
574.819	52.84
575.158	53.15
575.498	53.39
575.838	53.61
576.177	53.76
576.517	53.96
576.856	54.22
577.196	54.48
577.535	54.71
577.875	54.88
578.214	55.06
578.553	55.24
578.893	55.43
579.232	55.63
579.571	55.8
579.91	56.11
580.25	56.37
580.589	56.49
580.928	56.66
581.267	56.84
581.606	57.02
581.945	57.16
582.283	57.32
582.622	57.41
582.961	57.56
583.3	57.84
583.639	57.99
583.977	58.13
584.316	58.23
584.654	58.35
584.993	58.56
585.332	58.71
585.67	58.84
586.008	58.95
586.347	59.09
586.685	59.29
587.024	59.34
587.362	59.33
587.7	59.53
588.038	59.68
588.376	59.78
588.715	59.89
589.053	60.06
589.391	60.22
589.729	60.37
590.067	60.49
590.404	60.54
590.742	60.68
591.08	60.76
591.418	60.94
591.756	61.1
592.093	61.16
592.431	61.34
592.769	61.42
593.106	61.56
593.444	61.58
593.781	61.66
594.119	61.81
594.456	61.99
594.793	62.08
595.131	62.15
595.468	62.33
595.805	62.47
596.143	62.51
596.48	62.5
596.817	62.6
597.154	62.67
597.491	62.81
597.828	62.93
598.165	63.01
598.502	63.04
598.839	63.12
599.176	63.22
599.512	63.23
599.849	63.34
600.186	63.37
600.523	63.54
600.859	63.63
601.196	63.64
601.532	63.73
601.869	63.71
602.205	63.77
602.542	63.76
602.878	63.75
603.215	63.76
603.551	63.85
603.887	63.87
604.223	63.94
604.56	64.01
604.896	64.04
605.232	64.12
605.568	64.12
605.904	64.16
606.24	64.19
606.576	64.24
606.912	64.34
607.248	64.41
607.583	64.52
607.919	64.57
608.255	64.66
608.591	64.69
608.926	64.81
609.262	64.89
609.597	64.93
609.933	65.03
610.268	65.15
610.604	65.26
610.939	65.34
611.275	65.41
611.61	65.4
611.945	65.41
612.281	65.48
612.616	65.72
612.951	65.76
613.286	65.83
613.621	65.88
613.956	65.86
614.291	65.94
614.626	65.94
614.961	66.03
615.296	66.02
615.631	66.04
615.966	66.08
616.3	66.1
616.635	66.12
616.97	66.09
617.304	66.14
617.639	66.14
617.973	66.2
618.308	66.21
618.642	66.19
618.977	66.27
619.311	66.27
619.646	66.13
619.98	66.16
620.314	66.23
620.648	66.26
620.983	66.34
621.317	66.32
621.651	66.34
621.985	66.37
622.319	66.46
622.653	66.55
622.987	66.63
623.321	66.64
623.655	66.74
623.988	66.94
624.322	66.95
624.656	67
624.99	67.05
625.323	67.12
625.657	67.22
625.99	67.21
626.324	67.28
626.657	67.31
626.991	67.41
627.324	67.39
627.658	67.55
627.991	67.55
628.324	67.61
628.657	67.64
628.991	67.69
629.324	67.75
629.657	67.79
629.99	67.83
630.323	67.94
630.656	67.93
630.989	67.9
631.322	67.97
631.655	67.96
631.987	67.94
632.32	67.85
632.653	67.99
632.986	68
633.318	67.91
633.651	68
633.984	68.06
634.316	68.1
634.649	68.08
634.981	68.17
635.313	68.22
635.646	68.25
635.978	68.22
636.31	68.28
636.643	68.28
636.975	68.25
637.307	68.22
637.639	68.18
637.971	68.23
638.303	68.26
638.635	68.26
638.967	68.24
639.299	68.28
639.631	68.24
639.963	68.36
640.295	68.43
640.626	68.36
640.958	68.3
641.29	68.45
641.621	68.32
641.953	68.29
642.285	68.36
642.616	68.4
642.948	68.47
643.279	68.47
643.61	68.47
643.942	68.45
644.273	68.47
644.604	68.53
644.936	68.58
645.267	68.5
645.598	68.52
645.929	68.51
646.26	68.66
646.591	68.58
646.922	68.56
647.253	68.6
647.584	68.71
647.915	68.71
648.245	68.72
648.576	68.91
648.907	68.91
649.238	68.91
649.568	68.9
649.899	68.89
650.229	68.88
650.56	68.9
650.89	68.88
651.221	68.9
651.551	68.88
651.882	68.89
652.212	69.05
652.542	69.16
652.872	69.27
653.203	69.11
653.533	69.25
653.863	69.29
654.193	69.27
654.523	69.3
654.853	69.31
655.183	69.22
655.513	69.07
655.843	69.06
656.172	69.06
656.502	69.05
656.832	68.96
657.162	68.97
657.491	68.94
657.821	69.11
658.15	69.11
658.48	69.24
658.809	69.16
659.139	69.14
