Data from BA56813_Reflection_00014.txt Node
Date: Mon Nov 18 15:51:10 EST 2019
User: vgr7
Spectrometer: USB2G7710
Scans to average: 3
Trigger mode: 4
Integration Time (sec): 2.000000E-2
Electric dark correction enabled: true
Boxcar width: 10
XAxis mode: Wavelengths
Number of Pixels in Spectrum: 2048
>>>>>Begin Spectral Data<<<<<
177.721	-55.5
178.105	-51.94
178.488	-80.4
178.871	30.08
179.254	38.67
179.636	9.84
180.019	215.58
180.402	84.62
180.785	-24.36
181.168	90.15
181.55	118.87
181.933	149.61
182.316	119.67
182.698	119.93
183.081	112.11
183.463	108.16
183.846	114.59
184.228	88.47
184.611	89.44
184.993	92.85
185.376	90.79
185.758	124.53
186.14	106.86
186.522	130.5
186.904	168.85
187.287	152.02
187.669	169.67
188.051	174.47
188.433	209.66
188.815	255.08
189.197	223.19
189.579	227
189.961	130.43
190.342	131
190.724	322.37
191.106	671.73
191.488	-2121.56
191.869	-638.14
192.251	-712.92
192.633	-604.75
193.014	-1798.2
193.396	-1160.87
193.777	-1402.62
194.159	-2668.42
194.54	-571.47
194.922	-1101.34
195.303	-99.26
195.684	-39.4
196.065	5.95
196.447	-27.19
196.828	-67.88
197.209	-46.35
197.59	-56.2
197.971	-41.2
198.352	-12.2
198.733	-14.58
199.114	18.12
199.495	35.29
199.876	67.86
200.257	72.55
200.638	73.07
201.018	39.57
201.399	54.24
201.78	36.72
202.16	24.3
202.541	-23.84
202.922	-87.73
203.302	-129.44
203.683	-117.39
204.063	-194.41
204.444	-177.17
204.824	-187.9
205.204	-152.26
205.585	-78.27
205.965	-88.66
206.345	-1445.45
206.725	736.36
207.106	382.49
207.486	297.24
207.866	280.11
208.246	337.53
208.626	399.19
209.006	323.65
209.386	340.19
209.766	416.52
210.145	634.88
210.525	-2213.87
210.905	-375.82
211.285	-900
211.664	-4154.24
212.044	-5357.14
212.424	-405.57
212.803	3329.51
213.183	-960.91
213.562	-492.07
213.942	-258.18
214.321	-85.1
214.701	-32.67
215.08	-40.51
215.459	-27.89
215.838	-6.66
216.218	-13.62
216.597	-9.32
216.976	3.3
217.355	6.4
217.734	7.94
218.113	13.49
218.492	13.17
218.871	3.74
219.25	9.52
219.629	3.21
220.008	-18.2
220.387	-16.36
220.766	-6.1
221.144	-7.83
221.523	-24.62
221.902	-17.09
222.28	-6.56
222.659	-1.67
223.037	18.95
223.416	11.55
223.794	-9.9
224.173	-12.27
224.551	-10.65
224.929	-26.38
225.308	-27.36
225.686	-22.45
226.064	-21.61
226.442	-14.28
226.821	-3.34
227.199	0.63
227.577	4.09
227.955	5.62
228.333	7.29
228.711	7.2
229.089	9.25
229.467	9.44
229.845	6.72
230.222	7.1
230.6	6.9
230.978	7.06
231.356	8.4
231.733	8.81
232.111	11.91
232.488	10.34
232.866	12.99
233.243	14.48
233.621	13.07
233.998	13.99
234.376	11.33
234.753	11.11
235.13	10.49
235.508	8.98
235.885	7.08
236.262	4.73
236.639	3.62
237.016	2.84
237.393	5.05
237.77	5.02
238.147	5.64
238.524	4.98
238.901	4.49
239.278	4.21
239.655	3.93
240.032	3.42
240.409	3.9
240.785	3.86
241.162	4.32
241.539	4.22
241.915	3.95
242.292	3.91
242.668	4.16
243.045	3.68
243.421	4.14
243.798	4.32
244.174	4.78
244.551	4.72
244.927	4.49
245.303	4.35
245.679	4.36
246.056	3.96
246.432	3.99
246.808	4.01
247.184	3.84
247.56	3.75
247.936	3.75
248.312	3.62
248.688	3.73
249.064	3.5
249.44	3.6
249.815	3.67
250.191	3.73
250.567	3.61
250.943	3.75
251.318	3.74
251.694	3.94
252.069	3.64
252.445	3.81
252.82	3.92
253.196	3.96
253.571	4.13
253.947	4.55
254.322	4.81
254.697	4.69
255.073	4.67
255.448	4.87
255.823	4.7
256.198	4.79
256.573	4.47
256.948	4.45
257.323	4.62
257.698	4.56
258.073	4.59
258.448	4.41
258.823	4.38
259.198	4.14
259.573	4
259.948	4.09
260.322	4.18
260.697	4.04
261.072	3.83
261.446	3.71
261.821	3.63
262.195	3.59
262.57	3.62
262.944	3.7
263.319	3.61
263.693	3.67
264.067	3.65
264.442	3.89
264.816	4.02
265.19	4
265.564	3.88
265.938	3.87
266.313	3.96
266.687	3.94
267.061	4.26
267.435	4.2
267.809	4.01
268.183	3.68
268.556	3.83
268.93	3.84
269.304	3.85
269.678	3.92
270.051	3.83
270.425	3.88
270.799	3.83
271.172	3.91
271.546	3.85
271.919	3.87
272.293	3.77
272.666	3.69
273.04	3.67
273.413	3.74
273.787	3.78
274.16	3.83
274.533	3.87
274.906	3.77
275.279	3.91
275.653	3.97
276.026	4.13
276.399	4.05
276.772	4.25
277.145	4.3
277.518	4.25
277.891	4.21
278.263	4.03
278.636	4.05
279.009	3.9
279.382	3.95
279.755	3.9
280.127	3.92
280.5	4.09
280.872	4.05
281.245	4.19
281.617	4.18
281.99	4.15
282.362	4.06
282.735	4
283.107	3.93
283.479	3.94
283.852	3.96
284.224	3.93
284.596	3.88
284.968	3.92
285.34	3.82
285.713	3.88
286.085	3.98
286.457	4.13
286.829	4.15
287.201	4.16
287.572	4.07
287.944	4.04
288.316	3.87
288.688	3.75
289.06	3.58
289.431	3.6
289.803	3.61
290.175	3.71
290.546	3.8
290.918	3.83
291.289	3.91
291.661	3.96
292.032	4.17
292.403	4.15
292.775	4.18
293.146	4.21
293.517	4.17
293.889	4.21
294.26	3.99
294.631	4.03
295.002	4.02
295.373	4.11
295.744	4.09
296.115	4.16
296.486	4.19
296.857	4.31
297.228	4.36
297.599	4.32
297.97	4.3
298.34	4.24
298.711	4.37
299.082	4.25
299.452	4.29
299.823	4.35
300.194	4.36
300.564	4.32
300.935	4.41
301.305	4.48
301.676	4.51
302.046	4.72
302.416	4.91
302.787	4.97
303.157	4.95
303.527	5.03
303.897	5.12
304.267	5.18
304.637	5.18
305.008	5.24
305.378	5.38
305.748	5.54
306.117	5.52
306.487	5.4
306.857	5.55
307.227	5.47
307.597	5.3
307.967	5.4
308.336	5.57
308.706	5.63
309.076	5.61
309.445	5.56
309.815	5.56
310.184	5.43
310.554	5.52
310.923	5.7
311.293	5.7
311.662	5.64
312.031	5.71
312.401	5.79
312.77	5.86
313.139	5.82
313.508	5.81
313.877	5.82
314.246	5.83
314.616	5.72
314.985	5.79
315.353	5.85
315.722	5.82
316.091	5.63
316.46	5.64
316.829	5.78
317.198	5.83
317.567	5.85
317.935	6.02
318.304	6.01
318.672	5.85
319.041	6.03
319.41	6.05
319.778	6.24
320.147	6.27
320.515	6.23
320.883	6.39
321.252	6.48
321.62	6.55
321.988	6.68
322.357	6.93
322.725	6.99
323.093	7.22
323.461	7.25
323.829	7.4
324.197	7.53
324.565	7.54
324.933	7.68
325.301	7.77
325.669	7.77
326.037	7.87
326.405	7.96
326.772	8.02
327.14	8.18
327.508	8
327.875	8.09
328.243	8.11
328.61	8.08
328.978	8.09
329.346	8.1
329.713	8.15
330.08	8.1
330.448	8.01
330.815	7.92
331.182	7.93
331.55	7.93
331.917	7.92
332.284	7.92
332.651	7.91
333.018	7.88
333.385	7.8
333.752	7.81
334.119	7.87
334.486	7.66
334.853	7.59
335.22	7.71
335.587	7.65
335.954	7.62
336.32	7.68
336.687	7.61
337.054	7.69
337.42	7.74
337.787	7.83
338.153	7.96
338.52	7.98
338.886	8.06
339.253	8.1
339.619	8.11
339.986	8.15
340.352	8.15
340.718	8.25
341.084	8.32
341.451	8.32
341.817	8.36
342.183	8.49
342.549	8.57
342.915	8.73
343.281	8.84
343.647	8.78
344.013	8.76
344.379	8.85
344.745	8.95
345.11	9
345.476	9.05
345.842	9.05
346.208	9.05
346.573	9.05
346.939	9.17
347.304	9.16
347.67	9.16
348.035	9.24
348.401	9.14
348.766	9.26
349.132	9.27
349.497	9.24
349.862	9.29
350.228	9.19
350.593	9.14
350.958	9.11
351.323	9.32
351.688	9.31
352.053	9.34
352.418	9.31
352.783	9.23
353.148	9.2
353.513	9.21
353.878	9.24
354.243	9.33
354.608	9.24
354.972	9.21
355.337	9.3
355.702	9.29
356.066	9.4
356.431	9.32
356.795	9.31
357.16	9.34
357.524	9.26
357.889	9.35
358.253	9.31
358.618	9.32
358.982	9.2
359.346	9.22
359.71	9.17
360.075	9.16
360.439	9.24
360.803	9.25
361.167	9.24
361.531	9.22
361.895	9.17
362.259	9.18
362.623	9.18
362.987	9.16
363.351	9.18
363.714	9.21
364.078	9.18
364.442	9.15
364.806	9.15
365.169	9.12
365.533	9.11
365.896	9.11
366.26	9.07
366.623	9.11
366.987	9.17
367.35	9.15
367.714	9.16
368.077	9.15
368.44	9.12
368.803	9.13
369.167	9.07
369.53	9.03
369.893	8.99
370.256	8.99
370.619	8.92
370.982	8.85
371.345	8.78
371.708	8.82
372.071	8.8
372.434	8.76
372.797	8.81
373.159	8.76
373.522	8.73
373.885	8.8
374.247	8.84
374.61	8.8
374.973	8.75
375.335	8.71
375.698	8.63
376.06	8.55
376.423	8.51
376.785	8.55
377.147	8.57
377.51	8.57
377.872	8.57
378.234	8.56
378.596	8.59
378.958	8.54
379.321	8.52
379.683	8.54
380.045	8.5
380.407	8.46
380.769	8.44
381.13	8.45
381.492	8.37
381.854	8.32
382.216	8.24
382.578	8.24
382.939	8.19
383.301	8.16
383.663	8.14
384.024	8.09
384.386	8.13
384.747	8.1
385.109	8.04
385.47	7.98
385.832	7.98
386.193	7.91
386.554	7.9
386.916	7.86
387.277	7.78
387.638	7.8
387.999	7.77
388.36	7.76
388.721	7.72
389.082	7.65
389.443	7.62
389.804	7.61
390.165	7.57
390.526	7.61
390.887	7.6
391.248	7.62
391.609	7.6
391.969	7.52
392.33	7.48
392.691	7.49
393.051	7.43
393.412	7.37
393.772	7.3
394.133	7.23
394.493	7.21
394.854	7.24
395.214	7.19
395.574	7.15
395.935	7.1
396.295	7.08
396.655	7.07
397.015	7
397.376	6.95
397.736	6.91
398.096	6.82
398.456	6.75
398.816	6.69
399.176	6.63
399.535	6.59
399.895	6.55
400.255	6.47
400.615	6.5
400.975	6.48
401.334	6.45
401.694	6.45
402.054	6.39
402.413	6.34
402.773	6.29
403.132	6.23
403.492	6.21
403.851	6.19
404.211	6.16
404.57	6.15
404.929	6.12
405.288	6.1
405.648	6.06
406.007	6.04
406.366	6
406.725	6.01
407.084	6
407.443	6
407.802	6.03
408.161	5.97
408.52	5.96
408.879	5.94
409.238	5.91
409.596	5.91
409.955	5.87
410.314	5.89
410.673	5.88
411.031	5.88
411.39	5.85
411.748	5.81
412.107	5.81
412.465	5.81
412.824	5.78
413.182	5.76
413.54	5.76
413.899	5.79
414.257	5.78
414.615	5.72
414.974	5.67
415.332	5.61
415.69	5.6
416.048	5.58
416.406	5.57
416.764	5.58
417.122	5.57
417.48	5.55
417.838	5.53
418.195	5.53
418.553	5.5
418.911	5.48
419.269	5.48
419.626	5.46
419.984	5.44
420.342	5.43
420.699	5.43
421.057	5.4
421.414	5.37
421.772	5.33
422.129	5.33
422.486	5.34
422.844	5.32
423.201	5.28
423.558	5.25
423.915	5.24
424.273	5.22
424.63	5.19
424.987	5.17
425.344	5.15
425.701	5.12
426.058	5.09
426.415	5.09
426.772	5.06
427.128	5.03
427.485	5
427.842	4.98
428.199	4.97
428.555	4.97
428.912	4.95
429.269	4.96
429.625	4.94
429.982	4.91
430.338	4.92
430.695	4.94
431.051	4.94
431.407	4.91
431.764	4.9
432.12	4.89
432.476	4.87
432.832	4.86
433.189	4.87
433.545	4.88
433.901	4.88
434.257	4.88
434.613	4.88
434.969	4.89
435.325	4.89
435.681	4.87
436.036	4.86
436.392	4.86
436.748	4.85
437.104	4.83
437.459	4.82
437.815	4.82
438.171	4.81
438.526	4.82
438.882	4.84
439.237	4.83
439.593	4.86
439.948	4.87
440.304	4.87
440.659	4.86
441.014	4.84
441.369	4.8
441.725	4.79
442.08	4.78
442.435	4.77
442.79	4.76
443.145	4.75
443.5	4.72
443.855	4.72
444.21	4.72
444.565	4.73
444.92	4.74
445.275	4.73
445.629	4.71
445.984	4.69
446.339	4.67
446.693	4.66
447.048	4.64
447.403	4.62
447.757	4.61
448.112	4.61
448.466	4.6
448.82	4.6
449.175	4.59
449.529	4.6
449.883	4.58
450.238	4.57
450.592	4.57
450.946	4.56
451.3	4.55
451.654	4.53
452.008	4.51
452.362	4.48
452.716	4.48
453.07	4.49
453.424	4.49
453.778	4.49
454.132	4.46
454.486	4.46
454.839	4.46
455.193	4.45
455.547	4.44
455.9	4.45
456.254	4.46
456.607	4.46
456.961	4.45
457.314	4.47
457.668	4.47
458.021	4.48
458.375	4.51
458.728	4.51
459.081	4.52
459.434	4.51
459.787	4.52
460.141	4.51
460.494	4.52
460.847	4.5
461.2	4.5
461.553	4.52
461.906	4.52
462.259	4.53
462.611	4.55
462.964	4.56
463.317	4.56
463.67	4.56
464.022	4.56
464.375	4.56
464.728	4.56
465.08	4.57
465.433	4.58
465.785	4.55
466.138	4.56
466.49	4.56
466.843	4.57
467.195	4.61
467.547	4.63
467.899	4.61
468.252	4.63
468.604	4.64
468.956	4.66
469.308	4.67
469.66	4.68
470.012	4.69
470.364	4.7
470.716	4.71
471.068	4.74
471.42	4.76
471.772	4.81
472.123	4.82
472.475	4.84
472.827	4.84
473.178	4.88
473.53	4.87
473.882	4.87
474.233	4.88
474.585	4.86
474.936	4.87
475.288	4.88
475.639	4.9
475.99	4.91
476.342	4.9
476.693	4.94
477.044	4.94
477.395	4.94
477.746	4.93
478.097	4.94
478.448	4.95
478.8	4.94
479.15	4.91
479.501	4.9
479.852	4.89
480.203	4.9
480.554	4.89
480.905	4.9
481.255	4.9
481.606	4.91
481.957	4.91
482.307	4.9
482.658	4.9
483.009	4.9
483.359	4.9
483.709	4.9
484.06	4.89
484.41	4.89
484.761	4.89
485.111	4.9
485.461	4.89
485.811	4.88
486.162	4.88
486.512	4.88
486.862	4.88
487.212	4.88
487.562	4.88
487.912	4.88
488.262	4.88
488.612	4.89
488.961	4.88
489.311	4.88
489.661	4.89
490.011	4.91
490.36	4.91
490.71	4.91
491.06	4.92
491.409	4.92
491.759	4.93
492.108	4.94
492.458	4.95
492.807	4.96
493.157	4.99
493.506	5
493.855	5.03
494.204	5.05
494.554	5.08
494.903	5.09
495.252	5.12
495.601	5.16
495.95	5.19
496.299	5.21
496.648	5.24
496.997	5.27
497.346	5.31
497.695	5.35
498.043	5.39
498.392	5.43
498.741	5.46
499.09	5.5
499.438	5.54
499.787	5.58
500.135	5.64
500.484	5.67
500.832	5.72
501.181	5.78
501.529	5.83
501.878	5.89
502.226	5.95
502.574	5.99
502.923	6.05
503.271	6.11
503.619	6.18
503.967	6.25
504.315	6.33
504.663	6.37
505.011	6.44
505.359	6.52
505.707	6.57
506.055	6.66
506.403	6.74
506.751	6.83
507.098	6.91
507.446	6.99
507.794	7.07
508.141	7.15
508.489	7.24
508.837	7.34
509.184	7.42
509.531	7.53
509.879	7.65
510.226	7.76
510.574	7.85
510.921	7.94
511.268	8.04
511.616	8.14
511.963	8.25
512.31	8.35
512.657	8.47
513.004	8.59
513.351	8.73
513.698	8.86
514.045	8.99
514.392	9.13
514.739	9.27
515.086	9.44
515.432	9.59
515.779	9.71
516.126	9.84
516.473	9.98
516.819	10.11
517.166	10.23
517.512	10.34
517.859	10.48
518.205	10.61
518.552	10.73
518.898	10.88
519.245	11.02
519.591	11.14
519.937	11.27
520.283	11.4
520.629	11.55
520.976	11.71
521.322	11.88
521.668	12.07
522.014	12.26
522.36	12.42
522.706	12.61
523.052	12.85
523.398	13.09
523.743	13.34
524.089	13.57
524.435	13.8
524.781	14.04
525.126	14.24
525.472	14.43
525.817	14.63
526.163	14.78
526.509	14.93
526.854	15.09
527.199	15.23
527.545	15.37
527.89	15.52
528.235	15.66
528.581	15.81
528.926	15.94
529.271	16.09
529.616	16.26
529.961	16.4
530.306	16.57
530.651	16.73
530.996	16.9
531.341	17.08
531.686	17.28
532.031	17.48
532.376	17.7
532.721	17.91
533.065	18.12
533.41	18.37
533.755	18.61
534.099	18.84
534.444	19.1
534.788	19.35
535.133	19.58
535.477	19.83
535.822	20.08
536.166	20.38
536.51	20.69
536.855	20.98
537.199	21.32
537.543	21.6
537.887	21.94
538.231	22.25
538.576	22.58
538.92	22.89
539.264	23.17
539.608	23.44
539.951	23.73
540.295	23.99
540.639	24.24
540.983	24.47
541.327	24.73
541.671	24.97
542.014	25.2
542.358	25.43
542.701	25.68
543.045	25.91
543.389	26.1
543.732	26.29
544.075	26.55
544.419	26.78
544.762	27.06
545.105	27.32
545.449	27.6
545.792	27.88
546.135	28.17
546.478	28.48
546.821	28.79
547.165	29.09
547.508	29.4
547.851	29.69
548.194	30.01
548.536	30.34
548.879	30.66
549.222	30.94
549.565	31.28
549.908	31.57
550.25	31.87
550.593	32.26
550.936	32.59
551.278	32.92
551.621	33.23
551.963	33.48
552.306	33.75
552.648	34.06
552.991	34.36
553.333	34.6
553.675	34.84
554.017	35.1
554.36	35.35
554.702	35.62
555.044	35.87
555.386	36.17
555.728	36.37
556.07	36.67
556.412	36.95
556.754	37.17
557.096	37.44
557.438	37.72
557.78	37.93
558.121	38.19
558.463	38.42
558.805	38.7
559.147	38.95
559.488	39.12
559.83	39.32
560.171	39.53
560.513	39.79
560.854	39.99
561.196	40.18
561.537	40.4
561.878	40.56
562.22	40.71
562.561	40.82
562.902	40.99
563.243	41.14
563.584	41.36
563.925	41.52
564.266	41.66
564.607	41.83
564.948	41.94
565.289	42.06
565.63	42.16
565.971	42.24
566.312	42.39
566.653	42.59
566.993	42.67
567.334	42.73
567.675	42.85
568.015	43.03
568.356	43.17
568.696	43.35
569.037	43.53
569.377	43.75
569.718	43.95
570.058	44.09
570.398	44.18
570.739	44.25
571.079	44.37
571.419	44.52
571.759	44.6
572.099	44.75
572.439	44.91
572.779	45.01
573.119	45.13
573.459	45.24
573.799	45.38
574.139	45.53
574.479	45.69
574.819	45.79
575.158	45.87
575.498	46.01
575.838	46.1
576.177	46.25
576.517	46.27
576.856	46.35
577.196	46.53
577.535	46.65
577.875	46.75
578.214	46.86
578.553	46.94
578.893	47.1
579.232	47.25
579.571	47.38
579.91	47.52
580.25	47.67
580.589	47.8
580.928	47.84
581.267	47.95
581.606	48.07
581.945	48.14
582.283	48.23
582.622	48.29
582.961	48.26
583.3	48.22
583.639	48.3
583.977	48.42
584.316	48.37
584.654	48.47
584.993	48.59
585.332	48.72
585.67	48.76
586.008	48.77
586.347	48.81
586.685	48.86
587.024	48.89
587.362	48.93
587.7	48.97
588.038	49.08
588.376	49.13
588.715	49.2
589.053	49.34
589.391	49.46
589.729	49.52
590.067	49.65
590.404	49.81
590.742	49.82
591.08	49.87
591.418	49.99
591.756	50.02
592.093	50.12
592.431	50.19
592.769	50.33
593.106	50.4
593.444	50.5
593.781	50.55
594.119	50.69
594.456	50.73
594.793	50.77
595.131	50.76
595.468	50.84
595.805	50.84
596.143	50.83
596.48	50.8
596.817	50.83
597.154	50.94
597.491	50.96
597.828	51.08
598.165	51.07
598.502	51.1
598.839	51.17
599.176	51.16
599.512	51.17
599.849	51.14
600.186	51.17
600.523	51.12
600.859	51.11
601.196	51.11
601.532	51.14
601.869	51.2
602.205	51.26
602.542	51.28
602.878	51.36
603.215	51.39
603.551	51.45
603.887	51.51
604.223	51.46
604.56	51.47
604.896	51.52
605.232	51.63
605.568	51.64
605.904	51.64
606.24	51.68
606.576	51.68
606.912	51.77
607.248	51.83
607.583	51.96
607.919	52.02
608.255	52.06
608.591	52.12
608.926	52.23
609.262	52.25
609.597	52.37
609.933	52.33
610.268	52.3
610.604	52.38
610.939	52.46
611.275	52.57
611.61	52.6
611.945	52.62
612.281	52.59
612.616	52.63
612.951	52.72
613.286	52.79
613.621	52.86
613.956	52.78
614.291	52.86
614.626	52.79
614.961	52.89
615.296	53.01
615.631	53.09
615.966	53.03
616.3	53.13
616.635	53.05
616.97	53.17
617.304	53.32
617.639	53.3
617.973	53.26
618.308	53.17
618.642	53.18
618.977	53.2
619.311	53.27
619.646	53.31
619.98	53.28
620.314	53.36
620.648	53.48
620.983	53.57
621.317	53.57
621.651	53.62
621.985	53.62
622.319	53.46
622.653	53.46
622.987	53.48
623.321	53.48
623.655	53.49
623.988	53.48
624.322	53.43
624.656	53.45
624.99	53.5
625.323	53.57
625.657	53.58
625.99	53.58
626.324	53.55
626.657	53.62
626.991	53.65
627.324	53.65
627.658	53.64
627.991	53.66
628.324	53.62
628.657	53.61
628.991	53.55
629.324	53.68
629.657	53.68
629.99	53.68
630.323	53.67
630.656	53.7
630.989	53.76
631.322	53.83
631.655	53.92
631.987	54
632.32	54.06
632.653	54.09
632.986	54.04
633.318	54.07
633.651	54.08
633.984	54.14
634.316	54.16
634.649	54.2
634.981	54.23
635.313	54.32
635.646	54.49
635.978	54.51
636.31	54.55
636.643	54.55
636.975	54.61
637.307	54.56
637.639	54.55
637.971	54.55
638.303	54.58
638.635	54.53
638.967	54.38
639.299	54.38
639.631	54.39
639.963	54.56
640.295	54.73
640.626	54.74
640.958	54.68
641.29	54.73
641.621	54.68
641.953	54.66
642.285	54.76
642.616	54.61
642.948	54.61
643.279	54.52
643.61	54.54
643.942	54.58
644.273	54.62
644.604	54.62
644.936	54.65
645.267	54.71
645.598	54.81
645.929	54.78
646.26	54.87
646.591	54.85
646.922	54.81
647.253	54.72
647.584	54.81
647.915	54.83
648.245	54.82
648.576	54.83
648.907	54.89
649.238	54.88
649.568	54.9
649.899	55.01
650.229	55.12
650.56	55.08
650.89	55.17
651.221	55.25
651.551	55.37
651.882	55.38
652.212	55.29
652.542	55.23
652.872	55.31
653.203	55.17
653.533	55.24
653.863	55.27
654.193	55.24
654.523	55.14
654.853	55.16
655.183	55.07
655.513	55.13
655.843	55.09
656.172	55.06
656.502	55.14
656.832	55.04
657.162	55.1
657.491	55.14
657.821	55.05
658.15	55.09
658.48	55.05
658.809	55.1
659.139	55.14
659.468	55.09
659.798	55.12
660.127	55.13
660.456	55.17
660.785	55.24
661.115	55.26
661.444	55.28
661.773	55.38
662.102	55.43
662.431	55.39
662.76	55.45
663.089	55.42
663.418	55.34
663.747	55.48
664.076	55.37
664.404	55.48
664.733	55.55
665.062	55.53
665.39	55.53
665.719	55.54
666.048	55.6
666.376	55.67
666.705	55.67
667.033	55.73
