Data from BA56825_Reflection_00005.txt Node
Date: Mon Nov 18 15:37:24 EST 2019
User: vgr7
Spectrometer: USB2G7710
Scans to average: 3
Trigger mode: 4
Integration Time (sec): 2.000000E-2
Electric dark correction enabled: true
Boxcar width: 10
XAxis mode: Wavelengths
Number of Pixels in Spectrum: 2048
>>>>>Begin Spectral Data<<<<<
177.721	-120.14
178.105	-15.28
178.488	25.37
178.871	29.75
179.254	-2.02
179.636	-174.79
180.019	-100.46
180.402	47.27
180.785	263.45
181.168	-264.5
181.55	-6370.59
181.933	255.67
182.316	129.59
182.698	123.6
183.081	160.68
183.463	443.05
183.846	1128.34
184.228	-774.6
184.611	-760.27
184.993	-211.04
185.376	-85.37
185.758	-107.4
186.14	-211.6
186.522	-221.72
186.904	-187.44
187.287	-253.43
187.669	-128.41
188.051	-134.12
188.433	-117.17
188.815	-96.1
189.197	-99.49
189.579	-80.33
189.961	-44.27
190.342	-22.84
190.724	-12.24
191.106	-1.93
191.488	-3.76
191.869	-2.29
192.251	-13.66
192.633	0.21
193.014	-16.8
193.396	-31.11
193.777	-34.01
194.159	-22.31
194.54	-2.05
194.922	14.77
195.303	12.83
195.684	26.14
196.065	31.69
196.447	29.98
196.828	32.01
197.209	31.26
197.59	28.35
197.971	0.87
198.352	-4.9
198.733	-16.01
199.114	-22.9
199.495	-26.97
199.876	-12.07
200.257	-8.01
200.638	-7.3
201.018	0.42
201.399	-10.68
201.78	-3.9
202.16	-7.89
202.541	-25.25
202.922	-43.81
203.302	-59.06
203.683	-71.9
204.063	-75.84
204.444	-64.16
204.824	-57.52
205.204	-55.15
205.585	-51.93
205.965	-41.58
206.345	-49.67
206.725	-46.79
207.106	-61.7
207.486	-82
207.866	-121.8
208.246	-148.91
208.626	-130.16
209.006	-100.31
209.386	-109.83
209.766	-109.21
210.145	-78.87
210.525	-54.39
210.905	-40.79
211.285	-21.93
211.664	-21.8
212.044	-40.68
212.424	-63.63
212.803	-89.47
213.183	-76.15
213.562	-58.37
213.942	-58.28
214.321	-58.03
214.701	-78.28
215.08	-69.42
215.459	-42.03
215.838	-32.67
216.218	-39.22
216.597	-53.11
216.976	-70.37
217.355	-21.6
217.734	2.89
218.113	-2.43
218.492	-32.11
218.871	-29.33
219.25	-40.88
219.629	-38.31
220.008	-38.83
220.387	-31.24
220.766	-33.7
221.144	-41.2
221.523	-56.93
221.902	-50.09
222.28	-42.22
222.659	-21.36
223.037	-15.39
223.416	-22.61
223.794	-32.19
224.173	-28.34
224.551	-19.76
224.929	-13.09
225.308	-15.39
225.686	-21.96
226.064	-23.21
226.442	-21.31
226.821	-17.65
227.199	-13.61
227.577	-11.2
227.955	-6.38
228.333	-3.62
228.711	-2.14
229.089	-0.47
229.467	-1.68
229.845	-2.45
230.222	-2.4
230.6	-4.2
230.978	-3.32
231.356	-0.52
231.733	1.05
232.111	1.47
232.488	2.66
232.866	3.1
233.243	3.25
233.621	4.42
233.998	8.29
234.376	8.43
234.753	8.34
235.13	8.33
235.508	7.75
235.885	6.75
236.262	5.8
236.639	6.21
237.016	6.12
237.393	7.47
237.77	8.72
238.147	8.97
238.524	9.61
238.901	9.69
239.278	9.31
239.655	9.78
240.032	9.67
240.409	8.73
240.785	8.9
241.162	8.74
241.539	8.35
241.915	7.79
242.292	7.8
242.668	7.96
243.045	7.85
243.421	7.78
243.798	7.86
244.174	7.88
244.551	8.04
244.927	7.7
245.303	7.71
245.679	7.5
246.056	7.24
246.432	7.26
246.808	7.33
247.184	6.8
247.56	6.59
247.936	6.56
248.312	6.69
248.688	6.51
249.064	6.46
249.44	6.48
249.815	6.51
250.191	6.68
250.567	6.49
250.943	6.3
251.318	6.45
251.694	6.37
252.069	6.32
252.445	6.27
252.82	6.53
253.196	6.39
253.571	6.59
253.947	7.05
254.322	6.93
254.697	6.5
255.073	6.69
255.448	6.63
255.823	6.95
256.198	7.14
256.573	7.35
256.948	7.54
257.323	7.55
257.698	7.34
258.073	7.07
258.448	7.15
258.823	7.24
259.198	7.26
259.573	7.4
259.948	7.34
260.322	7.3
260.697	7.2
261.072	7.15
261.446	6.93
261.821	6.63
262.195	6.72
262.57	6.66
262.944	6.79
263.319	6.88
263.693	6.73
264.067	6.56
264.442	6.67
264.816	6.58
265.19	6.57
265.564	6.48
265.938	6.5
266.313	6.33
266.687	6.34
267.061	6.34
267.435	6.42
267.809	6.45
268.183	6.53
268.556	6.29
268.93	6.35
269.304	6.55
269.678	6.74
270.051	6.66
270.425	6.7
270.799	6.7
271.172	6.79
271.546	6.66
271.919	6.66
272.293	6.38
272.666	6.44
273.04	6.47
273.413	6.49
273.787	6.53
274.16	6.65
274.533	6.56
274.906	6.41
275.279	6.23
275.653	6.18
276.026	6.02
276.399	6.28
276.772	6.37
277.145	6.42
277.518	6.45
277.891	6.36
278.263	6.51
278.636	6.47
279.009	6.31
279.382	6.35
279.755	6.31
280.127	6.51
280.5	6.55
280.872	6.7
281.245	6.86
281.617	6.95
281.99	6.99
282.362	6.99
282.735	6.96
283.107	6.92
283.479	7.1
283.852	7.09
284.224	7.06
284.596	6.95
284.968	6.9
285.34	6.74
285.713	6.87
286.085	6.95
286.457	6.88
286.829	6.97
287.201	7
287.572	6.88
287.944	6.68
288.316	6.63
288.688	6.51
289.06	6.45
289.431	6.44
289.803	6.51
290.175	6.66
290.546	6.88
290.918	6.98
291.289	6.99
291.661	7.14
292.032	7.34
292.403	7.45
292.775	7.61
293.146	7.69
293.517	7.52
293.889	7.46
294.26	7.66
294.631	7.71
295.002	7.72
295.373	7.97
295.744	8.08
296.115	8.04
296.486	8.01
296.857	8.09
297.228	8.25
297.599	8.2
297.97	8.26
298.34	8.25
298.711	8.25
299.082	8.21
299.452	8.29
299.823	8.24
300.194	8.19
300.564	8.07
300.935	8.28
301.305	8.48
301.676	8.55
302.046	8.55
302.416	8.63
302.787	8.76
303.157	8.75
303.527	8.81
303.897	8.93
304.267	9.23
304.637	9.03
305.008	8.91
305.378	8.95
305.748	8.98
306.117	8.94
306.487	8.94
306.857	8.99
307.227	8.92
307.597	8.96
307.967	9.05
308.336	9.19
308.706	9.18
309.076	9.22
309.445	9.21
309.815	9.15
310.184	9.04
310.554	9.08
310.923	9.16
311.293	9.21
311.662	9.14
312.031	9.02
312.401	9.23
312.77	9.32
313.139	9.34
313.508	9.25
313.877	9.23
314.246	9.32
314.616	9.45
314.985	9.37
315.353	9.27
315.722	9.24
316.091	9.23
316.46	9.15
316.829	9.21
317.198	9.28
317.567	9.42
317.935	9.49
318.304	9.57
318.672	9.39
319.041	9.51
319.41	9.69
319.778	9.79
320.147	9.81
320.515	9.68
320.883	9.58
321.252	9.68
321.62	9.74
321.988	9.71
322.357	9.53
322.725	9.6
323.093	9.74
323.461	9.74
323.829	9.78
324.197	9.9
324.565	9.85
324.933	9.9
325.301	9.89
325.669	9.89
326.037	9.77
326.405	9.95
326.772	9.96
327.14	10.05
327.508	9.9
327.875	9.86
328.243	9.89
328.61	10.04
328.978	10.02
329.346	10.11
329.713	10.07
330.08	10.14
330.448	10.17
330.815	9.99
331.182	10.08
331.55	9.91
331.917	9.83
332.284	9.88
332.651	9.86
333.018	9.75
333.385	9.75
333.752	9.92
334.119	9.94
334.486	9.74
334.853	9.57
335.22	9.62
335.587	9.64
335.954	9.65
336.32	9.66
336.687	9.73
337.054	9.66
337.42	9.68
337.787	9.83
338.153	9.85
338.52	10.07
338.886	9.99
339.253	10.1
339.619	10.09
339.986	9.96
340.352	9.95
340.718	9.97
341.084	9.96
341.451	9.9
341.817	9.83
342.183	9.98
342.549	10.09
342.915	10.15
343.281	10.21
343.647	10.21
344.013	10.13
344.379	10.07
344.745	10.14
345.11	10.2
345.476	10.16
345.842	10.16
346.208	10.07
346.573	10.13
346.939	10.18
347.304	10.13
347.67	10.16
348.035	10.02
348.401	10.04
348.766	10.05
349.132	10.03
349.497	10.01
349.862	9.99
350.228	9.95
350.593	9.98
350.958	9.91
351.323	9.91
351.688	9.92
352.053	9.94
352.418	10.05
352.783	9.98
353.148	9.88
353.513	9.91
353.878	9.99
354.243	10.08
354.608	10
354.972	10.05
355.337	10.11
355.702	10.3
356.066	10.32
356.431	10.3
356.795	10.33
357.16	10.35
357.524	10.28
357.889	10.2
358.253	10.29
358.618	10.35
358.982	10.39
359.346	10.38
359.71	10.44
360.075	10.36
360.439	10.47
360.803	10.49
361.167	10.42
361.531	10.36
361.895	10.24
362.259	10.26
362.623	10.25
362.987	10.21
363.351	10.16
363.714	10.11
364.078	10.13
364.442	10.03
364.806	9.99
365.169	10.01
365.533	10.1
365.896	9.94
366.26	9.88
366.623	9.87
366.987	9.86
367.35	9.83
367.714	9.8
368.077	9.68
368.44	9.69
368.803	9.69
369.167	9.67
369.53	9.7
369.893	9.71
370.256	9.78
370.619	9.77
370.982	9.72
371.345	9.77
371.708	9.75
372.071	9.78
372.434	9.79
372.797	9.81
373.159	9.79
373.522	9.83
373.885	9.84
374.247	9.8
374.61	9.83
374.973	9.76
375.335	9.78
375.698	9.79
376.06	9.74
376.423	9.81
376.785	9.82
377.147	9.8
377.51	9.83
377.872	9.8
378.234	9.82
378.596	9.91
378.958	9.91
379.321	9.91
379.683	9.96
380.045	9.95
380.407	9.93
380.769	9.93
381.13	9.94
381.492	9.95
381.854	9.96
382.216	9.92
382.578	9.97
382.939	9.9
383.301	9.91
383.663	9.93
384.024	9.89
384.386	9.95
384.747	10.01
385.109	9.97
385.47	9.95
385.832	9.97
386.193	9.93
386.554	9.95
386.916	9.93
387.277	9.93
387.638	9.94
387.999	9.94
388.36	9.9
388.721	9.93
389.082	9.92
389.443	9.9
389.804	9.9
390.165	9.87
390.526	9.88
390.887	9.89
391.248	9.89
391.609	9.93
391.969	9.92
392.33	9.88
392.691	9.88
393.051	9.88
393.412	9.86
393.772	9.81
394.133	9.79
394.493	9.84
394.854	9.81
395.214	9.8
395.574	9.83
395.935	9.84
396.295	9.84
396.655	9.84
397.015	9.88
397.376	9.89
397.736	9.93
398.096	9.95
398.456	9.95
398.816	9.94
399.176	9.89
399.535	9.83
399.895	9.8
400.255	9.76
400.615	9.74
400.975	9.73
401.334	9.75
401.694	9.74
402.054	9.7
402.413	9.68
402.773	9.66
403.132	9.62
403.492	9.61
403.851	9.6
404.211	9.58
404.57	9.54
404.929	9.54
405.288	9.49
405.648	9.51
406.007	9.5
406.366	9.47
406.725	9.47
407.084	9.5
407.443	9.51
407.802	9.56
408.161	9.54
408.52	9.52
408.879	9.54
409.238	9.56
409.596	9.57
409.955	9.61
410.314	9.63
410.673	9.62
411.031	9.61
411.39	9.59
411.748	9.59
412.107	9.59
412.465	9.57
412.824	9.6
413.182	9.58
413.54	9.59
413.899	9.63
414.257	9.62
414.615	9.65
414.974	9.64
415.332	9.61
415.69	9.63
416.048	9.63
416.406	9.59
416.764	9.59
417.122	9.55
417.48	9.5
417.838	9.51
418.195	9.52
418.553	9.54
418.911	9.53
419.269	9.55
419.626	9.56
419.984	9.57
420.342	9.57
420.699	9.56
421.057	9.54
421.414	9.52
421.772	9.54
422.129	9.52
422.486	9.51
422.844	9.52
423.201	9.5
423.558	9.49
423.915	9.49
424.273	9.49
424.63	9.5
424.987	9.52
425.344	9.5
425.701	9.52
426.058	9.51
426.415	9.51
426.772	9.47
427.128	9.46
427.485	9.46
427.842	9.44
428.199	9.44
428.555	9.43
428.912	9.44
429.269	9.43
429.625	9.41
429.982	9.43
430.338	9.4
430.695	9.42
431.051	9.43
431.407	9.44
431.764	9.41
432.12	9.4
432.476	9.42
432.832	9.41
433.189	9.4
433.545	9.37
433.901	9.37
434.257	9.36
434.613	9.37
434.969	9.37
435.325	9.36
435.681	9.34
436.036	9.35
436.392	9.35
436.748	9.35
437.104	9.37
437.459	9.36
437.815	9.4
438.171	9.41
438.526	9.41
438.882	9.43
439.237	9.44
439.593	9.47
439.948	9.46
440.304	9.46
440.659	9.46
441.014	9.49
441.369	9.48
441.725	9.49
442.08	9.5
442.435	9.5
442.79	9.5
443.145	9.5
443.5	9.49
443.855	9.47
444.21	9.47
444.565	9.46
444.92	9.47
445.275	9.44
445.629	9.43
445.984	9.41
446.339	9.37
446.693	9.36
447.048	9.35
447.403	9.34
447.757	9.32
448.112	9.29
448.466	9.28
448.82	9.28
449.175	9.3
449.529	9.26
449.883	9.23
450.238	9.24
450.592	9.24
450.946	9.26
451.3	9.26
451.654	9.25
452.008	9.24
452.362	9.21
452.716	9.21
453.07	9.22
453.424	9.22
453.778	9.24
454.132	9.23
454.486	9.22
454.839	9.2
455.193	9.2
455.547	9.23
455.9	9.25
456.254	9.25
456.607	9.22
456.961	9.26
457.314	9.28
457.668	9.28
458.021	9.29
458.375	9.28
458.728	9.28
459.081	9.28
459.434	9.3
459.787	9.32
460.141	9.33
460.494	9.32
460.847	9.32
461.2	9.32
461.553	9.33
461.906	9.33
462.259	9.35
462.611	9.37
462.964	9.38
463.317	9.37
463.67	9.38
464.022	9.38
464.375	9.36
464.728	9.36
465.08	9.36
465.433	9.37
465.785	9.37
466.138	9.39
466.49	9.39
466.843	9.37
467.195	9.37
467.547	9.38
467.899	9.39
468.252	9.41
468.604	9.43
468.956	9.44
469.308	9.44
469.66	9.43
470.012	9.42
470.364	9.4
470.716	9.42
471.068	9.42
471.42	9.44
471.772	9.47
472.123	9.48
472.475	9.48
472.827	9.49
473.178	9.51
473.53	9.49
473.882	9.52
474.233	9.54
474.585	9.54
474.936	9.53
475.288	9.56
475.639	9.55
475.99	9.56
476.342	9.55
476.693	9.57
477.044	9.56
477.395	9.57
477.746	9.6
478.097	9.59
478.448	9.59
478.8	9.56
479.15	9.56
479.501	9.56
479.852	9.57
480.203	9.56
480.554	9.58
480.905	9.61
481.255	9.61
481.606	9.61
481.957	9.62
482.307	9.63
482.658	9.62
483.009	9.64
483.359	9.64
483.709	9.65
484.06	9.66
484.41	9.66
484.761	9.67
485.111	9.68
485.461	9.68
485.811	9.68
486.162	9.69
486.512	9.71
486.862	9.72
487.212	9.73
487.562	9.74
487.912	9.74
488.262	9.74
488.612	9.74
488.961	9.74
489.311	9.75
489.661	9.76
490.011	9.76
490.36	9.75
490.71	9.77
491.06	9.78
491.409	9.77
491.759	9.78
492.108	9.79
492.458	9.79
492.807	9.8
493.157	9.81
493.506	9.82
493.855	9.81
494.204	9.8
494.554	9.82
494.903	9.82
495.252	9.81
495.601	9.82
495.95	9.85
496.299	9.84
496.648	9.84
496.997	9.85
497.346	9.88
497.695	9.9
498.043	9.91
498.392	9.92
498.741	9.93
499.09	9.92
499.438	9.93
499.787	9.95
500.135	9.96
500.484	9.98
500.832	10
501.181	10.02
501.529	10.08
501.878	10.07
502.226	10.09
502.574	10.12
502.923	10.12
503.271	10.12
503.619	10.16
503.967	10.19
504.315	10.19
504.663	10.2
505.011	10.2
505.359	10.21
505.707	10.23
506.055	10.24
506.403	10.27
506.751	10.3
507.098	10.31
507.446	10.36
507.794	10.38
508.141	10.41
508.489	10.42
508.837	10.43
509.184	10.44
509.531	10.47
509.879	10.49
510.226	10.54
510.574	10.55
510.921	10.55
511.268	10.54
511.616	10.55
511.963	10.55
512.31	10.58
512.657	10.6
513.004	10.63
513.351	10.65
513.698	10.66
514.045	10.66
514.392	10.67
514.739	10.67
515.086	10.7
515.432	10.69
515.779	10.7
516.126	10.71
516.473	10.7
516.819	10.7
517.166	10.71
517.512	10.7
517.859	10.72
518.205	10.73
518.552	10.76
518.898	10.77
519.245	10.79
519.591	10.78
519.937	10.77
520.283	10.79
520.629	10.79
520.976	10.78
521.322	10.79
521.668	10.8
522.014	10.81
522.36	10.81
522.706	10.82
523.052	10.85
523.398	10.86
523.743	10.9
524.089	10.94
524.435	10.96
524.781	10.99
525.126	11.01
525.472	11.03
525.817	11.07
526.163	11.07
526.509	11.09
526.854	11.12
527.199	11.13
527.545	11.11
527.89	11.12
528.235	11.14
528.581	11.14
528.926	11.16
529.271	11.15
529.616	11.17
529.961	11.17
530.306	11.17
530.651	11.18
530.996	11.2
531.341	11.19
531.686	11.2
532.031	11.19
532.376	11.19
532.721	11.19
533.065	11.19
533.41	11.19
533.755	11.19
534.099	11.19
534.444	11.21
534.788	11.24
535.133	11.26
535.477	11.26
535.822	11.26
536.166	11.27
536.51	11.3
536.855	11.31
537.199	11.33
537.543	11.34
537.887	11.34
538.231	11.33
538.576	11.34
538.92	11.36
539.264	11.37
539.608	11.39
539.951	11.42
540.295	11.4
540.639	11.42
540.983	11.43
541.327	11.41
541.671	11.39
542.014	11.39
542.358	11.41
542.701	11.43
543.045	11.43
543.389	11.42
543.732	11.41
544.075	11.42
544.419	11.43
544.762	11.43
545.105	11.45
545.449	11.46
545.792	11.47
546.135	11.46
546.478	11.45
546.821	11.46
547.165	11.43
547.508	11.43
547.851	11.44
548.194	11.44
548.536	11.46
548.879	11.49
549.222	11.5
549.565	11.48
549.908	11.51
550.25	11.54
550.593	11.54
550.936	11.54
551.278	11.52
551.621	11.52
551.963	11.57
552.306	11.54
552.648	11.53
552.991	11.55
553.333	11.56
553.675	11.58
554.017	11.58
554.36	11.63
554.702	11.65
555.044	11.62
555.386	11.66
555.728	11.66
556.07	11.7
556.412	11.71
556.754	11.73
557.096	11.71
557.438	11.73
557.78	11.75
558.121	11.75
558.463	11.76
558.805	11.76
559.147	11.74
559.488	11.73
559.83	11.75
560.171	11.76
560.513	11.78
560.854	11.77
561.196	11.77
561.537	11.77
561.878	11.78
562.22	11.78
562.561	11.74
562.902	11.74
563.243	11.7
563.584	11.7
563.925	11.7
564.266	11.7
564.607	11.69
564.948	11.72
565.289	11.76
565.63	11.79
565.971	11.76
566.312	11.74
566.653	11.75
566.993	11.76
567.334	11.73
567.675	11.71
568.015	11.76
568.356	11.76
568.696	11.74
569.037	11.74
569.377	11.77
569.718	11.8
570.058	11.81
570.398	11.86
570.739	11.87
571.079	11.88
571.419	11.86
571.759	11.88
572.099	11.88
572.439	11.88
572.779	11.89
573.119	11.92
573.459	11.94
573.799	11.96
574.139	11.96
574.479	11.97
574.819	11.95
575.158	11.9
575.498	11.87
575.838	11.89
576.177	11.89
576.517	11.87
576.856	11.87
577.196	11.89
577.535	11.87
577.875	11.86
578.214	11.85
578.553	11.89
578.893	11.87
579.232	11.87
579.571	11.88
579.91	11.85
580.25	11.88
580.589	11.86
580.928	11.83
581.267	11.87
581.606	11.87
581.945	11.91
582.283	11.97
582.622	12
582.961	12.01
583.3	11.99
583.639	12.04
583.977	12.02
584.316	12
584.654	12
584.993	12
585.332	12
585.67	11.99
586.008	11.99
586.347	11.96
586.685	11.94
587.024	11.96
587.362	11.95
587.7	11.97
588.038	12.02
588.376	12
588.715	12.04
589.053	12.08
589.391	12.07
589.729	12.08
590.067	12.04
590.404	12.09
590.742	12.07
591.08	12.07
591.418	12.11
591.756	12.08
592.093	12.06
592.431	12.06
592.769	12.07
593.106	12.09
593.444	12.09
593.781	12.11
594.119	12.12
594.456	12.12
594.793	12.11
595.131	12.12
595.468	12.12
595.805	12.11
596.143	12.06
596.48	12.08
596.817	12.05
597.154	12.11
597.491	12.1
597.828	12.1
598.165	12.12
598.502	12.08
598.839	12.12
599.176	12.13
599.512	12.17
599.849	12.16
600.186	12.18
600.523	12.2
600.859	12.25
601.196	12.24
601.532	12.23
601.869	12.24
602.205	12.21
602.542	12.24
602.878	12.24
603.215	12.26
603.551	12.26
603.887	12.29
604.223	12.31
604.56	12.33
604.896	12.31
605.232	12.31
605.568	12.35
605.904	12.33
606.24	12.36
606.576	12.32
606.912	12.33
607.248	12.34
607.583	12.37
607.919	12.31
608.255	12.3
608.591	12.33
608.926	12.32
609.262	12.36
609.597	12.31
609.933	12.33
610.268	12.34
610.604	12.33
610.939	12.32
611.275	12.33
611.61	12.34
611.945	12.34
612.281	12.32
612.616	12.36
612.951	12.42
613.286	12.4
613.621	12.43
613.956	12.44
614.291	12.41
614.626	12.4
614.961	12.4
615.296	12.44
615.631	12.51
615.966	12.52
616.3	12.45
616.635	12.51
616.97	12.5
617.304	12.49
617.639	12.52
617.973	12.53
618.308	12.49
618.642	12.47
618.977	12.49
619.311	12.49
619.646	12.45
619.98	12.4
620.314	12.44
620.648	12.47
620.983	12.5
621.317	12.56
621.651	12.57
621.985	12.59
622.319	12.62
622.653	12.58
622.987	12.62
623.321	12.68
623.655	12.69
623.988	12.74
624.322	12.74
624.656	12.75
624.99	12.82
625.323	12.85
625.657	12.8
625.99	12.83
626.324	12.82
626.657	12.83
626.991	12.88
627.324	12.86
627.658	12.87
627.991	12.86
628.324	12.82
628.657	12.8
628.991	12.76
629.324	12.73
629.657	12.73
629.99	12.75
630.323	12.69
630.656	12.66
630.989	12.72
631.322	12.72
631.655	12.7
631.987	12.59
632.32	12.59
632.653	12.66
632.986	12.63
633.318	12.68
633.651	12.7
633.984	12.66
634.316	12.65
634.649	12.59
634.981	12.54
635.313	12.53
635.646	12.5
635.978	12.57
636.31	12.54
636.643	12.52
636.975	12.46
637.307	12.51
637.639	12.55
637.971	12.47
638.303	12.49
638.635	12.44
638.967	12.53
639.299	12.49
639.631	12.45
639.963	12.45
640.295	12.45
640.626	12.43
640.958	12.45
641.29	12.49
641.621	12.49
641.953	12.59
642.285	12.59
642.616	12.7
642.948	12.68
643.279	12.63
643.61	12.65
643.942	12.65
644.273	12.69
644.604	12.67
644.936	12.6
645.267	12.63
645.598	12.67
645.929	12.69
646.26	12.77
646.591	12.74
646.922	12.71
647.253	12.67
647.584	12.59
647.915	12.62
648.245	12.65
648.576	12.7
648.907	12.69
649.238	12.72
649.568	12.68
649.899	12.63
650.229	12.79
650.56	12.79
650.89	12.81
651.221	12.79
651.551	12.83
651.882	12.84
652.212	12.81
652.542	12.76
652.872	12.69
653.203	12.59
653.533	12.66
653.863	12.74
654.193	12.84
654.523	12.97
654.853	12.98
655.183	12.94
655.513	12.94
655.843	12.93
656.172	12.91
656.502	12.92
656.832	12.99
657.162	12.98
657.491	12.99
657.821	12.98
658.15	13.02
658.48	13.03
658.809	13.03
659.139	13.02
659.468	13.1
659.798	13.12
660.127	13.19
660.456	13.21
660.785	13.21
661.115	13.18
661.444	13.2
661.773	13.18
662.102	13.18
662.431	13.19
662.76	13.17
663.089	13.23
663.418	13.17
663.747	13.18
664.076	13.11
664.404	13.14
