Data from BA56825_Reflection_00007.txt Node
Date: Mon Nov 18 15:37:30 EST 2019
User: vgr7
Spectrometer: USB2G7710
Scans to average: 3
Trigger mode: 4
Integration Time (sec): 2.000000E-2
Electric dark correction enabled: true
Boxcar width: 10
XAxis mode: Wavelengths
Number of Pixels in Spectrum: 2048
>>>>>Begin Spectral Data<<<<<
177.721	205.39
178.105	51.74
178.488	60.7
178.871	118.6
179.254	108.66
179.636	137.19
180.019	284.51
180.402	25.45
180.785	-47.1
181.168	-71.76
181.55	1688.24
181.933	91.13
182.316	52.74
182.698	64.61
183.081	87
183.463	197.77
183.846	257.89
184.228	-121.86
184.611	-171.23
184.993	-90.98
185.376	-60.69
185.758	-61.02
186.14	-121
186.522	-93.48
186.904	-43.17
187.287	-130.39
187.669	-49.38
188.051	-62.88
188.433	-45.34
188.815	-44.68
189.197	-32.14
189.579	-37.07
189.961	-42.77
190.342	-40.15
190.724	-36.05
191.106	-40.75
191.488	-48.27
191.869	-57.12
192.251	-73.09
192.633	-51.78
193.014	-60.07
193.396	-73.78
193.777	-74.48
194.159	-60.8
194.54	-55.05
194.922	-62.29
195.303	-63.29
195.684	-60.99
196.065	-28.64
196.447	-25.7
196.828	-31.43
197.209	-39.5
197.59	-40.92
197.971	-35.33
198.352	-22.33
198.733	-24.75
199.114	-21.1
199.495	-15.17
199.876	-9.41
200.257	-4.66
200.638	-4.79
201.018	-4.38
201.399	-9.84
201.78	-4.97
202.16	-14.09
202.541	-30.91
202.922	-52.52
203.302	-43.54
203.683	-55.23
204.063	-87.03
204.444	-74.53
204.824	-54.27
205.204	-53.03
205.585	-50.96
205.965	-50.15
206.345	-78.91
206.725	-94.23
207.106	-115.11
207.486	-123.27
207.866	-138.13
208.246	-181.48
208.626	-165.85
209.006	-104.4
209.386	-98.73
209.766	-97.94
210.145	-62.93
210.525	-39.55
210.905	-25.89
211.285	-23.51
211.664	-16.69
212.044	-3.86
212.424	6.7
212.803	-19.36
213.183	5.43
213.562	4.42
213.942	5.8
214.321	24.74
214.701	26.38
215.08	42.35
215.459	38.31
215.838	39.24
216.218	16.64
216.597	41.48
216.976	50.34
217.355	52.96
217.734	56.09
218.113	68.81
218.492	70.16
218.871	66.11
219.25	32.64
219.629	40.6
220.008	54.27
220.387	33.87
220.766	38.44
221.144	29.63
221.523	18.02
221.902	8.85
222.28	2.3
222.659	19.62
223.037	9.13
223.416	27.57
223.794	16.05
224.173	22.53
224.551	17.65
224.929	9.04
225.308	12.73
225.686	10.65
226.064	3.51
226.442	-0.48
226.821	2.83
227.199	8.01
227.577	9.14
227.955	6.56
228.333	3.85
228.711	3.71
229.089	7.33
229.467	7.26
229.845	7.62
230.222	7.45
230.6	6.69
230.978	8.1
231.356	8.24
231.733	9.55
232.111	9.39
232.488	10.59
232.866	12.25
233.243	11.16
233.621	9.2
233.998	10.47
234.376	9.95
234.753	8.78
235.13	8.3
235.508	7.12
235.885	6.44
236.262	6.91
236.639	6.59
237.016	4.04
237.393	4.8
237.77	5.61
238.147	6.06
238.524	6.42
238.901	6.52
239.278	5
239.655	4.98
240.032	4.99
240.409	4.16
240.785	4.33
241.162	4.53
241.539	5.23
241.915	5.14
242.292	5.23
242.668	5.5
243.045	5.52
243.421	5.45
243.798	5.76
244.174	5.73
244.551	5.71
244.927	5.85
245.303	5.84
245.679	5.75
246.056	5.64
246.432	5.38
246.808	5.62
247.184	5.62
247.56	5.49
247.936	5.29
248.312	5.48
248.688	5.59
249.064	5.48
249.44	5.4
249.815	5.42
250.191	5.72
250.567	5.67
250.943	5.71
251.318	5.92
251.694	5.71
252.069	5.56
252.445	5.59
252.82	5.57
253.196	5.67
253.571	5.6
253.947	5.72
254.322	6.08
254.697	5.59
255.073	5.47
255.448	5.56
255.823	5.8
256.198	5.85
256.573	5.47
256.948	5.61
257.323	5.65
257.698	5.59
258.073	5.3
258.448	5.19
258.823	5.15
259.198	4.97
259.573	4.99
259.948	5.17
260.322	5.32
260.697	5.4
261.072	5.28
261.446	5.23
261.821	5.1
262.195	4.98
262.57	5.01
262.944	5.11
263.319	4.97
263.693	4.94
264.067	4.89
264.442	4.95
264.816	4.95
265.19	4.98
265.564	5.09
265.938	5.07
266.313	5.28
266.687	5.44
267.061	5.63
267.435	5.74
267.809	5.53
268.183	5.23
268.556	5.12
268.93	5.14
269.304	5.11
269.678	5.14
270.051	5.1
270.425	5.13
270.799	5.15
271.172	5.26
271.546	5.16
271.919	5.05
272.293	5.05
272.666	4.92
273.04	4.84
273.413	4.74
273.787	4.79
274.16	4.63
274.533	4.54
274.906	4.42
275.279	4.48
275.653	4.5
276.026	4.45
276.399	4.47
276.772	4.6
277.145	4.54
277.518	4.63
277.891	4.71
278.263	4.58
278.636	4.49
279.009	4.6
279.382	4.79
279.755	4.78
280.127	4.88
280.5	4.88
280.872	5
281.245	4.94
281.617	4.93
281.99	5.03
282.362	5.05
282.735	4.98
283.107	4.82
283.479	4.89
283.852	5.08
284.224	5.13
284.596	4.93
284.968	5.03
285.34	5.05
285.713	5.05
286.085	5.16
286.457	5.26
286.829	5.2
287.201	5.16
287.572	5.18
287.944	5.08
288.316	5.07
288.688	5
289.06	5.03
289.431	5.08
289.803	5.11
290.175	5.03
290.546	5.17
290.918	5.29
291.289	5.36
291.661	5.37
292.032	5.26
292.403	5.44
292.775	5.45
293.146	5.43
293.517	5.36
293.889	5.41
294.26	5.47
294.631	5.43
295.002	5.43
295.373	5.48
295.744	5.52
296.115	5.59
296.486	5.59
296.857	5.66
297.228	5.75
297.599	5.64
297.97	5.72
298.34	5.85
298.711	5.86
299.082	5.8
299.452	5.78
299.823	5.93
300.194	5.91
300.564	5.86
300.935	5.91
301.305	5.95
301.676	5.92
302.046	5.96
302.416	6.07
302.787	6.07
303.157	6.09
303.527	6.1
303.897	6.16
304.267	6.28
304.637	6.38
305.008	6.27
305.378	6.59
305.748	6.59
306.117	6.48
306.487	6.56
306.857	6.68
307.227	6.68
307.597	6.7
307.967	6.81
308.336	6.99
308.706	6.94
309.076	6.96
309.445	6.98
309.815	6.86
310.184	6.89
310.554	7.06
310.923	7.15
311.293	7.27
311.662	7.32
312.031	7.33
312.401	7.26
312.77	7.44
313.139	7.38
313.508	7.45
313.877	7.46
314.246	7.4
314.616	7.44
314.985	7.57
315.353	7.7
315.722	7.86
316.091	7.83
316.46	7.95
316.829	8.04
317.198	8.21
317.567	8.32
317.935	8.46
318.304	8.39
318.672	8.39
319.041	8.42
319.41	8.51
319.778	8.54
320.147	8.64
320.515	8.68
320.883	8.62
321.252	8.68
321.62	8.78
321.988	8.85
322.357	8.71
322.725	8.63
323.093	8.59
323.461	8.49
323.829	8.67
324.197	8.77
324.565	8.88
324.933	8.91
325.301	8.99
325.669	8.98
326.037	9.03
326.405	9.08
326.772	9.24
327.14	9.44
327.508	9.47
327.875	9.5
328.243	9.44
328.61	9.49
328.978	9.64
329.346	9.69
329.713	9.71
330.08	9.86
330.448	9.92
330.815	9.9
331.182	9.91
331.55	9.92
331.917	9.97
332.284	10.14
332.651	10.09
333.018	10.08
333.385	10.15
333.752	10.31
334.119	10.44
334.486	10.31
334.853	10.08
335.22	10.05
335.587	10.09
335.954	10.09
336.32	10.06
336.687	10.05
337.054	10.01
337.42	10.17
337.787	10.2
338.153	10.28
338.52	10.34
338.886	10.31
339.253	10.29
339.619	10.34
339.986	10.14
340.352	10.18
340.718	10.25
341.084	10.18
341.451	10.15
341.817	10.08
342.183	10.15
342.549	10.21
342.915	10.36
343.281	10.43
343.647	10.5
344.013	10.61
344.379	10.51
344.745	10.6
345.11	10.55
345.476	10.52
345.842	10.58
346.208	10.57
346.573	10.74
346.939	10.77
347.304	10.7
347.67	10.78
348.035	10.82
348.401	10.79
348.766	10.9
349.132	10.8
349.497	10.85
349.862	10.91
350.228	11.04
350.593	10.95
350.958	10.9
351.323	10.86
351.688	10.88
352.053	10.93
352.418	10.94
352.783	10.87
353.148	10.93
353.513	10.89
353.878	11.02
354.243	10.93
354.608	10.86
354.972	10.85
355.337	10.84
355.702	10.82
356.066	10.87
356.431	10.78
356.795	10.85
357.16	10.72
357.524	10.6
357.889	10.46
358.253	10.51
358.618	10.45
358.982	10.44
359.346	10.37
359.71	10.33
360.075	10.29
360.439	10.29
360.803	10.19
361.167	10.13
361.531	9.99
361.895	9.91
362.259	9.82
362.623	9.84
362.987	9.79
363.351	9.76
363.714	9.66
364.078	9.62
364.442	9.54
364.806	9.59
365.169	9.52
365.533	9.49
365.896	9.42
366.26	9.34
366.623	9.22
366.987	9.13
367.35	9.09
367.714	9.06
368.077	8.98
368.44	8.97
368.803	8.86
369.167	8.84
369.53	8.76
369.893	8.79
370.256	8.7
370.619	8.68
370.982	8.54
371.345	8.51
371.708	8.43
372.071	8.28
372.434	8.21
372.797	8.19
373.159	8.11
373.522	8.03
373.885	8.05
374.247	8.06
374.61	8.09
374.973	8.02
375.335	7.93
375.698	7.88
376.06	7.82
376.423	7.81
376.785	7.75
377.147	7.77
377.51	7.72
377.872	7.67
378.234	7.54
378.596	7.57
378.958	7.48
379.321	7.45
379.683	7.48
380.045	7.38
380.407	7.37
380.769	7.34
381.13	7.29
381.492	7.22
381.854	7.17
382.216	7.05
382.578	6.98
382.939	6.97
383.301	6.93
383.663	6.86
384.024	6.78
384.386	6.83
384.747	6.8
385.109	6.76
385.47	6.65
385.832	6.66
386.193	6.63
386.554	6.6
386.916	6.58
387.277	6.57
387.638	6.59
387.999	6.49
388.36	6.45
388.721	6.44
389.082	6.43
389.443	6.36
389.804	6.32
390.165	6.3
390.526	6.29
390.887	6.22
391.248	6.26
391.609	6.25
391.969	6.17
392.33	6.09
392.691	6.07
393.051	6.04
393.412	6
393.772	5.92
394.133	5.89
394.493	5.87
394.854	5.79
395.214	5.73
395.574	5.71
395.935	5.66
396.295	5.61
396.655	5.57
397.015	5.56
397.376	5.51
397.736	5.47
398.096	5.38
398.456	5.39
398.816	5.3
399.176	5.24
399.535	5.17
399.895	5.15
400.255	5.14
400.615	5.12
400.975	5.1
401.334	5.09
401.694	5.09
402.054	5.05
402.413	5.05
402.773	5.01
403.132	5
403.492	4.99
403.851	4.98
404.211	4.95
404.57	4.89
404.929	4.91
405.288	4.91
405.648	4.89
406.007	4.84
406.366	4.81
406.725	4.83
407.084	4.84
407.443	4.83
407.802	4.78
408.161	4.75
408.52	4.72
408.879	4.71
409.238	4.67
409.596	4.65
409.955	4.62
410.314	4.62
410.673	4.6
411.031	4.55
411.39	4.52
411.748	4.5
412.107	4.54
412.465	4.51
412.824	4.51
413.182	4.47
413.54	4.47
413.899	4.51
414.257	4.47
414.615	4.47
414.974	4.45
415.332	4.45
415.69	4.45
416.048	4.44
416.406	4.44
416.764	4.41
417.122	4.44
417.48	4.41
417.838	4.39
418.195	4.39
418.553	4.4
418.911	4.39
419.269	4.38
419.626	4.36
419.984	4.33
420.342	4.3
420.699	4.29
421.057	4.28
421.414	4.24
421.772	4.25
422.129	4.23
422.486	4.22
422.844	4.21
423.201	4.19
423.558	4.19
423.915	4.16
424.273	4.16
424.63	4.13
424.987	4.11
425.344	4.11
425.701	4.09
426.058	4.09
426.415	4.08
426.772	4.07
427.128	4.07
427.485	4.07
427.842	4.06
428.199	4.07
428.555	4.07
428.912	4.08
429.269	4.05
429.625	4.03
429.982	4.02
430.338	4
430.695	4
431.051	3.98
431.407	3.99
431.764	3.97
432.12	3.97
432.476	3.97
432.832	3.95
433.189	3.96
433.545	3.95
433.901	3.93
434.257	3.92
434.613	3.92
434.969	3.95
435.325	3.95
435.681	3.94
436.036	3.92
436.392	3.9
436.748	3.91
437.104	3.92
437.459	3.92
437.815	3.93
438.171	3.93
438.526	3.91
438.882	3.9
439.237	3.91
439.593	3.92
439.948	3.91
440.304	3.91
440.659	3.92
441.014	3.91
441.369	3.91
441.725	3.9
442.08	3.88
442.435	3.86
442.79	3.85
443.145	3.85
443.5	3.84
443.855	3.83
444.21	3.82
444.565	3.82
444.92	3.82
445.275	3.8
445.629	3.81
445.984	3.82
446.339	3.81
446.693	3.79
447.048	3.77
447.403	3.76
447.757	3.75
448.112	3.74
448.466	3.73
448.82	3.73
449.175	3.73
449.529	3.72
449.883	3.71
450.238	3.71
450.592	3.72
450.946	3.72
451.3	3.74
451.654	3.73
452.008	3.71
452.362	3.68
452.716	3.69
453.07	3.69
453.424	3.68
453.778	3.7
454.132	3.69
454.486	3.69
454.839	3.71
455.193	3.69
455.547	3.69
455.9	3.7
456.254	3.71
456.607	3.71
456.961	3.7
457.314	3.71
457.668	3.7
458.021	3.69
458.375	3.69
458.728	3.67
459.081	3.68
459.434	3.68
459.787	3.7
460.141	3.7
460.494	3.66
460.847	3.67
461.2	3.67
461.553	3.66
461.906	3.67
462.259	3.69
462.611	3.7
462.964	3.71
463.317	3.71
463.67	3.72
464.022	3.72
464.375	3.72
464.728	3.72
465.08	3.74
465.433	3.73
465.785	3.74
466.138	3.77
466.49	3.78
466.843	3.79
467.195	3.77
467.547	3.79
467.899	3.83
468.252	3.84
468.604	3.84
468.956	3.86
469.308	3.86
469.66	3.83
470.012	3.85
470.364	3.86
470.716	3.86
471.068	3.87
471.42	3.85
471.772	3.87
472.123	3.88
472.475	3.87
472.827	3.9
473.178	3.9
473.53	3.89
473.882	3.91
474.233	3.91
474.585	3.92
474.936	3.9
475.288	3.89
475.639	3.9
475.99	3.89
476.342	3.87
476.693	3.87
477.044	3.9
477.395	3.9
477.746	3.9
478.097	3.89
478.448	3.88
478.8	3.91
479.15	3.9
479.501	3.92
479.852	3.92
480.203	3.91
480.554	3.92
480.905	3.93
481.255	3.92
481.606	3.92
481.957	3.93
482.307	3.93
482.658	3.93
483.009	3.93
483.359	3.94
483.709	3.94
484.06	3.94
484.41	3.93
484.761	3.93
485.111	3.92
485.461	3.93
485.811	3.92
486.162	3.92
486.512	3.92
486.862	3.91
487.212	3.91
487.562	3.91
487.912	3.9
488.262	3.9
488.612	3.9
488.961	3.9
489.311	3.89
489.661	3.9
490.011	3.9
490.36	3.9
490.71	3.89
491.06	3.9
491.409	3.9
491.759	3.91
492.108	3.92
492.458	3.93
492.807	3.93
493.157	3.94
493.506	3.95
493.855	3.97
494.204	3.98
494.554	4
494.903	4
495.252	4.02
495.601	4.03
495.95	4.07
496.299	4.08
496.648	4.1
496.997	4.13
497.346	4.15
497.695	4.16
498.043	4.17
498.392	4.18
498.741	4.22
499.09	4.21
499.438	4.23
499.787	4.26
500.135	4.3
500.484	4.33
500.832	4.38
501.181	4.38
501.529	4.42
501.878	4.45
502.226	4.5
502.574	4.54
502.923	4.57
503.271	4.6
503.619	4.66
503.967	4.7
504.315	4.72
504.663	4.73
505.011	4.79
505.359	4.86
505.707	4.91
506.055	4.94
506.403	5.01
506.751	5.04
507.098	5.06
507.446	5.12
507.794	5.15
508.141	5.17
508.489	5.23
508.837	5.27
509.184	5.31
509.531	5.36
509.879	5.39
510.226	5.45
510.574	5.5
510.921	5.53
511.268	5.58
511.616	5.64
511.963	5.71
512.31	5.76
512.657	5.8
513.004	5.84
513.351	5.89
513.698	5.95
514.045	6.02
514.392	6.08
514.739	6.13
515.086	6.19
515.432	6.28
515.779	6.34
516.126	6.44
516.473	6.5
516.819	6.56
517.166	6.61
517.512	6.66
517.859	6.71
518.205	6.78
518.552	6.82
518.898	6.87
519.245	6.92
519.591	6.97
519.937	7.04
520.283	7.12
520.629	7.2
520.976	7.26
521.322	7.33
521.668	7.43
522.014	7.51
522.36	7.61
522.706	7.69
523.052	7.79
523.398	7.88
523.743	8.01
524.089	8.13
524.435	8.24
524.781	8.36
525.126	8.47
525.472	8.56
525.817	8.65
526.163	8.72
526.509	8.82
526.854	8.9
527.199	8.98
527.545	9.05
527.89	9.13
528.235	9.22
528.581	9.31
528.926	9.39
529.271	9.5
529.616	9.58
529.961	9.67
530.306	9.78
530.651	9.86
530.996	9.96
531.341	10.08
531.686	10.2
532.031	10.34
532.376	10.48
532.721	10.62
533.065	10.77
533.41	10.95
533.755	11.1
534.099	11.27
534.444	11.44
534.788	11.61
535.133	11.79
535.477	11.95
535.822	12.13
536.166	12.34
536.51	12.56
536.855	12.81
537.199	13.05
537.543	13.31
537.887	13.6
538.231	13.87
538.576	14.15
538.92	14.43
539.264	14.66
539.608	14.92
539.951	15.17
540.295	15.4
540.639	15.65
540.983	15.91
541.327	16.15
541.671	16.38
542.014	16.63
542.358	16.88
542.701	17.15
543.045	17.42
543.389	17.66
543.732	17.91
544.075	18.19
544.419	18.49
544.762	18.78
545.105	19.12
545.449	19.43
545.792	19.76
546.135	20.12
546.478	20.53
546.821	20.92
547.165	21.33
547.508	21.78
547.851	22.19
548.194	22.57
548.536	22.99
548.879	23.42
549.222	23.88
549.565	24.35
549.908	24.83
550.25	25.29
550.593	25.77
550.936	26.27
551.278	26.74
551.621	27.25
551.963	27.76
552.306	28.16
552.648	28.65
552.991	29.15
553.333	29.61
553.675	30.08
554.017	30.51
554.36	30.95
554.702	31.4
555.044	31.82
555.386	32.32
555.728	32.79
556.07	33.33
556.412	33.75
556.754	34.15
557.096	34.61
557.438	35.1
557.78	35.62
558.121	36.13
558.463	36.62
558.805	37.04
559.147	37.54
559.488	38.03
559.83	38.48
560.171	38.85
560.513	39.31
560.854	39.7
561.196	40.16
561.537	40.62
561.878	41.05
562.22	41.52
562.561	41.87
562.902	42.26
563.243	42.63
563.584	43.08
563.925	43.56
564.266	43.95
564.607	44.28
564.948	44.58
565.289	44.91
565.63	45.27
565.971	45.63
566.312	45.95
566.653	46.32
566.993	46.64
567.334	47.01
567.675	47.32
568.015	47.71
568.356	48.07
568.696	48.41
569.037	48.77
569.377	49.1
569.718	49.49
570.058	49.8
570.398	50.15
570.739	50.46
571.079	50.72
571.419	51.01
571.759	51.38
572.099	51.7
572.439	51.99
572.779	52.26
573.119	52.48
573.459	52.68
573.799	52.94
574.139	53.22
574.479	53.46
574.819	53.69
575.158	53.87
575.498	54.08
575.838	54.37
576.177	54.58
576.517	54.78
576.856	54.97
577.196	55.25
577.535	55.51
577.875	55.75
578.214	55.98
578.553	56.21
578.893	56.39
579.232	56.63
579.571	56.92
579.91	57.13
580.25	57.48
580.589	57.77
580.928	57.96
581.267	58.19
581.606	58.42
581.945	58.7
582.283	58.94
582.622	59.11
582.961	59.22
583.3	59.38
583.639	59.68
583.977	59.83
584.316	60.02
584.654	60.2
584.993	60.44
585.332	60.66
585.67	60.91
586.008	61.08
586.347	61.19
586.685	61.37
587.024	61.52
587.362	61.58
587.7	61.77
588.038	61.92
588.376	62.02
588.715	62.21
589.053	62.39
589.391	62.52
589.729	62.69
590.067	62.86
590.404	63.05
590.742	63.11
591.08	63.3
591.418	63.44
591.756	63.54
592.093	63.64
592.431	63.78
592.769	63.9
593.106	64.05
593.444	64.18
593.781	64.3
594.119	64.44
594.456	64.66
594.793	64.8
595.131	64.95
595.468	65.16
595.805	65.22
596.143	65.33
596.48	65.46
596.817	65.49
597.154	65.56
597.491	65.65
597.828	65.81
598.165	65.94
598.502	66.01
598.839	66.12
599.176	66.24
599.512	66.32
599.849	66.42
600.186	66.53
600.523	66.65
600.859	66.77
601.196	66.93
601.532	66.96
601.869	67
602.205	67.06
602.542	67.13
602.878	67.19
603.215	67.22
603.551	67.23
603.887	67.4
604.223	67.56
604.56	67.64
604.896	67.65
605.232	67.78
605.568	67.76
605.904	67.89
606.24	67.94
606.576	68.04
606.912	68.05
607.248	68.15
607.583	68.3
607.919	68.34
608.255	68.37
608.591	68.45
608.926	68.54
609.262	68.73
609.597	68.77
609.933	68.94
610.268	69.01
610.604	69.12
610.939	69.19
611.275	69.23
611.61	69.34
611.945	69.44
612.281	69.39
612.616	69.63
612.951	69.61
613.286	69.69
613.621	69.76
613.956	69.9
614.291	69.94
614.626	69.93
614.961	70
615.296	70.05
615.631	70.28
615.966	70.39
616.3	70.3
616.635	70.38
616.97	70.38
617.304	70.47
617.639	70.6
617.973	70.64
618.308	70.6
618.642	70.6
618.977	70.66
619.311	70.83
619.646	70.8
619.98	70.79
620.314	70.87
620.648	70.98
620.983	71.02
621.317	71.07
621.651	71.26
621.985	71.31
622.319	71.4
622.653	71.33
622.987	71.33
623.321	71.34
623.655	71.24
623.988	71.4
624.322	71.46
624.656	71.44
624.99	71.45
625.323	71.54
625.657	71.61
625.99	71.73
626.324	71.73
626.657	71.75
626.991	71.84
627.324	71.88
627.658	71.85
627.991	71.85
628.324	71.85
628.657	71.77
628.991	71.73
629.324	71.74
629.657	71.74
629.99	71.84
630.323	71.88
630.656	72.1
630.989	72.12
631.322	72.12
631.655	72.16
631.987	72.08
632.32	72.01
632.653	72.07
632.986	72.03
633.318	72.09
633.651	72.2
633.984	72.19
634.316	72.16
634.649	72.25
634.981	72.32
635.313	72.46
635.646	72.55
635.978	72.57
636.31	72.6
636.643	72.7
636.975	72.71
637.307	72.7
637.639	72.62
637.971	72.64
638.303	72.62
638.635	72.74
638.967	72.91
639.299	73.1
639.631	73.07
639.963	73.06
640.295	73.19
640.626	73.3
640.958	73.35
641.29	73.41
641.621	73.34
641.953	73.44
642.285	73.42
642.616	73.45
642.948	73.57
643.279	73.62
643.61	73.66
643.942	73.58
644.273	73.74
644.604	73.83
644.936	73.81
645.267	73.85
645.598	73.75
645.929	73.84
646.26	73.84
646.591	73.9
646.922	73.9
647.253	73.75
647.584	73.69
647.915	73.87
648.245	73.96
648.576	73.96
648.907	73.89
649.238	73.81
649.568	73.76
649.899	73.73
650.229	73.72
650.56	73.63
650.89	73.82
651.221	73.86
651.551	73.93
651.882	73.84
652.212	74.01
652.542	74.09
652.872	74.06
653.203	74.03
653.533	74.11
653.863	74.16
654.193	74.2
654.523	74.24
654.853	74.07
655.183	74.02
655.513	74.24
655.843	74.23
656.172	74.26
656.502	74.26
656.832	74.3
657.162	74.25
657.491	74.33
657.821	74.28
658.15	74.37
658.48	74.43
658.809	74.43
659.139	74.38
659.468	74.5
659.798	74.46
660.127	74.55
660.456	74.52
660.785	74.59
661.115	74.64
661.444	74.6
661.773	74.74
662.102	74.88
662.431	74.83
662.76	74.9
663.089	74.92
663.418	75.01
663.747	75.03
664.076	75.14
664.404	74.95
664.733	74.9
665.062	74.69
665.39	74.7
665.719	74.67
666.048	74.82
666.376	74.63
666.705	74.74
667.033	74.64
667.362	74.71
667.69	74.64
