Data from BA56814_Reflection_00010.txt Node
Date: Mon Nov 18 15:40:39 EST 2019
User: vgr7
Spectrometer: USB2G7710
Scans to average: 3
Trigger mode: 4
Integration Time (sec): 2.000000E-2
Electric dark correction enabled: true
Boxcar width: 10
XAxis mode: Wavelengths
Number of Pixels in Spectrum: 2048
>>>>>Begin Spectral Data<<<<<
177.721	117.08
178.105	70.51
178.488	152.15
178.871	109.34
179.254	75.87
179.636	82.38
180.019	47
180.402	144.83
180.785	896.12
181.168	67.68
181.55	-17.96
181.933	63.93
182.316	127.3
182.698	91.3
183.081	43.44
183.463	41.02
183.846	72.81
184.228	35.77
184.611	38.46
184.993	26.66
185.376	13.16
185.758	54.51
186.14	29.81
186.522	45.86
186.904	34.44
187.287	26.75
187.669	-1.05
188.051	7.17
188.433	-26.97
188.815	-65.75
189.197	-51.25
189.579	-11.95
189.961	-27.84
190.342	-11.05
190.724	15.1
191.106	31.32
191.488	48.8
191.869	18.39
192.251	38.78
192.633	28.48
193.014	42.32
193.396	63.76
193.777	40.33
194.159	142.75
194.54	177.74
194.922	165.57
195.303	-32.93
195.684	-303.67
196.065	132.75
196.447	62.39
196.828	183.6
197.209	223.41
197.59	64.64
197.971	-3.93
198.352	62.33
198.733	56.47
199.114	40.48
199.495	46.13
199.876	39.85
200.257	43.69
200.638	25.9
201.018	10.95
201.399	-6.57
201.78	6.71
202.16	-19.53
202.541	-105.56
202.922	-135.89
203.302	-173.03
203.683	-214.31
204.063	-791.94
204.444	-913.26
204.824	-333.55
205.204	-326.56
205.585	-323.51
205.965	-263.13
206.345	-372.99
206.725	-638.14
207.106	-2034.08
207.486	586.13
207.866	-14943.48
208.246	-559.12
208.626	-558.72
209.006	-321.39
209.386	-223.14
209.766	-191.01
210.145	-220.4
210.525	-100.34
210.905	-100.83
211.285	-67.77
211.664	-54.57
212.044	-35.92
212.424	-33.37
212.803	-34.4
213.183	-25.63
213.562	-5.92
213.942	-6.53
214.321	-17.37
214.701	-22.6
215.08	-17.62
215.459	-15.16
215.838	-18.7
216.218	-14.07
216.597	-5.56
216.976	-10.73
217.355	-9.92
217.734	-9.3
218.113	1.12
218.492	-8.87
218.871	-6.46
219.25	-8.55
219.629	-4.37
220.008	11.93
220.387	2.37
220.766	14.78
221.144	-27.23
221.523	-85.67
221.902	-71.24
222.28	-69
222.659	-60.86
223.037	-48.2
223.416	-58.21
223.794	-42.1
224.173	-40.38
224.551	-22.15
224.929	-17.69
225.308	-13.21
225.686	-8.76
226.064	-9.73
226.442	-4.39
226.821	-2.31
227.199	-2.93
227.577	-3.38
227.955	-8.43
228.333	-8.79
228.711	-11.15
229.089	-3.97
229.467	-2.93
229.845	-3.57
230.222	-1.23
230.6	-1.7
230.978	-0.31
231.356	0.89
231.733	-0.03
232.111	2.1
232.488	1.03
232.866	2.81
233.243	2.8
233.621	1.57
233.998	3.21
234.376	3.25
234.753	3.93
235.13	4
235.508	5.04
235.885	5.86
236.262	7.74
236.639	8.77
237.016	8.37
237.393	10.08
237.77	9.95
238.147	8.48
238.524	7.69
238.901	7.57
239.278	7.83
239.655	7.89
240.032	7.25
240.409	6.8
240.785	6.56
241.162	6.46
241.539	6.35
241.915	6.17
242.292	5.62
242.668	5.51
243.045	6.12
243.421	5.77
243.798	5.55
244.174	5.4
244.551	5.47
244.927	5.35
245.303	5.31
245.679	5.5
246.056	5.75
246.432	5.69
246.808	5.56
247.184	5.43
247.56	5.51
247.936	5.64
248.312	5.58
248.688	5.68
249.064	5.66
249.44	5.79
249.815	5.7
250.191	6.09
250.567	6.1
250.943	5.93
251.318	6.1
251.694	6.04
252.069	6.02
252.445	6.01
252.82	6.08
253.196	5.91
253.571	5.88
253.947	5.93
254.322	6.42
254.697	6.38
255.073	6.22
255.448	5.92
255.823	5.85
256.198	6.12
256.573	6.1
256.948	5.91
257.323	6.04
257.698	5.93
258.073	5.81
258.448	5.81
258.823	5.81
259.198	5.77
259.573	5.78
259.948	5.64
260.322	5.68
260.697	5.59
261.072	5.62
261.446	5.48
261.821	5.52
262.195	5.34
262.57	5.28
262.944	5.21
263.319	5.23
263.693	5.22
264.067	5.12
264.442	4.95
264.816	4.99
265.19	4.74
265.564	4.76
265.938	4.58
266.313	4.38
266.687	4.27
267.061	4.34
267.435	4.4
267.809	4.39
268.183	4.35
268.556	4.42
268.93	4.51
269.304	4.66
269.678	4.66
270.051	4.51
270.425	4.57
270.799	4.5
271.172	4.55
271.546	4.47
271.919	4.53
272.293	4.5
272.666	4.5
273.04	4.63
273.413	4.62
273.787	4.64
274.16	4.58
274.533	4.58
274.906	4.5
275.279	4.62
275.653	4.8
276.026	4.96
276.399	5.14
276.772	5.25
277.145	5.06
277.518	5.01
277.891	5.24
278.263	5.24
278.636	5.34
279.009	5.41
279.382	5.47
279.755	5.36
280.127	5.59
280.5	5.58
280.872	5.51
281.245	5.61
281.617	5.72
281.99	5.96
282.362	5.82
282.735	5.81
283.107	5.92
283.479	5.85
283.852	5.71
284.224	5.5
284.596	5.37
284.968	5.49
285.34	5.54
285.713	5.55
286.085	5.71
286.457	5.89
286.829	5.81
287.201	5.86
287.572	5.78
287.944	5.71
288.316	5.66
288.688	5.68
289.06	5.56
289.431	5.47
289.803	5.42
290.175	5.61
290.546	5.71
290.918	5.55
291.289	5.7
291.661	5.82
292.032	5.98
292.403	6.08
292.775	6.2
293.146	6.2
293.517	6.28
293.889	6.15
294.26	6.18
294.631	6.24
295.002	6.19
295.373	6.37
295.744	6.38
296.115	6.55
296.486	6.55
296.857	6.71
297.228	6.78
297.599	6.76
297.97	6.75
298.34	6.81
298.711	6.93
299.082	6.82
299.452	6.91
299.823	6.97
300.194	6.99
300.564	6.85
300.935	6.89
301.305	6.91
301.676	7.08
302.046	7.17
302.416	7.26
302.787	7.33
303.157	7.5
303.527	7.54
303.897	7.55
304.267	7.66
304.637	7.83
305.008	7.98
305.378	8.05
305.748	8.13
306.117	8.06
306.487	8.1
306.857	8.24
307.227	8.28
307.597	8.29
307.967	8.46
308.336	8.79
308.706	8.79
309.076	8.75
309.445	8.73
309.815	8.66
310.184	8.71
310.554	8.9
310.923	8.86
311.293	8.87
311.662	9
312.031	9.03
312.401	8.89
312.77	9
313.139	9.19
313.508	9.31
313.877	9.53
314.246	9.54
314.616	9.61
314.985	9.57
315.353	9.5
315.722	9.48
316.091	9.31
316.46	9.31
316.829	9.49
317.198	9.57
317.567	9.57
317.935	9.65
318.304	9.63
318.672	9.89
319.041	10.14
319.41	10.18
319.778	10.28
320.147	10.29
320.515	10.31
320.883	10.23
321.252	10.29
321.62	10.37
321.988	10.49
322.357	10.4
322.725	10.62
323.093	10.95
323.461	11.01
323.829	11.17
324.197	11.48
324.565	11.5
324.933	11.56
325.301	11.73
325.669	11.74
326.037	11.81
326.405	11.79
326.772	11.79
327.14	11.74
327.508	11.8
327.875	11.95
328.243	12
328.61	12.13
328.978	12.17
329.346	12.12
329.713	12.14
330.08	12.29
330.448	12.14
330.815	12
331.182	11.99
331.55	12.05
331.917	12.03
332.284	12.19
332.651	12.3
333.018	12.26
333.385	12.4
333.752	12.5
334.119	12.46
334.486	12.38
334.853	12.55
335.22	12.55
335.587	12.73
335.954	12.83
336.32	12.86
336.687	12.79
337.054	12.83
337.42	12.88
337.787	13.05
338.153	13.18
338.52	13.35
338.886	13.42
339.253	13.4
339.619	13.44
339.986	13.41
340.352	13.47
340.718	13.53
341.084	13.57
341.451	13.61
341.817	13.68
342.183	13.76
342.549	13.72
342.915	13.79
343.281	13.68
343.647	13.69
344.013	13.74
344.379	13.84
344.745	13.89
345.11	13.98
345.476	14.01
345.842	14.05
346.208	14.07
346.573	14.11
346.939	14.21
347.304	14.15
347.67	14.09
348.035	14
348.401	14.07
348.766	14.06
349.132	14.08
349.497	13.99
349.862	14.14
350.228	14.26
350.593	14.33
350.958	14.42
351.323	14.41
351.688	14.42
352.053	14.49
352.418	14.44
352.783	14.39
353.148	14.3
353.513	14.36
353.878	14.38
354.243	14.47
354.608	14.44
354.972	14.59
355.337	14.77
355.702	14.88
356.066	14.95
356.431	14.94
356.795	14.97
357.16	15.05
357.524	14.92
357.889	14.87
358.253	14.89
358.618	14.89
358.982	14.87
359.346	14.9
359.71	14.81
360.075	14.85
360.439	14.82
360.803	14.81
361.167	14.72
361.531	14.7
361.895	14.61
362.259	14.58
362.623	14.47
362.987	14.37
363.351	14.29
363.714	14.24
364.078	14.2
364.442	14.17
364.806	14.06
365.169	14.14
365.533	14.06
365.896	14
366.26	13.96
366.623	13.95
366.987	13.88
367.35	13.94
367.714	13.9
368.077	13.86
368.44	13.83
368.803	13.8
369.167	13.71
369.53	13.7
369.893	13.72
370.256	13.74
370.619	13.71
370.982	13.68
371.345	13.61
371.708	13.62
372.071	13.55
372.434	13.55
372.797	13.46
373.159	13.42
373.522	13.43
373.885	13.47
374.247	13.44
374.61	13.46
374.973	13.36
375.335	13.32
375.698	13.31
376.06	13.31
376.423	13.3
376.785	13.35
377.147	13.32
377.51	13.28
377.872	13.25
378.234	13.24
378.596	13.23
378.958	13.14
379.321	13.07
379.683	13.07
380.045	13.11
380.407	13.05
380.769	13.07
381.13	12.95
381.492	12.82
381.854	12.78
382.216	12.69
382.578	12.71
382.939	12.61
383.301	12.54
383.663	12.48
384.024	12.43
384.386	12.36
384.747	12.37
385.109	12.31
385.47	12.2
385.832	12.13
386.193	12.09
386.554	12.08
386.916	12.04
387.277	11.98
387.638	11.92
387.999	11.86
388.36	11.8
388.721	11.79
389.082	11.72
389.443	11.68
389.804	11.58
390.165	11.47
390.526	11.47
390.887	11.44
391.248	11.41
391.609	11.35
391.969	11.29
392.33	11.2
392.691	11.14
393.051	11.11
393.412	11.02
393.772	10.98
394.133	10.96
394.493	10.88
394.854	10.82
395.214	10.73
395.574	10.67
395.935	10.61
396.295	10.56
396.655	10.54
397.015	10.46
397.376	10.43
397.736	10.37
398.096	10.29
398.456	10.23
398.816	10.16
399.176	10.1
399.535	10.06
399.895	9.98
400.255	9.97
400.615	9.92
400.975	9.91
401.334	9.82
401.694	9.74
402.054	9.7
402.413	9.67
402.773	9.61
403.132	9.56
403.492	9.54
403.851	9.5
404.211	9.43
404.57	9.39
404.929	9.35
405.288	9.34
405.648	9.31
406.007	9.27
406.366	9.22
406.725	9.2
407.084	9.15
407.443	9.12
407.802	9.08
408.161	9.04
408.52	8.98
408.879	8.98
409.238	8.96
409.596	8.94
409.955	8.89
410.314	8.84
410.673	8.81
411.031	8.72
411.39	8.7
411.748	8.69
412.107	8.67
412.465	8.63
412.824	8.58
413.182	8.5
413.54	8.41
413.899	8.43
414.257	8.4
414.615	8.38
414.974	8.36
415.332	8.32
415.69	8.27
416.048	8.26
416.406	8.2
416.764	8.12
417.122	8.09
417.48	8.04
417.838	8.03
418.195	8
418.553	7.99
418.911	7.93
419.269	7.89
419.626	7.86
419.984	7.83
420.342	7.82
420.699	7.8
421.057	7.79
421.414	7.75
421.772	7.7
422.129	7.67
422.486	7.62
422.844	7.59
423.201	7.56
423.558	7.54
423.915	7.51
424.273	7.5
424.63	7.48
424.987	7.46
425.344	7.43
425.701	7.42
426.058	7.39
426.415	7.39
426.772	7.36
427.128	7.33
427.485	7.31
427.842	7.28
428.199	7.27
428.555	7.25
428.912	7.24
429.269	7.22
429.625	7.2
429.982	7.17
430.338	7.16
430.695	7.16
431.051	7.16
431.407	7.13
431.764	7.11
432.12	7.1
432.476	7.09
432.832	7.09
433.189	7.07
433.545	7.05
433.901	7.03
434.257	7.02
434.613	7.02
434.969	7
435.325	6.99
435.681	6.98
436.036	6.98
436.392	6.95
436.748	6.95
437.104	6.92
437.459	6.95
437.815	6.94
438.171	6.94
438.526	6.92
438.882	6.92
439.237	6.93
439.593	6.92
439.948	6.93
440.304	6.91
440.659	6.91
441.014	6.93
441.369	6.92
441.725	6.92
442.08	6.9
442.435	6.92
442.79	6.89
443.145	6.88
443.5	6.86
443.855	6.84
444.21	6.83
444.565	6.81
444.92	6.8
445.275	6.78
445.629	6.74
445.984	6.74
446.339	6.72
446.693	6.7
447.048	6.69
447.403	6.66
447.757	6.65
448.112	6.62
448.466	6.57
448.82	6.56
449.175	6.53
449.529	6.52
449.883	6.47
450.238	6.46
450.592	6.46
450.946	6.42
451.3	6.43
451.654	6.42
452.008	6.43
452.362	6.41
452.716	6.4
453.07	6.39
453.424	6.38
453.778	6.35
454.132	6.32
454.486	6.27
454.839	6.25
455.193	6.25
455.547	6.25
455.9	6.26
456.254	6.25
456.607	6.24
456.961	6.26
457.314	6.27
457.668	6.27
458.021	6.25
458.375	6.28
458.728	6.28
459.081	6.27
459.434	6.24
459.787	6.24
460.141	6.25
460.494	6.25
460.847	6.27
461.2	6.28
461.553	6.3
461.906	6.34
462.259	6.37
462.611	6.38
462.964	6.41
463.317	6.42
463.67	6.45
464.022	6.5
464.375	6.48
464.728	6.5
465.08	6.52
465.433	6.56
465.785	6.56
466.138	6.57
466.49	6.61
466.843	6.65
467.195	6.68
467.547	6.7
467.899	6.72
468.252	6.75
468.604	6.77
468.956	6.8
469.308	6.83
469.66	6.85
470.012	6.88
470.364	6.9
470.716	6.91
471.068	6.92
471.42	6.89
471.772	6.93
472.123	6.96
472.475	6.97
472.827	6.96
473.178	6.99
473.53	6.97
473.882	6.98
474.233	7
474.585	6.98
474.936	6.99
475.288	7.02
475.639	7.01
475.99	7.02
476.342	7.02
476.693	7.01
477.044	7.03
477.395	7.03
477.746	7.01
478.097	7.01
478.448	7.02
478.8	7.04
479.15	7.02
479.501	7
479.852	7.02
480.203	7.02
480.554	7.02
480.905	7.04
481.255	7.04
481.606	7.03
481.957	7.04
482.307	7.03
482.658	7.02
483.009	7.02
483.359	7.02
483.709	7.03
484.06	7.03
484.41	7.03
484.761	7.03
485.111	7.04
485.461	7.04
485.811	7.05
486.162	7.05
486.512	7.06
486.862	7.08
487.212	7.08
487.562	7.1
487.912	7.1
488.262	7.1
488.612	7.11
488.961	7.13
489.311	7.14
489.661	7.16
490.011	7.18
490.36	7.18
490.71	7.2
491.06	7.21
491.409	7.22
491.759	7.24
492.108	7.25
492.458	7.27
492.807	7.3
493.157	7.34
493.506	7.38
493.855	7.41
494.204	7.44
494.554	7.48
494.903	7.5
495.252	7.55
495.601	7.61
495.95	7.64
496.299	7.68
496.648	7.73
496.997	7.79
497.346	7.84
497.695	7.94
498.043	7.99
498.392	8.06
498.741	8.14
499.09	8.18
499.438	8.26
499.787	8.34
500.135	8.42
500.484	8.47
500.832	8.53
501.181	8.63
501.529	8.7
501.878	8.77
502.226	8.87
502.574	8.98
502.923	9.07
503.271	9.19
503.619	9.31
503.967	9.41
504.315	9.49
504.663	9.58
505.011	9.66
505.359	9.75
505.707	9.85
506.055	9.95
506.403	10.06
506.751	10.17
507.098	10.29
507.446	10.42
507.794	10.52
508.141	10.65
508.489	10.72
508.837	10.85
509.184	10.96
509.531	11.06
509.879	11.17
510.226	11.3
510.574	11.41
510.921	11.51
511.268	11.61
511.616	11.74
511.963	11.88
512.31	12.02
512.657	12.19
513.004	12.34
513.351	12.48
513.698	12.62
514.045	12.75
514.392	12.88
514.739	13.02
515.086	13.2
515.432	13.35
515.779	13.51
516.126	13.66
516.473	13.83
516.819	13.98
517.166	14.09
517.512	14.22
517.859	14.35
518.205	14.48
518.552	14.63
518.898	14.78
519.245	14.91
519.591	15.03
519.937	15.16
520.283	15.32
520.629	15.48
520.976	15.67
521.322	15.84
521.668	16.01
522.014	16.18
522.36	16.34
522.706	16.53
523.052	16.72
523.398	16.97
523.743	17.21
524.089	17.48
524.435	17.72
524.781	17.92
525.126	18.13
525.472	18.29
525.817	18.45
526.163	18.57
526.509	18.73
526.854	18.86
527.199	18.97
527.545	19.08
527.89	19.22
528.235	19.34
528.581	19.49
528.926	19.64
529.271	19.78
529.616	19.92
529.961	20.06
530.306	20.24
530.651	20.38
530.996	20.51
531.341	20.64
531.686	20.8
532.031	20.96
532.376	21.13
532.721	21.34
533.065	21.55
533.41	21.78
533.755	21.98
534.099	22.2
534.444	22.43
534.788	22.68
535.133	22.86
535.477	23.09
535.822	23.31
536.166	23.53
536.51	23.8
536.855	24.1
537.199	24.37
537.543	24.65
537.887	24.94
538.231	25.25
538.576	25.57
538.92	25.86
539.264	26.13
539.608	26.38
539.951	26.61
540.295	26.81
540.639	27.02
540.983	27.23
541.327	27.44
541.671	27.63
542.014	27.82
542.358	28.03
542.701	28.22
543.045	28.43
543.389	28.64
543.732	28.84
544.075	28.99
544.419	29.2
544.762	29.38
545.105	29.59
545.449	29.83
545.792	30.03
546.135	30.26
546.478	30.53
546.821	30.8
547.165	31.07
547.508	31.34
547.851	31.59
548.194	31.86
548.536	32.13
548.879	32.43
549.222	32.7
549.565	32.97
549.908	33.24
550.25	33.48
550.593	33.74
550.936	33.97
551.278	34.24
551.621	34.55
551.963	34.79
552.306	35.03
552.648	35.29
552.991	35.57
553.333	35.81
553.675	36.05
554.017	36.26
554.36	36.49
554.702	36.78
555.044	37.03
555.386	37.24
555.728	37.47
556.07	37.71
556.412	37.91
556.754	38.1
557.096	38.35
557.438	38.62
557.78	38.85
558.121	39.11
558.463	39.35
558.805	39.54
559.147	39.8
559.488	40.01
559.83	40.17
560.171	40.28
560.513	40.55
560.854	40.76
561.196	40.86
561.537	41.05
561.878	41.21
562.22	41.39
562.561	41.58
562.902	41.75
563.243	41.89
563.584	42.07
563.925	42.21
564.266	42.3
564.607	42.41
564.948	42.56
565.289	42.71
565.63	42.9
565.971	43.04
566.312	43.18
566.653	43.3
566.993	43.5
567.334	43.67
567.675	43.77
568.015	43.92
568.356	44.13
568.696	44.29
569.037	44.42
569.377	44.56
569.718	44.69
570.058	44.85
570.398	45.01
570.739	45.17
571.079	45.37
571.419	45.52
571.759	45.68
572.099	45.8
572.439	45.92
572.779	46.01
573.119	46.09
573.459	46.17
573.799	46.33
574.139	46.42
574.479	46.55
574.819	46.69
575.158	46.75
575.498	46.86
575.838	46.94
576.177	47.02
576.517	47.09
576.856	47.23
577.196	47.3
577.535	47.38
577.875	47.47
578.214	47.51
578.553	47.67
578.893	47.74
579.232	47.83
579.571	47.91
579.91	47.97
580.25	48.18
580.589	48.3
580.928	48.39
581.267	48.55
581.606	48.6
581.945	48.6
582.283	48.67
582.622	48.69
582.961	48.8
583.3	48.87
583.639	48.95
583.977	48.94
584.316	49.05
584.654	49.13
584.993	49.23
585.332	49.37
585.67	49.35
586.008	49.39
586.347	49.47
586.685	49.48
587.024	49.6
587.362	49.61
587.7	49.69
588.038	49.74
588.376	49.71
588.715	49.89
589.053	50
589.391	50.08
589.729	50.17
590.067	50.27
590.404	50.36
590.742	50.51
591.08	50.5
591.418	50.51
591.756	50.56
592.093	50.59
592.431	50.65
592.769	50.71
593.106	50.82
593.444	50.87
593.781	50.98
594.119	51.04
594.456	51.09
594.793	51.11
595.131	51.13
595.468	51.16
595.805	51.06
596.143	51.15
596.48	51.21
596.817	51.24
597.154	51.23
597.491	51.25
597.828	51.25
598.165	51.42
598.502	51.51
598.839	51.6
599.176	51.63
599.512	51.65
599.849	51.78
600.186	51.84
600.523	51.93
600.859	52.01
601.196	52.09
601.532	52.12
601.869	52.16
602.205	52.2
602.542	52.29
602.878	52.33
603.215	52.31
603.551	52.42
603.887	52.44
604.223	52.41
604.56	52.46
604.896	52.52
605.232	52.53
605.568	52.57
605.904	52.57
606.24	52.73
606.576	52.75
606.912	52.77
607.248	52.78
607.583	52.78
607.919	52.81
608.255	52.85
608.591	52.86
608.926	52.97
609.262	53.03
609.597	53.04
609.933	53.1
610.268	53.14
610.604	53.09
610.939	53.14
611.275	53.28
611.61	53.3
611.945	53.34
612.281	53.37
612.616	53.38
612.951	53.51
613.286	53.43
613.621	53.52
613.956	53.51
614.291	53.57
614.626	53.63
614.961	53.59
615.296	53.52
615.631	53.55
615.966	53.53
616.3	53.54
616.635	53.63
616.97	53.65
617.304	53.65
617.639	53.72
617.973	53.86
618.308	53.83
618.642	53.88
618.977	53.87
619.311	53.9
619.646	54
619.98	54
620.314	54.05
620.648	54.08
620.983	54.11
621.317	54.09
621.651	54.13
621.985	54.27
622.319	54.4
622.653	54.45
622.987	54.52
623.321	54.6
623.655	54.61
623.988	54.71
624.322	54.88
624.656	54.92
624.99	54.93
625.323	55.01
625.657	55.03
625.99	55.02
626.324	55.06
626.657	55.07
626.991	55.07
627.324	55.08
627.658	55.06
627.991	55.14
628.324	55.19
628.657	55.19
628.991	55.17
629.324	55.14
629.657	55.21
629.99	55.19
630.323	55.23
630.656	55.24
630.989	55.28
631.322	55.2
631.655	55.16
631.987	55.17
632.32	55.19
632.653	55.23
632.986	55.34
633.318	55.33
633.651	55.36
633.984	55.33
634.316	55.34
634.649	55.45
634.981	55.47
635.313	55.53
635.646	55.49
635.978	55.48
636.31	55.55
636.643	55.62
636.975	55.59
637.307	55.5
637.639	55.51
637.971	55.49
638.303	55.48
638.635	55.49
638.967	55.52
639.299	55.55
639.631	55.61
639.963	55.48
640.295	55.45
640.626	55.41
640.958	55.42
641.29	55.34
641.621	55.27
641.953	55.29
642.285	55.32
642.616	55.43
642.948	55.47
643.279	55.5
643.61	55.51
643.942	55.61
644.273	55.72
644.604	55.71
644.936	55.7
645.267	55.77
645.598	55.86
645.929	55.87
646.26	55.86
646.591	55.81
646.922	55.88
647.253	55.98
647.584	56.08
647.915	56.22
648.245	56.34
648.576	56.52
648.907	56.5
649.238	56.47
649.568	56.36
649.899	56.48
650.229	56.51
650.56	56.53
650.89	56.59
651.221	56.62
651.551	56.74
651.882	56.78
652.212	56.81
652.542	56.84
652.872	56.85
653.203	56.88
653.533	56.97
653.863	57.04
654.193	56.98
654.523	56.97
654.853	57.05
655.183	57.04
655.513	57
655.843	57.09
656.172	57.12
656.502	57.31
656.832	57.33
657.162	57.39
657.491	57.42
657.821	57.43
658.15	57.4
658.48	57.5
658.809	57.57
659.139	57.63
659.468	57.6
659.798	57.64
660.127	57.64
660.456	57.62
660.785	57.67
661.115	57.7
661.444	57.61
661.773	57.56
662.102	57.53
662.431	57.5
