Data from BA56825_Reflection_00003.txt Node
Date: Mon Nov 18 15:37:18 EST 2019
User: vgr7
Spectrometer: USB2G7710
Scans to average: 3
Trigger mode: 4
Integration Time (sec): 2.000000E-2
Electric dark correction enabled: true
Boxcar width: 10
XAxis mode: Wavelengths
Number of Pixels in Spectrum: 2048
>>>>>Begin Spectral Data<<<<<
177.721	598.83
178.105	108.04
178.488	72.61
178.871	93.8
179.254	108.66
179.636	56.61
180.019	93.17
180.402	27.27
180.785	-91.68
181.168	-31.68
181.55	629.41
181.933	55.67
182.316	15.51
182.698	2.31
183.081	23.84
183.463	-59.52
183.846	-9.31
184.228	-276.21
184.611	-253.42
184.993	-90.98
185.376	-97.02
185.758	-132.93
186.14	-258.17
186.522	-200.22
186.904	-171.53
187.287	-318.66
187.669	-145.32
188.051	-99.85
188.433	-83.43
188.815	-84.92
189.197	-93.3
189.579	-77
189.961	-103.83
190.342	-94.21
190.724	-83.27
191.106	-105.05
191.488	-108.75
191.869	-92.53
192.251	-109.63
192.633	-90.95
193.014	-109.45
193.396	-114.47
193.777	-82.52
194.159	-50.89
194.54	-41.85
194.922	-50.36
195.303	-40.39
195.684	-37.73
196.065	-36.44
196.447	-36.59
196.828	-44.52
197.209	-36.19
197.59	-48.6
197.971	-42.3
198.352	-39.57
198.733	-27.97
199.114	-13.25
199.495	-17.17
199.876	-15.98
200.257	-7.28
200.638	-3.02
201.018	-12.73
201.399	-17.93
201.78	-16.88
202.16	-24.14
202.541	-35.29
202.922	-22.14
203.302	-31.75
203.683	-31.85
204.063	-48.66
204.444	-47.87
204.824	-40.51
205.204	-44.95
205.585	-36.97
205.965	-46.56
206.345	-65.09
206.725	-83.22
207.106	-104.49
207.486	-113.52
207.866	-129.02
208.246	-166.89
208.626	-150.73
209.006	-61.07
209.386	-56.89
209.766	-68.97
210.145	-56.44
210.525	-47.1
210.905	-39.65
211.285	-24.86
211.664	-28.7
212.044	-26.35
212.424	-26.93
212.803	-46.65
213.183	-31.62
213.562	-36.41
213.942	-23.31
214.321	5.04
214.701	-0.71
215.08	-14.48
215.459	-15.99
215.838	-34.72
216.218	-39.51
216.597	-42.44
216.976	-58.66
217.355	-43.04
217.734	-55.3
218.113	-53.64
218.492	-49.22
218.871	-57.77
219.25	-63.33
219.629	-48.92
220.008	-46.93
220.387	-36.05
220.766	-22.49
221.144	-37.33
221.523	-52.67
221.902	-59.7
222.28	-96.3
222.659	-65.56
223.037	-50.22
223.416	-51.8
223.794	-36.48
224.173	-35.92
224.551	-26.72
224.929	-30.87
225.308	-20.58
225.686	-20.24
226.064	-19.1
226.442	-15.69
226.821	-11.55
227.199	-11.35
227.577	-10.9
227.955	-6.77
228.333	-4.62
228.711	-1.01
229.089	2.19
229.467	3.92
229.845	4.66
230.222	6.53
230.6	5.35
230.978	8.52
231.356	9.81
231.733	9.18
232.111	10.97
232.488	11.1
232.866	11.92
233.243	9.7
233.621	9.36
233.998	8.11
234.376	6.71
234.753	4.72
235.13	4.57
235.508	5.31
235.885	5.85
236.262	4.92
236.639	2.91
237.016	2.23
237.393	3
237.77	3.51
238.147	4.06
238.524	3.79
238.901	2.53
239.278	3.31
239.655	3.91
240.032	3.73
240.409	3.29
240.785	3.69
241.162	3.71
241.539	4.45
241.915	4.74
242.292	4.63
242.668	5.21
243.045	5.56
243.421	5.27
243.798	4.6
244.174	4.72
244.551	5.02
244.927	5.07
245.303	5.05
245.679	5.12
246.056	5.01
246.432	5.15
246.808	5.28
247.184	5.17
247.56	5.09
247.936	5.09
248.312	5.24
248.688	5.2
249.064	5.25
249.44	5.23
249.815	5.25
250.191	5.28
250.567	5.27
250.943	5.17
251.318	5.17
251.694	5.22
252.069	5.18
252.445	5.2
252.82	5.41
253.196	5.33
253.571	5.35
253.947	5.3
254.322	5.42
254.697	5.42
255.073	4.89
255.448	4.67
255.823	4.82
256.198	4.9
256.573	4.73
256.948	5.19
257.323	5.37
257.698	5.53
258.073	5.55
258.448	5.63
258.823	5.65
259.198	5.68
259.573	5.79
259.948	5.73
260.322	5.76
260.697	5.44
261.072	5.48
261.446	5.45
261.821	5.55
262.195	5.51
262.57	5.49
262.944	5.56
263.319	5.77
263.693	5.55
264.067	5.56
264.442	5.69
264.816	5.54
265.19	5.34
265.564	5.2
265.938	5
266.313	4.97
266.687	5.05
267.061	5.16
267.435	5.14
267.809	5.26
268.183	5.07
268.556	5.15
268.93	5.4
269.304	5.35
269.678	5.33
270.051	5.3
270.425	5.26
270.799	5.33
271.172	5.23
271.546	5.42
271.919	5.3
272.293	5.16
272.666	5.11
273.04	5
273.413	5
273.787	5.09
274.16	5.19
274.533	5.16
274.906	4.9
275.279	4.78
275.653	4.63
276.026	4.61
276.399	4.63
276.772	4.6
277.145	4.6
277.518	4.6
277.891	4.68
278.263	4.61
278.636	4.61
279.009	4.63
279.382	4.57
279.755	4.57
280.127	4.85
280.5	5
280.872	5.28
281.245	5.29
281.617	5.37
281.99	5.23
282.362	5.24
282.735	5.34
283.107	5.41
283.479	5.51
283.852	5.54
284.224	5.62
284.596	5.51
284.968	5.55
285.34	5.62
285.713	5.54
286.085	5.68
286.457	5.78
286.829	5.83
287.201	5.84
287.572	5.73
287.944	5.61
288.316	5.48
288.688	5.43
289.06	5.41
289.431	5.52
289.803	5.69
290.175	5.77
290.546	5.92
290.918	5.95
291.289	5.91
291.661	6.04
292.032	6.1
292.403	6.2
292.775	6.17
293.146	6.13
293.517	6.08
293.889	6.03
294.26	5.94
294.631	5.85
295.002	5.84
295.373	6.08
295.744	6.22
296.115	6.31
296.486	6.18
296.857	6.2
297.228	6.22
297.599	6.08
297.97	6.09
298.34	6.05
298.711	6.09
299.082	6.15
299.452	6.21
299.823	6.24
300.194	6.18
300.564	6.26
300.935	6.3
301.305	6.41
301.676	6.45
302.046	6.5
302.416	6.67
302.787	6.7
303.157	6.52
303.527	6.42
303.897	6.27
304.267	6.46
304.637	6.38
305.008	6.37
305.378	6.43
305.748	6.46
306.117	6.51
306.487	6.5
306.857	6.57
307.227	6.47
307.597	6.33
307.967	6.44
308.336	6.43
308.706	6.31
309.076	6.42
309.445	6.4
309.815	6.4
310.184	6.46
310.554	6.6
310.923	6.66
311.293	6.65
311.662	6.61
312.031	6.58
312.401	6.65
312.77	6.57
313.139	6.57
313.508	6.5
313.877	6.36
314.246	6.48
314.616	6.42
314.985	6.45
315.353	6.4
315.722	6.3
316.091	6.31
316.46	6.35
316.829	6.36
317.198	6.4
317.567	6.37
317.935	6.27
318.304	6.03
318.672	6.01
319.041	6.14
319.41	6.29
319.778	6.29
320.147	6.42
320.515	6.39
320.883	6.19
321.252	6.17
321.62	6.15
321.988	6.03
322.357	6.01
322.725	6.06
323.093	6.24
323.461	6.26
323.829	6.27
324.197	6.33
324.565	6.25
324.933	6.3
325.301	6.3
325.669	6.35
326.037	6.52
326.405	6.57
326.772	6.52
327.14	6.56
327.508	6.62
327.875	6.62
328.243	6.71
328.61	6.87
328.978	6.98
329.346	7.17
329.713	7.12
330.08	7.22
330.448	7.09
330.815	6.98
331.182	6.98
331.55	7.03
331.917	7.2
332.284	7.21
332.651	7.19
333.018	7.24
333.385	7.17
333.752	7.19
334.119	7.16
334.486	7.09
334.853	7.1
335.22	7.07
335.587	7.01
335.954	6.98
336.32	6.89
336.687	6.84
337.054	6.7
337.42	6.74
337.787	6.73
338.153	6.8
338.52	6.8
338.886	6.82
339.253	6.65
339.619	6.53
339.986	6.52
340.352	6.51
340.718	6.48
341.084	6.44
341.451	6.4
341.817	6.56
342.183	6.55
342.549	6.46
342.915	6.46
343.281	6.51
343.647	6.53
344.013	6.55
344.379	6.55
344.745	6.59
345.11	6.64
345.476	6.63
345.842	6.72
346.208	6.84
346.573	6.87
346.939	7
347.304	7
347.67	6.97
348.035	6.98
348.401	7
348.766	7.1
349.132	7.14
349.497	6.96
349.862	7.06
350.228	7.1
350.593	7.07
350.958	7.07
351.323	7.17
351.688	7.23
352.053	7.25
352.418	7.34
352.783	7.33
353.148	7.34
353.513	7.26
353.878	7.22
354.243	7.26
354.608	7.26
354.972	7.26
355.337	7.33
355.702	7.34
356.066	7.41
356.431	7.35
356.795	7.44
357.16	7.44
357.524	7.38
357.889	7.35
358.253	7.38
358.618	7.37
358.982	7.31
359.346	7.31
359.71	7.28
360.075	7.28
360.439	7.28
360.803	7.3
361.167	7.3
361.531	7.2
361.895	7.15
362.259	7.11
362.623	7.14
362.987	7.04
363.351	7.04
363.714	7
364.078	7.02
364.442	6.86
364.806	6.9
365.169	6.91
365.533	6.97
365.896	7.05
366.26	7.07
366.623	7
366.987	6.99
367.35	7.01
367.714	6.95
368.077	6.99
368.44	6.9
368.803	6.87
369.167	6.9
369.53	6.9
369.893	6.97
370.256	7.01
370.619	7.06
370.982	7.02
371.345	6.96
371.708	6.97
372.071	6.98
372.434	6.96
372.797	6.95
373.159	6.89
373.522	6.86
373.885	6.81
374.247	6.84
374.61	6.83
374.973	6.79
375.335	6.83
375.698	6.87
376.06	6.93
376.423	6.92
376.785	7.01
377.147	7.04
377.51	7
377.872	7
378.234	7
378.596	7.02
378.958	6.98
379.321	6.93
379.683	7
380.045	7.04
380.407	7
380.769	7.02
381.13	6.93
381.492	6.95
381.854	6.99
382.216	6.98
382.578	6.99
382.939	6.95
383.301	6.89
383.663	6.85
384.024	6.84
384.386	6.86
384.747	6.86
385.109	6.86
385.47	6.81
385.832	6.82
386.193	6.86
386.554	6.98
386.916	7.02
387.277	7.02
387.638	7.05
387.999	7.12
388.36	7.13
388.721	7.19
389.082	7.2
389.443	7.17
389.804	7.17
390.165	7.18
390.526	7.18
390.887	7.18
391.248	7.22
391.609	7.24
391.969	7.21
392.33	7.21
392.691	7.21
393.051	7.23
393.412	7.21
393.772	7.19
394.133	7.16
394.493	7.13
394.854	7.14
395.214	7.11
395.574	7.09
395.935	7.06
396.295	7.04
396.655	7.04
397.015	7.04
397.376	7.05
397.736	7.05
398.096	7.06
398.456	7.07
398.816	7.08
399.176	7.11
399.535	7.08
399.895	7.07
400.255	7.06
400.615	7.03
400.975	7.04
401.334	7.05
401.694	7
402.054	7
402.413	6.96
402.773	6.94
403.132	6.96
403.492	6.97
403.851	6.96
404.211	6.95
404.57	6.97
404.929	7.02
405.288	7.04
405.648	7
406.007	7
406.366	6.99
406.725	6.99
407.084	7.02
407.443	7.02
407.802	7.03
408.161	7.03
408.52	7.03
408.879	7.02
409.238	7.03
409.596	7.06
409.955	7.04
410.314	7.07
410.673	7.05
411.031	7.05
411.39	7.08
411.748	7.06
412.107	7.05
412.465	6.99
412.824	7
413.182	7.04
413.54	7.05
413.899	7.05
414.257	7.05
414.615	7.05
414.974	7.06
415.332	7.06
415.69	7.07
416.048	7.05
416.406	7.08
416.764	7.1
417.122	7.11
417.48	7.12
417.838	7.11
418.195	7.12
418.553	7.12
418.911	7.13
419.269	7.15
419.626	7.16
419.984	7.18
420.342	7.16
420.699	7.14
421.057	7.13
421.414	7.11
421.772	7.11
422.129	7.1
422.486	7.09
422.844	7.1
423.201	7.1
423.558	7.1
423.915	7.08
424.273	7.09
424.63	7.07
424.987	7.07
425.344	7.09
425.701	7.09
426.058	7.1
426.415	7.07
426.772	7.06
427.128	7.06
427.485	7.03
427.842	7.05
428.199	7.09
428.555	7.1
428.912	7.12
429.269	7.14
429.625	7.15
429.982	7.16
430.338	7.14
430.695	7.14
431.051	7.14
431.407	7.13
431.764	7.11
432.12	7.13
432.476	7.14
432.832	7.09
433.189	7.08
433.545	7.07
433.901	7.08
434.257	7.08
434.613	7.1
434.969	7.1
435.325	7.08
435.681	7.08
436.036	7.07
436.392	7.06
436.748	7.04
437.104	7.02
437.459	7.02
437.815	7.03
438.171	7.03
438.526	7.04
438.882	7.05
439.237	7.05
439.593	7.06
439.948	7.07
440.304	7.08
440.659	7.09
441.014	7.09
441.369	7.09
441.725	7.09
442.08	7.07
442.435	7.08
442.79	7.08
443.145	7.07
443.5	7.07
443.855	7.08
444.21	7.09
444.565	7.12
444.92	7.13
445.275	7.14
445.629	7.14
445.984	7.15
446.339	7.14
446.693	7.14
447.048	7.14
447.403	7.11
447.757	7.12
448.112	7.13
448.466	7.12
448.82	7.11
449.175	7.12
449.529	7.11
449.883	7.1
450.238	7.12
450.592	7.1
450.946	7.11
451.3	7.09
451.654	7.08
452.008	7.08
452.362	7.06
452.716	7.06
453.07	7.08
453.424	7.08
453.778	7.07
454.132	7.05
454.486	7.04
454.839	7.05
455.193	7.02
455.547	7
455.9	7.02
456.254	7.03
456.607	7.01
456.961	7.04
457.314	7.04
457.668	7.02
458.021	7.02
458.375	7.04
458.728	7.05
459.081	7.05
459.434	7.04
459.787	7.06
460.141	7.04
460.494	7.04
460.847	7.03
461.2	7.02
461.553	7.04
461.906	7.04
462.259	7.06
462.611	7.06
462.964	7.08
463.317	7.06
463.67	7.07
464.022	7.08
464.375	7.08
464.728	7.08
465.08	7.09
465.433	7.1
465.785	7.09
466.138	7.07
466.49	7.07
466.843	7.09
467.195	7.07
467.547	7.09
467.899	7.09
468.252	7.1
468.604	7.12
468.956	7.1
469.308	7.13
469.66	7.09
470.012	7.11
470.364	7.11
470.716	7.12
471.068	7.12
471.42	7.12
471.772	7.13
472.123	7.14
472.475	7.13
472.827	7.13
473.178	7.13
473.53	7.15
473.882	7.17
474.233	7.16
474.585	7.17
474.936	7.12
475.288	7.1
475.639	7.13
475.99	7.13
476.342	7.13
476.693	7.11
477.044	7.12
477.395	7.13
477.746	7.12
478.097	7.11
478.448	7.11
478.8	7.11
479.15	7.09
479.501	7.08
479.852	7.1
480.203	7.1
480.554	7.12
480.905	7.13
481.255	7.14
481.606	7.16
481.957	7.17
482.307	7.19
482.658	7.21
483.009	7.21
483.359	7.23
483.709	7.23
484.06	7.23
484.41	7.25
484.761	7.26
485.111	7.26
485.461	7.28
485.811	7.27
486.162	7.28
486.512	7.31
486.862	7.31
487.212	7.32
487.562	7.34
487.912	7.33
488.262	7.33
488.612	7.34
488.961	7.32
489.311	7.33
489.661	7.34
490.011	7.33
490.36	7.34
490.71	7.34
491.06	7.34
491.409	7.34
491.759	7.33
492.108	7.33
492.458	7.33
492.807	7.32
493.157	7.32
493.506	7.32
493.855	7.31
494.204	7.31
494.554	7.31
494.903	7.31
495.252	7.3
495.601	7.31
495.95	7.3
496.299	7.31
496.648	7.31
496.997	7.28
497.346	7.29
497.695	7.28
498.043	7.27
498.392	7.28
498.741	7.29
499.09	7.28
499.438	7.28
499.787	7.31
500.135	7.32
500.484	7.33
500.832	7.34
501.181	7.34
501.529	7.36
501.878	7.37
502.226	7.36
502.574	7.38
502.923	7.36
503.271	7.37
503.619	7.39
503.967	7.4
504.315	7.4
504.663	7.38
505.011	7.38
505.359	7.38
505.707	7.36
506.055	7.35
506.403	7.38
506.751	7.38
507.098	7.38
507.446	7.39
507.794	7.39
508.141	7.37
508.489	7.39
508.837	7.41
509.184	7.39
509.531	7.4
509.879	7.4
510.226	7.41
510.574	7.4
510.921	7.39
511.268	7.38
511.616	7.4
511.963	7.41
512.31	7.41
512.657	7.43
513.004	7.47
513.351	7.49
513.698	7.5
514.045	7.51
514.392	7.5
514.739	7.5
515.086	7.5
515.432	7.48
515.779	7.48
516.126	7.48
516.473	7.49
516.819	7.5
517.166	7.51
517.512	7.52
517.859	7.52
518.205	7.53
518.552	7.53
518.898	7.53
519.245	7.53
519.591	7.52
519.937	7.51
520.283	7.51
520.629	7.51
520.976	7.52
521.322	7.52
521.668	7.52
522.014	7.52
522.36	7.52
522.706	7.56
523.052	7.56
523.398	7.58
523.743	7.6
524.089	7.61
524.435	7.6
524.781	7.6
525.126	7.63
525.472	7.63
525.817	7.67
526.163	7.67
526.509	7.69
526.854	7.7
527.199	7.71
527.545	7.7
527.89	7.71
528.235	7.71
528.581	7.71
528.926	7.72
529.271	7.72
529.616	7.73
529.961	7.72
530.306	7.72
530.651	7.7
530.996	7.71
531.341	7.71
531.686	7.73
532.031	7.74
532.376	7.74
532.721	7.75
533.065	7.73
533.41	7.72
533.755	7.71
534.099	7.72
534.444	7.72
534.788	7.73
535.133	7.72
535.477	7.73
535.822	7.72
536.166	7.73
536.51	7.74
536.855	7.74
537.199	7.75
537.543	7.76
537.887	7.78
538.231	7.78
538.576	7.78
538.92	7.77
539.264	7.75
539.608	7.77
539.951	7.78
540.295	7.81
540.639	7.82
540.983	7.82
541.327	7.81
541.671	7.81
542.014	7.82
542.358	7.84
542.701	7.85
543.045	7.85
543.389	7.85
543.732	7.85
544.075	7.87
544.419	7.87
544.762	7.88
545.105	7.88
545.449	7.87
545.792	7.88
546.135	7.89
546.478	7.91
546.821	7.9
547.165	7.87
547.508	7.87
547.851	7.88
548.194	7.88
548.536	7.9
548.879	7.9
549.222	7.89
549.565	7.87
549.908	7.87
550.25	7.86
550.593	7.89
550.936	7.85
551.278	7.84
551.621	7.87
551.963	7.84
552.306	7.83
552.648	7.84
552.991	7.86
553.333	7.86
553.675	7.87
554.017	7.89
554.36	7.9
554.702	7.9
555.044	7.88
555.386	7.91
555.728	7.9
556.07	7.93
556.412	7.94
556.754	7.94
557.096	7.92
557.438	7.94
557.78	7.92
558.121	7.98
558.463	8.02
558.805	7.99
559.147	8
559.488	8.02
559.83	8.01
560.171	7.99
560.513	8
560.854	7.99
561.196	7.98
561.537	8
561.878	7.98
562.22	7.95
562.561	7.92
562.902	7.93
563.243	7.93
563.584	7.94
563.925	7.94
564.266	7.95
564.607	7.93
564.948	7.95
565.289	7.9
565.63	7.9
565.971	7.92
566.312	7.91
566.653	7.92
566.993	7.9
567.334	7.92
567.675	7.93
568.015	7.95
568.356	7.96
568.696	7.98
569.037	7.99
569.377	8.04
569.718	8.07
570.058	8.06
570.398	8.04
570.739	8.06
571.079	8.06
571.419	8.09
571.759	8.13
572.099	8.12
572.439	8.14
572.779	8.16
573.119	8.16
573.459	8.18
573.799	8.19
574.139	8.22
574.479	8.19
574.819	8.18
575.158	8.15
575.498	8.15
575.838	8.16
576.177	8.17
576.517	8.17
576.856	8.14
577.196	8.14
577.535	8.14
577.875	8.13
578.214	8.14
578.553	8.13
578.893	8.09
579.232	8.09
579.571	8.09
579.91	8.04
580.25	8.06
580.589	8.07
580.928	8.06
581.267	8.09
581.606	8.09
581.945	8.09
582.283	8.13
582.622	8.11
582.961	8.07
583.3	8.09
583.639	8.12
583.977	8.14
584.316	8.15
584.654	8.17
584.993	8.18
585.332	8.18
585.67	8.17
586.008	8.23
586.347	8.21
586.685	8.21
587.024	8.22
587.362	8.17
587.7	8.15
588.038	8.14
588.376	8.1
588.715	8.13
589.053	8.17
589.391	8.15
589.729	8.15
590.067	8.14
590.404	8.15
590.742	8.11
591.08	8.09
591.418	8.13
591.756	8.14
592.093	8.11
592.431	8.16
592.769	8.16
593.106	8.15
593.444	8.17
593.781	8.2
594.119	8.22
594.456	8.23
594.793	8.24
595.131	8.24
595.468	8.27
595.805	8.26
596.143	8.23
596.48	8.27
596.817	8.26
597.154	8.28
597.491	8.27
597.828	8.3
598.165	8.32
598.502	8.29
598.839	8.27
599.176	8.31
599.512	8.26
599.849	8.28
600.186	8.27
600.523	8.29
600.859	8.3
601.196	8.29
601.532	8.27
601.869	8.3
602.205	8.3
602.542	8.27
602.878	8.28
603.215	8.29
603.551	8.28
603.887	8.3
604.223	8.31
604.56	8.35
604.896	8.33
605.232	8.35
605.568	8.38
605.904	8.4
606.24	8.41
606.576	8.42
606.912	8.4
607.248	8.39
607.583	8.38
607.919	8.36
608.255	8.34
608.591	8.4
608.926	8.37
609.262	8.41
609.597	8.44
609.933	8.46
610.268	8.46
610.604	8.46
610.939	8.48
611.275	8.46
611.61	8.45
611.945	8.43
612.281	8.44
612.616	8.46
612.951	8.47
613.286	8.42
613.621	8.46
613.956	8.47
614.291	8.51
614.626	8.51
614.961	8.48
615.296	8.52
615.631	8.5
615.966	8.48
616.3	8.46
616.635	8.46
616.97	8.49
617.304	8.49
617.639	8.5
617.973	8.46
618.308	8.48
618.642	8.46
618.977	8.46
619.311	8.39
619.646	8.33
619.98	8.3
620.314	8.33
620.648	8.32
620.983	8.37
621.317	8.36
621.651	8.38
621.985	8.46
622.319	8.46
622.653	8.44
622.987	8.49
623.321	8.5
623.655	8.51
623.988	8.5
624.322	8.44
624.656	8.47
624.99	8.48
625.323	8.49
625.657	8.54
625.99	8.6
626.324	8.63
626.657	8.69
626.991	8.73
627.324	8.71
627.658	8.69
627.991	8.65
628.324	8.65
628.657	8.65
628.991	8.62
629.324	8.62
629.657	8.64
629.99	8.64
630.323	8.66
630.656	8.67
630.989	8.72
631.322	8.81
631.655	8.77
631.987	8.79
632.32	8.81
632.653	8.8
632.986	8.82
633.318	8.82
633.651	8.83
633.984	8.78
634.316	8.82
634.649	8.84
634.981	8.87
635.313	8.86
635.646	8.85
635.978	8.84
636.31	8.84
636.643	8.85
636.975	8.82
637.307	8.85
637.639	8.84
637.971	8.78
638.303	8.74
638.635	8.66
638.967	8.62
639.299	8.62
639.631	8.54
639.963	8.42
640.295	8.45
640.626	8.41
640.958	8.47
641.29	8.45
641.621	8.46
641.953	8.4
642.285	8.5
642.616	8.54
642.948	8.5
643.279	8.55
643.61	8.52
643.942	8.57
644.273	8.54
644.604	8.57
644.936	8.51
645.267	8.52
645.598	8.54
645.929	8.55
646.26	8.59
646.591	8.68
646.922	8.72
647.253	8.74
647.584	8.71
647.915	8.72
648.245	8.73
648.576	8.74
648.907	8.79
649.238	8.7
649.568	8.68
649.899	8.73
650.229	8.75
650.56	8.76
650.89	8.74
651.221	8.73
651.551	8.66
651.882	8.73
652.212	8.8
652.542	8.9
652.872	8.87
653.203	8.81
653.533	8.8
653.863	8.87
654.193	8.82
654.523	8.94
654.853	8.92
655.183	8.9
655.513	8.91
655.843	8.94
656.172	8.91
656.502	8.93
656.832	8.9
657.162	8.88
657.491	8.91
657.821	8.88
658.15	8.85
658.48	8.9
658.809	8.89
659.139	8.8
659.468	8.78
659.798	8.8
660.127	8.82
660.456	8.86
660.785	8.87
661.115	8.9
661.444	8.82
661.773	8.78
662.102	8.79
662.431	8.79
662.76	8.82
663.089	8.85
663.418	8.87
663.747	8.91
664.076	8.93
664.404	8.9
664.733	8.95
665.062	8.98
665.39	8.99
665.719	8.99
666.048	9.06
666.376	9.1
666.705	9.11
667.033	9.03
667.362	8.96
667.69	8.92
668.018	8.92
668.347	8.94
668.675	9.01
669.003	9.05
669.331	9.11
669.659	9.09
669.987	9.11
670.315	9.06
670.643	9.03
670.971	8.98
671.299	9.03
671.627	8.98
671.955	8.98
672.283	8.92
672.61	8.98
672.938	9.12
673.266	9.07
673.593	9.21
673.921	9.32
674.249	9.29
674.576	9.22
674.904	9.24
675.231	9.18
675.558	9.16
675.886	9.15
676.213	9.03
676.54	8.97
676.867	8.95
677.195	9
677.522	9
677.849	9.08
678.176	8.98
678.503	9.08
678.83	9.11
