Data from BA56832_Reflection_00009.txt Node
Date: Mon Nov 18 16:09:58 EST 2019
User: vgr7
Spectrometer: USB2G7710
Scans to average: 3
Trigger mode: 4
Integration Time (sec): 2.000000E-2
Electric dark correction enabled: true
Boxcar width: 10
XAxis mode: Wavelengths
Number of Pixels in Spectrum: 2048
>>>>>Begin Spectral Data<<<<<
177.721	-41.55
178.105	3.37
178.488	41.34
178.871	100
179.254	103.71
179.636	48.47
180.019	-164.19
180.402	284.62
180.785	192.78
181.168	38.36
181.55	11.64
181.933	80.81
182.316	145.49
182.698	282.97
183.081	105.75
183.463	93.15
183.846	107.05
184.228	46.26
184.611	54.51
184.993	46.77
185.376	70.96
185.758	97.09
186.14	161.36
186.522	382.15
186.904	4759.57
187.287	4930.51
187.669	-1950.36
188.051	-415.82
188.433	-336.44
188.815	-455.09
189.197	-226.81
189.579	-98.71
189.961	-55.65
190.342	-69.21
190.724	-10.86
191.106	-4.7
191.488	-29.99
191.869	-2.35
192.251	-22.78
192.633	-23.69
193.014	-65.81
193.396	-122.99
193.777	-122.39
194.159	-149.44
194.54	-27.72
194.922	-0.82
195.303	1.45
195.684	41.55
196.065	54.94
196.447	24.49
196.828	4.34
197.209	-9.59
197.59	-22.05
197.971	-26.68
198.352	-24.05
198.733	-48.31
199.114	-85.66
199.495	-58.53
199.876	-99.47
200.257	-54.1
200.638	-40.04
201.018	-44.1
201.399	-42.45
201.78	-36.63
202.16	-52.66
202.541	-100.6
202.922	-189.86
203.302	-185.26
203.683	-163.59
204.063	-190.43
204.444	-164.87
204.824	-128.28
205.204	-127.06
205.585	-137.93
205.965	-139.29
206.345	-156.4
206.725	-144.08
207.106	-229.16
207.486	-434.57
207.866	-399.5
208.246	-904.68
208.626	14272.41
209.006	-3108.7
209.386	-920.78
209.766	-498.41
210.145	-281.73
210.525	-155.87
210.905	-106.09
211.285	-77.74
211.664	-80.9
212.044	-75.58
212.424	-95.67
212.803	-129.18
213.183	-120.69
213.562	-77.79
213.942	-65.13
214.321	-19.54
214.701	-39.04
215.08	-45.26
215.459	-23.77
215.838	-19.34
216.218	-11.02
216.597	4.15
216.976	10.01
217.355	19.56
217.734	28.79
218.113	27.48
218.492	29.18
218.871	15.95
219.25	20.76
219.629	10.79
220.008	-22.87
220.387	3.14
220.766	5.09
221.144	-15.22
221.523	-44.97
221.902	-93.87
222.28	-103.77
222.659	-67.7
223.037	-27.72
223.416	-51.27
223.794	-54.11
224.173	-64.73
224.551	-56.05
224.929	-47.96
225.308	-37.62
225.686	-27.47
226.064	-26.21
226.442	-16.74
226.821	-9.68
227.199	-11.58
227.577	-9.19
227.955	-5.91
228.333	-9.71
228.711	-7.22
229.089	-1.33
229.467	-3.41
229.845	-3.59
230.222	-4.9
230.6	-2.92
230.978	-4.25
231.356	0.48
231.733	0.53
232.111	3.7
232.488	3.42
232.866	1.62
233.243	0.33
233.621	-1.1
233.998	0.04
234.376	-0.12
234.753	1.06
235.13	3.15
235.508	1.95
235.885	1.5
236.262	1.83
236.639	0.99
237.016	1.29
237.393	2.34
237.77	3.4
238.147	4.66
238.524	3.68
238.901	4.19
239.278	4.25
239.655	5.38
240.032	4.23
240.409	3.96
240.785	4.44
241.162	4.59
241.539	4.6
241.915	4.13
242.292	3.85
242.668	3.32
243.045	3.61
243.421	3.62
243.798	3.9
244.174	4.26
244.551	4.39
244.927	4.3
245.303	4.4
245.679	4.64
246.056	4.37
246.432	4.3
246.808	4.24
247.184	3.92
247.56	3.78
247.936	3.87
248.312	3.99
248.688	4.25
249.064	4.06
249.44	4.18
249.815	4.4
250.191	4.51
250.567	4.75
250.943	4.46
251.318	4.78
251.694	4.75
252.069	4.43
252.445	4.52
252.82	4.59
253.196	4.54
253.571	4.44
253.947	4.45
254.322	4.66
254.697	4.54
255.073	4.64
255.448	4.15
255.823	4.15
256.198	4.25
256.573	3.81
256.948	4.08
257.323	4.11
257.698	3.97
258.073	3.84
258.448	3.9
258.823	3.92
259.198	3.72
259.573	3.71
259.948	3.82
260.322	3.67
260.697	3.6
261.072	3.49
261.446	3.42
261.821	3.39
262.195	3.45
262.57	3.45
262.944	3.24
263.319	3.41
263.693	3.37
264.067	3.46
264.442	3.47
264.816	3.12
265.19	2.91
265.564	2.94
265.938	2.8
266.313	2.64
266.687	2.61
267.061	2.79
267.435	2.74
267.809	2.74
268.183	2.86
268.556	2.64
268.93	2.85
269.304	3.02
269.678	3.14
270.051	3.04
270.425	2.97
270.799	3.18
271.172	3.31
271.546	3.32
271.919	3.17
272.293	3.25
272.666	3.55
273.04	3.71
273.413	3.75
273.787	3.73
274.16	3.7
274.533	3.76
274.906	3.65
275.279	3.83
275.653	3.76
276.026	3.75
276.399	3.83
276.772	3.85
277.145	3.57
277.518	3.53
277.891	3.7
278.263	3.71
278.636	3.83
279.009	3.68
279.382	3.76
279.755	3.63
280.127	3.67
280.5	3.55
280.872	3.51
281.245	3.55
281.617	3.84
281.99	3.9
282.362	3.86
282.735	3.84
283.107	3.71
283.479	3.88
283.852	3.79
284.224	3.87
284.596	3.75
284.968	3.94
285.34	3.98
285.713	3.85
286.085	3.96
286.457	3.91
286.829	4.02
287.201	3.98
287.572	4.02
287.944	3.98
288.316	4.03
288.688	4.03
289.06	3.99
289.431	3.98
289.803	4.03
290.175	4.03
290.546	4.21
290.918	4.2
291.289	4.16
291.661	4.25
292.032	4.4
292.403	4.51
292.775	4.51
293.146	4.58
293.517	4.62
293.889	4.59
294.26	4.56
294.631	4.52
295.002	4.51
295.373	4.69
295.744	4.74
296.115	4.85
296.486	4.83
296.857	4.86
297.228	4.84
297.599	4.76
297.97	4.79
298.34	4.82
298.711	4.92
299.082	4.88
299.452	4.92
299.823	4.86
300.194	4.88
300.564	4.9
300.935	4.98
301.305	5.02
301.676	5.14
302.046	5.21
302.416	5.27
302.787	5.13
303.157	5.09
303.527	5.07
303.897	5.16
304.267	5.21
304.637	5.35
305.008	5.45
305.378	5.57
305.748	5.66
306.117	5.63
306.487	5.74
306.857	5.79
307.227	5.86
307.597	5.95
307.967	6.04
308.336	6.1
308.706	6.06
309.076	6.23
309.445	6.14
309.815	6.28
310.184	6.28
310.554	6.55
310.923	6.48
311.293	6.52
311.662	6.38
312.031	6.51
312.401	6.46
312.77	6.63
313.139	6.68
313.508	6.77
313.877	6.73
314.246	6.71
314.616	6.75
314.985	6.78
315.353	6.74
315.722	6.9
316.091	7.02
316.46	7.19
316.829	7.2
317.198	7.37
317.567	7.37
317.935	7.46
318.304	7.47
318.672	7.5
319.041	7.73
319.41	7.8
319.778	7.78
320.147	8.03
320.515	7.9
320.883	8.01
321.252	7.98
321.62	8.13
321.988	8.2
322.357	8.34
322.725	8.39
323.093	8.64
323.461	8.65
323.829	8.67
324.197	8.78
324.565	8.82
324.933	8.79
325.301	8.67
325.669	8.78
326.037	8.82
326.405	8.9
326.772	8.85
327.14	8.98
327.508	9.11
327.875	8.87
328.243	8.91
328.61	8.92
328.978	8.99
329.346	9.03
329.713	9.02
330.08	9.1
330.448	9.08
330.815	8.94
331.182	8.94
331.55	8.98
331.917	8.9
332.284	9.12
332.651	9.18
333.018	9.32
333.385	9.36
333.752	9.39
334.119	9.48
334.486	9.53
334.853	9.46
335.22	9.5
335.587	9.62
335.954	9.69
336.32	9.67
336.687	9.71
337.054	9.72
337.42	9.89
337.787	9.88
338.153	9.98
338.52	10.12
338.886	10.07
339.253	9.96
339.619	10.01
339.986	9.85
340.352	9.94
340.718	9.96
341.084	9.97
341.451	9.98
341.817	10.08
342.183	10.1
342.549	10.19
342.915	10.15
343.281	10.31
343.647	10.28
344.013	10.46
344.379	10.41
344.745	10.51
345.11	10.37
345.476	10.41
345.842	10.4
346.208	10.4
346.573	10.52
346.939	10.62
347.304	10.65
347.67	10.57
348.035	10.55
348.401	10.63
348.766	10.61
349.132	10.66
349.497	10.66
349.862	10.73
350.228	10.74
350.593	10.79
350.958	10.72
351.323	10.75
351.688	10.69
352.053	10.83
352.418	10.76
352.783	10.83
353.148	10.83
353.513	10.84
353.878	10.83
354.243	10.76
354.608	10.74
354.972	10.76
355.337	10.94
355.702	10.97
356.066	11
356.431	10.96
356.795	11.07
357.16	11.03
357.524	11
357.889	10.9
358.253	10.98
358.618	10.99
358.982	11.07
359.346	11.06
359.71	11.04
360.075	11.09
360.439	11.09
360.803	11.16
361.167	11.08
361.531	11.15
361.895	11.13
362.259	11.16
362.623	11.05
362.987	10.95
363.351	10.89
363.714	10.84
364.078	10.79
364.442	10.66
364.806	10.63
365.169	10.6
365.533	10.63
365.896	10.49
366.26	10.42
366.623	10.33
366.987	10.25
367.35	10.14
367.714	10.08
368.077	10.01
368.44	9.84
368.803	9.87
369.167	9.72
369.53	9.65
369.893	9.55
370.256	9.56
370.619	9.49
370.982	9.44
371.345	9.35
371.708	9.37
372.071	9.34
372.434	9.27
372.797	9.19
373.159	9.14
373.522	9.15
373.885	9.11
374.247	9.04
374.61	9.02
374.973	8.93
375.335	8.81
375.698	8.79
376.06	8.76
376.423	8.7
376.785	8.68
377.147	8.71
377.51	8.71
377.872	8.69
378.234	8.68
378.596	8.65
378.958	8.64
379.321	8.6
379.683	8.57
380.045	8.51
380.407	8.46
380.769	8.36
381.13	8.23
381.492	8.19
381.854	8.18
382.216	8.15
382.578	8.14
382.939	8.11
383.301	8.07
383.663	8.01
384.024	7.93
384.386	7.89
384.747	7.82
385.109	7.74
385.47	7.66
385.832	7.63
386.193	7.6
386.554	7.52
386.916	7.48
387.277	7.41
387.638	7.39
387.999	7.38
388.36	7.37
388.721	7.39
389.082	7.38
389.443	7.28
389.804	7.2
390.165	7.21
390.526	7.18
390.887	7.12
391.248	7.08
391.609	7.08
391.969	7.03
392.33	6.94
392.691	6.93
393.051	6.91
393.412	6.88
393.772	6.87
394.133	6.85
394.493	6.8
394.854	6.82
395.214	6.79
395.574	6.74
395.935	6.72
396.295	6.67
396.655	6.59
397.015	6.56
397.376	6.52
397.736	6.44
398.096	6.43
398.456	6.4
398.816	6.39
399.176	6.32
399.535	6.29
399.895	6.26
400.255	6.24
400.615	6.19
400.975	6.13
401.334	6.09
401.694	6.08
402.054	6.04
402.413	5.96
402.773	5.91
403.132	5.87
403.492	5.86
403.851	5.82
404.211	5.82
404.57	5.8
404.929	5.82
405.288	5.79
405.648	5.76
406.007	5.74
406.366	5.72
406.725	5.72
407.084	5.7
407.443	5.7
407.802	5.7
408.161	5.65
408.52	5.64
408.879	5.58
409.238	5.56
409.596	5.53
409.955	5.51
410.314	5.5
410.673	5.47
411.031	5.43
411.39	5.4
411.748	5.39
412.107	5.38
412.465	5.31
412.824	5.3
413.182	5.25
413.54	5.23
413.899	5.21
414.257	5.18
414.615	5.16
414.974	5.15
415.332	5.07
415.69	5.06
416.048	5.03
416.406	5.04
416.764	5.01
417.122	5
417.48	4.97
417.838	4.96
418.195	4.95
418.553	4.93
418.911	4.93
419.269	4.91
419.626	4.88
419.984	4.87
420.342	4.87
420.699	4.87
421.057	4.85
421.414	4.82
421.772	4.82
422.129	4.8
422.486	4.77
422.844	4.77
423.201	4.77
423.558	4.76
423.915	4.74
424.273	4.73
424.63	4.72
424.987	4.7
425.344	4.68
425.701	4.66
426.058	4.64
426.415	4.62
426.772	4.6
427.128	4.6
427.485	4.58
427.842	4.55
428.199	4.54
428.555	4.52
428.912	4.52
429.269	4.51
429.625	4.5
429.982	4.5
430.338	4.49
430.695	4.48
431.051	4.48
431.407	4.46
431.764	4.43
432.12	4.43
432.476	4.43
432.832	4.44
433.189	4.45
433.545	4.43
433.901	4.41
434.257	4.4
434.613	4.39
434.969	4.39
435.325	4.4
435.681	4.39
436.036	4.38
436.392	4.39
436.748	4.37
437.104	4.36
437.459	4.36
437.815	4.35
438.171	4.36
438.526	4.36
438.882	4.35
439.237	4.36
439.593	4.37
439.948	4.37
440.304	4.36
440.659	4.37
441.014	4.36
441.369	4.34
441.725	4.34
442.08	4.34
442.435	4.33
442.79	4.32
443.145	4.32
443.5	4.31
443.855	4.29
444.21	4.27
444.565	4.27
444.92	4.25
445.275	4.24
445.629	4.22
445.984	4.2
446.339	4.19
446.693	4.16
447.048	4.14
447.403	4.11
447.757	4.11
448.112	4.09
448.466	4.09
448.82	4.08
449.175	4.06
449.529	4.07
449.883	4.05
450.238	4.03
450.592	4.02
450.946	4.02
451.3	4.02
451.654	4.02
452.008	4.02
452.362	4.01
452.716	4.02
453.07	4.02
453.424	4.03
453.778	4.03
454.132	4.04
454.486	4.04
454.839	4.03
455.193	4
455.547	4
455.9	4
456.254	4.02
456.607	4.04
456.961	4.04
457.314	4.02
457.668	4.02
458.021	4.03
458.375	4.03
458.728	4.02
459.081	4.02
459.434	4.02
459.787	4.02
460.141	4.02
460.494	4.03
460.847	4.01
461.2	4.02
461.553	4.02
461.906	4.03
462.259	4.05
462.611	4.08
462.964	4.09
463.317	4.11
463.67	4.11
464.022	4.13
464.375	4.13
464.728	4.17
465.08	4.2
465.433	4.18
465.785	4.2
466.138	4.24
466.49	4.25
466.843	4.26
467.195	4.27
467.547	4.27
467.899	4.27
468.252	4.29
468.604	4.29
468.956	4.28
469.308	4.27
469.66	4.26
470.012	4.27
470.364	4.29
470.716	4.29
471.068	4.29
471.42	4.27
471.772	4.28
472.123	4.28
472.475	4.26
472.827	4.3
473.178	4.31
473.53	4.29
473.882	4.29
474.233	4.29
474.585	4.27
474.936	4.28
475.288	4.29
475.639	4.3
475.99	4.3
476.342	4.29
476.693	4.3
477.044	4.32
477.395	4.32
477.746	4.3
478.097	4.27
478.448	4.26
478.8	4.24
479.15	4.24
479.501	4.22
479.852	4.22
480.203	4.22
480.554	4.21
480.905	4.21
481.255	4.21
481.606	4.21
481.957	4.21
482.307	4.22
482.658	4.22
483.009	4.22
483.359	4.22
483.709	4.23
484.06	4.24
484.41	4.25
484.761	4.25
485.111	4.25
485.461	4.27
485.811	4.28
486.162	4.28
486.512	4.29
486.862	4.31
487.212	4.31
487.562	4.31
487.912	4.32
488.262	4.32
488.612	4.34
488.961	4.35
489.311	4.36
489.661	4.37
490.011	4.38
490.36	4.39
490.71	4.4
491.06	4.41
491.409	4.41
491.759	4.42
492.108	4.43
492.458	4.44
492.807	4.43
493.157	4.44
493.506	4.47
493.855	4.47
494.204	4.47
494.554	4.49
494.903	4.52
495.252	4.54
495.601	4.58
495.95	4.6
496.299	4.6
496.648	4.6
496.997	4.63
497.346	4.66
497.695	4.7
498.043	4.71
498.392	4.73
498.741	4.76
499.09	4.76
499.438	4.78
499.787	4.81
500.135	4.83
500.484	4.86
500.832	4.91
501.181	4.95
501.529	4.96
501.878	4.99
502.226	5.01
502.574	5.05
502.923	5.06
503.271	5.07
503.619	5.13
503.967	5.18
504.315	5.19
504.663	5.21
505.011	5.25
505.359	5.31
505.707	5.36
506.055	5.41
506.403	5.47
506.751	5.53
507.098	5.57
507.446	5.64
507.794	5.68
508.141	5.69
508.489	5.75
508.837	5.82
509.184	5.85
509.531	5.93
509.879	5.97
510.226	6.03
510.574	6.09
510.921	6.14
511.268	6.2
511.616	6.26
511.963	6.31
512.31	6.36
512.657	6.4
513.004	6.45
513.351	6.49
513.698	6.53
514.045	6.57
514.392	6.64
514.739	6.69
515.086	6.75
515.432	6.81
515.779	6.84
516.126	6.89
516.473	6.95
516.819	6.98
517.166	7.02
517.512	7.06
517.859	7.12
518.205	7.17
518.552	7.2
518.898	7.23
519.245	7.28
519.591	7.33
519.937	7.37
520.283	7.43
520.629	7.5
520.976	7.57
521.322	7.65
521.668	7.71
522.014	7.78
522.36	7.83
522.706	7.9
523.052	8.01
523.398	8.11
523.743	8.21
524.089	8.29
524.435	8.4
524.781	8.5
525.126	8.57
525.472	8.65
525.817	8.72
526.163	8.8
526.509	8.89
526.854	8.93
527.199	8.99
527.545	9.04
527.89	9.11
528.235	9.17
528.581	9.22
528.926	9.29
529.271	9.37
529.616	9.45
529.961	9.52
530.306	9.6
530.651	9.68
530.996	9.77
531.341	9.86
531.686	9.96
532.031	10.05
532.376	10.16
532.721	10.27
533.065	10.39
533.41	10.53
533.755	10.63
534.099	10.79
534.444	10.92
534.788	11.06
535.133	11.19
535.477	11.33
535.822	11.48
536.166	11.65
536.51	11.82
536.855	12
537.199	12.22
537.543	12.41
537.887	12.62
538.231	12.82
538.576	13.06
538.92	13.27
539.264	13.47
539.608	13.67
539.951	13.85
540.295	14.01
540.639	14.17
540.983	14.35
541.327	14.53
541.671	14.72
542.014	14.91
542.358	15.09
542.701	15.28
543.045	15.46
543.389	15.63
543.732	15.82
544.075	16.05
544.419	16.24
544.762	16.48
545.105	16.7
545.449	16.94
545.792	17.17
546.135	17.43
546.478	17.72
546.821	17.99
547.165	18.28
547.508	18.58
547.851	18.91
548.194	19.21
548.536	19.53
548.879	19.85
549.222	20.19
549.565	20.51
549.908	20.86
550.25	21.21
550.593	21.6
550.936	21.95
551.278	22.28
551.621	22.65
551.963	22.99
552.306	23.38
552.648	23.73
552.991	24.05
553.333	24.42
553.675	24.75
554.017	25.09
554.36	25.43
554.702	25.82
555.044	26.21
555.386	26.59
555.728	26.95
556.07	27.33
556.412	27.68
556.754	28.04
557.096	28.39
557.438	28.78
557.78	29.16
558.121	29.54
558.463	29.96
558.805	30.35
559.147	30.65
559.488	30.99
559.83	31.31
560.171	31.7
560.513	32.04
560.854	32.38
561.196	32.74
561.537	33.05
561.878	33.38
562.22	33.67
562.561	34
562.902	34.3
563.243	34.57
563.584	34.91
563.925	35.2
564.266	35.53
564.607	35.84
564.948	36.17
565.289	36.44
565.63	36.7
565.971	37
566.312	37.28
566.653	37.5
566.993	37.8
567.334	38.09
567.675	38.35
568.015	38.61
568.356	38.91
568.696	39.19
569.037	39.43
569.377	39.68
569.718	39.92
570.058	40.15
570.398	40.43
570.739	40.65
571.079	40.86
571.419	41.08
571.759	41.25
572.099	41.4
572.439	41.64
572.779	41.8
573.119	42
573.459	42.25
573.799	42.52
574.139	42.66
574.479	42.82
574.819	43.01
575.158	43.21
575.498	43.42
575.838	43.67
576.177	43.83
576.517	44.01
576.856	44.2
577.196	44.45
577.535	44.65
577.875	44.85
578.214	45.1
578.553	45.32
578.893	45.53
579.232	45.68
579.571	45.85
579.91	46.02
580.25	46.19
580.589	46.35
580.928	46.45
581.267	46.66
581.606	46.82
581.945	46.94
582.283	47.14
582.622	47.25
582.961	47.34
583.3	47.53
583.639	47.68
583.977	47.78
584.316	47.85
584.654	47.93
584.993	48.06
585.332	48.11
585.67	48.18
586.008	48.31
586.347	48.49
586.685	48.6
587.024	48.78
587.362	48.81
587.7	48.83
588.038	48.98
588.376	49.07
588.715	49.19
589.053	49.3
589.391	49.36
589.729	49.4
590.067	49.55
590.404	49.65
590.742	49.71
591.08	49.75
591.418	49.91
591.756	50.03
592.093	50.15
592.431	50.29
592.769	50.37
593.106	50.46
593.444	50.53
593.781	50.66
594.119	50.74
594.456	50.85
594.793	50.98
595.131	51.04
595.468	51.17
595.805	51.26
596.143	51.32
596.48	51.35
596.817	51.48
597.154	51.52
597.491	51.56
597.828	51.74
598.165	51.85
598.502	51.86
598.839	51.97
599.176	52
599.512	52.13
599.849	52.27
600.186	52.33
600.523	52.41
600.859	52.4
601.196	52.45
601.532	52.48
601.869	52.49
602.205	52.5
602.542	52.57
602.878	52.57
603.215	52.63
603.551	52.72
603.887	52.77
604.223	52.84
604.56	52.88
604.896	52.91
605.232	52.99
605.568	53.06
605.904	53.1
606.24	53.11
606.576	53.08
606.912	53.06
607.248	53.07
607.583	53.14
607.919	53.25
608.255	53.27
608.591	53.29
608.926	53.42
609.262	53.45
609.597	53.47
609.933	53.53
610.268	53.58
610.604	53.62
610.939	53.61
611.275	53.65
611.61	53.7
611.945	53.64
612.281	53.72
612.616	53.77
612.951	53.88
613.286	53.93
613.621	54.02
613.956	54.04
614.291	54.21
614.626	54.26
614.961	54.25
615.296	54.31
615.631	54.35
615.966	54.31
616.3	54.43
616.635	54.43
616.97	54.49
617.304	54.5
617.639	54.56
617.973	54.55
618.308	54.58
618.642	54.58
618.977	54.69
619.311	54.68
619.646	54.67
619.98	54.63
620.314	54.67
620.648	54.66
620.983	54.7
621.317	54.61
621.651	54.67
621.985	54.61
622.319	54.71
622.653	54.81
622.987	54.91
623.321	54.91
623.655	54.97
623.988	54.99
624.322	54.95
624.656	54.93
624.99	55.05
625.323	55.04
625.657	55.11
625.99	55.09
626.324	55.06
626.657	55.1
626.991	55.11
627.324	55.18
627.658	55.28
627.991	55.35
628.324	55.41
628.657	55.41
628.991	55.54
629.324	55.52
629.657	55.62
629.99	55.63
630.323	55.68
630.656	55.72
630.989	55.83
631.322	55.96
631.655	55.98
631.987	55.99
632.32	56
632.653	56.04
632.986	56.13
633.318	56.18
633.651	56.2
633.984	56.21
634.316	56.24
634.649	56.19
634.981	56.31
635.313	56.3
635.646	56.25
635.978	56.31
636.31	56.35
636.643	56.28
636.975	56.24
637.307	56.24
637.639	56.1
637.971	56.03
638.303	56.1
638.635	56.15
638.967	56.12
639.299	56.13
639.631	56.22
639.963	56.21
640.295	56.24
640.626	56.19
640.958	56.16
641.29	56.24
641.621	56.27
641.953	56.2
642.285	56.22
642.616	56.27
642.948	56.37
643.279	56.3
643.61	56.32
643.942	56.36
644.273	56.31
644.604	56.48
644.936	56.54
645.267	56.47
645.598	56.51
645.929	56.56
646.26	56.63
646.591	56.54
646.922	56.45
647.253	56.5
647.584	56.54
647.915	56.55
648.245	56.33
648.576	56.4
648.907	56.37
649.238	56.39
649.568	56.52
649.899	56.38
650.229	56.49
650.56	56.5
650.89	56.6
651.221	56.7
651.551	56.65
651.882	56.69
652.212	56.73
652.542	56.69
652.872	56.67
653.203	56.62
653.533	56.65
653.863	56.74
654.193	56.67
654.523	56.71
654.853	56.71
655.183	56.82
655.513	56.69
655.843	56.75
656.172	56.86
656.502	56.82
656.832	56.87
657.162	56.94
657.491	56.96
657.821	56.94
658.15	56.92
658.48	56.93
658.809	56.89
659.139	56.95
659.468	57.02
659.798	57.05
660.127	57.16
660.456	57.16
660.785	57.21
661.115	57.29
661.444	57.27
661.773	57.37
662.102	57.53
662.431	57.71
662.76	57.67
663.089	57.61
663.418	57.62
663.747	57.61
664.076	57.47
664.404	57.53
664.733	57.53
665.062	57.55
665.39	57.57
665.719	57.58
666.048	57.62
