Data from BA56813_Reflection_00008.txt Node
Date: Mon Nov 18 15:50:54 EST 2019
User: vgr7
Spectrometer: USB2G7710
Scans to average: 3
Trigger mode: 4
Integration Time (sec): 2.000000E-2
Electric dark correction enabled: true
Boxcar width: 10
XAxis mode: Wavelengths
Number of Pixels in Spectrum: 2048
>>>>>Begin Spectral Data<<<<<
177.721	23.17
178.105	39.93
178.488	111.47
178.871	39.31
179.254	86.23
179.636	-178.69
180.019	-15.58
180.402	119.23
180.785	187.36
181.168	176.35
181.55	39.97
181.933	106.79
182.316	75.88
182.698	75.55
183.081	67.85
183.463	74.56
183.846	61.25
184.228	53.51
184.611	39.01
184.993	43.96
185.376	76.04
185.758	117.12
186.14	97.98
186.522	122.99
186.904	88.93
187.287	91.63
187.669	79.66
188.051	82.35
188.433	111.26
188.815	100.76
189.197	92.43
189.579	105.32
189.961	81.95
190.342	78.46
190.724	125.3
191.106	251.77
191.488	-624.55
191.869	-152.37
192.251	-236.3
192.633	-291.92
193.014	-1199.4
193.396	-846.49
193.777	-1161.78
194.159	-2626.32
194.54	-594.52
194.922	-1638.26
195.303	-251.25
195.684	-171.56
196.065	-98.78
196.447	-124.68
196.828	-122.91
197.209	-117.75
197.59	-132.55
197.971	-83.75
198.352	-59.5
198.733	-109.09
199.114	-69.32
199.495	-90.36
199.876	-137.11
200.257	-80.74
200.638	-62.18
201.018	-32.77
201.399	-9.2
201.78	-0.23
202.16	-14.88
202.541	-68.22
202.922	-111.67
203.302	-135.71
203.683	-129.3
204.063	-206.09
204.444	-209.18
204.824	-162.04
205.204	-130.15
205.585	-98.16
205.965	-100
206.345	-1207.69
206.725	398.7
207.106	229.97
207.486	179.05
207.866	136.93
208.246	202.28
208.626	261.82
209.006	148.28
209.386	169.86
209.766	229.89
210.145	327.19
210.525	-1045.99
210.905	-191.73
211.285	-246.94
211.664	-1035.59
212.044	-1985.71
212.424	-169.49
212.803	2870.49
213.183	-940.61
213.562	-463.74
213.942	-241.98
214.321	-72.49
214.701	-71.49
215.08	-74.17
215.459	-49.98
215.838	-38.47
216.218	-26.44
216.597	-29.71
216.976	-42.92
217.355	-37.87
217.734	-46.8
218.113	-25.88
218.492	-32.53
218.871	-34.76
219.25	-31.07
219.629	-52.91
220.008	-48.86
220.387	-54.38
220.766	-40.33
221.144	-54.01
221.523	-73.33
221.902	-83.57
222.28	-86.4
222.659	-80.25
223.037	-61.38
223.416	-66.96
223.794	-74.18
224.173	-68.29
224.551	-59.1
224.929	-53.63
225.308	-41.95
225.686	-31.29
226.064	-31.33
226.442	-21.83
226.821	-16.44
227.199	-18.58
227.577	-11.98
227.955	-9.4
228.333	-9.64
228.711	-8.16
229.089	-4.22
229.467	-2.86
229.845	-3.65
230.222	-2.8
230.6	-3.02
230.978	-4.52
231.356	-2.39
231.733	-4.54
232.111	-1.95
232.488	-2
232.866	-1.58
233.243	-1.45
233.621	-2.29
233.998	-1.48
234.376	-3.39
234.753	-3.09
235.13	-3.14
235.508	-1.25
235.885	-1.38
236.262	-1.22
236.639	-1.78
237.016	-3.03
237.393	-0.81
237.77	0.34
238.147	0.19
238.524	0.38
238.901	1.64
239.278	2.07
239.655	3.91
240.032	3.4
240.409	4.13
240.785	4.75
241.162	4.63
241.539	5.1
241.915	5.4
242.292	5.45
242.668	5.26
243.045	5.53
243.421	5.14
243.798	5.06
244.174	4.89
244.551	4.76
244.927	4.71
245.303	4.74
245.679	4.92
246.056	5.03
246.432	5.01
246.808	4.93
247.184	4.53
247.56	4.11
247.936	4.32
248.312	4.01
248.688	3.74
249.064	3.83
249.44	3.88
249.815	3.52
250.191	3.58
250.567	3.57
250.943	3.23
251.318	3.13
251.694	3.16
252.069	3.19
252.445	3.39
252.82	3.61
253.196	3.3
253.571	2.96
253.947	3.02
254.322	3.47
254.697	3.24
255.073	3.29
255.448	3.36
255.823	3.29
256.198	3.41
256.573	3.53
256.948	3.54
257.323	3.53
257.698	3.65
258.073	3.61
258.448	3.58
258.823	3.87
259.198	3.82
259.573	3.83
259.948	3.85
260.322	3.72
260.697	3.67
261.072	3.76
261.446	3.9
261.821	3.91
262.195	3.91
262.57	4.01
262.944	4.08
263.319	4.13
263.693	4.02
264.067	4.15
264.442	4.24
264.816	4.23
265.19	4.08
265.564	4.21
265.938	4.16
266.313	4.21
266.687	4.31
267.061	4.52
267.435	4.42
267.809	4.38
268.183	4.4
268.556	4.35
268.93	4.23
269.304	4.16
269.678	4.05
270.051	3.84
270.425	3.79
270.799	3.65
271.172	3.71
271.546	3.75
271.919	3.56
272.293	3.48
272.666	3.4
273.04	3.44
273.413	3.21
273.787	3.29
274.16	3.22
274.533	3.12
274.906	3.12
275.279	3.07
275.653	3.02
276.026	3.01
276.399	3
276.772	3.12
277.145	3.17
277.518	3.18
277.891	3.29
278.263	3.25
278.636	3.44
279.009	3.31
279.382	3.37
279.755	3.46
280.127	3.49
280.5	3.6
280.872	3.65
281.245	3.83
281.617	3.9
281.99	3.86
282.362	3.84
282.735	3.87
283.107	3.79
283.479	3.83
283.852	3.73
284.224	3.8
284.596	3.75
284.968	3.76
285.34	3.81
285.713	3.74
286.085	3.78
286.457	3.89
286.829	3.96
287.201	3.94
287.572	3.82
287.944	3.76
288.316	3.74
288.688	3.7
289.06	3.58
289.431	3.52
289.803	3.59
290.175	3.53
290.546	3.55
290.918	3.77
291.289	3.74
291.661	3.87
292.032	3.87
292.403	3.91
292.775	3.89
293.146	3.78
293.517	3.74
293.889	3.78
294.26	3.64
294.631	3.67
295.002	3.73
295.373	3.78
295.744	3.92
296.115	3.87
296.486	3.96
296.857	3.98
297.228	4.15
297.599	4.14
297.97	4.17
298.34	4.22
298.711	4.26
299.082	4.32
299.452	4.32
299.823	4.5
300.194	4.41
300.564	4.28
300.935	4.4
301.305	4.45
301.676	4.43
302.046	4.49
302.416	4.59
302.787	4.55
303.157	4.63
303.527	4.51
303.897	4.63
304.267	4.81
304.637	5.02
305.008	4.86
305.378	4.91
305.748	4.89
306.117	4.85
306.487	4.75
306.857	4.86
307.227	4.88
307.597	4.79
307.967	4.89
308.336	5.06
308.706	5.06
309.076	5.14
309.445	5.26
309.815	5.3
310.184	5.27
310.554	5.46
310.923	5.48
311.293	5.73
311.662	5.79
312.031	5.7
312.401	5.64
312.77	5.83
313.139	5.98
313.508	6.13
313.877	6.15
314.246	6.26
314.616	6.23
314.985	6.19
315.353	6.2
315.722	6.44
316.091	6.35
316.46	6.28
316.829	6.34
317.198	6.36
317.567	6.43
317.935	6.53
318.304	6.46
318.672	6.54
319.041	6.53
319.41	6.65
319.778	6.75
320.147	6.85
320.515	6.77
320.883	6.68
321.252	6.8
321.62	6.81
321.988	6.86
322.357	6.98
322.725	7.21
323.093	7.27
323.461	7.17
323.829	7.39
324.197	7.67
324.565	7.62
324.933	7.62
325.301	7.62
325.669	7.59
326.037	7.61
326.405	7.76
326.772	7.69
327.14	7.57
327.508	7.51
327.875	7.44
328.243	7.64
328.61	7.63
328.978	7.59
329.346	7.69
329.713	7.65
330.08	7.66
330.448	7.58
330.815	7.52
331.182	7.42
331.55	7.43
331.917	7.32
332.284	7.58
332.651	7.56
333.018	7.61
333.385	7.68
333.752	7.8
334.119	7.83
334.486	7.83
334.853	7.88
335.22	7.92
335.587	8.02
335.954	7.89
336.32	7.99
336.687	8
337.054	7.95
337.42	7.99
337.787	8.07
338.153	8.1
338.52	8.21
338.886	8.28
339.253	8.3
339.619	8.35
339.986	8.22
340.352	8.39
340.718	8.35
341.084	8.4
341.451	8.39
341.817	8.38
342.183	8.34
342.549	8.41
342.915	8.44
343.281	8.53
343.647	8.5
344.013	8.56
344.379	8.48
344.745	8.51
345.11	8.54
345.476	8.54
345.842	8.64
346.208	8.66
346.573	8.71
346.939	8.75
347.304	8.78
347.67	8.76
348.035	8.69
348.401	8.69
348.766	8.61
349.132	8.6
349.497	8.53
349.862	8.63
350.228	8.54
350.593	8.6
350.958	8.56
351.323	8.59
351.688	8.57
352.053	8.71
352.418	8.74
352.783	8.74
353.148	8.73
353.513	8.69
353.878	8.67
354.243	8.75
354.608	8.7
354.972	8.67
355.337	8.76
355.702	8.83
356.066	8.9
356.431	8.91
356.795	8.91
357.16	8.95
357.524	8.86
357.889	8.93
358.253	8.9
358.618	8.89
358.982	8.91
359.346	8.9
359.71	8.86
360.075	8.86
360.439	8.9
360.803	8.86
361.167	8.83
361.531	8.81
361.895	8.71
362.259	8.72
362.623	8.72
362.987	8.65
363.351	8.58
363.714	8.55
364.078	8.59
364.442	8.56
364.806	8.55
365.169	8.59
365.533	8.57
365.896	8.54
366.26	8.56
366.623	8.52
366.987	8.48
367.35	8.51
367.714	8.53
368.077	8.49
368.44	8.5
368.803	8.52
369.167	8.49
369.53	8.51
369.893	8.47
370.256	8.42
370.619	8.41
370.982	8.35
371.345	8.28
371.708	8.25
372.071	8.24
372.434	8.19
372.797	8.14
373.159	8.11
373.522	8.09
373.885	8.05
374.247	8.05
374.61	8.06
374.973	7.97
375.335	7.89
375.698	7.86
376.06	7.85
376.423	7.79
376.785	7.81
377.147	7.81
377.51	7.77
377.872	7.77
378.234	7.77
378.596	7.77
378.958	7.74
379.321	7.66
379.683	7.64
380.045	7.56
380.407	7.56
380.769	7.56
381.13	7.48
381.492	7.41
381.854	7.38
382.216	7.34
382.578	7.37
382.939	7.31
383.301	7.28
383.663	7.19
384.024	7.18
384.386	7.13
384.747	7.04
385.109	7.01
385.47	7
385.832	6.92
386.193	6.9
386.554	6.87
386.916	6.85
387.277	6.84
387.638	6.79
387.999	6.71
388.36	6.65
388.721	6.65
389.082	6.59
389.443	6.53
389.804	6.47
390.165	6.43
390.526	6.39
390.887	6.35
391.248	6.37
391.609	6.32
391.969	6.31
392.33	6.27
392.691	6.23
393.051	6.16
393.412	6.18
393.772	6.12
394.133	6.09
394.493	6.08
394.854	6.02
395.214	6.05
395.574	6
395.935	5.92
396.295	5.9
396.655	5.88
397.015	5.81
397.376	5.79
397.736	5.71
398.096	5.7
398.456	5.66
398.816	5.63
399.176	5.56
399.535	5.48
399.895	5.47
400.255	5.47
400.615	5.45
400.975	5.42
401.334	5.4
401.694	5.37
402.054	5.32
402.413	5.29
402.773	5.24
403.132	5.23
403.492	5.24
403.851	5.21
404.211	5.19
404.57	5.22
404.929	5.21
405.288	5.18
405.648	5.16
406.007	5.12
406.366	5.1
406.725	5.11
407.084	5.13
407.443	5.11
407.802	5.11
408.161	5.05
408.52	5
408.879	5
409.238	5
409.596	4.97
409.955	4.97
410.314	4.98
410.673	4.96
411.031	4.96
411.39	4.94
411.748	4.94
412.107	4.91
412.465	4.88
412.824	4.89
413.182	4.85
413.54	4.86
413.899	4.83
414.257	4.8
414.615	4.75
414.974	4.75
415.332	4.72
415.69	4.71
416.048	4.71
416.406	4.68
416.764	4.64
417.122	4.63
417.48	4.6
417.838	4.57
418.195	4.55
418.553	4.53
418.911	4.52
419.269	4.51
419.626	4.49
419.984	4.48
420.342	4.47
420.699	4.46
421.057	4.43
421.414	4.41
421.772	4.39
422.129	4.4
422.486	4.38
422.844	4.37
423.201	4.35
423.558	4.34
423.915	4.34
424.273	4.33
424.63	4.31
424.987	4.3
425.344	4.29
425.701	4.27
426.058	4.27
426.415	4.25
426.772	4.25
427.128	4.22
427.485	4.2
427.842	4.16
428.199	4.16
428.555	4.18
428.912	4.17
429.269	4.17
429.625	4.13
429.982	4.11
430.338	4.08
430.695	4.1
431.051	4.05
431.407	4.04
431.764	4.04
432.12	4.06
432.476	4.04
432.832	4.02
433.189	4.02
433.545	4.01
433.901	4.01
434.257	3.99
434.613	4.02
434.969	4.02
435.325	4.03
435.681	4.03
436.036	4.01
436.392	4.01
436.748	4.01
437.104	4.02
437.459	4.02
437.815	4.01
438.171	4.01
438.526	4.04
438.882	4.03
439.237	4.03
439.593	4.02
439.948	4.02
440.304	4.05
440.659	4.05
441.014	4.06
441.369	4.04
441.725	4.04
442.08	4.01
442.435	4.01
442.79	4.01
443.145	4
443.5	3.99
443.855	3.98
444.21	3.97
444.565	3.97
444.92	3.97
445.275	3.96
445.629	3.95
445.984	3.94
446.339	3.94
446.693	3.91
447.048	3.9
447.403	3.88
447.757	3.86
448.112	3.83
448.466	3.81
448.82	3.8
449.175	3.8
449.529	3.79
449.883	3.79
450.238	3.77
450.592	3.78
450.946	3.75
451.3	3.75
451.654	3.73
452.008	3.71
452.362	3.69
452.716	3.7
453.07	3.69
453.424	3.69
453.778	3.67
454.132	3.68
454.486	3.68
454.839	3.67
455.193	3.66
455.547	3.67
455.9	3.68
456.254	3.68
456.607	3.67
456.961	3.67
457.314	3.65
457.668	3.65
458.021	3.64
458.375	3.64
458.728	3.65
459.081	3.67
459.434	3.67
459.787	3.68
460.141	3.68
460.494	3.69
460.847	3.68
461.2	3.69
461.553	3.7
461.906	3.7
462.259	3.71
462.611	3.73
462.964	3.75
463.317	3.75
463.67	3.77
464.022	3.78
464.375	3.79
464.728	3.82
465.08	3.84
465.433	3.84
465.785	3.86
466.138	3.85
466.49	3.85
466.843	3.84
467.195	3.87
467.547	3.86
467.899	3.85
468.252	3.88
468.604	3.91
468.956	3.9
469.308	3.91
469.66	3.92
470.012	3.91
470.364	3.91
470.716	3.9
471.068	3.89
471.42	3.9
471.772	3.89
472.123	3.87
472.475	3.89
472.827	3.87
473.178	3.87
473.53	3.88
473.882	3.9
474.233	3.91
474.585	3.9
474.936	3.91
475.288	3.92
475.639	3.92
475.99	3.92
476.342	3.94
476.693	3.95
477.044	3.96
477.395	3.97
477.746	3.97
478.097	3.96
478.448	3.97
478.8	3.98
479.15	3.97
479.501	3.99
479.852	3.99
480.203	4.01
480.554	4.02
480.905	4.04
481.255	4.04
481.606	4.04
481.957	4.05
482.307	4.05
482.658	4.05
483.009	4.05
483.359	4.05
483.709	4.05
484.06	4.05
484.41	4.05
484.761	4.05
485.111	4.05
485.461	4.06
485.811	4.06
486.162	4.06
486.512	4.07
486.862	4.06
487.212	4.05
487.562	4.06
487.912	4.06
488.262	4.05
488.612	4.05
488.961	4.04
489.311	4.03
489.661	4.03
490.011	4.03
490.36	4.03
490.71	4.03
491.06	4.03
491.409	4.02
491.759	4.03
492.108	4.02
492.458	4.02
492.807	4.02
493.157	4.02
493.506	4.04
493.855	4.04
494.204	4.04
494.554	4.05
494.903	4.05
495.252	4.07
495.601	4.08
495.95	4.11
496.299	4.14
496.648	4.17
496.997	4.19
497.346	4.23
497.695	4.26
498.043	4.3
498.392	4.31
498.741	4.34
499.09	4.36
499.438	4.41
499.787	4.44
500.135	4.5
500.484	4.55
500.832	4.58
501.181	4.63
501.529	4.69
501.878	4.74
502.226	4.79
502.574	4.82
502.923	4.86
503.271	4.91
503.619	4.97
503.967	5.02
504.315	5.09
504.663	5.13
505.011	5.19
505.359	5.24
505.707	5.31
506.055	5.37
506.403	5.44
506.751	5.5
507.098	5.59
507.446	5.65
507.794	5.71
508.141	5.77
508.489	5.85
508.837	5.93
509.184	6
509.531	6.09
509.879	6.18
510.226	6.28
510.574	6.34
510.921	6.42
511.268	6.5
511.616	6.57
511.963	6.65
512.31	6.74
512.657	6.85
513.004	6.93
513.351	7.05
513.698	7.15
514.045	7.26
514.392	7.36
514.739	7.49
515.086	7.61
515.432	7.76
515.779	7.86
516.126	7.97
516.473	8.09
516.819	8.22
517.166	8.33
517.512	8.43
517.859	8.54
518.205	8.64
518.552	8.77
518.898	8.88
519.245	9.01
519.591	9.12
519.937	9.24
520.283	9.4
520.629	9.54
520.976	9.7
521.322	9.87
521.668	10.05
522.014	10.23
522.36	10.41
522.706	10.61
523.052	10.83
523.398	11.08
523.743	11.33
524.089	11.56
524.435	11.79
524.781	12.04
525.126	12.3
525.472	12.53
525.817	12.71
526.163	12.89
526.509	13.08
526.854	13.25
527.199	13.41
527.545	13.57
527.89	13.74
528.235	13.9
528.581	14.08
528.926	14.24
529.271	14.4
529.616	14.56
529.961	14.74
530.306	14.93
530.651	15.13
530.996	15.32
531.341	15.55
531.686	15.77
532.031	15.99
532.376	16.2
532.721	16.43
533.065	16.69
533.41	16.95
533.755	17.19
534.099	17.47
534.444	17.73
534.788	17.99
535.133	18.26
535.477	18.53
535.822	18.8
536.166	19.11
536.51	19.45
536.855	19.8
537.199	20.15
537.543	20.52
537.887	20.87
538.231	21.23
538.576	21.58
538.92	21.97
539.264	22.31
539.608	22.63
539.951	22.95
540.295	23.25
540.639	23.55
540.983	23.85
541.327	24.12
541.671	24.43
542.014	24.7
542.358	24.97
542.701	25.24
543.045	25.51
543.389	25.77
543.732	26.04
544.075	26.34
544.419	26.6
544.762	26.87
545.105	27.2
545.449	27.51
545.792	27.84
546.135	28.19
546.478	28.53
546.821	28.9
547.165	29.24
547.508	29.62
547.851	29.96
548.194	30.33
548.536	30.72
548.879	31.08
549.222	31.45
549.565	31.84
549.908	32.24
550.25	32.61
550.593	33
550.936	33.36
551.278	33.69
551.621	34.1
551.963	34.47
552.306	34.78
552.648	35.16
552.991	35.49
553.333	35.75
553.675	36.09
554.017	36.4
554.36	36.74
554.702	37
555.044	37.33
555.386	37.63
555.728	37.9
556.07	38.2
556.412	38.5
556.754	38.78
557.096	39.05
557.438	39.31
557.78	39.64
558.121	39.91
558.463	40.26
558.805	40.54
559.147	40.9
559.488	41.19
559.83	41.43
560.171	41.66
560.513	42.03
560.854	42.26
561.196	42.54
561.537	42.85
561.878	43.13
562.22	43.35
562.561	43.58
562.902	43.82
563.243	44.05
563.584	44.27
563.925	44.48
564.266	44.68
564.607	44.93
564.948	45.1
565.289	45.32
565.63	45.48
565.971	45.61
566.312	45.79
566.653	45.99
566.993	46.16
567.334	46.33
567.675	46.47
568.015	46.73
568.356	46.87
568.696	47.02
569.037	47.21
569.377	47.41
569.718	47.58
570.058	47.79
570.398	47.95
570.739	48.15
571.079	48.32
571.419	48.56
571.759	48.71
572.099	48.93
572.439	49.12
572.779	49.27
573.119	49.45
573.459	49.61
573.799	49.78
574.139	49.94
574.479	50.15
574.819	50.29
575.158	50.36
575.498	50.53
575.838	50.65
576.177	50.8
576.517	50.95
576.856	51.14
577.196	51.22
577.535	51.42
577.875	51.55
578.214	51.7
578.553	51.81
578.893	51.92
579.232	52.09
579.571	52.22
579.91	52.41
580.25	52.56
580.589	52.64
580.928	52.75
581.267	52.89
581.606	53
581.945	53.06
582.283	53.15
582.622	53.32
582.961	53.39
583.3	53.52
583.639	53.51
583.977	53.58
584.316	53.68
584.654	53.7
584.993	53.81
585.332	53.87
585.67	53.95
586.008	54.05
586.347	54.06
586.685	54.18
587.024	54.27
587.362	54.31
587.7	54.45
588.038	54.56
588.376	54.66
588.715	54.71
589.053	54.91
589.391	55.1
589.729	55.21
590.067	55.41
590.404	55.47
590.742	55.6
591.08	55.76
591.418	55.85
591.756	55.96
592.093	56.01
592.431	56.17
592.769	56.3
593.106	56.44
593.444	56.53
593.781	56.54
594.119	56.62
594.456	56.78
594.793	56.8
595.131	56.77
595.468	56.91
595.805	56.98
596.143	56.98
596.48	57.01
596.817	57
597.154	57.05
597.491	57.13
597.828	57.28
598.165	57.29
598.502	57.48
598.839	57.58
599.176	57.6
599.512	57.65
599.849	57.72
600.186	57.78
600.523	57.81
600.859	57.89
601.196	57.98
601.532	58.03
601.869	58.08
602.205	58.14
602.542	58.08
602.878	58.16
603.215	58.22
603.551	58.26
603.887	58.31
604.223	58.26
604.56	58.32
604.896	58.35
605.232	58.43
605.568	58.4
605.904	58.46
606.24	58.5
606.576	58.5
606.912	58.54
607.248	58.5
607.583	58.59
607.919	58.63
608.255	58.72
608.591	58.72
608.926	58.85
609.262	58.92
609.597	59.02
609.933	58.97
610.268	58.97
610.604	59.06
610.939	59.14
611.275	59.22
611.61	59.24
611.945	59.23
612.281	59.17
612.616	59.15
612.951	59.2
613.286	59.31
613.621	59.41
613.956	59.34
614.291	59.39
614.626	59.4
614.961	59.45
615.296	59.39
615.631	59.44
615.966	59.41
616.3	59.5
616.635	59.52
616.97	59.71
617.304	59.76
617.639	59.72
617.973	59.68
618.308	59.73
618.642	59.74
618.977	59.81
619.311	59.93
619.646	59.99
619.98	59.97
620.314	60.05
620.648	60.14
620.983	60.29
621.317	60.29
621.651	60.31
621.985	60.38
622.319	60.4
622.653	60.48
622.987	60.42
623.321	60.4
623.655	60.32
623.988	60.3
624.322	60.37
624.656	60.38
624.99	60.5
625.323	60.48
625.657	60.55
625.99	60.57
626.324	60.57
626.657	60.62
626.991	60.68
627.324	60.67
627.658	60.64
627.991	60.63
628.324	60.78
628.657	60.84
628.991	60.78
629.324	60.86
629.657	60.85
629.99	60.93
630.323	60.95
630.656	61.05
630.989	61.11
631.322	61.08
631.655	61.09
631.987	61.16
632.32	61.23
632.653	61.13
632.986	61.08
633.318	61.08
633.651	61.09
633.984	61.04
634.316	61.05
634.649	61.05
634.981	61.09
635.313	61.12
635.646	61.17
635.978	61.23
636.31	61.24
636.643	61.28
636.975	61.28
637.307	61.29
637.639	61.24
637.971	61.22
638.303	61.35
638.635	61.44
638.967	61.29
639.299	61.25
639.631	61.3
639.963	61.38
640.295	61.5
640.626	61.6
640.958	61.62
641.29	61.59
641.621	61.69
641.953	61.66
642.285	61.68
642.616	61.59
642.948	61.63
643.279	61.58
643.61	61.57
643.942	61.64
644.273	61.55
644.604	61.71
644.936	61.77
645.267	61.75
645.598	61.79
645.929	61.75
646.26	61.95
646.591	62.1
646.922	62.05
647.253	62.06
647.584	61.97
647.915	61.98
648.245	62.05
648.576	61.95
648.907	62
649.238	61.91
649.568	61.97
649.899	61.93
650.229	62.02
650.56	61.98
650.89	61.97
651.221	62.18
651.551	62.17
651.882	62.16
652.212	62.22
652.542	62.19
652.872	62.27
653.203	62.05
653.533	61.94
653.863	62.07
654.193	62.01
654.523	62.13
654.853	62.11
655.183	62.06
655.513	62.19
655.843	62.13
656.172	62.15
656.502	62.13
656.832	62.19
657.162	62.17
657.491	62.24
657.821	62.2
658.15	62.2
658.48	62.21
658.809	62.21
659.139	62.04
659.468	62.05
659.798	62.07
660.127	62.18
660.456	62.3
660.785	62.38
661.115	62.37
661.444	62.39
661.773	62.57
662.102	62.66
662.431	62.63
662.76	62.75
663.089	62.82
663.418	62.84
663.747	62.91
664.076	62.85
664.404	62.92
664.733	63.08
665.062	63.09
665.39	63.01
665.719	63.04
666.048	63.27
666.376	63.31
