Data from BA56832_Reflection_00005.txt Node
Date: Mon Nov 18 16:09:46 EST 2019
User: vgr7
Spectrometer: USB2G7710
Scans to average: 3
Trigger mode: 4
Integration Time (sec): 2.000000E-2
Electric dark correction enabled: true
Boxcar width: 10
XAxis mode: Wavelengths
Number of Pixels in Spectrum: 2048
>>>>>Begin Spectral Data<<<<<
177.721	43.95
178.105	32.65
178.488	55.23
178.871	106.15
179.254	72.81
179.636	63.74
180.019	-127.01
180.402	315.38
180.785	759.79
181.168	-400
181.55	-48.67
181.933	70.15
182.316	118.77
182.698	212.77
183.081	97.44
183.463	60.4
183.846	172.04
184.228	123.47
184.611	127.44
184.993	54.58
185.376	12.14
185.758	49.56
186.14	56.94
186.522	138.39
186.904	2312.77
187.287	1354.24
187.669	-561.87
188.051	-67.81
188.433	10.88
188.815	95.84
189.197	75.52
189.579	60.13
189.961	66.14
190.342	90.71
190.724	112.51
191.106	82.32
191.488	95.5
191.869	75.19
192.251	84.29
192.633	112.09
193.014	147.16
193.396	56.39
193.777	142.36
194.159	243.82
194.54	137.84
194.922	156.76
195.303	130.56
195.684	117.6
196.065	101.82
196.447	94.41
196.828	69.19
197.209	65.48
197.59	69
197.971	96.29
198.352	109.32
198.733	155.51
199.114	112.72
199.495	77.86
199.876	142.13
200.257	62.98
200.638	53.7
201.018	34.83
201.399	32.9
201.78	28.15
202.16	24.4
202.541	4.04
202.922	-25.67
203.302	6.83
203.683	-7.67
204.063	-40.62
204.444	-100.38
204.824	-106.21
205.204	-98.73
205.585	-132.17
205.965	-122.4
206.345	-114.93
206.725	-112.64
207.106	-232.01
207.486	-381.01
207.866	-368.59
208.246	-677.52
208.626	10306.9
209.006	-2734.78
209.386	-684.42
209.766	-346.5
210.145	-224.51
210.525	-131.25
210.905	-78.53
211.285	-79.38
211.664	-49.18
212.044	-42.91
212.424	-38.56
212.803	-16.31
213.183	-3.46
213.562	18.75
213.942	46.07
214.321	78.75
214.701	79.12
215.08	61.5
215.459	65.93
215.838	57.47
216.218	38.68
216.597	27.3
216.976	40.39
217.355	40.02
217.734	63.56
218.113	66.73
218.492	103.42
218.871	105.98
219.25	140.63
219.629	126.07
220.008	132.21
220.387	177.68
220.766	149.66
221.144	135.17
221.523	132.97
221.902	86.68
222.28	6.79
222.659	9.39
223.037	14.85
223.416	1.66
223.794	7.17
224.173	19.94
224.551	34.7
224.929	25.31
225.308	28.92
225.686	21.91
226.064	22.15
226.442	13.18
226.821	7.97
227.199	7.58
227.577	2.65
227.955	2.32
228.333	-1.02
228.711	-2.6
229.089	5.88
229.467	4.47
229.845	5.52
230.222	8.93
230.6	9.65
230.978	11.06
231.356	13.23
231.733	14.5
232.111	13.75
232.488	12.83
232.866	12.51
233.243	11.25
233.621	10.36
233.998	10.86
234.376	10.98
234.753	11.86
235.13	10.78
235.508	10.9
235.885	9.29
236.262	9.22
236.639	9.96
237.016	7.17
237.393	8.72
237.77	9.32
238.147	8.31
238.524	8.23
238.901	7.71
239.278	7.4
239.655	7.28
240.032	7.41
240.409	7.42
240.785	7.36
241.162	7.18
241.539	6.75
241.915	6.59
242.292	6.29
242.668	6.24
243.045	6.22
243.421	6.43
243.798	6.52
244.174	6.51
244.551	6.27
244.927	6.6
245.303	6.58
245.679	6.59
246.056	6.51
246.432	6.2
246.808	5.93
247.184	5.71
247.56	5.24
247.936	5.18
248.312	5.07
248.688	5.06
249.064	5.23
249.44	5.38
249.815	5.5
250.191	5.78
250.567	5.84
250.943	5.91
251.318	6.06
251.694	6.09
252.069	6.11
252.445	6.28
252.82	6.15
253.196	5.96
253.571	5.56
253.947	5.5
254.322	5.55
254.697	5.89
255.073	6.06
255.448	6.27
255.823	6.42
256.198	6.57
256.573	6.48
256.948	6.63
257.323	6.54
257.698	6.62
258.073	6.53
258.448	6.55
258.823	6.59
259.198	6.48
259.573	6.55
259.948	6.48
260.322	6.52
260.697	6.51
261.072	6.45
261.446	6.62
261.821	6.78
262.195	7.06
262.57	7.15
262.944	7.13
263.319	7.14
263.693	6.91
264.067	6.88
264.442	7.18
264.816	7.17
265.19	7.21
265.564	7.2
265.938	7.08
266.313	7.08
266.687	6.87
267.061	6.94
267.435	7.02
267.809	7.07
268.183	7.08
268.556	7.03
268.93	6.97
269.304	6.78
269.678	6.76
270.051	6.46
270.425	6.39
270.799	6.37
271.172	6.32
271.546	6.35
271.919	6.29
272.293	6.13
272.666	5.97
273.04	6.11
273.413	5.99
273.787	6.04
274.16	5.95
274.533	6.01
274.906	5.81
275.279	5.79
275.653	5.82
276.026	5.74
276.399	5.76
276.772	6.02
277.145	5.99
277.518	5.91
277.891	6.01
278.263	5.81
278.636	5.81
279.009	5.73
279.382	5.88
279.755	5.85
280.127	5.9
280.5	5.82
280.872	5.8
281.245	5.83
281.617	5.89
281.99	6.05
282.362	6.08
282.735	6.11
283.107	6.09
283.479	6.18
283.852	6.13
284.224	6.03
284.596	5.99
284.968	6.09
285.34	6.08
285.713	6.06
286.085	6.19
286.457	6.41
286.829	6.56
287.201	6.62
287.572	6.73
287.944	6.73
288.316	6.9
288.688	6.88
289.06	6.9
289.431	6.98
289.803	6.98
290.175	7.06
290.546	7.3
290.918	7.23
291.289	7.06
291.661	7.15
292.032	7.35
292.403	7.33
292.775	7.43
293.146	7.48
293.517	7.6
293.889	7.62
294.26	7.5
294.631	7.57
295.002	7.53
295.373	7.46
295.744	7.56
296.115	7.62
296.486	7.42
296.857	7.45
297.228	7.58
297.599	7.6
297.97	7.53
298.34	7.53
298.711	7.62
299.082	7.59
299.452	7.64
299.823	7.72
300.194	7.7
300.564	7.67
300.935	7.67
301.305	7.55
301.676	7.62
302.046	7.65
302.416	7.77
302.787	7.91
303.157	7.94
303.527	7.81
303.897	7.76
304.267	8.11
304.637	8.11
305.008	7.99
305.378	8.07
305.748	8.23
306.117	8.05
306.487	8.11
306.857	8.36
307.227	8.42
307.597	8.3
307.967	8.4
308.336	8.37
308.706	8.5
309.076	8.61
309.445	8.66
309.815	8.68
310.184	8.52
310.554	8.39
310.923	8.45
311.293	8.5
311.662	8.55
312.031	8.34
312.401	8.4
312.77	8.36
313.139	8.4
313.508	8.34
313.877	8.43
314.246	8.5
314.616	8.36
314.985	8.25
315.353	8.17
315.722	8.27
316.091	8.37
316.46	8.23
316.829	8.21
317.198	8.25
317.567	8.22
317.935	8.24
318.304	8.38
318.672	8.23
319.041	8.35
319.41	8.29
319.778	8.49
320.147	8.48
320.515	8.63
320.883	8.42
321.252	8.55
321.62	8.59
321.988	8.49
322.357	8.54
322.725	8.52
323.093	8.67
323.461	8.56
323.829	8.49
324.197	8.55
324.565	8.62
324.933	8.6
325.301	8.58
325.669	8.53
326.037	8.43
326.405	8.61
326.772	8.51
327.14	8.54
327.508	8.51
327.875	8.37
328.243	8.32
328.61	8.45
328.978	8.4
329.346	8.42
329.713	8.41
330.08	8.48
330.448	8.45
330.815	8.26
331.182	8.35
331.55	8.35
331.917	8.33
332.284	8.3
332.651	8.28
333.018	8.38
333.385	8.44
333.752	8.49
334.119	8.48
334.486	8.44
334.853	8.35
335.22	8.24
335.587	8.37
335.954	8.26
336.32	8.11
336.687	8.1
337.054	8.07
337.42	8.15
337.787	8.23
338.153	8.2
338.52	8.36
338.886	8.21
339.253	8.23
339.619	8.3
339.986	8.32
340.352	8.45
340.718	8.35
341.084	8.32
341.451	8.32
341.817	8.4
342.183	8.4
342.549	8.46
342.915	8.53
343.281	8.43
343.647	8.42
344.013	8.5
344.379	8.48
344.745	8.41
345.11	8.46
345.476	8.35
345.842	8.45
346.208	8.46
346.573	8.52
346.939	8.69
347.304	8.6
347.67	8.51
348.035	8.34
348.401	8.37
348.766	8.45
349.132	8.51
349.497	8.49
349.862	8.63
350.228	8.64
350.593	8.73
350.958	8.84
351.323	8.96
351.688	8.9
352.053	8.79
352.418	8.8
352.783	8.8
353.148	8.73
353.513	8.74
353.878	8.71
354.243	8.73
354.608	8.45
354.972	8.53
355.337	8.64
355.702	8.77
356.066	8.74
356.431	8.67
356.795	8.69
357.16	8.61
357.524	8.55
357.889	8.52
358.253	8.44
358.618	8.4
358.982	8.36
359.346	8.38
359.71	8.42
360.075	8.46
360.439	8.43
360.803	8.46
361.167	8.43
361.531	8.44
361.895	8.43
362.259	8.53
362.623	8.54
362.987	8.54
363.351	8.47
363.714	8.53
364.078	8.55
364.442	8.47
364.806	8.48
365.169	8.47
365.533	8.54
365.896	8.56
366.26	8.56
366.623	8.56
366.987	8.53
367.35	8.55
367.714	8.59
368.077	8.53
368.44	8.56
368.803	8.56
369.167	8.49
369.53	8.47
369.893	8.45
370.256	8.45
370.619	8.45
370.982	8.48
371.345	8.41
371.708	8.37
372.071	8.39
372.434	8.42
372.797	8.43
373.159	8.39
373.522	8.44
373.885	8.45
374.247	8.45
374.61	8.56
374.973	8.57
375.335	8.49
375.698	8.54
376.06	8.53
376.423	8.55
376.785	8.64
377.147	8.66
377.51	8.73
377.872	8.73
378.234	8.67
378.596	8.65
378.958	8.63
379.321	8.64
379.683	8.65
380.045	8.65
380.407	8.65
380.769	8.63
381.13	8.64
381.492	8.6
381.854	8.64
382.216	8.61
382.578	8.65
382.939	8.67
383.301	8.65
383.663	8.64
384.024	8.63
384.386	8.58
384.747	8.63
385.109	8.59
385.47	8.58
385.832	8.59
386.193	8.56
386.554	8.52
386.916	8.59
387.277	8.58
387.638	8.57
387.999	8.57
388.36	8.55
388.721	8.53
389.082	8.54
389.443	8.51
389.804	8.47
390.165	8.42
390.526	8.44
390.887	8.45
391.248	8.46
391.609	8.48
391.969	8.48
392.33	8.45
392.691	8.44
393.051	8.42
393.412	8.43
393.772	8.47
394.133	8.48
394.493	8.46
394.854	8.44
395.214	8.44
395.574	8.44
395.935	8.45
396.295	8.41
396.655	8.45
397.015	8.46
397.376	8.47
397.736	8.47
398.096	8.48
398.456	8.47
398.816	8.49
399.176	8.46
399.535	8.44
399.895	8.43
400.255	8.42
400.615	8.4
400.975	8.4
401.334	8.41
401.694	8.42
402.054	8.39
402.413	8.37
402.773	8.38
403.132	8.36
403.492	8.35
403.851	8.36
404.211	8.33
404.57	8.32
404.929	8.33
405.288	8.32
405.648	8.29
406.007	8.31
406.366	8.27
406.725	8.32
407.084	8.33
407.443	8.33
407.802	8.34
408.161	8.37
408.52	8.33
408.879	8.31
409.238	8.35
409.596	8.32
409.955	8.34
410.314	8.33
410.673	8.29
411.031	8.29
411.39	8.28
411.748	8.29
412.107	8.29
412.465	8.27
412.824	8.28
413.182	8.29
413.54	8.28
413.899	8.28
414.257	8.23
414.615	8.21
414.974	8.24
415.332	8.23
415.69	8.23
416.048	8.24
416.406	8.22
416.764	8.19
417.122	8.21
417.48	8.19
417.838	8.2
418.195	8.2
418.553	8.2
418.911	8.18
419.269	8.16
419.626	8.15
419.984	8.14
420.342	8.14
420.699	8.15
421.057	8.15
421.414	8.15
421.772	8.15
422.129	8.17
422.486	8.14
422.844	8.13
423.201	8.11
423.558	8.11
423.915	8.12
424.273	8.13
424.63	8.12
424.987	8.11
425.344	8.09
425.701	8.09
426.058	8.09
426.415	8.1
426.772	8.11
427.128	8.12
427.485	8.12
427.842	8.12
428.199	8.11
428.555	8.12
428.912	8.09
429.269	8.09
429.625	8.07
429.982	8.07
430.338	8.07
430.695	8.07
431.051	8.07
431.407	8.04
431.764	8.02
432.12	8.02
432.476	8.03
432.832	8.04
433.189	8.02
433.545	8.01
433.901	8.03
434.257	8.01
434.613	8
434.969	7.99
435.325	8
435.681	8
436.036	7.98
436.392	7.99
436.748	7.99
437.104	7.99
437.459	7.97
437.815	7.97
438.171	7.96
438.526	7.95
438.882	7.96
439.237	7.96
439.593	7.97
439.948	7.98
440.304	7.97
440.659	7.97
441.014	7.96
441.369	7.92
441.725	7.92
442.08	7.92
442.435	7.92
442.79	7.88
443.145	7.87
443.5	7.87
443.855	7.85
444.21	7.84
444.565	7.85
444.92	7.87
445.275	7.87
445.629	7.86
445.984	7.86
446.339	7.85
446.693	7.86
447.048	7.83
447.403	7.81
447.757	7.8
448.112	7.79
448.466	7.79
448.82	7.82
449.175	7.81
449.529	7.81
449.883	7.81
450.238	7.81
450.592	7.8
450.946	7.78
451.3	7.79
451.654	7.77
452.008	7.74
452.362	7.71
452.716	7.71
453.07	7.72
453.424	7.71
453.778	7.7
454.132	7.66
454.486	7.66
454.839	7.67
455.193	7.67
455.547	7.68
455.9	7.68
456.254	7.69
456.607	7.69
456.961	7.67
457.314	7.66
457.668	7.69
458.021	7.67
458.375	7.68
458.728	7.69
459.081	7.7
459.434	7.7
459.787	7.69
460.141	7.68
460.494	7.69
460.847	7.69
461.2	7.68
461.553	7.71
461.906	7.74
462.259	7.74
462.611	7.76
462.964	7.76
463.317	7.76
463.67	7.77
464.022	7.79
464.375	7.81
464.728	7.81
465.08	7.8
465.433	7.83
465.785	7.84
466.138	7.84
466.49	7.86
466.843	7.88
467.195	7.9
467.547	7.91
467.899	7.9
468.252	7.91
468.604	7.94
468.956	7.92
469.308	7.91
469.66	7.9
470.012	7.91
470.364	7.91
470.716	7.89
471.068	7.86
471.42	7.84
471.772	7.83
472.123	7.84
472.475	7.84
472.827	7.84
473.178	7.83
473.53	7.82
473.882	7.82
474.233	7.81
474.585	7.79
474.936	7.81
475.288	7.8
475.639	7.79
475.99	7.78
476.342	7.79
476.693	7.79
477.044	7.82
477.395	7.81
477.746	7.8
478.097	7.84
478.448	7.83
478.8	7.85
479.15	7.85
479.501	7.87
479.852	7.88
480.203	7.89
480.554	7.92
480.905	7.93
481.255	7.95
481.606	7.97
481.957	7.99
482.307	7.98
482.658	7.99
483.009	8
483.359	8.01
483.709	8.02
484.06	8.01
484.41	8.01
484.761	8.01
485.111	8.01
485.461	8.01
485.811	8.02
486.162	8.02
486.512	8.03
486.862	8.04
487.212	8.05
487.562	8.05
487.912	8.03
488.262	8.03
488.612	8.03
488.961	8.02
489.311	8
489.661	8.02
490.011	8.01
490.36	8.01
490.71	8.02
491.06	8.01
491.409	8.01
491.759	8
492.108	8.02
492.458	8.01
492.807	8.02
493.157	8.02
493.506	8.02
493.855	8.04
494.204	8.02
494.554	8
494.903	8
495.252	8.03
495.601	8.05
495.95	8.04
496.299	8.05
496.648	8.07
496.997	8.06
497.346	8.08
497.695	8.11
498.043	8.1
498.392	8.11
498.741	8.13
499.09	8.15
499.438	8.16
499.787	8.18
500.135	8.19
500.484	8.18
500.832	8.18
501.181	8.18
501.529	8.19
501.878	8.21
502.226	8.22
502.574	8.23
502.923	8.23
503.271	8.25
503.619	8.26
503.967	8.27
504.315	8.26
504.663	8.27
505.011	8.27
505.359	8.26
505.707	8.31
506.055	8.3
506.403	8.31
506.751	8.32
507.098	8.31
507.446	8.33
507.794	8.35
508.141	8.36
508.489	8.37
508.837	8.39
509.184	8.38
509.531	8.39
509.879	8.38
510.226	8.4
510.574	8.38
510.921	8.38
511.268	8.35
511.616	8.37
511.963	8.35
512.31	8.38
512.657	8.41
513.004	8.38
513.351	8.39
513.698	8.37
514.045	8.38
514.392	8.4
514.739	8.41
515.086	8.42
515.432	8.44
515.779	8.42
516.126	8.42
516.473	8.44
516.819	8.45
517.166	8.44
517.512	8.45
517.859	8.46
518.205	8.48
518.552	8.54
518.898	8.54
519.245	8.55
519.591	8.55
519.937	8.54
520.283	8.55
520.629	8.58
520.976	8.61
521.322	8.61
521.668	8.59
522.014	8.58
522.36	8.58
522.706	8.58
523.052	8.63
523.398	8.64
523.743	8.64
524.089	8.66
524.435	8.66
524.781	8.66
525.126	8.69
525.472	8.69
525.817	8.68
526.163	8.69
526.509	8.72
526.854	8.72
527.199	8.73
527.545	8.74
527.89	8.73
528.235	8.74
528.581	8.76
528.926	8.77
529.271	8.78
529.616	8.78
529.961	8.78
530.306	8.78
530.651	8.79
530.996	8.79
531.341	8.79
531.686	8.81
532.031	8.81
532.376	8.81
532.721	8.81
533.065	8.82
533.41	8.82
533.755	8.83
534.099	8.83
534.444	8.82
534.788	8.82
535.133	8.82
535.477	8.82
535.822	8.82
536.166	8.82
536.51	8.83
536.855	8.85
537.199	8.86
537.543	8.85
537.887	8.87
538.231	8.87
538.576	8.89
538.92	8.89
539.264	8.9
539.608	8.9
539.951	8.91
540.295	8.91
540.639	8.91
540.983	8.9
541.327	8.9
541.671	8.9
542.014	8.91
542.358	8.91
542.701	8.9
543.045	8.91
543.389	8.91
543.732	8.91
544.075	8.92
544.419	8.93
544.762	8.93
545.105	8.92
545.449	8.94
545.792	8.92
546.135	8.91
546.478	8.91
546.821	8.9
547.165	8.91
547.508	8.89
547.851	8.88
548.194	8.87
548.536	8.9
548.879	8.9
549.222	8.89
549.565	8.92
549.908	8.94
550.25	8.94
550.593	8.96
550.936	8.96
551.278	8.96
551.621	8.96
551.963	8.97
552.306	8.97
552.648	8.94
552.991	8.96
553.333	8.98
553.675	9
554.017	9.02
554.36	9.02
554.702	9.05
555.044	9.05
555.386	9.08
555.728	9.05
556.07	9.09
556.412	9.08
556.754	9.07
557.096	9.07
557.438	9.07
557.78	9.08
558.121	9.11
558.463	9.1
558.805	9.06
559.147	9.07
559.488	9.07
559.83	9.05
560.171	9.04
560.513	9.02
560.854	9
561.196	9.03
561.537	9.06
561.878	9.03
562.22	9.03
562.561	9.02
562.902	9.08
563.243	9.06
563.584	9.07
563.925	9.07
564.266	9.06
564.607	9.08
564.948	9.08
565.289	9.09
565.63	9.11
565.971	9.11
566.312	9.12
566.653	9.15
566.993	9.16
567.334	9.18
567.675	9.2
568.015	9.19
568.356	9.14
568.696	9.13
569.037	9.16
569.377	9.17
569.718	9.15
570.058	9.11
570.398	9.11
570.739	9.1
571.079	9.12
571.419	9.1
571.759	9.1
572.099	9.07
572.439	9.07
572.779	9.07
573.119	9.09
573.459	9.11
573.799	9.11
574.139	9.13
574.479	9.12
574.819	9.11
575.158	9.11
575.498	9.14
575.838	9.19
576.177	9.15
576.517	9.16
576.856	9.16
577.196	9.16
577.535	9.16
577.875	9.15
578.214	9.13
578.553	9.17
578.893	9.15
579.232	9.19
579.571	9.15
579.91	9.12
580.25	9.13
580.589	9.11
580.928	9.08
581.267	9.06
581.606	9.04
581.945	9.08
582.283	9.12
582.622	9.12
582.961	9.1
583.3	9.13
583.639	9.13
583.977	9.14
584.316	9.13
584.654	9.13
584.993	9.13
585.332	9.17
585.67	9.16
586.008	9.15
586.347	9.1
586.685	9.11
587.024	9.12
587.362	9.11
587.7	9.08
588.038	9.1
588.376	9.13
588.715	9.12
589.053	9.12
589.391	9.12
589.729	9.11
590.067	9.07
590.404	9.09
590.742	9.08
591.08	9.07
591.418	9.1
591.756	9.11
592.093	9.15
592.431	9.14
592.769	9.12
593.106	9.12
593.444	9.15
593.781	9.15
594.119	9.17
594.456	9.16
594.793	9.15
595.131	9.14
595.468	9.16
595.805	9.19
596.143	9.18
596.48	9.18
596.817	9.2
597.154	9.21
597.491	9.21
597.828	9.24
598.165	9.26
598.502	9.26
598.839	9.26
599.176	9.26
599.512	9.3
599.849	9.35
600.186	9.34
600.523	9.38
600.859	9.41
601.196	9.38
601.532	9.37
601.869	9.38
602.205	9.4
602.542	9.4
602.878	9.4
603.215	9.38
603.551	9.4
603.887	9.42
604.223	9.41
604.56	9.43
604.896	9.42
605.232	9.44
605.568	9.43
605.904	9.44
606.24	9.41
606.576	9.38
606.912	9.37
607.248	9.39
607.583	9.35
607.919	9.33
608.255	9.35
608.591	9.4
608.926	9.41
609.262	9.42
609.597	9.41
609.933	9.41
610.268	9.44
610.604	9.44
610.939	9.43
611.275	9.43
611.61	9.41
611.945	9.44
612.281	9.42
612.616	9.46
612.951	9.5
613.286	9.52
613.621	9.52
613.956	9.51
614.291	9.48
614.626	9.5
614.961	9.52
615.296	9.52
615.631	9.5
615.966	9.54
616.3	9.53
616.635	9.48
616.97	9.49
617.304	9.48
617.639	9.47
617.973	9.44
618.308	9.42
618.642	9.42
618.977	9.39
619.311	9.39
619.646	9.35
619.98	9.33
620.314	9.35
620.648	9.34
620.983	9.36
621.317	9.39
621.651	9.38
621.985	9.38
622.319	9.38
622.653	9.37
622.987	9.37
623.321	9.39
623.655	9.46
623.988	9.47
624.322	9.48
624.656	9.5
624.99	9.54
625.323	9.59
625.657	9.59
625.99	9.66
626.324	9.65
626.657	9.68
626.991	9.67
627.324	9.66
627.658	9.66
627.991	9.69
628.324	9.69
628.657	9.7
628.991	9.72
629.324	9.75
629.657	9.76
629.99	9.76
630.323	9.75
630.656	9.73
630.989	9.77
631.322	9.78
631.655	9.75
631.987	9.74
632.32	9.77
632.653	9.77
632.986	9.74
633.318	9.78
633.651	9.8
633.984	9.75
634.316	9.75
634.649	9.75
634.981	9.74
635.313	9.76
635.646	9.73
635.978	9.74
636.31	9.73
636.643	9.73
636.975	9.74
637.307	9.69
637.639	9.68
637.971	9.67
638.303	9.67
638.635	9.63
638.967	9.59
639.299	9.57
639.631	9.58
639.963	9.57
640.295	9.52
640.626	9.5
640.958	9.56
641.29	9.58
641.621	9.6
641.953	9.57
642.285	9.59
642.616	9.62
642.948	9.56
643.279	9.57
643.61	9.59
643.942	9.52
644.273	9.54
644.604	9.54
644.936	9.5
645.267	9.48
645.598	9.53
645.929	9.55
646.26	9.55
646.591	9.51
646.922	9.46
647.253	9.49
647.584	9.42
647.915	9.41
648.245	9.39
648.576	9.4
648.907	9.41
649.238	9.45
649.568	9.42
649.899	9.5
650.229	9.5
650.56	9.46
650.89	9.5
651.221	9.56
651.551	9.57
651.882	9.57
652.212	9.55
652.542	9.55
652.872	9.55
653.203	9.54
653.533	9.6
653.863	9.61
654.193	9.63
654.523	9.69
654.853	9.72
655.183	9.77
655.513	9.71
655.843	9.71
656.172	9.66
656.502	9.75
656.832	9.67
657.162	9.74
657.491	9.77
657.821	9.77
658.15	9.75
658.48	9.77
658.809	9.78
659.139	9.76
659.468	9.82
659.798	9.86
660.127	9.9
660.456	9.88
660.785	9.91
661.115	9.9
661.444	9.9
661.773	9.91
662.102	9.89
662.431	9.98
662.76	9.96
663.089	9.95
663.418	9.89
663.747	9.89
664.076	9.82
664.404	9.87
664.733	9.91
665.062	9.86
665.39	9.85
665.719	9.86
666.048	9.91
666.376	9.83
666.705	9.8
667.033	9.78
667.362	9.81
667.69	9.85
668.018	9.83
668.347	9.8
668.675	9.74
669.003	9.71
669.331	9.76
669.659	9.78
669.987	9.8
670.315	9.75
670.643	9.84
670.971	9.88
671.299	9.85
671.627	9.87
671.955	9.89
672.283	9.88
672.61	9.82
672.938	9.85
673.266	9.9
673.593	9.96
673.921	9.96
674.249	9.87
674.576	9.79
674.904	9.87
675.231	9.86
675.558	9.92
675.886	9.93
676.213	9.87
676.54	9.86
676.867	9.91
677.195	9.96
677.522	9.87
677.849	9.83
678.176	9.89
