Data from BA56830_Reflection_00012.txt Node
Date: Mon Nov 18 16:04:12 EST 2019
User: vgr7
Spectrometer: USB2G7710
Scans to average: 3
Trigger mode: 4
Integration Time (sec): 2.000000E-2
Electric dark correction enabled: true
Boxcar width: 10
XAxis mode: Wavelengths
Number of Pixels in Spectrum: 2048
>>>>>Begin Spectral Data<<<<<
177.721	72.52
178.105	47.71
178.488	79.55
178.871	57.99
179.254	86.45
179.636	135.95
180.019	4877.78
180.402	100
180.785	-7.79
181.168	-33.53
181.55	9.78
181.933	35.43
182.316	43.91
182.698	51.57
183.081	48.98
183.463	37.52
183.846	30.09
184.228	45.34
184.611	292.98
184.993	-190.04
185.376	986.18
185.758	305.94
186.14	379.13
186.522	172.75
186.904	226.61
187.287	488.13
187.669	-52.88
188.051	498.69
188.433	-24233.33
188.815	-201.13
189.197	-113.09
189.579	-59.42
189.961	-87.66
190.342	-57.21
190.724	-38.86
191.106	-42.74
191.488	-37.16
191.869	-42.41
192.251	-57.65
192.633	-78.97
193.014	-106.35
193.396	-145.87
193.777	-92.47
194.159	-136.95
194.54	-75.8
194.922	-90.4
195.303	-62.64
195.684	-95.19
196.065	-34.35
196.447	-23.4
196.828	-15.96
197.209	-11.11
197.59	3.35
197.971	2.63
198.352	-18.83
198.733	-46.28
199.114	-24.49
199.495	-1.19
199.876	9.35
200.257	6.93
200.638	-7.31
201.018	-10.73
201.399	-1.76
201.78	3.89
202.16	6.53
202.541	3.54
202.922	-15
203.302	-46.89
203.683	-43.31
204.063	-76.06
204.444	-71.35
204.824	-48.45
205.204	-26.33
205.585	-38.47
205.965	-33.61
206.345	-51.63
206.725	-29.23
207.106	-47.47
207.486	-67.72
207.866	-66.84
208.246	-72.13
208.626	-47.63
209.006	-14.1
209.386	-24.07
209.766	-46.17
210.145	-39.59
210.525	-39.54
210.905	-26.1
211.285	-15.85
211.664	-13.11
212.044	-12.41
212.424	-20.26
212.803	-32.26
213.183	-45.54
213.562	-45.63
213.942	-25.21
214.321	0.13
214.701	-14.8
215.08	-26.59
215.459	-34.13
215.838	-32.63
216.218	-27.73
216.597	-37.38
216.976	-43.26
217.355	-32.52
217.734	-25.14
218.113	-12.71
218.492	-19.37
218.871	-13.29
219.25	-4.8
219.629	-8.31
220.008	-17.52
220.387	-24.7
220.766	-15.63
221.144	-20.38
221.523	-17.36
221.902	-33.06
222.28	-46.38
222.659	-37.38
223.037	-27.82
223.416	-30.04
223.794	-29.24
224.173	-30.72
224.551	-21.45
224.929	-25.73
225.308	-21.35
225.686	-16.79
226.064	-16.89
226.442	-11.11
226.821	-11.02
227.199	-9.8
227.577	-9.15
227.955	-5.51
228.333	-2.48
228.711	-3.03
229.089	1.21
229.467	-0.31
229.845	-2.28
230.222	-0.03
230.6	0.32
230.978	-1.73
231.356	0.33
231.733	0.75
232.111	2.7
232.488	1.07
232.866	2.02
233.243	0.56
233.621	1.23
233.998	2.13
234.376	1.22
234.753	1.15
235.13	0.72
235.508	1.97
235.885	2.02
236.262	0.83
236.639	1.7
237.016	1.09
237.393	2.01
237.77	4.09
238.147	4.37
238.524	4.15
238.901	5.21
239.278	4.92
239.655	4.91
240.032	4.56
240.409	4.66
240.785	4.5
241.162	5.19
241.539	5.19
241.915	5.1
242.292	5.2
242.668	5.14
243.045	5
243.421	4.86
243.798	4.79
244.174	5.07
244.551	4.91
244.927	4.67
245.303	4.71
245.679	4.84
246.056	4.82
246.432	4.87
246.808	5.1
247.184	5
247.56	4.86
247.936	4.82
248.312	4.95
248.688	5.2
249.064	5.13
249.44	5.06
249.815	5.04
250.191	5.02
250.567	4.95
250.943	5.11
251.318	5.13
251.694	4.91
252.069	4.85
252.445	4.71
252.82	4.74
253.196	4.66
253.571	4.63
253.947	4.51
254.322	4.21
254.697	3.67
255.073	3.55
255.448	3.64
255.823	3.8
256.198	3.71
256.573	3.54
256.948	3.67
257.323	3.82
257.698	3.91
258.073	3.9
258.448	4.14
258.823	3.97
259.198	4
259.573	4.14
259.948	4.05
260.322	4.13
260.697	4.14
261.072	4.03
261.446	4.05
261.821	4.02
262.195	4.28
262.57	4.25
262.944	4.31
263.319	4.22
263.693	4.16
264.067	4.27
264.442	4.33
264.816	4.32
265.19	4.16
265.564	4.1
265.938	3.95
266.313	3.76
266.687	3.97
267.061	4.04
267.435	4.02
267.809	4.13
268.183	4.25
268.556	4.2
268.93	4.25
269.304	4.07
269.678	4.28
270.051	4.14
270.425	4.28
270.799	4.29
271.172	4.32
271.546	4.44
271.919	4.29
272.293	4.18
272.666	4.22
273.04	4.27
273.413	4.29
273.787	4.43
274.16	4.45
274.533	4.23
274.906	4.16
275.279	4.2
275.653	4.17
276.026	4.06
276.399	4.04
276.772	4.03
277.145	4.03
277.518	3.87
277.891	3.82
278.263	3.87
278.636	3.98
279.009	3.81
279.382	3.75
279.755	3.7
280.127	3.77
280.5	3.64
280.872	3.68
281.245	3.61
281.617	3.66
281.99	3.62
282.362	3.64
282.735	3.56
283.107	3.63
283.479	3.69
283.852	3.72
284.224	3.82
284.596	3.95
284.968	4.07
285.34	4.13
285.713	4.08
286.085	4.01
286.457	3.92
286.829	4.06
287.201	3.99
287.572	3.98
287.944	4.06
288.316	4.11
288.688	4.06
289.06	4.12
289.431	4.17
289.803	4.21
290.175	4.37
290.546	4.42
290.918	4.34
291.289	4.29
291.661	4.31
292.032	4.41
292.403	4.46
292.775	4.55
293.146	4.51
293.517	4.56
293.889	4.64
294.26	4.67
294.631	4.72
295.002	4.86
295.373	4.93
295.744	4.82
296.115	4.86
296.486	4.74
296.857	4.8
297.228	4.79
297.599	4.68
297.97	4.69
298.34	4.81
298.711	4.9
299.082	4.83
299.452	4.97
299.823	4.99
300.194	4.96
300.564	4.8
300.935	4.92
301.305	5.04
301.676	5.15
302.046	5.29
302.416	5.39
302.787	5.4
303.157	5.45
303.527	5.61
303.897	5.55
304.267	5.84
304.637	5.84
305.008	5.9
305.378	6.16
305.748	6.21
306.117	6.25
306.487	6.35
306.857	6.65
307.227	6.52
307.597	6.5
307.967	6.68
308.336	6.89
308.706	6.98
309.076	6.95
309.445	6.99
309.815	7.02
310.184	6.95
310.554	6.91
310.923	7.01
311.293	7.06
311.662	7.1
312.031	7.05
312.401	7.12
312.77	7.24
313.139	7.19
313.508	7.27
313.877	7.23
314.246	7.21
314.616	7.17
314.985	7.26
315.353	7.25
315.722	7.3
316.091	7.24
316.46	7.23
316.829	7.38
317.198	7.29
317.567	7.28
317.935	7.46
318.304	7.63
318.672	7.63
319.041	7.56
319.41	7.66
319.778	7.81
320.147	7.95
320.515	7.86
320.883	8.04
321.252	8.02
321.62	8.17
321.988	8.27
322.357	8.41
322.725	8.54
323.093	8.59
323.461	8.54
323.829	8.61
324.197	8.69
324.565	8.78
324.933	8.88
325.301	8.88
325.669	8.87
326.037	8.87
326.405	8.92
326.772	9.19
327.14	9.29
327.508	9.34
327.875	9.28
328.243	9.26
328.61	9.25
328.978	9.44
329.346	9.56
329.713	9.61
330.08	9.69
330.448	9.79
330.815	9.89
331.182	9.97
331.55	10.02
331.917	9.99
332.284	10.04
332.651	10.02
333.018	10.14
333.385	10.2
333.752	10.27
334.119	10.33
334.486	10.27
334.853	10.36
335.22	10.3
335.587	10.45
335.954	10.63
336.32	10.54
336.687	10.53
337.054	10.53
337.42	10.6
337.787	10.62
338.153	10.49
338.52	10.59
338.886	10.51
339.253	10.59
339.619	10.6
339.986	10.56
340.352	10.7
340.718	10.7
341.084	10.77
341.451	10.83
341.817	10.88
342.183	10.88
342.549	10.89
342.915	11
343.281	10.94
343.647	10.91
344.013	11.12
344.379	11
344.745	10.96
345.11	10.89
345.476	10.89
345.842	11
346.208	11.03
346.573	11.18
346.939	11.2
347.304	11.24
347.67	11.2
348.035	11.14
348.401	11.2
348.766	11.18
349.132	11.15
349.497	11.13
349.862	11.17
350.228	11.14
350.593	11.04
350.958	10.97
351.323	11.01
351.688	11.05
352.053	11.13
352.418	11.2
352.783	11.29
353.148	11.21
353.513	11.21
353.878	11.16
354.243	11.19
354.608	11.21
354.972	11.21
355.337	11.27
355.702	11.29
356.066	11.23
356.431	11.26
356.795	11.31
357.16	11.32
357.524	11.26
357.889	11.27
358.253	11.35
358.618	11.45
358.982	11.4
359.346	11.35
359.71	11.31
360.075	11.28
360.439	11.29
360.803	11.26
361.167	11.22
361.531	11.2
361.895	11.1
362.259	11.01
362.623	11.04
362.987	10.97
363.351	10.96
363.714	10.99
364.078	10.88
364.442	10.79
364.806	10.73
365.169	10.72
365.533	10.73
365.896	10.67
366.26	10.64
366.623	10.59
366.987	10.53
367.35	10.58
367.714	10.55
368.077	10.44
368.44	10.48
368.803	10.5
369.167	10.48
369.53	10.41
369.893	10.43
370.256	10.34
370.619	10.29
370.982	10.23
371.345	10.14
371.708	10.18
372.071	10.08
372.434	10.02
372.797	9.95
373.159	9.82
373.522	9.83
373.885	9.75
374.247	9.68
374.61	9.68
374.973	9.52
375.335	9.45
375.698	9.44
376.06	9.28
376.423	9.19
376.785	9.16
377.147	9.19
377.51	9.15
377.872	9.06
378.234	9.04
378.596	9.05
378.958	8.93
379.321	8.88
379.683	8.88
380.045	8.85
380.407	8.79
380.769	8.78
381.13	8.67
381.492	8.63
381.854	8.67
382.216	8.55
382.578	8.5
382.939	8.43
383.301	8.37
383.663	8.38
384.024	8.23
384.386	8.2
384.747	8.12
385.109	8.04
385.47	7.93
385.832	7.89
386.193	7.77
386.554	7.79
386.916	7.7
387.277	7.66
387.638	7.62
387.999	7.55
388.36	7.48
388.721	7.46
389.082	7.43
389.443	7.33
389.804	7.29
390.165	7.23
390.526	7.18
390.887	7.13
391.248	7.1
391.609	7.14
391.969	7.05
392.33	7.01
392.691	6.98
393.051	6.99
393.412	6.95
393.772	6.93
394.133	6.87
394.493	6.84
394.854	6.8
395.214	6.72
395.574	6.68
395.935	6.64
396.295	6.56
396.655	6.48
397.015	6.44
397.376	6.37
397.736	6.36
398.096	6.3
398.456	6.25
398.816	6.24
399.176	6.14
399.535	6.1
399.895	6.04
400.255	5.97
400.615	5.92
400.975	5.89
401.334	5.88
401.694	5.87
402.054	5.82
402.413	5.78
402.773	5.74
403.132	5.73
403.492	5.69
403.851	5.67
404.211	5.64
404.57	5.64
404.929	5.63
405.288	5.61
405.648	5.59
406.007	5.55
406.366	5.49
406.725	5.48
407.084	5.48
407.443	5.46
407.802	5.47
408.161	5.47
408.52	5.44
408.879	5.37
409.238	5.33
409.596	5.29
409.955	5.3
410.314	5.28
410.673	5.25
411.031	5.23
411.39	5.19
411.748	5.17
412.107	5.08
412.465	5.05
412.824	5.01
413.182	4.97
413.54	4.97
413.899	4.94
414.257	4.91
414.615	4.88
414.974	4.85
415.332	4.8
415.69	4.76
416.048	4.73
416.406	4.72
416.764	4.69
417.122	4.68
417.48	4.62
417.838	4.61
418.195	4.58
418.553	4.56
418.911	4.55
419.269	4.52
419.626	4.52
419.984	4.49
420.342	4.49
420.699	4.48
421.057	4.45
421.414	4.44
421.772	4.41
422.129	4.4
422.486	4.38
422.844	4.35
423.201	4.34
423.558	4.32
423.915	4.29
424.273	4.28
424.63	4.25
424.987	4.25
425.344	4.24
425.701	4.23
426.058	4.21
426.415	4.19
426.772	4.18
427.128	4.16
427.485	4.16
427.842	4.12
428.199	4.11
428.555	4.1
428.912	4.11
429.269	4.11
429.625	4.1
429.982	4.1
430.338	4.13
430.695	4.11
431.051	4.1
431.407	4.11
431.764	4.11
432.12	4.11
432.476	4.12
432.832	4.09
433.189	4.09
433.545	4.1
433.901	4.09
434.257	4.09
434.613	4.13
434.969	4.13
435.325	4.13
435.681	4.12
436.036	4.12
436.392	4.11
436.748	4.09
437.104	4.07
437.459	4.05
437.815	4.03
438.171	4.04
438.526	4.03
438.882	4.04
439.237	4.03
439.593	4.03
439.948	4.01
440.304	4.01
440.659	4
441.014	4
441.369	3.97
441.725	3.96
442.08	3.93
442.435	3.91
442.79	3.9
443.145	3.9
443.5	3.88
443.855	3.88
444.21	3.86
444.565	3.87
444.92	3.86
445.275	3.85
445.629	3.84
445.984	3.83
446.339	3.8
446.693	3.8
447.048	3.8
447.403	3.79
447.757	3.77
448.112	3.77
448.466	3.75
448.82	3.75
449.175	3.73
449.529	3.73
449.883	3.71
450.238	3.71
450.592	3.7
450.946	3.69
451.3	3.69
451.654	3.67
452.008	3.67
452.362	3.65
452.716	3.64
453.07	3.64
453.424	3.64
453.778	3.64
454.132	3.62
454.486	3.6
454.839	3.59
455.193	3.57
455.547	3.54
455.9	3.55
456.254	3.57
456.607	3.59
456.961	3.57
457.314	3.59
457.668	3.58
458.021	3.56
458.375	3.57
458.728	3.56
459.081	3.59
459.434	3.58
459.787	3.6
460.141	3.6
460.494	3.6
460.847	3.63
461.2	3.62
461.553	3.64
461.906	3.67
462.259	3.69
462.611	3.72
462.964	3.75
463.317	3.76
463.67	3.74
464.022	3.75
464.375	3.77
464.728	3.78
465.08	3.79
465.433	3.81
465.785	3.82
466.138	3.83
466.49	3.83
466.843	3.84
467.195	3.86
467.547	3.87
467.899	3.88
468.252	3.86
468.604	3.87
468.956	3.86
469.308	3.87
469.66	3.87
470.012	3.87
470.364	3.89
470.716	3.89
471.068	3.92
471.42	3.93
471.772	3.94
472.123	3.95
472.475	3.97
472.827	3.98
473.178	3.99
473.53	3.98
473.882	3.99
474.233	3.99
474.585	3.98
474.936	3.96
475.288	3.97
475.639	3.99
475.99	3.98
476.342	3.99
476.693	3.98
477.044	3.98
477.395	3.97
477.746	3.96
478.097	3.98
478.448	3.96
478.8	3.96
479.15	3.93
479.501	3.92
479.852	3.91
480.203	3.91
480.554	3.92
480.905	3.92
481.255	3.92
481.606	3.91
481.957	3.91
482.307	3.92
482.658	3.91
483.009	3.89
483.359	3.89
483.709	3.91
484.06	3.91
484.41	3.91
484.761	3.91
485.111	3.9
485.461	3.89
485.811	3.89
486.162	3.89
486.512	3.91
486.862	3.93
487.212	3.93
487.562	3.93
487.912	3.92
488.262	3.92
488.612	3.93
488.961	3.94
489.311	3.95
489.661	3.96
490.011	3.98
490.36	3.99
490.71	4
491.06	4
491.409	4.02
491.759	4.02
492.108	4.04
492.458	4.06
492.807	4.08
493.157	4.12
493.506	4.14
493.855	4.15
494.204	4.15
494.554	4.18
494.903	4.2
495.252	4.23
495.601	4.25
495.95	4.28
496.299	4.29
496.648	4.31
496.997	4.33
497.346	4.36
497.695	4.4
498.043	4.42
498.392	4.44
498.741	4.46
499.09	4.47
499.438	4.51
499.787	4.55
500.135	4.59
500.484	4.62
500.832	4.65
501.181	4.7
501.529	4.75
501.878	4.78
502.226	4.84
502.574	4.89
502.923	4.95
503.271	5
503.619	5.09
503.967	5.16
504.315	5.23
504.663	5.32
505.011	5.39
505.359	5.48
505.707	5.58
506.055	5.65
506.403	5.73
506.751	5.78
507.098	5.85
507.446	5.93
507.794	5.99
508.141	6.09
508.489	6.16
508.837	6.24
509.184	6.32
509.531	6.4
509.879	6.48
510.226	6.55
510.574	6.64
510.921	6.71
511.268	6.78
511.616	6.86
511.963	6.93
512.31	7
512.657	7.07
513.004	7.16
513.351	7.26
513.698	7.37
514.045	7.48
514.392	7.59
514.739	7.69
515.086	7.79
515.432	7.9
515.779	8.01
516.126	8.1
516.473	8.21
516.819	8.29
517.166	8.36
517.512	8.44
517.859	8.53
518.205	8.59
518.552	8.68
518.898	8.76
519.245	8.85
519.591	8.94
519.937	9.03
520.283	9.13
520.629	9.22
520.976	9.34
521.322	9.47
521.668	9.61
522.014	9.75
522.36	9.91
522.706	10.04
523.052	10.22
523.398	10.41
523.743	10.61
524.089	10.82
524.435	11.02
524.781	11.21
525.126	11.4
525.472	11.6
525.817	11.76
526.163	11.92
526.509	12.06
526.854	12.22
527.199	12.36
527.545	12.48
527.89	12.63
528.235	12.75
528.581	12.91
528.926	13.05
529.271	13.2
529.616	13.36
529.961	13.52
530.306	13.68
530.651	13.85
530.996	14.03
531.341	14.23
531.686	14.42
532.031	14.64
532.376	14.86
532.721	15.09
533.065	15.34
533.41	15.58
533.755	15.85
534.099	16.11
534.444	16.38
534.788	16.66
535.133	16.91
535.477	17.21
535.822	17.47
536.166	17.78
536.51	18.1
536.855	18.43
537.199	18.78
537.543	19.18
537.887	19.56
538.231	19.92
538.576	20.31
538.92	20.72
539.264	21.07
539.608	21.38
539.951	21.72
540.295	22.02
540.639	22.34
540.983	22.62
541.327	22.96
541.671	23.26
542.014	23.55
542.358	23.85
542.701	24.14
543.045	24.43
543.389	24.74
543.732	25.06
544.075	25.38
544.419	25.72
544.762	26.04
545.105	26.37
545.449	26.77
545.792	27.15
546.135	27.49
546.478	27.93
546.821	28.38
547.165	28.79
547.508	29.2
547.851	29.61
548.194	30.07
548.536	30.42
548.879	30.85
549.222	31.34
549.565	31.78
549.908	32.2
550.25	32.66
550.593	33.1
550.936	33.48
551.278	33.96
551.621	34.37
551.963	34.79
552.306	35.26
552.648	35.66
552.991	36.1
553.333	36.52
553.675	36.88
554.017	37.23
554.36	37.6
554.702	38.03
555.044	38.39
555.386	38.75
555.728	39.18
556.07	39.56
556.412	39.86
556.754	40.22
557.096	40.62
557.438	40.98
557.78	41.35
558.121	41.77
558.463	42.11
558.805	42.4
559.147	42.79
559.488	43.06
559.83	43.37
560.171	43.63
560.513	43.93
560.854	44.26
561.196	44.64
561.537	45.03
561.878	45.36
562.22	45.66
562.561	45.99
562.902	46.23
563.243	46.56
563.584	46.85
563.925	47.16
564.266	47.38
564.607	47.68
564.948	47.97
565.289	48.21
565.63	48.44
565.971	48.73
566.312	48.9
566.653	49.17
566.993	49.44
567.334	49.68
567.675	49.94
568.015	50.17
568.356	50.43
568.696	50.56
569.037	50.76
569.377	50.99
569.718	51.24
570.058	51.46
570.398	51.61
570.739	51.89
571.079	52.08
571.419	52.38
571.759	52.57
572.099	52.72
572.439	52.93
572.779	53.1
573.119	53.29
573.459	53.5
573.799	53.64
574.139	53.81
574.479	53.96
574.819	54.1
575.158	54.22
575.498	54.28
575.838	54.49
576.177	54.66
576.517	54.84
576.856	54.95
577.196	55.1
577.535	55.29
577.875	55.44
578.214	55.58
578.553	55.66
578.893	55.81
579.232	56.02
579.571	56.17
579.91	56.38
580.25	56.45
580.589	56.63
580.928	56.83
581.267	56.95
581.606	57.08
581.945	57.26
582.283	57.44
582.622	57.65
582.961	57.74
583.3	57.82
583.639	57.93
583.977	58.04
584.316	58.25
584.654	58.38
584.993	58.45
585.332	58.58
585.67	58.71
586.008	58.82
586.347	58.9
586.685	58.95
587.024	59.01
587.362	59.15
587.7	59.13
588.038	59.25
588.376	59.26
588.715	59.36
589.053	59.39
589.391	59.43
589.729	59.51
590.067	59.54
590.404	59.59
590.742	59.65
591.08	59.68
591.418	59.68
591.756	59.71
592.093	59.76
592.431	59.82
592.769	59.88
593.106	60.02
593.444	60.1
593.781	60.25
594.119	60.31
594.456	60.37
594.793	60.52
595.131	60.6
595.468	60.75
595.805	60.84
596.143	60.89
596.48	61.08
596.817	61.21
597.154	61.27
597.491	61.38
597.828	61.45
598.165	61.55
598.502	61.57
598.839	61.66
599.176	61.83
599.512	61.91
599.849	62.03
600.186	62.04
600.523	62.06
600.859	62.08
601.196	62.19
601.532	62.26
601.869	62.31
602.205	62.35
602.542	62.39
602.878	62.44
603.215	62.46
603.551	62.42
603.887	62.49
604.223	62.55
604.56	62.64
604.896	62.67
605.232	62.77
605.568	62.89
605.904	62.86
606.24	62.88
606.576	62.89
606.912	62.93
607.248	63.01
607.583	63.06
607.919	63.09
608.255	63.1
608.591	63.18
608.926	63.23
609.262	63.29
609.597	63.41
609.933	63.57
610.268	63.7
610.604	63.75
610.939	63.71
611.275	63.78
611.61	63.78
611.945	63.81
612.281	63.87
612.616	63.87
612.951	63.98
613.286	64.06
613.621	64.14
613.956	64.12
614.291	64.11
614.626	64.16
614.961	64.25
615.296	64.36
615.631	64.39
615.966	64.38
616.3	64.39
616.635	64.36
616.97	64.28
617.304	64.34
617.639	64.36
617.973	64.53
618.308	64.61
618.642	64.64
618.977	64.7
619.311	64.71
619.646	64.77
619.98	64.79
620.314	64.64
620.648	64.77
620.983	64.82
621.317	64.9
621.651	64.89
621.985	64.97
622.319	64.89
622.653	65.04
622.987	65.17
623.321	65.23
623.655	65.24
623.988	65.27
624.322	65.3
624.656	65.3
624.99	65.31
625.323	65.36
625.657	65.38
625.99	65.37
626.324	65.34
626.657	65.42
626.991	65.51
627.324	65.7
627.658	65.67
627.991	65.71
628.324	65.67
628.657	65.74
628.991	65.68
629.324	65.75
629.657	65.68
629.99	65.71
630.323	65.75
630.656	65.73
630.989	65.75
631.322	65.78
631.655	65.83
631.987	65.79
632.32	65.7
632.653	65.78
632.986	65.9
633.318	65.94
633.651	65.96
633.984	66.02
634.316	65.93
634.649	65.98
634.981	66.05
635.313	66.09
635.646	66.11
635.978	66.15
636.31	66.19
636.643	66.19
636.975	66.14
637.307	66.17
637.639	66.24
637.971	66.21
638.303	66.16
638.635	66.17
638.967	66.19
639.299	66.37
639.631	66.34
639.963	66.4
640.295	66.36
640.626	66.26
640.958	66.24
641.29	66.25
641.621	66.21
641.953	66.12
642.285	66.21
642.616	66.21
642.948	66.19
643.279	66.2
643.61	66.26
643.942	66.3
644.273	66.16
644.604	66.1
644.936	66.17
645.267	66.28
645.598	66.36
645.929	66.33
646.26	66.32
646.591	66.36
646.922	66.23
647.253	66.38
647.584	66.5
647.915	66.56
648.245	66.62
648.576	66.62
648.907	66.69
649.238	66.58
649.568	66.73
649.899	66.84
650.229	66.91
650.56	66.95
650.89	67
651.221	67.03
651.551	67.16
651.882	67.12
652.212	67.15
652.542	67.06
652.872	67.19
653.203	67.14
653.533	67.2
653.863	67.33
654.193	67.26
654.523	67.28
654.853	67.17
655.183	67.17
655.513	67.2
655.843	67.24
656.172	67.39
656.502	67.24
656.832	67.27
657.162	67.32
657.491	67.28
657.821	67.25
658.15	67.3
658.48	67.29
658.809	67.42
659.139	67.33
659.468	67.4
659.798	67.32
660.127	67.28
660.456	67.22
660.785	67.2
661.115	67.28
661.444	67.34
661.773	67.49
662.102	67.43
662.431	67.47
662.76	67.54
663.089	67.47
663.418	67.5
663.747	67.43
664.076	67.4
664.404	67.47
664.733	67.52
665.062	67.47
665.39	67.48
