Data from BA56852_Reflection_00008.txt Node
Date: Mon Nov 18 15:23:05 EST 2019
User: vgr7
Spectrometer: USB2G7710
Scans to average: 3
Trigger mode: 4
Integration Time (sec): 2.000000E-2
Electric dark correction enabled: true
Boxcar width: 10
XAxis mode: Wavelengths
Number of Pixels in Spectrum: 2048
>>>>>Begin Spectral Data<<<<<
177.721	20.71
178.105	35.48
178.488	-92.1
178.871	-91.03
179.254	-3.33
179.636	36.48
180.019	-65.88
180.402	-3.23
180.785	449.75
181.168	256.55
181.55	209.61
181.933	109.42
182.316	94.31
182.698	66.65
183.081	31.57
183.463	20.37
183.846	2.64
184.228	17.49
184.611	54.42
184.993	68.91
185.376	47.59
185.758	48.27
186.14	34.51
186.522	51.62
186.904	34.78
187.287	23.02
187.669	9.68
188.051	16.48
188.433	-7.02
188.815	-21.94
189.197	-44.11
189.579	-62.06
189.961	-69.87
190.342	-94.82
190.724	-141.75
191.106	-103.96
191.488	-46.42
191.869	-71.11
192.251	-83.92
192.633	-53.26
193.014	-102.44
193.396	-57.32
193.777	-35.34
194.159	-67.71
194.54	-71.92
194.922	2363.16
195.303	164.22
195.684	-109.39
196.065	4.45
196.447	-54.54
196.828	-92.27
197.209	-43.87
197.59	-104.99
197.971	-60.73
198.352	-60.93
198.733	-68.62
199.114	-40.79
199.495	-1.79
199.876	-11.91
200.257	-13.36
200.638	-12.61
201.018	-14.94
201.399	16.7
201.78	20.17
202.16	5.87
202.541	11.83
202.922	-17.05
203.302	-31.81
203.683	-3.1
204.063	-77.53
204.444	-27.42
204.824	-17.62
205.204	-28.18
205.585	-28.35
205.965	-23.1
206.345	-33.01
206.725	-58.36
207.106	-101.15
207.486	-119.07
207.866	-143.85
208.246	-169.14
208.626	-176.05
209.006	-166.93
209.386	-527.72
209.766	-947.48
210.145	562.21
210.525	1758.96
210.905	2313.48
211.285	-206.4
211.664	-153.19
212.044	-79.6
212.424	-121.9
212.803	-168.02
213.183	-118.31
213.562	-121.24
213.942	-267.56
214.321	-115.86
214.701	-83.95
215.08	-82.4
215.459	-90.63
215.838	-53
216.218	-25.53
216.597	-9.02
216.976	-10.89
217.355	-26.68
217.734	-24.86
218.113	-11.97
218.492	-21.34
218.871	-25.17
219.25	8.84
219.629	19.19
220.008	-13.11
220.387	-18.22
220.766	-14.54
221.144	-36.88
221.523	-19.46
221.902	-25.69
222.28	-23.07
222.659	-25.39
223.037	-19.2
223.416	-15.44
223.794	-19.71
224.173	-4.36
224.551	-5.54
224.929	-2.61
225.308	8.48
225.686	6.99
226.064	1.41
226.442	2.32
226.821	-2.04
227.199	-3.7
227.577	-8.99
227.955	-5.65
228.333	-2.8
228.711	1.3
229.089	2.87
229.467	-0.95
229.845	-0.46
230.222	-1.96
230.6	-3.04
230.978	-5.64
231.356	-2.41
231.733	-1.55
232.111	-3.04
232.488	0.64
232.866	1.52
233.243	2.49
233.621	3.95
233.998	5.87
234.376	3.72
234.753	4.86
235.13	7.18
235.508	8.99
235.885	9.69
236.262	8.14
236.639	7.17
237.016	7.61
237.393	7.91
237.77	8.47
238.147	9.2
238.524	9.08
238.901	9.58
239.278	8.29
239.655	8.41
240.032	7.57
240.409	6.21
240.785	6.1
241.162	5.64
241.539	5.33
241.915	5.08
242.292	5.17
242.668	5.29
243.045	4.96
243.421	4.84
243.798	4.41
244.174	4.99
244.551	5.2
244.927	4.96
245.303	5.39
245.679	5.4
246.056	5.32
246.432	5.27
246.808	5.15
247.184	5.25
247.56	4.86
247.936	5
248.312	4.88
248.688	4.86
249.064	4.81
249.44	4.78
249.815	4.73
250.191	4.85
250.567	4.5
250.943	4.32
251.318	4.25
251.694	4.23
252.069	3.79
252.445	3.39
252.82	3.27
253.196	2.87
253.571	2.88
253.947	2.62
254.322	2.7
254.697	2.7
255.073	2.32
255.448	2.17
255.823	2.3
256.198	2.45
256.573	2.44
256.948	2.61
257.323	2.84
257.698	2.71
258.073	2.62
258.448	2.86
258.823	2.94
259.198	2.93
259.573	3.06
259.948	2.88
260.322	2.96
260.697	2.96
261.072	2.87
261.446	2.66
261.821	2.81
262.195	2.94
262.57	2.81
262.944	2.89
263.319	3.16
263.693	2.94
264.067	3.13
264.442	3.22
264.816	2.92
265.19	2.72
265.564	2.86
265.938	2.86
266.313	2.79
266.687	2.66
267.061	2.81
267.435	2.85
267.809	2.96
268.183	2.95
268.556	2.81
268.93	2.8
269.304	2.81
269.678	2.82
270.051	2.76
270.425	2.89
270.799	2.9
271.172	2.77
271.546	2.88
271.919	2.75
272.293	2.78
272.666	2.97
273.04	3.11
273.413	3.08
273.787	3.09
274.16	2.98
274.533	2.9
274.906	2.78
275.279	2.69
275.653	2.78
276.026	2.68
276.399	2.9
276.772	3.05
277.145	3.16
277.518	2.92
277.891	2.83
278.263	2.85
278.636	2.84
279.009	3.04
279.382	3.01
279.755	2.95
280.127	2.95
280.5	3.07
280.872	3.05
281.245	2.94
281.617	3.02
281.99	3.31
282.362	3.4
282.735	3.52
283.107	3.52
283.479	3.52
283.852	3.61
284.224	3.67
284.596	3.62
284.968	3.55
285.34	3.72
285.713	3.72
286.085	3.75
286.457	3.79
286.829	3.65
287.201	3.74
287.572	3.71
287.944	3.6
288.316	3.54
288.688	3.53
289.06	3.7
289.431	3.75
289.803	3.69
290.175	3.73
290.546	3.9
290.918	3.86
291.289	3.87
291.661	3.96
292.032	3.95
292.403	3.93
292.775	4.11
293.146	4.05
293.517	4.1
293.889	4.18
294.26	4.14
294.631	4.2
295.002	4.13
295.373	4.17
295.744	4.3
296.115	4.19
296.486	4.14
296.857	4.1
297.228	4.03
297.599	3.94
297.97	4
298.34	4
298.711	4.03
299.082	4.06
299.452	4.05
299.823	3.97
300.194	4.06
300.564	3.92
300.935	4
301.305	4.02
301.676	4.02
302.046	4.06
302.416	4.08
302.787	4.06
303.157	4.21
303.527	4.12
303.897	4.37
304.267	4.59
304.637	4.67
305.008	4.74
305.378	4.91
305.748	4.95
306.117	4.78
306.487	4.91
306.857	5.02
307.227	5.09
307.597	5.24
307.967	5.16
308.336	5.31
308.706	5.28
309.076	5.3
309.445	5.21
309.815	5.3
310.184	5.34
310.554	5.42
310.923	5.4
311.293	5.42
311.662	5.45
312.031	5.43
312.401	5.36
312.77	5.53
313.139	5.56
313.508	5.51
313.877	5.5
314.246	5.45
314.616	5.49
314.985	5.48
315.353	5.39
315.722	5.57
316.091	5.46
316.46	5.53
316.829	5.59
317.198	5.75
317.567	5.73
317.935	5.79
318.304	5.87
318.672	5.9
319.041	6.06
319.41	6.12
319.778	6.1
320.147	6.32
320.515	6.26
320.883	6.35
321.252	6.46
321.62	6.68
321.988	6.83
322.357	6.81
322.725	6.87
323.093	7.06
323.461	7.12
323.829	7.32
324.197	7.44
324.565	7.42
324.933	7.38
325.301	7.48
325.669	7.63
326.037	7.71
326.405	7.74
326.772	7.7
327.14	7.87
327.508	7.89
327.875	7.9
328.243	8
328.61	8.03
328.978	8.1
329.346	8.31
329.713	8.4
330.08	8.62
330.448	8.73
330.815	8.68
331.182	8.63
331.55	8.61
331.917	8.59
332.284	8.86
332.651	8.91
333.018	8.99
333.385	8.97
333.752	9
334.119	9.15
334.486	9.34
334.853	9.37
335.22	9.46
335.587	9.56
335.954	9.62
336.32	9.7
336.687	9.91
337.054	9.79
337.42	9.82
337.787	9.83
338.153	9.86
338.52	10.03
338.886	10.03
339.253	10.02
339.619	10.17
339.986	10.13
340.352	10.25
340.718	10.31
341.084	10.38
341.451	10.47
341.817	10.59
342.183	10.6
342.549	10.61
342.915	10.76
343.281	10.78
343.647	10.7
344.013	10.75
344.379	10.7
344.745	10.75
345.11	10.77
345.476	10.8
345.842	10.77
346.208	10.72
346.573	10.95
346.939	11.13
347.304	11.05
347.67	11.04
348.035	11.13
348.401	11.17
348.766	11.17
349.132	11.21
349.497	11.01
349.862	11.04
350.228	11
350.593	10.93
350.958	11
351.323	11.11
351.688	11.1
352.053	11.05
352.418	11.08
352.783	11.07
353.148	11.08
353.513	11.15
353.878	11.24
354.243	11.21
354.608	11.21
354.972	11.3
355.337	11.28
355.702	11.3
356.066	11.35
356.431	11.35
356.795	11.29
357.16	11.35
357.524	11.29
357.889	11.3
358.253	11.28
358.618	11.25
358.982	11.24
359.346	11.2
359.71	11.15
360.075	11.13
360.439	11.16
360.803	11.19
361.167	11.13
361.531	11.04
361.895	11.01
362.259	10.89
362.623	10.82
362.987	10.86
363.351	10.81
363.714	10.69
364.078	10.67
364.442	10.62
364.806	10.61
365.169	10.56
365.533	10.54
365.896	10.49
366.26	10.44
366.623	10.38
366.987	10.29
367.35	10.31
367.714	10.24
368.077	10.17
368.44	10.05
368.803	9.98
369.167	9.96
369.53	9.87
369.893	9.85
370.256	9.84
370.619	9.78
370.982	9.64
371.345	9.59
371.708	9.58
372.071	9.55
372.434	9.58
372.797	9.57
373.159	9.48
373.522	9.44
373.885	9.36
374.247	9.31
374.61	9.34
374.973	9.27
375.335	9.18
375.698	9.11
376.06	9.01
376.423	8.99
376.785	8.95
377.147	8.88
377.51	8.8
377.872	8.73
378.234	8.66
378.596	8.63
378.958	8.55
379.321	8.48
379.683	8.43
380.045	8.26
380.407	8.2
380.769	8.14
381.13	8.07
381.492	7.96
381.854	7.87
382.216	7.72
382.578	7.68
382.939	7.65
383.301	7.6
383.663	7.55
384.024	7.46
384.386	7.39
384.747	7.36
385.109	7.35
385.47	7.28
385.832	7.2
386.193	7.16
386.554	7.14
386.916	7.06
387.277	7
387.638	6.98
387.999	6.9
388.36	6.86
388.721	6.79
389.082	6.78
389.443	6.76
389.804	6.76
390.165	6.65
390.526	6.59
390.887	6.53
391.248	6.49
391.609	6.47
391.969	6.39
392.33	6.33
392.691	6.29
393.051	6.24
393.412	6.21
393.772	6.12
394.133	6.08
394.493	5.99
394.854	5.96
395.214	5.92
395.574	5.89
395.935	5.84
396.295	5.8
396.655	5.7
397.015	5.63
397.376	5.57
397.736	5.58
398.096	5.56
398.456	5.53
398.816	5.47
399.176	5.37
399.535	5.32
399.895	5.26
400.255	5.23
400.615	5.19
400.975	5.12
401.334	5.07
401.694	5
402.054	5.02
402.413	4.95
402.773	4.87
403.132	4.82
403.492	4.79
403.851	4.77
404.211	4.76
404.57	4.74
404.929	4.72
405.288	4.67
405.648	4.62
406.007	4.57
406.366	4.54
406.725	4.56
407.084	4.58
407.443	4.58
407.802	4.56
408.161	4.53
408.52	4.54
408.879	4.54
409.238	4.57
409.596	4.54
409.955	4.55
410.314	4.55
410.673	4.55
411.031	4.52
411.39	4.48
411.748	4.48
412.107	4.46
412.465	4.43
412.824	4.44
413.182	4.38
413.54	4.37
413.899	4.36
414.257	4.32
414.615	4.29
414.974	4.27
415.332	4.2
415.69	4.17
416.048	4.14
416.406	4.14
416.764	4.1
417.122	4.09
417.48	4.04
417.838	4.02
418.195	4
418.553	3.99
418.911	3.98
419.269	3.96
419.626	3.95
419.984	3.94
420.342	3.93
420.699	3.92
421.057	3.9
421.414	3.89
421.772	3.88
422.129	3.85
422.486	3.83
422.844	3.84
423.201	3.81
423.558	3.79
423.915	3.77
424.273	3.76
424.63	3.74
424.987	3.74
425.344	3.75
425.701	3.73
426.058	3.71
426.415	3.7
426.772	3.68
427.128	3.65
427.485	3.64
427.842	3.62
428.199	3.61
428.555	3.59
428.912	3.58
429.269	3.57
429.625	3.56
429.982	3.55
430.338	3.53
430.695	3.54
431.051	3.54
431.407	3.53
431.764	3.5
432.12	3.49
432.476	3.47
432.832	3.43
433.189	3.43
433.545	3.42
433.901	3.42
434.257	3.42
434.613	3.43
434.969	3.43
435.325	3.42
435.681	3.41
436.036	3.42
436.392	3.43
436.748	3.43
437.104	3.44
437.459	3.44
437.815	3.44
438.171	3.44
438.526	3.45
438.882	3.46
439.237	3.46
439.593	3.46
439.948	3.46
440.304	3.45
440.659	3.46
441.014	3.47
441.369	3.44
441.725	3.43
442.08	3.41
442.435	3.4
442.79	3.39
443.145	3.38
443.5	3.38
443.855	3.36
444.21	3.34
444.565	3.33
444.92	3.32
445.275	3.32
445.629	3.31
445.984	3.29
446.339	3.26
446.693	3.26
447.048	3.26
447.403	3.25
447.757	3.26
448.112	3.23
448.466	3.22
448.82	3.22
449.175	3.21
449.529	3.21
449.883	3.21
450.238	3.21
450.592	3.21
450.946	3.2
451.3	3.19
451.654	3.2
452.008	3.18
452.362	3.16
452.716	3.15
453.07	3.16
453.424	3.15
453.778	3.16
454.132	3.15
454.486	3.14
454.839	3.12
455.193	3.09
455.547	3.09
455.9	3.09
456.254	3.12
456.607	3.13
456.961	3.12
457.314	3.12
457.668	3.12
458.021	3.1
458.375	3.11
458.728	3.11
459.081	3.12
459.434	3.12
459.787	3.13
460.141	3.13
460.494	3.12
460.847	3.1
461.2	3.11
461.553	3.11
461.906	3.12
462.259	3.14
462.611	3.18
462.964	3.18
463.317	3.19
463.67	3.18
464.022	3.2
464.375	3.21
464.728	3.23
465.08	3.23
465.433	3.25
465.785	3.26
466.138	3.27
466.49	3.26
466.843	3.28
467.195	3.3
467.547	3.32
467.899	3.34
468.252	3.36
468.604	3.39
468.956	3.4
469.308	3.42
469.66	3.4
470.012	3.4
470.364	3.42
470.716	3.41
471.068	3.41
471.42	3.41
471.772	3.44
472.123	3.45
472.475	3.45
472.827	3.44
473.178	3.43
473.53	3.45
473.882	3.46
474.233	3.47
474.585	3.48
474.936	3.47
475.288	3.47
475.639	3.48
475.99	3.47
476.342	3.47
476.693	3.46
477.044	3.47
477.395	3.45
477.746	3.43
478.097	3.45
478.448	3.46
478.8	3.43
479.15	3.4
479.501	3.39
479.852	3.38
480.203	3.39
480.554	3.39
480.905	3.38
481.255	3.38
481.606	3.37
481.957	3.37
482.307	3.37
482.658	3.36
483.009	3.36
483.359	3.35
483.709	3.35
484.06	3.36
484.41	3.37
484.761	3.36
485.111	3.36
485.461	3.36
485.811	3.35
486.162	3.37
486.512	3.38
486.862	3.38
487.212	3.38
487.562	3.38
487.912	3.39
488.262	3.39
488.612	3.38
488.961	3.39
489.311	3.39
489.661	3.41
490.011	3.41
490.36	3.41
490.71	3.42
491.06	3.43
491.409	3.44
491.759	3.44
492.108	3.46
492.458	3.47
492.807	3.47
493.157	3.48
493.506	3.49
493.855	3.49
494.204	3.5
494.554	3.52
494.903	3.53
495.252	3.55
495.601	3.57
495.95	3.61
496.299	3.62
496.648	3.63
496.997	3.65
497.346	3.68
497.695	3.72
498.043	3.75
498.392	3.76
498.741	3.78
499.09	3.81
499.438	3.84
499.787	3.88
500.135	3.93
500.484	3.98
500.832	4
501.181	4.03
501.529	4.07
501.878	4.11
502.226	4.17
502.574	4.21
502.923	4.26
503.271	4.28
503.619	4.34
503.967	4.4
504.315	4.44
504.663	4.5
505.011	4.55
505.359	4.61
505.707	4.68
506.055	4.75
506.403	4.82
506.751	4.87
507.098	4.92
507.446	4.99
507.794	5.04
508.141	5.12
508.489	5.2
508.837	5.28
509.184	5.36
509.531	5.42
509.879	5.5
510.226	5.55
510.574	5.64
510.921	5.72
511.268	5.77
511.616	5.87
511.963	5.95
512.31	6.05
512.657	6.15
513.004	6.26
513.351	6.35
513.698	6.46
514.045	6.58
514.392	6.72
514.739	6.83
515.086	6.97
515.432	7.07
515.779	7.19
516.126	7.32
516.473	7.44
516.819	7.57
517.166	7.69
517.512	7.85
517.859	7.97
518.205	8.1
518.552	8.25
518.898	8.38
519.245	8.5
519.591	8.61
519.937	8.72
520.283	8.86
520.629	9.03
520.976	9.2
521.322	9.39
521.668	9.57
522.014	9.78
522.36	10
522.706	10.23
523.052	10.48
523.398	10.74
523.743	11.03
524.089	11.31
524.435	11.57
524.781	11.82
525.126	12.07
525.472	12.3
525.817	12.52
526.163	12.72
526.509	12.93
526.854	13.13
527.199	13.35
527.545	13.53
527.89	13.74
528.235	13.93
528.581	14.13
528.926	14.33
529.271	14.54
529.616	14.75
529.961	14.97
530.306	15.19
530.651	15.42
530.996	15.65
531.341	15.92
531.686	16.2
532.031	16.48
532.376	16.79
532.721	17.09
533.065	17.38
533.41	17.7
533.755	18
534.099	18.35
534.444	18.67
534.788	18.98
535.133	19.3
535.477	19.64
535.822	19.99
536.166	20.37
536.51	20.75
536.855	21.14
537.199	21.57
537.543	22.02
537.887	22.48
538.231	22.96
538.576	23.38
538.92	23.81
539.264	24.24
539.608	24.61
539.951	24.97
540.295	25.34
540.639	25.69
540.983	26.04
541.327	26.33
541.671	26.69
542.014	27.03
542.358	27.36
542.701	27.68
543.045	27.98
543.389	28.29
543.732	28.64
544.075	28.97
544.419	29.28
544.762	29.6
545.105	29.93
545.449	30.25
545.792	30.62
546.135	30.99
546.478	31.38
546.821	31.75
547.165	32.18
547.508	32.57
547.851	32.98
548.194	33.4
548.536	33.82
548.879	34.17
549.222	34.56
549.565	34.95
549.908	35.32
550.25	35.73
550.593	36.11
550.936	36.42
551.278	36.81
551.621	37.2
551.963	37.61
552.306	37.94
552.648	38.27
552.991	38.63
553.333	38.93
553.675	39.3
554.017	39.63
554.36	39.87
554.702	40.15
555.044	40.45
555.386	40.71
555.728	41.07
556.07	41.38
556.412	41.65
556.754	41.92
557.096	42.2
557.438	42.47
557.78	42.69
558.121	42.99
558.463	43.27
558.805	43.53
559.147	43.75
559.488	43.99
559.83	44.26
560.171	44.48
560.513	44.76
560.854	44.89
561.196	45.13
561.537	45.45
561.878	45.75
562.22	45.97
562.561	46.14
562.902	46.29
563.243	46.43
563.584	46.65
563.925	46.85
564.266	47.02
564.607	47.22
564.948	47.46
565.289	47.67
565.63	47.83
565.971	47.99
566.312	48.19
566.653	48.36
566.993	48.52
567.334	48.7
567.675	48.87
568.015	49.12
568.356	49.26
568.696	49.37
569.037	49.47
569.377	49.65
569.718	49.88
570.058	50.04
570.398	50.22
570.739	50.38
571.079	50.46
571.419	50.63
571.759	50.7
572.099	50.84
572.439	50.93
572.779	51.03
573.119	51.14
573.459	51.19
573.799	51.29
574.139	51.39
574.479	51.44
574.819	51.53
575.158	51.58
575.498	51.67
575.838	51.77
576.177	51.89
576.517	51.93
576.856	51.96
577.196	52.09
577.535	52.19
577.875	52.29
578.214	52.45
578.553	52.58
578.893	52.72
579.232	52.8
579.571	52.95
579.91	53.07
580.25	53.19
580.589	53.34
580.928	53.49
581.267	53.59
581.606	53.72
581.945	53.83
582.283	53.96
582.622	54.15
582.961	54.22
583.3	54.3
583.639	54.4
583.977	54.5
584.316	54.5
584.654	54.58
584.993	54.6
585.332	54.65
585.67	54.73
586.008	54.87
586.347	54.86
586.685	54.91
587.024	55
587.362	55.04
587.7	55.04
588.038	55.16
588.376	55.24
588.715	55.31
589.053	55.27
589.391	55.34
589.729	55.34
590.067	55.38
590.404	55.48
590.742	55.55
591.08	55.6
591.418	55.76
591.756	55.85
592.093	55.87
592.431	55.95
592.769	55.94
593.106	55.95
593.444	56.01
593.781	56.01
594.119	55.98
594.456	56
594.793	56.11
595.131	56.03
595.468	56.08
595.805	56.14
596.143	56.27
596.48	56.26
596.817	56.26
597.154	56.31
597.491	56.37
597.828	56.41
598.165	56.48
598.502	56.41
598.839	56.49
599.176	56.56
599.512	56.64
599.849	56.69
600.186	56.75
600.523	56.82
600.859	56.93
601.196	57.06
601.532	57.11
601.869	57.18
602.205	57.27
602.542	57.38
602.878	57.4
603.215	57.36
603.551	57.39
603.887	57.5
604.223	57.57
604.56	57.53
604.896	57.58
605.232	57.61
605.568	57.67
605.904	57.61
606.24	57.63
606.576	57.61
606.912	57.65
607.248	57.7
607.583	57.7
607.919	57.72
608.255	57.8
608.591	57.85
608.926	57.87
609.262	57.89
609.597	57.89
609.933	57.92
610.268	58.02
610.604	58.09
610.939	58.06
611.275	58.1
611.61	58.18
611.945	58.22
612.281	58.22
612.616	58.24
612.951	58.41
613.286	58.52
613.621	58.55
613.956	58.54
614.291	58.53
614.626	58.65
614.961	58.66
615.296	58.59
615.631	58.64
615.966	58.67
616.3	58.69
616.635	58.59
616.97	58.65
617.304	58.58
617.639	58.59
617.973	58.69
618.308	58.69
618.642	58.69
618.977	58.67
619.311	58.72
619.646	58.83
619.98	58.75
620.314	58.71
620.648	58.66
620.983	58.79
621.317	58.86
621.651	58.84
621.985	58.91
622.319	58.91
622.653	58.83
622.987	58.72
623.321	58.81
623.655	58.98
623.988	58.95
624.322	59.03
624.656	59.03
624.99	59.03
625.323	59.14
625.657	59.24
625.99	59.23
626.324	59.31
626.657	59.24
626.991	59.32
627.324	59.31
627.658	59.39
627.991	59.46
628.324	59.45
628.657	59.43
628.991	59.42
629.324	59.39
629.657	59.52
629.99	59.67
630.323	59.63
630.656	59.6
630.989	59.71
631.322	59.67
631.655	59.69
631.987	59.67
632.32	59.57
632.653	59.53
632.986	59.57
633.318	59.48
633.651	59.45
633.984	59.46
634.316	59.65
634.649	59.64
634.981	59.59
635.313	59.64
635.646	59.72
635.978	59.73
636.31	59.88
636.643	59.89
636.975	59.95
637.307	59.99
637.639	60.02
637.971	59.92
638.303	60.04
638.635	60.07
638.967	60.07
639.299	60.11
639.631	60.1
639.963	60.06
640.295	60.18
640.626	60.34
640.958	60.42
641.29	60.33
641.621	60.38
641.953	60.3
642.285	60.34
642.616	60.35
642.948	60.34
643.279	60.33
643.61	60.36
643.942	60.33
644.273	60.42
644.604	60.43
644.936	60.51
645.267	60.34
645.598	60.32
645.929	60.46
646.26	60.52
646.591	60.56
646.922	60.72
647.253	60.72
647.584	60.68
647.915	60.53
648.245	60.54
648.576	60.61
648.907	60.75
649.238	60.7
649.568	60.66
649.899	60.58
650.229	60.64
650.56	60.68
650.89	60.82
651.221	60.78
651.551	60.75
651.882	60.79
652.212	60.98
652.542	61.05
652.872	60.94
653.203	60.91
653.533	60.99
653.863	61.02
654.193	60.98
654.523	60.97
654.853	61.08
655.183	61.14
655.513	61.26
655.843	61.21
656.172	61.33
656.502	61.49
656.832	61.57
657.162	61.59
657.491	61.56
657.821	61.46
658.15	61.48
658.48	61.54
658.809	61.42
659.139	61.44
659.468	61.45
659.798	61.44
660.127	61.52
660.456	61.48
660.785	61.5
661.115	61.54
661.444	61.6
661.773	61.48
662.102	61.48
662.431	61.25
662.76	61.25
663.089	61.23
663.418	61.15
663.747	61.19
664.076	61.09
664.404	61.15
664.733	61.17
665.062	61.13
665.39	61.14
665.719	61.15
666.048	61.03
