Data from BA56825_Reflection_00004.txt Node
Date: Mon Nov 18 15:37:22 EST 2019
User: vgr7
Spectrometer: USB2G7710
Scans to average: 3
Trigger mode: 4
Integration Time (sec): 2.000000E-2
Electric dark correction enabled: true
Boxcar width: 10
XAxis mode: Wavelengths
Number of Pixels in Spectrum: 2048
>>>>>Begin Spectral Data<<<<<
177.721	163.23
178.105	59.79
178.488	32.12
178.871	100
179.254	62.46
179.636	7.02
180.019	79.5
180.402	49.09
180.785	-20.36
181.168	48.47
181.55	2747.06
181.933	108.87
182.316	47.02
182.698	56.11
183.081	49.85
183.463	146.31
183.846	597.98
184.228	-391.96
184.611	-302.74
184.993	-32.96
185.376	-10.39
185.758	-20.38
186.14	-70.19
186.522	-22.31
186.904	-53.04
187.287	-135.34
187.669	-49.38
188.051	-72.12
188.433	-41.33
188.815	-25.52
189.197	-29.96
189.579	-42.51
189.961	-21.22
190.342	-31.61
190.724	-14.93
191.106	-19.31
191.488	-17.29
191.869	-1.06
192.251	1.71
192.633	-0.02
193.014	-20.25
193.396	-39.87
193.777	-29.46
194.159	-6.97
194.54	0.37
194.922	13.23
195.303	25.89
195.684	22.26
196.065	45.98
196.447	45.04
196.828	38.37
197.209	37.7
197.59	36.94
197.971	30.88
198.352	38.03
198.733	28.79
199.114	30.87
199.495	37.68
199.876	31.91
200.257	31.25
200.638	33.24
201.018	42.01
201.399	44.83
201.78	39.04
202.16	27.12
202.541	14
202.922	-9.99
203.302	-22.57
203.683	-26.65
204.063	-40.44
204.444	-45.34
204.824	-39.36
205.204	-31.09
205.585	-31.14
205.965	-22.63
206.345	-27.79
206.725	-28.18
207.106	-44.29
207.486	-66.72
207.866	-88
208.246	-85.22
208.626	-80.18
209.006	-49.76
209.386	-41.68
209.766	-41.94
210.145	-35.37
210.525	-33.52
210.905	-6.63
211.285	-0.56
211.664	13.98
212.044	15.99
212.424	28.55
212.803	46.57
213.183	30.78
213.562	43.4
213.942	34.9
214.321	28.96
214.701	24.68
215.08	19.62
215.459	26.79
215.838	23.39
216.218	9.62
216.597	41.48
216.976	23.7
217.355	16.48
217.734	15.39
218.113	27.22
218.492	39.12
218.871	21.7
219.25	32.64
219.629	42.32
220.008	48.43
220.387	41.47
220.766	20.67
221.144	18.7
221.523	13.51
221.902	19.76
222.28	13.06
222.659	21
223.037	30.15
223.416	25.05
223.794	25.32
224.173	20.67
224.551	15.94
224.929	9.81
225.308	10.56
225.686	9.44
226.064	14.03
226.442	14.24
226.821	14.74
227.199	11.88
227.577	5.86
227.955	3.89
228.333	3.23
228.711	6.07
229.089	8.68
229.467	7
229.845	5.15
230.222	6.53
230.6	4.68
230.978	4.7
231.356	6.29
231.733	5.66
232.111	7.8
232.488	7.71
232.866	10.08
233.243	9.7
233.621	8.24
233.998	7.48
234.376	5.17
234.753	5.5
235.13	7.06
235.508	7.57
235.885	8.04
236.262	7.76
236.639	6.59
237.016	4.3
237.393	5.28
237.77	5.39
238.147	5.46
238.524	6.15
238.901	5.77
239.278	5.38
239.655	6.7
240.032	5.73
240.409	5.85
240.785	4.68
241.162	4.86
241.539	5.7
241.915	5.48
242.292	5.91
242.668	5.67
243.045	5.56
243.421	5.63
243.798	5.83
244.174	5.79
244.551	5.85
244.927	6.42
245.303	6.55
245.679	6.6
246.056	6.53
246.432	6.61
246.808	6.81
247.184	6.82
247.56	6.46
247.936	6.55
248.312	6.5
248.688	6.72
249.064	6.95
249.44	7.04
249.815	7.04
250.191	7.09
250.567	7.42
250.943	7.16
251.318	7.35
251.694	7.21
252.069	7.3
252.445	7.36
252.82	7.24
253.196	7.15
253.571	7.13
253.947	7.35
254.322	7.15
254.697	7.06
255.073	6.99
255.448	6.83
255.823	6.76
256.198	6.71
256.573	6.81
256.948	6.65
257.323	6.45
257.698	6.5
258.073	6.42
258.448	6.27
258.823	6.43
259.198	6.33
259.573	6.18
259.948	5.99
260.322	6.09
260.697	6.01
261.072	5.91
261.446	5.92
261.821	5.73
262.195	5.84
262.57	5.76
262.944	5.67
263.319	5.85
263.693	5.73
264.067	5.79
264.442	5.84
264.816	5.8
265.19	5.77
265.564	5.64
265.938	5.54
266.313	5.48
266.687	5.46
267.061	5.54
267.435	5.79
267.809	5.79
268.183	5.68
268.556	5.68
268.93	5.83
269.304	5.85
269.678	5.94
270.051	5.86
270.425	6.04
270.799	6.25
271.172	6.24
271.546	6.48
271.919	6.43
272.293	6.28
272.666	6.37
273.04	6.58
273.413	6.56
273.787	6.71
274.16	6.7
274.533	6.53
274.906	6.44
275.279	6.33
275.653	6.52
276.026	6.47
276.399	6.5
276.772	6.56
277.145	6.43
277.518	6.48
277.891	6.5
278.263	6.23
278.636	6.13
279.009	6.22
279.382	6.18
279.755	6.2
280.127	6.35
280.5	6.23
280.872	6.11
281.245	6.26
281.617	6.27
281.99	6.42
282.362	6.56
282.735	6.47
283.107	6.47
283.479	6.49
283.852	6.66
284.224	6.68
284.596	6.72
284.968	6.92
285.34	6.94
285.713	6.98
286.085	7.08
286.457	7.22
286.829	7.17
287.201	7.09
287.572	7.01
287.944	7
288.316	7.02
288.688	6.98
289.06	7.08
289.431	7.12
289.803	7.07
290.175	7.12
290.546	7.31
290.918	7.44
291.289	7.41
291.661	7.54
292.032	7.61
292.403	7.51
292.775	7.55
293.146	7.55
293.517	7.53
293.889	7.56
294.26	7.47
294.631	7.39
295.002	7.41
295.373	7.48
295.744	7.52
296.115	7.61
296.486	7.62
296.857	7.61
297.228	7.75
297.599	7.66
297.97	7.72
298.34	7.76
298.711	7.73
299.082	7.7
299.452	7.63
299.823	7.73
300.194	7.79
300.564	7.67
300.935	7.82
301.305	7.92
301.676	8.04
302.046	8.17
302.416	8.35
302.787	8.35
303.157	8.39
303.527	8.43
303.897	8.39
304.267	8.47
304.637	8.42
305.008	8.29
305.378	8.56
305.748	8.58
306.117	8.48
306.487	8.54
306.857	8.6
307.227	8.53
307.597	8.47
307.967	8.51
308.336	8.63
308.706	8.61
309.076	8.57
309.445	8.41
309.815	8.39
310.184	8.3
310.554	8.38
310.923	8.36
311.293	8.27
311.662	8.18
312.031	8.31
312.401	8.29
312.77	8.38
313.139	8.41
313.508	8.4
313.877	8.33
314.246	8.37
314.616	8.42
314.985	8.52
315.353	8.5
315.722	8.56
316.091	8.53
316.46	8.39
316.829	8.37
317.198	8.46
317.567	8.4
317.935	8.43
318.304	8.62
318.672	8.55
319.041	8.66
319.41	8.75
319.778	8.72
320.147	8.8
320.515	8.64
320.883	8.52
321.252	8.62
321.62	8.71
321.988	8.54
322.357	8.48
322.725	8.33
323.093	8.34
323.461	8.23
323.829	8.27
324.197	8.33
324.565	8.35
324.933	8.34
325.301	8.46
325.669	8.54
326.037	8.4
326.405	8.49
326.772	8.55
327.14	8.7
327.508	8.54
327.875	8.44
328.243	8.54
328.61	8.48
328.978	8.52
329.346	8.64
329.713	8.8
330.08	8.88
330.448	8.83
330.815	8.81
331.182	8.9
331.55	8.96
331.917	9.03
332.284	9.17
332.651	9.23
333.018	9.16
333.385	9.11
333.752	9.22
334.119	9.25
334.486	9.17
334.853	9.1
335.22	9.13
335.587	9.16
335.954	9.06
336.32	9.12
336.687	9.04
337.054	8.97
337.42	8.98
337.787	8.99
338.153	9.13
338.52	9.12
338.886	8.95
339.253	8.81
339.619	8.82
339.986	8.66
340.352	8.55
340.718	8.53
341.084	8.59
341.451	8.58
341.817	8.63
342.183	8.6
342.549	8.6
342.915	8.63
343.281	8.66
343.647	8.74
344.013	8.69
344.379	8.58
344.745	8.61
345.11	8.49
345.476	8.44
345.842	8.37
346.208	8.36
346.573	8.47
346.939	8.5
347.304	8.33
347.67	8.25
348.035	8.33
348.401	8.38
348.766	8.25
349.132	8.2
349.497	8.2
349.862	8.25
350.228	8.32
350.593	8.28
350.958	8.24
351.323	8.28
351.688	8.33
352.053	8.46
352.418	8.55
352.783	8.61
353.148	8.61
353.513	8.66
353.878	8.7
354.243	8.74
354.608	8.81
354.972	8.97
355.337	9.13
355.702	9.11
356.066	9.07
356.431	9.15
356.795	9.15
357.16	9.16
357.524	9.11
357.889	9.01
358.253	8.99
358.618	8.98
358.982	8.87
359.346	8.83
359.71	8.8
360.075	8.76
360.439	8.77
360.803	8.76
361.167	8.71
361.531	8.71
361.895	8.67
362.259	8.61
362.623	8.57
362.987	8.54
363.351	8.59
363.714	8.59
364.078	8.53
364.442	8.52
364.806	8.51
365.169	8.58
365.533	8.63
365.896	8.62
366.26	8.6
366.623	8.59
366.987	8.63
367.35	8.62
367.714	8.61
368.077	8.55
368.44	8.55
368.803	8.53
369.167	8.43
369.53	8.43
369.893	8.48
370.256	8.51
370.619	8.5
370.982	8.4
371.345	8.41
371.708	8.46
372.071	8.5
372.434	8.46
372.797	8.41
373.159	8.35
373.522	8.34
373.885	8.39
374.247	8.44
374.61	8.42
374.973	8.39
375.335	8.35
375.698	8.45
376.06	8.42
376.423	8.47
376.785	8.51
377.147	8.51
377.51	8.47
377.872	8.49
378.234	8.44
378.596	8.5
378.958	8.5
379.321	8.48
379.683	8.42
380.045	8.4
380.407	8.36
380.769	8.39
381.13	8.4
381.492	8.41
381.854	8.43
382.216	8.37
382.578	8.38
382.939	8.37
383.301	8.34
383.663	8.35
384.024	8.35
384.386	8.37
384.747	8.38
385.109	8.45
385.47	8.41
385.832	8.46
386.193	8.43
386.554	8.41
386.916	8.4
387.277	8.44
387.638	8.44
387.999	8.46
388.36	8.5
388.721	8.51
389.082	8.47
389.443	8.46
389.804	8.47
390.165	8.48
390.526	8.51
390.887	8.5
391.248	8.51
391.609	8.48
391.969	8.47
392.33	8.43
392.691	8.4
393.051	8.36
393.412	8.34
393.772	8.37
394.133	8.37
394.493	8.38
394.854	8.37
395.214	8.37
395.574	8.34
395.935	8.26
396.295	8.3
396.655	8.28
397.015	8.28
397.376	8.26
397.736	8.24
398.096	8.21
398.456	8.19
398.816	8.21
399.176	8.19
399.535	8.17
399.895	8.17
400.255	8.15
400.615	8.19
400.975	8.19
401.334	8.14
401.694	8.16
402.054	8.13
402.413	8.13
402.773	8.13
403.132	8.15
403.492	8.16
403.851	8.12
404.211	8.18
404.57	8.17
404.929	8.21
405.288	8.21
405.648	8.2
406.007	8.24
406.366	8.24
406.725	8.27
407.084	8.29
407.443	8.28
407.802	8.28
408.161	8.22
408.52	8.21
408.879	8.24
409.238	8.18
409.596	8.19
409.955	8.15
410.314	8.17
410.673	8.14
411.031	8.15
411.39	8.14
411.748	8.09
412.107	8.1
412.465	8.07
412.824	8.08
413.182	8.05
413.54	8.02
413.899	8.02
414.257	8.03
414.615	8.02
414.974	8.06
415.332	8.07
415.69	8.08
416.048	8.08
416.406	8.08
416.764	8.1
417.122	8.09
417.48	8.09
417.838	8.08
418.195	8.1
418.553	8.1
418.911	8.11
419.269	8.11
419.626	8.1
419.984	8.09
420.342	8.07
420.699	8.08
421.057	8.07
421.414	8.05
421.772	8.04
422.129	8.01
422.486	8
422.844	8.01
423.201	8
423.558	8.01
423.915	7.99
424.273	7.98
424.63	7.98
424.987	7.97
425.344	7.97
425.701	7.96
426.058	7.95
426.415	7.95
426.772	7.94
427.128	7.94
427.485	7.95
427.842	7.93
428.199	7.94
428.555	7.95
428.912	7.96
429.269	7.96
429.625	7.97
429.982	7.98
430.338	7.98
430.695	7.98
431.051	7.95
431.407	7.94
431.764	7.96
432.12	7.95
432.476	7.95
432.832	7.93
433.189	7.94
433.545	7.92
433.901	7.93
434.257	7.94
434.613	7.94
434.969	7.94
435.325	7.96
435.681	7.94
436.036	7.92
436.392	7.91
436.748	7.91
437.104	7.91
437.459	7.9
437.815	7.89
438.171	7.9
438.526	7.92
438.882	7.94
439.237	7.93
439.593	7.93
439.948	7.93
440.304	7.95
440.659	7.95
441.014	7.98
441.369	7.97
441.725	7.96
442.08	7.97
442.435	7.95
442.79	7.96
443.145	7.96
443.5	7.95
443.855	7.96
444.21	7.95
444.565	7.95
444.92	7.95
445.275	7.91
445.629	7.89
445.984	7.88
446.339	7.87
446.693	7.86
447.048	7.84
447.403	7.82
447.757	7.8
448.112	7.78
448.466	7.76
448.82	7.74
449.175	7.73
449.529	7.7
449.883	7.69
450.238	7.66
450.592	7.66
450.946	7.65
451.3	7.63
451.654	7.63
452.008	7.62
452.362	7.61
452.716	7.62
453.07	7.63
453.424	7.63
453.778	7.61
454.132	7.61
454.486	7.64
454.839	7.67
455.193	7.68
455.547	7.69
455.9	7.71
456.254	7.73
456.607	7.72
456.961	7.71
457.314	7.72
457.668	7.73
458.021	7.72
458.375	7.74
458.728	7.75
459.081	7.74
459.434	7.75
459.787	7.76
460.141	7.78
460.494	7.79
460.847	7.77
461.2	7.79
461.553	7.79
461.906	7.77
462.259	7.77
462.611	7.77
462.964	7.78
463.317	7.79
463.67	7.78
464.022	7.8
464.375	7.8
464.728	7.84
465.08	7.84
465.433	7.86
465.785	7.86
466.138	7.85
466.49	7.85
466.843	7.86
467.195	7.86
467.547	7.85
467.899	7.85
468.252	7.86
468.604	7.87
468.956	7.86
469.308	7.87
469.66	7.88
470.012	7.88
470.364	7.9
470.716	7.89
471.068	7.91
471.42	7.89
471.772	7.91
472.123	7.9
472.475	7.91
472.827	7.9
473.178	7.89
473.53	7.91
473.882	7.94
474.233	7.93
474.585	7.93
474.936	7.91
475.288	7.94
475.639	7.97
475.99	7.98
476.342	8.01
476.693	8.02
477.044	8.04
477.395	8.04
477.746	8.02
478.097	8.02
478.448	8.02
478.8	8.04
479.15	8.03
479.501	8.03
479.852	8.05
480.203	8.06
480.554	8.08
480.905	8.09
481.255	8.09
481.606	8.11
481.957	8.12
482.307	8.13
482.658	8.12
483.009	8.12
483.359	8.13
483.709	8.13
484.06	8.13
484.41	8.13
484.761	8.13
485.111	8.14
485.461	8.14
485.811	8.13
486.162	8.14
486.512	8.16
486.862	8.15
487.212	8.16
487.562	8.16
487.912	8.15
488.262	8.15
488.612	8.15
488.961	8.14
489.311	8.15
489.661	8.14
490.011	8.14
490.36	8.13
490.71	8.13
491.06	8.13
491.409	8.12
491.759	8.12
492.108	8.14
492.458	8.13
492.807	8.14
493.157	8.15
493.506	8.14
493.855	8.15
494.204	8.15
494.554	8.16
494.903	8.16
495.252	8.18
495.601	8.2
495.95	8.21
496.299	8.23
496.648	8.25
496.997	8.29
497.346	8.33
497.695	8.37
498.043	8.39
498.392	8.38
498.741	8.39
499.09	8.4
499.438	8.41
499.787	8.45
500.135	8.47
500.484	8.49
500.832	8.52
501.181	8.54
501.529	8.56
501.878	8.57
502.226	8.58
502.574	8.57
502.923	8.57
503.271	8.57
503.619	8.57
503.967	8.55
504.315	8.52
504.663	8.51
505.011	8.52
505.359	8.53
505.707	8.55
506.055	8.56
506.403	8.58
506.751	8.57
507.098	8.58
507.446	8.58
507.794	8.58
508.141	8.58
508.489	8.59
508.837	8.61
509.184	8.61
509.531	8.64
509.879	8.68
510.226	8.7
510.574	8.71
510.921	8.72
511.268	8.75
511.616	8.76
511.963	8.77
512.31	8.77
512.657	8.78
513.004	8.79
513.351	8.81
513.698	8.82
514.045	8.85
514.392	8.84
514.739	8.85
515.086	8.9
515.432	8.91
515.779	8.92
516.126	8.93
516.473	8.94
516.819	8.97
517.166	8.94
517.512	8.93
517.859	8.94
518.205	8.95
518.552	8.96
518.898	8.99
519.245	9.02
519.591	9.02
519.937	9.03
520.283	9.05
520.629	9.07
520.976	9.08
521.322	9.1
521.668	9.13
522.014	9.15
522.36	9.13
522.706	9.15
523.052	9.15
523.398	9.16
523.743	9.19
524.089	9.18
524.435	9.2
524.781	9.22
525.126	9.24
525.472	9.25
525.817	9.26
526.163	9.26
526.509	9.26
526.854	9.27
527.199	9.29
527.545	9.28
527.89	9.29
528.235	9.28
528.581	9.28
528.926	9.28
529.271	9.29
529.616	9.3
529.961	9.3
530.306	9.32
530.651	9.33
530.996	9.32
531.341	9.32
531.686	9.33
532.031	9.35
532.376	9.36
532.721	9.37
533.065	9.37
533.41	9.37
533.755	9.37
534.099	9.38
534.444	9.37
534.788	9.4
535.133	9.42
535.477	9.43
535.822	9.43
536.166	9.43
536.51	9.43
536.855	9.45
537.199	9.46
537.543	9.45
537.887	9.47
538.231	9.46
538.576	9.47
538.92	9.48
539.264	9.45
539.608	9.45
539.951	9.47
540.295	9.48
540.639	9.5
540.983	9.51
541.327	9.51
541.671	9.51
542.014	9.51
542.358	9.51
542.701	9.51
543.045	9.51
543.389	9.53
543.732	9.53
544.075	9.53
544.419	9.53
544.762	9.56
545.105	9.55
545.449	9.57
545.792	9.59
546.135	9.61
546.478	9.63
546.821	9.61
547.165	9.61
547.508	9.62
547.851	9.64
548.194	9.64
548.536	9.64
548.879	9.66
549.222	9.67
549.565	9.66
549.908	9.66
550.25	9.69
550.593	9.68
550.936	9.67
551.278	9.67
551.621	9.69
551.963	9.68
552.306	9.68
552.648	9.7
552.991	9.7
553.333	9.7
553.675	9.73
554.017	9.74
554.36	9.74
554.702	9.73
555.044	9.69
555.386	9.71
555.728	9.7
556.07	9.7
556.412	9.66
556.754	9.7
557.096	9.69
557.438	9.7
557.78	9.71
558.121	9.74
558.463	9.76
558.805	9.75
559.147	9.75
559.488	9.75
559.83	9.72
560.171	9.71
560.513	9.72
560.854	9.74
561.196	9.7
561.537	9.71
561.878	9.71
562.22	9.72
562.561	9.75
562.902	9.75
563.243	9.73
563.584	9.78
563.925	9.77
564.266	9.77
564.607	9.78
564.948	9.78
565.289	9.76
565.63	9.73
565.971	9.72
566.312	9.75
566.653	9.73
566.993	9.76
567.334	9.76
567.675	9.76
568.015	9.75
568.356	9.78
568.696	9.81
569.037	9.83
569.377	9.88
569.718	9.86
570.058	9.86
570.398	9.87
570.739	9.88
571.079	9.87
571.419	9.86
571.759	9.84
572.099	9.86
572.439	9.88
572.779	9.88
573.119	9.91
573.459	9.9
573.799	9.92
574.139	9.9
574.479	9.91
574.819	9.9
575.158	9.88
575.498	9.86
575.838	9.89
576.177	9.87
576.517	9.84
576.856	9.88
577.196	9.91
577.535	9.94
577.875	9.93
578.214	9.92
578.553	9.96
578.893	9.99
579.232	9.97
579.571	9.99
579.91	10.02
580.25	9.98
580.589	10
580.928	10.02
581.267	10.04
581.606	10.03
581.945	10.02
582.283	10.03
582.622	10.01
582.961	9.97
583.3	9.97
583.639	9.99
583.977	9.91
584.316	9.9
584.654	9.86
584.993	9.87
585.332	9.92
585.67	9.95
586.008	9.93
586.347	9.94
586.685	9.91
587.024	9.89
587.362	9.97
587.7	9.96
588.038	9.96
588.376	9.97
588.715	10
589.053	10.05
589.391	10.07
589.729	10.1
590.067	10.07
590.404	10.1
590.742	10.11
591.08	10.13
591.418	10.11
591.756	10.14
592.093	10.15
592.431	10.14
592.769	10.12
593.106	10.16
593.444	10.12
593.781	10.15
594.119	10.17
594.456	10.15
594.793	10.13
595.131	10.15
595.468	10.12
595.805	10.15
596.143	10.14
596.48	10.17
596.817	10.19
597.154	10.22
597.491	10.22
597.828	10.2
598.165	10.2
598.502	10.23
598.839	10.22
599.176	10.21
599.512	10.19
599.849	10.2
600.186	10.17
600.523	10.25
600.859	10.27
601.196	10.29
601.532	10.29
601.869	10.29
602.205	10.29
602.542	10.3
602.878	10.28
603.215	10.26
603.551	10.26
603.887	10.27
604.223	10.24
604.56	10.25
604.896	10.25
605.232	10.27
605.568	10.28
605.904	10.28
606.24	10.32
606.576	10.38
606.912	10.39
607.248	10.38
607.583	10.37
607.919	10.35
608.255	10.33
608.591	10.34
608.926	10.36
609.262	10.38
609.597	10.38
609.933	10.38
610.268	10.41
610.604	10.41
610.939	10.4
611.275	10.43
611.61	10.41
611.945	10.46
612.281	10.47
612.616	10.45
612.951	10.41
613.286	10.38
613.621	10.31
613.956	10.26
614.291	10.29
614.626	10.26
614.961	10.22
615.296	10.23
615.631	10.26
615.966	10.21
616.3	10.2
616.635	10.24
616.97	10.24
617.304	10.24
617.639	10.22
617.973	10.19
618.308	10.19
618.642	10.23
618.977	10.17
619.311	10.13
619.646	10.16
619.98	10.18
620.314	10.15
620.648	10.18
620.983	10.23
621.317	10.27
621.651	10.3
621.985	10.38
622.319	10.33
622.653	10.33
622.987	10.38
623.321	10.36
623.655	10.38
623.988	10.44
624.322	10.39
624.656	10.42
624.99	10.46
625.323	10.45
625.657	10.46
625.99	10.51
626.324	10.56
626.657	10.53
626.991	10.58
627.324	10.57
627.658	10.59
627.991	10.56
628.324	10.57
628.657	10.57
628.991	10.57
629.324	10.6
629.657	10.6
629.99	10.61
630.323	10.6
630.656	10.58
630.989	10.54
631.322	10.59
631.655	10.59
631.987	10.55
632.32	10.59
632.653	10.57
632.986	10.58
633.318	10.57
633.651	10.62
633.984	10.61
634.316	10.63
634.649	10.63
634.981	10.6
635.313	10.61
635.646	10.57
635.978	10.5
636.31	10.47
636.643	10.52
636.975	10.49
637.307	10.49
637.639	10.47
637.971	10.47
638.303	10.47
638.635	10.46
638.967	10.54
639.299	10.51
639.631	10.48
639.963	10.38
640.295	10.35
640.626	10.33
640.958	10.36
641.29	10.37
641.621	10.38
641.953	10.42
642.285	10.38
642.616	10.46
642.948	10.48
643.279	10.48
643.61	10.4
643.942	10.36
644.273	10.39
644.604	10.39
644.936	10.38
645.267	10.35
645.598	10.36
645.929	10.36
646.26	10.39
646.591	10.44
646.922	10.54
647.253	10.61
647.584	10.61
647.915	10.52
648.245	10.51
648.576	10.5
648.907	10.6
649.238	10.67
649.568	10.61
649.899	10.62
650.229	10.67
650.56	10.72
650.89	10.81
651.221	10.75
651.551	10.72
651.882	10.72
652.212	10.77
652.542	10.79
652.872	10.73
653.203	10.7
653.533	10.69
653.863	10.64
654.193	10.64
654.523	10.67
654.853	10.71
655.183	10.75
655.513	10.78
655.843	10.75
656.172	10.7
656.502	10.71
656.832	10.74
657.162	10.66
657.491	10.61
657.821	10.57
658.15	10.62
658.48	10.7
658.809	10.7
659.139	10.73
659.468	10.73
659.798	10.71
660.127	10.74
660.456	10.79
660.785	10.79
661.115	10.78
661.444	10.74
661.773	10.82
662.102	10.81
662.431	10.77
662.76	10.77
663.089	10.73
663.418	10.79
663.747	10.82
664.076	10.86
664.404	10.89
664.733	10.97
665.062	10.95
665.39	10.85
665.719	10.83
666.048	10.84
666.376	10.87
666.705	10.93
667.033	10.9
667.362	10.84
667.69	10.88
668.018	10.88
668.347	10.91
668.675	10.88
669.003	10.92
669.331	11.03
669.659	10.99
669.987	11.01
670.315	11.08
670.643	11.03
670.971	11.04
671.299	11.07
671.627	11.05
671.955	11.13
672.283	11.19
672.61	11.25
672.938	11.18
