Data from BA56852_Reflection_00010.txt Node
Date: Mon Nov 18 15:23:11 EST 2019
User: vgr7
Spectrometer: USB2G7710
Scans to average: 3
Trigger mode: 4
Integration Time (sec): 2.000000E-2
Electric dark correction enabled: true
Boxcar width: 10
XAxis mode: Wavelengths
Number of Pixels in Spectrum: 2048
>>>>>Begin Spectral Data<<<<<
177.721	2.2
178.105	-111.98
178.488	-20.75
178.871	-122.59
179.254	-127.67
179.636	3.69
180.019	-345.5
180.402	100
180.785	474.38
181.168	192.65
181.55	76.39
181.933	52.35
182.316	36.11
182.698	33.31
183.081	42.53
183.463	46.33
183.846	51.91
184.228	9.36
184.611	-4.02
184.993	7.29
185.376	14.98
185.758	23.66
186.14	38.93
186.522	10.44
186.904	28.15
187.287	31.18
187.669	2.89
188.051	6.71
188.433	5.34
188.815	-4.61
189.197	-22.17
189.579	-2.5
189.961	7.41
190.342	21.21
190.724	39.34
191.106	83.48
191.488	86.87
191.869	31.21
192.251	229.11
192.633	113.55
193.014	104.07
193.396	203.97
193.777	60.23
194.159	108.97
194.54	152.9
194.922	-5478.95
195.303	-1588.07
195.684	-354.01
196.065	-130.84
196.447	-77.47
196.828	-129.86
197.209	-60.17
197.59	-66.49
197.971	-64.36
198.352	-3.94
198.733	-39.02
199.114	19.42
199.495	36.02
199.876	5.72
200.257	57.53
200.638	34.64
201.018	43.13
201.399	55.67
201.78	38.8
202.16	33.13
202.541	27.2
202.922	14.57
203.302	28.88
203.683	40.07
204.063	16.07
204.444	-9.07
204.824	-11.06
205.204	-30.67
205.585	-21.56
205.965	-26.81
206.345	-61.36
206.725	-65.3
207.106	-123.29
207.486	-114.24
207.866	-138.93
208.246	-225.18
208.626	-252.31
209.006	-190.04
209.386	-466.34
209.766	-784.27
210.145	444.46
210.525	1267.63
210.905	2706.74
211.285	-217.24
211.664	-136.4
212.044	-106.23
212.424	-89.52
212.803	-83.34
213.183	-65.89
213.562	-76.99
213.942	-80.7
214.321	-19.82
214.701	-39.13
215.08	-39.59
215.459	-50.94
215.838	-0.37
216.218	9.73
216.597	31.38
216.976	39.42
217.355	20.16
217.734	37.02
218.113	47.13
218.492	86.73
218.871	100.91
219.25	87.04
219.629	73.81
220.008	66.87
220.387	55.41
220.766	44.24
221.144	41.85
221.523	22.78
221.902	9.07
222.28	-12.13
222.659	1.19
223.037	15.31
223.416	25.99
223.794	21.17
224.173	20.65
224.551	21.28
224.929	17.72
225.308	15.35
225.686	9.43
226.064	7.97
226.442	3.96
226.821	5.11
227.199	6.87
227.577	7.2
227.955	6.2
228.333	6.11
228.711	5.81
229.089	8.32
229.467	6.19
229.845	6.72
230.222	10.46
230.6	7.29
230.978	4.77
231.356	4.4
231.733	4.01
232.111	5.91
232.488	3.56
232.866	5.42
233.243	5.69
233.621	5.97
233.998	5.55
234.376	4.28
234.753	4.89
235.13	6.18
235.508	7.21
235.885	7.31
236.262	5.87
236.639	7.64
237.016	6.94
237.393	9.7
237.77	10.13
238.147	9.54
238.524	9.66
238.901	9.08
239.278	8.53
239.655	8.42
240.032	8.45
240.409	8.09
240.785	7.45
241.162	8.01
241.539	7.92
241.915	7.77
242.292	7.51
242.668	6.82
243.045	6.1
243.421	5.46
243.798	5.36
244.174	5.5
244.551	4.97
244.927	4.71
245.303	4.54
245.679	4.69
246.056	4.4
246.432	4.35
246.808	4.35
247.184	4.22
247.56	3.99
247.936	3.63
248.312	3.7
248.688	3.89
249.064	3.59
249.44	3.59
249.815	3.61
250.191	3.64
250.567	3.86
250.943	3.99
251.318	4.28
251.694	4.33
252.069	4.29
252.445	4.47
252.82	4.65
253.196	4.33
253.571	4.04
253.947	4.32
254.322	4.38
254.697	4.46
255.073	4.26
255.448	4.24
255.823	4.29
256.198	4.32
256.573	3.87
256.948	3.92
257.323	3.93
257.698	3.88
258.073	3.91
258.448	3.99
258.823	4.05
259.198	3.88
259.573	3.83
259.948	3.91
260.322	3.95
260.697	3.79
261.072	3.92
261.446	4.06
261.821	4.05
262.195	4.19
262.57	4.17
262.944	4.22
263.319	4.28
263.693	4.33
264.067	4.18
264.442	4.33
264.816	4.26
265.19	4.11
265.564	4.08
265.938	4
266.313	3.94
266.687	3.86
267.061	3.92
267.435	4.11
267.809	4.06
268.183	4.05
268.556	4.12
268.93	4.18
269.304	4.04
269.678	4.04
270.051	3.92
270.425	3.96
270.799	3.97
271.172	3.93
271.546	3.84
271.919	3.82
272.293	3.94
272.666	4.01
273.04	4.1
273.413	4.18
273.787	4.27
274.16	4.14
274.533	3.97
274.906	3.9
275.279	3.79
275.653	3.77
276.026	3.67
276.399	3.59
276.772	3.76
277.145	3.71
277.518	3.55
277.891	3.56
278.263	3.46
278.636	3.43
279.009	3.41
279.382	3.63
279.755	3.71
280.127	3.76
280.5	3.81
280.872	3.81
281.245	3.72
281.617	3.68
281.99	3.88
282.362	4.06
282.735	4.07
283.107	4.05
283.479	4.07
283.852	4.04
284.224	4.04
284.596	3.81
284.968	3.92
285.34	4.09
285.713	4.02
286.085	4.11
286.457	4.17
286.829	4.21
287.201	4.08
287.572	4.07
287.944	3.96
288.316	3.93
288.688	3.86
289.06	3.88
289.431	3.97
289.803	3.97
290.175	4
290.546	4.13
290.918	4.22
291.289	4.23
291.661	4.31
292.032	4.36
292.403	4.4
292.775	4.29
293.146	4.16
293.517	4.21
293.889	4.18
294.26	4.12
294.631	4.05
295.002	4.01
295.373	3.94
295.744	3.96
296.115	3.97
296.486	3.96
296.857	3.99
297.228	4.08
297.599	4.04
297.97	3.99
298.34	3.96
298.711	3.92
299.082	3.84
299.452	3.94
299.823	4.03
300.194	4
300.564	4.06
300.935	4.11
301.305	4.03
301.676	4.12
302.046	4.21
302.416	4.47
302.787	4.61
303.157	4.8
303.527	4.86
303.897	4.95
304.267	5.06
304.637	5.17
305.008	5.14
305.378	5.07
305.748	5.1
306.117	4.97
306.487	5.1
306.857	5.29
307.227	5.27
307.597	5.17
307.967	5.31
308.336	5.41
308.706	5.58
309.076	5.81
309.445	5.7
309.815	5.78
310.184	5.67
310.554	5.71
310.923	5.69
311.293	5.73
311.662	5.73
312.031	5.73
312.401	5.69
312.77	5.8
313.139	6
313.508	6.03
313.877	6.23
314.246	6.25
314.616	6.15
314.985	6.16
315.353	6.28
315.722	6.32
316.091	6.36
316.46	6.25
316.829	6.28
317.198	6.5
317.567	6.49
317.935	6.5
318.304	6.54
318.672	6.59
319.041	6.73
319.41	6.79
319.778	6.87
320.147	6.83
320.515	6.76
320.883	6.75
321.252	7.14
321.62	7.08
321.988	7.17
322.357	7.48
322.725	7.78
323.093	7.96
323.461	8.05
323.829	8.19
324.197	8.35
324.565	8.43
324.933	8.46
325.301	8.53
325.669	8.63
326.037	8.77
326.405	8.89
326.772	8.98
327.14	9.1
327.508	9.3
327.875	9.53
328.243	9.7
328.61	9.71
328.978	9.63
329.346	9.84
329.713	9.91
330.08	9.9
330.448	9.73
330.815	9.7
331.182	9.83
331.55	9.94
331.917	10.06
332.284	10.05
332.651	10.17
333.018	10.36
333.385	10.39
333.752	10.46
334.119	10.5
334.486	10.39
334.853	10.39
335.22	10.49
335.587	10.54
335.954	10.56
336.32	10.62
336.687	10.67
337.054	10.67
337.42	10.79
337.787	10.82
338.153	10.95
338.52	11.12
338.886	11.12
339.253	11.1
339.619	11.19
339.986	11.24
340.352	11.2
340.718	11.22
341.084	11.25
341.451	11.36
341.817	11.37
342.183	11.55
342.549	11.57
342.915	11.57
343.281	11.67
343.647	11.69
344.013	11.8
344.379	11.77
344.745	11.82
345.11	11.87
345.476	11.97
345.842	12
346.208	12.06
346.573	12.06
346.939	12.12
347.304	12.11
347.67	12.18
348.035	12.23
348.401	12.25
348.766	12.35
349.132	12.33
349.497	12.46
349.862	12.55
350.228	12.65
350.593	12.57
350.958	12.53
351.323	12.59
351.688	12.64
352.053	12.77
352.418	12.9
352.783	12.85
353.148	12.84
353.513	12.84
353.878	12.77
354.243	12.84
354.608	12.87
354.972	12.89
355.337	12.94
355.702	13.01
356.066	12.96
356.431	12.94
356.795	12.88
357.16	12.84
357.524	12.65
357.889	12.63
358.253	12.67
358.618	12.6
358.982	12.48
359.346	12.36
359.71	12.26
360.075	12.2
360.439	12.17
360.803	12.09
361.167	12.05
361.531	12.01
361.895	11.93
362.259	11.84
362.623	11.78
362.987	11.68
363.351	11.62
363.714	11.56
364.078	11.45
364.442	11.45
364.806	11.33
365.169	11.32
365.533	11.27
365.896	11.18
366.26	11.07
366.623	11.07
366.987	11.04
367.35	10.98
367.714	10.93
368.077	10.83
368.44	10.74
368.803	10.65
369.167	10.61
369.53	10.5
369.893	10.42
370.256	10.36
370.619	10.25
370.982	10.11
371.345	10.11
371.708	10.07
372.071	9.87
372.434	9.84
372.797	9.81
373.159	9.65
373.522	9.63
373.885	9.65
374.247	9.56
374.61	9.5
374.973	9.39
375.335	9.22
375.698	9.14
376.06	9.05
376.423	8.99
376.785	8.91
377.147	8.87
377.51	8.8
377.872	8.71
378.234	8.69
378.596	8.62
378.958	8.47
379.321	8.42
379.683	8.46
380.045	8.41
380.407	8.3
380.769	8.25
381.13	8.13
381.492	8.03
381.854	7.91
382.216	7.81
382.578	7.77
382.939	7.68
383.301	7.64
383.663	7.58
384.024	7.51
384.386	7.43
384.747	7.36
385.109	7.28
385.47	7.21
385.832	7.12
386.193	7.07
386.554	7.08
386.916	6.99
387.277	6.88
387.638	6.82
387.999	6.73
388.36	6.71
388.721	6.63
389.082	6.55
389.443	6.49
389.804	6.43
390.165	6.35
390.526	6.33
390.887	6.24
391.248	6.23
391.609	6.15
391.969	6.12
392.33	6.07
392.691	6.05
393.051	6.03
393.412	5.98
393.772	5.92
394.133	5.84
394.493	5.82
394.854	5.77
395.214	5.71
395.574	5.7
395.935	5.64
396.295	5.57
396.655	5.53
397.015	5.47
397.376	5.44
397.736	5.4
398.096	5.37
398.456	5.37
398.816	5.31
399.176	5.28
399.535	5.18
399.895	5.14
400.255	5.07
400.615	4.99
400.975	4.98
401.334	4.94
401.694	4.9
402.054	4.85
402.413	4.81
402.773	4.77
403.132	4.69
403.492	4.68
403.851	4.68
404.211	4.63
404.57	4.63
404.929	4.61
405.288	4.56
405.648	4.49
406.007	4.44
406.366	4.41
406.725	4.41
407.084	4.43
407.443	4.41
407.802	4.4
408.161	4.37
408.52	4.32
408.879	4.28
409.238	4.25
409.596	4.24
409.955	4.22
410.314	4.22
410.673	4.2
411.031	4.16
411.39	4.14
411.748	4.16
412.107	4.13
412.465	4.1
412.824	4.11
413.182	4.09
413.54	4.07
413.899	4.05
414.257	4.01
414.615	3.96
414.974	3.96
415.332	3.92
415.69	3.91
416.048	3.88
416.406	3.88
416.764	3.86
417.122	3.83
417.48	3.8
417.838	3.76
418.195	3.75
418.553	3.73
418.911	3.68
419.269	3.65
419.626	3.65
419.984	3.64
420.342	3.63
420.699	3.62
421.057	3.62
421.414	3.59
421.772	3.58
422.129	3.57
422.486	3.55
422.844	3.55
423.201	3.52
423.558	3.53
423.915	3.51
424.273	3.49
424.63	3.48
424.987	3.47
425.344	3.46
425.701	3.45
426.058	3.46
426.415	3.48
426.772	3.47
427.128	3.45
427.485	3.44
427.842	3.42
428.199	3.41
428.555	3.39
428.912	3.4
429.269	3.38
429.625	3.36
429.982	3.36
430.338	3.35
430.695	3.34
431.051	3.31
431.407	3.31
431.764	3.3
432.12	3.29
432.476	3.28
432.832	3.25
433.189	3.24
433.545	3.22
433.901	3.21
434.257	3.2
434.613	3.2
434.969	3.2
435.325	3.21
435.681	3.2
436.036	3.19
436.392	3.2
436.748	3.21
437.104	3.21
437.459	3.2
437.815	3.19
438.171	3.2
438.526	3.21
438.882	3.21
439.237	3.22
439.593	3.23
439.948	3.23
440.304	3.26
440.659	3.28
441.014	3.28
441.369	3.27
441.725	3.27
442.08	3.25
442.435	3.25
442.79	3.24
443.145	3.26
443.5	3.27
443.855	3.26
444.21	3.23
444.565	3.22
444.92	3.22
445.275	3.22
445.629	3.23
445.984	3.22
446.339	3.2
446.693	3.18
447.048	3.15
447.403	3.17
447.757	3.14
448.112	3.13
448.466	3.13
448.82	3.13
449.175	3.14
449.529	3.13
449.883	3.13
450.238	3.12
450.592	3.11
450.946	3.09
451.3	3.09
451.654	3.09
452.008	3.1
452.362	3.09
452.716	3.08
453.07	3.05
453.424	3.04
453.778	3.03
454.132	3.03
454.486	3.06
454.839	3.03
455.193	3
455.547	3.01
455.9	3.01
456.254	3.02
456.607	3.02
456.961	3.02
457.314	3
457.668	3
458.021	2.97
458.375	3
458.728	2.99
459.081	3
459.434	2.98
459.787	2.99
460.141	3
460.494	3.01
460.847	3.03
461.2	3.03
461.553	3.05
461.906	3.05
462.259	3.07
462.611	3.11
462.964	3.12
463.317	3.11
463.67	3.1
464.022	3.1
464.375	3.09
464.728	3.11
465.08	3.12
465.433	3.14
465.785	3.12
466.138	3.15
466.49	3.15
466.843	3.17
467.195	3.19
467.547	3.19
467.899	3.21
468.252	3.2
468.604	3.23
468.956	3.23
469.308	3.25
469.66	3.25
470.012	3.24
470.364	3.23
470.716	3.25
471.068	3.27
471.42	3.28
471.772	3.3
472.123	3.33
472.475	3.35
472.827	3.37
473.178	3.36
473.53	3.35
473.882	3.35
474.233	3.37
474.585	3.32
474.936	3.32
475.288	3.3
475.639	3.31
475.99	3.29
476.342	3.29
476.693	3.28
477.044	3.29
477.395	3.28
477.746	3.28
478.097	3.25
478.448	3.23
478.8	3.22
479.15	3.21
479.501	3.2
479.852	3.18
480.203	3.19
480.554	3.2
480.905	3.2
481.255	3.19
481.606	3.19
481.957	3.2
482.307	3.2
482.658	3.21
483.009	3.21
483.359	3.21
483.709	3.22
484.06	3.22
484.41	3.22
484.761	3.23
485.111	3.24
485.461	3.24
485.811	3.25
486.162	3.26
486.512	3.28
486.862	3.28
487.212	3.29
487.562	3.28
487.912	3.28
488.262	3.28
488.612	3.29
488.961	3.3
489.311	3.31
489.661	3.31
490.011	3.31
490.36	3.31
490.71	3.33
491.06	3.32
491.409	3.33
491.759	3.33
492.108	3.33
492.458	3.33
492.807	3.34
493.157	3.35
493.506	3.36
493.855	3.36
494.204	3.36
494.554	3.36
494.903	3.38
495.252	3.4
495.601	3.44
495.95	3.46
496.299	3.46
496.648	3.48
496.997	3.5
497.346	3.54
497.695	3.56
498.043	3.57
498.392	3.61
498.741	3.63
499.09	3.66
499.438	3.7
499.787	3.73
500.135	3.79
500.484	3.82
500.832	3.84
501.181	3.89
501.529	3.93
501.878	3.99
502.226	4.04
502.574	4.08
502.923	4.12
503.271	4.16
503.619	4.22
503.967	4.25
504.315	4.3
504.663	4.35
505.011	4.41
505.359	4.46
505.707	4.5
506.055	4.56
506.403	4.62
506.751	4.68
507.098	4.75
507.446	4.8
507.794	4.85
508.141	4.93
508.489	4.98
508.837	5.05
509.184	5.12
509.531	5.17
509.879	5.27
510.226	5.35
510.574	5.43
510.921	5.52
511.268	5.62
511.616	5.72
511.963	5.82
512.31	5.92
512.657	6.06
513.004	6.19
513.351	6.32
513.698	6.47
514.045	6.61
514.392	6.77
514.739	6.9
515.086	7.07
515.432	7.24
515.779	7.39
516.126	7.58
516.473	7.75
516.819	7.91
517.166	8.06
517.512	8.21
517.859	8.38
518.205	8.53
518.552	8.71
518.898	8.86
519.245	9.02
519.591	9.17
519.937	9.32
520.283	9.51
520.629	9.71
520.976	9.89
521.322	10.12
521.668	10.36
522.014	10.63
522.36	10.88
522.706	11.13
523.052	11.45
523.398	11.78
523.743	12.12
524.089	12.46
524.435	12.77
524.781	13.08
525.126	13.38
525.472	13.68
525.817	13.93
526.163	14.19
526.509	14.43
526.854	14.66
527.199	14.88
527.545	15.11
527.89	15.34
528.235	15.56
528.581	15.77
528.926	16.01
529.271	16.23
529.616	16.48
529.961	16.73
530.306	16.95
530.651	17.19
530.996	17.46
531.341	17.74
531.686	18.07
532.031	18.39
532.376	18.7
532.721	19.01
533.065	19.34
533.41	19.7
533.755	20.06
534.099	20.43
534.444	20.8
534.788	21.13
535.133	21.47
535.477	21.85
535.822	22.22
536.166	22.64
536.51	23.03
536.855	23.47
537.199	23.92
537.543	24.4
537.887	24.89
538.231	25.31
538.576	25.78
538.92	26.2
539.264	26.64
539.608	27.05
539.951	27.43
540.295	27.81
540.639	28.16
540.983	28.47
541.327	28.79
541.671	29.13
542.014	29.45
542.358	29.77
542.701	30.06
543.045	30.38
543.389	30.66
543.732	30.99
544.075	31.29
544.419	31.6
544.762	31.89
545.105	32.21
545.449	32.6
545.792	32.96
546.135	33.34
546.478	33.69
546.821	34.09
547.165	34.5
547.508	34.88
547.851	35.28
548.194	35.72
548.536	36.14
548.879	36.54
549.222	36.91
549.565	37.29
549.908	37.68
550.25	38.04
550.593	38.39
550.936	38.8
551.278	39.21
551.621	39.58
551.963	39.98
552.306	40.35
552.648	40.65
552.991	41.03
553.333	41.34
553.675	41.68
554.017	41.96
554.36	42.19
554.702	42.46
555.044	42.72
555.386	42.96
555.728	43.27
556.07	43.49
556.412	43.76
556.754	44.08
557.096	44.39
557.438	44.79
557.78	45.03
558.121	45.32
558.463	45.62
558.805	45.94
559.147	46.2
559.488	46.46
559.83	46.72
560.171	46.92
560.513	47.19
560.854	47.4
561.196	47.67
561.537	47.99
561.878	48.23
562.22	48.47
562.561	48.69
562.902	48.89
563.243	49.12
563.584	49.39
563.925	49.55
564.266	49.74
564.607	49.86
564.948	50.13
565.289	50.31
565.63	50.52
565.971	50.66
566.312	50.83
566.653	51.03
566.993	51.25
567.334	51.5
567.675	51.71
568.015	51.89
568.356	52.07
568.696	52.23
569.037	52.39
569.377	52.56
569.718	52.77
570.058	52.99
570.398	53.19
570.739	53.33
571.079	53.47
571.419	53.67
571.759	53.82
572.099	53.95
572.439	54.1
572.779	54.16
573.119	54.29
573.459	54.39
573.799	54.5
574.139	54.59
574.479	54.61
574.819	54.66
575.158	54.78
575.498	54.87
575.838	54.94
576.177	55.06
576.517	55.18
576.856	55.29
577.196	55.35
577.535	55.47
577.875	55.6
578.214	55.74
578.553	55.85
578.893	55.98
579.232	56.12
579.571	56.2
579.91	56.35
580.25	56.48
580.589	56.68
580.928	56.74
581.267	56.87
581.606	57.04
581.945	57.21
582.283	57.3
582.622	57.5
582.961	57.68
583.3	57.83
583.639	57.98
583.977	58.02
584.316	58.1
584.654	58.22
584.993	58.34
585.332	58.41
585.67	58.52
586.008	58.59
586.347	58.65
586.685	58.71
587.024	58.84
587.362	58.97
587.7	59.04
588.038	59.16
588.376	59.24
588.715	59.24
589.053	59.27
589.391	59.42
589.729	59.46
590.067	59.49
590.404	59.57
590.742	59.62
591.08	59.71
591.418	59.83
591.756	59.86
592.093	59.88
592.431	59.98
592.769	59.97
593.106	60.04
593.444	60.09
593.781	60.21
594.119	60.17
594.456	60.21
594.793	60.27
595.131	60.29
595.468	60.36
595.805	60.51
596.143	60.61
596.48	60.6
596.817	60.57
597.154	60.65
597.491	60.74
597.828	60.77
598.165	60.86
598.502	60.84
598.839	60.96
599.176	61.08
599.512	61.1
599.849	61.22
600.186	61.23
600.523	61.23
600.859	61.3
601.196	61.43
601.532	61.5
601.869	61.5
602.205	61.58
602.542	61.59
602.878	61.62
603.215	61.71
603.551	61.72
603.887	61.79
604.223	61.79
604.56	61.7
604.896	61.72
605.232	61.76
605.568	61.84
605.904	61.78
606.24	61.81
606.576	61.88
606.912	61.93
607.248	61.96
607.583	62.06
607.919	62.13
608.255	62.16
608.591	62.14
608.926	62.2
609.262	62.2
609.597	62.3
609.933	62.32
610.268	62.26
610.604	62.31
610.939	62.36
611.275	62.42
611.61	62.54
611.945	62.59
612.281	62.63
612.616	62.59
612.951	62.66
613.286	62.71
613.621	62.78
613.956	62.77
614.291	62.83
614.626	62.93
614.961	62.89
615.296	62.9
615.631	63.06
615.966	63.19
616.3	63.32
616.635	63.34
616.97	63.42
617.304	63.59
617.639	63.74
617.973	63.79
618.308	63.87
618.642	63.89
618.977	63.95
619.311	63.99
619.646	64.07
619.98	64.1
620.314	64.04
620.648	64
620.983	64.1
621.317	64.2
621.651	64.18
621.985	64.22
622.319	64.18
622.653	64.14
622.987	64.06
623.321	64.04
623.655	64.01
623.988	64.03
624.322	63.98
624.656	63.94
624.99	63.93
625.323	63.94
625.657	63.99
625.99	63.99
626.324	64
626.657	64.03
626.991	64.16
627.324	64.23
627.658	64.29
627.991	64.34
628.324	64.34
628.657	64.39
628.991	64.44
629.324	64.43
629.657	64.53
629.99	64.6
630.323	64.6
630.656	64.71
630.989	64.78
631.322	64.77
631.655	64.78
631.987	64.76
632.32	64.71
632.653	64.69
632.986	64.68
633.318	64.67
633.651	64.6
633.984	64.57
634.316	64.64
634.649	64.64
634.981	64.58
635.313	64.54
635.646	64.54
635.978	64.55
636.31	64.76
636.643	64.73
636.975	64.8
637.307	64.88
637.639	64.8
637.971	64.65
638.303	64.69
638.635	64.73
638.967	64.74
639.299	64.84
639.631	64.93
639.963	65.02
640.295	65.07
640.626	65.32
640.958	65.31
641.29	65.34
641.621	65.38
641.953	65.38
642.285	65.37
642.616	65.38
642.948	65.35
643.279	65.18
643.61	65.19
643.942	65.19
644.273	65.21
644.604	65.28
644.936	65.43
645.267	65.41
645.598	65.36
645.929	65.48
646.26	65.58
646.591	65.54
646.922	65.52
647.253	65.53
647.584	65.4
647.915	65.37
648.245	65.26
648.576	65.38
648.907	65.46
649.238	65.53
649.568	65.5
649.899	65.48
650.229	65.7
650.56	65.71
650.89	65.84
651.221	65.86
651.551	65.87
651.882	65.83
652.212	65.94
652.542	66.1
652.872	66.02
653.203	66.01
653.533	66.02
653.863	66.09
654.193	66.19
654.523	66.31
654.853	66.49
655.183	66.64
655.513	66.61
655.843	66.61
656.172	66.68
656.502	66.79
656.832	66.86
657.162	66.67
657.491	66.71
657.821	66.6
658.15	66.57
658.48	66.57
658.809	66.59
659.139	66.58
659.468	66.52
659.798	66.55
660.127	66.56
660.456	66.58
660.785	66.6
661.115	66.57
661.444	66.6
661.773	66.42
662.102	66.33
662.431	66.23
662.76	66.34
663.089	66.31
663.418	66.32
663.747	66.42
664.076	66.62
664.404	66.64
664.733	66.67
665.062	66.69
665.39	66.68
665.719	66.68
666.048	66.57
666.376	66.56
