Data from BA56814_Reflection_00005.txt Node
Date: Mon Nov 18 15:40:25 EST 2019
User: vgr7
Spectrometer: USB2G7710
Scans to average: 3
Trigger mode: 4
Integration Time (sec): 2.000000E-2
Electric dark correction enabled: true
Boxcar width: 10
XAxis mode: Wavelengths
Number of Pixels in Spectrum: 2048
>>>>>Begin Spectral Data<<<<<
177.721	-94.24
178.105	-90.35
178.488	-66.16
178.871	-28.18
179.254	3.5
179.636	-155.51
180.019	37.26
180.402	106.9
180.785	371.84
181.168	-34.98
181.55	78.55
181.933	79.84
182.316	143.69
182.698	128.59
183.081	120.57
183.463	176.32
183.846	190.06
184.228	147.8
184.611	118.04
184.993	169.38
185.376	114.26
185.758	151.99
186.14	70.67
186.522	102.08
186.904	93.71
187.287	125.9
187.669	125.54
188.051	126.52
188.433	175.71
188.815	253.24
189.197	310.78
189.579	266.55
189.961	385.95
190.342	265.39
190.724	253.68
191.106	252.74
191.488	207.43
191.869	234.42
192.251	199.19
192.633	199.15
193.014	225.7
193.396	302.22
193.777	490.76
194.159	848.09
194.54	2064.66
194.922	9903.28
195.303	1779.76
195.684	5586.24
196.065	-591.91
196.447	-452.74
196.828	-1822.83
197.209	-930.85
197.59	-373.48
197.971	-228.7
198.352	-141.62
198.733	-113.76
199.114	-90.75
199.495	-72.95
199.876	-85.68
200.257	-92.98
200.638	-81.77
201.018	-92.4
201.399	-144.37
201.78	-157.73
202.16	-211.33
202.541	-231.93
202.922	-236.98
203.302	-181.1
203.683	-236.55
204.063	-650.49
204.444	-961.01
204.824	-310.93
205.204	-296.68
205.585	-318.32
205.965	-406.91
206.345	-625.09
206.725	-1071.13
207.106	-2939.11
207.486	918.92
207.866	-23552.17
208.246	-669.45
208.626	-728.61
209.006	-494.65
209.386	-380.35
209.766	-322.79
210.145	-359.12
210.525	-231.28
210.905	-180.98
211.285	-215.09
211.664	-129.35
212.044	-114.15
212.424	-97.9
212.803	-93.33
213.183	-81.51
213.562	-81.9
213.942	-64.03
214.321	-66.23
214.701	-78.17
215.08	-86.38
215.459	-75.19
215.838	-81.89
216.218	-94.59
216.597	-79.61
216.976	-88.04
217.355	-83.08
217.734	-93.75
218.113	-82.06
218.492	-80.62
218.871	-95.32
219.25	-86.9
219.629	-86.54
220.008	-78.08
220.387	-78.18
220.766	-81.3
221.144	-136.28
221.523	-169.49
221.902	-174.48
222.28	-152.84
222.659	-147.84
223.037	-133.54
223.416	-116.83
223.794	-110.91
224.173	-77.38
224.551	-73.01
224.929	-62.24
225.308	-49.8
225.686	-31.67
226.064	-36.18
226.442	-32.39
226.821	-26.96
227.199	-27.64
227.577	-27.78
227.955	-32.27
228.333	-33.1
228.711	-30.69
229.089	-24.13
229.467	-24.57
229.845	-23.63
230.222	-21.08
230.6	-20.11
230.978	-18.26
231.356	-15.81
231.733	-14.77
232.111	-14.29
232.488	-12.41
232.866	-12.81
233.243	-12.18
233.621	-12.03
233.998	-9.33
234.376	-8.76
234.753	-9.62
235.13	-6.94
235.508	-5.33
235.885	-4.07
236.262	-4.3
236.639	-4.64
237.016	-3.76
237.393	-2.93
237.77	-1.68
238.147	-0.68
238.524	0.01
238.901	0.54
239.278	-0.12
239.655	0.61
240.032	0.77
240.409	0.7
240.785	1.5
241.162	1.98
241.539	2.22
241.915	2.46
242.292	1.85
242.668	2.54
243.045	2.46
243.421	2.56
243.798	2.6
244.174	3.02
244.551	3.27
244.927	3.37
245.303	3.75
245.679	3.83
246.056	3.73
246.432	3.69
246.808	3.63
247.184	3.82
247.56	3.81
247.936	3.6
248.312	3.65
248.688	3.49
249.064	3.3
249.44	3.18
249.815	2.96
250.191	3.09
250.567	3.04
250.943	2.94
251.318	2.74
251.694	2.78
252.069	2.72
252.445	2.5
252.82	2.35
253.196	1.88
253.571	1.53
253.947	1.55
254.322	1.65
254.697	1.5
255.073	1.13
255.448	1.1
255.823	1.53
256.198	1.49
256.573	1.88
256.948	1.95
257.323	2.1
257.698	2.23
258.073	2.46
258.448	2.42
258.823	2.41
259.198	2.41
259.573	2.4
259.948	2.29
260.322	2.34
260.697	2.32
261.072	2.46
261.446	2.51
261.821	2.46
262.195	2.53
262.57	2.61
262.944	2.63
263.319	2.46
263.693	2.27
264.067	2.27
264.442	2.25
264.816	2.37
265.19	2.3
265.564	2.2
265.938	1.95
266.313	1.92
266.687	2.02
267.061	2.01
267.435	2.08
267.809	2.2
268.183	2.26
268.556	2.29
268.93	2.26
269.304	2.36
269.678	2.41
270.051	2.24
270.425	2.22
270.799	2.3
271.172	2.42
271.546	2.5
271.919	2.46
272.293	2.33
272.666	2.19
273.04	2.23
273.413	2.3
273.787	2.42
274.16	2.43
274.533	2.36
274.906	2.35
275.279	2.24
275.653	2.25
276.026	2.24
276.399	2.18
276.772	2.25
277.145	2.06
277.518	2.02
277.891	2.04
278.263	2.04
278.636	2.09
279.009	2.13
279.382	2.2
279.755	2.18
280.127	2.3
280.5	2.42
280.872	2.4
281.245	2.36
281.617	2.38
281.99	2.54
282.362	2.65
282.735	2.65
283.107	2.73
283.479	2.74
283.852	2.73
284.224	2.78
284.596	2.81
284.968	3.02
285.34	3.02
285.713	3.08
286.085	3.18
286.457	3.21
286.829	3.16
287.201	3.17
287.572	3.24
287.944	3.25
288.316	3.18
288.688	3.21
289.06	3.24
289.431	3.26
289.803	3.2
290.175	3.18
290.546	3.25
290.918	3.3
291.289	3.31
291.661	3.38
292.032	3.42
292.403	3.4
292.775	3.29
293.146	3.38
293.517	3.41
293.889	3.41
294.26	3.36
294.631	3.52
295.002	3.44
295.373	3.49
295.744	3.46
296.115	3.54
296.486	3.44
296.857	3.5
297.228	3.55
297.599	3.53
297.97	3.51
298.34	3.45
298.711	3.43
299.082	3.46
299.452	3.45
299.823	3.55
300.194	3.49
300.564	3.51
300.935	3.44
301.305	3.47
301.676	3.47
302.046	3.5
302.416	3.47
302.787	3.51
303.157	3.49
303.527	3.56
303.897	3.6
304.267	3.72
304.637	3.74
305.008	3.67
305.378	3.81
305.748	3.82
306.117	3.93
306.487	4.04
306.857	4.05
307.227	3.98
307.597	3.93
307.967	4.09
308.336	4.12
308.706	4.08
309.076	4
309.445	3.87
309.815	3.84
310.184	3.74
310.554	3.75
310.923	3.73
311.293	3.69
311.662	3.62
312.031	3.62
312.401	3.64
312.77	3.67
313.139	3.5
313.508	3.47
313.877	3.34
314.246	3.16
314.616	3.12
314.985	3.13
315.353	3.07
315.722	2.95
316.091	2.91
316.46	2.87
316.829	2.96
317.198	3.01
317.567	3.05
317.935	3.04
318.304	3
318.672	3.04
319.041	2.94
319.41	3.14
319.778	3.03
320.147	2.96
320.515	2.99
320.883	3.02
321.252	3.12
321.62	3.19
321.988	3.31
322.357	3.32
322.725	3.33
323.093	3.41
323.461	3.46
323.829	3.5
324.197	3.57
324.565	3.51
324.933	3.49
325.301	3.38
325.669	3.44
326.037	3.41
326.405	3.38
326.772	3.4
327.14	3.31
327.508	3.38
327.875	3.28
328.243	3.24
328.61	3.21
328.978	3.19
329.346	3.23
329.713	3.09
330.08	3.2
330.448	3.17
330.815	3.03
331.182	3.03
331.55	2.91
331.917	2.87
332.284	2.97
332.651	2.95
333.018	3.04
333.385	2.92
333.752	3.05
334.119	2.99
334.486	3.01
334.853	2.97
335.22	2.99
335.587	3.09
335.954	3.02
336.32	3.02
336.687	3
337.054	3.02
337.42	3.11
337.787	2.97
338.153	2.95
338.52	3.03
338.886	2.89
339.253	2.87
339.619	2.87
339.986	2.76
340.352	2.85
340.718	2.79
341.084	2.85
341.451	2.79
341.817	2.79
342.183	2.77
342.549	2.83
342.915	2.77
343.281	2.85
343.647	2.79
344.013	2.92
344.379	2.87
344.745	2.89
345.11	2.9
345.476	2.94
345.842	2.97
346.208	2.94
346.573	3
346.939	3.13
347.304	3.11
347.67	3.12
348.035	3.07
348.401	3.2
348.766	3.22
349.132	3.25
349.497	3.26
349.862	3.38
350.228	3.36
350.593	3.37
350.958	3.28
351.323	3.42
351.688	3.27
352.053	3.33
352.418	3.37
352.783	3.32
353.148	3.28
353.513	3.33
353.878	3.36
354.243	3.4
354.608	3.37
354.972	3.44
355.337	3.44
355.702	3.54
356.066	3.53
356.431	3.5
356.795	3.49
357.16	3.46
357.524	3.35
357.889	3.28
358.253	3.34
358.618	3.43
358.982	3.43
359.346	3.48
359.71	3.47
360.075	3.46
360.439	3.46
360.803	3.55
361.167	3.48
361.531	3.52
361.895	3.49
362.259	3.49
362.623	3.5
362.987	3.55
363.351	3.49
363.714	3.49
364.078	3.47
364.442	3.47
364.806	3.47
365.169	3.47
365.533	3.51
365.896	3.54
366.26	3.51
366.623	3.49
366.987	3.52
367.35	3.53
367.714	3.51
368.077	3.54
368.44	3.48
368.803	3.51
369.167	3.44
369.53	3.35
369.893	3.42
370.256	3.37
370.619	3.31
370.982	3.34
371.345	3.29
371.708	3.34
372.071	3.36
372.434	3.36
372.797	3.41
373.159	3.4
373.522	3.32
373.885	3.35
374.247	3.33
374.61	3.33
374.973	3.3
375.335	3.3
375.698	3.29
376.06	3.27
376.423	3.31
376.785	3.31
377.147	3.4
377.51	3.36
377.872	3.44
378.234	3.45
378.596	3.42
378.958	3.41
379.321	3.47
379.683	3.41
380.045	3.48
380.407	3.46
380.769	3.47
381.13	3.51
381.492	3.47
381.854	3.46
382.216	3.48
382.578	3.5
382.939	3.48
383.301	3.51
383.663	3.49
384.024	3.47
384.386	3.51
384.747	3.57
385.109	3.59
385.47	3.58
385.832	3.58
386.193	3.64
386.554	3.64
386.916	3.6
387.277	3.64
387.638	3.59
387.999	3.61
388.36	3.62
388.721	3.62
389.082	3.64
389.443	3.63
389.804	3.61
390.165	3.62
390.526	3.67
390.887	3.64
391.248	3.68
391.609	3.71
391.969	3.67
392.33	3.61
392.691	3.59
393.051	3.6
393.412	3.58
393.772	3.54
394.133	3.55
394.493	3.56
394.854	3.55
395.214	3.55
395.574	3.54
395.935	3.55
396.295	3.59
396.655	3.55
397.015	3.56
397.376	3.55
397.736	3.54
398.096	3.51
398.456	3.52
398.816	3.51
399.176	3.46
399.535	3.47
399.895	3.49
400.255	3.52
400.615	3.49
400.975	3.52
401.334	3.52
401.694	3.52
402.054	3.51
402.413	3.51
402.773	3.49
403.132	3.47
403.492	3.47
403.851	3.45
404.211	3.48
404.57	3.48
404.929	3.49
405.288	3.48
405.648	3.45
406.007	3.44
406.366	3.45
406.725	3.51
407.084	3.52
407.443	3.54
407.802	3.56
408.161	3.56
408.52	3.56
408.879	3.57
409.238	3.6
409.596	3.6
409.955	3.58
410.314	3.59
410.673	3.61
411.031	3.61
411.39	3.59
411.748	3.56
412.107	3.58
412.465	3.58
412.824	3.6
413.182	3.63
413.54	3.67
413.899	3.65
414.257	3.64
414.615	3.6
414.974	3.61
415.332	3.59
415.69	3.55
416.048	3.54
416.406	3.53
416.764	3.49
417.122	3.5
417.48	3.51
417.838	3.53
418.195	3.52
418.553	3.5
418.911	3.51
419.269	3.54
419.626	3.53
419.984	3.53
420.342	3.55
420.699	3.55
421.057	3.55
421.414	3.54
421.772	3.53
422.129	3.54
422.486	3.51
422.844	3.52
423.201	3.52
423.558	3.52
423.915	3.53
424.273	3.55
424.63	3.54
424.987	3.56
425.344	3.55
425.701	3.55
426.058	3.57
426.415	3.55
426.772	3.54
427.128	3.52
427.485	3.51
427.842	3.48
428.199	3.47
428.555	3.47
428.912	3.48
429.269	3.5
429.625	3.5
429.982	3.52
430.338	3.51
430.695	3.54
431.051	3.53
431.407	3.53
431.764	3.55
432.12	3.55
432.476	3.52
432.832	3.54
433.189	3.55
433.545	3.55
433.901	3.56
434.257	3.54
434.613	3.57
434.969	3.58
435.325	3.61
435.681	3.6
436.036	3.58
436.392	3.58
436.748	3.57
437.104	3.55
437.459	3.55
437.815	3.55
438.171	3.54
438.526	3.55
438.882	3.54
439.237	3.53
439.593	3.54
439.948	3.57
440.304	3.55
440.659	3.55
441.014	3.54
441.369	3.53
441.725	3.53
442.08	3.51
442.435	3.5
442.79	3.48
443.145	3.47
443.5	3.46
443.855	3.47
444.21	3.46
444.565	3.47
444.92	3.49
445.275	3.47
445.629	3.49
445.984	3.47
446.339	3.47
446.693	3.43
447.048	3.41
447.403	3.38
447.757	3.4
448.112	3.38
448.466	3.37
448.82	3.38
449.175	3.39
449.529	3.4
449.883	3.4
450.238	3.4
450.592	3.4
450.946	3.4
451.3	3.4
451.654	3.4
452.008	3.4
452.362	3.37
452.716	3.38
453.07	3.37
453.424	3.38
453.778	3.4
454.132	3.44
454.486	3.46
454.839	3.49
455.193	3.49
455.547	3.5
455.9	3.52
456.254	3.51
456.607	3.51
456.961	3.51
457.314	3.52
457.668	3.53
458.021	3.52
458.375	3.53
458.728	3.52
459.081	3.52
459.434	3.53
459.787	3.55
460.141	3.53
460.494	3.54
460.847	3.53
461.2	3.53
461.553	3.53
461.906	3.53
462.259	3.52
462.611	3.52
462.964	3.53
463.317	3.52
463.67	3.52
464.022	3.53
464.375	3.51
464.728	3.52
465.08	3.53
465.433	3.55
465.785	3.56
466.138	3.57
466.49	3.58
466.843	3.58
467.195	3.57
467.547	3.57
467.899	3.57
468.252	3.57
468.604	3.56
468.956	3.54
469.308	3.54
469.66	3.54
470.012	3.54
470.364	3.55
470.716	3.55
471.068	3.56
471.42	3.55
471.772	3.57
472.123	3.55
472.475	3.55
472.827	3.54
473.178	3.54
473.53	3.53
473.882	3.54
474.233	3.54
474.585	3.52
474.936	3.55
475.288	3.55
475.639	3.57
475.99	3.58
476.342	3.58
476.693	3.58
477.044	3.6
477.395	3.59
477.746	3.58
478.097	3.57
478.448	3.56
478.8	3.56
479.15	3.56
479.501	3.56
479.852	3.57
480.203	3.57
480.554	3.58
480.905	3.58
481.255	3.58
481.606	3.59
481.957	3.6
482.307	3.6
482.658	3.6
483.009	3.59
483.359	3.59
483.709	3.61
484.06	3.62
484.41	3.62
484.761	3.63
485.111	3.64
485.461	3.65
485.811	3.65
486.162	3.66
486.512	3.66
486.862	3.66
487.212	3.66
487.562	3.67
487.912	3.66
488.262	3.67
488.612	3.67
488.961	3.67
489.311	3.68
489.661	3.68
490.011	3.67
490.36	3.68
490.71	3.68
491.06	3.68
491.409	3.67
491.759	3.65
492.108	3.65
492.458	3.64
492.807	3.63
493.157	3.63
493.506	3.63
493.855	3.66
494.204	3.66
494.554	3.67
494.903	3.65
495.252	3.66
495.601	3.66
495.95	3.66
496.299	3.66
496.648	3.65
496.997	3.66
497.346	3.67
497.695	3.69
498.043	3.69
498.392	3.68
498.741	3.68
499.09	3.7
499.438	3.71
499.787	3.71
500.135	3.74
500.484	3.73
500.832	3.74
501.181	3.73
501.529	3.74
501.878	3.74
502.226	3.77
502.574	3.77
502.923	3.76
503.271	3.75
503.619	3.76
503.967	3.75
504.315	3.74
504.663	3.75
505.011	3.74
505.359	3.74
505.707	3.76
506.055	3.74
506.403	3.76
506.751	3.76
507.098	3.77
507.446	3.76
507.794	3.76
508.141	3.76
508.489	3.75
508.837	3.77
509.184	3.77
509.531	3.78
509.879	3.8
510.226	3.82
510.574	3.84
510.921	3.85
511.268	3.86
511.616	3.88
511.963	3.9
512.31	3.92
512.657	3.94
513.004	3.95
513.351	3.98
513.698	3.99
514.045	3.99
514.392	4
514.739	4.03
515.086	4.06
515.432	4.08
515.779	4.07
516.126	4.08
516.473	4.09
516.819	4.1
517.166	4.1
517.512	4.12
517.859	4.13
518.205	4.11
518.552	4.11
518.898	4.11
519.245	4.11
519.591	4.11
519.937	4.11
520.283	4.1
520.629	4.1
520.976	4.09
521.322	4.1
521.668	4.09
522.014	4.1
522.36	4.1
522.706	4.09
523.052	4.11
523.398	4.11
523.743	4.12
524.089	4.11
524.435	4.13
524.781	4.14
525.126	4.16
525.472	4.2
525.817	4.24
526.163	4.25
526.509	4.26
526.854	4.26
527.199	4.28
527.545	4.28
527.89	4.29
528.235	4.31
528.581	4.31
528.926	4.32
529.271	4.32
529.616	4.32
529.961	4.33
530.306	4.36
530.651	4.36
530.996	4.36
531.341	4.36
531.686	4.37
532.031	4.37
532.376	4.37
532.721	4.37
533.065	4.36
533.41	4.36
533.755	4.36
534.099	4.37
534.444	4.37
534.788	4.39
535.133	4.38
535.477	4.4
535.822	4.43
536.166	4.43
536.51	4.43
536.855	4.44
537.199	4.45
537.543	4.45
537.887	4.46
538.231	4.48
538.576	4.51
538.92	4.51
539.264	4.51
539.608	4.52
539.951	4.52
540.295	4.52
540.639	4.53
540.983	4.55
541.327	4.54
541.671	4.54
542.014	4.53
542.358	4.54
542.701	4.52
543.045	4.53
543.389	4.53
543.732	4.53
544.075	4.53
544.419	4.52
544.762	4.51
545.105	4.51
545.449	4.52
545.792	4.53
546.135	4.55
546.478	4.56
546.821	4.57
547.165	4.56
547.508	4.59
547.851	4.58
548.194	4.57
548.536	4.6
548.879	4.63
549.222	4.66
549.565	4.67
549.908	4.69
550.25	4.69
550.593	4.68
550.936	4.69
551.278	4.72
551.621	4.73
551.963	4.77
552.306	4.77
552.648	4.76
552.991	4.78
553.333	4.77
553.675	4.76
554.017	4.74
554.36	4.73
554.702	4.74
555.044	4.75
555.386	4.8
555.728	4.77
556.07	4.77
556.412	4.77
556.754	4.78
557.096	4.78
557.438	4.77
557.78	4.83
558.121	4.85
558.463	4.84
558.805	4.86
559.147	4.85
559.488	4.84
559.83	4.87
560.171	4.86
560.513	4.87
560.854	4.87
561.196	4.87
561.537	4.89
561.878	4.87
562.22	4.92
562.561	4.88
562.902	4.89
563.243	4.88
563.584	4.88
563.925	4.86
564.266	4.88
564.607	4.85
564.948	4.83
565.289	4.85
565.63	4.87
565.971	4.87
566.312	4.87
566.653	4.89
566.993	4.85
567.334	4.83
567.675	4.83
568.015	4.86
568.356	4.87
568.696	4.9
569.037	4.9
569.377	4.86
569.718	4.88
570.058	4.87
570.398	4.88
570.739	4.89
571.079	4.89
571.419	4.88
571.759	4.89
572.099	4.89
572.439	4.91
572.779	4.89
573.119	4.89
573.459	4.93
573.799	4.95
574.139	4.97
574.479	4.99
574.819	5.03
575.158	5.01
575.498	5.02
575.838	5
576.177	4.99
576.517	5.02
576.856	5.05
577.196	5.06
577.535	5.08
577.875	5.08
578.214	5.09
578.553	5.13
578.893	5.16
579.232	5.19
579.571	5.14
579.91	5.14
580.25	5.17
580.589	5.12
580.928	5.14
581.267	5.13
581.606	5.11
581.945	5.06
582.283	5.09
582.622	5.05
582.961	5.06
583.3	5.07
583.639	5.09
583.977	5.07
584.316	5.08
584.654	5.03
584.993	5.02
585.332	5.04
585.67	5.04
586.008	5
586.347	4.97
586.685	4.97
587.024	5
587.362	4.99
587.7	4.99
588.038	4.99
588.376	5
588.715	5
589.053	5.01
589.391	5.02
589.729	5.08
590.067	5.05
590.404	5.08
590.742	5.07
591.08	5.03
591.418	5.02
591.756	5.06
592.093	5.06
592.431	5.07
592.769	5.03
593.106	5.06
593.444	5.06
593.781	5.06
594.119	5.08
594.456	5.07
594.793	5.08
595.131	5.05
595.468	5.03
595.805	5.04
596.143	5.07
596.48	5.06
596.817	5.05
597.154	5.06
597.491	5.06
597.828	5.03
598.165	5.06
598.502	5.06
598.839	5.06
599.176	5.03
599.512	5.02
599.849	5.04
600.186	5.04
600.523	5.05
600.859	5.08
601.196	5.1
601.532	5.09
601.869	5.07
602.205	5.06
602.542	5.09
602.878	5.1
603.215	5.08
603.551	5.07
603.887	5.01
604.223	5.03
604.56	5.02
604.896	5.04
605.232	5.04
605.568	5.05
605.904	5.06
606.24	5.13
606.576	5.11
606.912	5.12
607.248	5.13
607.583	5.14
607.919	5.13
608.255	5.07
608.591	5.06
608.926	5.06
609.262	5.08
609.597	5.1
609.933	5.11
610.268	5.11
610.604	5.13
610.939	5.19
611.275	5.18
611.61	5.21
611.945	5.22
612.281	5.2
612.616	5.19
612.951	5.18
613.286	5.12
613.621	5.13
613.956	5.11
614.291	5.13
614.626	5.12
614.961	5.1
615.296	5.11
615.631	5.15
615.966	5.17
616.3	5.19
616.635	5.15
616.97	5.16
617.304	5.14
617.639	5.13
617.973	5.14
618.308	5.12
618.642	5.08
618.977	5.07
619.311	5.08
619.646	5.1
619.98	5.11
620.314	5.16
620.648	5.16
620.983	5.18
621.317	5.13
621.651	5.06
621.985	5.1
622.319	5.15
622.653	5.15
622.987	5.19
623.321	5.18
623.655	5.22
623.988	5.27
624.322	5.29
624.656	5.3
624.99	5.31
625.323	5.33
625.657	5.34
625.99	5.34
626.324	5.33
626.657	5.34
626.991	5.34
627.324	5.32
627.658	5.33
627.991	5.35
628.324	5.36
628.657	5.42
628.991	5.4
629.324	5.39
629.657	5.41
629.99	5.39
630.323	5.39
630.656	5.39
630.989	5.36
631.322	5.33
631.655	5.32
631.987	5.3
632.32	5.27
632.653	5.25
632.986	5.26
633.318	5.24
633.651	5.27
633.984	5.27
634.316	5.33
634.649	5.36
634.981	5.32
635.313	5.33
635.646	5.32
635.978	5.33
636.31	5.29
636.643	5.21
636.975	5.21
637.307	5.18
637.639	5.13
637.971	5.1
638.303	5.14
638.635	5.16
638.967	5.19
639.299	5.25
639.631	5.25
639.963	5.19
640.295	5.23
640.626	5.22
640.958	5.22
641.29	5.16
641.621	5.1
641.953	5.09
642.285	5.09
642.616	5.07
642.948	5.02
643.279	5.06
643.61	5.09
643.942	5.09
644.273	5.17
644.604	5.23
644.936	5.22
645.267	5.22
645.598	5.23
645.929	5.23
646.26	5.26
646.591	5.3
646.922	5.3
647.253	5.32
647.584	5.27
647.915	5.27
648.245	5.2
648.576	5.26
648.907	5.3
649.238	5.29
649.568	5.31
649.899	5.4
650.229	5.39
650.56	5.44
650.89	5.42
651.221	5.35
651.551	5.29
651.882	5.29
652.212	5.35
652.542	5.34
652.872	5.29
653.203	5.27
653.533	5.33
653.863	5.34
654.193	5.33
654.523	5.36
654.853	5.33
655.183	5.4
655.513	5.29
655.843	5.25
656.172	5.25
656.502	5.3
656.832	5.27
657.162	5.25
657.491	5.2
657.821	5.25
658.15	5.31
658.48	5.34
658.809	5.36
659.139	5.27
659.468	5.19
659.798	5.19
660.127	5.17
660.456	5.11
660.785	5.16
661.115	5.2
661.444	5.14
661.773	5.17
662.102	5.15
662.431	5.29
662.76	5.29
663.089	5.3
663.418	5.23
663.747	5.27
664.076	5.35
664.404	5.35
664.733	5.37
665.062	5.28
665.39	5.26
665.719	5.24
666.048	5.29
666.376	5.35
666.705	5.37
667.033	5.36
667.362	5.41
667.69	5.41
668.018	5.27
668.347	5.39
668.675	5.38
669.003	5.35
669.331	5.35
669.659	5.4
669.987	5.37
670.315	5.42
670.643	5.4
670.971	5.33
671.299	5.38
671.627	5.36
671.955	5.39
672.283	5.34
672.61	5.31
672.938	5.31
673.266	5.31
673.593	5.41
673.921	5.39
674.249	5.41
674.576	5.29
674.904	5.37
675.231	5.4
