Data from BA56852_Reflection_00014.txt Node
Date: Mon Nov 18 15:23:23 EST 2019
User: vgr7
Spectrometer: USB2G7710
Scans to average: 3
Trigger mode: 4
Integration Time (sec): 2.000000E-2
Electric dark correction enabled: true
Boxcar width: 10
XAxis mode: Wavelengths
Number of Pixels in Spectrum: 2048
>>>>>Begin Spectral Data<<<<<
177.721	39.92
178.105	-15.21
178.488	38.53
178.871	56.81
179.254	-33.1
179.636	86.68
180.019	-4.27
180.402	158.06
180.785	208.37
181.168	135.14
181.55	76.39
181.933	55.68
182.316	70.24
182.698	89.02
183.081	67.49
183.463	72.72
183.846	96.85
184.228	81.19
184.611	121.45
184.993	126
185.376	94.22
185.758	117.08
186.14	101.61
186.522	108.8
186.904	101.4
187.287	122.7
187.669	88.58
188.051	99.37
188.433	79.5
188.815	81.69
189.197	85.15
189.579	101.33
189.961	136.88
190.342	186.35
190.724	199.91
191.106	192.49
191.488	149.9
191.869	160.19
192.251	258.34
192.633	199.92
193.014	250.56
193.396	335.29
193.777	171.84
194.159	286.55
194.54	262.77
194.922	-11478.95
195.303	-2413.76
195.684	-541.88
196.065	-210.31
196.447	-298.8
196.828	-374.76
197.209	-221.76
197.59	-291.26
197.971	-169.09
198.352	-112.9
198.733	-158.77
199.114	-116.39
199.495	-96.09
199.876	-54.73
200.257	-34.6
200.638	-37.83
201.018	-48.18
201.399	-51.59
201.78	-27.96
202.16	-17.45
202.541	-44.34
202.922	-49.98
203.302	-45.34
203.683	-87.91
204.063	-146.61
204.444	-74.52
204.824	-59.52
205.204	-66.58
205.585	-51.59
205.965	-49.07
206.345	-79.68
206.725	-84.23
207.106	-129.07
207.486	-134.97
207.866	-151.58
208.246	-182.56
208.626	-245.86
209.006	-161.35
209.386	-513.86
209.766	-837.69
210.145	592.09
210.525	1718.5
210.905	3920.22
211.285	-370.94
211.664	-257.29
212.044	-198.02
212.424	-259.03
212.803	-297.48
213.183	-272.93
213.562	-308.69
213.942	-758.32
214.321	-300
214.701	-267.89
215.08	-229.62
215.459	-226.61
215.838	-433.66
216.218	-591.11
216.597	-207.69
216.976	-198
217.355	-153.36
217.734	-132.15
218.113	-111.46
218.492	-128.64
218.871	-125.76
219.25	-137.85
219.629	-145.6
220.008	-180.17
220.387	-146.53
220.766	-139.17
221.144	-128.68
221.523	-107.83
221.902	-93.38
222.28	-116.66
222.659	-90.5
223.037	-92.67
223.416	-104.3
223.794	-88.82
224.173	-79.75
224.551	-73.94
224.929	-90.81
225.308	-77.15
225.686	-71.39
226.064	-52.03
226.442	-43.12
226.821	-38.66
227.199	-34.3
227.577	-28.9
227.955	-22.37
228.333	-22.15
228.711	-19.03
229.089	-15.67
229.467	-15.37
229.845	-16.69
230.222	-13.46
230.6	-16.44
230.978	-15.21
231.356	-10.54
231.733	-9.68
232.111	-8.3
232.488	-8.42
232.866	-2.89
233.243	-1.95
233.621	-2.16
233.998	-1.42
234.376	-2.63
234.753	-3.54
235.13	-3.59
235.508	-2.49
235.885	-3.26
236.262	-3.34
236.639	-2.05
237.016	-2.51
237.393	-2.45
237.77	-1
238.147	-0.81
238.524	0.7
238.901	1.28
239.278	0.76
239.655	1.75
240.032	1.91
240.409	1.76
240.785	1.04
241.162	0.54
241.539	0.44
241.915	0.81
242.292	0.83
242.668	1.14
243.045	1.69
243.421	1.7
243.798	1.59
244.174	1.63
244.551	1.76
244.927	1.61
245.303	1.97
245.679	2.15
246.056	2.21
246.432	2.08
246.808	2.05
247.184	1.84
247.56	1.65
247.936	1.82
248.312	2.2
248.688	2.34
249.064	2.49
249.44	2.56
249.815	2.26
250.191	2.47
250.567	2.44
250.943	2.25
251.318	2.36
251.694	2.45
252.069	2.49
252.445	2.24
252.82	2.36
253.196	2.18
253.571	2.05
253.947	2.09
254.322	2.19
254.697	1.91
255.073	2.14
255.448	1.99
255.823	1.88
256.198	1.58
256.573	1.68
256.948	1.68
257.323	1.95
257.698	2.16
258.073	2.04
258.448	2.19
258.823	2.16
259.198	2.07
259.573	2.01
259.948	2.11
260.322	2.2
260.697	2.14
261.072	1.92
261.446	1.8
261.821	1.71
262.195	1.59
262.57	1.66
262.944	1.62
263.319	1.71
263.693	1.66
264.067	1.66
264.442	1.64
264.816	1.6
265.19	1.49
265.564	1.37
265.938	1.49
266.313	1.41
266.687	1.4
267.061	1.46
267.435	1.58
267.809	1.5
268.183	1.53
268.556	1.46
268.93	1.77
269.304	1.9
269.678	2.15
270.051	2.15
270.425	2.19
270.799	2.15
271.172	2.04
271.546	1.81
271.919	1.75
272.293	1.89
272.666	1.99
273.04	2
273.413	2
273.787	1.79
274.16	1.93
274.533	2.02
274.906	2.07
275.279	2.02
275.653	2.04
276.026	1.94
276.399	2.09
276.772	2.09
277.145	2.06
277.518	1.98
277.891	2.03
278.263	2.02
278.636	2.12
279.009	2.28
279.382	2.39
279.755	2.33
280.127	2.3
280.5	2.34
280.872	2.26
281.245	2.12
281.617	2.39
281.99	2.46
282.362	2.44
282.735	2.36
283.107	2.25
283.479	2.32
283.852	2.35
284.224	2.26
284.596	2.36
284.968	2.4
285.34	2.41
285.713	2.26
286.085	2.32
286.457	2.3
286.829	2.25
287.201	2.37
287.572	2.38
287.944	2.27
288.316	2.25
288.688	2.34
289.06	2.42
289.431	2.37
289.803	2.28
290.175	2.36
290.546	2.4
290.918	2.53
291.289	2.55
291.661	2.72
292.032	2.99
292.403	2.93
292.775	2.98
293.146	2.84
293.517	3.1
293.889	3.08
294.26	3.24
294.631	3.35
295.002	3.37
295.373	3.42
295.744	3.47
296.115	3.49
296.486	3.33
296.857	3.43
297.228	3.38
297.599	3.38
297.97	3.36
298.34	3.4
298.711	3.52
299.082	3.58
299.452	3.54
299.823	3.52
300.194	3.55
300.564	3.58
300.935	3.78
301.305	3.72
301.676	3.83
302.046	3.79
302.416	3.85
302.787	3.91
303.157	3.95
303.527	4.02
303.897	4.02
304.267	4.39
304.637	4.45
305.008	4.62
305.378	4.79
305.748	4.84
306.117	4.94
306.487	4.96
306.857	4.91
307.227	4.99
307.597	5.02
307.967	4.93
308.336	5.01
308.706	5.17
309.076	5.25
309.445	5.33
309.815	5.41
310.184	5.34
310.554	5.34
310.923	5.35
311.293	5.42
311.662	5.48
312.031	5.35
312.401	5.45
312.77	5.55
313.139	5.62
313.508	5.69
313.877	5.7
314.246	5.79
314.616	5.93
314.985	5.9
315.353	5.93
315.722	6.25
316.091	6.28
316.46	6.03
316.829	6.3
317.198	6.55
317.567	6.53
317.935	6.72
318.304	7.05
318.672	7.3
319.041	7.57
319.41	7.69
319.778	7.98
320.147	7.99
320.515	8.25
320.883	8.22
321.252	8.49
321.62	8.6
321.988	8.64
322.357	8.7
322.725	8.97
323.093	9.11
323.461	9.09
323.829	9.24
324.197	9.45
324.565	9.36
324.933	9.36
325.301	9.55
325.669	9.48
326.037	9.45
326.405	9.47
326.772	9.49
327.14	9.71
327.508	9.76
327.875	9.84
328.243	9.71
328.61	9.92
328.978	9.94
329.346	10.09
329.713	10.28
330.08	10.5
330.448	10.41
330.815	10.39
331.182	10.51
331.55	10.56
331.917	10.78
332.284	10.91
332.651	10.96
333.018	11.06
333.385	11.36
333.752	11.53
334.119	11.71
334.486	11.71
334.853	11.68
335.22	11.83
335.587	11.9
335.954	12
336.32	11.91
336.687	12.06
337.054	12.22
337.42	12.3
337.787	12.36
338.153	12.57
338.52	12.8
338.886	12.81
339.253	12.96
339.619	13.03
339.986	13.18
340.352	13.2
340.718	13.21
341.084	13.23
341.451	13.36
341.817	13.44
342.183	13.59
342.549	13.72
342.915	13.85
343.281	13.93
343.647	14.08
344.013	14.34
344.379	14.3
344.745	14.25
345.11	14.27
345.476	14.31
345.842	14.44
346.208	14.37
346.573	14.51
346.939	14.5
347.304	14.44
347.67	14.5
348.035	14.49
348.401	14.62
348.766	14.62
349.132	14.6
349.497	14.61
349.862	14.7
350.228	14.88
350.593	14.82
350.958	14.79
351.323	14.83
351.688	14.76
352.053	14.82
352.418	14.96
352.783	14.96
353.148	14.97
353.513	14.96
353.878	15.03
354.243	15.04
354.608	15.15
354.972	15.23
355.337	15.23
355.702	15.35
356.066	15.34
356.431	15.42
356.795	15.44
357.16	15.37
357.524	15.25
357.889	15.23
358.253	15.25
358.618	15.29
358.982	15.3
359.346	15.32
359.71	15.27
360.075	15.24
360.439	15.27
360.803	15.25
361.167	15.21
361.531	15.11
361.895	15.12
362.259	15.03
362.623	14.99
362.987	14.95
363.351	14.9
363.714	14.87
364.078	14.83
364.442	14.78
364.806	14.77
365.169	14.77
365.533	14.57
365.896	14.5
366.26	14.45
366.623	14.36
366.987	14.28
367.35	14.32
367.714	14.23
368.077	14.13
368.44	14.12
368.803	14.02
369.167	14.11
369.53	14.01
369.893	14
370.256	13.95
370.619	13.82
370.982	13.76
371.345	13.66
371.708	13.55
372.071	13.41
372.434	13.38
372.797	13.37
373.159	13.37
373.522	13.28
373.885	13.23
374.247	13.15
374.61	13.12
374.973	13.01
375.335	12.93
375.698	12.85
376.06	12.73
376.423	12.65
376.785	12.55
377.147	12.47
377.51	12.36
377.872	12.33
378.234	12.28
378.596	12.21
378.958	12.06
379.321	12.05
379.683	12.01
380.045	11.92
380.407	11.84
380.769	11.75
381.13	11.69
381.492	11.57
381.854	11.46
382.216	11.36
382.578	11.22
382.939	11.09
383.301	10.99
383.663	10.91
384.024	10.85
384.386	10.8
384.747	10.75
385.109	10.67
385.47	10.56
385.832	10.55
386.193	10.51
386.554	10.48
386.916	10.36
387.277	10.31
387.638	10.24
387.999	10.1
388.36	10.06
388.721	9.95
389.082	9.91
389.443	9.81
389.804	9.71
390.165	9.66
390.526	9.6
390.887	9.54
391.248	9.45
391.609	9.35
391.969	9.22
392.33	9.14
392.691	9.08
393.051	8.99
393.412	8.92
393.772	8.8
394.133	8.73
394.493	8.68
394.854	8.59
395.214	8.49
395.574	8.46
395.935	8.32
396.295	8.29
396.655	8.19
397.015	8.14
397.376	8.09
397.736	8.01
398.096	7.94
398.456	7.87
398.816	7.76
399.176	7.74
399.535	7.68
399.895	7.58
400.255	7.54
400.615	7.47
400.975	7.34
401.334	7.26
401.694	7.21
402.054	7.12
402.413	7.06
402.773	6.97
403.132	6.91
403.492	6.9
403.851	6.81
404.211	6.74
404.57	6.69
404.929	6.65
405.288	6.6
405.648	6.57
406.007	6.55
406.366	6.55
406.725	6.48
407.084	6.46
407.443	6.41
407.802	6.34
408.161	6.32
408.52	6.28
408.879	6.25
409.238	6.23
409.596	6.22
409.955	6.15
410.314	6.16
410.673	6.1
411.031	6.05
411.39	6.04
411.748	6.01
412.107	5.98
412.465	5.92
412.824	5.89
413.182	5.84
413.54	5.79
413.899	5.76
414.257	5.73
414.615	5.65
414.974	5.66
415.332	5.6
415.69	5.58
416.048	5.54
416.406	5.49
416.764	5.43
417.122	5.4
417.48	5.37
417.838	5.33
418.195	5.29
418.553	5.28
418.911	5.23
419.269	5.2
419.626	5.16
419.984	5.14
420.342	5.08
420.699	5.04
421.057	5.02
421.414	4.98
421.772	4.96
422.129	4.94
422.486	4.89
422.844	4.88
423.201	4.84
423.558	4.83
423.915	4.82
424.273	4.79
424.63	4.75
424.987	4.73
425.344	4.72
425.701	4.69
426.058	4.65
426.415	4.65
426.772	4.62
427.128	4.59
427.485	4.57
427.842	4.56
428.199	4.55
428.555	4.52
428.912	4.49
429.269	4.47
429.625	4.47
429.982	4.46
430.338	4.43
430.695	4.42
431.051	4.38
431.407	4.34
431.764	4.32
432.12	4.31
432.476	4.3
432.832	4.28
433.189	4.26
433.545	4.26
433.901	4.24
434.257	4.22
434.613	4.24
434.969	4.24
435.325	4.26
435.681	4.26
436.036	4.25
436.392	4.24
436.748	4.22
437.104	4.21
437.459	4.2
437.815	4.19
438.171	4.17
438.526	4.18
438.882	4.19
439.237	4.21
439.593	4.21
439.948	4.22
440.304	4.21
440.659	4.21
441.014	4.19
441.369	4.17
441.725	4.18
442.08	4.15
442.435	4.12
442.79	4.11
443.145	4.09
443.5	4.08
443.855	4.05
444.21	4.03
444.565	4.03
444.92	4.02
445.275	4
445.629	3.99
445.984	3.97
446.339	3.94
446.693	3.9
447.048	3.88
447.403	3.86
447.757	3.83
448.112	3.81
448.466	3.8
448.82	3.78
449.175	3.76
449.529	3.76
449.883	3.76
450.238	3.72
450.592	3.71
450.946	3.68
451.3	3.68
451.654	3.65
452.008	3.64
452.362	3.61
452.716	3.61
453.07	3.61
453.424	3.59
453.778	3.57
454.132	3.58
454.486	3.56
454.839	3.54
455.193	3.53
455.547	3.54
455.9	3.54
456.254	3.54
456.607	3.53
456.961	3.52
457.314	3.53
457.668	3.53
458.021	3.53
458.375	3.52
458.728	3.53
459.081	3.54
459.434	3.53
459.787	3.56
460.141	3.55
460.494	3.54
460.847	3.55
461.2	3.58
461.553	3.59
461.906	3.59
462.259	3.61
462.611	3.64
462.964	3.65
463.317	3.66
463.67	3.7
464.022	3.71
464.375	3.72
464.728	3.71
465.08	3.74
465.433	3.74
465.785	3.77
466.138	3.77
466.49	3.78
466.843	3.8
467.195	3.81
467.547	3.83
467.899	3.87
468.252	3.89
468.604	3.89
468.956	3.92
469.308	3.95
469.66	3.96
470.012	3.98
470.364	4
470.716	4.03
471.068	4.03
471.42	4.03
471.772	4.08
472.123	4.12
472.475	4.13
472.827	4.15
473.178	4.17
473.53	4.2
473.882	4.24
474.233	4.24
474.585	4.23
474.936	4.23
475.288	4.24
475.639	4.24
475.99	4.25
476.342	4.25
476.693	4.25
477.044	4.27
477.395	4.25
477.746	4.24
478.097	4.21
478.448	4.2
478.8	4.19
479.15	4.16
479.501	4.16
479.852	4.16
480.203	4.16
480.554	4.14
480.905	4.15
481.255	4.15
481.606	4.15
481.957	4.16
482.307	4.17
482.658	4.16
483.009	4.15
483.359	4.14
483.709	4.14
484.06	4.13
484.41	4.12
484.761	4.13
485.111	4.13
485.461	4.14
485.811	4.14
486.162	4.15
486.512	4.16
486.862	4.16
487.212	4.17
487.562	4.18
487.912	4.19
488.262	4.19
488.612	4.19
488.961	4.2
489.311	4.19
489.661	4.19
490.011	4.2
490.36	4.22
490.71	4.25
491.06	4.27
491.409	4.3
491.759	4.32
492.108	4.34
492.458	4.37
492.807	4.38
493.157	4.42
493.506	4.44
493.855	4.48
494.204	4.52
494.554	4.54
494.903	4.56
495.252	4.6
495.601	4.64
495.95	4.68
496.299	4.73
496.648	4.78
496.997	4.83
497.346	4.9
497.695	4.93
498.043	4.97
498.392	5.03
498.741	5.09
499.09	5.14
499.438	5.2
499.787	5.24
500.135	5.32
500.484	5.38
500.832	5.45
501.181	5.52
501.529	5.58
501.878	5.67
502.226	5.75
502.574	5.85
502.923	5.94
503.271	6.01
503.619	6.11
503.967	6.23
504.315	6.34
504.663	6.44
505.011	6.56
505.359	6.65
505.707	6.74
506.055	6.84
506.403	6.96
506.751	7.09
507.098	7.21
507.446	7.32
507.794	7.42
508.141	7.54
508.489	7.65
508.837	7.78
509.184	7.89
509.531	8.02
509.879	8.14
510.226	8.28
510.574	8.43
510.921	8.56
511.268	8.69
511.616	8.83
511.963	8.97
512.31	9.13
512.657	9.31
513.004	9.47
513.351	9.65
513.698	9.86
514.045	10.04
514.392	10.23
514.739	10.42
515.086	10.62
515.432	10.82
515.779	11.03
516.126	11.23
516.473	11.42
516.819	11.62
517.166	11.82
517.512	12
517.859	12.16
518.205	12.33
518.552	12.51
518.898	12.71
519.245	12.9
519.591	13.06
519.937	13.25
520.283	13.44
520.629	13.66
520.976	13.87
521.322	14.12
521.668	14.36
522.014	14.66
522.36	14.93
522.706	15.24
523.052	15.53
523.398	15.88
523.743	16.22
524.089	16.58
524.435	16.9
524.781	17.24
525.126	17.53
525.472	17.82
525.817	18.09
526.163	18.3
526.509	18.53
526.854	18.77
527.199	19
527.545	19.22
527.89	19.43
528.235	19.64
528.581	19.85
528.926	20.06
529.271	20.26
529.616	20.5
529.961	20.72
530.306	20.94
530.651	21.17
530.996	21.43
531.341	21.69
531.686	21.96
532.031	22.24
532.376	22.54
532.721	22.84
533.065	23.14
533.41	23.49
533.755	23.81
534.099	24.14
534.444	24.42
534.788	24.74
535.133	25.04
535.477	25.35
535.822	25.71
536.166	26.05
536.51	26.41
536.855	26.78
537.199	27.16
537.543	27.6
537.887	28.02
538.231	28.43
538.576	28.82
538.92	29.19
539.264	29.55
539.608	29.92
539.951	30.25
540.295	30.56
540.639	30.86
540.983	31.14
541.327	31.43
541.671	31.73
542.014	31.99
542.358	32.27
542.701	32.53
543.045	32.77
543.389	33.05
543.732	33.33
544.075	33.6
544.419	33.88
544.762	34.12
545.105	34.36
545.449	34.65
545.792	34.95
546.135	35.25
546.478	35.57
546.821	35.87
547.165	36.19
547.508	36.5
547.851	36.78
548.194	37.11
548.536	37.41
548.879	37.73
549.222	38.07
549.565	38.34
549.908	38.66
550.25	38.95
550.593	39.25
550.936	39.52
551.278	39.78
551.621	40.05
551.963	40.34
552.306	40.61
552.648	40.86
552.991	41.16
553.333	41.42
553.675	41.66
554.017	41.87
554.36	42.07
554.702	42.25
555.044	42.48
555.386	42.67
555.728	42.96
556.07	43.22
556.412	43.4
556.754	43.63
557.096	43.84
557.438	44.11
557.78	44.25
558.121	44.51
558.463	44.76
558.805	44.97
559.147	45.22
559.488	45.41
559.83	45.58
560.171	45.7
560.513	45.92
560.854	46.02
561.196	46.23
561.537	46.45
561.878	46.62
562.22	46.78
562.561	46.89
562.902	46.94
563.243	47.06
563.584	47.19
563.925	47.3
564.266	47.46
564.607	47.53
564.948	47.7
565.289	47.77
565.63	47.87
565.971	47.98
566.312	48.04
566.653	48.13
566.993	48.2
567.334	48.33
567.675	48.39
568.015	48.54
568.356	48.59
568.696	48.64
569.037	48.76
569.377	48.85
569.718	48.97
570.058	49.09
570.398	49.13
570.739	49.24
571.079	49.33
571.419	49.41
571.759	49.46
572.099	49.53
572.439	49.63
572.779	49.68
573.119	49.74
573.459	49.8
573.799	49.9
574.139	50.02
574.479	50.05
574.819	50.12
575.158	50.16
575.498	50.22
575.838	50.3
576.177	50.36
576.517	50.43
576.856	50.52
577.196	50.61
577.535	50.73
577.875	50.85
578.214	50.92
578.553	51.06
578.893	51.17
579.232	51.26
579.571	51.39
579.91	51.48
580.25	51.62
580.589	51.78
580.928	51.87
581.267	51.98
581.606	52.03
581.945	52.11
582.283	52.16
582.622	52.37
582.961	52.46
583.3	52.51
583.639	52.66
583.977	52.69
584.316	52.67
584.654	52.68
584.993	52.64
585.332	52.64
585.67	52.59
586.008	52.67
586.347	52.69
586.685	52.63
587.024	52.7
587.362	52.73
587.7	52.73
588.038	52.76
588.376	52.74
588.715	52.77
589.053	52.72
589.391	52.88
589.729	52.8
590.067	52.84
590.404	52.84
590.742	52.8
591.08	52.86
591.418	52.94
591.756	52.98
592.093	53.09
592.431	53.18
592.769	53.18
593.106	53.22
593.444	53.23
593.781	53.27
594.119	53.28
594.456	53.26
594.793	53.28
595.131	53.26
595.468	53.31
595.805	53.32
596.143	53.42
596.48	53.42
596.817	53.46
597.154	53.47
597.491	53.49
597.828	53.51
598.165	53.52
598.502	53.53
598.839	53.6
599.176	53.54
599.512	53.59
599.849	53.69
600.186	53.63
600.523	53.66
600.859	53.7
601.196	53.72
601.532	53.78
601.869	53.77
602.205	53.81
602.542	53.83
602.878	53.89
603.215	53.91
603.551	53.91
603.887	53.97
604.223	54.01
604.56	53.99
604.896	54.04
605.232	54.05
605.568	54.07
605.904	54.03
606.24	54.06
606.576	54.06
606.912	54.09
607.248	54.17
607.583	54.18
607.919	54.14
608.255	54.15
608.591	54.17
608.926	54.22
609.262	54.23
609.597	54.25
609.933	54.32
610.268	54.36
610.604	54.35
610.939	54.42
611.275	54.44
611.61	54.53
611.945	54.55
612.281	54.57
612.616	54.6
612.951	54.66
613.286	54.76
613.621	54.75
613.956	54.75
614.291	54.77
614.626	54.9
614.961	54.98
615.296	55.06
615.631	55.16
615.966	55.22
616.3	55.25
616.635	55.28
616.97	55.27
617.304	55.25
617.639	55.37
617.973	55.24
618.308	55.25
618.642	55.31
618.977	55.28
619.311	55.34
619.646	55.31
619.98	55.31
620.314	55.28
620.648	55.3
620.983	55.33
621.317	55.3
621.651	55.3
621.985	55.29
622.319	55.32
622.653	55.25
622.987	55.19
623.321	55.22
623.655	55.22
623.988	55.21
624.322	55.17
624.656	55.16
624.99	55.2
625.323	55.26
625.657	55.29
625.99	55.32
626.324	55.35
626.657	55.36
626.991	55.44
627.324	55.57
627.658	55.57
627.991	55.6
628.324	55.64
628.657	55.55
628.991	55.65
629.324	55.65
629.657	55.74
629.99	55.76
630.323	55.8
630.656	55.82
630.989	55.91
631.322	56.01
631.655	55.99
631.987	56.02
632.32	56.02
632.653	55.99
632.986	55.94
633.318	55.97
633.651	55.95
633.984	55.9
634.316	55.87
634.649	55.95
634.981	55.98
635.313	56.02
635.646	56.18
635.978	56.12
636.31	56.19
636.643	56.2
636.975	56.2
637.307	56.28
637.639	56.3
637.971	56.18
638.303	56.23
638.635	56.2
638.967	56.2
639.299	56.28
639.631	56.3
639.963	56.44
640.295	56.4
640.626	56.58
640.958	56.63
641.29	56.56
641.621	56.6
641.953	56.47
642.285	56.44
642.616	56.34
642.948	56.39
643.279	56.47
643.61	56.42
643.942	56.47
644.273	56.36
644.604	56.35
644.936	56.54
645.267	56.45
645.598	56.41
645.929	56.45
646.26	56.42
646.591	56.44
646.922	56.5
647.253	56.6
647.584	56.6
647.915	56.54
648.245	56.51
648.576	56.52
648.907	56.69
649.238	56.66
649.568	56.61
649.899	56.58
650.229	56.48
650.56	56.47
650.89	56.58
651.221	56.67
651.551	56.61
651.882	56.55
652.212	56.58
652.542	56.61
652.872	56.58
653.203	56.53
653.533	56.54
653.863	56.53
654.193	56.5
654.523	56.52
654.853	56.63
655.183	56.81
655.513	56.9
655.843	56.81
656.172	56.86
656.502	57.1
656.832	57.14
657.162	57.24
657.491	57.22
657.821	57.08
658.15	57.04
658.48	57.13
658.809	56.99
659.139	57.08
659.468	57.2
659.798	57.27
660.127	57.4
660.456	57.46
660.785	57.42
661.115	57.44
661.444	57.44
