Data from BA56814_Reflection_00015.txt Node
Date: Mon Nov 18 15:40:54 EST 2019
User: vgr7
Spectrometer: USB2G7710
Scans to average: 3
Trigger mode: 4
Integration Time (sec): 2.000000E-2
Electric dark correction enabled: true
Boxcar width: 10
XAxis mode: Wavelengths
Number of Pixels in Spectrum: 2048
>>>>>Begin Spectral Data<<<<<
177.721	-224.44
178.105	-63.54
178.488	-17.65
178.871	37.18
179.254	30.04
179.636	18.5
180.019	-12.49
180.402	37.93
180.785	1575.73
181.168	149.43
181.55	137.53
181.933	88.33
182.316	117.75
182.698	134.8
183.081	104.11
183.463	127.75
183.846	86.41
184.228	43.24
184.611	53.32
184.993	24.68
185.376	11.86
185.758	33.39
186.14	57.05
186.522	60.44
186.904	63.18
187.287	66.06
187.669	74.46
188.051	56.07
188.433	87.19
188.815	49.96
189.197	58.17
189.579	72.7
189.961	126.91
190.342	58.65
190.724	-5.32
191.106	-6.61
191.488	2.64
191.869	-2.74
192.251	-24.76
192.633	-69.85
193.014	-61.86
193.396	-46.11
193.777	-59.77
194.159	-153.44
194.54	-274.56
194.922	-1244.26
195.303	-220.24
195.684	-927.52
196.065	122.52
196.447	132.71
196.828	479.42
197.209	227.04
197.59	103.07
197.971	95.17
198.352	63.25
198.733	26.93
199.114	41.2
199.495	29.69
199.876	22.85
200.257	15.85
200.638	17.8
201.018	13.55
201.399	41.2
201.78	84.84
202.16	86.1
202.541	138.75
202.922	133.7
203.302	94.62
203.683	120.76
204.063	320.04
204.444	349.34
204.824	98.11
205.204	148.13
205.585	201.99
205.965	214.29
206.345	191.24
206.725	330.93
207.106	692.18
207.486	-170.8
207.866	6795.65
208.246	207.5
208.626	186.44
209.006	104.28
209.386	45.85
209.766	28.62
210.145	73.58
210.525	28.37
210.905	24.46
211.285	46.8
211.664	2.15
212.044	6.24
212.424	12.34
212.803	11.09
213.183	13.54
213.562	23.56
213.942	26.01
214.321	54.97
214.701	53.25
215.08	48.97
215.459	40.72
215.838	43.69
216.218	40.45
216.597	33.55
216.976	41.61
217.355	41.77
217.734	38.22
218.113	35.53
218.492	32.18
218.871	35.96
219.25	34.71
219.629	45.69
220.008	40
220.387	36.54
220.766	44.52
221.144	7.03
221.523	-25.28
221.902	-28.64
222.28	-39.1
222.659	-37.38
223.037	-25.7
223.416	-6.52
223.794	-23.08
224.173	-24.26
224.551	-11.28
224.929	-16.21
225.308	-0.7
225.686	-4.54
226.064	-11.59
226.442	-3.63
226.821	-1.18
227.199	-2.37
227.577	-1.67
227.955	-0.97
228.333	-1.35
228.711	0.98
229.089	7.83
229.467	6.17
229.845	3.76
230.222	6.31
230.6	5.02
230.978	5.39
231.356	5.27
231.733	5.88
232.111	6.53
232.488	4.93
232.866	5.89
233.243	3.67
233.621	5.35
233.998	8.05
234.376	7.04
234.753	7.68
235.13	8.7
235.508	9.04
235.885	8.89
236.262	8.34
236.639	6.71
237.016	5.68
237.393	7.95
237.77	9.03
238.147	7.74
238.524	8.25
238.901	8.15
239.278	7.86
239.655	8.38
240.032	8.39
240.409	7.87
240.785	7.83
241.162	7.81
241.539	7.18
241.915	6.05
242.292	5.97
242.668	5.72
243.045	5.4
243.421	5.15
243.798	4.75
244.174	4.81
244.551	4.72
244.927	4.51
245.303	4.18
245.679	3.89
246.056	3.76
246.432	3.55
246.808	3.36
247.184	3.25
247.56	2.94
247.936	3
248.312	3.12
248.688	3.08
249.064	2.95
249.44	2.99
249.815	3.22
250.191	3.16
250.567	3.07
250.943	2.85
251.318	3.16
251.694	3.29
252.069	3.17
252.445	3.2
252.82	3.34
253.196	3.06
253.571	3.26
253.947	3.31
254.322	3.39
254.697	3.21
255.073	2.95
255.448	2.99
255.823	2.7
256.198	2.84
256.573	2.82
256.948	3.21
257.323	3.26
257.698	3.23
258.073	3.06
258.448	3.12
258.823	3.33
259.198	3.05
259.573	3.03
259.948	3.08
260.322	3.23
260.697	3.21
261.072	3.24
261.446	3.27
261.821	3.19
262.195	3.26
262.57	3.19
262.944	3.29
263.319	3.38
263.693	3.44
264.067	3.29
264.442	3.33
264.816	3.12
265.19	3.02
265.564	2.98
265.938	3.11
266.313	3.02
266.687	3.04
267.061	3.17
267.435	3.17
267.809	3.15
268.183	3.02
268.556	3.02
268.93	3.12
269.304	3.15
269.678	3.34
270.051	3.26
270.425	3.46
270.799	3.43
271.172	3.48
271.546	3.56
271.919	3.46
272.293	3.44
272.666	3.52
273.04	3.61
273.413	3.75
273.787	3.95
274.16	3.83
274.533	3.84
274.906	3.7
275.279	3.76
275.653	3.8
276.026	3.85
276.399	3.88
276.772	4.07
277.145	3.9
277.518	3.97
277.891	3.96
278.263	3.8
278.636	3.83
279.009	3.88
279.382	3.83
279.755	4.04
280.127	4.07
280.5	4.02
280.872	4.1
281.245	3.89
281.617	3.86
281.99	3.95
282.362	3.89
282.735	3.99
283.107	3.96
283.479	3.95
283.852	3.89
284.224	3.8
284.596	3.63
284.968	3.76
285.34	3.63
285.713	3.71
286.085	3.7
286.457	3.75
286.829	3.67
287.201	3.66
287.572	3.52
287.944	3.52
288.316	3.58
288.688	3.45
289.06	3.5
289.431	3.32
289.803	3.39
290.175	3.43
290.546	3.52
290.918	3.6
291.289	3.56
291.661	3.61
292.032	3.66
292.403	3.8
292.775	3.83
293.146	3.8
293.517	3.85
293.889	4.04
294.26	4.14
294.631	4.19
295.002	4.08
295.373	4.14
295.744	4.16
296.115	4.03
296.486	3.99
296.857	4
297.228	4.06
297.599	3.99
297.97	3.94
298.34	3.83
298.711	3.83
299.082	3.91
299.452	3.94
299.823	3.96
300.194	3.91
300.564	3.81
300.935	3.88
301.305	3.76
301.676	3.73
302.046	3.67
302.416	3.67
302.787	3.84
303.157	3.89
303.527	3.85
303.897	3.98
304.267	4.19
304.637	4.2
305.008	4.19
305.378	4.21
305.748	4.31
306.117	4.33
306.487	4.22
306.857	4.11
307.227	4.17
307.597	4.15
307.967	4.18
308.336	4.19
308.706	4.26
309.076	4.18
309.445	4.03
309.815	3.99
310.184	4.01
310.554	4.01
310.923	3.94
311.293	3.96
311.662	3.9
312.031	3.8
312.401	3.8
312.77	3.99
313.139	3.99
313.508	3.99
313.877	3.91
314.246	4.05
314.616	4.13
314.985	3.99
315.353	4.06
315.722	4.04
316.091	4.1
316.46	3.97
316.829	4.12
317.198	4.33
317.567	4.27
317.935	4.17
318.304	4.24
318.672	4.3
319.041	4.34
319.41	4.36
319.778	4.39
320.147	4.43
320.515	4.23
320.883	4.34
321.252	4.36
321.62	4.39
321.988	4.28
322.357	4.27
322.725	4.33
323.093	4.32
323.461	4.17
323.829	4.23
324.197	4.23
324.565	4.28
324.933	4.22
325.301	4.23
325.669	4.23
326.037	4.29
326.405	4.3
326.772	4.44
327.14	4.5
327.508	4.47
327.875	4.43
328.243	4.5
328.61	4.33
328.978	4.28
329.346	4.42
329.713	4.37
330.08	4.5
330.448	4.5
330.815	4.45
331.182	4.45
331.55	4.5
331.917	4.6
332.284	4.76
332.651	4.71
333.018	4.78
333.385	4.76
333.752	4.64
334.119	4.72
334.486	4.59
334.853	4.55
335.22	4.54
335.587	4.63
335.954	4.52
336.32	4.56
336.687	4.56
337.054	4.62
337.42	4.77
337.787	4.69
338.153	4.64
338.52	4.6
338.886	4.61
339.253	4.54
339.619	4.55
339.986	4.41
340.352	4.55
340.718	4.57
341.084	4.63
341.451	4.62
341.817	4.64
342.183	4.58
342.549	4.59
342.915	4.7
343.281	4.73
343.647	4.76
344.013	4.75
344.379	4.78
344.745	4.77
345.11	4.76
345.476	4.71
345.842	4.81
346.208	4.87
346.573	4.97
346.939	4.97
347.304	4.94
347.67	4.9
348.035	4.91
348.401	4.88
348.766	4.82
349.132	4.84
349.497	4.75
349.862	4.92
350.228	4.95
350.593	4.96
350.958	4.91
351.323	5
351.688	5.08
352.053	5.08
352.418	5.05
352.783	5.08
353.148	5.01
353.513	5.01
353.878	5
354.243	5.09
354.608	5.13
354.972	5.09
355.337	5.17
355.702	5.13
356.066	5.2
356.431	5.18
356.795	5.14
357.16	5.14
357.524	5.05
357.889	5.04
358.253	5.04
358.618	5.12
358.982	5.06
359.346	5
359.71	4.94
360.075	4.94
360.439	4.95
360.803	5
361.167	5.02
361.531	5.02
361.895	4.88
362.259	4.87
362.623	4.96
362.987	4.9
363.351	4.9
363.714	4.9
364.078	4.89
364.442	4.91
364.806	4.88
365.169	4.84
365.533	4.84
365.896	4.81
366.26	4.73
366.623	4.77
366.987	4.79
367.35	4.84
367.714	4.84
368.077	4.77
368.44	4.73
368.803	4.69
369.167	4.61
369.53	4.69
369.893	4.73
370.256	4.65
370.619	4.67
370.982	4.59
371.345	4.49
371.708	4.53
372.071	4.52
372.434	4.56
372.797	4.57
373.159	4.48
373.522	4.46
373.885	4.45
374.247	4.46
374.61	4.44
374.973	4.34
375.335	4.28
375.698	4.28
376.06	4.3
376.423	4.29
376.785	4.37
377.147	4.34
377.51	4.27
377.872	4.28
378.234	4.23
378.596	4.26
378.958	4.26
379.321	4.22
379.683	4.21
380.045	4.2
380.407	4.18
380.769	4.19
381.13	4.2
381.492	4.18
381.854	4.13
382.216	4.14
382.578	4.18
382.939	4.15
383.301	4.14
383.663	4.11
384.024	4.09
384.386	4.02
384.747	4.01
385.109	4.02
385.47	3.98
385.832	4
386.193	3.97
386.554	3.98
386.916	3.95
387.277	3.94
387.638	3.9
387.999	3.87
388.36	3.88
388.721	3.83
389.082	3.82
389.443	3.76
389.804	3.73
390.165	3.71
390.526	3.71
390.887	3.71
391.248	3.71
391.609	3.72
391.969	3.71
392.33	3.66
392.691	3.61
393.051	3.62
393.412	3.59
393.772	3.58
394.133	3.56
394.493	3.59
394.854	3.59
395.214	3.6
395.574	3.58
395.935	3.58
396.295	3.62
396.655	3.59
397.015	3.62
397.376	3.64
397.736	3.62
398.096	3.61
398.456	3.62
398.816	3.61
399.176	3.59
399.535	3.57
399.895	3.57
400.255	3.62
400.615	3.6
400.975	3.59
401.334	3.59
401.694	3.56
402.054	3.52
402.413	3.5
402.773	3.47
403.132	3.49
403.492	3.47
403.851	3.41
404.211	3.43
404.57	3.36
404.929	3.35
405.288	3.37
405.648	3.36
406.007	3.31
406.366	3.28
406.725	3.27
407.084	3.26
407.443	3.25
407.802	3.22
408.161	3.18
408.52	3.15
408.879	3.12
409.238	3.14
409.596	3.13
409.955	3.14
410.314	3.14
410.673	3.16
411.031	3.12
411.39	3.15
411.748	3.13
412.107	3.2
412.465	3.18
412.824	3.16
413.182	3.15
413.54	3.16
413.899	3.19
414.257	3.17
414.615	3.18
414.974	3.18
415.332	3.19
415.69	3.23
416.048	3.25
416.406	3.24
416.764	3.22
417.122	3.21
417.48	3.19
417.838	3.2
418.195	3.17
418.553	3.19
418.911	3.18
419.269	3.19
419.626	3.16
419.984	3.16
420.342	3.17
420.699	3.17
421.057	3.16
421.414	3.15
421.772	3.15
422.129	3.15
422.486	3.15
422.844	3.14
423.201	3.11
423.558	3.1
423.915	3.11
424.273	3.12
424.63	3.11
424.987	3.11
425.344	3.09
425.701	3.09
426.058	3.09
426.415	3.09
426.772	3.07
427.128	3.07
427.485	3.08
427.842	3.06
428.199	3.05
428.555	3.06
428.912	3.06
429.269	3.07
429.625	3.05
429.982	3.05
430.338	3.05
430.695	3.05
431.051	3.03
431.407	3.04
431.764	3.03
432.12	3.03
432.476	3.02
432.832	3.02
433.189	3.03
433.545	3.02
433.901	3.02
434.257	3
434.613	3.01
434.969	3
435.325	3.01
435.681	3.01
436.036	3.02
436.392	3
436.748	2.99
437.104	3
437.459	2.99
437.815	2.98
438.171	3
438.526	3.01
438.882	3
439.237	3.01
439.593	3.02
439.948	3.04
440.304	3.05
440.659	3.05
441.014	3.04
441.369	3.05
441.725	3.06
442.08	3.05
442.435	3.07
442.79	3.06
443.145	3.06
443.5	3.05
443.855	3.05
444.21	3.06
444.565	3.07
444.92	3.07
445.275	3.06
445.629	3.05
445.984	3.04
446.339	3.02
446.693	2.99
447.048	2.98
447.403	2.96
447.757	2.96
448.112	2.95
448.466	2.95
448.82	2.94
449.175	2.93
449.529	2.93
449.883	2.92
450.238	2.91
450.592	2.92
450.946	2.91
451.3	2.91
451.654	2.9
452.008	2.89
452.362	2.88
452.716	2.88
453.07	2.89
453.424	2.91
453.778	2.94
454.132	2.95
454.486	2.95
454.839	2.94
455.193	2.94
455.547	2.94
455.9	2.95
456.254	2.95
456.607	2.95
456.961	2.95
457.314	2.96
457.668	2.95
458.021	2.93
458.375	2.95
458.728	2.94
459.081	2.95
459.434	2.94
459.787	2.94
460.141	2.95
460.494	2.95
460.847	2.94
461.2	2.93
461.553	2.95
461.906	2.95
462.259	2.98
462.611	2.96
462.964	2.97
463.317	2.97
463.67	2.97
464.022	2.96
464.375	2.95
464.728	2.95
465.08	2.96
465.433	2.97
465.785	2.96
466.138	2.97
466.49	2.94
466.843	2.94
467.195	2.95
467.547	2.94
467.899	2.95
468.252	2.96
468.604	2.98
468.956	2.96
469.308	2.96
469.66	2.94
470.012	2.95
470.364	2.95
470.716	2.95
471.068	2.94
471.42	2.96
471.772	2.97
472.123	2.98
472.475	2.97
472.827	2.97
473.178	2.98
473.53	2.97
473.882	3.02
474.233	3.02
474.585	3.03
474.936	3.05
475.288	3.04
475.639	3.04
475.99	3.03
476.342	3.03
476.693	3.03
477.044	3.04
477.395	3.05
477.746	3.03
478.097	3.03
478.448	3.04
478.8	3.03
479.15	3.02
479.501	3.01
479.852	3.01
480.203	3.03
480.554	3.02
480.905	3.03
481.255	3.01
481.606	3.01
481.957	3.01
482.307	3
482.658	3.01
483.009	3
483.359	3.01
483.709	3.03
484.06	3.03
484.41	3.04
484.761	3.04
485.111	3.05
485.461	3.05
485.811	3.05
486.162	3.05
486.512	3.05
486.862	3.06
487.212	3.06
487.562	3.07
487.912	3.07
488.262	3.07
488.612	3.07
488.961	3.09
489.311	3.1
489.661	3.11
490.011	3.11
490.36	3.11
490.71	3.1
491.06	3.09
491.409	3.09
491.759	3.09
492.108	3.09
492.458	3.08
492.807	3.09
493.157	3.09
493.506	3.11
493.855	3.12
494.204	3.11
494.554	3.12
494.903	3.09
495.252	3.09
495.601	3.09
495.95	3.1
496.299	3.09
496.648	3.08
496.997	3.08
497.346	3.09
497.695	3.1
498.043	3.12
498.392	3.12
498.741	3.12
499.09	3.12
499.438	3.14
499.787	3.16
500.135	3.16
500.484	3.18
500.832	3.21
501.181	3.23
501.529	3.25
501.878	3.26
502.226	3.31
502.574	3.33
502.923	3.34
503.271	3.34
503.619	3.38
503.967	3.41
504.315	3.41
504.663	3.43
505.011	3.45
505.359	3.47
505.707	3.52
506.055	3.55
506.403	3.58
506.751	3.59
507.098	3.62
507.446	3.66
507.794	3.67
508.141	3.68
508.489	3.7
508.837	3.72
509.184	3.72
509.531	3.74
509.879	3.76
510.226	3.81
510.574	3.85
510.921	3.85
511.268	3.87
511.616	3.91
511.963	3.95
512.31	3.95
512.657	3.99
513.004	4.01
513.351	4.05
513.698	4.1
514.045	4.12
514.392	4.14
514.739	4.18
515.086	4.25
515.432	4.27
515.779	4.3
516.126	4.35
516.473	4.41
516.819	4.45
517.166	4.49
517.512	4.51
517.859	4.57
518.205	4.62
518.552	4.67
518.898	4.71
519.245	4.75
519.591	4.8
519.937	4.83
520.283	4.87
520.629	4.92
520.976	4.97
521.322	5.05
521.668	5.13
522.014	5.2
522.36	5.26
522.706	5.35
523.052	5.44
523.398	5.55
523.743	5.64
524.089	5.74
524.435	5.83
524.781	5.92
525.126	5.99
525.472	6.08
525.817	6.16
526.163	6.22
526.509	6.29
526.854	6.38
527.199	6.45
527.545	6.53
527.89	6.6
528.235	6.68
528.581	6.76
528.926	6.84
529.271	6.92
529.616	7.01
529.961	7.08
530.306	7.16
530.651	7.26
530.996	7.35
531.341	7.46
531.686	7.58
532.031	7.7
532.376	7.83
532.721	7.96
533.065	8.08
533.41	8.22
533.755	8.38
534.099	8.52
534.444	8.68
534.788	8.82
535.133	8.97
535.477	9.12
535.822	9.29
536.166	9.48
536.51	9.69
536.855	9.9
537.199	10.12
537.543	10.36
537.887	10.61
538.231	10.84
538.576	11.09
538.92	11.34
539.264	11.57
539.608	11.79
539.951	11.99
540.295	12.21
540.639	12.44
540.983	12.63
541.327	12.82
541.671	13.02
542.014	13.21
542.358	13.41
542.701	13.61
543.045	13.81
543.389	14
543.732	14.18
544.075	14.39
544.419	14.63
544.762	14.85
545.105	15.05
545.449	15.29
545.792	15.53
546.135	15.76
546.478	16.03
546.821	16.33
547.165	16.61
547.508	16.88
547.851	17.14
548.194	17.44
548.536	17.77
548.879	18.08
549.222	18.41
549.565	18.72
549.908	19.03
550.25	19.34
550.593	19.64
550.936	19.92
551.278	20.22
551.621	20.48
551.963	20.79
552.306	21.1
552.648	21.42
552.991	21.75
553.333	22.06
553.675	22.35
554.017	22.62
554.36	22.92
554.702	23.21
555.044	23.51
555.386	23.78
555.728	24.02
556.07	24.29
556.412	24.54
556.754	24.83
557.096	25.1
557.438	25.38
557.78	25.72
558.121	26.08
558.463	26.43
558.805	26.74
559.147	27
559.488	27.27
559.83	27.53
560.171	27.73
560.513	28.02
560.854	28.28
561.196	28.52
561.537	28.75
561.878	29
562.22	29.26
562.561	29.5
562.902	29.81
563.243	30
563.584	30.25
563.925	30.48
564.266	30.66
564.607	30.88
564.948	31.07
565.289	31.27
565.63	31.4
565.971	31.59
566.312	31.8
566.653	31.96
566.993	32.18
567.334	32.41
567.675	32.59
568.015	32.77
568.356	33
568.696	33.19
569.037	33.41
569.377	33.6
569.718	33.81
570.058	33.93
570.398	34.15
570.739	34.32
571.079	34.5
571.419	34.69
571.759	34.89
572.099	35.02
572.439	35.2
572.779	35.41
573.119	35.57
573.459	35.75
573.799	35.97
574.139	36.08
574.479	36.25
574.819	36.42
575.158	36.58
575.498	36.72
575.838	36.87
576.177	37.02
576.517	37.16
576.856	37.31
577.196	37.46
577.535	37.61
577.875	37.78
578.214	37.89
578.553	38.09
578.893	38.25
579.232	38.44
579.571	38.57
579.91	38.7
580.25	38.87
580.589	39.06
580.928	39.22
581.267	39.42
581.606	39.51
581.945	39.56
582.283	39.71
582.622	39.83
582.961	39.97
583.3	40.12
583.639	40.25
583.977	40.38
584.316	40.52
584.654	40.64
584.993	40.75
585.332	40.89
585.67	40.98
586.008	41.02
586.347	41.12
586.685	41.19
587.024	41.26
587.362	41.36
587.7	41.42
588.038	41.53
588.376	41.65
588.715	41.74
589.053	41.91
589.391	42.01
589.729	42.13
590.067	42.21
590.404	42.24
590.742	42.31
591.08	42.29
591.418	42.35
591.756	42.46
592.093	42.48
592.431	42.6
592.769	42.69
593.106	42.78
593.444	42.78
593.781	42.88
594.119	42.99
594.456	43.04
594.793	43.11
595.131	43.12
595.468	43.12
595.805	43.2
596.143	43.24
596.48	43.32
596.817	43.37
597.154	43.46
597.491	43.55
597.828	43.59
598.165	43.72
598.502	43.85
598.839	43.95
599.176	44.09
599.512	44.14
599.849	44.29
600.186	44.37
600.523	44.6
600.859	44.69
601.196	44.75
601.532	44.86
601.869	44.9
602.205	44.99
602.542	45.06
602.878	45.09
603.215	45.15
603.551	45.22
603.887	45.26
604.223	45.29
604.56	45.34
604.896	45.43
605.232	45.51
605.568	45.54
605.904	45.58
606.24	45.65
606.576	45.71
606.912	45.71
607.248	45.82
607.583	45.85
607.919	45.81
608.255	45.86
608.591	45.9
608.926	46.01
609.262	46.03
609.597	46.13
609.933	46.19
610.268	46.24
610.604	46.22
610.939	46.31
611.275	46.39
611.61	46.41
611.945	46.47
612.281	46.46
612.616	46.46
612.951	46.51
613.286	46.57
613.621	46.6
613.956	46.63
614.291	46.7
614.626	46.73
614.961	46.89
615.296	46.94
615.631	46.94
615.966	46.98
616.3	47.07
616.635	47.13
616.97	47.28
617.304	47.38
617.639	47.44
617.973	47.37
618.308	47.45
618.642	47.53
618.977	47.56
619.311	47.71
619.646	47.76
619.98	47.8
620.314	47.81
620.648	47.89
620.983	47.97
621.317	47.89
621.651	47.85
621.985	47.84
622.319	47.9
622.653	48
622.987	48.01
623.321	47.96
623.655	47.97
623.988	47.97
624.322	48
624.656	48.1
624.99	48.23
625.323	48.2
625.657	48.25
625.99	48.36
626.324	48.34
626.657	48.48
626.991	48.48
627.324	48.48
627.658	48.47
627.991	48.52
628.324	48.59
628.657	48.61
628.991	48.61
629.324	48.66
629.657	48.68
629.99	48.77
630.323	48.88
630.656	48.88
630.989	48.96
631.322	48.96
631.655	48.97
631.987	48.96
632.32	49
632.653	49.03
632.986	49
633.318	49.06
633.651	49.02
633.984	49.07
634.316	49.1
634.649	49.14
634.981	49.12
635.313	49.15
635.646	49.23
635.978	49.31
636.31	49.35
636.643	49.39
636.975	49.38
637.307	49.33
637.639	49.36
637.971	49.37
638.303	49.44
638.635	49.37
638.967	49.47
639.299	49.53
639.631	49.53
639.963	49.49
640.295	49.42
640.626	49.5
640.958	49.56
641.29	49.62
641.621	49.7
641.953	49.78
642.285	49.81
642.616	49.89
642.948	49.99
643.279	49.93
643.61	50.02
643.942	50.06
644.273	50.02
644.604	50.09
644.936	50.07
645.267	50.12
645.598	50.29
645.929	50.29
646.26	50.26
646.591	50.27
646.922	50.33
647.253	50.37
647.584	50.31
647.915	50.33
648.245	50.3
648.576	50.3
648.907	50.29
649.238	50.3
649.568	50.14
649.899	50.17
650.229	50.29
650.56	50.28
650.89	50.27
651.221	50.43
651.551	50.5
651.882	50.46
652.212	50.44
652.542	50.39
652.872	50.43
653.203	50.55
653.533	50.61
653.863	50.69
654.193	50.75
654.523	50.8
654.853	50.81
655.183	50.79
655.513	50.82
655.843	50.9
656.172	51
656.502	51.15
656.832	51.16
657.162	51.23
657.491	51.25
657.821	51.27
658.15	51.21
658.48	51.23
658.809	51.3
659.139	51.31
659.468	51.3
659.798	51.33
660.127	51.29
660.456	51.33
660.785	51.39
661.115	51.42
661.444	51.4
661.773	51.47
662.102	51.6
662.431	51.68
662.76	51.7
663.089	51.72
663.418	51.8
663.747	51.81
664.076	51.74
664.404	51.78
664.733	51.77
665.062	51.88
665.39	51.91
665.719	52.01
666.048	52.01
666.376	52.12
666.705	52.1
667.033	52.08
667.362	52.02
667.69	51.94
668.018	51.98
668.347	52.1
668.675	52.17
669.003	52.21
669.331	52.15
669.659	52.18
669.987	52.12
670.315	52.14
