Data from BA56830_Reflection_00014.txt Node
Date: Mon Nov 18 16:04:18 EST 2019
User: vgr7
Spectrometer: USB2G7710
Scans to average: 3
Trigger mode: 4
Integration Time (sec): 2.000000E-2
Electric dark correction enabled: true
Boxcar width: 10
XAxis mode: Wavelengths
Number of Pixels in Spectrum: 2048
>>>>>Begin Spectral Data<<<<<
177.721	-45.76
178.105	-30.72
178.488	-14.98
178.871	-15.18
179.254	29.54
179.636	312.42
180.019	3877.78
180.402	168.42
180.785	7.13
181.168	-33.53
181.55	-21.56
181.933	46.95
182.316	44.79
182.698	73.84
183.081	83.61
183.463	22.93
183.846	36.85
184.228	29.18
184.611	261.4
184.993	-229
185.376	815.45
185.758	363.27
186.14	533.6
186.522	202.06
186.904	497.93
187.287	1241.55
187.669	-526.57
188.051	1733.99
188.433	-71233.33
188.815	-321.9
189.197	-179.23
189.579	-137.68
189.961	-146.75
190.342	-155.25
190.724	-138.54
191.106	-157.81
191.488	-194.67
191.869	-178.62
192.251	-272.31
192.633	-432.65
193.014	-424.64
193.396	-486.98
193.777	-360.28
194.159	-346.59
194.54	-215.08
194.922	-186.88
195.303	-172.17
195.684	-203.51
196.065	-106.73
196.447	-127.77
196.828	-152.27
197.209	-125.01
197.59	-150.83
197.971	-114.95
198.352	-93.39
198.733	-110.25
199.114	-64.94
199.495	-38.41
199.876	-44.36
200.257	-43.61
200.638	-24.41
201.018	-32.3
201.399	-22.79
201.78	-13.14
202.16	-23.33
202.541	-46.88
202.922	-66.5
203.302	-52.05
203.683	-59.3
204.063	-98.34
204.444	-65.24
204.824	-65.61
205.204	-69.25
205.585	-53.56
205.965	-36.08
206.345	-33.2
206.725	-28.28
207.106	-42.63
207.486	-89.27
207.866	-72.04
208.246	-73.01
208.626	-108.47
209.006	-59.16
209.386	-82.36
209.766	-108.2
210.145	-96.22
210.525	-78.71
210.905	-98.12
211.285	-98.52
211.664	-62.99
212.044	-61.79
212.424	-58.64
212.803	-66.79
213.183	-62.59
213.562	-70.15
213.942	-83.68
214.321	-67.57
214.701	-93.64
215.08	-103.51
215.459	-92.62
215.838	-101.24
216.218	-102.52
216.597	-69.69
216.976	-74.38
217.355	-44.76
217.734	-35.44
218.113	-21.21
218.492	-20.01
218.871	-12.74
219.25	-9.28
219.629	-11.99
220.008	-13.04
220.387	-7.47
220.766	2.51
221.144	-11.17
221.523	-13.14
221.902	-20.6
222.28	-26.66
222.659	-4.18
223.037	10.4
223.416	9.18
223.794	9.17
224.173	5.06
224.551	6.53
224.929	-0.81
225.308	-3.81
225.686	-3.73
226.064	-5.31
226.442	-4.09
226.821	-2.12
227.199	-7.33
227.577	-7.24
227.955	-6.65
228.333	-11.36
228.711	-10.66
229.089	-5.77
229.467	-7.84
229.845	-7.84
230.222	-5.98
230.6	-11.27
230.978	-13.87
231.356	-12.32
231.733	-11.04
232.111	-8.61
232.488	-9.38
232.866	-7.93
233.243	-7.3
233.621	-6.2
233.998	-3.92
234.376	-4.05
234.753	-4.61
235.13	-2.46
235.508	-2.14
235.885	-3.07
236.262	-2.5
236.639	-2.19
237.016	-1.7
237.393	0.23
237.77	1.37
238.147	0.65
238.524	1.86
238.901	3.3
239.278	3.98
239.655	4.47
240.032	4.15
240.409	4.16
240.785	3.7
241.162	4.14
241.539	3.95
241.915	3.79
242.292	3.66
242.668	4.04
243.045	4.32
243.421	4.06
243.798	4.2
244.174	4.21
244.551	4.18
244.927	3.97
245.303	3.99
245.679	4.03
246.056	4.16
246.432	4.16
246.808	3.99
247.184	3.62
247.56	3.43
247.936	3.14
248.312	3.19
248.688	3.38
249.064	3.09
249.44	3.07
249.815	2.97
250.191	2.9
250.567	2.65
250.943	2.47
251.318	2.56
251.694	2.64
252.069	2.8
252.445	2.49
252.82	2.57
253.196	2.31
253.571	2.09
253.947	1.81
254.322	1.95
254.697	1.82
255.073	1.77
255.448	1.58
255.823	2.02
256.198	2.15
256.573	2.16
256.948	2.28
257.323	2.35
257.698	2.34
258.073	2.53
258.448	2.65
258.823	2.53
259.198	2.51
259.573	2.44
259.948	2.37
260.322	2.62
260.697	2.48
261.072	2.46
261.446	2.56
261.821	2.81
262.195	2.76
262.57	2.83
262.944	2.84
263.319	2.84
263.693	2.77
264.067	2.85
264.442	2.74
264.816	2.7
265.19	2.69
265.564	2.83
265.938	2.9
266.313	2.8
266.687	2.87
267.061	2.96
267.435	3.13
267.809	3.14
268.183	3.04
268.556	3.04
268.93	3.24
269.304	3.23
269.678	3.14
270.051	3.14
270.425	3.08
270.799	3.35
271.172	3.52
271.546	3.46
271.919	3.33
272.293	3.47
272.666	3.44
273.04	3.47
273.413	3.32
273.787	3.34
274.16	3.47
274.533	3.46
274.906	3.4
275.279	3.36
275.653	3.36
276.026	3.29
276.399	3.33
276.772	3.29
277.145	3.25
277.518	3.28
277.891	3.24
278.263	3.23
278.636	3.15
279.009	2.99
279.382	3.09
279.755	3.08
280.127	3.23
280.5	3.45
280.872	3.33
281.245	3.35
281.617	3.33
281.99	3.29
282.362	3.4
282.735	3.29
283.107	3.24
283.479	3.38
283.852	3.5
284.224	3.51
284.596	3.58
284.968	3.56
285.34	3.6
285.713	3.56
286.085	3.58
286.457	3.63
286.829	3.73
287.201	3.79
287.572	3.83
287.944	3.77
288.316	3.72
288.688	3.73
289.06	3.8
289.431	3.79
289.803	3.82
290.175	3.81
290.546	4.09
290.918	4.1
291.289	4.02
291.661	4.06
292.032	4.15
292.403	4.17
292.775	4.26
293.146	4.21
293.517	4.39
293.889	4.53
294.26	4.58
294.631	4.6
295.002	4.51
295.373	4.59
295.744	4.55
296.115	4.55
296.486	4.58
296.857	4.58
297.228	4.55
297.599	4.59
297.97	4.61
298.34	4.58
298.711	4.59
299.082	4.64
299.452	4.61
299.823	4.69
300.194	4.55
300.564	4.48
300.935	4.46
301.305	4.39
301.676	4.34
302.046	4.34
302.416	4.43
302.787	4.45
303.157	4.38
303.527	4.38
303.897	4.36
304.267	4.51
304.637	4.53
305.008	4.67
305.378	4.77
305.748	4.78
306.117	4.67
306.487	4.76
306.857	4.8
307.227	4.91
307.597	4.96
307.967	5.04
308.336	5.09
308.706	5.17
309.076	5.29
309.445	5.31
309.815	5.28
310.184	5.26
310.554	5.31
310.923	5.36
311.293	5.52
311.662	5.49
312.031	5.52
312.401	5.51
312.77	5.55
313.139	5.56
313.508	5.65
313.877	5.75
314.246	5.77
314.616	5.78
314.985	5.77
315.353	5.79
315.722	5.83
316.091	5.97
316.46	6
316.829	6.02
317.198	6.15
317.567	6.27
317.935	6.51
318.304	6.6
318.672	6.57
319.041	6.55
319.41	6.68
319.778	6.62
320.147	6.72
320.515	6.76
320.883	6.76
321.252	6.81
321.62	6.81
321.988	6.84
322.357	7.04
322.725	7.14
323.093	7.19
323.461	7.27
323.829	7.29
324.197	7.39
324.565	7.51
324.933	7.45
325.301	7.47
325.669	7.39
326.037	7.39
326.405	7.53
326.772	7.56
327.14	7.67
327.508	7.71
327.875	7.79
328.243	7.86
328.61	7.86
328.978	7.87
329.346	8
329.713	8.08
330.08	8.09
330.448	8
330.815	7.89
331.182	7.88
331.55	7.96
331.917	8.05
332.284	8.05
332.651	8.04
333.018	8.06
333.385	8
333.752	8.15
334.119	8.31
334.486	8.35
334.853	8.41
335.22	8.59
335.587	8.68
335.954	8.63
336.32	8.64
336.687	8.66
337.054	8.59
337.42	8.54
337.787	8.59
338.153	8.7
338.52	8.82
338.886	8.87
339.253	8.77
339.619	8.74
339.986	8.72
340.352	8.86
340.718	8.86
341.084	8.92
341.451	8.92
341.817	8.82
342.183	8.86
342.549	8.81
342.915	8.76
343.281	8.74
343.647	8.83
344.013	8.84
344.379	8.82
344.745	8.9
345.11	8.92
345.476	9.01
345.842	9.14
346.208	9.18
346.573	9.21
346.939	9.29
347.304	9.31
347.67	9.32
348.035	9.39
348.401	9.42
348.766	9.44
349.132	9.55
349.497	9.57
349.862	9.61
350.228	9.65
350.593	9.61
350.958	9.63
351.323	9.56
351.688	9.57
352.053	9.68
352.418	9.67
352.783	9.77
353.148	9.59
353.513	9.49
353.878	9.47
354.243	9.46
354.608	9.47
354.972	9.52
355.337	9.56
355.702	9.5
356.066	9.56
356.431	9.59
356.795	9.5
357.16	9.51
357.524	9.44
357.889	9.38
358.253	9.38
358.618	9.37
358.982	9.35
359.346	9.39
359.71	9.39
360.075	9.4
360.439	9.35
360.803	9.39
361.167	9.29
361.531	9.28
361.895	9.22
362.259	9.21
362.623	9.2
362.987	9.08
363.351	9.11
363.714	9.06
364.078	9
364.442	8.94
364.806	8.9
365.169	8.83
365.533	8.81
365.896	8.79
366.26	8.79
366.623	8.79
366.987	8.75
367.35	8.7
367.714	8.68
368.077	8.68
368.44	8.6
368.803	8.67
369.167	8.64
369.53	8.63
369.893	8.59
370.256	8.55
370.619	8.59
370.982	8.49
371.345	8.38
371.708	8.39
372.071	8.39
372.434	8.36
372.797	8.38
373.159	8.36
373.522	8.35
373.885	8.26
374.247	8.18
374.61	8.12
374.973	7.97
375.335	7.96
375.698	7.88
376.06	7.81
376.423	7.7
376.785	7.64
377.147	7.69
377.51	7.61
377.872	7.57
378.234	7.51
378.596	7.49
378.958	7.45
379.321	7.39
379.683	7.32
380.045	7.24
380.407	7.17
380.769	7.09
381.13	7
381.492	6.91
381.854	6.87
382.216	6.82
382.578	6.86
382.939	6.74
383.301	6.67
383.663	6.65
384.024	6.61
384.386	6.63
384.747	6.57
385.109	6.53
385.47	6.45
385.832	6.44
386.193	6.37
386.554	6.33
386.916	6.27
387.277	6.24
387.638	6.22
387.999	6.16
388.36	6.15
388.721	6.11
389.082	6.09
389.443	6.07
389.804	6.03
390.165	5.98
390.526	5.98
390.887	5.93
391.248	5.94
391.609	5.9
391.969	5.82
392.33	5.75
392.691	5.77
393.051	5.71
393.412	5.68
393.772	5.65
394.133	5.65
394.493	5.63
394.854	5.61
395.214	5.56
395.574	5.52
395.935	5.47
396.295	5.44
396.655	5.38
397.015	5.31
397.376	5.28
397.736	5.21
398.096	5.16
398.456	5.14
398.816	5.07
399.176	5.06
399.535	5.02
399.895	4.97
400.255	4.89
400.615	4.86
400.975	4.82
401.334	4.76
401.694	4.72
402.054	4.68
402.413	4.63
402.773	4.6
403.132	4.6
403.492	4.62
403.851	4.58
404.211	4.61
404.57	4.59
404.929	4.59
405.288	4.57
405.648	4.54
406.007	4.5
406.366	4.51
406.725	4.5
407.084	4.5
407.443	4.49
407.802	4.47
408.161	4.47
408.52	4.46
408.879	4.47
409.238	4.46
409.596	4.46
409.955	4.44
410.314	4.43
410.673	4.41
411.031	4.38
411.39	4.37
411.748	4.33
412.107	4.33
412.465	4.3
412.824	4.27
413.182	4.24
413.54	4.25
413.899	4.22
414.257	4.19
414.615	4.16
414.974	4.14
415.332	4.12
415.69	4.09
416.048	4.07
416.406	4.05
416.764	4.03
417.122	4.02
417.48	4
417.838	4
418.195	3.99
418.553	3.97
418.911	3.95
419.269	3.95
419.626	3.94
419.984	3.92
420.342	3.93
420.699	3.92
421.057	3.89
421.414	3.88
421.772	3.86
422.129	3.85
422.486	3.84
422.844	3.83
423.201	3.82
423.558	3.8
423.915	3.78
424.273	3.76
424.63	3.74
424.987	3.73
425.344	3.71
425.701	3.69
426.058	3.68
426.415	3.67
426.772	3.65
427.128	3.61
427.485	3.61
427.842	3.57
428.199	3.57
428.555	3.55
428.912	3.53
429.269	3.53
429.625	3.52
429.982	3.53
430.338	3.53
430.695	3.54
431.051	3.52
431.407	3.52
431.764	3.51
432.12	3.51
432.476	3.5
432.832	3.49
433.189	3.48
433.545	3.47
433.901	3.48
434.257	3.48
434.613	3.49
434.969	3.49
435.325	3.5
435.681	3.5
436.036	3.51
436.392	3.52
436.748	3.52
437.104	3.52
437.459	3.49
437.815	3.49
438.171	3.47
438.526	3.5
438.882	3.51
439.237	3.52
439.593	3.53
439.948	3.54
440.304	3.56
440.659	3.57
441.014	3.58
441.369	3.57
441.725	3.55
442.08	3.54
442.435	3.53
442.79	3.53
443.145	3.53
443.5	3.52
443.855	3.49
444.21	3.49
444.565	3.49
444.92	3.49
445.275	3.47
445.629	3.45
445.984	3.43
446.339	3.42
446.693	3.4
447.048	3.38
447.403	3.36
447.757	3.35
448.112	3.33
448.466	3.31
448.82	3.32
449.175	3.31
449.529	3.3
449.883	3.28
450.238	3.27
450.592	3.26
450.946	3.25
451.3	3.25
451.654	3.24
452.008	3.24
452.362	3.22
452.716	3.24
453.07	3.27
453.424	3.28
453.778	3.27
454.132	3.27
454.486	3.27
454.839	3.27
455.193	3.26
455.547	3.26
455.9	3.26
456.254	3.26
456.607	3.26
456.961	3.28
457.314	3.29
457.668	3.28
458.021	3.26
458.375	3.27
458.728	3.27
459.081	3.25
459.434	3.24
459.787	3.25
460.141	3.24
460.494	3.21
460.847	3.2
461.2	3.2
461.553	3.21
461.906	3.21
462.259	3.23
462.611	3.24
462.964	3.25
463.317	3.27
463.67	3.25
464.022	3.26
464.375	3.27
464.728	3.29
465.08	3.3
465.433	3.33
465.785	3.33
466.138	3.34
466.49	3.39
466.843	3.4
467.195	3.42
467.547	3.43
467.899	3.43
468.252	3.45
468.604	3.46
468.956	3.45
469.308	3.46
469.66	3.44
470.012	3.45
470.364	3.45
470.716	3.45
471.068	3.49
471.42	3.49
471.772	3.5
472.123	3.5
472.475	3.52
472.827	3.51
473.178	3.52
473.53	3.52
473.882	3.5
474.233	3.49
474.585	3.47
474.936	3.48
475.288	3.49
475.639	3.48
475.99	3.5
476.342	3.5
476.693	3.51
477.044	3.52
477.395	3.51
477.746	3.49
478.097	3.49
478.448	3.48
478.8	3.47
479.15	3.45
479.501	3.45
479.852	3.43
480.203	3.43
480.554	3.45
480.905	3.46
481.255	3.47
481.606	3.47
481.957	3.48
482.307	3.48
482.658	3.49
483.009	3.48
483.359	3.48
483.709	3.49
484.06	3.48
484.41	3.49
484.761	3.48
485.111	3.49
485.461	3.48
485.811	3.48
486.162	3.48
486.512	3.49
486.862	3.49
487.212	3.5
487.562	3.51
487.912	3.5
488.262	3.5
488.612	3.5
488.961	3.5
489.311	3.51
489.661	3.5
490.011	3.5
490.36	3.51
490.71	3.52
491.06	3.52
491.409	3.53
491.759	3.53
492.108	3.55
492.458	3.56
492.807	3.57
493.157	3.59
493.506	3.6
493.855	3.6
494.204	3.61
494.554	3.63
494.903	3.63
495.252	3.63
495.601	3.66
495.95	3.68
496.299	3.7
496.648	3.72
496.997	3.76
497.346	3.79
497.695	3.82
498.043	3.83
498.392	3.85
498.741	3.88
499.09	3.92
499.438	3.96
499.787	4
500.135	4.05
500.484	4.09
500.832	4.16
501.181	4.21
501.529	4.25
501.878	4.31
502.226	4.37
502.574	4.43
502.923	4.48
503.271	4.52
503.619	4.6
503.967	4.64
504.315	4.69
504.663	4.75
505.011	4.81
505.359	4.87
505.707	4.94
506.055	4.98
506.403	5.04
506.751	5.11
507.098	5.18
507.446	5.24
507.794	5.29
508.141	5.34
508.489	5.4
508.837	5.47
509.184	5.53
509.531	5.61
509.879	5.68
510.226	5.75
510.574	5.83
510.921	5.89
511.268	5.95
511.616	6.04
511.963	6.09
512.31	6.18
512.657	6.26
513.004	6.35
513.351	6.46
513.698	6.55
514.045	6.64
514.392	6.72
514.739	6.81
515.086	6.93
515.432	7.02
515.779	7.11
516.126	7.2
516.473	7.29
516.819	7.39
517.166	7.47
517.512	7.55
517.859	7.63
518.205	7.73
518.552	7.83
518.898	7.92
519.245	8.02
519.591	8.11
519.937	8.21
520.283	8.32
520.629	8.4
520.976	8.53
521.322	8.67
521.668	8.8
522.014	8.93
522.36	9.04
522.706	9.2
523.052	9.39
523.398	9.55
523.743	9.75
524.089	9.95
524.435	10.12
524.781	10.3
525.126	10.47
525.472	10.62
525.817	10.78
526.163	10.94
526.509	11.07
526.854	11.2
527.199	11.31
527.545	11.43
527.89	11.56
528.235	11.69
528.581	11.83
528.926	11.96
529.271	12.09
529.616	12.24
529.961	12.38
530.306	12.52
530.651	12.67
530.996	12.83
531.341	12.99
531.686	13.18
532.031	13.39
532.376	13.59
532.721	13.79
533.065	14
533.41	14.2
533.755	14.44
534.099	14.67
534.444	14.91
534.788	15.17
535.133	15.42
535.477	15.64
535.822	15.9
536.166	16.19
536.51	16.52
536.855	16.87
537.199	17.21
537.543	17.56
537.887	17.92
538.231	18.28
538.576	18.64
538.92	19.01
539.264	19.31
539.608	19.62
539.951	19.94
540.295	20.24
540.639	20.52
540.983	20.8
541.327	21.11
541.671	21.39
542.014	21.66
542.358	21.94
542.701	22.23
543.045	22.48
543.389	22.74
543.732	23.02
544.075	23.27
544.419	23.56
544.762	23.86
545.105	24.2
545.449	24.53
545.792	24.89
546.135	25.23
546.478	25.63
546.821	26.03
547.165	26.42
547.508	26.81
547.851	27.24
548.194	27.62
548.536	28.03
548.879	28.44
549.222	28.87
549.565	29.29
549.908	29.71
550.25	30.21
550.593	30.68
550.936	31.09
551.278	31.54
551.621	31.93
551.963	32.35
552.306	32.78
552.648	33.14
552.991	33.49
553.333	33.85
553.675	34.21
554.017	34.59
554.36	34.97
554.702	35.34
555.044	35.67
555.386	36.07
555.728	36.41
556.07	36.75
556.412	37.07
556.754	37.38
557.096	37.74
557.438	38.06
557.78	38.38
558.121	38.75
558.463	39.06
558.805	39.42
559.147	39.73
559.488	39.98
559.83	40.3
560.171	40.63
560.513	40.97
560.854	41.28
561.196	41.59
561.537	41.9
561.878	42.18
562.22	42.41
562.561	42.68
562.902	42.9
563.243	43.19
563.584	43.46
563.925	43.75
564.266	43.98
564.607	44.25
564.948	44.46
565.289	44.7
565.63	44.9
565.971	45.15
566.312	45.34
566.653	45.58
566.993	45.79
567.334	46
567.675	46.12
568.015	46.34
568.356	46.51
568.696	46.67
569.037	46.86
569.377	47.13
569.718	47.31
570.058	47.53
570.398	47.68
570.739	47.88
571.079	48.07
571.419	48.25
571.759	48.42
572.099	48.6
572.439	48.75
572.779	48.95
573.119	49.09
573.459	49.29
573.799	49.44
574.139	49.6
574.479	49.74
574.819	49.94
575.158	50.01
575.498	50.16
575.838	50.34
576.177	50.47
576.517	50.62
576.856	50.74
577.196	50.93
577.535	51.14
577.875	51.29
578.214	51.37
578.553	51.47
578.893	51.59
579.232	51.75
579.571	51.9
579.91	52.12
580.25	52.22
580.589	52.4
580.928	52.55
581.267	52.7
581.606	52.89
581.945	53.05
582.283	53.24
582.622	53.44
582.961	53.55
583.3	53.68
583.639	53.75
583.977	53.88
584.316	54.01
584.654	54.14
584.993	54.22
585.332	54.4
585.67	54.6
586.008	54.65
586.347	54.77
586.685	54.88
587.024	54.92
587.362	55.03
587.7	55
588.038	55.16
588.376	55.2
588.715	55.27
589.053	55.29
589.391	55.38
589.729	55.4
590.067	55.43
590.404	55.55
590.742	55.64
591.08	55.75
591.418	55.79
591.756	55.89
592.093	55.96
592.431	56.02
592.769	56.04
593.106	56.14
593.444	56.21
593.781	56.32
594.119	56.45
594.456	56.45
594.793	56.56
595.131	56.61
595.468	56.69
595.805	56.76
596.143	56.91
596.48	57.02
596.817	57.09
597.154	57.13
597.491	57.2
597.828	57.27
598.165	57.33
598.502	57.36
598.839	57.38
599.176	57.48
599.512	57.57
599.849	57.65
600.186	57.71
600.523	57.78
600.859	57.85
601.196	57.86
601.532	58.01
601.869	58.03
602.205	58.09
602.542	58.19
602.878	58.21
603.215	58.24
603.551	58.31
603.887	58.38
604.223	58.46
604.56	58.52
604.896	58.59
605.232	58.67
605.568	58.75
605.904	58.79
606.24	58.82
606.576	58.84
606.912	58.89
607.248	59
607.583	59.01
607.919	59.03
608.255	59.11
608.591	59.17
608.926	59.28
609.262	59.34
609.597	59.44
609.933	59.56
610.268	59.64
610.604	59.62
610.939	59.64
611.275	59.71
611.61	59.75
611.945	59.71
612.281	59.77
612.616	59.79
612.951	59.92
613.286	59.96
613.621	60.05
613.956	60.16
614.291	60.18
614.626	60.2
614.961	60.28
615.296	60.29
615.631	60.39
615.966	60.41
616.3	60.44
616.635	60.35
616.97	60.4
617.304	60.46
617.639	60.57
617.973	60.63
618.308	60.6
618.642	60.6
618.977	60.67
619.311	60.68
619.646	60.75
619.98	60.73
620.314	60.65
620.648	60.71
620.983	60.75
621.317	60.84
621.651	60.93
621.985	60.97
622.319	60.94
622.653	60.94
622.987	60.97
623.321	60.98
623.655	61.05
623.988	61.11
624.322	61.1
624.656	61.11
624.99	61.15
625.323	61.22
625.657	61.24
625.99	61.33
626.324	61.37
626.657	61.41
626.991	61.45
627.324	61.54
627.658	61.57
627.991	61.62
628.324	61.6
628.657	61.69
628.991	61.65
629.324	61.69
629.657	61.79
629.99	61.82
630.323	61.95
630.656	61.9
630.989	61.91
631.322	61.97
631.655	61.93
631.987	62
632.32	62.08
632.653	62.19
632.986	62.24
633.318	62.23
633.651	62.28
633.984	62.31
634.316	62.38
634.649	62.44
634.981	62.43
635.313	62.42
635.646	62.39
635.978	62.47
636.31	62.58
636.643	62.52
636.975	62.58
637.307	62.51
637.639	62.55
637.971	62.6
638.303	62.51
638.635	62.53
638.967	62.55
639.299	62.6
639.631	62.63
639.963	62.61
640.295	62.61
640.626	62.61
640.958	62.67
641.29	62.71
641.621	62.75
641.953	62.77
642.285	62.83
642.616	62.86
642.948	62.91
643.279	62.86
643.61	62.9
643.942	62.82
644.273	62.78
644.604	62.82
644.936	62.74
645.267	62.86
645.598	62.95
645.929	62.91
646.26	62.93
646.591	62.85
646.922	62.85
647.253	62.92
647.584	62.86
647.915	62.98
648.245	63.1
648.576	63.02
648.907	63.05
649.238	63.01
649.568	63.03
649.899	62.98
650.229	63.04
650.56	63.09
650.89	63.26
651.221	63.35
651.551	63.37
651.882	63.48
652.212	63.52
652.542	63.59
652.872	63.56
653.203	63.51
653.533	63.66
653.863	63.67
654.193	63.75
654.523	63.85
654.853	63.73
655.183	63.74
655.513	63.77
655.843	63.76
656.172	63.84
656.502	63.89
656.832	64.07
657.162	63.96
657.491	63.92
657.821	63.94
658.15	63.84
658.48	63.99
658.809	63.97
659.139	63.94
659.468	63.93
659.798	63.97
660.127	64.06
660.456	64.04
660.785	64.05
661.115	63.98
661.444	64.05
661.773	64.09
662.102	63.93
662.431	63.93
662.76	63.97
663.089	63.93
663.418	63.91
663.747	63.68
664.076	63.74
664.404	63.77
664.733	63.76
665.062	63.8
665.39	63.77
665.719	63.81
666.048	63.89
666.376	63.98
666.705	64.11
