Data from BA56813_Reflection_00002.txt Node
Date: Mon Nov 18 15:50:30 EST 2019
User: vgr7
Spectrometer: USB2G7710
Scans to average: 3
Trigger mode: 4
Integration Time (sec): 2.000000E-2
Electric dark correction enabled: true
Boxcar width: 10
XAxis mode: Wavelengths
Number of Pixels in Spectrum: 2048
>>>>>Begin Spectral Data<<<<<
177.721	115.98
178.105	96.47
178.488	248.07
178.871	125.07
179.254	94.99
179.636	9.84
180.019	170.35
180.402	200
180.785	114.39
181.168	267.49
181.55	103.43
181.933	113.58
182.316	85.16
182.698	91.73
183.081	110.86
183.463	100.96
183.846	101.01
184.228	76.2
184.611	61.84
184.993	66.9
185.376	69.78
185.758	106.48
186.14	100.81
186.522	100.94
186.904	92.3
187.287	76.72
187.669	59.32
188.051	54.37
188.433	54.95
188.815	41.94
189.197	35.31
189.579	42.21
189.961	17.48
190.342	34.84
190.724	46.74
191.106	116.63
191.488	-522.75
191.869	-188.43
192.251	-158.35
192.633	-124.96
193.014	-846.11
193.396	-568.9
193.777	-821.47
194.159	-1752.63
194.54	-476.37
194.922	-1121.48
195.303	-157.65
195.684	-124.01
196.065	-111.49
196.447	-189.41
196.828	-150.42
197.209	-127.43
197.59	-130.04
197.971	-114.31
198.352	-63.25
198.733	-104.19
199.114	-76.36
199.495	-73.83
199.876	-75.86
200.257	-81.25
200.638	-83.38
201.018	-67.62
201.399	-58.59
201.78	-33.95
202.16	-66.23
202.541	-159.13
202.922	-188.71
203.302	-197.57
203.683	-158.49
204.063	-201.92
204.444	-220.13
204.824	-212.57
205.204	-197.49
205.585	-149.43
205.965	-163.97
206.345	-1886.01
206.725	697.4
207.106	282.6
207.486	244.28
207.866	232.63
208.246	233.56
208.626	332.83
209.006	214.29
209.386	285.65
209.766	435.44
210.145	489.98
210.525	-1316.06
210.905	-268.17
211.285	-642.86
211.664	-2374.58
212.044	-3042.86
212.424	-144.99
212.803	3280.33
213.183	-702.03
213.562	-347.59
213.942	-68.56
214.321	-18.05
214.701	-26.73
215.08	-27.59
215.459	-22.55
215.838	-22.29
216.218	-32.85
216.597	-15.72
216.976	-8.14
217.355	11.88
217.734	22.19
218.113	18.37
218.492	4.23
218.871	13.26
219.25	4.99
219.629	-0.36
220.008	-7.5
220.387	-10.72
220.766	6.58
221.144	-4.36
221.523	-15.39
221.902	-33.95
222.28	-30.02
222.659	-16.8
223.037	-16.62
223.416	-13.69
223.794	-15.93
224.173	-14.3
224.551	-12.5
224.929	-25.82
225.308	-22.13
225.686	-20.49
226.064	-17.6
226.442	-12.75
226.821	-10.83
227.199	-10.29
227.577	-12.47
227.955	-11.03
228.333	-7.14
228.711	-6.52
229.089	-0.86
229.467	-2.61
229.845	-1.7
230.222	-2.03
230.6	-4.36
230.978	-3.1
231.356	-2.2
231.733	-1.57
232.111	0.28
232.488	-1.83
232.866	-0.66
233.243	-0.36
233.621	0.1
233.998	1.35
234.376	-0.77
234.753	-1
235.13	0.09
235.508	2.23
235.885	3.35
236.262	1.93
236.639	1.81
237.016	-0.07
237.393	2.2
237.77	2.98
238.147	2.78
238.524	3.02
238.901	3.2
239.278	3.27
239.655	3.55
240.032	3.52
240.409	3.63
240.785	3.89
241.162	4.08
241.539	4.05
241.915	4.3
242.292	4.77
242.668	4.76
243.045	5.03
243.421	4.93
243.798	5.08
244.174	5.03
244.551	4.73
244.927	4.76
245.303	4.89
245.679	4.82
246.056	4.87
246.432	4.85
246.808	4.75
247.184	4.54
247.56	4.28
247.936	4.33
248.312	4.18
248.688	4.24
249.064	4.2
249.44	4.15
249.815	4.01
250.191	3.96
250.567	4.1
250.943	3.78
251.318	3.63
251.694	3.4
252.069	3.47
252.445	3.58
252.82	3.33
253.196	3.11
253.571	2.9
253.947	2.93
254.322	2.96
254.697	2.9
255.073	2.88
255.448	2.87
255.823	2.99
256.198	3.22
256.573	3.2
256.948	3.33
257.323	3.43
257.698	3.44
258.073	3.55
258.448	3.53
258.823	3.61
259.198	3.66
259.573	3.65
259.948	3.62
260.322	3.68
260.697	3.75
261.072	3.65
261.446	3.78
261.821	3.61
262.195	3.68
262.57	3.68
262.944	3.71
263.319	3.83
263.693	3.7
264.067	3.9
264.442	3.97
264.816	4
265.19	3.95
265.564	3.79
265.938	3.58
266.313	3.39
266.687	3.36
267.061	3.5
267.435	3.51
267.809	3.45
268.183	3.44
268.556	3.61
268.93	3.64
269.304	3.61
269.678	3.82
270.051	3.79
270.425	3.86
270.799	3.94
271.172	3.83
271.546	3.82
271.919	3.7
272.293	3.73
272.666	3.55
273.04	3.64
273.413	3.73
273.787	3.94
274.16	3.99
274.533	4.15
274.906	4.04
275.279	3.99
275.653	4.11
276.026	4.21
276.399	4.03
276.772	4.2
277.145	4.11
277.518	4.06
277.891	4.01
278.263	3.99
278.636	3.93
279.009	3.83
279.382	3.93
279.755	3.95
280.127	3.94
280.5	4.09
280.872	4.03
281.245	3.93
281.617	4.07
281.99	4
282.362	3.9
282.735	3.88
283.107	3.84
283.479	3.85
283.852	3.76
284.224	3.71
284.596	3.7
284.968	3.76
285.34	3.72
285.713	3.78
286.085	3.83
286.457	3.92
286.829	4.11
287.201	4.13
287.572	4.17
287.944	4.12
288.316	4.06
288.688	4.08
289.06	4.23
289.431	4.18
289.803	4.36
290.175	4.42
290.546	4.5
290.918	4.71
291.289	4.66
291.661	4.69
292.032	4.85
292.403	4.89
292.775	4.98
293.146	5.01
293.517	5.01
293.889	5.1
294.26	5.08
294.631	5.16
295.002	5.25
295.373	5.18
295.744	5.22
296.115	5.3
296.486	5.34
296.857	5.21
297.228	5.16
297.599	5.02
297.97	5
298.34	5.02
298.711	4.98
299.082	5
299.452	5.04
299.823	5.12
300.194	5.17
300.564	5.12
300.935	5.26
301.305	5.25
301.676	5.24
302.046	5.28
302.416	5.24
302.787	5.06
303.157	5.09
303.527	5.11
303.897	5.07
304.267	5.04
304.637	5.28
305.008	5.36
305.378	5.48
305.748	5.58
306.117	5.59
306.487	5.51
306.857	5.56
307.227	5.55
307.597	5.62
307.967	5.43
308.336	5.49
308.706	5.43
309.076	5.49
309.445	5.35
309.815	5.3
310.184	5.29
310.554	5.45
310.923	5.35
311.293	5.44
311.662	5.46
312.031	5.38
312.401	5.33
312.77	5.29
313.139	5.19
313.508	5.19
313.877	5.15
314.246	5.2
314.616	5.19
314.985	5.2
315.353	5
315.722	5.11
316.091	5.04
316.46	5.01
316.829	5.04
317.198	5.18
317.567	5.22
317.935	5.24
318.304	5.1
318.672	5.17
319.041	5.12
319.41	5.04
319.778	5.01
320.147	4.88
320.515	5
320.883	5.11
321.252	5.13
321.62	5.07
321.988	5
322.357	4.94
322.725	4.89
323.093	5.03
323.461	5.07
323.829	5.17
324.197	5.21
324.565	5.23
324.933	5.23
325.301	5.2
325.669	5.16
326.037	5.2
326.405	5.28
326.772	5.4
327.14	5.6
327.508	5.71
327.875	5.74
328.243	5.69
328.61	5.67
328.978	5.67
329.346	5.77
329.713	5.77
330.08	5.89
330.448	5.84
330.815	5.76
331.182	5.73
331.55	5.63
331.917	5.6
332.284	5.7
332.651	5.61
333.018	5.7
333.385	5.77
333.752	5.79
334.119	5.76
334.486	5.56
334.853	5.4
335.22	5.39
335.587	5.45
335.954	5.35
336.32	5.32
336.687	5.31
337.054	5.31
337.42	5.34
337.787	5.28
338.153	5.42
338.52	5.48
338.886	5.37
339.253	5.22
339.619	5.3
339.986	5.26
340.352	5.37
340.718	5.34
341.084	5.23
341.451	5.26
341.817	5.26
342.183	5.31
342.549	5.31
342.915	5.32
343.281	5.36
343.647	5.37
344.013	5.47
344.379	5.42
344.745	5.41
345.11	5.4
345.476	5.32
345.842	5.23
346.208	5.19
346.573	5.27
346.939	5.47
347.304	5.42
347.67	5.27
348.035	5.28
348.401	5.23
348.766	5.29
349.132	5.29
349.497	5.28
349.862	5.3
350.228	5.37
350.593	5.33
350.958	5.41
351.323	5.51
351.688	5.46
352.053	5.51
352.418	5.61
352.783	5.64
353.148	5.74
353.513	5.78
353.878	5.88
354.243	5.93
354.608	5.91
354.972	5.9
355.337	6.02
355.702	5.96
356.066	5.96
356.431	5.95
356.795	6.02
357.16	6.02
357.524	5.95
357.889	5.88
358.253	5.91
358.618	5.81
358.982	5.8
359.346	5.77
359.71	5.75
360.075	5.69
360.439	5.73
360.803	5.7
361.167	5.66
361.531	5.56
361.895	5.49
362.259	5.45
362.623	5.45
362.987	5.38
363.351	5.4
363.714	5.47
364.078	5.45
364.442	5.38
364.806	5.4
365.169	5.43
365.533	5.45
365.896	5.45
366.26	5.47
366.623	5.47
366.987	5.52
367.35	5.56
367.714	5.61
368.077	5.54
368.44	5.51
368.803	5.55
369.167	5.59
369.53	5.65
369.893	5.71
370.256	5.76
370.619	5.85
370.982	5.83
371.345	5.79
371.708	5.79
372.071	5.75
372.434	5.73
372.797	5.73
373.159	5.76
373.522	5.77
373.885	5.8
374.247	5.77
374.61	5.67
374.973	5.63
375.335	5.56
375.698	5.58
376.06	5.64
376.423	5.64
376.785	5.72
377.147	5.7
377.51	5.68
377.872	5.66
378.234	5.62
378.596	5.64
378.958	5.61
379.321	5.66
379.683	5.71
380.045	5.72
380.407	5.71
380.769	5.7
381.13	5.66
381.492	5.67
381.854	5.69
382.216	5.7
382.578	5.68
382.939	5.71
383.301	5.74
383.663	5.68
384.024	5.67
384.386	5.68
384.747	5.64
385.109	5.67
385.47	5.69
385.832	5.68
386.193	5.71
386.554	5.68
386.916	5.64
387.277	5.63
387.638	5.69
387.999	5.71
388.36	5.67
388.721	5.75
389.082	5.71
389.443	5.7
389.804	5.74
390.165	5.75
390.526	5.75
390.887	5.77
391.248	5.83
391.609	5.89
391.969	5.88
392.33	5.9
392.691	5.9
393.051	5.88
393.412	5.87
393.772	5.83
394.133	5.89
394.493	5.91
394.854	5.93
395.214	5.89
395.574	5.88
395.935	5.89
396.295	5.89
396.655	5.91
397.015	5.91
397.376	5.91
397.736	5.91
398.096	5.91
398.456	5.9
398.816	5.9
399.176	5.84
399.535	5.8
399.895	5.8
400.255	5.79
400.615	5.8
400.975	5.82
401.334	5.81
401.694	5.8
402.054	5.76
402.413	5.77
402.773	5.77
403.132	5.78
403.492	5.79
403.851	5.79
404.211	5.82
404.57	5.8
404.929	5.83
405.288	5.85
405.648	5.82
406.007	5.82
406.366	5.8
406.725	5.84
407.084	5.87
407.443	5.88
407.802	5.9
408.161	5.9
408.52	5.9
408.879	5.9
409.238	5.87
409.596	5.91
409.955	5.9
410.314	5.92
410.673	5.9
411.031	5.9
411.39	5.93
411.748	5.88
412.107	5.87
412.465	5.83
412.824	5.82
413.182	5.82
413.54	5.82
413.899	5.85
414.257	5.84
414.615	5.84
414.974	5.82
415.332	5.8
415.69	5.8
416.048	5.79
416.406	5.83
416.764	5.86
417.122	5.87
417.48	5.84
417.838	5.83
418.195	5.84
418.553	5.84
418.911	5.81
419.269	5.81
419.626	5.84
419.984	5.85
420.342	5.87
420.699	5.88
421.057	5.89
421.414	5.88
421.772	5.87
422.129	5.87
422.486	5.89
422.844	5.89
423.201	5.89
423.558	5.91
423.915	5.92
424.273	5.91
424.63	5.9
424.987	5.93
425.344	5.93
425.701	5.94
426.058	5.94
426.415	5.96
426.772	5.97
427.128	5.95
427.485	5.94
427.842	5.94
428.199	5.95
428.555	5.94
428.912	5.93
429.269	5.94
429.625	5.93
429.982	5.91
430.338	5.9
430.695	5.91
431.051	5.89
431.407	5.86
431.764	5.84
432.12	5.83
432.476	5.82
432.832	5.79
433.189	5.79
433.545	5.76
433.901	5.76
434.257	5.77
434.613	5.79
434.969	5.82
435.325	5.83
435.681	5.85
436.036	5.85
436.392	5.85
436.748	5.83
437.104	5.85
437.459	5.87
437.815	5.9
438.171	5.91
438.526	5.91
438.882	5.92
439.237	5.94
439.593	5.97
439.948	5.99
440.304	6
440.659	6.01
441.014	6.03
441.369	6.01
441.725	6.01
442.08	6.01
442.435	6.01
442.79	6
443.145	5.99
443.5	5.97
443.855	6
444.21	6.02
444.565	6.03
444.92	6.03
445.275	6
445.629	5.99
445.984	6
446.339	5.99
446.693	5.98
447.048	5.96
447.403	5.96
447.757	5.96
448.112	5.95
448.466	5.93
448.82	5.94
449.175	5.96
449.529	5.95
449.883	5.94
450.238	5.91
450.592	5.91
450.946	5.92
451.3	5.9
451.654	5.9
452.008	5.89
452.362	5.86
452.716	5.9
453.07	5.92
453.424	5.9
453.778	5.9
454.132	5.89
454.486	5.89
454.839	5.88
455.193	5.86
455.547	5.88
455.9	5.92
456.254	5.94
456.607	5.92
456.961	5.92
457.314	5.93
457.668	5.96
458.021	5.95
458.375	5.95
458.728	5.94
459.081	5.94
459.434	5.94
459.787	5.96
460.141	5.96
460.494	5.95
460.847	5.96
461.2	5.96
461.553	5.98
461.906	5.98
462.259	6
462.611	6.01
462.964	6.01
463.317	6.02
463.67	6.02
464.022	6.04
464.375	6.04
464.728	6.05
465.08	6.04
465.433	6.04
465.785	6.03
466.138	6.05
466.49	6.02
466.843	6
467.195	5.98
467.547	5.98
467.899	5.96
468.252	5.94
468.604	5.97
468.956	5.95
469.308	5.95
469.66	5.94
470.012	5.97
470.364	6
470.716	5.99
471.068	5.96
471.42	5.97
471.772	5.99
472.123	5.99
472.475	5.99
472.827	6
473.178	6
473.53	5.99
473.882	6
474.233	6.01
474.585	6.03
474.936	6.01
475.288	6.01
475.639	6.05
475.99	6.04
476.342	6.05
476.693	6.08
477.044	6.07
477.395	6.05
477.746	6.03
478.097	6.02
478.448	6.04
478.8	6.04
479.15	6.02
479.501	6.04
479.852	6.06
480.203	6.07
480.554	6.08
480.905	6.1
481.255	6.12
481.606	6.15
481.957	6.15
482.307	6.17
482.658	6.17
483.009	6.17
483.359	6.17
483.709	6.18
484.06	6.18
484.41	6.2
484.761	6.2
485.111	6.2
485.461	6.2
485.811	6.2
486.162	6.2
486.512	6.21
486.862	6.21
487.212	6.21
487.562	6.22
487.912	6.22
488.262	6.22
488.612	6.22
488.961	6.21
489.311	6.2
489.661	6.2
490.011	6.2
490.36	6.2
490.71	6.19
491.06	6.19
491.409	6.19
491.759	6.19
492.108	6.18
492.458	6.18
492.807	6.16
493.157	6.15
493.506	6.17
493.855	6.17
494.204	6.16
494.554	6.15
494.903	6.14
495.252	6.13
495.601	6.13
495.95	6.14
496.299	6.14
496.648	6.14
496.997	6.14
497.346	6.14
497.695	6.14
498.043	6.15
498.392	6.14
498.741	6.14
499.09	6.12
499.438	6.14
499.787	6.17
500.135	6.18
500.484	6.19
500.832	6.19
501.181	6.21
501.529	6.23
501.878	6.23
502.226	6.23
502.574	6.23
502.923	6.21
503.271	6.21
503.619	6.23
503.967	6.23
504.315	6.23
504.663	6.22
505.011	6.23
505.359	6.22
505.707	6.25
506.055	6.23
506.403	6.25
506.751	6.26
507.098	6.24
507.446	6.27
507.794	6.27
508.141	6.28
508.489	6.26
508.837	6.27
509.184	6.27
509.531	6.28
509.879	6.3
510.226	6.32
510.574	6.32
510.921	6.31
511.268	6.31
511.616	6.33
511.963	6.35
512.31	6.35
512.657	6.37
513.004	6.39
513.351	6.39
513.698	6.38
514.045	6.36
514.392	6.39
514.739	6.38
515.086	6.38
515.432	6.37
515.779	6.35
516.126	6.35
516.473	6.35
516.819	6.35
517.166	6.35
517.512	6.35
517.859	6.35
518.205	6.35
518.552	6.35
518.898	6.35
519.245	6.36
519.591	6.36
519.937	6.33
520.283	6.31
520.629	6.33
520.976	6.33
521.322	6.35
521.668	6.33
522.014	6.33
522.36	6.33
522.706	6.34
523.052	6.37
523.398	6.38
523.743	6.39
524.089	6.4
524.435	6.42
524.781	6.42
525.126	6.44
525.472	6.46
525.817	6.46
526.163	6.46
526.509	6.47
526.854	6.48
527.199	6.5
527.545	6.5
527.89	6.5
528.235	6.5
528.581	6.5
528.926	6.51
529.271	6.51
529.616	6.51
529.961	6.53
530.306	6.53
530.651	6.51
530.996	6.51
531.341	6.52
531.686	6.5
532.031	6.51
532.376	6.51
532.721	6.5
533.065	6.5
533.41	6.51
533.755	6.48
534.099	6.47
534.444	6.48
534.788	6.48
535.133	6.49
535.477	6.49
535.822	6.49
536.166	6.48
536.51	6.49
536.855	6.49
537.199	6.47
537.543	6.48
537.887	6.49
538.231	6.5
538.576	6.49
538.92	6.49
539.264	6.48
539.608	6.48
539.951	6.48
540.295	6.48
540.639	6.49
540.983	6.49
541.327	6.5
541.671	6.5
542.014	6.51
542.358	6.5
542.701	6.5
543.045	6.49
543.389	6.5
543.732	6.49
544.075	6.51
544.419	6.52
544.762	6.52
545.105	6.53
545.449	6.53
545.792	6.55
546.135	6.56
546.478	6.57
546.821	6.56
547.165	6.54
547.508	6.55
547.851	6.55
548.194	6.57
548.536	6.57
548.879	6.57
549.222	6.57
549.565	6.57
549.908	6.6
550.25	6.63
550.593	6.64
550.936	6.62
551.278	6.59
551.621	6.58
551.963	6.58
552.306	6.56
552.648	6.6
552.991	6.6
553.333	6.61
553.675	6.58
554.017	6.61
554.36	6.63
554.702	6.63
555.044	6.63
555.386	6.63
555.728	6.65
556.07	6.64
556.412	6.63
556.754	6.64
557.096	6.64
557.438	6.63
557.78	6.62
558.121	6.64
558.463	6.67
558.805	6.7
559.147	6.7
559.488	6.7
559.83	6.68
560.171	6.68
560.513	6.7
560.854	6.69
561.196	6.69
561.537	6.7
561.878	6.7
562.22	6.72
562.561	6.69
562.902	6.68
563.243	6.69
563.584	6.7
563.925	6.71
564.266	6.68
564.607	6.69
564.948	6.73
565.289	6.76
565.63	6.75
565.971	6.71
566.312	6.72
566.653	6.7
566.993	6.69
567.334	6.68
567.675	6.65
568.015	6.7
568.356	6.69
568.696	6.7
569.037	6.73
569.377	6.7
569.718	6.74
570.058	6.72
570.398	6.72
570.739	6.75
571.079	6.73
571.419	6.73
571.759	6.74
572.099	6.72
572.439	6.71
572.779	6.72
573.119	6.74
573.459	6.77
573.799	6.78
574.139	6.77
574.479	6.78
574.819	6.8
575.158	6.77
575.498	6.79
575.838	6.78
576.177	6.78
576.517	6.79
576.856	6.8
577.196	6.82
577.535	6.85
577.875	6.82
578.214	6.85
578.553	6.91
578.893	6.88
579.232	6.87
579.571	6.85
579.91	6.85
580.25	6.84
580.589	6.8
580.928	6.81
581.267	6.84
581.606	6.82
581.945	6.81
582.283	6.82
582.622	6.79
582.961	6.79
583.3	6.75
583.639	6.78
583.977	6.78
584.316	6.75
584.654	6.7
584.993	6.7
585.332	6.69
585.67	6.67
586.008	6.69
586.347	6.68
586.685	6.67
587.024	6.69
587.362	6.72
587.7	6.73
588.038	6.73
588.376	6.75
588.715	6.78
589.053	6.76
589.391	6.75
589.729	6.78
590.067	6.76
590.404	6.78
590.742	6.77
591.08	6.77
591.418	6.81
591.756	6.83
592.093	6.83
592.431	6.84
592.769	6.86
593.106	6.89
593.444	6.9
593.781	6.9
594.119	6.9
594.456	6.88
594.793	6.9
595.131	6.92
595.468	6.92
595.805	6.9
596.143	6.94
596.48	6.97
596.817	6.99
597.154	7
597.491	7.04
597.828	7.06
598.165	7.01
598.502	7.01
598.839	7.01
599.176	7.03
599.512	7.01
599.849	7.02
600.186	7.04
600.523	7.04
600.859	7.09
601.196	7.1
601.532	7.12
601.869	7.12
602.205	7.09
602.542	7.09
602.878	7.1
603.215	7.08
603.551	7.06
603.887	7.03
604.223	7.07
604.56	7.03
604.896	6.99
605.232	7.05
605.568	7.02
605.904	7.04
606.24	7.06
606.576	7.05
606.912	7.02
607.248	6.97
607.583	6.99
607.919	6.93
608.255	6.94
608.591	6.97
608.926	6.93
609.262	6.97
609.597	6.95
609.933	6.98
610.268	6.97
610.604	6.97
610.939	6.99
611.275	6.98
611.61	7
611.945	7.04
612.281	7.03
612.616	7.05
612.951	7.04
613.286	7.02
613.621	7.07
613.956	7.08
614.291	7.1
614.626	7.1
614.961	7.16
615.296	7.11
615.631	7.05
615.966	7.05
616.3	7.07
616.635	7.08
616.97	7.04
617.304	7.05
617.639	7.06
617.973	7.05
618.308	6.99
618.642	6.99
618.977	6.96
619.311	6.98
619.646	7
619.98	7.01
620.314	7
620.648	7.01
620.983	6.99
621.317	7.03
621.651	7.09
621.985	7.09
622.319	7.14
622.653	7.22
622.987	7.26
623.321	7.23
623.655	7.21
623.988	7.24
624.322	7.29
624.656	7.34
624.99	7.32
625.323	7.36
625.657	7.37
625.99	7.41
626.324	7.38
626.657	7.39
626.991	7.41
627.324	7.44
627.658	7.46
627.991	7.47
628.324	7.45
628.657	7.36
628.991	7.32
629.324	7.33
629.657	7.29
629.99	7.29
630.323	7.28
630.656	7.29
630.989	7.31
631.322	7.29
631.655	7.23
631.987	7.28
632.32	7.27
632.653	7.25
632.986	7.21
633.318	7.2
633.651	7.18
633.984	7.18
634.316	7.13
634.649	7.09
634.981	7.07
635.313	7.09
635.646	7.17
635.978	7.16
636.31	7.17
636.643	7.17
636.975	7.17
637.307	7.21
637.639	7.23
637.971	7.2
638.303	7.23
638.635	7.27
638.967	7.23
639.299	7.26
639.631	7.19
639.963	7.21
640.295	7.27
640.626	7.25
640.958	7.23
641.29	7.25
641.621	7.27
641.953	7.3
642.285	7.29
642.616	7.25
642.948	7.3
643.279	7.24
643.61	7.25
643.942	7.23
644.273	7.21
644.604	7.25
644.936	7.24
645.267	7.22
645.598	7.2
645.929	7.3
646.26	7.37
646.591	7.41
646.922	7.35
647.253	7.36
647.584	7.37
647.915	7.34
648.245	7.33
648.576	7.29
648.907	7.27
649.238	7.22
649.568	7.2
649.899	7.2
650.229	7.23
650.56	7.27
650.89	7.35
651.221	7.34
651.551	7.26
651.882	7.3
652.212	7.3
652.542	7.3
652.872	7.18
653.203	7.19
653.533	7.29
653.863	7.32
654.193	7.29
654.523	7.34
654.853	7.38
655.183	7.39
655.513	7.4
655.843	7.46
656.172	7.51
656.502	7.59
656.832	7.6
657.162	7.63
657.491	7.59
657.821	7.56
658.15	7.59
658.48	7.64
658.809	7.6
659.139	7.56
659.468	7.54
659.798	7.6
660.127	7.56
660.456	7.52
660.785	7.56
661.115	7.55
661.444	7.55
661.773	7.53
662.102	7.55
662.431	7.58
662.76	7.57
663.089	7.6
663.418	7.61
663.747	7.57
664.076	7.54
664.404	7.5
664.733	7.51
665.062	7.51
665.39	7.46
665.719	7.44
666.048	7.45
666.376	7.47
666.705	7.47
667.033	7.42
667.362	7.48
667.69	7.46
668.018	7.52
668.347	7.52
668.675	7.52
669.003	7.53
669.331	7.54
669.659	7.58
669.987	7.53
670.315	7.51
670.643	7.47
670.971	7.49
671.299	7.51
671.627	7.49
671.955	7.52
672.283	7.66
672.61	7.74
672.938	7.78
673.266	7.83
673.593	7.89
673.921	7.93
674.249	7.82
674.576	7.88
674.904	7.84
675.231	7.8
675.558	7.81
675.886	7.81
676.213	7.71
676.54	7.68
676.867	7.74
677.195	7.71
677.522	7.75
677.849	7.75
678.176	7.77
678.503	7.77
