Data from BA56813_Reflection_00005.txt Node
Date: Mon Nov 18 15:50:39 EST 2019
User: vgr7
Spectrometer: USB2G7710
Scans to average: 3
Trigger mode: 4
Integration Time (sec): 2.000000E-2
Electric dark correction enabled: true
Boxcar width: 10
XAxis mode: Wavelengths
Number of Pixels in Spectrum: 2048
>>>>>Begin Spectral Data<<<<<
177.721	-68.41
178.105	1.06
178.488	147.97
178.871	93.4
179.254	140.05
179.636	-39.34
180.019	200.5
180.402	111.54
180.785	9.56
181.168	193.6
181.55	62.26
181.933	97.91
182.316	80.71
182.698	69.16
183.081	65.76
183.463	49.11
183.846	52.69
184.228	18.19
184.611	12.78
184.993	-32.38
185.376	-43.02
185.758	-54.56
186.14	-22.63
186.522	-6.05
186.904	-17.48
187.287	24.34
187.669	-39.33
188.051	-36.03
188.433	-73.09
188.815	-141.41
189.197	-167.03
189.579	-195.06
189.961	-121.76
190.342	-110.19
190.724	-232.89
191.106	-344.91
191.488	914.37
191.869	312.52
192.251	175.72
192.633	43.76
193.014	-235.33
193.396	-308.03
193.777	-413.09
194.159	-426.32
194.54	59.65
194.922	247.65
195.303	98.15
195.684	93.55
196.065	92.88
196.447	135.03
196.828	68.56
197.209	46.97
197.59	29.68
197.971	36.56
198.352	50.97
198.733	85.73
199.114	92.59
199.495	124.56
199.876	167.92
200.257	189.07
200.638	239.83
201.018	186.46
201.399	218.71
201.78	184.99
202.16	194.23
202.541	205.94
202.922	129.92
203.302	140.72
203.683	105.96
204.063	78.32
204.444	78.1
204.824	111.75
205.204	97.99
205.585	70.93
205.965	69.23
206.345	169.93
206.725	120.78
207.106	173.04
207.486	138.37
207.866	146.72
208.246	152.41
208.626	256
209.006	226.11
209.386	297.13
209.766	337.07
210.145	425.58
210.525	-1447.45
210.905	-127.77
211.285	-593.88
211.664	-2577.97
212.044	-2700
212.424	-158.35
212.803	526.23
213.183	-31.98
213.562	60.34
213.942	96.76
214.321	50.72
214.701	54.06
215.08	80.43
215.459	65.09
215.838	50.1
216.218	33.32
216.597	58.26
216.976	55.13
217.355	58.17
217.734	65.62
218.113	58.46
218.492	61.45
218.871	61.5
219.25	72.36
219.629	73.84
220.008	45.41
220.387	39.42
220.766	37.99
221.144	35.81
221.523	32.84
221.902	8.58
222.28	-17.08
222.659	-16.8
223.037	-12.27
223.416	-2.98
223.794	13.34
224.173	0.61
224.551	-19.89
224.929	-11.26
225.308	-1.19
225.686	0.59
226.064	-3.03
226.442	0.7
226.821	3.65
227.199	1.32
227.577	-1.57
227.955	2.68
228.333	0.89
228.711	1.61
229.089	4.74
229.467	5.02
229.845	5.15
230.222	7.78
230.6	5.47
230.978	2.78
231.356	4.41
231.733	3.78
232.111	5.84
232.488	7.67
232.866	6.98
233.243	5.99
233.621	5.33
233.998	6.91
234.376	5.06
234.753	3.07
235.13	2.84
235.508	4.39
235.885	3.99
236.262	5.26
236.639	3.69
237.016	3.04
237.393	3.41
237.77	4.52
238.147	6.19
238.524	6.5
238.901	7.78
239.278	7.12
239.655	7.52
240.032	7.35
240.409	6.79
240.785	6.74
241.162	6.49
241.539	6.19
241.915	5.63
242.292	5.66
242.668	5.54
243.045	5.82
243.421	5.48
243.798	5.44
244.174	5.18
244.551	5.35
244.927	5.24
245.303	5.36
245.679	5.25
246.056	4.87
246.432	4.94
246.808	4.53
247.184	4.33
247.56	4.09
247.936	3.91
248.312	3.92
248.688	3.95
249.064	3.99
249.44	4.1
249.815	4.14
250.191	4.23
250.567	4.25
250.943	4.03
251.318	3.95
251.694	3.8
252.069	3.74
252.445	3.44
252.82	3.36
253.196	3.04
253.571	3.17
253.947	3.35
254.322	3.49
254.697	3.68
255.073	3.55
255.448	3.33
255.823	3.53
256.198	3.73
256.573	3.61
256.948	3.68
257.323	3.72
257.698	3.72
258.073	3.58
258.448	3.62
258.823	3.58
259.198	3.6
259.573	3.63
259.948	3.62
260.322	3.81
260.697	3.91
261.072	3.9
261.446	3.81
261.821	3.67
262.195	3.76
262.57	3.74
262.944	3.81
263.319	3.98
263.693	3.84
264.067	3.9
264.442	3.99
264.816	3.94
265.19	3.79
265.564	3.71
265.938	3.71
266.313	3.64
266.687	3.81
267.061	4.06
267.435	4.21
267.809	4.17
268.183	4.18
268.556	4
268.93	4.04
269.304	3.98
269.678	4.12
270.051	3.85
270.425	3.84
270.799	3.94
271.172	3.83
271.546	4.03
271.919	3.86
272.293	3.81
272.666	3.74
273.04	3.91
273.413	3.88
273.787	3.94
274.16	4.05
274.533	4
274.906	3.76
275.279	3.65
275.653	3.55
276.026	3.45
276.399	3.46
276.772	3.38
277.145	3.42
277.518	3.32
277.891	3.55
278.263	3.53
278.636	3.42
279.009	3.33
279.382	3.32
279.755	3.32
280.127	3.35
280.5	3.39
280.872	3.32
281.245	3.36
281.617	3.46
281.99	3.44
282.362	3.47
282.735	3.42
283.107	3.47
283.479	3.68
283.852	3.64
284.224	3.63
284.596	3.68
284.968	3.76
285.34	3.88
285.713	3.81
286.085	3.81
286.457	4.02
286.829	4.13
287.201	4.17
287.572	4.13
287.944	4.15
288.316	4.12
288.688	4.17
289.06	4.24
289.431	4.22
289.803	4.26
290.175	4.26
290.546	4.53
290.918	4.6
291.289	4.66
291.661	4.76
292.032	4.89
292.403	4.85
292.775	4.82
293.146	4.92
293.517	4.92
293.889	5.13
294.26	4.92
294.631	5.03
295.002	4.92
295.373	4.9
295.744	4.81
296.115	4.89
296.486	4.81
296.857	4.82
297.228	4.86
297.599	4.79
297.97	4.83
298.34	4.78
298.711	4.83
299.082	4.75
299.452	4.75
299.823	4.9
300.194	5.09
300.564	4.98
300.935	4.9
301.305	4.89
301.676	4.86
302.046	5.05
302.416	5.09
302.787	5.17
303.157	5.29
303.527	5.47
303.897	5.52
304.267	5.57
304.637	5.57
305.008	5.4
305.378	5.45
305.748	5.52
306.117	5.35
306.487	5.3
306.857	5.27
307.227	5.3
307.597	5.13
307.967	5.03
308.336	5.25
308.706	5.2
309.076	5.28
309.445	5.15
309.815	4.97
310.184	4.92
310.554	4.85
310.923	4.87
311.293	4.88
311.662	4.81
312.031	4.86
312.401	4.89
312.77	5.02
313.139	5.04
313.508	4.97
313.877	4.88
314.246	4.79
314.616	4.83
314.985	4.74
315.353	4.74
315.722	4.7
316.091	4.58
316.46	4.6
316.829	4.48
317.198	4.52
317.567	4.49
317.935	4.3
318.304	4.48
318.672	4.44
319.041	4.32
319.41	4.33
319.778	4.29
320.147	4.29
320.515	4.31
320.883	4.21
321.252	4.24
321.62	4.47
321.988	4.38
322.357	4.42
322.725	4.49
323.093	4.59
323.461	4.55
323.829	4.53
324.197	4.67
324.565	4.69
324.933	4.72
325.301	4.84
325.669	4.99
326.037	5
326.405	4.87
326.772	4.94
327.14	5.05
327.508	5.12
327.875	5.02
328.243	5.08
328.61	5.15
328.978	5.15
329.346	5.16
329.713	5.16
330.08	5.17
330.448	5.07
330.815	4.93
331.182	4.96
331.55	5.01
331.917	4.97
332.284	5.04
332.651	5.02
333.018	4.97
333.385	4.83
333.752	4.79
334.119	5.05
334.486	4.95
334.853	4.86
335.22	4.81
335.587	4.91
335.954	4.8
336.32	4.83
336.687	4.82
337.054	4.92
337.42	5.02
337.787	5.08
338.153	5.12
338.52	5.18
338.886	5.14
339.253	5.02
339.619	5
339.986	5.04
340.352	5.04
340.718	5.06
341.084	5.09
341.451	5.09
341.817	5.07
342.183	5.19
342.549	5.13
342.915	5.24
343.281	5.14
343.647	5.12
344.013	5.08
344.379	4.9
344.745	4.91
345.11	4.96
345.476	4.87
345.842	4.83
346.208	4.79
346.573	4.89
346.939	5.04
347.304	4.88
347.67	4.82
348.035	4.84
348.401	4.81
348.766	4.92
349.132	4.91
349.497	4.9
349.862	4.94
350.228	5.06
350.593	4.97
350.958	5.08
351.323	5.12
351.688	5.18
352.053	5.43
352.418	5.41
352.783	5.37
353.148	5.4
353.513	5.45
353.878	5.49
354.243	5.46
354.608	5.41
354.972	5.53
355.337	5.55
355.702	5.59
356.066	5.7
356.431	5.62
356.795	5.62
357.16	5.58
357.524	5.49
357.889	5.45
358.253	5.5
358.618	5.46
358.982	5.42
359.346	5.39
359.71	5.3
360.075	5.33
360.439	5.33
360.803	5.35
361.167	5.31
361.531	5.3
361.895	5.32
362.259	5.32
362.623	5.35
362.987	5.35
363.351	5.31
363.714	5.24
364.078	5.2
364.442	5.18
364.806	5.16
365.169	5.17
365.533	5.17
365.896	5.14
366.26	5.18
366.623	5.23
366.987	5.26
367.35	5.3
367.714	5.25
368.077	5.2
368.44	5.14
368.803	5.26
369.167	5.28
369.53	5.23
369.893	5.28
370.256	5.22
370.619	5.23
370.982	5.21
371.345	5.24
371.708	5.28
372.071	5.29
372.434	5.3
372.797	5.35
373.159	5.37
373.522	5.35
373.885	5.34
374.247	5.4
374.61	5.41
374.973	5.39
375.335	5.38
375.698	5.45
376.06	5.46
376.423	5.41
376.785	5.46
377.147	5.49
377.51	5.47
377.872	5.57
378.234	5.62
378.596	5.68
378.958	5.71
379.321	5.74
379.683	5.79
380.045	5.85
380.407	5.85
380.769	5.84
381.13	5.88
381.492	5.9
381.854	5.88
382.216	5.9
382.578	5.94
382.939	5.93
383.301	5.97
383.663	5.98
384.024	5.97
384.386	6
384.747	6.05
385.109	6.01
385.47	5.95
385.832	5.94
386.193	5.96
386.554	5.93
386.916	5.92
387.277	5.91
387.638	5.9
387.999	5.85
388.36	5.84
388.721	5.82
389.082	5.83
389.443	5.82
389.804	5.81
390.165	5.81
390.526	5.84
390.887	5.84
391.248	5.88
391.609	5.91
391.969	5.88
392.33	5.86
392.691	5.88
393.051	5.91
393.412	5.91
393.772	5.87
394.133	5.86
394.493	5.89
394.854	5.86
395.214	5.89
395.574	5.91
395.935	5.94
396.295	5.98
396.655	5.97
397.015	5.94
397.376	5.95
397.736	5.91
398.096	5.89
398.456	5.89
398.816	5.91
399.176	5.88
399.535	5.85
399.895	5.88
400.255	5.91
400.615	5.87
400.975	5.86
401.334	5.87
401.694	5.88
402.054	5.88
402.413	5.91
402.773	5.87
403.132	5.85
403.492	5.84
403.851	5.82
404.211	5.82
404.57	5.84
404.929	5.84
405.288	5.84
405.648	5.84
406.007	5.83
406.366	5.81
406.725	5.85
407.084	5.87
407.443	5.86
407.802	5.83
408.161	5.83
408.52	5.79
408.879	5.82
409.238	5.82
409.596	5.83
409.955	5.85
410.314	5.85
410.673	5.88
411.031	5.88
411.39	5.88
411.748	5.88
412.107	5.88
412.465	5.85
412.824	5.88
413.182	5.89
413.54	5.89
413.899	5.9
414.257	5.89
414.615	5.9
414.974	5.9
415.332	5.9
415.69	5.9
416.048	5.9
416.406	5.87
416.764	5.87
417.122	5.87
417.48	5.85
417.838	5.87
418.195	5.85
418.553	5.84
418.911	5.84
419.269	5.84
419.626	5.85
419.984	5.86
420.342	5.86
420.699	5.87
421.057	5.88
421.414	5.88
421.772	5.87
422.129	5.87
422.486	5.87
422.844	5.88
423.201	5.88
423.558	5.9
423.915	5.91
424.273	5.91
424.63	5.89
424.987	5.88
425.344	5.87
425.701	5.88
426.058	5.88
426.415	5.88
426.772	5.89
427.128	5.88
427.485	5.88
427.842	5.89
428.199	5.88
428.555	5.87
428.912	5.87
429.269	5.87
429.625	5.85
429.982	5.84
430.338	5.85
430.695	5.86
431.051	5.85
431.407	5.85
431.764	5.83
432.12	5.85
432.476	5.86
432.832	5.87
433.189	5.89
433.545	5.88
433.901	5.89
434.257	5.89
434.613	5.9
434.969	5.92
435.325	5.91
435.681	5.91
436.036	5.91
436.392	5.9
436.748	5.9
437.104	5.91
437.459	5.92
437.815	5.9
438.171	5.91
438.526	5.91
438.882	5.94
439.237	5.96
439.593	5.96
439.948	5.97
440.304	5.98
440.659	5.99
441.014	6
441.369	6.01
441.725	6.01
442.08	6.01
442.435	6.01
442.79	6.02
443.145	6.03
443.5	6.03
443.855	6.03
444.21	6.02
444.565	6.04
444.92	6.04
445.275	6.03
445.629	6.03
445.984	6.05
446.339	6.02
446.693	6.03
447.048	6.03
447.403	6.02
447.757	5.99
448.112	5.99
448.466	5.98
448.82	5.98
449.175	5.97
449.529	5.99
449.883	6
450.238	5.99
450.592	5.99
450.946	5.98
451.3	5.99
451.654	6.01
452.008	6.02
452.362	6.01
452.716	6.02
453.07	6.01
453.424	6.01
453.778	6.04
454.132	6.03
454.486	6.04
454.839	6.06
455.193	6.08
455.547	6.1
455.9	6.1
456.254	6.1
456.607	6.1
456.961	6.09
457.314	6.07
457.668	6.07
458.021	6.07
458.375	6.09
458.728	6.07
459.081	6.07
459.434	6.07
459.787	6.08
460.141	6.09
460.494	6.12
460.847	6.09
461.2	6.07
461.553	6.08
461.906	6.09
462.259	6.1
462.611	6.1
462.964	6.11
463.317	6.13
463.67	6.17
464.022	6.18
464.375	6.17
464.728	6.2
465.08	6.23
465.433	6.23
465.785	6.25
466.138	6.28
466.49	6.3
466.843	6.31
467.195	6.33
467.547	6.37
467.899	6.37
468.252	6.4
468.604	6.45
468.956	6.46
469.308	6.47
469.66	6.49
470.012	6.5
470.364	6.51
470.716	6.52
471.068	6.5
471.42	6.53
471.772	6.56
472.123	6.57
472.475	6.57
472.827	6.58
473.178	6.59
473.53	6.62
473.882	6.63
474.233	6.64
474.585	6.66
474.936	6.65
475.288	6.66
475.639	6.68
475.99	6.7
476.342	6.69
476.693	6.7
477.044	6.7
477.395	6.71
477.746	6.69
478.097	6.69
478.448	6.7
478.8	6.69
479.15	6.7
479.501	6.69
479.852	6.69
480.203	6.71
480.554	6.71
480.905	6.71
481.255	6.71
481.606	6.72
481.957	6.72
482.307	6.73
482.658	6.71
483.009	6.71
483.359	6.69
483.709	6.7
484.06	6.69
484.41	6.7
484.761	6.7
485.111	6.7
485.461	6.7
485.811	6.7
486.162	6.7
486.512	6.71
486.862	6.71
487.212	6.72
487.562	6.72
487.912	6.72
488.262	6.71
488.612	6.71
488.961	6.71
489.311	6.71
489.661	6.7
490.011	6.71
490.36	6.7
490.71	6.71
491.06	6.71
491.409	6.71
491.759	6.72
492.108	6.72
492.458	6.73
492.807	6.73
493.157	6.74
493.506	6.75
493.855	6.74
494.204	6.76
494.554	6.77
494.903	6.75
495.252	6.76
495.601	6.79
495.95	6.81
496.299	6.81
496.648	6.81
496.997	6.83
497.346	6.87
497.695	6.92
498.043	6.97
498.392	6.99
498.741	7.02
499.09	7.03
499.438	7.06
499.787	7.07
500.135	7.09
500.484	7.12
500.832	7.16
501.181	7.22
501.529	7.23
501.878	7.27
502.226	7.31
502.574	7.33
502.923	7.35
503.271	7.37
503.619	7.43
503.967	7.46
504.315	7.49
504.663	7.49
505.011	7.49
505.359	7.49
505.707	7.54
506.055	7.57
506.403	7.59
506.751	7.62
507.098	7.66
507.446	7.68
507.794	7.71
508.141	7.73
508.489	7.75
508.837	7.77
509.184	7.77
509.531	7.77
509.879	7.79
510.226	7.8
510.574	7.82
510.921	7.81
511.268	7.84
511.616	7.87
511.963	7.9
512.31	7.93
512.657	7.97
513.004	7.96
513.351	7.99
513.698	8.03
514.045	8.05
514.392	8.09
514.739	8.11
515.086	8.14
515.432	8.17
515.779	8.16
516.126	8.18
516.473	8.22
516.819	8.28
517.166	8.31
517.512	8.32
517.859	8.34
518.205	8.37
518.552	8.38
518.898	8.38
519.245	8.41
519.591	8.4
519.937	8.39
520.283	8.4
520.629	8.42
520.976	8.44
521.322	8.45
521.668	8.46
522.014	8.49
522.36	8.48
522.706	8.51
523.052	8.55
523.398	8.59
523.743	8.61
524.089	8.63
524.435	8.65
524.781	8.66
525.126	8.69
525.472	8.71
525.817	8.74
526.163	8.75
526.509	8.76
526.854	8.76
527.199	8.77
527.545	8.77
527.89	8.77
528.235	8.77
528.581	8.78
528.926	8.77
529.271	8.78
529.616	8.79
529.961	8.79
530.306	8.8
530.651	8.79
530.996	8.79
531.341	8.79
531.686	8.78
532.031	8.81
532.376	8.81
532.721	8.81
533.065	8.8
533.41	8.8
533.755	8.81
534.099	8.84
534.444	8.87
534.788	8.89
535.133	8.9
535.477	8.91
535.822	8.92
536.166	8.92
536.51	8.91
536.855	8.94
537.199	8.95
537.543	8.97
537.887	9
538.231	9
538.576	9.02
538.92	9.03
539.264	9.05
539.608	9.06
539.951	9.06
540.295	9.07
540.639	9.09
540.983	9.08
541.327	9.09
541.671	9.08
542.014	9.08
542.358	9.07
542.701	9.07
543.045	9.09
543.389	9.11
543.732	9.14
544.075	9.14
544.419	9.13
544.762	9.11
545.105	9.08
545.449	9.09
545.792	9.07
546.135	9.09
546.478	9.08
546.821	9.08
547.165	9.09
547.508	9.13
547.851	9.14
548.194	9.14
548.536	9.15
548.879	9.16
549.222	9.16
549.565	9.21
549.908	9.22
550.25	9.22
550.593	9.21
550.936	9.21
551.278	9.23
551.621	9.26
551.963	9.29
552.306	9.3
552.648	9.32
552.991	9.38
553.333	9.37
553.675	9.39
554.017	9.4
554.36	9.4
554.702	9.38
555.044	9.36
555.386	9.4
555.728	9.38
556.07	9.41
556.412	9.4
556.754	9.39
557.096	9.37
557.438	9.37
557.78	9.37
558.121	9.41
558.463	9.42
558.805	9.41
559.147	9.4
559.488	9.4
559.83	9.4
560.171	9.39
560.513	9.43
560.854	9.44
561.196	9.44
561.537	9.45
561.878	9.47
562.22	9.5
562.561	9.5
562.902	9.57
563.243	9.55
563.584	9.61
563.925	9.61
564.266	9.66
564.607	9.68
564.948	9.7
565.289	9.67
565.63	9.69
565.971	9.73
566.312	9.71
566.653	9.73
566.993	9.73
567.334	9.7
567.675	9.71
568.015	9.7
568.356	9.74
568.696	9.75
569.037	9.78
569.377	9.79
569.718	9.79
570.058	9.75
570.398	9.77
570.739	9.78
571.079	9.79
571.419	9.81
571.759	9.8
572.099	9.79
572.439	9.81
572.779	9.79
573.119	9.8
573.459	9.85
573.799	9.85
574.139	9.85
574.479	9.91
574.819	9.87
575.158	9.87
575.498	9.87
575.838	9.88
576.177	9.86
576.517	9.85
576.856	9.85
577.196	9.86
577.535	9.87
577.875	9.86
578.214	9.86
578.553	9.85
578.893	9.9
579.232	9.93
579.571	9.93
579.91	9.96
580.25	9.94
580.589	9.95
580.928	10.01
581.267	10.05
581.606	10.05
581.945	10.09
582.283	10.1
582.622	10.1
582.961	10.1
583.3	10.09
583.639	10.14
583.977	10.19
584.316	10.16
584.654	10.14
584.993	10.14
585.332	10.17
585.67	10.16
586.008	10.11
586.347	10.1
586.685	10.08
587.024	10.08
587.362	10.11
587.7	10.1
588.038	10.09
588.376	10.06
588.715	10.09
589.053	10.1
589.391	10.13
589.729	10.15
590.067	10.15
590.404	10.22
590.742	10.18
591.08	10.14
591.418	10.17
591.756	10.22
592.093	10.22
592.431	10.21
592.769	10.2
593.106	10.21
593.444	10.22
593.781	10.27
594.119	10.28
594.456	10.26
594.793	10.24
595.131	10.21
595.468	10.22
595.805	10.21
596.143	10.21
596.48	10.18
596.817	10.13
597.154	10.15
597.491	10.11
597.828	10.12
598.165	10.14
598.502	10.16
598.839	10.13
599.176	10.15
599.512	10.17
599.849	10.2
600.186	10.22
600.523	10.28
600.859	10.24
601.196	10.27
601.532	10.28
601.869	10.27
602.205	10.26
602.542	10.26
602.878	10.25
603.215	10.25
603.551	10.28
603.887	10.28
604.223	10.27
604.56	10.3
604.896	10.31
605.232	10.35
605.568	10.36
605.904	10.38
606.24	10.36
606.576	10.35
606.912	10.35
607.248	10.35
607.583	10.33
607.919	10.33
608.255	10.3
608.591	10.32
608.926	10.38
609.262	10.41
609.597	10.39
609.933	10.43
610.268	10.43
610.604	10.46
610.939	10.52
611.275	10.52
611.61	10.48
611.945	10.5
612.281	10.47
612.616	10.44
612.951	10.47
613.286	10.49
613.621	10.51
613.956	10.48
614.291	10.52
614.626	10.5
614.961	10.51
615.296	10.54
615.631	10.5
615.966	10.49
616.3	10.5
616.635	10.54
616.97	10.53
617.304	10.54
617.639	10.51
617.973	10.48
618.308	10.52
618.642	10.54
618.977	10.53
619.311	10.55
619.646	10.53
619.98	10.53
620.314	10.59
620.648	10.61
620.983	10.69
621.317	10.68
621.651	10.71
621.985	10.76
622.319	10.77
622.653	10.82
622.987	10.82
623.321	10.81
623.655	10.83
623.988	10.83
624.322	10.85
624.656	10.85
624.99	10.93
625.323	10.93
625.657	10.98
625.99	11.02
626.324	11
626.657	11.03
626.991	11.01
627.324	10.94
627.658	10.91
627.991	10.9
628.324	10.91
628.657	10.85
628.991	10.82
629.324	10.84
629.657	10.83
629.99	10.83
630.323	10.86
630.656	10.87
630.989	10.92
631.322	10.93
631.655	10.93
631.987	10.96
632.32	10.96
632.653	10.92
632.986	10.89
633.318	10.92
633.651	10.92
633.984	10.97
634.316	10.98
634.649	10.99
634.981	10.98
635.313	11.02
635.646	11.11
635.978	11.14
636.31	11.1
636.643	11.09
636.975	11.13
637.307	11.1
637.639	11.13
637.971	11.08
638.303	11.02
638.635	10.97
638.967	10.92
639.299	10.98
639.631	10.98
639.963	10.96
640.295	10.95
640.626	10.98
640.958	10.99
641.29	11.03
641.621	11.03
641.953	11.06
642.285	11.04
642.616	11.01
642.948	11.08
643.279	11.14
643.61	11.14
643.942	11.12
644.273	11.17
644.604	11.18
644.936	11.19
645.267	11.31
645.598	11.33
645.929	11.38
646.26	11.37
646.591	11.47
646.922	11.46
647.253	11.47
647.584	11.54
647.915	11.47
648.245	11.51
648.576	11.59
648.907	11.58
649.238	11.55
649.568	11.58
649.899	11.52
650.229	11.52
650.56	11.52
650.89	11.54
651.221	11.53
651.551	11.49
651.882	11.53
652.212	11.56
652.542	11.62
652.872	11.56
653.203	11.52
653.533	11.5
653.863	11.63
654.193	11.7
654.523	11.61
654.853	11.67
655.183	11.65
655.513	11.67
655.843	11.68
656.172	11.69
656.502	11.69
656.832	11.7
657.162	11.71
657.491	11.77
657.821	11.82
658.15	11.86
658.48	11.83
658.809	11.8
659.139	11.79
659.468	11.77
659.798	11.8
660.127	11.81
660.456	11.89
660.785	11.8
661.115	11.8
661.444	11.85
661.773	11.9
662.102	11.89
662.431	11.89
662.76	11.83
663.089	11.87
663.418	11.91
663.747	11.9
664.076	11.92
664.404	11.94
664.733	11.96
665.062	11.93
665.39	11.97
665.719	11.96
666.048	12.02
666.376	11.99
666.705	11.96
667.033	12.02
667.362	11.89
667.69	11.92
668.018	11.91
668.347	11.93
668.675	11.89
669.003	11.94
669.331	11.89
669.659	12.04
669.987	12
670.315	11.99
670.643	12
670.971	12.08
671.299	12.14
671.627	12.08
671.955	12.09
672.283	12.16
672.61	12.19
