Data from BA56832_Reflection_00014.txt Node
Date: Mon Nov 18 16:10:10 EST 2019
User: vgr7
Spectrometer: USB2G7710
Scans to average: 3
Trigger mode: 4
Integration Time (sec): 2.000000E-2
Electric dark correction enabled: true
Boxcar width: 10
XAxis mode: Wavelengths
Number of Pixels in Spectrum: 2048
>>>>>Begin Spectral Data<<<<<
177.721	78.27
178.105	50.22
178.488	82.43
178.871	103.51
179.254	80.22
179.636	0.76
180.019	-185.71
180.402	207.69
180.785	-106.19
181.168	236.99
181.55	69.14
181.933	77.83
182.316	205.42
182.698	413
183.081	243.13
183.463	293.45
183.846	317.7
184.228	260.59
184.611	283.39
184.993	258.98
185.376	320.4
185.758	474.39
186.14	593
186.522	1163.34
186.904	12525.53
187.287	10201.69
187.669	-3928.78
188.051	-835.35
188.433	-728.31
188.815	-1176.51
189.197	-688.25
189.579	-333.44
189.961	-323.81
190.342	-426.87
190.724	-351.39
191.106	-302.98
191.488	-353.57
191.869	-273.06
192.251	-270.4
192.633	-343.1
193.014	-471.85
193.396	-597.72
193.777	-792.59
194.159	-1091.01
194.54	-452.51
194.922	-322.7
195.303	-295.72
195.684	-240.67
196.065	-154.89
196.447	-128.53
196.828	-126.44
197.209	-134.44
197.59	-140.22
197.971	-143.16
198.352	-156.26
198.733	-234.78
199.114	-126.72
199.495	-106.34
199.876	-134.36
200.257	-106.39
200.638	-82.92
201.018	-65.94
201.399	-45.58
201.78	-60.11
202.16	-48.88
202.541	-77.56
202.922	-160.82
203.302	-211.42
203.683	-166.12
204.063	-180.15
204.444	-265.69
204.824	-187.26
205.204	-177.38
205.585	-198.63
205.965	-183.69
206.345	-166.86
206.725	-159.32
207.106	-296.82
207.486	-567.96
207.866	-613.86
208.246	-1366.04
208.626	19824.14
209.006	-4926.09
209.386	-1541.56
209.766	-719.02
210.145	-465.33
210.525	-275.5
210.905	-219.21
211.285	-154.01
211.664	-168.39
212.044	-150.63
212.424	-111.56
212.803	-173.04
213.183	-177.17
213.562	-137.79
213.942	-115.74
214.321	-112.52
214.701	-108.77
215.08	-84.66
215.459	-69.82
215.838	-61.12
216.218	-52.67
216.597	-51.9
216.976	-57.15
217.355	-58.89
217.734	-65.91
218.113	-86.12
218.492	-128.53
218.871	-127.12
219.25	-176.31
219.629	-172.1
220.008	-226.74
220.387	-229.43
220.766	-193.95
221.144	-250.76
221.523	-303.64
221.902	-420.99
222.28	-314.48
222.659	-236.13
223.037	-200.37
223.416	-186.25
223.794	-150.85
224.173	-143.98
224.551	-99.05
224.929	-84.29
225.308	-65.73
225.686	-49.57
226.064	-33.08
226.442	-21.81
226.821	-20.14
227.199	-15.6
227.577	-19.14
227.955	-16.45
228.333	-17.9
228.711	-12.43
229.089	-5.18
229.467	-4.29
229.845	-2.08
230.222	0.11
230.6	-0.27
230.978	1.05
231.356	2.16
231.733	2.39
232.111	1.13
232.488	-0.3
232.866	-0.52
233.243	-2.12
233.621	-2.4
233.998	-3.22
234.376	-4.63
234.753	-3.32
235.13	-1.83
235.508	0.03
235.885	-0.92
236.262	-0.95
236.639	-1.19
237.016	-1.88
237.393	-0.95
237.77	1.05
238.147	0.94
238.524	1.7
238.901	1.58
239.278	1.57
239.655	1.81
240.032	2.15
240.409	2.24
240.785	1.92
241.162	2.12
241.539	2.38
241.915	1.88
242.292	2.14
242.668	2.06
243.045	1.99
243.421	2.01
243.798	2.11
244.174	2.21
244.551	2.27
244.927	2.41
245.303	2.56
245.679	2.37
246.056	2.31
246.432	2.2
246.808	2.23
247.184	2.22
247.56	2.27
247.936	2.29
248.312	2.08
248.688	2.23
249.064	2.05
249.44	1.9
249.815	2.39
250.191	2.54
250.567	2.51
250.943	2.47
251.318	2.42
251.694	2.47
252.069	2.64
252.445	2.67
252.82	2.42
253.196	2.18
253.571	2.18
253.947	2.14
254.322	2.4
254.697	2.05
255.073	2.05
255.448	1.98
255.823	2.33
256.198	2.58
256.573	2.52
256.948	2.75
257.323	3.08
257.698	2.86
258.073	2.66
258.448	2.77
258.823	2.82
259.198	2.73
259.573	2.76
259.948	2.68
260.322	2.78
260.697	2.84
261.072	2.84
261.446	2.81
261.821	2.72
262.195	2.69
262.57	2.72
262.944	2.63
263.319	2.62
263.693	2.32
264.067	2.25
264.442	2.28
264.816	2.18
265.19	1.96
265.564	2
265.938	2.16
266.313	2.13
266.687	2.06
267.061	2.41
267.435	2.32
267.809	2.33
268.183	2.09
268.556	2.2
268.93	2.24
269.304	2.34
269.678	2.63
270.051	2.58
270.425	2.65
270.799	2.78
271.172	2.78
271.546	2.84
271.919	2.94
272.293	2.89
272.666	2.9
273.04	2.94
273.413	2.88
273.787	2.92
274.16	2.92
274.533	3.07
274.906	2.88
275.279	2.96
275.653	2.98
276.026	3.08
276.399	3.06
276.772	3.07
277.145	2.91
277.518	2.85
277.891	2.88
278.263	2.73
278.636	2.72
279.009	2.77
279.382	2.95
279.755	2.78
280.127	3
280.5	3.06
280.872	3
281.245	2.99
281.617	2.98
281.99	3.16
282.362	2.96
282.735	2.82
283.107	2.79
283.479	2.81
283.852	2.8
284.224	2.7
284.596	2.74
284.968	2.68
285.34	2.59
285.713	2.53
286.085	2.68
286.457	2.72
286.829	2.71
287.201	2.66
287.572	2.67
287.944	2.6
288.316	2.58
288.688	2.56
289.06	2.54
289.431	2.41
289.803	2.28
290.175	2.37
290.546	2.63
290.918	2.6
291.289	2.55
291.661	2.6
292.032	2.82
292.403	2.72
292.775	2.9
293.146	2.95
293.517	2.91
293.889	3.04
294.26	3.03
294.631	3.04
295.002	2.94
295.373	2.9
295.744	2.95
296.115	2.98
296.486	2.98
296.857	2.97
297.228	3.05
297.599	3.12
297.97	3.13
298.34	3.05
298.711	3.09
299.082	3.05
299.452	3.05
299.823	3.15
300.194	3.25
300.564	3.29
300.935	3.35
301.305	3.45
301.676	3.35
302.046	3.33
302.416	3.41
302.787	3.4
303.157	3.53
303.527	3.51
303.897	3.52
304.267	3.66
304.637	3.72
305.008	3.64
305.378	3.68
305.748	3.76
306.117	3.68
306.487	3.81
306.857	3.96
307.227	4
307.597	3.91
307.967	3.95
308.336	3.99
308.706	3.89
309.076	3.99
309.445	4.02
309.815	4.02
310.184	3.93
310.554	4.17
310.923	4.17
311.293	4.14
311.662	4.21
312.031	4.15
312.401	4.34
312.77	4.51
313.139	4.49
313.508	4.49
313.877	4.56
314.246	4.57
314.616	4.52
314.985	4.44
315.353	4.33
315.722	4.32
316.091	4.17
316.46	4.27
316.829	4.3
317.198	4.32
317.567	4.45
317.935	4.56
318.304	4.36
318.672	4.33
319.041	4.45
319.41	4.54
319.778	4.52
320.147	4.3
320.515	4.15
320.883	4.11
321.252	4.11
321.62	4.16
321.988	4.17
322.357	4.11
322.725	4.26
323.093	4.48
323.461	4.47
323.829	4.68
324.197	4.77
324.565	4.71
324.933	4.77
325.301	4.84
325.669	4.88
326.037	4.92
326.405	5.05
326.772	5.05
327.14	5.11
327.508	5.18
327.875	5.2
328.243	5.28
328.61	5.38
328.978	5.44
329.346	5.64
329.713	5.49
330.08	5.72
330.448	5.68
330.815	5.58
331.182	5.75
331.55	5.77
331.917	5.72
332.284	5.84
332.651	6.02
333.018	6.03
333.385	6.1
333.752	6.11
334.119	6.03
334.486	5.98
334.853	5.9
335.22	5.93
335.587	6.06
335.954	6.08
336.32	6.07
336.687	6.12
337.054	6
337.42	6.16
337.787	6.22
338.153	6.25
338.52	6.33
338.886	6.25
339.253	6.18
339.619	6.25
339.986	6.23
340.352	6.16
340.718	6.05
341.084	6.02
341.451	6.24
341.817	6.33
342.183	6.44
342.549	6.48
342.915	6.6
343.281	6.65
343.647	6.68
344.013	6.65
344.379	6.64
344.745	6.71
345.11	6.68
345.476	6.65
345.842	6.61
346.208	6.64
346.573	6.73
346.939	6.8
347.304	6.82
347.67	6.78
348.035	6.8
348.401	6.94
348.766	7.06
349.132	6.96
349.497	6.98
349.862	7.01
350.228	7
350.593	6.85
350.958	6.72
351.323	6.84
351.688	6.83
352.053	6.8
352.418	6.74
352.783	6.81
353.148	6.75
353.513	6.8
353.878	6.82
354.243	6.81
354.608	6.77
354.972	6.79
355.337	6.88
355.702	6.85
356.066	6.8
356.431	6.67
356.795	6.73
357.16	6.71
357.524	6.59
357.889	6.59
358.253	6.63
358.618	6.69
358.982	6.56
359.346	6.58
359.71	6.58
360.075	6.58
360.439	6.57
360.803	6.57
361.167	6.51
361.531	6.44
361.895	6.38
362.259	6.38
362.623	6.29
362.987	6.24
363.351	6.26
363.714	6.27
364.078	6.28
364.442	6.19
364.806	6.19
365.169	6.24
365.533	6.17
365.896	6.13
366.26	6.09
366.623	6.15
366.987	6.18
367.35	6.12
367.714	6.09
368.077	6.05
368.44	6.03
368.803	6.1
369.167	6.01
369.53	5.99
369.893	5.97
370.256	6
370.619	5.96
370.982	5.84
371.345	5.76
371.708	5.68
372.071	5.63
372.434	5.54
372.797	5.52
373.159	5.49
373.522	5.52
373.885	5.52
374.247	5.41
374.61	5.38
374.973	5.33
375.335	5.27
375.698	5.26
376.06	5.26
376.423	5.17
376.785	5.23
377.147	5.25
377.51	5.2
377.872	5.19
378.234	5.14
378.596	5.13
378.958	5.13
379.321	5.19
379.683	5.22
380.045	5.22
380.407	5.19
380.769	5.18
381.13	5.11
381.492	5.1
381.854	5.16
382.216	5.05
382.578	5.09
382.939	5.11
383.301	5.09
383.663	5.04
384.024	5.05
384.386	4.94
384.747	4.89
385.109	4.86
385.47	4.8
385.832	4.81
386.193	4.81
386.554	4.75
386.916	4.69
387.277	4.65
387.638	4.65
387.999	4.61
388.36	4.6
388.721	4.55
389.082	4.52
389.443	4.42
389.804	4.42
390.165	4.35
390.526	4.32
390.887	4.27
391.248	4.27
391.609	4.26
391.969	4.25
392.33	4.23
392.691	4.19
393.051	4.17
393.412	4.17
393.772	4.13
394.133	4.11
394.493	4.08
394.854	4.04
395.214	4.01
395.574	3.95
395.935	3.94
396.295	4
396.655	3.93
397.015	3.93
397.376	3.93
397.736	3.9
398.096	3.91
398.456	3.91
398.816	3.88
399.176	3.81
399.535	3.81
399.895	3.77
400.255	3.77
400.615	3.77
400.975	3.73
401.334	3.74
401.694	3.7
402.054	3.67
402.413	3.66
402.773	3.62
403.132	3.62
403.492	3.57
403.851	3.54
404.211	3.58
404.57	3.56
404.929	3.57
405.288	3.57
405.648	3.55
406.007	3.53
406.366	3.51
406.725	3.55
407.084	3.56
407.443	3.56
407.802	3.56
408.161	3.51
408.52	3.51
408.879	3.47
409.238	3.49
409.596	3.5
409.955	3.5
410.314	3.5
410.673	3.49
411.031	3.5
411.39	3.47
411.748	3.44
412.107	3.44
412.465	3.42
412.824	3.41
413.182	3.36
413.54	3.36
413.899	3.36
414.257	3.34
414.615	3.34
414.974	3.34
415.332	3.31
415.69	3.31
416.048	3.28
416.406	3.26
416.764	3.26
417.122	3.26
417.48	3.26
417.838	3.24
418.195	3.25
418.553	3.22
418.911	3.21
419.269	3.21
419.626	3.2
419.984	3.18
420.342	3.19
420.699	3.18
421.057	3.17
421.414	3.17
421.772	3.16
422.129	3.14
422.486	3.13
422.844	3.14
423.201	3.14
423.558	3.12
423.915	3.13
424.273	3.12
424.63	3.12
424.987	3.1
425.344	3.1
425.701	3.09
426.058	3.08
426.415	3.09
426.772	3.09
427.128	3.08
427.485	3.09
427.842	3.08
428.199	3.09
428.555	3.07
428.912	3.07
429.269	3.06
429.625	3.06
429.982	3.05
430.338	3.03
430.695	3.04
431.051	3.05
431.407	3.04
431.764	3.03
432.12	3.02
432.476	3.03
432.832	3.02
433.189	3.02
433.545	3.03
433.901	3
434.257	2.99
434.613	2.99
434.969	2.99
435.325	3.01
435.681	3.01
436.036	3.02
436.392	3
436.748	3
437.104	2.98
437.459	2.97
437.815	2.97
438.171	2.95
438.526	2.95
438.882	2.95
439.237	2.95
439.593	2.97
439.948	2.96
440.304	2.96
440.659	2.95
441.014	2.96
441.369	2.95
441.725	2.95
442.08	2.94
442.435	2.93
442.79	2.9
443.145	2.89
443.5	2.88
443.855	2.89
444.21	2.88
444.565	2.9
444.92	2.9
445.275	2.89
445.629	2.87
445.984	2.87
446.339	2.86
446.693	2.85
447.048	2.82
447.403	2.81
447.757	2.81
448.112	2.8
448.466	2.78
448.82	2.79
449.175	2.79
449.529	2.79
449.883	2.78
450.238	2.78
450.592	2.79
450.946	2.8
451.3	2.79
451.654	2.79
452.008	2.77
452.362	2.77
452.716	2.79
453.07	2.79
453.424	2.8
453.778	2.8
454.132	2.79
454.486	2.79
454.839	2.78
455.193	2.76
455.547	2.78
455.9	2.78
456.254	2.78
456.607	2.8
456.961	2.79
457.314	2.78
457.668	2.8
458.021	2.78
458.375	2.78
458.728	2.76
459.081	2.76
459.434	2.75
459.787	2.76
460.141	2.76
460.494	2.76
460.847	2.77
461.2	2.76
461.553	2.79
461.906	2.81
462.259	2.82
462.611	2.83
462.964	2.83
463.317	2.85
463.67	2.86
464.022	2.84
464.375	2.84
464.728	2.84
465.08	2.84
465.433	2.84
465.785	2.84
466.138	2.86
466.49	2.86
466.843	2.87
467.195	2.86
467.547	2.85
467.899	2.87
468.252	2.88
468.604	2.88
468.956	2.86
469.308	2.86
469.66	2.84
470.012	2.85
470.364	2.85
470.716	2.84
471.068	2.83
471.42	2.82
471.772	2.83
472.123	2.83
472.475	2.82
472.827	2.84
473.178	2.85
473.53	2.84
473.882	2.84
474.233	2.86
474.585	2.84
474.936	2.84
475.288	2.82
475.639	2.82
475.99	2.81
476.342	2.82
476.693	2.82
477.044	2.83
477.395	2.83
477.746	2.83
478.097	2.82
478.448	2.82
478.8	2.83
479.15	2.81
479.501	2.81
479.852	2.81
480.203	2.81
480.554	2.81
480.905	2.82
481.255	2.83
481.606	2.82
481.957	2.83
482.307	2.85
482.658	2.85
483.009	2.85
483.359	2.87
483.709	2.87
484.06	2.87
484.41	2.87
484.761	2.88
485.111	2.88
485.461	2.88
485.811	2.89
486.162	2.89
486.512	2.9
486.862	2.91
487.212	2.91
487.562	2.92
487.912	2.93
488.262	2.93
488.612	2.93
488.961	2.93
489.311	2.95
489.661	2.95
490.011	2.95
490.36	2.95
490.71	2.95
491.06	2.96
491.409	2.96
491.759	2.95
492.108	2.95
492.458	2.95
492.807	2.95
493.157	2.97
493.506	2.98
493.855	2.98
494.204	2.98
494.554	3
494.903	2.97
495.252	2.98
495.601	2.98
495.95	3
496.299	3
496.648	3
496.997	3
497.346	3.02
497.695	3.04
498.043	3.06
498.392	3.06
498.741	3.09
499.09	3.1
499.438	3.14
499.787	3.17
500.135	3.18
500.484	3.19
500.832	3.2
501.181	3.23
501.529	3.25
501.878	3.28
502.226	3.3
502.574	3.31
502.923	3.32
503.271	3.34
503.619	3.38
503.967	3.38
504.315	3.41
504.663	3.41
505.011	3.45
505.359	3.46
505.707	3.5
506.055	3.49
506.403	3.54
506.751	3.55
507.098	3.56
507.446	3.59
507.794	3.59
508.141	3.61
508.489	3.65
508.837	3.69
509.184	3.7
509.531	3.73
509.879	3.78
510.226	3.84
510.574	3.87
510.921	3.88
511.268	3.91
511.616	3.95
511.963	3.98
512.31	3.98
512.657	4
513.004	4.02
513.351	4.07
513.698	4.09
514.045	4.11
514.392	4.13
514.739	4.15
515.086	4.18
515.432	4.21
515.779	4.23
516.126	4.26
516.473	4.3
516.819	4.34
517.166	4.34
517.512	4.34
517.859	4.36
518.205	4.39
518.552	4.44
518.898	4.46
519.245	4.49
519.591	4.52
519.937	4.54
520.283	4.56
520.629	4.6
520.976	4.63
521.322	4.68
521.668	4.73
522.014	4.78
522.36	4.82
522.706	4.89
523.052	4.94
523.398	5
523.743	5.06
524.089	5.1
524.435	5.16
524.781	5.22
525.126	5.27
525.472	5.33
525.817	5.38
526.163	5.4
526.509	5.44
526.854	5.48
527.199	5.52
527.545	5.54
527.89	5.58
528.235	5.61
528.581	5.64
528.926	5.7
529.271	5.75
529.616	5.78
529.961	5.83
530.306	5.87
530.651	5.91
530.996	5.97
531.341	6.03
531.686	6.09
532.031	6.16
532.376	6.21
532.721	6.27
533.065	6.34
533.41	6.42
533.755	6.48
534.099	6.55
534.444	6.64
534.788	6.74
535.133	6.84
535.477	6.93
535.822	7.03
536.166	7.11
536.51	7.21
536.855	7.37
537.199	7.49
537.543	7.62
537.887	7.76
538.231	7.89
538.576	8.04
538.92	8.17
539.264	8.29
539.608	8.43
539.951	8.57
540.295	8.68
540.639	8.82
540.983	8.94
541.327	9.08
541.671	9.22
542.014	9.35
542.358	9.47
542.701	9.59
543.045	9.72
543.389	9.87
543.732	10.03
544.075	10.17
544.419	10.32
544.762	10.49
545.105	10.67
545.449	10.85
545.792	11.04
546.135	11.25
546.478	11.49
546.821	11.74
547.165	11.97
547.508	12.26
547.851	12.56
548.194	12.84
548.536	13.13
548.879	13.39
549.222	13.69
549.565	14
549.908	14.34
550.25	14.67
550.593	15.02
550.936	15.34
551.278	15.67
551.621	15.99
551.963	16.35
552.306	16.68
552.648	17.07
552.991	17.4
553.333	17.71
553.675	18.06
554.017	18.39
554.36	18.73
554.702	19.06
555.044	19.38
555.386	19.72
555.728	20.12
556.07	20.5
556.412	20.88
556.754	21.26
557.096	21.66
557.438	22.1
557.78	22.47
558.121	22.88
558.463	23.32
558.805	23.73
559.147	24.11
559.488	24.56
559.83	24.95
560.171	25.38
560.513	25.84
560.854	26.25
561.196	26.63
561.537	27.04
561.878	27.47
562.22	27.87
562.561	28.31
562.902	28.67
563.243	29.09
563.584	29.54
563.925	29.98
564.266	30.37
564.607	30.71
564.948	31.13
565.289	31.49
565.63	31.82
565.971	32.2
566.312	32.58
566.653	32.95
566.993	33.29
567.334	33.65
567.675	33.99
568.015	34.33
568.356	34.71
568.696	35.06
569.037	35.37
569.377	35.71
569.718	35.97
570.058	36.31
570.398	36.62
570.739	36.89
571.079	37.16
571.419	37.47
571.759	37.77
572.099	38.03
572.439	38.35
572.779	38.64
573.119	38.9
573.459	39.16
573.799	39.45
574.139	39.66
574.479	39.92
574.819	40.19
575.158	40.45
575.498	40.7
575.838	40.99
576.177	41.27
576.517	41.53
576.856	41.87
577.196	42.14
577.535	42.41
577.875	42.67
578.214	42.9
578.553	43.16
578.893	43.45
579.232	43.68
579.571	43.9
579.91	44.09
580.25	44.34
580.589	44.59
580.928	44.73
581.267	45.01
581.606	45.21
581.945	45.42
582.283	45.69
582.622	45.86
582.961	46.05
583.3	46.22
583.639	46.41
583.977	46.59
584.316	46.77
584.654	46.94
584.993	47.14
585.332	47.3
585.67	47.51
586.008	47.62
586.347	47.76
586.685	48.02
587.024	48.22
587.362	48.39
587.7	48.45
588.038	48.66
588.376	48.81
588.715	48.95
589.053	49.11
589.391	49.27
589.729	49.45
590.067	49.54
590.404	49.69
590.742	49.8
591.08	49.87
591.418	50.04
591.756	50.15
592.093	50.32
592.431	50.49
592.769	50.61
593.106	50.8
593.444	50.96
593.781	51.01
594.119	51.13
594.456	51.17
594.793	51.31
595.131	51.36
595.468	51.48
595.805	51.62
596.143	51.69
596.48	51.71
596.817	51.81
597.154	51.94
597.491	52.08
597.828	52.24
598.165	52.37
598.502	52.46
598.839	52.62
599.176	52.71
599.512	52.83
599.849	52.99
600.186	53.07
600.523	53.18
600.859	53.26
601.196	53.36
601.532	53.52
601.869	53.62
602.205	53.75
602.542	53.86
602.878	53.87
603.215	53.97
603.551	54.08
603.887	54.15
604.223	54.2
604.56	54.23
604.896	54.24
605.232	54.32
605.568	54.41
605.904	54.52
606.24	54.55
606.576	54.66
606.912	54.64
607.248	54.74
607.583	54.78
607.919	54.93
608.255	55.03
608.591	55.09
608.926	55.25
609.262	55.35
609.597	55.34
609.933	55.5
610.268	55.58
610.604	55.64
610.939	55.71
611.275	55.79
611.61	55.81
611.945	55.93
612.281	56.08
612.616	56.2
612.951	56.21
613.286	56.29
613.621	56.31
613.956	56.4
614.291	56.4
614.626	56.52
614.961	56.58
615.296	56.61
615.631	56.7
615.966	56.69
616.3	56.67
616.635	56.79
616.97	56.74
617.304	56.84
617.639	56.95
617.973	56.95
618.308	56.99
618.642	57.09
618.977	57.17
619.311	57.13
619.646	57.06
619.98	57.1
620.314	57.19
620.648	57.28
620.983	57.41
621.317	57.56
621.651	57.63
621.985	57.7
622.319	57.83
622.653	57.93
622.987	57.98
623.321	58.02
623.655	58.11
623.988	58.24
624.322	58.23
624.656	58.22
624.99	58.32
625.323	58.39
625.657	58.45
625.99	58.42
626.324	58.44
626.657	58.44
626.991	58.51
627.324	58.47
627.658	58.53
627.991	58.46
628.324	58.44
628.657	58.42
628.991	58.47
629.324	58.43
629.657	58.45
629.99	58.5
630.323	58.59
630.656	58.57
630.989	58.63
631.322	58.67
631.655	58.75
631.987	58.82
632.32	58.91
632.653	58.96
632.986	59.02
633.318	59.07
633.651	59.16
633.984	59.19
634.316	59.26
634.649	59.28
634.981	59.36
635.313	59.44
635.646	59.55
635.978	59.55
636.31	59.66
636.643	59.66
636.975	59.7
637.307	59.73
637.639	59.75
637.971	59.76
638.303	59.81
638.635	59.73
638.967	59.67
639.299	59.68
639.631	59.68
639.963	59.65
640.295	59.76
640.626	59.76
640.958	59.76
641.29	59.94
641.621	59.9
641.953	59.95
642.285	59.96
642.616	59.94
642.948	60.02
643.279	59.96
643.61	59.96
643.942	59.95
644.273	59.98
644.604	60.06
644.936	60.14
645.267	60.1
645.598	60.24
645.929	60.29
646.26	60.27
646.591	60.29
646.922	60.28
647.253	60.3
647.584	60.33
647.915	60.33
648.245	60.18
648.576	60.21
648.907	60.23
649.238	60.31
649.568	60.4
649.899	60.36
650.229	60.45
650.56	60.47
650.89	60.49
651.221	60.54
651.551	60.5
651.882	60.49
652.212	60.54
652.542	60.59
652.872	60.56
653.203	60.6
653.533	60.58
653.863	60.78
654.193	60.8
654.523	60.82
654.853	60.8
655.183	60.74
655.513	60.83
655.843	60.89
656.172	60.83
656.502	60.8
656.832	60.75
657.162	60.75
657.491	60.8
657.821	60.78
658.15	60.75
658.48	60.82
658.809	60.87
659.139	60.94
659.468	60.91
659.798	61.04
660.127	60.98
660.456	61.02
660.785	60.98
661.115	60.86
661.444	60.94
661.773	60.98
662.102	61.14
662.431	61.22
662.76	61.24
663.089	61.28
663.418	61.3
663.747	61.41
664.076	61.44
664.404	61.51
664.733	61.59
665.062	61.49
665.39	61.43
665.719	61.36
666.048	61.34
666.376	61.38
