Data from BA56832_Reflection_00002.txt Node
Date: Mon Nov 18 16:09:32 EST 2019
User: vgr7
Spectrometer: USB2G7710
Scans to average: 3
Trigger mode: 4
Integration Time (sec): 2.000000E-2
Electric dark correction enabled: true
Boxcar width: 10
XAxis mode: Wavelengths
Number of Pixels in Spectrum: 2048
>>>>>Begin Spectral Data<<<<<
177.721	-0.66
178.105	6.3
178.488	22.92
178.871	77.15
179.254	102.47
179.636	40.84
180.019	-103.52
180.402	192.31
180.785	326.8
181.168	-112.33
181.55	10.24
181.933	70.15
182.316	140.43
182.698	254.2
183.081	158.79
183.463	165.5
183.846	120.36
184.228	108.65
184.611	136.1
184.993	156.78
185.376	172.97
185.758	253.25
186.14	334.66
186.522	679.65
186.904	8695.74
187.287	8066.1
187.669	-3453.96
188.051	-686.8
188.433	-539.58
188.815	-877.13
189.197	-548.71
189.579	-302.57
189.961	-251.72
190.342	-339.28
190.724	-272.94
191.106	-210.84
191.488	-255.66
191.869	-230.53
192.251	-213.35
192.633	-277.13
193.014	-374.58
193.396	-579.88
193.777	-828.9
194.159	-1117.98
194.54	-435.48
194.922	-327.18
195.303	-314.06
195.684	-259.52
196.065	-152.16
196.447	-183.66
196.828	-169.44
197.209	-185.03
197.59	-165.79
197.971	-223.9
198.352	-268.08
198.733	-427.32
199.114	-286.35
199.495	-251.28
199.876	-316.06
200.257	-239.66
200.638	-196.77
201.018	-174.77
201.399	-137.7
201.78	-119.52
202.16	-144.84
202.541	-197.7
202.922	-327.98
203.302	-368.41
203.683	-260.59
204.063	-319.69
204.444	-333.31
204.824	-257.5
205.204	-230.66
205.585	-238.5
205.965	-207.27
206.345	-162.53
206.725	-159.32
207.106	-327.52
207.486	-556.28
207.866	-571.98
208.246	-1351.99
208.626	18789.66
209.006	-4247.83
209.386	-1276.62
209.766	-663.54
210.145	-444.83
210.525	-296.11
210.905	-211.81
211.285	-163.83
211.664	-178.84
212.044	-174.33
212.424	-148.06
212.803	-214.44
213.183	-219.89
213.562	-175.81
213.942	-164.5
214.321	-167.17
214.701	-201.46
215.08	-133.38
215.459	-117.73
215.838	-118.16
216.218	-84.39
216.597	-70.27
216.976	-75.73
217.355	-77.95
217.734	-100.43
218.113	-81.44
218.492	-110.06
218.871	-120.4
219.25	-134.86
219.629	-140.33
220.008	-190.84
220.387	-229.43
220.766	-165.12
221.144	-198.01
221.523	-232.01
221.902	-233.11
222.28	-210.36
222.659	-128.72
223.037	-117.9
223.416	-139.27
223.794	-92.96
224.173	-106.65
224.551	-89.6
224.929	-80.64
225.308	-64.64
225.686	-44.01
226.064	-41.48
226.442	-35.58
226.821	-28.17
227.199	-25.6
227.577	-23.94
227.955	-21.76
228.333	-19.77
228.711	-19.8
229.089	-14.94
229.467	-19.62
229.845	-23.7
230.222	-20.3
230.6	-19.31
230.978	-16.97
231.356	-11.97
231.733	-13.82
232.111	-11.93
232.488	-11.34
232.866	-11.17
233.243	-9.39
233.621	-11.36
233.998	-11.27
234.376	-11.17
234.753	-11.62
235.13	-10.82
235.508	-9.22
235.885	-7.01
236.262	-6.25
236.639	-6.69
237.016	-6.85
237.393	-4.72
237.77	-2.39
238.147	-1.61
238.524	-1.38
238.901	0.52
239.278	0.68
239.655	1.61
240.032	1.46
240.409	1.41
240.785	1.69
241.162	1.59
241.539	2.28
241.915	2.16
242.292	2.18
242.668	2.76
243.045	3.04
243.421	3.38
243.798	3.48
244.174	3.88
244.551	3.86
244.927	3.93
245.303	4.12
245.679	4.09
246.056	4.03
246.432	4.19
246.808	4.02
247.184	4.12
247.56	3.85
247.936	3.96
248.312	3.86
248.688	4.06
249.064	3.96
249.44	3.85
249.815	4.15
250.191	4.32
250.567	4.25
250.943	4.27
251.318	4.41
251.694	4.34
252.069	4.02
252.445	4.17
252.82	4.15
253.196	3.93
253.571	3.89
253.947	3.67
254.322	3.62
254.697	3.53
255.073	3.33
255.448	3.44
255.823	3.3
256.198	3.47
256.573	3.45
256.948	3.57
257.323	3.88
257.698	3.9
258.073	3.79
258.448	3.72
258.823	3.51
259.198	3.36
259.573	3.37
259.948	3.3
260.322	3.36
260.697	3.29
261.072	3.32
261.446	3.3
261.821	3.48
262.195	3.55
262.57	3.55
262.944	3.57
263.319	3.56
263.693	3.58
264.067	3.6
264.442	3.63
264.816	3.59
265.19	3.24
265.564	3.17
265.938	3.17
266.313	3.12
266.687	3.27
267.061	3.18
267.435	3.17
267.809	3.18
268.183	3.08
268.556	3.13
268.93	3.14
269.304	3.32
269.678	3.27
270.051	3.23
270.425	3.12
270.799	3.1
271.172	3.1
271.546	3.1
271.919	2.94
272.293	2.72
272.666	2.68
273.04	2.81
273.413	2.84
273.787	2.84
274.16	2.88
274.533	2.75
274.906	2.67
275.279	2.66
275.653	2.79
276.026	2.75
276.399	2.75
276.772	2.8
277.145	2.61
277.518	2.63
277.891	2.7
278.263	2.82
278.636	2.89
279.009	2.91
279.382	2.96
279.755	3.03
280.127	3.22
280.5	3.19
280.872	3.36
281.245	3.26
281.617	3.25
281.99	3.4
282.362	3.68
282.735	3.72
283.107	3.65
283.479	3.67
283.852	3.74
284.224	3.68
284.596	3.68
284.968	3.71
285.34	3.71
285.713	3.6
286.085	3.73
286.457	3.75
286.829	3.86
287.201	3.9
287.572	4.03
287.944	4.02
288.316	4.12
288.688	3.99
289.06	4.04
289.431	4.05
289.803	4.05
290.175	3.93
290.546	4.08
290.918	4.16
291.289	4.19
291.661	4.18
292.032	4.39
292.403	4.37
292.775	4.36
293.146	4.32
293.517	4.34
293.889	4.29
294.26	4.23
294.631	4.19
295.002	4.22
295.373	4.13
295.744	4.11
296.115	4.2
296.486	4.21
296.857	4.1
297.228	4.1
297.599	4.09
297.97	4.2
298.34	4.14
298.711	4.25
299.082	4.19
299.452	4.22
299.823	4.2
300.194	4.29
300.564	4.24
300.935	4.3
301.305	4.17
301.676	4.22
302.046	4.24
302.416	4.29
302.787	4.16
303.157	4.23
303.527	4.24
303.897	4.09
304.267	4.2
304.637	4.29
305.008	4.49
305.378	4.47
305.748	4.53
306.117	4.5
306.487	4.46
306.857	4.42
307.227	4.49
307.597	4.38
307.967	4.3
308.336	4.38
308.706	4.33
309.076	4.57
309.445	4.41
309.815	4.32
310.184	4.2
310.554	4.21
310.923	4.22
311.293	4.22
311.662	4.2
312.031	4.16
312.401	4.15
312.77	4.18
313.139	4.18
313.508	3.99
313.877	3.94
314.246	3.89
314.616	3.79
314.985	3.68
315.353	3.65
315.722	3.68
316.091	3.51
316.46	3.43
316.829	3.32
317.198	3.46
317.567	3.58
317.935	3.65
318.304	3.68
318.672	3.51
319.041	3.56
319.41	3.6
319.778	3.52
320.147	3.37
320.515	3.17
320.883	2.94
321.252	3.01
321.62	2.99
321.988	3.01
322.357	3.19
322.725	3.2
323.093	3.29
323.461	3.28
323.829	3.53
324.197	3.65
324.565	3.66
324.933	3.58
325.301	3.57
325.669	3.57
326.037	3.57
326.405	3.67
326.772	3.57
327.14	3.61
327.508	3.61
327.875	3.73
328.243	3.84
328.61	3.95
328.978	3.92
329.346	3.91
329.713	3.78
330.08	3.75
330.448	3.76
330.815	3.65
331.182	3.61
331.55	3.49
331.917	3.46
332.284	3.48
332.651	3.4
333.018	3.38
333.385	3.36
333.752	3.52
334.119	3.46
334.486	3.5
334.853	3.47
335.22	3.54
335.587	3.61
335.954	3.63
336.32	3.62
336.687	3.58
337.054	3.84
337.42	3.95
337.787	4.01
338.153	4
338.52	4.1
338.886	4.02
339.253	4
339.619	4.09
339.986	4.02
340.352	4.1
340.718	4.15
341.084	4.07
341.451	3.99
341.817	4.1
342.183	4.07
342.549	4.08
342.915	4.09
343.281	4.04
343.647	4.04
344.013	4.09
344.379	4.15
344.745	3.98
345.11	4.02
345.476	4.07
345.842	4.09
346.208	4.03
346.573	4.13
346.939	4.2
347.304	4.13
347.67	4.16
348.035	4.15
348.401	4.2
348.766	4.3
349.132	4.25
349.497	4.17
349.862	4.25
350.228	4.24
350.593	4.18
350.958	4.18
351.323	4.13
351.688	4.2
352.053	4.31
352.418	4.31
352.783	4.29
353.148	4.21
353.513	4.21
353.878	4.27
354.243	4.28
354.608	4.32
354.972	4.32
355.337	4.34
355.702	4.37
356.066	4.38
356.431	4.32
356.795	4.41
357.16	4.42
357.524	4.31
357.889	4.27
358.253	4.29
358.618	4.28
358.982	4.22
359.346	4.06
359.71	3.97
360.075	3.99
360.439	4
360.803	4.02
361.167	4.01
361.531	4.02
361.895	4.01
362.259	3.94
362.623	3.9
362.987	3.89
363.351	3.86
363.714	3.79
364.078	3.79
364.442	3.68
364.806	3.63
365.169	3.68
365.533	3.67
365.896	3.65
366.26	3.66
366.623	3.66
366.987	3.78
367.35	3.79
367.714	3.79
368.077	3.77
368.44	3.75
368.803	3.75
369.167	3.7
369.53	3.71
369.893	3.77
370.256	3.8
370.619	3.81
370.982	3.84
371.345	3.84
371.708	3.86
372.071	3.95
372.434	3.92
372.797	3.96
373.159	3.99
373.522	4.03
373.885	4.07
374.247	4.08
374.61	4.09
374.973	4.1
375.335	4.12
375.698	4.1
376.06	4.06
376.423	4.06
376.785	4.09
377.147	4.12
377.51	4.11
377.872	4.11
378.234	4.13
378.596	4.13
378.958	4.14
379.321	4.15
379.683	4.16
380.045	4.21
380.407	4.16
380.769	4.19
381.13	4.17
381.492	4.14
381.854	4.15
382.216	4.14
382.578	4.11
382.939	4.07
383.301	4.04
383.663	4.08
384.024	4.08
384.386	4.11
384.747	4.12
385.109	4.14
385.47	4.12
385.832	4.13
386.193	4.11
386.554	4.12
386.916	4.12
387.277	4.08
387.638	4.1
387.999	4.14
388.36	4.12
388.721	4.1
389.082	4.09
389.443	4.08
389.804	4.07
390.165	4.05
390.526	4.11
390.887	4.1
391.248	4.12
391.609	4.15
391.969	4.11
392.33	4.09
392.691	4.07
393.051	4.08
393.412	4.04
393.772	4.02
394.133	4.01
394.493	4
394.854	4
395.214	4.01
395.574	4.01
395.935	3.98
396.295	4.01
396.655	3.99
397.015	4
397.376	4.01
397.736	4.05
398.096	4.03
398.456	4.07
398.816	4.08
399.176	4.03
399.535	4.03
399.895	4
400.255	4.01
400.615	4.01
400.975	4.06
401.334	4.08
401.694	4.06
402.054	4.06
402.413	4.07
402.773	4.04
403.132	4.04
403.492	4.1
403.851	4.08
404.211	4.11
404.57	4.08
404.929	4.07
405.288	4.05
405.648	4.04
406.007	4.04
406.366	4.02
406.725	4.07
407.084	4.08
407.443	4.1
407.802	4.11
408.161	4.09
408.52	4.08
408.879	4.07
409.238	4.08
409.596	4.1
409.955	4.1
410.314	4.13
410.673	4.12
411.031	4.08
411.39	4.07
411.748	4.06
412.107	4.11
412.465	4.1
412.824	4.13
413.182	4.11
413.54	4.1
413.899	4.1
414.257	4.1
414.615	4.11
414.974	4.09
415.332	4.08
415.69	4.11
416.048	4.11
416.406	4.15
416.764	4.16
417.122	4.17
417.48	4.15
417.838	4.16
418.195	4.16
418.553	4.16
418.911	4.17
419.269	4.17
419.626	4.16
419.984	4.17
420.342	4.17
420.699	4.17
421.057	4.18
421.414	4.19
421.772	4.19
422.129	4.19
422.486	4.2
422.844	4.21
423.201	4.18
423.558	4.18
423.915	4.16
424.273	4.17
424.63	4.15
424.987	4.16
425.344	4.14
425.701	4.15
426.058	4.16
426.415	4.17
426.772	4.17
427.128	4.17
427.485	4.16
427.842	4.16
428.199	4.15
428.555	4.14
428.912	4.14
429.269	4.15
429.625	4.15
429.982	4.16
430.338	4.16
430.695	4.18
431.051	4.17
431.407	4.17
431.764	4.18
432.12	4.17
432.476	4.18
432.832	4.18
433.189	4.16
433.545	4.17
433.901	4.17
434.257	4.16
434.613	4.17
434.969	4.18
435.325	4.19
435.681	4.2
436.036	4.21
436.392	4.21
436.748	4.19
437.104	4.19
437.459	4.16
437.815	4.16
438.171	4.17
438.526	4.18
438.882	4.16
439.237	4.17
439.593	4.19
439.948	4.18
440.304	4.18
440.659	4.19
441.014	4.19
441.369	4.19
441.725	4.19
442.08	4.18
442.435	4.18
442.79	4.18
443.145	4.2
443.5	4.18
443.855	4.19
444.21	4.19
444.565	4.2
444.92	4.23
445.275	4.22
445.629	4.22
445.984	4.22
446.339	4.23
446.693	4.21
447.048	4.2
447.403	4.19
447.757	4.18
448.112	4.18
448.466	4.18
448.82	4.18
449.175	4.18
449.529	4.18
449.883	4.17
450.238	4.15
450.592	4.16
450.946	4.14
451.3	4.12
451.654	4.12
452.008	4.13
452.362	4.12
452.716	4.1
453.07	4.09
453.424	4.1
453.778	4.12
454.132	4.12
454.486	4.11
454.839	4.12
455.193	4.14
455.547	4.14
455.9	4.13
456.254	4.14
456.607	4.13
456.961	4.15
457.314	4.17
457.668	4.18
458.021	4.14
458.375	4.16
458.728	4.18
459.081	4.18
459.434	4.15
459.787	4.15
460.141	4.17
460.494	4.18
460.847	4.18
461.2	4.17
461.553	4.17
461.906	4.19
462.259	4.21
462.611	4.21
462.964	4.22
463.317	4.21
463.67	4.21
464.022	4.22
464.375	4.2
464.728	4.19
465.08	4.21
465.433	4.22
465.785	4.19
466.138	4.17
466.49	4.16
466.843	4.15
467.195	4.15
467.547	4.14
467.899	4.13
468.252	4.11
468.604	4.13
468.956	4.12
469.308	4.12
469.66	4.09
470.012	4.1
470.364	4.1
470.716	4.12
471.068	4.14
471.42	4.14
471.772	4.16
472.123	4.15
472.475	4.15
472.827	4.16
473.178	4.17
473.53	4.18
473.882	4.2
474.233	4.23
474.585	4.21
474.936	4.22
475.288	4.22
475.639	4.24
475.99	4.25
476.342	4.28
476.693	4.28
477.044	4.3
477.395	4.31
477.746	4.29
478.097	4.27
478.448	4.26
478.8	4.25
479.15	4.24
479.501	4.27
479.852	4.26
480.203	4.28
480.554	4.3
480.905	4.32
481.255	4.33
481.606	4.34
481.957	4.35
482.307	4.35
482.658	4.35
483.009	4.35
483.359	4.35
483.709	4.35
484.06	4.34
484.41	4.35
484.761	4.35
485.111	4.36
485.461	4.37
485.811	4.37
486.162	4.37
486.512	4.37
486.862	4.37
487.212	4.37
487.562	4.37
487.912	4.37
488.262	4.37
488.612	4.37
488.961	4.36
489.311	4.36
489.661	4.36
490.011	4.37
490.36	4.38
490.71	4.38
491.06	4.38
491.409	4.38
491.759	4.38
492.108	4.37
492.458	4.36
492.807	4.34
493.157	4.36
493.506	4.36
493.855	4.35
494.204	4.35
494.554	4.35
494.903	4.34
495.252	4.33
495.601	4.35
495.95	4.35
496.299	4.35
496.648	4.34
496.997	4.35
497.346	4.36
497.695	4.34
498.043	4.32
498.392	4.31
498.741	4.31
499.09	4.32
499.438	4.33
499.787	4.35
500.135	4.38
500.484	4.37
500.832	4.39
501.181	4.4
501.529	4.4
501.878	4.41
502.226	4.4
502.574	4.42
502.923	4.4
503.271	4.39
503.619	4.4
503.967	4.42
504.315	4.41
504.663	4.41
505.011	4.42
505.359	4.43
505.707	4.44
506.055	4.45
506.403	4.47
506.751	4.46
507.098	4.45
507.446	4.46
507.794	4.48
508.141	4.48
508.489	4.49
508.837	4.48
509.184	4.48
509.531	4.51
509.879	4.52
510.226	4.52
510.574	4.53
510.921	4.53
511.268	4.53
511.616	4.54
511.963	4.55
512.31	4.55
512.657	4.57
513.004	4.57
513.351	4.58
513.698	4.57
514.045	4.57
514.392	4.57
514.739	4.55
515.086	4.55
515.432	4.56
515.779	4.55
516.126	4.58
516.473	4.59
516.819	4.59
517.166	4.58
517.512	4.57
517.859	4.57
518.205	4.58
518.552	4.59
518.898	4.58
519.245	4.56
519.591	4.57
519.937	4.55
520.283	4.56
520.629	4.56
520.976	4.57
521.322	4.58
521.668	4.59
522.014	4.6
522.36	4.6
522.706	4.59
523.052	4.57
523.398	4.58
523.743	4.59
524.089	4.61
524.435	4.63
524.781	4.65
525.126	4.66
525.472	4.67
525.817	4.68
526.163	4.68
526.509	4.71
526.854	4.71
527.199	4.73
527.545	4.71
527.89	4.72
528.235	4.71
528.581	4.71
528.926	4.71
529.271	4.71
529.616	4.71
529.961	4.72
530.306	4.74
530.651	4.75
530.996	4.75
531.341	4.72
531.686	4.72
532.031	4.73
532.376	4.73
532.721	4.74
533.065	4.73
533.41	4.75
533.755	4.74
534.099	4.74
534.444	4.74
534.788	4.77
535.133	4.77
535.477	4.78
535.822	4.78
536.166	4.79
536.51	4.8
536.855	4.8
537.199	4.81
537.543	4.82
537.887	4.8
538.231	4.79
538.576	4.81
538.92	4.82
539.264	4.82
539.608	4.81
539.951	4.79
540.295	4.79
540.639	4.76
540.983	4.78
541.327	4.78
541.671	4.78
542.014	4.77
542.358	4.77
542.701	4.78
543.045	4.79
543.389	4.78
543.732	4.77
544.075	4.77
544.419	4.77
544.762	4.76
545.105	4.78
545.449	4.8
545.792	4.81
546.135	4.8
546.478	4.8
546.821	4.79
547.165	4.81
547.508	4.82
547.851	4.82
548.194	4.81
548.536	4.81
548.879	4.79
549.222	4.8
549.565	4.82
549.908	4.8
550.25	4.8
550.593	4.83
550.936	4.81
551.278	4.8
551.621	4.82
551.963	4.83
552.306	4.81
552.648	4.81
552.991	4.8
553.333	4.8
553.675	4.8
554.017	4.81
554.36	4.8
554.702	4.8
555.044	4.82
555.386	4.81
555.728	4.81
556.07	4.84
556.412	4.84
556.754	4.82
557.096	4.82
557.438	4.84
557.78	4.83
558.121	4.87
558.463	4.88
558.805	4.87
559.147	4.85
559.488	4.85
559.83	4.85
560.171	4.83
560.513	4.85
560.854	4.85
561.196	4.89
561.537	4.89
561.878	4.88
562.22	4.87
562.561	4.88
562.902	4.87
563.243	4.88
563.584	4.89
563.925	4.9
564.266	4.87
564.607	4.87
564.948	4.9
565.289	4.87
565.63	4.88
565.971	4.87
566.312	4.85
566.653	4.87
566.993	4.87
567.334	4.89
567.675	4.89
568.015	4.88
568.356	4.87
568.696	4.89
569.037	4.91
569.377	4.91
569.718	4.91
570.058	4.92
570.398	4.9
570.739	4.9
571.079	4.9
571.419	4.92
571.759	4.9
572.099	4.88
572.439	4.89
572.779	4.89
573.119	4.89
573.459	4.93
573.799	4.92
574.139	4.91
574.479	4.91
574.819	4.9
575.158	4.91
575.498	4.92
575.838	4.89
576.177	4.83
576.517	4.87
576.856	4.88
577.196	4.89
577.535	4.89
577.875	4.89
578.214	4.91
578.553	4.93
578.893	4.92
579.232	4.94
579.571	4.95
579.91	4.96
580.25	4.99
580.589	4.95
580.928	4.98
581.267	5
581.606	5
581.945	5.03
582.283	5
582.622	4.99
582.961	4.98
583.3	5.02
583.639	5.03
583.977	5.02
584.316	5
584.654	5
584.993	5.01
585.332	5.01
585.67	5.01
586.008	5.02
586.347	4.99
586.685	4.98
587.024	4.99
587.362	4.95
587.7	4.96
588.038	4.94
588.376	4.94
588.715	4.92
589.053	4.94
589.391	5
589.729	4.98
590.067	4.97
590.404	4.98
590.742	4.97
591.08	4.98
591.418	5.02
591.756	5
592.093	4.99
592.431	4.97
592.769	4.97
593.106	4.97
593.444	4.97
593.781	4.99
594.119	4.99
594.456	4.98
594.793	4.99
595.131	5.01
595.468	5.02
595.805	5.02
596.143	5
596.48	5
596.817	5.01
597.154	5.03
597.491	5.03
597.828	5.04
598.165	5.02
598.502	5.01
598.839	5.04
599.176	5.02
599.512	5.07
599.849	5.05
600.186	5.06
600.523	5.09
600.859	5.1
601.196	5.08
601.532	5.1
601.869	5.1
602.205	5.08
602.542	5.1
602.878	5.05
603.215	5.05
603.551	5.03
603.887	5.04
604.223	5.04
604.56	5.05
604.896	5.04
605.232	5.09
605.568	5.09
605.904	5.07
606.24	5.1
606.576	5.08
606.912	5.08
607.248	5.08
607.583	5.07
607.919	5.05
608.255	5.05
608.591	5.08
608.926	5.05
609.262	5.06
609.597	5.08
609.933	5.15
610.268	5.16
610.604	5.16
610.939	5.16
611.275	5.18
611.61	5.19
611.945	5.19
612.281	5.13
612.616	5.11
612.951	5.14
613.286	5.15
613.621	5.12
613.956	5.1
614.291	5.09
614.626	5.13
614.961	5.13
615.296	5.1
615.631	5.06
615.966	5.12
616.3	5.11
616.635	5.08
616.97	5.04
617.304	5.03
617.639	5.05
617.973	5.07
618.308	5.07
618.642	5.07
618.977	5.05
619.311	5.04
619.646	5.06
619.98	5.07
620.314	5.07
620.648	5.08
620.983	5.11
621.317	5.11
621.651	5.12
621.985	5.13
622.319	5.19
622.653	5.22
622.987	5.21
623.321	5.24
623.655	5.24
623.988	5.24
624.322	5.23
624.656	5.25
624.99	5.24
625.323	5.21
625.657	5.21
625.99	5.28
626.324	5.29
626.657	5.29
626.991	5.29
627.324	5.28
627.658	5.32
627.991	5.35
628.324	5.35
628.657	5.31
628.991	5.34
629.324	5.32
629.657	5.31
629.99	5.32
630.323	5.31
630.656	5.28
630.989	5.34
631.322	5.37
631.655	5.37
631.987	5.39
632.32	5.42
632.653	5.44
632.986	5.4
633.318	5.39
633.651	5.42
633.984	5.38
634.316	5.39
634.649	5.36
634.981	5.34
635.313	5.39
635.646	5.36
635.978	5.36
636.31	5.37
636.643	5.36
636.975	5.3
637.307	5.26
637.639	5.29
637.971	5.26
638.303	5.23
638.635	5.22
638.967	5.16
639.299	5.21
639.631	5.15
639.963	5.1
640.295	5.14
640.626	5.08
640.958	5.17
641.29	5.17
641.621	5.12
641.953	5.12
642.285	5.08
642.616	5.17
642.948	5.14
643.279	5.12
643.61	5.23
643.942	5.31
644.273	5.35
644.604	5.41
644.936	5.39
645.267	5.38
645.598	5.36
645.929	5.4
646.26	5.36
646.591	5.44
646.922	5.48
647.253	5.52
647.584	5.55
647.915	5.47
648.245	5.41
648.576	5.48
648.907	5.51
649.238	5.51
649.568	5.45
649.899	5.5
650.229	5.51
650.56	5.43
650.89	5.38
651.221	5.38
651.551	5.3
651.882	5.34
652.212	5.41
652.542	5.44
652.872	5.4
653.203	5.35
653.533	5.31
653.863	5.32
654.193	5.24
654.523	5.25
654.853	5.27
655.183	5.3
655.513	5.22
655.843	5.13
656.172	5.12
656.502	5.19
656.832	5.1
657.162	5.2
657.491	5.24
657.821	5.27
658.15	5.25
658.48	5.27
658.809	5.29
659.139	5.23
659.468	5.21
659.798	5.28
660.127	5.35
660.456	5.39
660.785	5.39
661.115	5.41
661.444	5.41
661.773	5.45
662.102	5.47
662.431	5.54
662.76	5.61
663.089	5.59
663.418	5.58
663.747	5.65
664.076	5.6
664.404	5.56
664.733	5.64
665.062	5.62
665.39	5.59
665.719	5.53
666.048	5.55
666.376	5.55
666.705	5.52
667.033	5.44
667.362	5.48
667.69	5.48
668.018	5.51
668.347	5.5
668.675	5.51
669.003	5.58
669.331	5.62
669.659	5.64
669.987	5.7
670.315	5.64
670.643	5.66
670.971	5.64
671.299	5.66
671.627	5.59
671.955	5.62
672.283	5.66
672.61	5.67
672.938	5.72
673.266	5.73
673.593	5.83
673.921	5.87
674.249	5.78
674.576	5.81
674.904	5.8
