Data from BA56832_Reflection_00013.txt Node
Date: Mon Nov 18 16:10:08 EST 2019
User: vgr7
Spectrometer: USB2G7710
Scans to average: 3
Trigger mode: 4
Integration Time (sec): 2.000000E-2
Electric dark correction enabled: true
Boxcar width: 10
XAxis mode: Wavelengths
Number of Pixels in Spectrum: 2048
>>>>>Begin Spectral Data<<<<<
177.721	-18.67
178.105	28.26
178.488	30.58
178.871	85.06
179.254	32.01
179.636	-148.09
180.019	19.77
180.402	307.69
180.785	605.15
181.168	319.18
181.55	39.69
181.933	76.55
182.316	103.61
182.698	140.28
183.081	110.86
183.463	140.37
183.846	179.09
184.228	125.32
184.611	181.59
184.993	146.13
185.376	143.93
185.758	209.6
186.14	350.81
186.522	696.93
186.904	8376.6
187.287	5879.66
187.669	-1878.42
188.051	-435.08
188.433	-433.42
188.815	-696.26
189.197	-376.13
189.579	-223.47
189.961	-204.21
190.342	-277.57
190.724	-271.23
191.106	-237.37
191.488	-260.72
191.869	-186.66
192.251	-174.91
192.633	-216.11
193.014	-310.46
193.396	-457.98
193.777	-688.2
194.159	-935.96
194.54	-324.79
194.922	-244.29
195.303	-288.85
195.684	-250.09
196.065	-153.53
196.447	-132.12
196.828	-131.82
197.209	-138.06
197.59	-122.78
197.971	-136.19
198.352	-192.95
198.733	-206.16
199.114	-138.87
199.495	-107.85
199.876	-175.84
200.257	-138.32
200.638	-97.72
201.018	-85.09
201.399	-72.02
201.78	-66.05
202.16	-74.18
202.541	-119.49
202.922	-223.06
203.302	-255.46
203.683	-213.36
204.063	-256.41
204.444	-286.35
204.824	-185.91
205.204	-183.72
205.585	-184.01
205.965	-173.08
206.345	-172.27
206.725	-173.91
207.106	-288.29
207.486	-524.15
207.866	-491.23
208.246	-1021.78
208.626	16410.34
209.006	-4326.09
209.386	-1315.58
209.766	-754.69
210.145	-437.15
210.525	-270.35
210.905	-193.29
211.285	-141.24
211.664	-148.52
212.044	-136.62
212.424	-118.65
212.803	-207.05
213.183	-198.53
213.562	-154.57
213.942	-152.31
214.321	-118.22
214.701	-127.56
215.08	-105.41
215.459	-80.2
215.838	-67.88
216.218	-74.88
216.597	-57.07
216.976	-49.6
217.355	-45.18
217.734	-33.54
218.113	-52.59
218.492	-82.35
218.871	-81.17
219.25	-65.38
219.629	-70.67
220.008	-103.87
220.387	-101.68
220.766	-75.01
221.144	-99.44
221.523	-134.79
221.902	-151.17
222.28	-167.23
222.659	-121.04
223.037	-116.9
223.416	-119.54
223.794	-109.39
224.173	-97.73
224.551	-90.27
224.929	-80.03
225.308	-66.27
225.686	-57.91
226.064	-48.12
226.442	-39.88
226.821	-32.94
227.199	-32.19
227.577	-31.57
227.955	-28.09
228.333	-25.21
228.711	-21.38
229.089	-15.1
229.467	-16.34
229.845	-14.79
230.222	-11.34
230.6	-12.92
230.978	-10.84
231.356	-9.03
231.733	-8.23
232.111	-5.73
232.488	-2.48
232.866	-1.21
233.243	-2.22
233.621	-0.78
233.998	1.44
234.376	1.81
234.753	0.47
235.13	0.67
235.508	2.38
235.885	1.6
236.262	-0.14
236.639	-1.12
237.016	-1.17
237.393	0.06
237.77	0.78
238.147	0.89
238.524	3.02
238.901	3.42
239.278	3.25
239.655	4
240.032	3.89
240.409	2.81
240.785	2.73
241.162	3.25
241.539	3.64
241.915	2.84
242.292	2.47
242.668	2.57
243.045	2.72
243.421	2.73
243.798	2.84
244.174	2.83
244.551	3.13
244.927	3.09
245.303	3.15
245.679	3.23
246.056	3.41
246.432	3.2
246.808	3.18
247.184	3.16
247.56	2.92
247.936	2.69
248.312	2.8
248.688	2.69
249.064	2.46
249.44	2.35
249.815	2.58
250.191	2.88
250.567	3.09
250.943	2.9
251.318	3.06
251.694	3.06
252.069	3.16
252.445	3.02
252.82	2.76
253.196	2.84
253.571	2.65
253.947	2.73
254.322	2.64
254.697	2.36
255.073	2.28
255.448	2.35
255.823	2.54
256.198	2.72
256.573	2.83
256.948	3.01
257.323	2.99
257.698	3.02
258.073	3.06
258.448	3
258.823	3.18
259.198	3.07
259.573	3.1
259.948	3.05
260.322	3.07
260.697	3.24
261.072	3.12
261.446	3.27
261.821	3.1
262.195	3.22
262.57	3.28
262.944	3.3
263.319	3.24
263.693	3.13
264.067	3.28
264.442	3.35
264.816	3.19
265.19	3.21
265.564	3.3
265.938	3.16
266.313	2.99
266.687	2.88
267.061	2.96
267.435	2.87
267.809	2.92
268.183	3.11
268.556	2.93
268.93	3.03
269.304	2.88
269.678	2.97
270.051	2.77
270.425	2.98
270.799	3.07
271.172	3.17
271.546	3.23
271.919	2.93
272.293	2.81
272.666	2.88
273.04	2.87
273.413	2.79
273.787	2.83
274.16	3.02
274.533	2.93
274.906	2.82
275.279	2.87
275.653	2.8
276.026	2.7
276.399	2.74
276.772	2.67
277.145	2.69
277.518	2.7
277.891	2.89
278.263	2.72
278.636	2.66
279.009	2.72
279.382	2.8
279.755	3.01
280.127	3.11
280.5	3.21
280.872	3.42
281.245	3.35
281.617	3.41
281.99	3.47
282.362	3.55
282.735	3.56
283.107	3.47
283.479	3.5
283.852	3.47
284.224	3.61
284.596	3.62
284.968	3.68
285.34	3.64
285.713	3.6
286.085	3.58
286.457	3.71
286.829	3.69
287.201	3.77
287.572	3.58
287.944	3.49
288.316	3.5
288.688	3.38
289.06	3.47
289.431	3.43
289.803	3.41
290.175	3.4
290.546	3.47
290.918	3.42
291.289	3.44
291.661	3.4
292.032	3.47
292.403	3.48
292.775	3.46
293.146	3.36
293.517	3.51
293.889	3.61
294.26	3.62
294.631	3.64
295.002	3.5
295.373	3.73
295.744	3.84
296.115	3.81
296.486	3.73
296.857	3.7
297.228	3.79
297.599	3.76
297.97	3.79
298.34	3.81
298.711	3.97
299.082	3.91
299.452	3.99
299.823	3.99
300.194	4.03
300.564	3.95
300.935	4.13
301.305	4.01
301.676	4.05
302.046	3.94
302.416	3.97
302.787	3.94
303.157	4.04
303.527	3.97
303.897	3.97
304.267	4.17
304.637	4.18
305.008	4.24
305.378	4.25
305.748	4.33
306.117	4.33
306.487	4.37
306.857	4.57
307.227	4.62
307.597	4.5
307.967	4.58
308.336	4.8
308.706	4.77
309.076	4.69
309.445	4.61
309.815	4.63
310.184	4.59
310.554	4.74
310.923	4.58
311.293	4.73
311.662	4.79
312.031	4.64
312.401	4.68
312.77	4.7
313.139	4.87
313.508	4.77
313.877	4.74
314.246	4.8
314.616	4.74
314.985	4.78
315.353	4.87
315.722	4.79
316.091	4.76
316.46	4.76
316.829	4.95
317.198	5.01
317.567	5.07
317.935	5.17
318.304	5.29
318.672	5.36
319.041	5.44
319.41	5.48
319.778	5.6
320.147	5.72
320.515	5.71
320.883	5.55
321.252	5.67
321.62	5.66
321.988	5.51
322.357	5.63
322.725	5.54
323.093	5.43
323.461	5.45
323.829	5.47
324.197	5.57
324.565	5.64
324.933	5.6
325.301	5.61
325.669	5.59
326.037	5.49
326.405	5.49
326.772	5.35
327.14	5.4
327.508	5.43
327.875	5.33
328.243	5.35
328.61	5.33
328.978	5.38
329.346	5.45
329.713	5.46
330.08	5.44
330.448	5.39
330.815	5.46
331.182	5.57
331.55	5.74
331.917	5.8
332.284	5.73
332.651	5.78
333.018	5.77
333.385	5.87
333.752	5.91
334.119	5.99
334.486	6.01
334.853	6.01
335.22	6.03
335.587	6.07
335.954	5.97
336.32	5.94
336.687	5.92
337.054	5.9
337.42	5.93
337.787	5.97
338.153	6.1
338.52	6.15
338.886	6.05
339.253	5.91
339.619	5.87
339.986	5.81
340.352	5.85
340.718	5.87
341.084	5.81
341.451	5.92
341.817	5.95
342.183	6.1
342.549	6.03
342.915	6.1
343.281	6.11
343.647	6.14
344.013	6.22
344.379	6.14
344.745	6.21
345.11	6.31
345.476	6.26
345.842	6.28
346.208	6.28
346.573	6.4
346.939	6.45
347.304	6.48
347.67	6.55
348.035	6.52
348.401	6.59
348.766	6.72
349.132	6.65
349.497	6.64
349.862	6.61
350.228	6.68
350.593	6.65
350.958	6.73
351.323	6.8
351.688	6.88
352.053	7.04
352.418	7.09
352.783	7.1
353.148	7.19
353.513	7.19
353.878	7.2
354.243	7.2
354.608	7.17
354.972	7.12
355.337	7.2
355.702	7.28
356.066	7.27
356.431	7.13
356.795	7.17
357.16	7.14
357.524	7.05
357.889	7.03
358.253	7.05
358.618	7.01
358.982	6.98
359.346	6.93
359.71	6.79
360.075	6.69
360.439	6.7
360.803	6.7
361.167	6.57
361.531	6.53
361.895	6.44
362.259	6.4
362.623	6.42
362.987	6.36
363.351	6.28
363.714	6.29
364.078	6.31
364.442	6.27
364.806	6.27
365.169	6.26
365.533	6.24
365.896	6.18
366.26	6.14
366.623	6.13
366.987	6.1
367.35	6.14
367.714	6.16
368.077	6.06
368.44	6.01
368.803	6.06
369.167	6.01
369.53	5.98
369.893	5.99
370.256	5.9
370.619	5.83
370.982	5.84
371.345	5.74
371.708	5.77
372.071	5.73
372.434	5.64
372.797	5.68
373.159	5.65
373.522	5.63
373.885	5.64
374.247	5.59
374.61	5.58
374.973	5.52
375.335	5.46
375.698	5.5
376.06	5.49
376.423	5.47
376.785	5.5
377.147	5.52
377.51	5.47
377.872	5.51
378.234	5.49
378.596	5.49
378.958	5.48
379.321	5.39
379.683	5.38
380.045	5.44
380.407	5.35
380.769	5.3
381.13	5.29
381.492	5.2
381.854	5.21
382.216	5.15
382.578	5.15
382.939	5.13
383.301	5.08
383.663	5.02
384.024	4.97
384.386	5
384.747	4.98
385.109	4.96
385.47	4.89
385.832	4.91
386.193	4.91
386.554	4.87
386.916	4.86
387.277	4.87
387.638	4.8
387.999	4.74
388.36	4.72
388.721	4.69
389.082	4.68
389.443	4.64
389.804	4.65
390.165	4.66
390.526	4.66
390.887	4.6
391.248	4.62
391.609	4.63
391.969	4.56
392.33	4.54
392.691	4.53
393.051	4.49
393.412	4.46
393.772	4.42
394.133	4.42
394.493	4.41
394.854	4.35
395.214	4.33
395.574	4.36
395.935	4.34
396.295	4.33
396.655	4.3
397.015	4.25
397.376	4.23
397.736	4.2
398.096	4.21
398.456	4.2
398.816	4.15
399.176	4.11
399.535	4.09
399.895	4.09
400.255	4.05
400.615	4.07
400.975	4.02
401.334	3.99
401.694	3.96
402.054	3.94
402.413	3.92
402.773	3.88
403.132	3.85
403.492	3.85
403.851	3.83
404.211	3.84
404.57	3.85
404.929	3.8
405.288	3.77
405.648	3.72
406.007	3.72
406.366	3.7
406.725	3.71
407.084	3.72
407.443	3.69
407.802	3.71
408.161	3.68
408.52	3.67
408.879	3.67
409.238	3.67
409.596	3.62
409.955	3.62
410.314	3.63
410.673	3.62
411.031	3.6
411.39	3.58
411.748	3.57
412.107	3.59
412.465	3.61
412.824	3.61
413.182	3.6
413.54	3.6
413.899	3.59
414.257	3.6
414.615	3.58
414.974	3.58
415.332	3.57
415.69	3.56
416.048	3.55
416.406	3.54
416.764	3.53
417.122	3.54
417.48	3.51
417.838	3.51
418.195	3.49
418.553	3.49
418.911	3.47
419.269	3.47
419.626	3.45
419.984	3.44
420.342	3.44
420.699	3.45
421.057	3.43
421.414	3.43
421.772	3.39
422.129	3.37
422.486	3.36
422.844	3.34
423.201	3.33
423.558	3.31
423.915	3.32
424.273	3.32
424.63	3.32
424.987	3.32
425.344	3.31
425.701	3.31
426.058	3.3
426.415	3.3
426.772	3.3
427.128	3.29
427.485	3.29
427.842	3.27
428.199	3.25
428.555	3.26
428.912	3.27
429.269	3.28
429.625	3.29
429.982	3.31
430.338	3.31
430.695	3.33
431.051	3.34
431.407	3.34
431.764	3.32
432.12	3.31
432.476	3.31
432.832	3.31
433.189	3.33
433.545	3.32
433.901	3.31
434.257	3.3
434.613	3.31
434.969	3.3
435.325	3.3
435.681	3.29
436.036	3.3
436.392	3.26
436.748	3.27
437.104	3.26
437.459	3.24
437.815	3.24
438.171	3.24
438.526	3.26
438.882	3.26
439.237	3.27
439.593	3.28
439.948	3.29
440.304	3.29
440.659	3.27
441.014	3.27
441.369	3.27
441.725	3.26
442.08	3.25
442.435	3.24
442.79	3.24
443.145	3.25
443.5	3.24
443.855	3.24
444.21	3.23
444.565	3.25
444.92	3.25
445.275	3.22
445.629	3.22
445.984	3.2
446.339	3.17
446.693	3.16
447.048	3.14
447.403	3.14
447.757	3.12
448.112	3.11
448.466	3.11
448.82	3.12
449.175	3.13
449.529	3.13
449.883	3.13
450.238	3.12
450.592	3.12
450.946	3.11
451.3	3.1
451.654	3.11
452.008	3.1
452.362	3.07
452.716	3.09
453.07	3.09
453.424	3.1
453.778	3.1
454.132	3.09
454.486	3.09
454.839	3.07
455.193	3.07
455.547	3.08
455.9	3.08
456.254	3.08
456.607	3.08
456.961	3.08
457.314	3.09
457.668	3.08
458.021	3.06
458.375	3.09
458.728	3.09
459.081	3.08
459.434	3.07
459.787	3.09
460.141	3.09
460.494	3.09
460.847	3.08
461.2	3.07
461.553	3.08
461.906	3.1
462.259	3.11
462.611	3.12
462.964	3.13
463.317	3.15
463.67	3.14
464.022	3.13
464.375	3.12
464.728	3.12
465.08	3.14
465.433	3.15
465.785	3.13
466.138	3.15
466.49	3.15
466.843	3.16
467.195	3.15
467.547	3.16
467.899	3.15
468.252	3.17
468.604	3.19
468.956	3.17
469.308	3.16
469.66	3.17
470.012	3.18
470.364	3.17
470.716	3.17
471.068	3.18
471.42	3.19
471.772	3.2
472.123	3.2
472.475	3.21
472.827	3.21
473.178	3.23
473.53	3.21
473.882	3.23
474.233	3.24
474.585	3.22
474.936	3.23
475.288	3.23
475.639	3.22
475.99	3.21
476.342	3.24
476.693	3.22
477.044	3.22
477.395	3.21
477.746	3.2
478.097	3.18
478.448	3.17
478.8	3.18
479.15	3.17
479.501	3.2
479.852	3.19
480.203	3.19
480.554	3.19
480.905	3.22
481.255	3.23
481.606	3.22
481.957	3.24
482.307	3.23
482.658	3.24
483.009	3.25
483.359	3.25
483.709	3.26
484.06	3.27
484.41	3.28
484.761	3.28
485.111	3.28
485.461	3.29
485.811	3.29
486.162	3.29
486.512	3.3
486.862	3.29
487.212	3.3
487.562	3.31
487.912	3.32
488.262	3.31
488.612	3.31
488.961	3.32
489.311	3.31
489.661	3.31
490.011	3.32
490.36	3.31
490.71	3.31
491.06	3.31
491.409	3.31
491.759	3.3
492.108	3.31
492.458	3.31
492.807	3.32
493.157	3.33
493.506	3.34
493.855	3.33
494.204	3.33
494.554	3.34
494.903	3.33
495.252	3.32
495.601	3.33
495.95	3.34
496.299	3.33
496.648	3.34
496.997	3.34
497.346	3.34
497.695	3.36
498.043	3.39
498.392	3.39
498.741	3.39
499.09	3.42
499.438	3.44
499.787	3.46
500.135	3.47
500.484	3.48
500.832	3.5
501.181	3.5
501.529	3.53
501.878	3.53
502.226	3.54
502.574	3.56
502.923	3.57
503.271	3.6
503.619	3.62
503.967	3.66
504.315	3.68
504.663	3.7
505.011	3.72
505.359	3.72
505.707	3.76
506.055	3.78
506.403	3.79
506.751	3.82
507.098	3.83
507.446	3.86
507.794	3.89
508.141	3.9
508.489	3.95
508.837	3.96
509.184	3.99
509.531	4.02
509.879	4.06
510.226	4.09
510.574	4.08
510.921	4.11
511.268	4.11
511.616	4.15
511.963	4.19
512.31	4.2
512.657	4.23
513.004	4.24
513.351	4.27
513.698	4.3
514.045	4.31
514.392	4.34
514.739	4.36
515.086	4.37
515.432	4.4
515.779	4.41
516.126	4.45
516.473	4.48
516.819	4.49
517.166	4.51
517.512	4.53
517.859	4.57
518.205	4.59
518.552	4.63
518.898	4.66
519.245	4.67
519.591	4.7
519.937	4.71
520.283	4.75
520.629	4.78
520.976	4.81
521.322	4.84
521.668	4.88
522.014	4.92
522.36	4.97
522.706	5
523.052	5.06
523.398	5.11
523.743	5.16
524.089	5.22
524.435	5.27
524.781	5.31
525.126	5.36
525.472	5.41
525.817	5.44
526.163	5.47
526.509	5.52
526.854	5.55
527.199	5.59
527.545	5.63
527.89	5.65
528.235	5.69
528.581	5.72
528.926	5.76
529.271	5.81
529.616	5.84
529.961	5.88
530.306	5.91
530.651	5.95
530.996	6
531.341	6.03
531.686	6.08
532.031	6.13
532.376	6.18
532.721	6.24
533.065	6.3
533.41	6.37
533.755	6.43
534.099	6.51
534.444	6.59
534.788	6.65
535.133	6.73
535.477	6.81
535.822	6.89
536.166	6.99
536.51	7.1
536.855	7.21
537.199	7.34
537.543	7.48
537.887	7.62
538.231	7.75
538.576	7.91
538.92	8.07
539.264	8.21
539.608	8.34
539.951	8.46
540.295	8.57
540.639	8.69
540.983	8.82
541.327	8.95
541.671	9.06
542.014	9.2
542.358	9.33
542.701	9.46
543.045	9.63
543.389	9.77
543.732	9.9
544.075	10.07
544.419	10.25
544.762	10.44
545.105	10.6
545.449	10.82
545.792	11
546.135	11.2
546.478	11.43
546.821	11.69
547.165	11.97
547.508	12.27
547.851	12.55
548.194	12.78
548.536	13.07
548.879	13.4
549.222	13.71
549.565	14.04
549.908	14.36
550.25	14.65
550.593	15.02
550.936	15.37
551.278	15.71
551.621	16.04
551.963	16.38
552.306	16.73
552.648	17.08
552.991	17.46
553.333	17.82
553.675	18.17
554.017	18.52
554.36	18.86
554.702	19.21
555.044	19.6
555.386	20.04
555.728	20.46
556.07	20.84
556.412	21.21
556.754	21.62
557.096	22.05
557.438	22.46
557.78	22.87
558.121	23.27
558.463	23.71
558.805	24.17
559.147	24.62
559.488	25.09
559.83	25.5
560.171	25.93
560.513	26.39
560.854	26.82
561.196	27.2
561.537	27.64
561.878	28.1
562.22	28.54
562.561	28.96
562.902	29.39
563.243	29.82
563.584	30.26
563.925	30.72
564.266	31.1
564.607	31.5
564.948	31.87
565.289	32.31
565.63	32.69
565.971	33.05
566.312	33.38
566.653	33.73
566.993	34.08
567.334	34.44
567.675	34.76
568.015	35.15
568.356	35.58
568.696	35.9
569.037	36.27
569.377	36.61
569.718	36.93
570.058	37.29
570.398	37.68
570.739	38.06
571.079	38.39
571.419	38.79
571.759	39.16
572.099	39.49
572.439	39.82
572.779	40.07
573.119	40.36
573.459	40.71
573.799	41.03
574.139	41.34
574.479	41.63
574.819	41.92
575.158	42.18
575.498	42.5
575.838	42.88
576.177	43.12
576.517	43.4
576.856	43.72
577.196	43.98
577.535	44.22
577.875	44.44
578.214	44.72
578.553	44.96
578.893	45.18
579.232	45.43
579.571	45.66
579.91	46.01
580.25	46.3
580.589	46.52
580.928	46.76
581.267	46.98
581.606	47.21
581.945	47.48
582.283	47.78
582.622	47.96
582.961	48.14
583.3	48.38
583.639	48.63
583.977	48.81
584.316	49
584.654	49.18
584.993	49.43
585.332	49.61
585.67	49.82
586.008	50.04
586.347	50.19
586.685	50.44
587.024	50.61
587.362	50.78
587.7	50.97
588.038	51.18
588.376	51.41
588.715	51.54
589.053	51.78
589.391	51.95
589.729	52.07
590.067	52.24
590.404	52.44
590.742	52.55
591.08	52.67
591.418	52.85
591.756	52.99
592.093	53.16
592.431	53.32
592.769	53.44
593.106	53.66
593.444	53.83
593.781	53.99
594.119	54.14
594.456	54.26
594.793	54.43
595.131	54.55
595.468	54.71
595.805	54.87
596.143	54.94
596.48	55
596.817	55.17
597.154	55.27
597.491	55.33
597.828	55.55
598.165	55.8
598.502	55.89
598.839	56.06
599.176	56.22
599.512	56.4
599.849	56.57
600.186	56.64
600.523	56.77
600.859	56.85
601.196	56.92
601.532	57.02
601.869	57.1
602.205	57.21
602.542	57.29
602.878	57.36
603.215	57.46
603.551	57.62
603.887	57.69
604.223	57.83
604.56	57.93
604.896	57.96
605.232	57.96
605.568	58.06
605.904	58.14
606.24	58.16
606.576	58.21
606.912	58.34
607.248	58.39
607.583	58.51
607.919	58.6
608.255	58.69
608.591	58.78
608.926	58.91
609.262	58.95
609.597	58.93
609.933	59.05
610.268	59.13
610.604	59.2
610.939	59.27
611.275	59.25
611.61	59.31
611.945	59.35
612.281	59.45
612.616	59.51
612.951	59.62
613.286	59.68
613.621	59.74
613.956	59.74
614.291	59.88
614.626	59.97
614.961	60.1
615.296	60.26
615.631	60.33
615.966	60.35
616.3	60.58
616.635	60.65
616.97	60.7
617.304	60.8
617.639	60.88
617.973	60.98
618.308	61.13
618.642	61.14
618.977	61.17
619.311	61.13
619.646	61.1
619.98	61.06
620.314	61.13
620.648	61.19
620.983	61.26
621.317	61.28
621.651	61.31
621.985	61.28
622.319	61.3
622.653	61.33
622.987	61.34
623.321	61.25
623.655	61.5
623.988	61.61
624.322	61.6
624.656	61.61
624.99	61.66
625.323	61.68
625.657	61.86
625.99	61.92
626.324	62.05
626.657	62.25
626.991	62.35
627.324	62.45
627.658	62.49
627.991	62.54
628.324	62.66
628.657	62.7
628.991	62.71
629.324	62.74
629.657	62.79
629.99	62.95
630.323	63.03
630.656	62.96
630.989	62.96
631.322	63.05
631.655	63.13
631.987	63.08
632.32	63.08
632.653	63.08
632.986	63.1
633.318	63.07
633.651	62.99
633.984	63.04
634.316	63.03
634.649	63.07
634.981	63.13
635.313	63.07
635.646	63.11
635.978	63.22
636.31	63.24
636.643	63.27
636.975	63.18
637.307	63.19
637.639	63.21
637.971	63.32
638.303	63.31
638.635	63.35
638.967	63.46
639.299	63.57
639.631	63.57
639.963	63.63
640.295	63.77
640.626	63.83
640.958	63.75
641.29	63.94
641.621	63.9
641.953	63.87
642.285	63.91
642.616	63.98
642.948	64.06
643.279	64.04
643.61	64.07
643.942	64.09
644.273	64.04
644.604	64.05
644.936	64.08
645.267	64.14
645.598	64.05
645.929	64
646.26	64.02
646.591	64.01
646.922	63.95
647.253	63.96
647.584	64.09
647.915	64.17
648.245	64.07
648.576	64.11
648.907	64.06
649.238	64.15
649.568	64.11
649.899	63.99
650.229	64.05
650.56	64.08
650.89	64.13
651.221	64.21
651.551	64.23
651.882	64.15
652.212	64.21
652.542	64.26
652.872	64.24
653.203	64.07
653.533	64.15
653.863	64.3
654.193	64.28
654.523	64.23
654.853	64.23
655.183	64.24
655.513	64.36
655.843	64.46
656.172	64.45
656.502	64.47
656.832	64.61
657.162	64.75
657.491	64.76
657.821	64.95
658.15	64.94
658.48	64.96
658.809	65.07
659.139	65.08
659.468	65.19
659.798	65.36
660.127	65.54
660.456	65.54
660.785	65.57
661.115	65.62
661.444	65.71
661.773	65.68
662.102	65.74
662.431	65.75
662.76	65.8
663.089	65.75
663.418	65.81
663.747	65.85
664.076	65.73
664.404	65.86
664.733	65.77
665.062	65.84
665.39	65.79
665.719	65.71
666.048	65.77
666.376	65.67
