Data from BA56825_Reflection_00008.txt Node
Date: Mon Nov 18 15:37:32 EST 2019
User: vgr7
Spectrometer: USB2G7710
Scans to average: 3
Trigger mode: 4
Integration Time (sec): 2.000000E-2
Electric dark correction enabled: true
Boxcar width: 10
XAxis mode: Wavelengths
Number of Pixels in Spectrum: 2048
>>>>>Begin Spectral Data<<<<<
177.721	-54.57
178.105	27.61
178.488	26.16
178.871	28.72
179.254	48.03
179.636	168.18
180.019	359.68
180.402	38.18
180.785	-78.31
181.168	71.37
181.55	2570.59
181.933	129.56
182.316	39.86
182.698	15.05
183.081	3.41
183.463	-136.71
183.846	-507.29
184.228	427.97
184.611	198.63
184.993	75.83
185.376	60.88
185.758	53.1
186.14	64.44
186.522	73.31
186.904	63.8
187.287	10.82
187.669	-6.9
188.051	-1.66
188.433	29.84
188.815	15.68
189.197	1.71
189.579	3.78
189.961	6.61
190.342	-10.98
190.724	-14.31
191.106	-2.88
191.488	-31.3
191.869	-35.73
192.251	-47.87
192.633	-38.49
193.014	-46.54
193.396	-44.11
193.777	-38.3
194.159	-36.01
194.54	-25.36
194.922	-21.88
195.303	-14.48
195.684	0.84
196.065	7.56
196.447	-6.66
196.828	-11.25
197.209	-1.45
197.59	-3.09
197.971	3.58
198.352	6.23
198.733	5.76
199.114	1.94
199.495	10.25
199.876	12.66
200.257	10.67
200.638	14.22
201.018	10.93
201.399	10.92
201.78	6.49
202.16	2.5
202.541	-10.64
202.922	-32.47
203.302	-36.33
203.683	-50.68
204.063	-64.42
204.444	-42.16
204.824	-25.02
205.204	-24.74
205.585	-32.89
205.965	-35.19
206.345	-38.15
206.725	-49.41
207.106	-80.58
207.486	-85.25
207.866	-111.93
208.246	-145.02
208.626	-116.72
209.006	-77.08
209.386	-88.27
209.766	-81.53
210.145	-79.95
210.525	-76.51
210.905	-54.09
211.285	-39.03
211.664	-25.36
212.044	-28.34
212.424	-46.26
212.803	-63.7
213.183	-46.25
213.562	-20.63
213.942	3.5
214.321	12.78
214.701	10.3
215.08	20.43
215.459	14.45
215.838	20.75
216.218	14.01
216.597	11.67
216.976	3.11
217.355	21.28
217.734	18.6
218.113	39.93
218.492	80.9
218.871	95.33
219.25	66.78
219.629	44.91
220.008	63.02
220.387	48.32
220.766	31.46
221.144	22.11
221.523	0.73
221.902	-4.39
222.28	-3.97
222.659	2.45
223.037	1.09
223.416	-0.78
223.794	-3
224.173	8.15
224.551	11.25
224.929	8.66
225.308	3.68
225.686	7.93
226.064	11.14
226.442	0.23
226.821	0.98
227.199	-2.64
227.577	0.21
227.955	-1.6
228.333	-1.64
228.711	0.32
229.089	2.86
229.467	0.2
229.845	-0.4
230.222	0.43
230.6	1
230.978	2.9
231.356	6
231.733	4.82
232.111	3.47
232.488	3.57
232.866	5.66
233.243	6.06
233.621	5.59
233.998	5.98
234.376	7.41
234.753	7.14
235.13	9.31
235.508	9.16
235.885	8.12
236.262	8.12
236.639	7.75
237.016	6.68
237.393	9.07
237.77	7.98
238.147	6.51
238.524	6.1
238.901	6.14
239.278	6.19
239.655	7.3
240.032	6.89
240.409	6.57
240.785	5.94
241.162	6.33
241.539	6.39
241.915	6.14
242.292	5.66
242.668	5.44
243.045	5.19
243.421	5.04
243.798	5.41
244.174	5.59
244.551	5.44
244.927	5.3
245.303	5.52
245.679	5.42
246.056	5.35
246.432	5.41
246.808	5.32
247.184	4.76
247.56	4.62
247.936	4.67
248.312	4.87
248.688	4.79
249.064	4.49
249.44	4.46
249.815	4.48
250.191	4.72
250.567	4.86
250.943	4.69
251.318	4.72
251.694	4.59
252.069	4.3
252.445	4.48
252.82	4.54
253.196	4.23
253.571	4.16
253.947	4.47
254.322	4.64
254.697	4.7
255.073	4.93
255.448	4.76
255.823	4.71
256.198	4.58
256.573	4.54
256.948	4.69
257.323	4.69
257.698	4.48
258.073	4.4
258.448	4.18
258.823	4.36
259.198	4.27
259.573	4.28
259.948	4.2
260.322	4.32
260.697	4.38
261.072	4.35
261.446	4.59
261.821	4.3
262.195	4.21
262.57	4.09
262.944	3.97
263.319	3.99
263.693	3.88
264.067	3.77
264.442	3.76
264.816	3.75
265.19	3.55
265.564	3.69
265.938	3.63
266.313	3.65
266.687	3.59
267.061	3.71
267.435	3.68
267.809	3.8
268.183	3.57
268.556	3.41
268.93	3.64
269.304	3.59
269.678	3.89
270.051	3.77
270.425	3.91
270.799	4.08
271.172	4.03
271.546	4.17
271.919	4.18
272.293	4.23
272.666	4.34
273.04	4.44
273.413	4.37
273.787	4.44
274.16	4.32
274.533	4.39
274.906	4.21
275.279	4.29
275.653	4.3
276.026	4.42
276.399	4.34
276.772	4.34
277.145	4.23
277.518	4.21
277.891	4.32
278.263	4.17
278.636	4.06
279.009	4.18
279.382	4.27
279.755	4.35
280.127	4.47
280.5	4.48
280.872	4.4
281.245	4.34
281.617	4.31
281.99	4.5
282.362	4.6
282.735	4.52
283.107	4.66
283.479	4.64
283.852	4.51
284.224	4.71
284.596	4.56
284.968	4.75
285.34	4.76
285.713	4.72
286.085	4.92
286.457	5.08
286.829	5.02
287.201	4.98
287.572	4.92
287.944	4.79
288.316	4.82
288.688	4.89
289.06	5.04
289.431	5.12
289.803	5.08
290.175	5.02
290.546	5.27
290.918	5.18
291.289	5.31
291.661	5.38
292.032	5.42
292.403	5.46
292.775	5.34
293.146	5.31
293.517	5.26
293.889	5.27
294.26	5.17
294.631	5.21
295.002	5.2
295.373	5.15
295.744	5.22
296.115	5.3
296.486	5.23
296.857	5.23
297.228	5.23
297.599	5.36
297.97	5.37
298.34	5.47
298.711	5.53
299.082	5.5
299.452	5.5
299.823	5.61
300.194	5.59
300.564	5.64
300.935	5.74
301.305	5.8
301.676	5.81
302.046	5.89
302.416	6.05
302.787	6.32
303.157	6.51
303.527	6.66
303.897	6.58
304.267	6.84
304.637	6.82
305.008	6.83
305.378	6.89
305.748	7.12
306.117	6.95
306.487	6.92
306.857	6.88
307.227	7.08
307.597	6.98
307.967	7.17
308.336	7.21
308.706	7.23
309.076	7.22
309.445	7.28
309.815	7.38
310.184	7.36
310.554	7.28
310.923	7.33
311.293	7.31
311.662	7.21
312.031	7.11
312.401	7.16
312.77	7.3
313.139	7.31
313.508	7.2
313.877	7.35
314.246	7.43
314.616	7.54
314.985	7.55
315.353	7.62
315.722	7.61
316.091	7.62
316.46	7.59
316.829	7.83
317.198	7.75
317.567	7.7
317.935	7.61
318.304	7.61
318.672	7.52
319.041	7.6
319.41	7.76
319.778	8.05
320.147	8.24
320.515	8.17
320.883	8.29
321.252	8.47
321.62	8.49
321.988	8.52
322.357	8.63
322.725	8.59
323.093	8.63
323.461	8.64
323.829	8.73
324.197	8.81
324.565	8.88
324.933	9.01
325.301	9.15
325.669	9.3
326.037	9.43
326.405	9.67
326.772	9.81
327.14	10.01
327.508	9.95
327.875	9.91
328.243	9.99
328.61	9.89
328.978	9.85
329.346	9.97
329.713	10.14
330.08	10.22
330.448	10.21
330.815	10.24
331.182	10.3
331.55	10.32
331.917	10.39
332.284	10.45
332.651	10.58
333.018	10.73
333.385	10.7
333.752	10.71
334.119	10.6
334.486	10.58
334.853	10.45
335.22	10.46
335.587	10.41
335.954	10.38
336.32	10.52
336.687	10.59
337.054	10.52
337.42	10.5
337.787	10.55
338.153	10.62
338.52	10.76
338.886	10.7
339.253	10.7
339.619	10.76
339.986	10.78
340.352	10.72
340.718	10.64
341.084	10.67
341.451	10.73
341.817	10.83
342.183	10.81
342.549	10.96
342.915	11.05
343.281	11.26
343.647	11.3
344.013	11.36
344.379	11.3
344.745	11.33
345.11	11.38
345.476	11.31
345.842	11.4
346.208	11.47
346.573	11.62
346.939	11.71
347.304	11.71
347.67	11.67
348.035	11.67
348.401	11.62
348.766	11.7
349.132	11.63
349.497	11.57
349.862	11.68
350.228	11.59
350.593	11.54
350.958	11.53
351.323	11.6
351.688	11.49
352.053	11.58
352.418	11.58
352.783	11.59
353.148	11.56
353.513	11.46
353.878	11.33
354.243	11.36
354.608	11.29
354.972	11.32
355.337	11.3
355.702	11.28
356.066	11.35
356.431	11.28
356.795	11.26
357.16	11.25
357.524	11.08
357.889	11.03
358.253	11.06
358.618	10.95
358.982	10.87
359.346	10.84
359.71	10.76
360.075	10.73
360.439	10.71
360.803	10.74
361.167	10.69
361.531	10.7
361.895	10.56
362.259	10.52
362.623	10.46
362.987	10.4
363.351	10.43
363.714	10.34
364.078	10.33
364.442	10.23
364.806	10.18
365.169	10.18
365.533	10.19
365.896	10.05
366.26	10
366.623	9.96
366.987	9.91
367.35	9.83
367.714	9.81
368.077	9.68
368.44	9.55
368.803	9.44
369.167	9.37
369.53	9.33
369.893	9.25
370.256	9.2
370.619	9.18
370.982	9
371.345	8.94
371.708	8.91
372.071	8.92
372.434	8.92
372.797	8.82
373.159	8.7
373.522	8.74
373.885	8.69
374.247	8.6
374.61	8.59
374.973	8.5
375.335	8.43
375.698	8.31
376.06	8.29
376.423	8.32
376.785	8.27
377.147	8.26
377.51	8.21
377.872	8.18
378.234	8.13
378.596	8.11
378.958	8
379.321	7.92
379.683	7.89
380.045	7.8
380.407	7.77
380.769	7.7
381.13	7.59
381.492	7.56
381.854	7.47
382.216	7.41
382.578	7.39
382.939	7.29
383.301	7.27
383.663	7.22
384.024	7.18
384.386	7.14
384.747	7.06
385.109	7.04
385.47	6.94
385.832	6.88
386.193	6.86
386.554	6.85
386.916	6.79
387.277	6.77
387.638	6.75
387.999	6.72
388.36	6.71
388.721	6.66
389.082	6.57
389.443	6.6
389.804	6.55
390.165	6.51
390.526	6.51
390.887	6.47
391.248	6.48
391.609	6.44
391.969	6.41
392.33	6.34
392.691	6.29
393.051	6.23
393.412	6.2
393.772	6.15
394.133	6.11
394.493	6.09
394.854	6.01
395.214	5.97
395.574	5.91
395.935	5.87
396.295	5.86
396.655	5.83
397.015	5.76
397.376	5.68
397.736	5.65
398.096	5.59
398.456	5.57
398.816	5.49
399.176	5.4
399.535	5.34
399.895	5.34
400.255	5.31
400.615	5.32
400.975	5.28
401.334	5.23
401.694	5.19
402.054	5.14
402.413	5.13
402.773	5.09
403.132	5.07
403.492	5.06
403.851	5.04
404.211	5.02
404.57	5.01
404.929	5.04
405.288	5
405.648	4.97
406.007	4.94
406.366	4.93
406.725	4.95
407.084	4.95
407.443	4.93
407.802	4.92
408.161	4.9
408.52	4.86
408.879	4.84
409.238	4.86
409.596	4.86
409.955	4.83
410.314	4.8
410.673	4.77
411.031	4.73
411.39	4.68
411.748	4.67
412.107	4.65
412.465	4.58
412.824	4.57
413.182	4.53
413.54	4.53
413.899	4.51
414.257	4.48
414.615	4.47
414.974	4.46
415.332	4.44
415.69	4.42
416.048	4.4
416.406	4.4
416.764	4.35
417.122	4.32
417.48	4.31
417.838	4.3
418.195	4.29
418.553	4.28
418.911	4.29
419.269	4.27
419.626	4.26
419.984	4.26
420.342	4.25
420.699	4.26
421.057	4.25
421.414	4.24
421.772	4.22
422.129	4.2
422.486	4.19
422.844	4.17
423.201	4.15
423.558	4.14
423.915	4.12
424.273	4.13
424.63	4.12
424.987	4.11
425.344	4.09
425.701	4.08
426.058	4.07
426.415	4.06
426.772	4.04
427.128	4.03
427.485	4.02
427.842	4.01
428.199	3.99
428.555	3.96
428.912	3.95
429.269	3.97
429.625	3.95
429.982	3.93
430.338	3.9
430.695	3.91
431.051	3.9
431.407	3.9
431.764	3.89
432.12	3.87
432.476	3.86
432.832	3.85
433.189	3.85
433.545	3.85
433.901	3.84
434.257	3.84
434.613	3.84
434.969	3.84
435.325	3.84
435.681	3.86
436.036	3.86
436.392	3.87
436.748	3.86
437.104	3.85
437.459	3.87
437.815	3.89
438.171	3.89
438.526	3.9
438.882	3.9
439.237	3.9
439.593	3.92
439.948	3.9
440.304	3.91
440.659	3.9
441.014	3.9
441.369	3.89
441.725	3.89
442.08	3.89
442.435	3.87
442.79	3.86
443.145	3.84
443.5	3.84
443.855	3.83
444.21	3.82
444.565	3.81
444.92	3.8
445.275	3.78
445.629	3.78
445.984	3.76
446.339	3.76
446.693	3.74
447.048	3.73
447.403	3.74
447.757	3.73
448.112	3.74
448.466	3.74
448.82	3.72
449.175	3.71
449.529	3.7
449.883	3.7
450.238	3.69
450.592	3.71
450.946	3.69
451.3	3.68
451.654	3.67
452.008	3.68
452.362	3.66
452.716	3.66
453.07	3.66
453.424	3.66
453.778	3.65
454.132	3.66
454.486	3.65
454.839	3.64
455.193	3.66
455.547	3.65
455.9	3.67
456.254	3.7
456.607	3.71
456.961	3.71
457.314	3.72
457.668	3.73
458.021	3.71
458.375	3.72
458.728	3.72
459.081	3.71
459.434	3.7
459.787	3.71
460.141	3.74
460.494	3.73
460.847	3.75
461.2	3.73
461.553	3.75
461.906	3.75
462.259	3.77
462.611	3.76
462.964	3.77
463.317	3.75
463.67	3.73
464.022	3.73
464.375	3.72
464.728	3.72
465.08	3.72
465.433	3.74
465.785	3.74
466.138	3.76
466.49	3.76
466.843	3.78
467.195	3.78
467.547	3.79
467.899	3.78
468.252	3.77
468.604	3.79
468.956	3.76
469.308	3.78
469.66	3.75
470.012	3.77
470.364	3.8
470.716	3.81
471.068	3.82
471.42	3.83
471.772	3.86
472.123	3.87
472.475	3.88
472.827	3.88
473.178	3.89
473.53	3.88
473.882	3.9
474.233	3.91
474.585	3.89
474.936	3.86
475.288	3.88
475.639	3.89
475.99	3.89
476.342	3.92
476.693	3.9
477.044	3.92
477.395	3.94
477.746	3.91
478.097	3.92
478.448	3.92
478.8	3.9
479.15	3.86
479.501	3.86
479.852	3.86
480.203	3.86
480.554	3.86
480.905	3.86
481.255	3.86
481.606	3.86
481.957	3.87
482.307	3.87
482.658	3.87
483.009	3.86
483.359	3.86
483.709	3.87
484.06	3.87
484.41	3.87
484.761	3.86
485.111	3.86
485.461	3.85
485.811	3.85
486.162	3.86
486.512	3.87
486.862	3.89
487.212	3.88
487.562	3.88
487.912	3.88
488.262	3.88
488.612	3.88
488.961	3.88
489.311	3.89
489.661	3.89
490.011	3.89
490.36	3.89
490.71	3.9
491.06	3.9
491.409	3.9
491.759	3.9
492.108	3.91
492.458	3.93
492.807	3.93
493.157	3.94
493.506	3.95
493.855	3.94
494.204	3.95
494.554	3.96
494.903	3.98
495.252	3.98
495.601	3.99
495.95	4
496.299	4.01
496.648	4.02
496.997	4.04
497.346	4.09
497.695	4.12
498.043	4.15
498.392	4.16
498.741	4.18
499.09	4.19
499.438	4.22
499.787	4.24
500.135	4.27
500.484	4.31
500.832	4.34
501.181	4.38
501.529	4.4
501.878	4.45
502.226	4.48
502.574	4.54
502.923	4.58
503.271	4.61
503.619	4.66
503.967	4.71
504.315	4.76
504.663	4.78
505.011	4.83
505.359	4.88
505.707	4.95
506.055	5.01
506.403	5.08
506.751	5.14
507.098	5.21
507.446	5.26
507.794	5.31
508.141	5.38
508.489	5.44
508.837	5.52
509.184	5.57
509.531	5.62
509.879	5.7
510.226	5.77
510.574	5.83
510.921	5.85
511.268	5.9
511.616	5.95
511.963	6.01
512.31	6.06
512.657	6.13
513.004	6.19
513.351	6.26
513.698	6.33
514.045	6.38
514.392	6.44
514.739	6.49
515.086	6.57
515.432	6.61
515.779	6.68
516.126	6.73
516.473	6.79
516.819	6.86
517.166	6.9
517.512	6.97
517.859	7.05
518.205	7.14
518.552	7.21
518.898	7.29
519.245	7.36
519.591	7.43
519.937	7.49
520.283	7.55
520.629	7.62
520.976	7.69
521.322	7.79
521.668	7.89
522.014	7.99
522.36	8.09
522.706	8.21
523.052	8.3
523.398	8.45
523.743	8.59
524.089	8.73
524.435	8.86
524.781	8.97
525.126	9.07
525.472	9.16
525.817	9.27
526.163	9.36
526.509	9.45
526.854	9.55
527.199	9.63
527.545	9.71
527.89	9.81
528.235	9.9
528.581	10
528.926	10.08
529.271	10.17
529.616	10.27
529.961	10.38
530.306	10.49
530.651	10.58
530.996	10.68
531.341	10.81
531.686	10.94
532.031	11.08
532.376	11.22
532.721	11.38
533.065	11.52
533.41	11.68
533.755	11.85
534.099	12.04
534.444	12.21
534.788	12.4
535.133	12.57
535.477	12.75
535.822	12.93
536.166	13.14
536.51	13.4
536.855	13.64
537.199	13.9
537.543	14.18
537.887	14.48
538.231	14.77
538.576	15.07
538.92	15.32
539.264	15.58
539.608	15.87
539.951	16.13
540.295	16.37
540.639	16.64
540.983	16.89
541.327	17.12
541.671	17.35
542.014	17.61
542.358	17.86
542.701	18.13
543.045	18.39
543.389	18.66
543.732	18.91
544.075	19.19
544.419	19.49
544.762	19.79
545.105	20.11
545.449	20.43
545.792	20.74
546.135	21.13
546.478	21.52
546.821	21.92
547.165	22.32
547.508	22.74
547.851	23.14
548.194	23.54
548.536	23.96
548.879	24.45
549.222	24.86
549.565	25.29
549.908	25.79
550.25	26.27
550.593	26.7
550.936	27.18
551.278	27.67
551.621	28.11
551.963	28.55
552.306	28.98
552.648	29.44
552.991	29.84
553.333	30.27
553.675	30.69
554.017	31.1
554.36	31.48
554.702	31.92
555.044	32.3
555.386	32.78
555.728	33.21
556.07	33.62
556.412	34.07
556.754	34.5
557.096	34.92
557.438	35.37
557.78	35.85
558.121	36.33
558.463	36.71
558.805	37.14
559.147	37.58
559.488	38.02
559.83	38.43
560.171	38.93
560.513	39.36
560.854	39.78
561.196	40.21
561.537	40.66
561.878	41.01
562.22	41.49
562.561	41.88
562.902	42.27
563.243	42.66
563.584	43.04
563.925	43.43
564.266	43.72
564.607	44.01
564.948	44.34
565.289	44.66
565.63	45.06
565.971	45.36
566.312	45.71
566.653	46.08
566.993	46.36
567.334	46.67
567.675	46.95
568.015	47.29
568.356	47.65
568.696	47.94
569.037	48.27
569.377	48.58
569.718	48.9
570.058	49.15
570.398	49.45
570.739	49.77
571.079	50.08
571.419	50.39
571.759	50.75
572.099	51.01
572.439	51.28
572.779	51.5
573.119	51.8
573.459	51.98
573.799	52.21
574.139	52.48
574.479	52.76
574.819	53.04
575.158	53.25
575.498	53.41
575.838	53.68
576.177	53.94
576.517	54.08
576.856	54.26
577.196	54.58
577.535	54.84
577.875	55.03
578.214	55.16
578.553	55.42
578.893	55.55
579.232	55.84
579.571	56.11
579.91	56.36
580.25	56.6
580.589	56.82
580.928	56.98
581.267	57.17
581.606	57.3
581.945	57.46
582.283	57.66
582.622	57.84
582.961	57.97
583.3	58.18
583.639	58.46
583.977	58.56
584.316	58.69
584.654	58.84
584.993	59.06
585.332	59.24
585.67	59.36
586.008	59.56
586.347	59.65
586.685	59.75
587.024	59.88
587.362	59.96
587.7	60.1
588.038	60.29
588.376	60.42
588.715	60.52
589.053	60.68
589.391	60.77
589.729	60.91
590.067	61.05
590.404	61.08
590.742	61.08
591.08	61.2
591.418	61.34
591.756	61.49
592.093	61.58
592.431	61.81
592.769	62.01
593.106	62.2
593.444	62.38
593.781	62.48
594.119	62.57
594.456	62.78
594.793	62.9
595.131	62.95
595.468	63.08
595.805	63.27
596.143	63.33
596.48	63.45
596.817	63.53
597.154	63.59
597.491	63.79
597.828	63.95
598.165	64.08
598.502	64.09
598.839	64.16
599.176	64.26
599.512	64.27
599.849	64.33
600.186	64.31
600.523	64.26
600.859	64.44
601.196	64.53
601.532	64.51
601.869	64.61
602.205	64.76
602.542	64.84
602.878	64.87
603.215	64.96
603.551	64.96
603.887	65.07
604.223	65.17
604.56	65.12
604.896	65.17
605.232	65.28
605.568	65.37
605.904	65.44
606.24	65.46
606.576	65.53
606.912	65.53
607.248	65.61
607.583	65.73
607.919	65.7
608.255	65.78
608.591	65.88
608.926	65.92
609.262	66.01
609.597	66.04
609.933	66.08
610.268	66.12
610.604	66.25
610.939	66.21
611.275	66.26
611.61	66.4
611.945	66.48
612.281	66.49
612.616	66.59
612.951	66.61
613.286	66.65
613.621	66.71
613.956	66.78
614.291	66.84
614.626	66.82
614.961	66.97
615.296	67.02
615.631	67.1
615.966	67.22
616.3	67.14
616.635	67.19
616.97	67.2
617.304	67.32
617.639	67.28
617.973	67.39
618.308	67.46
618.642	67.46
618.977	67.51
619.311	67.67
619.646	67.61
619.98	67.63
620.314	67.7
620.648	67.72
620.983	67.87
621.317	68.01
621.651	68.2
621.985	68.14
622.319	68.13
622.653	68.17
622.987	68.16
623.321	68.23
623.655	68.18
623.988	68.3
624.322	68.31
624.656	68.39
624.99	68.41
625.323	68.42
625.657	68.51
625.99	68.47
626.324	68.38
626.657	68.44
626.991	68.5
627.324	68.54
627.658	68.7
627.991	68.69
628.324	68.59
628.657	68.56
628.991	68.61
629.324	68.57
629.657	68.53
629.99	68.56
630.323	68.58
630.656	68.71
630.989	68.81
631.322	68.81
631.655	68.89
631.987	68.88
632.32	68.85
632.653	68.89
632.986	69.01
633.318	69.09
633.651	69.2
633.984	69.13
634.316	69.16
634.649	69.06
634.981	69.03
635.313	69.22
635.646	69.24
635.978	69.28
636.31	69.43
636.643	69.45
636.975	69.54
637.307	69.61
637.639	69.6
637.971	69.53
638.303	69.48
638.635	69.46
638.967	69.49
639.299	69.57
639.631	69.54
639.963	69.45
640.295	69.46
640.626	69.52
640.958	69.57
641.29	69.52
641.621	69.55
641.953	69.66
642.285	69.6
642.616	69.71
642.948	69.75
643.279	69.67
643.61	69.74
643.942	69.74
644.273	69.81
644.604	69.78
644.936	69.71
645.267	69.75
645.598	69.69
645.929	69.78
646.26	69.8
646.591	69.95
646.922	69.96
647.253	69.9
647.584	69.83
647.915	69.89
648.245	69.95
648.576	70
648.907	69.97
649.238	69.81
649.568	69.73
649.899	69.62
650.229	69.82
650.56	69.87
650.89	69.87
651.221	69.91
651.551	70.01
651.882	70.03
652.212	70.12
652.542	70.29
652.872	70.34
653.203	70.44
653.533	70.35
653.863	70.43
654.193	70.52
654.523	70.69
654.853	70.69
655.183	70.7
655.513	70.78
655.843	70.76
656.172	70.86
656.502	70.96
656.832	71.1
657.162	71.02
657.491	70.95
657.821	70.99
658.15	70.88
658.48	70.88
658.809	70.87
659.139	70.84
659.468	70.77
659.798	70.77
660.127	70.77
660.456	70.69
660.785	70.71
661.115	70.63
661.444	70.6
661.773	70.66
662.102	70.64
662.431	70.6
662.76	70.64
663.089	70.58
663.418	70.47
663.747	70.46
664.076	70.43
664.404	70.39
664.733	70.3
665.062	70.34
665.39	70.34
665.719	70.34
666.048	70.41
666.376	70.42
666.705	70.4
667.033	70.37
667.362	70.52
667.69	70.48
