Data from BA56814_Reflection_00003.txt Node
Date: Mon Nov 18 15:40:20 EST 2019
User: vgr7
Spectrometer: USB2G7710
Scans to average: 3
Trigger mode: 4
Integration Time (sec): 2.000000E-2
Electric dark correction enabled: true
Boxcar width: 10
XAxis mode: Wavelengths
Number of Pixels in Spectrum: 2048
>>>>>Begin Spectral Data<<<<<
177.721	-57.95
178.105	-7.24
178.488	62.4
178.871	11.71
179.254	8.32
179.636	-93.83
180.019	23.2
180.402	37.93
180.785	1167.96
181.168	18.25
181.55	153.62
181.933	116.98
182.316	179.18
182.698	145.99
183.081	153.47
183.463	226.63
183.846	208.75
184.228	114.94
184.611	59.68
184.993	36.57
185.376	15.75
185.758	48.01
186.14	47.62
186.522	69.81
186.904	30.85
187.287	28.54
187.669	-12.16
188.051	-1.12
188.433	-31.62
188.815	-29.79
189.197	19.55
189.579	-25.6
189.961	-24.47
190.342	-29.95
190.724	-2.1
191.106	5.69
191.488	-2.39
191.869	-14.26
192.251	5.46
192.633	30.11
193.014	49.2
193.396	87.14
193.777	125.02
194.159	121.37
194.54	382.69
194.922	2690.16
195.303	504.83
195.684	2540.37
196.065	-233.67
196.447	-200.9
196.828	-600.96
197.209	-273.87
197.59	-127.52
197.971	-67.98
198.352	-22.19
198.733	15.27
199.114	39.05
199.495	22.88
199.876	11.08
200.257	4.46
200.638	31.69
201.018	29.15
201.399	46.72
201.78	46.36
202.16	27.73
202.541	17.44
202.922	32.6
203.302	50.24
203.683	102.97
204.063	131.43
204.444	110.61
204.824	30.25
205.204	18.67
205.585	41.23
205.965	-23.5
206.345	-82.47
206.725	-275.26
207.106	-1084.36
207.486	308.81
207.866	-7552.17
208.246	-182.89
208.626	-224.89
209.006	-139.57
209.386	-121.83
209.766	-57.86
210.145	-114.7
210.525	-35.42
210.905	-11.47
211.285	-60.61
211.664	-33.37
212.044	-30.37
212.424	-15.08
212.803	-10.62
213.183	-5.09
213.562	-4.08
213.942	26.01
214.321	16.17
214.701	9.59
215.08	4.86
215.459	6.74
215.838	14.52
216.218	12.77
216.597	16.46
216.976	37.99
217.355	33.03
217.734	34.93
218.113	40.54
218.492	50.38
218.871	39.56
219.25	57.97
219.629	65.53
220.008	79.19
220.387	71.69
220.766	63.4
221.144	80.43
221.523	109.91
221.902	77.06
222.28	60.35
222.659	82.74
223.037	95.37
223.416	74.79
223.794	60.84
224.173	48.3
224.551	44.79
224.929	18.32
225.308	17.12
225.686	12.84
226.064	13.47
226.442	5.51
226.821	7.03
227.199	2.66
227.577	2.26
227.955	-0.24
228.333	-0.02
228.711	3.68
229.089	5.11
229.467	2.05
229.845	2.07
230.222	5.38
230.6	5.91
230.978	6.02
231.356	7.83
231.733	7.77
232.111	8.17
232.488	6.85
232.866	8.74
233.243	8.89
233.621	8.43
233.998	7.59
234.376	6.57
234.753	7.52
235.13	8.25
235.508	7.72
235.885	7.61
236.262	7.09
236.639	6.58
237.016	6.43
237.393	7.49
237.77	7.34
238.147	6.58
238.524	5.87
238.901	5.68
239.278	5.52
239.655	6.11
240.032	6.03
240.409	6.07
240.785	5.17
241.162	5.19
241.539	5.26
241.915	5.51
242.292	5.84
242.668	5.53
243.045	5.55
243.421	5.38
243.798	5.06
244.174	5.04
244.551	5.18
244.927	4.96
245.303	5.11
245.679	4.97
246.056	5.02
246.432	4.94
246.808	4.92
247.184	4.67
247.56	4.45
247.936	4.37
248.312	4.3
248.688	4.41
249.064	4.49
249.44	4.25
249.815	4.22
250.191	4.15
250.567	4.27
250.943	4.05
251.318	4.08
251.694	4.24
252.069	4.34
252.445	4.24
252.82	4.26
253.196	3.85
253.571	3.89
253.947	3.75
254.322	4
254.697	4.08
255.073	4.29
255.448	4.12
255.823	4.08
256.198	4.34
256.573	4.38
256.948	4.31
257.323	4.6
257.698	4.45
258.073	4.4
258.448	4.5
258.823	4.6
259.198	4.55
259.573	4.6
259.948	4.58
260.322	4.55
260.697	4.42
261.072	4.46
261.446	4.62
261.821	4.48
262.195	4.48
262.57	4.35
262.944	4.39
263.319	4.56
263.693	4.6
264.067	4.56
264.442	4.46
264.816	4.49
265.19	4.34
265.564	4.51
265.938	4.61
266.313	4.48
266.687	4.5
267.061	4.7
267.435	4.69
267.809	4.59
268.183	4.68
268.556	4.85
268.93	4.84
269.304	4.7
269.678	4.91
270.051	4.82
270.425	4.92
270.799	4.95
271.172	4.8
271.546	4.87
271.919	4.67
272.293	4.66
272.666	4.71
273.04	4.64
273.413	4.61
273.787	4.5
274.16	4.44
274.533	4.58
274.906	4.52
275.279	4.33
275.653	4.39
276.026	4.42
276.399	4.24
276.772	4.33
277.145	4.17
277.518	4.03
277.891	4.16
278.263	4.03
278.636	4.06
279.009	4.19
279.382	4.14
279.755	4.24
280.127	4.52
280.5	4.56
280.872	4.69
281.245	4.59
281.617	4.8
281.99	4.85
282.362	4.66
282.735	4.53
283.107	4.73
283.479	4.78
283.852	4.72
284.224	4.84
284.596	4.75
284.968	4.84
285.34	4.89
285.713	4.83
286.085	4.94
286.457	4.94
286.829	4.85
287.201	4.91
287.572	4.92
287.944	4.74
288.316	4.75
288.688	4.84
289.06	4.93
289.431	4.79
289.803	4.82
290.175	4.75
290.546	4.95
290.918	4.97
291.289	5.02
291.661	5.03
292.032	5.11
292.403	5.13
292.775	5.26
293.146	5.23
293.517	5.12
293.889	5.17
294.26	5.14
294.631	5.21
295.002	5.17
295.373	5.2
295.744	5.25
296.115	5.16
296.486	4.97
296.857	4.93
297.228	5.01
297.599	4.92
297.97	5.02
298.34	5.01
298.711	4.93
299.082	4.79
299.452	4.74
299.823	4.71
300.194	4.77
300.564	4.7
300.935	4.8
301.305	4.86
301.676	4.94
302.046	4.95
302.416	5.06
302.787	5.14
303.157	5.06
303.527	5.13
303.897	5.04
304.267	5.12
304.637	5.09
305.008	5.11
305.378	5.17
305.748	5.14
306.117	4.95
306.487	4.99
306.857	5.15
307.227	5.27
307.597	5.25
307.967	5.25
308.336	5.29
308.706	5.2
309.076	5.26
309.445	5.11
309.815	5.07
310.184	4.94
310.554	4.86
310.923	4.86
311.293	4.84
311.662	5.02
312.031	5.11
312.401	5.11
312.77	5.04
313.139	5.13
313.508	5.23
313.877	5.3
314.246	5.32
314.616	5.34
314.985	5.3
315.353	5.23
315.722	5.31
316.091	5.26
316.46	5.2
316.829	5.06
317.198	5.19
317.567	5.26
317.935	5.33
318.304	5.41
318.672	5.5
319.041	5.53
319.41	5.33
319.778	5.25
320.147	5.24
320.515	5.23
320.883	5.2
321.252	5.15
321.62	5.37
321.988	5.25
322.357	5.1
322.725	5.12
323.093	5.15
323.461	5.06
323.829	4.95
324.197	4.97
324.565	5.06
324.933	5.03
325.301	4.85
325.669	4.82
326.037	4.77
326.405	4.83
326.772	4.87
327.14	5.05
327.508	4.99
327.875	5.02
328.243	5.07
328.61	5
328.978	4.99
329.346	4.81
329.713	4.94
330.08	4.99
330.448	4.83
330.815	4.78
331.182	4.73
331.55	4.76
331.917	4.87
332.284	4.92
332.651	4.74
333.018	4.92
333.385	4.85
333.752	4.91
334.119	4.8
334.486	4.82
334.853	4.62
335.22	4.77
335.587	4.86
335.954	4.83
336.32	4.74
336.687	4.81
337.054	4.85
337.42	4.83
337.787	4.89
338.153	5.01
338.52	5.14
338.886	5.17
339.253	5.16
339.619	5.21
339.986	5.08
340.352	5.24
340.718	5.17
341.084	5.19
341.451	5.21
341.817	5.29
342.183	5.25
342.549	5.29
342.915	5.28
343.281	5.28
343.647	5.32
344.013	5.38
344.379	5.3
344.745	5.34
345.11	5.3
345.476	5.22
345.842	5.18
346.208	5.1
346.573	5.2
346.939	5.26
347.304	5.22
347.67	5.24
348.035	5.18
348.401	5.19
348.766	5.21
349.132	5.14
349.497	5.1
349.862	5.12
350.228	5.08
350.593	5.01
350.958	4.97
351.323	4.97
351.688	4.96
352.053	4.99
352.418	5.04
352.783	5.06
353.148	5.11
353.513	5.13
353.878	5.1
354.243	5.08
354.608	5.05
354.972	5.01
355.337	4.99
355.702	5.04
356.066	5.08
356.431	5.18
356.795	5.17
357.16	5.16
357.524	5.12
357.889	5.13
358.253	5.12
358.618	5.15
358.982	5.12
359.346	5.1
359.71	5.14
360.075	5.11
360.439	5.09
360.803	5.07
361.167	5.03
361.531	5.06
361.895	5.01
362.259	4.96
362.623	4.95
362.987	5
363.351	5
363.714	4.99
364.078	4.92
364.442	4.95
364.806	4.88
365.169	4.94
365.533	4.96
365.896	4.97
366.26	4.97
366.623	4.96
366.987	4.97
367.35	4.94
367.714	4.89
368.077	4.92
368.44	4.93
368.803	4.93
369.167	4.93
369.53	4.88
369.893	4.98
370.256	5.03
370.619	5.03
370.982	5
371.345	4.96
371.708	4.94
372.071	4.94
372.434	4.93
372.797	4.9
373.159	4.88
373.522	4.89
373.885	4.89
374.247	4.96
374.61	5
374.973	4.96
375.335	4.93
375.698	4.88
376.06	4.87
376.423	4.87
376.785	4.88
377.147	4.91
377.51	4.88
377.872	4.84
378.234	4.84
378.596	4.9
378.958	4.91
379.321	4.92
379.683	4.95
380.045	5
380.407	5
380.769	5.01
381.13	5.05
381.492	5.04
381.854	4.99
382.216	4.97
382.578	4.96
382.939	4.99
383.301	5.04
383.663	5.02
384.024	5
384.386	5.04
384.747	5.07
385.109	5.04
385.47	5.03
385.832	5.03
386.193	5
386.554	5.01
386.916	4.97
387.277	4.93
387.638	4.91
387.999	4.91
388.36	4.95
388.721	4.94
389.082	4.93
389.443	4.92
389.804	4.88
390.165	4.92
390.526	4.92
390.887	4.9
391.248	4.9
391.609	4.93
391.969	4.92
392.33	4.91
392.691	4.9
393.051	4.93
393.412	4.89
393.772	4.89
394.133	4.88
394.493	4.92
394.854	4.9
395.214	4.91
395.574	4.89
395.935	4.88
396.295	4.86
396.655	4.85
397.015	4.86
397.376	4.91
397.736	4.93
398.096	4.97
398.456	4.95
398.816	4.97
399.176	4.95
399.535	4.92
399.895	4.89
400.255	4.91
400.615	4.91
400.975	4.91
401.334	4.89
401.694	4.88
402.054	4.85
402.413	4.85
402.773	4.88
403.132	4.88
403.492	4.87
403.851	4.86
404.211	4.86
404.57	4.85
404.929	4.86
405.288	4.82
405.648	4.77
406.007	4.77
406.366	4.74
406.725	4.74
407.084	4.75
407.443	4.77
407.802	4.76
408.161	4.73
408.52	4.74
408.879	4.74
409.238	4.75
409.596	4.78
409.955	4.77
410.314	4.74
410.673	4.71
411.031	4.71
411.39	4.73
411.748	4.76
412.107	4.77
412.465	4.74
412.824	4.75
413.182	4.75
413.54	4.77
413.899	4.82
414.257	4.85
414.615	4.86
414.974	4.87
415.332	4.89
415.69	4.92
416.048	4.92
416.406	4.92
416.764	4.9
417.122	4.91
417.48	4.91
417.838	4.92
418.195	4.93
418.553	4.94
418.911	4.91
419.269	4.91
419.626	4.9
419.984	4.91
420.342	4.89
420.699	4.88
421.057	4.89
421.414	4.87
421.772	4.86
422.129	4.84
422.486	4.84
422.844	4.83
423.201	4.81
423.558	4.82
423.915	4.82
424.273	4.82
424.63	4.82
424.987	4.82
425.344	4.82
425.701	4.82
426.058	4.8
426.415	4.83
426.772	4.81
427.128	4.82
427.485	4.81
427.842	4.83
428.199	4.85
428.555	4.83
428.912	4.85
429.269	4.84
429.625	4.86
429.982	4.85
430.338	4.83
430.695	4.84
431.051	4.82
431.407	4.81
431.764	4.81
432.12	4.8
432.476	4.8
432.832	4.79
433.189	4.78
433.545	4.77
433.901	4.75
434.257	4.73
434.613	4.74
434.969	4.76
435.325	4.75
435.681	4.74
436.036	4.74
436.392	4.72
436.748	4.73
437.104	4.7
437.459	4.69
437.815	4.7
438.171	4.71
438.526	4.71
438.882	4.72
439.237	4.74
439.593	4.74
439.948	4.74
440.304	4.76
440.659	4.77
441.014	4.79
441.369	4.77
441.725	4.78
442.08	4.77
442.435	4.76
442.79	4.77
443.145	4.75
443.5	4.75
443.855	4.76
444.21	4.77
444.565	4.79
444.92	4.8
445.275	4.8
445.629	4.79
445.984	4.8
446.339	4.77
446.693	4.76
447.048	4.76
447.403	4.74
447.757	4.73
448.112	4.72
448.466	4.7
448.82	4.72
449.175	4.73
449.529	4.73
449.883	4.73
450.238	4.71
450.592	4.72
450.946	4.71
451.3	4.71
451.654	4.69
452.008	4.67
452.362	4.66
452.716	4.67
453.07	4.68
453.424	4.67
453.778	4.7
454.132	4.69
454.486	4.7
454.839	4.7
455.193	4.67
455.547	4.69
455.9	4.71
456.254	4.72
456.607	4.73
456.961	4.73
457.314	4.74
457.668	4.75
458.021	4.76
458.375	4.77
458.728	4.76
459.081	4.76
459.434	4.76
459.787	4.76
460.141	4.76
460.494	4.76
460.847	4.76
461.2	4.75
461.553	4.76
461.906	4.77
462.259	4.78
462.611	4.81
462.964	4.82
463.317	4.83
463.67	4.81
464.022	4.78
464.375	4.79
464.728	4.8
465.08	4.8
465.433	4.79
465.785	4.81
466.138	4.82
466.49	4.83
466.843	4.84
467.195	4.86
467.547	4.86
467.899	4.84
468.252	4.84
468.604	4.86
468.956	4.85
469.308	4.83
469.66	4.84
470.012	4.84
470.364	4.83
470.716	4.82
471.068	4.82
471.42	4.83
471.772	4.85
472.123	4.85
472.475	4.84
472.827	4.86
473.178	4.84
473.53	4.82
473.882	4.82
474.233	4.83
474.585	4.82
474.936	4.81
475.288	4.84
475.639	4.86
475.99	4.84
476.342	4.83
476.693	4.85
477.044	4.85
477.395	4.83
477.746	4.83
478.097	4.84
478.448	4.84
478.8	4.84
479.15	4.81
479.501	4.8
479.852	4.8
480.203	4.8
480.554	4.82
480.905	4.83
481.255	4.84
481.606	4.85
481.957	4.87
482.307	4.88
482.658	4.87
483.009	4.88
483.359	4.87
483.709	4.88
484.06	4.88
484.41	4.88
484.761	4.89
485.111	4.88
485.461	4.88
485.811	4.89
486.162	4.89
486.512	4.91
486.862	4.92
487.212	4.92
487.562	4.92
487.912	4.92
488.262	4.92
488.612	4.92
488.961	4.91
489.311	4.91
489.661	4.91
490.011	4.92
490.36	4.91
490.71	4.92
491.06	4.92
491.409	4.93
491.759	4.93
492.108	4.93
492.458	4.94
492.807	4.93
493.157	4.94
493.506	4.95
493.855	4.95
494.204	4.95
494.554	4.96
494.903	4.95
495.252	4.95
495.601	4.97
495.95	4.96
496.299	4.98
496.648	4.97
496.997	4.97
497.346	4.96
497.695	4.94
498.043	4.95
498.392	4.94
498.741	4.94
499.09	4.94
499.438	4.94
499.787	4.95
500.135	4.97
500.484	4.96
500.832	4.95
501.181	4.95
501.529	4.97
501.878	4.95
502.226	4.96
502.574	4.95
502.923	4.94
503.271	4.95
503.619	4.96
503.967	4.96
504.315	4.94
504.663	4.96
505.011	5
505.359	5
505.707	5.01
506.055	5.01
506.403	5.03
506.751	5.04
507.098	5.04
507.446	5.02
507.794	5.04
508.141	5.04
508.489	5.04
508.837	5.03
509.184	5.05
509.531	5.04
509.879	5.08
510.226	5.08
510.574	5.07
510.921	5.08
511.268	5.1
511.616	5.11
511.963	5.11
512.31	5.09
512.657	5.09
513.004	5.11
513.351	5.14
513.698	5.13
514.045	5.12
514.392	5.13
514.739	5.15
515.086	5.16
515.432	5.16
515.779	5.14
516.126	5.16
516.473	5.16
516.819	5.16
517.166	5.16
517.512	5.18
517.859	5.17
518.205	5.17
518.552	5.18
518.898	5.18
519.245	5.18
519.591	5.19
519.937	5.19
520.283	5.18
520.629	5.17
520.976	5.19
521.322	5.2
521.668	5.19
522.014	5.19
522.36	5.18
522.706	5.18
523.052	5.2
523.398	5.19
523.743	5.21
524.089	5.21
524.435	5.2
524.781	5.2
525.126	5.22
525.472	5.2
525.817	5.21
526.163	5.2
526.509	5.2
526.854	5.2
527.199	5.22
527.545	5.22
527.89	5.22
528.235	5.23
528.581	5.23
528.926	5.24
529.271	5.24
529.616	5.25
529.961	5.25
530.306	5.25
530.651	5.25
530.996	5.24
531.341	5.24
531.686	5.24
532.031	5.25
532.376	5.24
532.721	5.25
533.065	5.25
533.41	5.26
533.755	5.26
534.099	5.27
534.444	5.26
534.788	5.27
535.133	5.27
535.477	5.27
535.822	5.28
536.166	5.26
536.51	5.27
536.855	5.26
537.199	5.26
537.543	5.26
537.887	5.26
538.231	5.26
538.576	5.28
538.92	5.31
539.264	5.3
539.608	5.31
539.951	5.31
540.295	5.32
540.639	5.32
540.983	5.33
541.327	5.33
541.671	5.32
542.014	5.31
542.358	5.31
542.701	5.31
543.045	5.31
543.389	5.33
543.732	5.32
544.075	5.34
544.419	5.36
544.762	5.36
545.105	5.38
545.449	5.38
545.792	5.37
546.135	5.35
546.478	5.36
546.821	5.35
547.165	5.37
547.508	5.38
547.851	5.35
548.194	5.35
548.536	5.34
548.879	5.35
549.222	5.38
549.565	5.38
549.908	5.38
550.25	5.36
550.593	5.34
550.936	5.32
551.278	5.31
551.621	5.29
551.963	5.32
552.306	5.29
552.648	5.28
552.991	5.29
553.333	5.27
553.675	5.24
554.017	5.28
554.36	5.24
554.702	5.27
555.044	5.3
555.386	5.31
555.728	5.32
556.07	5.32
556.412	5.29
556.754	5.3
557.096	5.28
557.438	5.29
557.78	5.29
558.121	5.31
558.463	5.32
558.805	5.32
559.147	5.29
559.488	5.28
559.83	5.28
560.171	5.28
560.513	5.33
560.854	5.35
561.196	5.32
561.537	5.33
561.878	5.28
562.22	5.3
562.561	5.29
562.902	5.31
563.243	5.33
563.584	5.33
563.925	5.33
564.266	5.32
564.607	5.34
564.948	5.36
565.289	5.37
565.63	5.38
565.971	5.36
566.312	5.39
566.653	5.41
566.993	5.41
567.334	5.41
567.675	5.39
568.015	5.42
568.356	5.42
568.696	5.44
569.037	5.46
569.377	5.44
569.718	5.43
570.058	5.43
570.398	5.42
570.739	5.42
571.079	5.43
571.419	5.45
571.759	5.45
572.099	5.45
572.439	5.46
572.779	5.43
573.119	5.46
573.459	5.46
573.799	5.46
574.139	5.47
574.479	5.5
574.819	5.51
575.158	5.48
575.498	5.52
575.838	5.5
576.177	5.47
576.517	5.47
576.856	5.49
577.196	5.49
577.535	5.49
577.875	5.51
578.214	5.51
578.553	5.55
578.893	5.54
579.232	5.54
579.571	5.52
579.91	5.53
580.25	5.53
580.589	5.54
580.928	5.56
581.267	5.55
581.606	5.55
581.945	5.55
582.283	5.54
582.622	5.5
582.961	5.51
583.3	5.57
583.639	5.59
583.977	5.61
584.316	5.6
584.654	5.58
584.993	5.57
585.332	5.57
585.67	5.52
586.008	5.52
586.347	5.45
586.685	5.47
587.024	5.5
587.362	5.49
587.7	5.49
588.038	5.5
588.376	5.54
588.715	5.52
589.053	5.58
589.391	5.6
589.729	5.64
590.067	5.66
590.404	5.65
590.742	5.66
591.08	5.63
591.418	5.69
591.756	5.73
592.093	5.73
592.431	5.72
592.769	5.76
593.106	5.76
593.444	5.79
593.781	5.82
594.119	5.81
594.456	5.81
594.793	5.81
595.131	5.79
595.468	5.77
595.805	5.75
596.143	5.74
596.48	5.74
596.817	5.7
597.154	5.7
597.491	5.68
597.828	5.68
598.165	5.69
598.502	5.64
598.839	5.62
599.176	5.63
599.512	5.63
599.849	5.61
600.186	5.59
600.523	5.67
600.859	5.68
601.196	5.69
601.532	5.72
601.869	5.7
602.205	5.7
602.542	5.72
602.878	5.73
603.215	5.7
603.551	5.69
603.887	5.71
604.223	5.7
604.56	5.74
604.896	5.72
605.232	5.71
605.568	5.72
605.904	5.74
606.24	5.75
606.576	5.74
606.912	5.77
607.248	5.77
607.583	5.75
607.919	5.72
608.255	5.71
608.591	5.71
608.926	5.73
609.262	5.75
609.597	5.74
609.933	5.75
610.268	5.76
610.604	5.77
610.939	5.79
611.275	5.82
611.61	5.82
611.945	5.84
612.281	5.82
612.616	5.84
612.951	5.86
613.286	5.88
613.621	5.94
613.956	5.89
614.291	5.89
614.626	5.86
614.961	5.91
615.296	5.86
615.631	5.87
615.966	5.85
616.3	5.81
616.635	5.82
616.97	5.86
617.304	5.84
617.639	5.82
617.973	5.84
618.308	5.84
618.642	5.86
618.977	5.81
619.311	5.86
619.646	5.85
619.98	5.83
620.314	5.82
620.648	5.81
620.983	5.84
621.317	5.87
621.651	5.89
621.985	5.92
622.319	5.97
622.653	5.98
622.987	5.99
623.321	6.01
623.655	5.96
623.988	5.93
624.322	5.98
624.656	6.03
624.99	5.98
625.323	5.95
625.657	5.94
625.99	6.02
626.324	6
626.657	6
626.991	5.99
627.324	5.96
627.658	5.98
627.991	6.01
628.324	5.99
628.657	5.98
628.991	5.92
629.324	5.92
629.657	5.95
629.99	5.95
630.323	5.99
630.656	6.08
630.989	6.15
631.322	6.09
631.655	6.04
631.987	6.09
632.32	6.08
632.653	6.02
632.986	6
633.318	5.96
633.651	6.02
633.984	5.99
634.316	5.99
634.649	6.03
634.981	6.03
635.313	6.02
635.646	6.01
635.978	6
636.31	5.97
636.643	5.94
636.975	5.99
637.307	5.95
637.639	5.85
637.971	5.8
638.303	5.78
638.635	5.76
638.967	5.76
639.299	5.79
639.631	5.85
639.963	5.77
640.295	5.77
640.626	5.71
640.958	5.75
641.29	5.82
641.621	5.75
641.953	5.77
642.285	5.83
642.616	5.86
642.948	5.93
643.279	5.95
643.61	5.98
643.942	5.93
644.273	5.95
644.604	5.99
644.936	5.93
645.267	6.02
645.598	6.06
645.929	6.03
646.26	6.04
646.591	6.06
646.922	6.04
647.253	6.08
647.584	6.13
647.915	6.15
648.245	6.12
648.576	6.17
648.907	6.16
649.238	6.17
649.568	6.14
649.899	6.11
650.229	6.14
650.56	6.08
650.89	6.1
651.221	6.18
651.551	6.12
651.882	6.15
652.212	6.16
652.542	6.15
652.872	6.15
653.203	6.12
653.533	6.12
653.863	6.18
654.193	6.23
654.523	6.24
654.853	6.25
655.183	6.24
655.513	6.17
655.843	6.15
656.172	6.09
656.502	6.14
656.832	6.14
657.162	6.11
657.491	6.1
657.821	6.08
658.15	6.02
658.48	6.11
658.809	6.12
659.139	6.08
659.468	6.05
659.798	6.05
660.127	6.08
660.456	6.09
660.785	6.14
661.115	6.1
661.444	6.06
661.773	6.03
662.102	5.99
662.431	6.01
662.76	5.99
663.089	6.04
663.418	5.99
663.747	5.98
664.076	5.99
664.404	6.04
664.733	6.11
665.062	6.09
665.39	6.03
665.719	6.01
666.048	6
666.376	6.08
666.705	6.08
667.033	6.11
667.362	6.03
667.69	6
668.018	6
668.347	6.04
668.675	6.06
669.003	6.08
669.331	6.16
669.659	6.12
669.987	6.18
670.315	6.16
670.643	6.15
670.971	6.23
671.299	6.27
671.627	6.19
671.955	6.23
672.283	6.21
672.61	6.2
672.938	6.24
673.266	6.25
673.593	6.31
673.921	6.29
674.249	6.35
674.576	6.27
674.904	6.26
675.231	6.15
675.558	6.12
675.886	6.1
676.213	6.04
676.54	6.07
676.867	5.96
677.195	6.04
677.522	6.07
677.849	6.02
678.176	6
678.503	6.05
678.83	6.04
679.157	6.03
