Data from BA56825_Reflection_00009.txt Node
Date: Mon Nov 18 15:37:35 EST 2019
User: vgr7
Spectrometer: USB2G7710
Scans to average: 3
Trigger mode: 4
Integration Time (sec): 2.000000E-2
Electric dark correction enabled: true
Boxcar width: 10
XAxis mode: Wavelengths
Number of Pixels in Spectrum: 2048
>>>>>Begin Spectral Data<<<<<
177.721	144.5
178.105	30.29
178.488	4.33
178.871	52.48
179.254	48.99
179.636	33.88
180.019	293.62
180.402	40
180.785	65.82
181.168	-113.74
181.55	747.06
181.933	189.66
182.316	140.57
182.698	111.8
183.081	141.49
183.463	400.17
183.846	1124.29
184.228	-1157.23
184.611	-921.92
184.993	-297.26
185.376	-174.34
185.758	-178.79
186.14	-317.44
186.522	-278.8
186.904	-219.8
187.287	-331.87
187.669	-155.37
188.051	-166.08
188.433	-140.9
188.815	-124.53
189.197	-131.89
189.579	-132.68
189.961	-110.42
190.342	-72.4
190.724	-59.25
191.106	-73.14
191.488	-78.76
191.869	-83.18
192.251	-91.65
192.633	-87.69
193.014	-96.18
193.396	-122.38
193.777	-96.46
194.159	-84.42
194.54	-74.4
194.922	-73.77
195.303	-72.52
195.684	-96.08
196.065	-72.82
196.447	-65.61
196.828	-76.88
197.209	-77.72
197.59	-75.65
197.971	-72.12
198.352	-64
198.733	-66.16
199.114	-54.11
199.495	-56.72
199.876	-51.35
200.257	-42.02
200.638	-33.68
201.018	-34.68
201.399	-29.75
201.78	-40.41
202.16	-49.94
202.541	-54.65
202.922	-70.35
203.302	-74.57
203.683	-47
204.063	-52.32
204.444	-58.87
204.824	-55.04
205.204	-56.11
205.585	-61.06
205.965	-62.91
206.345	-85.36
206.725	-104.72
207.106	-142.84
207.486	-161.62
207.866	-194.34
208.246	-253.43
208.626	-207.85
209.006	-139.56
209.386	-138.03
209.766	-122.4
210.145	-89.95
210.525	-75.26
210.905	-55.7
211.285	-47.36
211.664	-57.59
212.044	-62.95
212.424	-68.39
212.803	-50.44
213.183	-29.02
213.562	-11.66
213.942	-18.2
214.321	-9.96
214.701	-11.99
215.08	-12.31
215.459	-10.5
215.838	-5.96
216.218	-9.1
216.597	-10.78
216.976	-4.56
217.355	-15.52
217.734	-28.88
218.113	-34.39
218.492	-36.49
218.871	-56.99
219.25	-46.11
219.629	-46.63
220.008	-40.45
220.387	-30.99
220.766	-49.99
221.144	-65.57
221.523	-88.27
221.902	-87.22
222.28	-102.87
222.659	-77.47
223.037	-52.28
223.416	-58.93
223.794	-45.41
224.173	-43.03
224.551	-40.95
224.929	-44.43
225.308	-34.1
225.686	-29.73
226.064	-29.96
226.442	-29.78
226.821	-17.17
227.199	-18.2
227.577	-16.24
227.955	-18.32
228.333	-16.75
228.711	-13.3
229.089	-9.09
229.467	-8.56
229.845	-8.58
230.222	-6.5
230.6	-4.39
230.978	-6.46
231.356	-5.57
231.733	-4.3
232.111	-2.73
232.488	-1.37
232.866	-1.05
233.243	-1.42
233.621	0.11
233.998	3.27
234.376	2.9
234.753	0.39
235.13	-0.2
235.508	0.53
235.885	1.66
236.262	0.84
236.639	1.46
237.016	1.11
237.393	2.44
237.77	2.88
238.147	3.09
238.524	1.37
238.901	3.3
239.278	4.18
239.655	4.15
240.032	4.08
240.409	3.62
240.785	3.71
241.162	3.67
241.539	3.64
241.915	3.44
242.292	3.46
242.668	4.08
243.045	4.72
243.421	4.53
243.798	4.31
244.174	4.57
244.551	4.43
244.927	4.18
245.303	4.55
245.679	4.62
246.056	4.38
246.432	4.88
246.808	4.8
247.184	4.45
247.56	4.46
247.936	4.25
248.312	4.28
248.688	4.36
249.064	4.24
249.44	3.97
249.815	4.18
250.191	4.32
250.567	4.09
250.943	3.78
251.318	4.1
251.694	4.32
252.069	4.3
252.445	4.45
252.82	4.71
253.196	4.23
253.571	3.93
253.947	4.13
254.322	4.1
254.697	3.84
255.073	4.05
255.448	3.62
255.823	3.67
256.198	3.82
256.573	3.91
256.948	4.18
257.323	4.49
257.698	4.17
258.073	4.09
258.448	4.16
258.823	4.07
259.198	3.85
259.573	3.79
259.948	3.78
260.322	3.64
260.697	3.54
261.072	3.5
261.446	3.63
261.821	3.62
262.195	3.76
262.57	3.71
262.944	3.8
263.319	4.03
263.693	4.08
264.067	4.13
264.442	4.1
264.816	3.79
265.19	3.69
265.564	3.7
265.938	3.67
266.313	3.65
266.687	3.91
267.061	4.11
267.435	4.07
267.809	3.97
268.183	4.21
268.556	4.17
268.93	4.25
269.304	4.16
269.678	4.25
270.051	4
270.425	4.06
270.799	3.93
271.172	3.94
271.546	3.99
271.919	3.96
272.293	3.85
272.666	4.06
273.04	3.88
273.413	4.02
273.787	4.07
274.16	4.01
274.533	4.01
274.906	3.83
275.279	3.95
275.653	4.04
276.026	3.93
276.399	4.03
276.772	4.15
277.145	4.03
277.518	3.9
277.891	4.07
278.263	3.97
278.636	4.12
279.009	4.16
279.382	4.28
279.755	4.15
280.127	4.4
280.5	4.51
280.872	4.87
281.245	4.81
281.617	4.78
281.99	4.85
282.362	4.83
282.735	4.82
283.107	4.72
283.479	4.81
283.852	4.71
284.224	4.63
284.596	4.6
284.968	4.85
285.34	4.9
285.713	4.72
286.085	4.72
286.457	4.74
286.829	4.69
287.201	4.59
287.572	4.61
287.944	4.42
288.316	4.3
288.688	4.16
289.06	4.15
289.431	4.27
289.803	4.31
290.175	4.29
290.546	4.5
290.918	4.59
291.289	4.55
291.661	4.72
292.032	4.82
292.403	4.86
292.775	4.83
293.146	4.86
293.517	4.96
293.889	5.08
294.26	4.96
294.631	5.02
295.002	5.14
295.373	5.23
295.744	5.31
296.115	5.39
296.486	5.38
296.857	5.45
297.228	5.41
297.599	5.37
297.97	5.4
298.34	5.24
298.711	5.28
299.082	5.24
299.452	5.34
299.823	5.38
300.194	5.33
300.564	5.29
300.935	5.41
301.305	5.44
301.676	5.54
302.046	5.78
302.416	5.78
302.787	5.62
303.157	5.63
303.527	5.74
303.897	5.8
304.267	5.96
304.637	6
305.008	6.18
305.378	6.34
305.748	6.42
306.117	6.44
306.487	6.45
306.857	6.6
307.227	6.6
307.597	6.56
307.967	6.67
308.336	6.81
308.706	6.86
309.076	6.97
309.445	6.94
309.815	6.99
310.184	7
310.554	7.2
310.923	7.17
311.293	7.23
311.662	7.27
312.031	7.25
312.401	7.39
312.77	7.37
313.139	7.35
313.508	7.42
313.877	7.5
314.246	7.55
314.616	7.59
314.985	7.46
315.353	7.49
315.722	7.56
316.091	7.55
316.46	7.61
316.829	7.57
317.198	7.66
317.567	7.7
317.935	7.84
318.304	7.79
318.672	7.91
319.041	8.08
319.41	8.14
319.778	8.32
320.147	8.07
320.515	8.13
320.883	8.22
321.252	8.26
321.62	8.4
321.988	8.45
322.357	8.55
322.725	8.62
323.093	8.85
323.461	9.01
323.829	9.17
324.197	9.24
324.565	9.29
324.933	9.3
325.301	9.3
325.669	9.35
326.037	9.42
326.405	9.51
326.772	9.42
327.14	9.45
327.508	9.43
327.875	9.57
328.243	9.58
328.61	9.59
328.978	9.76
329.346	9.85
329.713	9.78
330.08	9.83
330.448	10.01
330.815	9.84
331.182	9.92
331.55	9.89
331.917	9.82
332.284	9.94
332.651	10
333.018	10.17
333.385	10.22
333.752	10.3
334.119	10.25
334.486	10.27
334.853	10.35
335.22	10.38
335.587	10.48
335.954	10.56
336.32	10.53
336.687	10.46
337.054	10.38
337.42	10.59
337.787	10.54
338.153	10.43
338.52	10.69
338.886	10.6
339.253	10.71
339.619	10.75
339.986	10.77
340.352	10.95
340.718	10.89
341.084	10.89
341.451	10.92
341.817	11.14
342.183	11.17
342.549	11.21
342.915	11.38
343.281	11.38
343.647	11.4
344.013	11.46
344.379	11.46
344.745	11.48
345.11	11.46
345.476	11.59
345.842	11.72
346.208	11.73
346.573	11.77
346.939	11.77
347.304	11.77
347.67	11.83
348.035	11.64
348.401	11.72
348.766	11.8
349.132	11.78
349.497	11.74
349.862	11.79
350.228	11.76
350.593	11.58
350.958	11.61
351.323	11.6
351.688	11.66
352.053	11.7
352.418	11.83
352.783	11.83
353.148	11.7
353.513	11.68
353.878	11.58
354.243	11.56
354.608	11.56
354.972	11.63
355.337	11.6
355.702	11.7
356.066	11.67
356.431	11.55
356.795	11.56
357.16	11.57
357.524	11.57
357.889	11.52
358.253	11.52
358.618	11.5
358.982	11.45
359.346	11.37
359.71	11.3
360.075	11.2
360.439	11.19
360.803	11.19
361.167	11.14
361.531	11.09
361.895	11.04
362.259	11
362.623	10.89
362.987	10.87
363.351	10.86
363.714	10.82
364.078	10.79
364.442	10.72
364.806	10.64
365.169	10.57
365.533	10.62
365.896	10.63
366.26	10.49
366.623	10.45
366.987	10.46
367.35	10.41
367.714	10.37
368.077	10.23
368.44	10.26
368.803	10.27
369.167	10.2
369.53	10.16
369.893	10.07
370.256	10.04
370.619	9.9
370.982	9.74
371.345	9.59
371.708	9.56
372.071	9.52
372.434	9.45
372.797	9.35
373.159	9.18
373.522	9.04
373.885	9.04
374.247	9.01
374.61	8.89
374.973	8.75
375.335	8.71
375.698	8.74
376.06	8.61
376.423	8.49
376.785	8.49
377.147	8.48
377.51	8.43
377.872	8.32
378.234	8.3
378.596	8.29
378.958	8.21
379.321	8.19
379.683	8.19
380.045	8.12
380.407	8.12
380.769	8.08
381.13	8.03
381.492	7.99
381.854	7.92
382.216	7.91
382.578	7.89
382.939	7.79
383.301	7.69
383.663	7.62
384.024	7.58
384.386	7.55
384.747	7.52
385.109	7.45
385.47	7.41
385.832	7.39
386.193	7.35
386.554	7.31
386.916	7.21
387.277	7.1
387.638	7.13
387.999	7.02
388.36	7.01
388.721	7.01
389.082	6.92
389.443	6.85
389.804	6.76
390.165	6.72
390.526	6.71
390.887	6.67
391.248	6.66
391.609	6.58
391.969	6.51
392.33	6.44
392.691	6.4
393.051	6.36
393.412	6.28
393.772	6.2
394.133	6.18
394.493	6.17
394.854	6.12
395.214	6.02
395.574	6.03
395.935	5.99
396.295	5.9
396.655	5.89
397.015	5.83
397.376	5.79
397.736	5.77
398.096	5.66
398.456	5.6
398.816	5.55
399.176	5.48
399.535	5.43
399.895	5.36
400.255	5.32
400.615	5.3
400.975	5.28
401.334	5.28
401.694	5.2
402.054	5.18
402.413	5.15
402.773	5.14
403.132	5.09
403.492	5.05
403.851	5.05
404.211	5.01
404.57	5.01
404.929	4.99
405.288	4.95
405.648	4.92
406.007	4.9
406.366	4.85
406.725	4.87
407.084	4.88
407.443	4.87
407.802	4.87
408.161	4.86
408.52	4.82
408.879	4.79
409.238	4.8
409.596	4.76
409.955	4.78
410.314	4.72
410.673	4.68
411.031	4.65
411.39	4.64
411.748	4.62
412.107	4.59
412.465	4.58
412.824	4.57
413.182	4.61
413.54	4.62
413.899	4.63
414.257	4.61
414.615	4.57
414.974	4.56
415.332	4.53
415.69	4.49
416.048	4.49
416.406	4.47
416.764	4.44
417.122	4.41
417.48	4.36
417.838	4.37
418.195	4.35
418.553	4.34
418.911	4.32
419.269	4.32
419.626	4.31
419.984	4.29
420.342	4.29
420.699	4.27
421.057	4.24
421.414	4.22
421.772	4.2
422.129	4.21
422.486	4.2
422.844	4.19
423.201	4.17
423.558	4.16
423.915	4.16
424.273	4.15
424.63	4.13
424.987	4.13
425.344	4.12
425.701	4.11
426.058	4.1
426.415	4.1
426.772	4.07
427.128	4.06
427.485	4.06
427.842	4.03
428.199	4.01
428.555	4
428.912	4.01
429.269	4
429.625	3.97
429.982	3.96
430.338	3.93
430.695	3.95
431.051	3.94
431.407	3.93
431.764	3.95
432.12	3.95
432.476	3.94
432.832	3.92
433.189	3.94
433.545	3.92
433.901	3.92
434.257	3.91
434.613	3.93
434.969	3.92
435.325	3.94
435.681	3.94
436.036	3.93
436.392	3.92
436.748	3.9
437.104	3.89
437.459	3.88
437.815	3.88
438.171	3.87
438.526	3.85
438.882	3.85
439.237	3.84
439.593	3.84
439.948	3.82
440.304	3.83
440.659	3.82
441.014	3.83
441.369	3.81
441.725	3.82
442.08	3.81
442.435	3.81
442.79	3.79
443.145	3.79
443.5	3.8
443.855	3.79
444.21	3.8
444.565	3.79
444.92	3.8
445.275	3.79
445.629	3.78
445.984	3.79
446.339	3.77
446.693	3.75
447.048	3.74
447.403	3.74
447.757	3.74
448.112	3.71
448.466	3.7
448.82	3.72
449.175	3.71
449.529	3.7
449.883	3.68
450.238	3.66
450.592	3.65
450.946	3.62
451.3	3.6
451.654	3.6
452.008	3.6
452.362	3.58
452.716	3.58
453.07	3.58
453.424	3.56
453.778	3.55
454.132	3.55
454.486	3.55
454.839	3.55
455.193	3.53
455.547	3.55
455.9	3.53
456.254	3.52
456.607	3.5
456.961	3.51
457.314	3.52
457.668	3.53
458.021	3.51
458.375	3.52
458.728	3.53
459.081	3.53
459.434	3.53
459.787	3.55
460.141	3.56
460.494	3.57
460.847	3.6
461.2	3.61
461.553	3.62
461.906	3.64
462.259	3.66
462.611	3.67
462.964	3.66
463.317	3.68
463.67	3.69
464.022	3.69
464.375	3.7
464.728	3.71
465.08	3.72
465.433	3.76
465.785	3.76
466.138	3.77
466.49	3.78
466.843	3.79
467.195	3.77
467.547	3.78
467.899	3.79
468.252	3.77
468.604	3.78
468.956	3.78
469.308	3.79
469.66	3.81
470.012	3.82
470.364	3.85
470.716	3.85
471.068	3.84
471.42	3.86
471.772	3.87
472.123	3.86
472.475	3.87
472.827	3.88
473.178	3.89
473.53	3.89
473.882	3.89
474.233	3.88
474.585	3.87
474.936	3.86
475.288	3.85
475.639	3.87
475.99	3.85
476.342	3.86
476.693	3.85
477.044	3.85
477.395	3.84
477.746	3.83
478.097	3.82
478.448	3.85
478.8	3.84
479.15	3.81
479.501	3.8
479.852	3.79
480.203	3.8
480.554	3.81
480.905	3.8
481.255	3.8
481.606	3.81
481.957	3.83
482.307	3.83
482.658	3.84
483.009	3.84
483.359	3.84
483.709	3.84
484.06	3.84
484.41	3.84
484.761	3.84
485.111	3.84
485.461	3.85
485.811	3.84
486.162	3.85
486.512	3.87
486.862	3.89
487.212	3.89
487.562	3.89
487.912	3.9
488.262	3.9
488.612	3.9
488.961	3.92
489.311	3.92
489.661	3.93
490.011	3.94
490.36	3.93
490.71	3.94
491.06	3.95
491.409	3.95
491.759	3.95
492.108	3.96
492.458	3.97
492.807	3.96
493.157	3.97
493.506	3.98
493.855	3.98
494.204	3.97
494.554	3.99
494.903	3.99
495.252	4
495.601	4.02
495.95	4.05
496.299	4.05
496.648	4.06
496.997	4.08
497.346	4.12
497.695	4.15
498.043	4.18
498.392	4.19
498.741	4.25
499.09	4.28
499.438	4.33
499.787	4.38
500.135	4.42
500.484	4.45
500.832	4.49
501.181	4.53
501.529	4.57
501.878	4.63
502.226	4.68
502.574	4.72
502.923	4.76
503.271	4.79
503.619	4.86
503.967	4.93
504.315	4.96
504.663	4.99
505.011	5.05
505.359	5.09
505.707	5.15
506.055	5.17
506.403	5.22
506.751	5.27
507.098	5.3
507.446	5.38
507.794	5.44
508.141	5.49
508.489	5.55
508.837	5.6
509.184	5.65
509.531	5.69
509.879	5.76
510.226	5.84
510.574	5.92
510.921	5.99
511.268	6.03
511.616	6.1
511.963	6.16
512.31	6.23
512.657	6.29
513.004	6.37
513.351	6.45
513.698	6.53
514.045	6.6
514.392	6.68
514.739	6.74
515.086	6.8
515.432	6.88
515.779	6.95
516.126	7.05
516.473	7.13
516.819	7.22
517.166	7.28
517.512	7.36
517.859	7.42
518.205	7.47
518.552	7.54
518.898	7.63
519.245	7.7
519.591	7.77
519.937	7.83
520.283	7.89
520.629	7.96
520.976	8.02
521.322	8.11
521.668	8.21
522.014	8.33
522.36	8.45
522.706	8.56
523.052	8.69
523.398	8.82
523.743	8.96
524.089	9.08
524.435	9.23
524.781	9.35
525.126	9.47
525.472	9.56
525.817	9.69
526.163	9.76
526.509	9.86
526.854	9.95
527.199	10.06
527.545	10.14
527.89	10.25
528.235	10.36
528.581	10.46
528.926	10.56
529.271	10.66
529.616	10.76
529.961	10.88
530.306	10.99
530.651	11.08
530.996	11.2
531.341	11.34
531.686	11.48
532.031	11.62
532.376	11.76
532.721	11.93
533.065	12.07
533.41	12.25
533.755	12.43
534.099	12.63
534.444	12.8
534.788	13.01
535.133	13.2
535.477	13.39
535.822	13.58
536.166	13.81
536.51	14.04
536.855	14.29
537.199	14.55
537.543	14.83
537.887	15.15
538.231	15.38
538.576	15.67
538.92	15.93
539.264	16.19
539.608	16.47
539.951	16.73
540.295	16.98
540.639	17.24
540.983	17.47
541.327	17.71
541.671	17.92
542.014	18.17
542.358	18.41
542.701	18.65
543.045	18.91
543.389	19.14
543.732	19.41
544.075	19.67
544.419	19.94
544.762	20.23
545.105	20.54
545.449	20.9
545.792	21.22
546.135	21.57
546.478	21.95
546.821	22.32
547.165	22.69
547.508	23.07
547.851	23.43
548.194	23.86
548.536	24.29
548.879	24.76
549.222	25.15
549.565	25.61
549.908	26.02
550.25	26.49
550.593	26.9
550.936	27.35
551.278	27.82
551.621	28.3
551.963	28.76
552.306	29.15
552.648	29.56
552.991	29.98
553.333	30.45
553.675	30.82
554.017	31.25
554.36	31.66
554.702	32.06
555.044	32.48
555.386	32.86
555.728	33.25
556.07	33.66
556.412	34.11
556.754	34.52
557.096	34.95
557.438	35.39
557.78	35.89
558.121	36.33
558.463	36.75
558.805	37.19
559.147	37.6
559.488	38.01
559.83	38.44
560.171	38.86
560.513	39.23
560.854	39.65
561.196	40.05
561.537	40.46
561.878	40.93
562.22	41.34
562.561	41.71
562.902	42.1
563.243	42.53
563.584	42.9
563.925	43.25
564.266	43.57
564.607	43.9
564.948	44.16
565.289	44.51
565.63	44.87
565.971	45.13
566.312	45.42
566.653	45.76
566.993	46.09
567.334	46.47
567.675	46.78
568.015	47.12
568.356	47.5
568.696	47.83
569.037	48.1
569.377	48.42
569.718	48.71
570.058	48.98
570.398	49.23
570.739	49.51
571.079	49.77
571.419	50.05
571.759	50.36
572.099	50.68
572.439	50.92
572.779	51.1
573.119	51.28
573.459	51.49
573.799	51.75
574.139	51.94
574.479	52.1
574.819	52.31
575.158	52.5
575.498	52.63
575.838	52.82
576.177	53.03
576.517	53.21
576.856	53.43
577.196	53.66
577.535	53.9
577.875	54.11
578.214	54.26
578.553	54.5
578.893	54.62
579.232	54.8
579.571	55.02
579.91	55.23
580.25	55.57
580.589	55.87
580.928	56.02
581.267	56.25
581.606	56.36
581.945	56.54
582.283	56.69
582.622	56.83
582.961	57.01
583.3	57.21
583.639	57.38
583.977	57.49
584.316	57.65
584.654	57.83
584.993	58.02
585.332	58.31
585.67	58.53
586.008	58.66
586.347	58.83
586.685	59
587.024	59.18
587.362	59.26
587.7	59.41
588.038	59.6
588.376	59.67
588.715	59.87
589.053	60.08
589.391	60.28
589.729	60.45
590.067	60.52
590.404	60.63
590.742	60.65
591.08	60.76
591.418	60.83
591.756	60.83
592.093	60.94
592.431	61.07
592.769	61.16
593.106	61.34
593.444	61.48
593.781	61.53
594.119	61.64
594.456	61.78
594.793	61.86
595.131	61.97
595.468	62.12
595.805	62.23
596.143	62.26
596.48	62.33
596.817	62.37
597.154	62.51
597.491	62.6
597.828	62.76
598.165	62.88
598.502	63
598.839	63.16
599.176	63.3
599.512	63.31
599.849	63.44
600.186	63.51
600.523	63.54
600.859	63.66
601.196	63.77
601.532	63.82
601.869	63.81
602.205	63.86
602.542	63.93
602.878	63.95
603.215	64.05
603.551	64.06
603.887	64.23
604.223	64.29
604.56	64.31
604.896	64.34
605.232	64.46
605.568	64.53
605.904	64.62
606.24	64.63
606.576	64.72
606.912	64.69
607.248	64.77
607.583	64.88
607.919	64.94
608.255	64.93
608.591	65.04
608.926	65.14
609.262	65.22
609.597	65.27
609.933	65.38
610.268	65.45
610.604	65.49
610.939	65.42
611.275	65.4
611.61	65.54
611.945	65.62
612.281	65.61
612.616	65.72
612.951	65.73
613.286	65.79
613.621	65.88
613.956	65.91
614.291	65.89
614.626	65.93
614.961	65.98
615.296	66.08
615.631	66.17
615.966	66.26
616.3	66.2
616.635	66.26
616.97	66.25
617.304	66.32
617.639	66.44
617.973	66.59
618.308	66.75
618.642	66.65
618.977	66.73
619.311	66.75
619.646	66.74
619.98	66.69
620.314	66.75
620.648	66.71
620.983	66.79
621.317	66.86
621.651	66.89
621.985	66.88
622.319	66.84
622.653	66.73
622.987	66.73
623.321	66.83
623.655	66.8
623.988	66.99
624.322	67.05
624.656	67.06
624.99	67.07
625.323	67.09
625.657	67.17
625.99	67.19
626.324	67.22
626.657	67.23
626.991	67.35
627.324	67.35
627.658	67.45
627.991	67.45
628.324	67.48
628.657	67.47
628.991	67.49
629.324	67.52
629.657	67.56
629.99	67.51
630.323	67.52
630.656	67.64
630.989	67.55
631.322	67.53
631.655	67.63
631.987	67.62
632.32	67.6
632.653	67.64
632.986	67.67
633.318	67.8
633.651	67.9
633.984	67.79
634.316	67.76
634.649	67.7
634.981	67.76
635.313	67.86
635.646	67.93
635.978	67.98
636.31	68.14
636.643	68.18
636.975	68.28
637.307	68.23
637.639	68.18
637.971	68.25
638.303	68.18
638.635	68.07
638.967	68.06
639.299	68.14
639.631	68.11
639.963	68.2
640.295	68.21
640.626	68.21
640.958	68.26
641.29	68.34
641.621	68.3
641.953	68.46
642.285	68.37
642.616	68.42
642.948	68.36
643.279	68.23
643.61	68.3
643.942	68.32
644.273	68.41
644.604	68.54
644.936	68.49
645.267	68.55
645.598	68.51
645.929	68.55
646.26	68.52
646.591	68.74
646.922	68.64
647.253	68.6
647.584	68.4
647.915	68.49
648.245	68.55
648.576	68.68
648.907	68.51
649.238	68.47
649.568	68.51
649.899	68.54
650.229	68.57
650.56	68.54
650.89	68.74
651.221	68.8
651.551	68.76
651.882	68.67
652.212	68.78
652.542	68.92
652.872	68.95
653.203	68.96
653.533	68.88
653.863	68.88
654.193	68.92
654.523	69.19
654.853	69.17
655.183	69.12
655.513	69.28
655.843	69.4
656.172	69.5
656.502	69.42
656.832	69.5
657.162	69.5
657.491	69.56
657.821	69.39
658.15	69.4
658.48	69.39
658.809	69.53
659.139	69.47
659.468	69.5
659.798	69.47
660.127	69.52
660.456	69.46
660.785	69.55
661.115	69.55
661.444	69.53
661.773	69.6
662.102	69.69
662.431	69.59
662.76	69.57
663.089	69.54
663.418	69.56
663.747	69.6
664.076	69.74
664.404	69.64
664.733	69.67
665.062	69.63
