Data from BA56830_Reflection_00015.txt Node
Date: Mon Nov 18 16:04:20 EST 2019
User: vgr7
Spectrometer: USB2G7710
Scans to average: 3
Trigger mode: 4
Integration Time (sec): 2.000000E-2
Electric dark correction enabled: true
Boxcar width: 10
XAxis mode: Wavelengths
Number of Pixels in Spectrum: 2048
>>>>>Begin Spectral Data<<<<<
177.721	344.92
178.105	283.01
178.488	102.76
178.871	200.27
179.254	346.61
179.636	-79.74
180.019	10211.11
180.402	284.21
180.785	12.11
181.168	-4.29
181.55	-58.59
181.933	45.9
182.316	56.24
182.698	72.78
183.081	80.26
183.463	75.68
183.846	105.86
184.228	156.2
184.611	692.98
184.993	-787.45
185.376	1766.67
185.758	611.68
186.14	834.42
186.522	348.64
186.904	893.28
187.287	2049.77
187.669	-729.57
188.051	2106.54
188.433	-94233.33
188.815	-413.69
189.197	-217.3
189.579	-158.8
189.961	-127.8
190.342	-108.81
190.724	-82.93
191.106	-125.78
191.488	-139.72
191.869	-151.84
192.251	-232.17
192.633	-318.15
193.014	-276.78
193.396	-285.81
193.777	-166.18
194.159	-117.67
194.54	-50.76
194.922	-26.08
195.303	-0.05
195.684	-44.95
196.065	-14.69
196.447	-18.05
196.828	-26.86
197.209	9.79
197.59	-7.97
197.971	-24.04
198.352	-4.53
198.733	-23.83
199.114	1.85
199.495	17.01
199.876	34.92
200.257	41.73
200.638	40.27
201.018	28.96
201.399	15.64
201.78	19.03
202.16	-0.75
202.541	-13.52
202.922	-42.21
203.302	-46.89
203.683	-28.25
204.063	-31.5
204.444	-17.62
204.824	-17.74
205.204	-24.51
205.585	-8.29
205.965	-3.98
206.345	-32.23
206.725	-23.54
207.106	-28.11
207.486	-67.72
207.866	-50.19
208.246	-52.64
208.626	-79.65
209.006	-67.85
209.386	-94.02
209.766	-131.05
210.145	-102.72
210.525	-86.54
210.905	-80.8
211.285	-65.63
211.664	-50.72
212.044	-54.25
212.424	-55.15
212.803	-49.14
213.183	-55.92
213.562	-61.97
213.942	-54.94
214.321	-21.66
214.701	-21.44
215.08	-29.82
215.459	-12.99
215.838	-13.26
216.218	-12.96
216.597	8.33
216.976	22.34
217.355	32.79
217.734	57.22
218.113	57.92
218.492	49.82
218.871	43.27
219.25	40.04
219.629	32.63
220.008	16.29
220.387	24.22
220.766	3.06
221.144	4.53
221.523	2.33
221.902	1.09
222.28	-12.71
222.659	-13.47
223.037	-11.86
223.416	-21.61
223.794	-31.62
224.173	-23.77
224.551	-27.51
224.929	-25.73
225.308	-21.35
225.686	-26.08
226.064	-19.46
226.442	-12.47
226.821	-14.75
227.199	-14.74
227.577	-12.96
227.955	-6.82
228.333	-6.39
228.711	-3.59
229.089	0.94
229.467	-1.33
229.845	-1.57
230.222	0.42
230.6	0.97
230.978	0.97
231.356	4.84
231.733	7.73
232.111	7.3
232.488	9.33
232.866	9.16
233.243	9.49
233.621	7.34
233.998	7.79
234.376	6.87
234.753	8.04
235.13	9.46
235.508	8.9
235.885	8.57
236.262	7.48
236.639	7.76
237.016	5.32
237.393	6.49
237.77	5.69
238.147	6.16
238.524	6.21
238.901	6.19
239.278	5.89
239.655	5.93
240.032	5.25
240.409	4.42
240.785	4.06
241.162	3.96
241.539	4.31
241.915	4.23
242.292	3.9
242.668	3.98
243.045	3.37
243.421	3.46
243.798	3.24
244.174	3.58
244.551	3.54
244.927	3.57
245.303	3.47
245.679	3.79
246.056	3.62
246.432	3.38
246.808	3.61
247.184	3.23
247.56	3.23
247.936	3.36
248.312	3.37
248.688	3.51
249.064	3.39
249.44	3.43
249.815	3.28
250.191	3.5
250.567	3.52
250.943	3.44
251.318	3.55
251.694	3.43
252.069	3.15
252.445	3.29
252.82	3.5
253.196	3.38
253.571	3.2
253.947	3.08
254.322	3.32
254.697	3.08
255.073	3.15
255.448	3.01
255.823	3.15
256.198	3.07
256.573	2.96
256.948	3.16
257.323	3.26
257.698	3.43
258.073	3.34
258.448	3.3
258.823	3.38
259.198	3.28
259.573	3.28
259.948	3.3
260.322	3.24
260.697	3.01
261.072	2.94
261.446	2.97
261.821	2.99
262.195	3.18
262.57	3.15
262.944	3.19
263.319	3.14
263.693	3.22
264.067	3.3
264.442	3.33
264.816	3.21
265.19	2.82
265.564	2.68
265.938	2.57
266.313	2.5
266.687	2.53
267.061	2.62
267.435	2.76
267.809	2.85
268.183	2.79
268.556	2.83
268.93	2.98
269.304	2.88
269.678	3.09
270.051	2.83
270.425	2.88
270.799	3
271.172	2.96
271.546	2.88
271.919	2.89
272.293	2.87
272.666	2.92
273.04	3.24
273.413	3.24
273.787	3.47
274.16	3.38
274.533	3.48
274.906	3.49
275.279	3.61
275.653	3.72
276.026	3.88
276.399	3.97
276.772	4.02
277.145	4.13
277.518	4.08
277.891	4.16
278.263	4.09
278.636	4.02
279.009	3.81
279.382	3.81
279.755	3.74
280.127	3.89
280.5	3.96
280.872	3.87
281.245	3.86
281.617	3.75
281.99	3.9
282.362	3.91
282.735	3.77
283.107	3.56
283.479	3.48
283.852	3.51
284.224	3.44
284.596	3.45
284.968	3.6
285.34	3.59
285.713	3.47
286.085	3.56
286.457	3.64
286.829	3.9
287.201	3.86
287.572	3.83
287.944	3.73
288.316	3.72
288.688	3.67
289.06	3.62
289.431	3.61
289.803	3.58
290.175	3.5
290.546	3.61
290.918	3.72
291.289	3.82
291.661	3.79
292.032	3.91
292.403	3.92
292.775	3.89
293.146	3.77
293.517	3.92
293.889	3.92
294.26	3.91
294.631	3.99
295.002	4.1
295.373	4.24
295.744	4.35
296.115	4.27
296.486	4.2
296.857	4.33
297.228	4.42
297.599	4.44
297.97	4.47
298.34	4.44
298.711	4.44
299.082	4.38
299.452	4.43
299.823	4.4
300.194	4.43
300.564	4.29
300.935	4.54
301.305	4.56
301.676	4.6
302.046	4.56
302.416	4.54
302.787	4.42
303.157	4.41
303.527	4.33
303.897	4.45
304.267	4.73
304.637	4.68
305.008	4.59
305.378	4.64
305.748	4.81
306.117	4.97
306.487	5.15
306.857	5.28
307.227	5.38
307.597	5.46
307.967	5.44
308.336	5.51
308.706	5.38
309.076	5.37
309.445	5.36
309.815	5.36
310.184	5.3
310.554	5.29
310.923	5.24
311.293	5.3
311.662	5.29
312.031	5.35
312.401	5.52
312.77	5.71
313.139	5.82
313.508	5.83
313.877	5.71
314.246	5.62
314.616	5.57
314.985	5.4
315.353	5.49
315.722	5.57
316.091	5.6
316.46	5.71
316.829	5.74
317.198	5.88
317.567	5.99
317.935	6.15
318.304	6.32
318.672	6.51
319.041	6.77
319.41	6.83
319.778	6.73
320.147	6.61
320.515	6.57
320.883	6.47
321.252	6.53
321.62	6.73
321.988	6.75
322.357	6.78
322.725	6.9
323.093	6.9
323.461	7.04
323.829	7.25
324.197	7.37
324.565	7.54
324.933	7.61
325.301	7.6
325.669	7.5
326.037	7.5
326.405	7.57
326.772	7.49
327.14	7.6
327.508	7.72
327.875	7.85
328.243	8.01
328.61	8.05
328.978	8.09
329.346	8.22
329.713	8.34
330.08	8.32
330.448	8.37
330.815	8.38
331.182	8.21
331.55	8.17
331.917	8.26
332.284	8.26
332.651	8.23
333.018	8.37
333.385	8.55
333.752	8.67
334.119	8.71
334.486	8.79
334.853	8.83
335.22	8.74
335.587	8.79
335.954	8.69
336.32	8.67
336.687	8.73
337.054	8.67
337.42	8.74
337.787	8.96
338.153	9.07
338.52	9.15
338.886	9.31
339.253	9.3
339.619	9.27
339.986	9.23
340.352	9.3
340.718	9.3
341.084	9.23
341.451	9.31
341.817	9.31
342.183	9.2
342.549	9.19
342.915	9.29
343.281	9.37
343.647	9.39
344.013	9.44
344.379	9.35
344.745	9.38
345.11	9.28
345.476	9.29
345.842	9.26
346.208	9.27
346.573	9.33
346.939	9.51
347.304	9.44
347.67	9.51
348.035	9.47
348.401	9.55
348.766	9.65
349.132	9.64
349.497	9.62
349.862	9.73
350.228	9.74
350.593	9.7
350.958	9.65
351.323	9.75
351.688	9.81
352.053	9.94
352.418	9.93
352.783	9.98
353.148	9.96
353.513	10
353.878	10.02
354.243	10.06
354.608	9.91
354.972	9.89
355.337	9.91
355.702	10.04
356.066	10.01
356.431	9.91
356.795	9.91
357.16	9.8
357.524	9.71
357.889	9.73
358.253	9.74
358.618	9.7
358.982	9.58
359.346	9.53
359.71	9.44
360.075	9.48
360.439	9.46
360.803	9.45
361.167	9.36
361.531	9.39
361.895	9.29
362.259	9.2
362.623	9.22
362.987	9.14
363.351	8.96
363.714	8.92
364.078	8.93
364.442	8.84
364.806	8.87
365.169	8.9
365.533	8.83
365.896	8.78
366.26	8.76
366.623	8.74
366.987	8.72
367.35	8.74
367.714	8.6
368.077	8.56
368.44	8.5
368.803	8.5
369.167	8.35
369.53	8.27
369.893	8.27
370.256	8.22
370.619	8.23
370.982	8.25
371.345	8.18
371.708	8.12
372.071	8.07
372.434	8.08
372.797	7.99
373.159	7.9
373.522	7.91
373.885	7.89
374.247	7.91
374.61	7.79
374.973	7.67
375.335	7.68
375.698	7.64
376.06	7.55
376.423	7.44
376.785	7.4
377.147	7.43
377.51	7.41
377.872	7.35
378.234	7.24
378.596	7.19
378.958	7.13
379.321	7.12
379.683	7.08
380.045	6.92
380.407	6.89
380.769	6.81
381.13	6.69
381.492	6.59
381.854	6.48
382.216	6.42
382.578	6.39
382.939	6.23
383.301	6.21
383.663	6.12
384.024	6.1
384.386	6.11
384.747	6.06
385.109	6.05
385.47	6
385.832	6
386.193	5.98
386.554	5.95
386.916	5.87
387.277	5.84
387.638	5.88
387.999	5.85
388.36	5.86
388.721	5.85
389.082	5.79
389.443	5.74
389.804	5.77
390.165	5.74
390.526	5.77
390.887	5.69
391.248	5.69
391.609	5.66
391.969	5.61
392.33	5.57
392.691	5.53
393.051	5.5
393.412	5.42
393.772	5.35
394.133	5.33
394.493	5.32
394.854	5.31
395.214	5.28
395.574	5.21
395.935	5.2
396.295	5.19
396.655	5.16
397.015	5.14
397.376	5.09
397.736	5.07
398.096	5.02
398.456	5.01
398.816	4.97
399.176	4.92
399.535	4.83
399.895	4.81
400.255	4.78
400.615	4.77
400.975	4.77
401.334	4.75
401.694	4.7
402.054	4.66
402.413	4.63
402.773	4.58
403.132	4.54
403.492	4.51
403.851	4.45
404.211	4.42
404.57	4.4
404.929	4.38
405.288	4.32
405.648	4.3
406.007	4.25
406.366	4.23
406.725	4.23
407.084	4.24
407.443	4.23
407.802	4.21
408.161	4.2
408.52	4.14
408.879	4.12
409.238	4.13
409.596	4.12
409.955	4.08
410.314	4.07
410.673	4.07
411.031	4.05
411.39	4.03
411.748	4.06
412.107	4.07
412.465	4.05
412.824	4.07
413.182	4.03
413.54	4.02
413.899	4.04
414.257	4.02
414.615	4
414.974	3.99
415.332	3.93
415.69	3.89
416.048	3.89
416.406	3.87
416.764	3.85
417.122	3.82
417.48	3.81
417.838	3.81
418.195	3.79
418.553	3.75
418.911	3.74
419.269	3.7
419.626	3.66
419.984	3.65
420.342	3.63
420.699	3.61
421.057	3.6
421.414	3.57
421.772	3.55
422.129	3.52
422.486	3.49
422.844	3.48
423.201	3.47
423.558	3.46
423.915	3.44
424.273	3.42
424.63	3.4
424.987	3.39
425.344	3.36
425.701	3.35
426.058	3.34
426.415	3.33
426.772	3.33
427.128	3.32
427.485	3.31
427.842	3.29
428.199	3.3
428.555	3.29
428.912	3.3
429.269	3.3
429.625	3.31
429.982	3.32
430.338	3.33
430.695	3.34
431.051	3.3
431.407	3.32
431.764	3.31
432.12	3.33
432.476	3.32
432.832	3.31
433.189	3.3
433.545	3.3
433.901	3.29
434.257	3.3
434.613	3.3
434.969	3.3
435.325	3.31
435.681	3.29
436.036	3.29
436.392	3.27
436.748	3.26
437.104	3.26
437.459	3.24
437.815	3.23
438.171	3.23
438.526	3.26
438.882	3.25
439.237	3.26
439.593	3.25
439.948	3.25
440.304	3.26
440.659	3.26
441.014	3.27
441.369	3.26
441.725	3.23
442.08	3.22
442.435	3.22
442.79	3.22
443.145	3.21
443.5	3.19
443.855	3.19
444.21	3.19
444.565	3.17
444.92	3.18
445.275	3.15
445.629	3.14
445.984	3.12
446.339	3.11
446.693	3.09
447.048	3.08
447.403	3.07
447.757	3.06
448.112	3.04
448.466	3.02
448.82	3.02
449.175	3.02
449.529	3.01
449.883	3
450.238	2.98
450.592	2.98
450.946	2.99
451.3	2.99
451.654	2.98
452.008	2.97
452.362	2.96
452.716	2.96
453.07	2.96
453.424	2.96
453.778	2.96
454.132	2.96
454.486	2.95
454.839	2.95
455.193	2.94
455.547	2.96
455.9	2.96
456.254	2.96
456.607	2.96
456.961	2.97
457.314	2.97
457.668	2.99
458.021	2.97
458.375	2.98
458.728	2.98
459.081	2.98
459.434	2.99
459.787	3.01
460.141	3.02
460.494	3.04
460.847	3.04
461.2	3.04
461.553	3.06
461.906	3.07
462.259	3.07
462.611	3.1
462.964	3.1
463.317	3.12
463.67	3.12
464.022	3.13
464.375	3.14
464.728	3.14
465.08	3.15
465.433	3.15
465.785	3.15
466.138	3.15
466.49	3.17
466.843	3.19
467.195	3.21
467.547	3.23
467.899	3.22
468.252	3.22
468.604	3.24
468.956	3.24
469.308	3.24
469.66	3.23
470.012	3.21
470.364	3.23
470.716	3.23
471.068	3.24
471.42	3.28
471.772	3.28
472.123	3.3
472.475	3.3
472.827	3.32
473.178	3.34
473.53	3.33
473.882	3.3
474.233	3.29
474.585	3.28
474.936	3.26
475.288	3.25
475.639	3.25
475.99	3.22
476.342	3.22
476.693	3.22
477.044	3.24
477.395	3.23
477.746	3.22
478.097	3.21
478.448	3.21
478.8	3.18
479.15	3.15
479.501	3.17
479.852	3.18
480.203	3.17
480.554	3.17
480.905	3.19
481.255	3.19
481.606	3.19
481.957	3.18
482.307	3.18
482.658	3.18
483.009	3.18
483.359	3.19
483.709	3.19
484.06	3.2
484.41	3.2
484.761	3.21
485.111	3.21
485.461	3.21
485.811	3.22
486.162	3.22
486.512	3.23
486.862	3.23
487.212	3.22
487.562	3.22
487.912	3.22
488.262	3.23
488.612	3.23
488.961	3.24
489.311	3.26
489.661	3.26
490.011	3.26
490.36	3.27
490.71	3.29
491.06	3.29
491.409	3.3
491.759	3.31
492.108	3.31
492.458	3.32
492.807	3.31
493.157	3.32
493.506	3.33
493.855	3.33
494.204	3.35
494.554	3.38
494.903	3.4
495.252	3.42
495.601	3.42
495.95	3.46
496.299	3.48
496.648	3.49
496.997	3.51
497.346	3.55
497.695	3.58
498.043	3.6
498.392	3.64
498.741	3.67
499.09	3.68
499.438	3.72
499.787	3.77
500.135	3.84
500.484	3.89
500.832	3.94
501.181	3.99
501.529	4.02
501.878	4.08
502.226	4.1
502.574	4.15
502.923	4.18
503.271	4.23
503.619	4.29
503.967	4.35
504.315	4.41
504.663	4.47
505.011	4.53
505.359	4.57
505.707	4.63
506.055	4.69
506.403	4.75
506.751	4.8
507.098	4.86
507.446	4.93
507.794	4.99
508.141	5.04
508.489	5.11
508.837	5.17
509.184	5.22
509.531	5.31
509.879	5.4
510.226	5.5
510.574	5.55
510.921	5.61
511.268	5.69
511.616	5.77
511.963	5.84
512.31	5.93
512.657	6
513.004	6.09
513.351	6.18
513.698	6.28
514.045	6.37
514.392	6.46
514.739	6.55
515.086	6.64
515.432	6.74
515.779	6.83
516.126	6.96
516.473	7.04
516.819	7.15
517.166	7.24
517.512	7.29
517.859	7.38
518.205	7.47
518.552	7.56
518.898	7.64
519.245	7.73
519.591	7.8
519.937	7.9
520.283	8.01
520.629	8.12
520.976	8.24
521.322	8.37
521.668	8.5
522.014	8.63
522.36	8.77
522.706	8.91
523.052	9.07
523.398	9.24
523.743	9.41
524.089	9.6
524.435	9.75
524.781	9.95
525.126	10.11
525.472	10.25
525.817	10.41
526.163	10.56
526.509	10.68
526.854	10.8
527.199	10.94
527.545	11.05
527.89	11.2
528.235	11.32
528.581	11.45
528.926	11.58
529.271	11.72
529.616	11.87
529.961	12.02
530.306	12.18
530.651	12.35
530.996	12.51
531.341	12.67
531.686	12.86
532.031	13.05
532.376	13.25
532.721	13.45
533.065	13.65
533.41	13.87
533.755	14.12
534.099	14.38
534.444	14.62
534.788	14.87
535.133	15.09
535.477	15.33
535.822	15.6
536.166	15.9
536.51	16.21
536.855	16.52
537.199	16.84
537.543	17.17
537.887	17.51
538.231	17.88
538.576	18.25
538.92	18.61
539.264	18.93
539.608	19.25
539.951	19.58
540.295	19.88
540.639	20.16
540.983	20.42
541.327	20.7
541.671	20.99
542.014	21.28
542.358	21.56
542.701	21.84
543.045	22.09
543.389	22.37
543.732	22.62
544.075	22.93
544.419	23.26
544.762	23.58
545.105	23.89
545.449	24.23
545.792	24.56
546.135	24.9
546.478	25.29
546.821	25.67
547.165	26.09
547.508	26.48
547.851	26.86
548.194	27.29
548.536	27.7
548.879	28.08
549.222	28.5
549.565	28.89
549.908	29.31
550.25	29.74
550.593	30.17
550.936	30.6
551.278	30.95
551.621	31.31
551.963	31.68
552.306	32.07
552.648	32.41
552.991	32.83
553.333	33.21
553.675	33.57
554.017	33.94
554.36	34.27
554.702	34.67
555.044	35.06
555.386	35.39
555.728	35.69
556.07	36.03
556.412	36.31
556.754	36.64
557.096	36.96
557.438	37.33
557.78	37.63
558.121	38.01
558.463	38.36
558.805	38.67
559.147	38.98
559.488	39.27
559.83	39.64
560.171	39.92
560.513	40.19
560.854	40.49
561.196	40.78
561.537	41.07
561.878	41.26
562.22	41.5
562.561	41.8
562.902	42.08
563.243	42.36
563.584	42.59
563.925	42.91
564.266	43.1
564.607	43.34
564.948	43.61
565.289	43.8
565.63	44.07
565.971	44.3
566.312	44.5
566.653	44.74
566.993	44.95
567.334	45.17
567.675	45.35
568.015	45.51
568.356	45.74
568.696	45.87
569.037	46.07
569.377	46.27
569.718	46.45
570.058	46.64
570.398	46.78
570.739	47.02
571.079	47.12
571.419	47.36
571.759	47.54
572.099	47.67
572.439	47.83
572.779	47.96
573.119	48.15
573.459	48.37
573.799	48.53
574.139	48.67
574.479	48.79
574.819	48.94
575.158	49.11
575.498	49.27
575.838	49.48
576.177	49.7
576.517	49.94
576.856	50.08
577.196	50.27
577.535	50.44
577.875	50.61
578.214	50.84
578.553	50.98
578.893	51.1
579.232	51.3
579.571	51.46
579.91	51.66
580.25	51.74
580.589	51.86
580.928	52.03
581.267	52.13
581.606	52.26
581.945	52.39
582.283	52.52
582.622	52.61
582.961	52.78
583.3	52.79
583.639	52.84
583.977	52.88
584.316	53
584.654	53.15
584.993	53.23
585.332	53.27
585.67	53.41
586.008	53.5
586.347	53.56
586.685	53.62
587.024	53.69
587.362	53.76
587.7	53.8
588.038	53.92
588.376	53.98
588.715	54.06
589.053	54.23
589.391	54.27
589.729	54.36
590.067	54.36
590.404	54.43
590.742	54.49
591.08	54.61
591.418	54.65
591.756	54.66
592.093	54.7
592.431	54.81
592.769	54.84
593.106	54.99
593.444	55.02
593.781	55.19
594.119	55.22
594.456	55.37
594.793	55.58
595.131	55.61
595.468	55.66
595.805	55.75
596.143	55.82
596.48	55.91
596.817	55.96
597.154	56.05
597.491	56.18
597.828	56.24
598.165	56.28
598.502	56.33
598.839	56.44
599.176	56.61
599.512	56.64
599.849	56.75
600.186	56.8
600.523	56.91
600.859	56.94
601.196	57.05
601.532	57.08
601.869	56.98
602.205	57.07
602.542	57.18
602.878	57.24
603.215	57.2
603.551	57.24
603.887	57.26
604.223	57.3
604.56	57.37
604.896	57.35
605.232	57.44
605.568	57.53
605.904	57.57
606.24	57.57
606.576	57.63
606.912	57.65
607.248	57.67
607.583	57.66
607.919	57.71
608.255	57.75
608.591	57.84
608.926	57.92
609.262	58.05
609.597	58.23
609.933	58.29
610.268	58.41
610.604	58.52
610.939	58.68
611.275	58.74
611.61	58.73
611.945	58.88
612.281	58.94
612.616	58.99
612.951	59.03
613.286	59.17
613.621	59.21
613.956	59.27
614.291	59.34
614.626	59.51
614.961	59.58
615.296	59.6
615.631	59.6
615.966	59.68
616.3	59.58
616.635	59.4
616.97	59.43
617.304	59.47
617.639	59.54
617.973	59.57
618.308	59.66
618.642	59.82
618.977	59.83
619.311	59.83
619.646	59.87
619.98	59.93
620.314	59.84
620.648	59.97
620.983	60.09
621.317	60.18
621.651	60.16
621.985	60.24
622.319	60.28
622.653	60.43
622.987	60.53
623.321	60.55
623.655	60.63
623.988	60.63
624.322	60.64
624.656	60.62
624.99	60.64
625.323	60.54
625.657	60.53
625.99	60.57
626.324	60.62
626.657	60.6
626.991	60.64
627.324	60.75
627.658	60.72
627.991	60.72
628.324	60.71
628.657	60.75
628.991	60.67
629.324	60.67
629.657	60.62
629.99	60.61
630.323	60.6
630.656	60.69
630.989	60.79
631.322	60.91
631.655	60.92
631.987	60.89
632.32	60.89
632.653	60.93
632.986	60.91
633.318	60.91
633.651	61.04
633.984	61.09
634.316	61.11
634.649	61.22
634.981	61.29
635.313	61.28
635.646	61.31
635.978	61.4
636.31	61.46
636.643	61.45
636.975	61.51
637.307	61.65
637.639	61.57
637.971	61.65
638.303	61.49
638.635	61.5
638.967	61.55
639.299	61.84
639.631	61.8
639.963	61.79
640.295	61.75
640.626	61.7
640.958	61.79
641.29	61.75
641.621	61.77
641.953	61.72
642.285	61.78
642.616	61.76
642.948	61.74
643.279	61.78
643.61	61.76
643.942	61.74
644.273	61.61
644.604	61.64
644.936	61.46
645.267	61.52
645.598	61.52
645.929	61.6
646.26	61.47
646.591	61.56
646.922	61.65
647.253	61.86
647.584	61.87
647.915	61.87
648.245	61.84
648.576	61.72
648.907	61.88
649.238	61.82
649.568	61.86
649.899	61.99
650.229	62.14
650.56	62.2
650.89	62.21
651.221	62.25
651.551	62.29
651.882	62.34
652.212	62.5
652.542	62.61
652.872	62.6
653.203	62.72
653.533	62.75
653.863	62.87
654.193	62.8
654.523	62.89
654.853	62.85
655.183	63.04
655.513	63.1
655.843	63
656.172	63.19
656.502	63.2
656.832	63.17
657.162	63.02
657.491	63.12
657.821	63.1
658.15	63.04
658.48	63.09
658.809	63.19
659.139	63
659.468	63.03
659.798	62.95
660.127	62.83
660.456	62.76
660.785	62.73
661.115	62.77
661.444	62.84
661.773	62.87
662.102	62.74
662.431	62.74
662.76	62.81
663.089	62.71
663.418	62.74
663.747	62.69
664.076	62.73
664.404	62.76
664.733	62.79
665.062	62.88
665.39	62.8
665.719	62.78
666.048	62.9
666.376	62.94
666.705	62.99
667.033	63.09
667.362	63.14
667.69	63.03
