Data from BA56814_Reflection_00012.txt Node
Date: Mon Nov 18 15:40:43 EST 2019
User: vgr7
Spectrometer: USB2G7710
Scans to average: 3
Trigger mode: 4
Integration Time (sec): 2.000000E-2
Electric dark correction enabled: true
Boxcar width: 10
XAxis mode: Wavelengths
Number of Pixels in Spectrum: 2048
>>>>>Begin Spectral Data<<<<<
177.721	83.99
178.105	27.61
178.488	32.69
178.871	5.77
179.254	45.72
179.636	-131.28
180.019	4.27
180.402	10.34
180.785	-220.39
181.168	71.48
181.55	11.53
181.933	72.94
182.316	106.14
182.698	98.14
183.081	113.88
183.463	165.05
183.846	214.7
184.228	169.45
184.611	111.14
184.993	221.9
185.376	144.72
185.758	199.92
186.14	126.72
186.522	101.56
186.904	79.79
187.287	117.42
187.669	108.33
188.051	83.84
188.433	105.24
188.815	116.42
189.197	73.45
189.579	77.47
189.961	132.8
190.342	87.6
190.724	91.94
191.106	67.71
191.488	58.46
191.869	29.43
192.251	45.37
192.633	47.58
193.014	41.89
193.396	105.26
193.777	177.96
194.159	241.98
194.54	746.64
194.922	3001.64
195.303	417.22
195.684	1173.39
196.065	-118.01
196.447	-69.26
196.828	-546.3
197.209	-330.13
197.59	-174.4
197.971	-148.34
198.352	-113.6
198.733	-92.38
199.114	-77.48
199.495	-67.56
199.876	-91.24
200.257	-85.07
200.638	-83.21
201.018	-99.87
201.399	-130.13
201.78	-167.64
202.16	-256.5
202.541	-311.96
202.922	-362.51
203.302	-329.72
203.683	-395.92
204.063	-1178.98
204.444	-1833.69
204.824	-626.67
205.204	-579.67
205.585	-597.49
205.965	-544.24
206.345	-731.93
206.725	-1254.64
207.106	-3838.55
207.486	1103.26
207.866	-25856.52
208.246	-888.68
208.626	-950.67
209.006	-673.26
209.386	-562.88
209.766	-404.46
210.145	-457.39
210.525	-304.59
210.905	-235.79
211.285	-242.2
211.664	-144
212.044	-117.2
212.424	-108.93
212.803	-107.03
213.183	-81.28
213.562	-73.38
213.942	-74.5
214.321	-64.55
214.701	-75.3
215.08	-64.11
215.459	-60.28
215.838	-78.04
216.218	-83.06
216.597	-68.03
216.976	-70.93
217.355	-57.78
217.734	-55.18
218.113	-56.84
218.492	-56.88
218.871	-67.5
219.25	-81.8
219.629	-89.14
220.008	-108.32
220.387	-105.76
220.766	-127.34
221.144	-182.07
221.523	-255.57
221.902	-242.89
222.28	-212.97
222.659	-193.06
223.037	-198.71
223.416	-171.35
223.794	-152.59
224.173	-112.71
224.551	-98.87
224.929	-76.54
225.308	-61.85
225.686	-56.81
226.064	-43.02
226.442	-37.44
226.821	-32.68
227.199	-23.8
227.577	-22.2
227.955	-19
228.333	-15.06
228.711	-9.3
229.089	-6.65
229.467	-6.49
229.845	-6.19
230.222	-4
230.6	-3.88
230.978	-0.9
231.356	-0.26
231.733	1.51
232.111	2.31
232.488	2.81
232.866	2
233.243	0.88
233.621	1.28
233.998	0.76
234.376	0.78
234.753	1.49
235.13	2.08
235.508	3.17
235.885	3.33
236.262	2.64
236.639	1.17
237.016	1.46
237.393	3.37
237.77	4.58
238.147	4.25
238.524	3.29
238.901	2.87
239.278	2.74
239.655	2.42
240.032	1.78
240.409	1.64
240.785	1.62
241.162	2.3
241.539	2.23
241.915	2.69
242.292	2.41
242.668	2.7
243.045	2.86
243.421	2.47
243.798	2.42
244.174	2.65
244.551	3.01
244.927	3
245.303	3
245.679	3
246.056	3.02
246.432	3.1
246.808	3.21
247.184	3.04
247.56	2.95
247.936	2.99
248.312	3
248.688	3.12
249.064	2.81
249.44	2.73
249.815	2.51
250.191	2.54
250.567	2.34
250.943	2.04
251.318	2.27
251.694	2.39
252.069	2.18
252.445	2.14
252.82	1.98
253.196	1.77
253.571	1.58
253.947	1.46
254.322	1.65
254.697	1.47
255.073	1.49
255.448	1.57
255.823	1.72
256.198	1.8
256.573	1.99
256.948	2.31
257.323	2.66
257.698	3.05
258.073	3.14
258.448	3.18
258.823	3.45
259.198	3.3
259.573	3.23
259.948	3.23
260.322	3.18
260.697	3.35
261.072	3.39
261.446	3.42
261.821	3.39
262.195	3.38
262.57	3.42
262.944	3.52
263.319	3.71
263.693	3.66
264.067	3.77
264.442	3.75
264.816	3.77
265.19	3.88
265.564	3.78
265.938	3.73
266.313	3.79
266.687	3.81
267.061	3.99
267.435	4.03
267.809	4.15
268.183	4.11
268.556	3.9
268.93	4.06
269.304	4.11
269.678	4.15
270.051	4.14
270.425	4.06
270.799	4.1
271.172	4.07
271.546	4.16
271.919	4.04
272.293	3.91
272.666	3.94
273.04	3.81
273.413	3.68
273.787	3.73
274.16	3.6
274.533	3.4
274.906	3.24
275.279	3.21
275.653	3.13
276.026	3.03
276.399	3.07
276.772	2.97
277.145	2.73
277.518	2.83
277.891	2.76
278.263	2.85
278.636	2.74
279.009	2.63
279.382	2.82
279.755	2.81
280.127	3.02
280.5	2.96
280.872	3.02
281.245	3.13
281.617	3.25
281.99	3.5
282.362	3.62
282.735	3.5
283.107	3.49
283.479	3.53
283.852	3.45
284.224	3.48
284.596	3.43
284.968	3.53
285.34	3.6
285.713	3.61
286.085	3.61
286.457	3.78
286.829	3.75
287.201	3.55
287.572	3.59
287.944	3.51
288.316	3.54
288.688	3.45
289.06	3.38
289.431	3.36
289.803	3.27
290.175	3.36
290.546	3.5
290.918	3.56
291.289	3.54
291.661	3.79
292.032	3.87
292.403	3.96
292.775	4.02
293.146	3.83
293.517	3.89
293.889	3.95
294.26	3.83
294.631	3.89
295.002	3.86
295.373	3.89
295.744	3.95
296.115	4.06
296.486	3.94
296.857	3.96
297.228	3.97
297.599	3.89
297.97	3.95
298.34	4
298.711	4.03
299.082	4.02
299.452	3.97
299.823	3.94
300.194	3.97
300.564	3.94
300.935	4.12
301.305	4.12
301.676	4.18
302.046	4.29
302.416	4.36
302.787	4.49
303.157	4.48
303.527	4.41
303.897	4.35
304.267	4.63
304.637	4.8
305.008	4.86
305.378	5.11
305.748	5.08
306.117	5.04
306.487	5.09
306.857	5.28
307.227	5.35
307.597	5.29
307.967	5.13
308.336	5.2
308.706	5.1
309.076	5.04
309.445	4.93
309.815	4.86
310.184	4.86
310.554	4.96
310.923	4.98
311.293	5.03
311.662	5.06
312.031	4.96
312.401	4.84
312.77	4.87
313.139	4.85
313.508	4.79
313.877	4.87
314.246	5.02
314.616	4.84
314.985	4.76
315.353	4.8
315.722	4.98
316.091	4.99
316.46	5.07
316.829	5.14
317.198	5.26
317.567	5.36
317.935	5.38
318.304	5.48
318.672	5.59
319.041	5.68
319.41	5.61
319.778	5.74
320.147	5.8
320.515	5.73
320.883	5.6
321.252	5.84
321.62	5.79
321.988	5.52
322.357	5.66
322.725	5.72
323.093	5.7
323.461	5.73
323.829	5.8
324.197	5.87
324.565	5.92
324.933	5.93
325.301	5.97
325.669	6
326.037	5.91
326.405	5.87
326.772	5.91
327.14	6.07
327.508	6.03
327.875	6.02
328.243	6.09
328.61	6.21
328.978	6.17
329.346	6.29
329.713	6.41
330.08	6.53
330.448	6.56
330.815	6.58
331.182	6.63
331.55	6.63
331.917	6.65
332.284	6.77
332.651	6.84
333.018	6.82
333.385	6.84
333.752	6.96
334.119	7.14
334.486	7.07
334.853	6.98
335.22	7.19
335.587	7.31
335.954	7.33
336.32	7.42
336.687	7.35
337.054	7.34
337.42	7.36
337.787	7.39
338.153	7.47
338.52	7.55
338.886	7.59
339.253	7.63
339.619	7.66
339.986	7.62
340.352	7.6
340.718	7.57
341.084	7.62
341.451	7.59
341.817	7.61
342.183	7.68
342.549	7.77
342.915	7.67
343.281	7.65
343.647	7.61
344.013	7.53
344.379	7.51
344.745	7.54
345.11	7.6
345.476	7.57
345.842	7.55
346.208	7.6
346.573	7.58
346.939	7.66
347.304	7.58
347.67	7.55
348.035	7.53
348.401	7.63
348.766	7.66
349.132	7.65
349.497	7.6
349.862	7.65
350.228	7.64
350.593	7.65
350.958	7.65
351.323	7.67
351.688	7.73
352.053	7.79
352.418	7.87
352.783	7.87
353.148	7.89
353.513	7.91
353.878	7.82
354.243	7.87
354.608	7.79
354.972	7.91
355.337	7.98
355.702	8.05
356.066	8.06
356.431	8.09
356.795	8.14
357.16	8.12
357.524	8.13
357.889	8.18
358.253	8.15
358.618	8.13
358.982	8.14
359.346	8.18
359.71	8.12
360.075	8.13
360.439	8.19
360.803	8.15
361.167	8.07
361.531	8.05
361.895	8.02
362.259	8.05
362.623	8.01
362.987	7.97
363.351	7.86
363.714	7.85
364.078	7.76
364.442	7.71
364.806	7.67
365.169	7.63
365.533	7.56
365.896	7.54
366.26	7.54
366.623	7.53
366.987	7.47
367.35	7.5
367.714	7.48
368.077	7.44
368.44	7.38
368.803	7.46
369.167	7.51
369.53	7.47
369.893	7.43
370.256	7.4
370.619	7.39
370.982	7.4
371.345	7.36
371.708	7.41
372.071	7.32
372.434	7.34
372.797	7.31
373.159	7.23
373.522	7.29
373.885	7.33
374.247	7.34
374.61	7.31
374.973	7.24
375.335	7.2
375.698	7.16
376.06	7.13
376.423	7.04
376.785	7
377.147	7.06
377.51	7.05
377.872	7.06
378.234	7.02
378.596	7.03
378.958	6.97
379.321	6.93
379.683	6.94
380.045	6.91
380.407	6.93
380.769	6.9
381.13	6.8
381.492	6.72
381.854	6.69
382.216	6.63
382.578	6.7
382.939	6.62
383.301	6.56
383.663	6.53
384.024	6.54
384.386	6.56
384.747	6.49
385.109	6.48
385.47	6.38
385.832	6.37
386.193	6.39
386.554	6.35
386.916	6.29
387.277	6.27
387.638	6.29
387.999	6.25
388.36	6.25
388.721	6.23
389.082	6.2
389.443	6.13
389.804	6.15
390.165	6.11
390.526	6.13
390.887	6.09
391.248	6.15
391.609	6.12
391.969	6.09
392.33	6.05
392.691	6.02
393.051	6.02
393.412	5.99
393.772	5.96
394.133	5.97
394.493	5.92
394.854	5.89
395.214	5.88
395.574	5.84
395.935	5.83
396.295	5.84
396.655	5.83
397.015	5.81
397.376	5.76
397.736	5.72
398.096	5.7
398.456	5.7
398.816	5.63
399.176	5.59
399.535	5.55
399.895	5.52
400.255	5.47
400.615	5.47
400.975	5.44
401.334	5.4
401.694	5.38
402.054	5.39
402.413	5.38
402.773	5.35
403.132	5.27
403.492	5.23
403.851	5.17
404.211	5.15
404.57	5.17
404.929	5.21
405.288	5.16
405.648	5.11
406.007	5.07
406.366	5.05
406.725	5.09
407.084	5.1
407.443	5.09
407.802	5.07
408.161	5.03
408.52	4.98
408.879	4.95
409.238	4.94
409.596	4.93
409.955	4.87
410.314	4.83
410.673	4.87
411.031	4.86
411.39	4.87
411.748	4.88
412.107	4.86
412.465	4.8
412.824	4.78
413.182	4.75
413.54	4.75
413.899	4.74
414.257	4.7
414.615	4.64
414.974	4.61
415.332	4.58
415.69	4.56
416.048	4.56
416.406	4.54
416.764	4.49
417.122	4.48
417.48	4.49
417.838	4.48
418.195	4.46
418.553	4.44
418.911	4.42
419.269	4.4
419.626	4.39
419.984	4.37
420.342	4.37
420.699	4.37
421.057	4.36
421.414	4.34
421.772	4.33
422.129	4.34
422.486	4.33
422.844	4.34
423.201	4.32
423.558	4.31
423.915	4.31
424.273	4.32
424.63	4.31
424.987	4.29
425.344	4.28
425.701	4.27
426.058	4.27
426.415	4.26
426.772	4.27
427.128	4.26
427.485	4.27
427.842	4.26
428.199	4.26
428.555	4.25
428.912	4.24
429.269	4.21
429.625	4.19
429.982	4.2
430.338	4.16
430.695	4.16
431.051	4.15
431.407	4.12
431.764	4.12
432.12	4.12
432.476	4.11
432.832	4.12
433.189	4.12
433.545	4.1
433.901	4.1
434.257	4.08
434.613	4.06
434.969	4.06
435.325	4.06
435.681	4.05
436.036	4.06
436.392	4.07
436.748	4.08
437.104	4.08
437.459	4.08
437.815	4.09
438.171	4.1
438.526	4.09
438.882	4.11
439.237	4.09
439.593	4.11
439.948	4.09
440.304	4.05
440.659	4.06
441.014	4.07
441.369	4.05
441.725	4.04
442.08	4.02
442.435	4.02
442.79	4.02
443.145	4.01
443.5	3.99
443.855	3.97
444.21	3.95
444.565	3.96
444.92	3.96
445.275	3.94
445.629	3.95
445.984	3.95
446.339	3.93
446.693	3.92
447.048	3.9
447.403	3.92
447.757	3.92
448.112	3.9
448.466	3.88
448.82	3.88
449.175	3.89
449.529	3.88
449.883	3.87
450.238	3.86
450.592	3.85
450.946	3.84
451.3	3.83
451.654	3.83
452.008	3.82
452.362	3.78
452.716	3.78
453.07	3.77
453.424	3.76
453.778	3.76
454.132	3.74
454.486	3.72
454.839	3.71
455.193	3.71
455.547	3.7
455.9	3.72
456.254	3.73
456.607	3.72
456.961	3.75
457.314	3.75
457.668	3.74
458.021	3.74
458.375	3.75
458.728	3.75
459.081	3.77
459.434	3.76
459.787	3.78
460.141	3.8
460.494	3.79
460.847	3.81
461.2	3.8
461.553	3.84
461.906	3.84
462.259	3.84
462.611	3.87
462.964	3.89
463.317	3.88
463.67	3.89
464.022	3.89
464.375	3.88
464.728	3.89
465.08	3.91
465.433	3.93
465.785	3.95
466.138	3.95
466.49	3.93
466.843	3.95
467.195	3.96
467.547	3.97
467.899	3.99
468.252	3.98
468.604	3.98
468.956	3.97
469.308	4
469.66	4
470.012	4
470.364	4.01
470.716	4.01
471.068	4.03
471.42	4.04
471.772	4.04
472.123	4.03
472.475	4.04
472.827	4.05
473.178	4.05
473.53	4.07
473.882	4.08
474.233	4.07
474.585	4.07
474.936	4.07
475.288	4.07
475.639	4.09
475.99	4.1
476.342	4.12
476.693	4.1
477.044	4.14
477.395	4.12
477.746	4.11
478.097	4.12
478.448	4.11
478.8	4.08
479.15	4.07
479.501	4.08
479.852	4.08
480.203	4.08
480.554	4.09
480.905	4.09
481.255	4.11
481.606	4.12
481.957	4.11
482.307	4.11
482.658	4.11
483.009	4.11
483.359	4.11
483.709	4.12
484.06	4.11
484.41	4.12
484.761	4.13
485.111	4.13
485.461	4.13
485.811	4.14
486.162	4.14
486.512	4.16
486.862	4.16
487.212	4.16
487.562	4.16
487.912	4.15
488.262	4.16
488.612	4.16
488.961	4.16
489.311	4.17
489.661	4.18
490.011	4.19
490.36	4.2
490.71	4.21
491.06	4.21
491.409	4.23
491.759	4.21
492.108	4.21
492.458	4.21
492.807	4.22
493.157	4.25
493.506	4.26
493.855	4.27
494.204	4.28
494.554	4.3
494.903	4.32
495.252	4.32
495.601	4.33
495.95	4.35
496.299	4.36
496.648	4.39
496.997	4.41
497.346	4.43
497.695	4.44
498.043	4.45
498.392	4.47
498.741	4.48
499.09	4.51
499.438	4.56
499.787	4.61
500.135	4.65
500.484	4.66
500.832	4.7
501.181	4.72
501.529	4.75
501.878	4.78
502.226	4.85
502.574	4.91
502.923	4.96
503.271	5
503.619	5.07
503.967	5.08
504.315	5.11
504.663	5.15
505.011	5.18
505.359	5.24
505.707	5.29
506.055	5.35
506.403	5.41
506.751	5.44
507.098	5.48
507.446	5.54
507.794	5.58
508.141	5.63
508.489	5.69
508.837	5.74
509.184	5.81
509.531	5.86
509.879	5.94
510.226	5.99
510.574	6.04
510.921	6.09
511.268	6.17
511.616	6.25
511.963	6.31
512.31	6.39
512.657	6.46
513.004	6.52
513.351	6.62
513.698	6.69
514.045	6.76
514.392	6.84
514.739	6.91
515.086	7.03
515.432	7.13
515.779	7.22
516.126	7.33
516.473	7.4
516.819	7.47
517.166	7.54
517.512	7.62
517.859	7.71
518.205	7.78
518.552	7.87
518.898	7.94
519.245	8.02
519.591	8.09
519.937	8.15
520.283	8.25
520.629	8.33
520.976	8.44
521.322	8.55
521.668	8.67
522.014	8.79
522.36	8.9
522.706	9
523.052	9.12
523.398	9.26
523.743	9.41
524.089	9.57
524.435	9.68
524.781	9.82
525.126	9.96
525.472	10.07
525.817	10.17
526.163	10.27
526.509	10.37
526.854	10.48
527.199	10.59
527.545	10.68
527.89	10.78
528.235	10.87
528.581	10.99
528.926	11.09
529.271	11.2
529.616	11.29
529.961	11.41
530.306	11.55
530.651	11.66
530.996	11.79
531.341	11.92
531.686	12.06
532.031	12.19
532.376	12.33
532.721	12.49
533.065	12.66
533.41	12.82
533.755	12.99
534.099	13.14
534.444	13.32
534.788	13.53
535.133	13.72
535.477	13.92
535.822	14.08
536.166	14.27
536.51	14.48
536.855	14.74
537.199	14.99
537.543	15.2
537.887	15.43
538.231	15.7
538.576	15.92
538.92	16.19
539.264	16.43
539.608	16.68
539.951	16.88
540.295	17.08
540.639	17.29
540.983	17.49
541.327	17.69
541.671	17.87
542.014	18.05
542.358	18.23
542.701	18.41
543.045	18.61
543.389	18.81
543.732	19.01
544.075	19.2
544.419	19.4
544.762	19.62
545.105	19.86
545.449	20.08
545.792	20.34
546.135	20.59
546.478	20.83
546.821	21.09
547.165	21.42
547.508	21.73
547.851	21.99
548.194	22.28
548.536	22.6
548.879	22.9
549.222	23.14
549.565	23.41
549.908	23.71
550.25	24.01
550.593	24.33
550.936	24.62
551.278	24.92
551.621	25.2
551.963	25.49
552.306	25.74
552.648	25.99
552.991	26.25
553.333	26.52
553.675	26.79
554.017	27.06
554.36	27.23
554.702	27.47
555.044	27.78
555.386	28.02
555.728	28.24
556.07	28.56
556.412	28.85
556.754	29.11
557.096	29.34
557.438	29.62
557.78	29.82
558.121	30.06
558.463	30.34
558.805	30.62
559.147	30.89
559.488	31.16
559.83	31.43
560.171	31.7
560.513	31.96
560.854	32.22
561.196	32.41
561.537	32.66
561.878	32.87
562.22	33.06
562.561	33.3
562.902	33.52
563.243	33.7
563.584	33.88
563.925	34.14
564.266	34.34
564.607	34.5
564.948	34.74
565.289	34.93
565.63	35.1
565.971	35.3
566.312	35.46
566.653	35.59
566.993	35.78
567.334	35.97
567.675	36.14
568.015	36.27
568.356	36.47
568.696	36.67
569.037	36.85
569.377	37.04
569.718	37.24
570.058	37.39
570.398	37.51
570.739	37.7
571.079	37.81
571.419	37.97
571.759	38.17
572.099	38.26
572.439	38.38
572.779	38.51
573.119	38.57
573.459	38.72
573.799	38.91
574.139	39.05
574.479	39.14
574.819	39.31
575.158	39.45
575.498	39.54
575.838	39.7
576.177	39.82
576.517	39.89
576.856	39.98
577.196	40.15
577.535	40.28
577.875	40.37
578.214	40.51
578.553	40.63
578.893	40.74
579.232	40.95
579.571	41.04
579.91	41.15
580.25	41.35
580.589	41.47
580.928	41.58
581.267	41.6
581.606	41.62
581.945	41.64
582.283	41.73
582.622	41.86
582.961	41.92
583.3	42.05
583.639	42.15
583.977	42.24
584.316	42.28
584.654	42.37
584.993	42.5
585.332	42.63
585.67	42.69
586.008	42.7
586.347	42.73
586.685	42.82
587.024	42.94
587.362	42.97
587.7	43.05
588.038	43.15
588.376	43.27
588.715	43.44
589.053	43.63
589.391	43.71
589.729	43.8
590.067	43.89
590.404	43.92
590.742	44.06
591.08	44.11
591.418	44.23
591.756	44.37
592.093	44.42
592.431	44.51
592.769	44.64
593.106	44.75
593.444	44.86
593.781	44.99
594.119	44.99
594.456	45.01
594.793	45.06
595.131	45.03
595.468	45.08
595.805	45.11
596.143	45.1
596.48	45.21
596.817	45.2
597.154	45.23
597.491	45.31
597.828	45.37
598.165	45.44
598.502	45.46
598.839	45.52
599.176	45.55
599.512	45.63
599.849	45.72
600.186	45.72
600.523	45.76
600.859	45.8
601.196	45.96
601.532	46.07
601.869	46.09
602.205	46.13
602.542	46.15
602.878	46.24
603.215	46.33
603.551	46.37
603.887	46.44
604.223	46.46
604.56	46.52
604.896	46.47
605.232	46.51
605.568	46.58
605.904	46.6
606.24	46.71
606.576	46.7
606.912	46.71
607.248	46.79
607.583	46.86
607.919	46.9
608.255	46.89
608.591	46.9
608.926	47.01
609.262	47.19
609.597	47.28
609.933	47.3
610.268	47.34
610.604	47.35
610.939	47.44
611.275	47.52
611.61	47.56
611.945	47.69
612.281	47.76
612.616	47.79
612.951	47.81
613.286	47.77
613.621	47.82
613.956	47.8
614.291	47.88
614.626	47.85
614.961	47.83
615.296	47.91
615.631	47.97
615.966	47.95
616.3	47.91
616.635	47.98
616.97	48.05
617.304	48.07
617.639	48.1
617.973	48.12
618.308	48.2
618.642	48.22
618.977	48.15
619.311	48.16
619.646	48.22
619.98	48.28
620.314	48.35
620.648	48.41
620.983	48.47
621.317	48.52
621.651	48.61
621.985	48.67
622.319	48.69
622.653	48.72
622.987	48.74
623.321	48.8
623.655	48.8
623.988	48.81
624.322	48.87
624.656	48.96
624.99	49.01
625.323	48.98
625.657	49.04
625.99	49.14
626.324	49.18
626.657	49.24
626.991	49.27
627.324	49.33
627.658	49.32
627.991	49.4
628.324	49.37
628.657	49.36
628.991	49.41
629.324	49.4
629.657	49.5
629.99	49.44
630.323	49.43
630.656	49.49
630.989	49.52
631.322	49.48
631.655	49.45
631.987	49.47
632.32	49.52
632.653	49.54
632.986	49.65
633.318	49.71
633.651	49.71
633.984	49.67
634.316	49.68
634.649	49.72
634.981	49.7
635.313	49.82
635.646	49.84
635.978	49.8
636.31	49.93
636.643	49.91
636.975	49.98
637.307	50
637.639	50
637.971	49.99
638.303	50.03
638.635	50.04
638.967	50.06
639.299	50.16
639.631	50.13
639.963	50.02
640.295	49.97
640.626	49.96
640.958	50.09
641.29	50.07
641.621	50.07
641.953	50.08
642.285	50.02
642.616	50.01
642.948	50.08
643.279	50.06
643.61	50.08
643.942	50.12
644.273	50.15
644.604	50.09
644.936	50.05
645.267	50.04
645.598	50.05
645.929	50.06
646.26	50.02
646.591	50.07
646.922	50.17
647.253	50.27
647.584	50.29
647.915	50.26
648.245	50.3
648.576	50.43
648.907	50.44
649.238	50.47
649.568	50.44
649.899	50.51
650.229	50.51
650.56	50.59
650.89	50.71
651.221	50.72
651.551	50.88
651.882	51.02
652.212	51.09
652.542	51.1
652.872	51.1
653.203	51.18
653.533	51.16
653.863	51.17
654.193	51.11
654.523	51.08
654.853	51.23
655.183	51.16
655.513	51.16
655.843	51.28
656.172	51.3
656.502	51.4
656.832	51.48
657.162	51.49
657.491	51.42
657.821	51.45
658.15	51.51
658.48	51.48
658.809	51.54
659.139	51.57
659.468	51.6
659.798	51.63
660.127	51.55
660.456	51.57
660.785	51.6
661.115	51.63
661.444	51.65
661.773	51.61
662.102	51.69
662.431	51.71
662.76	51.7
663.089	51.73
663.418	51.75
663.747	51.64
664.076	51.67
664.404	51.65
664.733	51.58
665.062	51.61
665.39	51.54
665.719	51.44
666.048	51.42
666.376	51.5
666.705	51.5
667.033	51.58
