Data from BA56813_Reflection_00011.txt Node
Date: Mon Nov 18 15:51:02 EST 2019
User: vgr7
Spectrometer: USB2G7710
Scans to average: 3
Trigger mode: 4
Integration Time (sec): 2.000000E-2
Electric dark correction enabled: true
Boxcar width: 10
XAxis mode: Wavelengths
Number of Pixels in Spectrum: 2048
>>>>>Begin Spectral Data<<<<<
177.721	57.59
178.105	47
178.488	134.41
178.871	107.92
179.254	21.15
179.636	-293.44
180.019	-246.73
180.402	150
180.785	66.08
181.168	218.23
181.55	53.69
181.933	110.97
182.316	96.66
182.698	101.13
183.081	108.77
183.463	110.08
183.846	98.49
184.228	67.65
184.611	62.18
184.993	71.79
185.376	72.36
185.758	87.51
186.14	86.69
186.522	123.93
186.904	165
187.287	101.09
187.669	111.68
188.051	137.45
188.433	197.81
188.815	235.22
189.197	217.69
189.579	266.54
189.961	175.81
190.342	161.48
190.724	375.63
191.106	617.67
191.488	-1965.87
191.869	-702.66
192.251	-962.36
192.633	-822.67
193.014	-2935.93
193.396	-1695.99
193.777	-2931.41
194.159	-5615.79
194.54	-1205.48
194.922	-2134.9
195.303	-364.32
195.684	-323.05
196.065	-157.75
196.447	-249.58
196.828	-198.15
197.209	-143.24
197.59	-145.61
197.971	-114.7
198.352	-82.58
198.733	-150.11
199.114	-112.3
199.495	-136.66
199.876	-171.07
200.257	-125.27
200.638	-142.41
201.018	-94.53
201.399	-86.23
201.78	-64.9
202.16	-111.22
202.541	-258.63
202.922	-324.08
203.302	-311.12
203.683	-237.7
204.063	-392.91
204.444	-347.35
204.824	-439.37
205.204	-421.61
205.585	-333.82
205.965	-329.96
206.345	-3235.66
206.725	1214.29
207.106	483.46
207.486	360.17
207.866	350.94
208.246	422.06
208.626	522.58
209.006	445.81
209.386	504.78
209.766	701.51
210.145	835.24
210.525	-2768.61
210.905	-559.91
211.285	-1357.14
211.664	-4527.12
212.044	-7014.29
212.424	-681.74
212.803	5460.66
213.183	-1620.81
213.562	-741.36
213.942	-332.74
214.321	-111.46
214.701	-69.9
215.08	-119.57
215.459	-89.17
215.838	-66.99
216.218	-54.66
216.597	-41.57
216.976	-42.02
217.355	-21.22
217.734	-24.18
218.113	-26.24
218.492	-40.08
218.871	-46.6
219.25	-54.83
219.629	-61.95
220.008	-51.8
220.387	-41.01
220.766	-40.73
221.144	-57.24
221.523	-61.03
221.902	-73.8
222.28	-75.61
222.659	-71.22
223.037	-38.64
223.416	-53.71
223.794	-54.09
224.173	-26.72
224.551	-33.65
224.929	-24.88
225.308	-17.53
225.686	-16.72
226.064	-16.27
226.442	-9.8
226.821	-3.68
227.199	-5.26
227.577	-7.09
227.955	-8.75
228.333	-9.39
228.711	-7.26
229.089	-2.46
229.467	-5.1
229.845	-6.03
230.222	-7.8
230.6	-10.35
230.978	-9.25
231.356	-6.34
231.733	-8.03
232.111	-7.99
232.488	-8
232.866	-9.09
233.243	-10.29
233.621	-9.26
233.998	-8.54
234.376	-9.1
234.753	-9.87
235.13	-8.18
235.508	-8.81
235.885	-8.25
236.262	-9.15
236.639	-8.62
237.016	-8.64
237.393	-7.63
237.77	-6.54
238.147	-4.96
238.524	-2.67
238.901	-2.13
239.278	-1.28
239.655	0.89
240.032	0.78
240.409	0.71
240.785	1.55
241.162	1.88
241.539	1.39
241.915	1.41
242.292	1.13
242.668	1.33
243.045	1.53
243.421	1.96
243.798	1.64
244.174	1.79
244.551	1.87
244.927	1.74
245.303	2.07
245.679	1.96
246.056	1.79
246.432	1.48
246.808	1.25
247.184	0.84
247.56	0.41
247.936	0.23
248.312	0.42
248.688	0.32
249.064	0.15
249.44	0.31
249.815	0.45
250.191	0.69
250.567	0.56
250.943	0.24
251.318	0.29
251.694	0.47
252.069	0.49
252.445	0.18
252.82	0.2
253.196	-0.19
253.571	-0.03
253.947	0.23
254.322	0.73
254.697	0.76
255.073	0.91
255.448	0.82
255.823	0.86
256.198	0.87
256.573	1.05
256.948	1.17
257.323	1.33
257.698	1.17
258.073	1.03
258.448	0.95
258.823	0.93
259.198	0.88
259.573	0.8
259.948	0.82
260.322	0.9
260.697	0.9
261.072	0.94
261.446	0.91
261.821	0.8
262.195	0.77
262.57	0.86
262.944	0.76
263.319	0.77
263.693	0.69
264.067	0.51
264.442	0.52
264.816	0.49
265.19	0.44
265.564	0.49
265.938	0.51
266.313	0.57
266.687	0.67
267.061	0.72
267.435	0.8
267.809	0.97
268.183	1.09
268.556	0.91
268.93	1.01
269.304	1.02
269.678	1.18
270.051	1.15
270.425	1.04
270.799	1.08
271.172	1.2
271.546	1.25
271.919	1.26
272.293	1.07
272.666	1.11
273.04	1.16
273.413	1.12
273.787	1.15
274.16	1.12
274.533	1.12
274.906	1
275.279	0.92
275.653	0.64
276.026	0.47
276.399	0.61
276.772	0.66
277.145	0.51
277.518	0.42
277.891	0.34
278.263	0.34
278.636	0.44
279.009	0.32
279.382	0.4
279.755	0.41
280.127	0.66
280.5	0.58
280.872	0.61
281.245	0.72
281.617	0.88
281.99	1.05
282.362	1.07
282.735	1.1
283.107	1.23
283.479	1.33
283.852	1.34
284.224	1.36
284.596	1.28
284.968	1.39
285.34	1.33
285.713	1.38
286.085	1.47
286.457	1.53
286.829	1.51
287.201	1.53
287.572	1.57
287.944	1.5
288.316	1.57
288.688	1.46
289.06	1.37
289.431	1.26
289.803	1.14
290.175	1.18
290.546	1.23
290.918	1.13
291.289	1.11
291.661	1.21
292.032	1.24
292.403	1.26
292.775	1.28
293.146	1.33
293.517	1.23
293.889	1.28
294.26	1.22
294.631	1.4
295.002	1.46
295.373	1.43
295.744	1.37
296.115	1.45
296.486	1.33
296.857	1.38
297.228	1.43
297.599	1.6
297.97	1.57
298.34	1.52
298.711	1.58
299.082	1.65
299.452	1.6
299.823	1.65
300.194	1.65
300.564	1.58
300.935	1.63
301.305	1.65
301.676	1.64
302.046	1.76
302.416	1.65
302.787	1.66
303.157	1.78
303.527	1.91
303.897	1.85
304.267	2.19
304.637	2.18
305.008	2.17
305.378	2.2
305.748	2.28
306.117	2.23
306.487	2.27
306.857	2.27
307.227	2.41
307.597	2.32
307.967	2.38
308.336	2.37
308.706	2.37
309.076	2.53
309.445	2.44
309.815	2.4
310.184	2.38
310.554	2.28
310.923	2.2
311.293	2.15
311.662	2.09
312.031	1.85
312.401	1.96
312.77	2.1
313.139	2.05
313.508	2.14
313.877	2.19
314.246	2.16
314.616	2.16
314.985	2.08
315.353	1.97
315.722	1.94
316.091	1.86
316.46	1.83
316.829	1.71
317.198	1.76
317.567	1.66
317.935	1.69
318.304	1.77
318.672	1.84
319.041	1.75
319.41	1.79
319.778	1.95
320.147	1.89
320.515	1.55
320.883	1.41
321.252	1.23
321.62	1.33
321.988	1.31
322.357	1.25
322.725	1.26
323.093	1.54
323.461	1.65
323.829	1.78
324.197	1.77
324.565	1.76
324.933	1.84
325.301	1.96
325.669	2.07
326.037	2.06
326.405	1.97
326.772	2.03
327.14	2.01
327.508	1.94
327.875	1.82
328.243	2.05
328.61	2.08
328.978	2.18
329.346	2.13
329.713	2.09
330.08	2.17
330.448	2.08
330.815	1.87
331.182	1.84
331.55	1.89
331.917	1.93
332.284	2
332.651	1.94
333.018	1.77
333.385	1.73
333.752	1.78
334.119	1.92
334.486	1.88
334.853	1.95
335.22	2.01
335.587	2.18
335.954	2.14
336.32	2.16
336.687	2.08
337.054	2.19
337.42	2.29
337.787	2.27
338.153	2.32
338.52	2.57
338.886	2.37
339.253	2.34
339.619	2.39
339.986	2.4
340.352	2.39
340.718	2.47
341.084	2.45
341.451	2.5
341.817	2.51
342.183	2.52
342.549	2.5
342.915	2.53
343.281	2.47
343.647	2.53
344.013	2.52
344.379	2.53
344.745	2.47
345.11	2.51
345.476	2.54
345.842	2.54
346.208	2.45
346.573	2.6
346.939	2.67
347.304	2.67
347.67	2.6
348.035	2.68
348.401	2.73
348.766	2.84
349.132	2.79
349.497	2.72
349.862	2.76
350.228	2.73
350.593	2.69
350.958	2.69
351.323	2.61
351.688	2.68
352.053	2.72
352.418	2.8
352.783	2.76
353.148	2.71
353.513	2.68
353.878	2.68
354.243	2.72
354.608	2.68
354.972	2.74
355.337	2.85
355.702	2.82
356.066	2.79
356.431	2.68
356.795	2.66
357.16	2.7
357.524	2.69
357.889	2.63
358.253	2.67
358.618	2.77
358.982	2.75
359.346	2.68
359.71	2.65
360.075	2.68
360.439	2.7
360.803	2.71
361.167	2.78
361.531	2.73
361.895	2.66
362.259	2.63
362.623	2.63
362.987	2.58
363.351	2.66
363.714	2.71
364.078	2.71
364.442	2.72
364.806	2.69
365.169	2.66
365.533	2.72
365.896	2.72
366.26	2.69
366.623	2.7
366.987	2.72
367.35	2.74
367.714	2.69
368.077	2.65
368.44	2.62
368.803	2.59
369.167	2.59
369.53	2.57
369.893	2.62
370.256	2.54
370.619	2.55
370.982	2.43
371.345	2.26
371.708	2.33
372.071	2.24
372.434	2.29
372.797	2.33
373.159	2.31
373.522	2.32
373.885	2.29
374.247	2.29
374.61	2.34
374.973	2.24
375.335	2.19
375.698	2.27
376.06	2.26
376.423	2.25
376.785	2.25
377.147	2.28
377.51	2.24
377.872	2.3
378.234	2.27
378.596	2.29
378.958	2.36
379.321	2.3
379.683	2.36
380.045	2.3
380.407	2.31
380.769	2.31
381.13	2.28
381.492	2.24
381.854	2.26
382.216	2.21
382.578	2.32
382.939	2.31
383.301	2.25
383.663	2.25
384.024	2.25
384.386	2.28
384.747	2.31
385.109	2.31
385.47	2.27
385.832	2.25
386.193	2.3
386.554	2.31
386.916	2.27
387.277	2.25
387.638	2.24
387.999	2.21
388.36	2.19
388.721	2.19
389.082	2.17
389.443	2.16
389.804	2.16
390.165	2.12
390.526	2.13
390.887	2.14
391.248	2.19
391.609	2.17
391.969	2.17
392.33	2.13
392.691	2.12
393.051	2.09
393.412	2.09
393.772	2.03
394.133	2.03
394.493	2.06
394.854	2.05
395.214	2.05
395.574	2.03
395.935	2.05
396.295	2.08
396.655	2.13
397.015	2.09
397.376	2.07
397.736	2.04
398.096	2.06
398.456	2.03
398.816	2
399.176	1.98
399.535	1.96
399.895	1.93
400.255	1.93
400.615	1.94
400.975	1.95
401.334	1.92
401.694	1.91
402.054	1.89
402.413	1.89
402.773	1.88
403.132	1.91
403.492	1.9
403.851	1.85
404.211	1.83
404.57	1.83
404.929	1.85
405.288	1.88
405.648	1.86
406.007	1.85
406.366	1.85
406.725	1.86
407.084	1.86
407.443	1.92
407.802	1.94
408.161	1.93
408.52	1.91
408.879	1.93
409.238	1.93
409.596	1.92
409.955	1.91
410.314	1.93
410.673	1.91
411.031	1.89
411.39	1.91
411.748	1.9
412.107	1.92
412.465	1.9
412.824	1.89
413.182	1.88
413.54	1.89
413.899	1.86
414.257	1.85
414.615	1.83
414.974	1.82
415.332	1.8
415.69	1.78
416.048	1.78
416.406	1.79
416.764	1.78
417.122	1.78
417.48	1.78
417.838	1.78
418.195	1.76
418.553	1.77
418.911	1.77
419.269	1.75
419.626	1.76
419.984	1.76
420.342	1.77
420.699	1.77
421.057	1.78
421.414	1.78
421.772	1.77
422.129	1.79
422.486	1.77
422.844	1.76
423.201	1.76
423.558	1.77
423.915	1.77
424.273	1.77
424.63	1.78
424.987	1.78
425.344	1.78
425.701	1.79
426.058	1.78
426.415	1.78
426.772	1.8
427.128	1.77
427.485	1.78
427.842	1.77
428.199	1.77
428.555	1.77
428.912	1.76
429.269	1.78
429.625	1.77
429.982	1.79
430.338	1.79
430.695	1.8
431.051	1.78
431.407	1.79
431.764	1.78
432.12	1.75
432.476	1.74
432.832	1.72
433.189	1.73
433.545	1.74
433.901	1.73
434.257	1.71
434.613	1.72
434.969	1.7
435.325	1.7
435.681	1.72
436.036	1.73
436.392	1.72
436.748	1.72
437.104	1.72
437.459	1.7
437.815	1.7
438.171	1.71
438.526	1.71
438.882	1.71
439.237	1.72
439.593	1.74
439.948	1.74
440.304	1.75
440.659	1.75
441.014	1.76
441.369	1.75
441.725	1.76
442.08	1.77
442.435	1.77
442.79	1.77
443.145	1.75
443.5	1.74
443.855	1.73
444.21	1.72
444.565	1.73
444.92	1.75
445.275	1.74
445.629	1.73
445.984	1.73
446.339	1.72
446.693	1.7
447.048	1.7
447.403	1.7
447.757	1.7
448.112	1.7
448.466	1.7
448.82	1.7
449.175	1.7
449.529	1.69
449.883	1.7
450.238	1.7
450.592	1.7
450.946	1.7
451.3	1.71
451.654	1.72
452.008	1.71
452.362	1.69
452.716	1.71
453.07	1.71
453.424	1.71
453.778	1.71
454.132	1.71
454.486	1.72
454.839	1.72
455.193	1.7
455.547	1.69
455.9	1.7
456.254	1.7
456.607	1.71
456.961	1.69
457.314	1.69
457.668	1.71
458.021	1.69
458.375	1.69
458.728	1.68
459.081	1.68
459.434	1.68
459.787	1.69
460.141	1.68
460.494	1.67
460.847	1.69
461.2	1.68
461.553	1.7
461.906	1.69
462.259	1.68
462.611	1.7
462.964	1.71
463.317	1.7
463.67	1.71
464.022	1.71
464.375	1.71
464.728	1.7
465.08	1.69
465.433	1.69
465.785	1.69
466.138	1.7
466.49	1.71
466.843	1.7
467.195	1.69
467.547	1.69
467.899	1.7
468.252	1.69
468.604	1.71
468.956	1.69
469.308	1.71
469.66	1.7
470.012	1.68
470.364	1.68
470.716	1.67
471.068	1.66
471.42	1.65
471.772	1.68
472.123	1.67
472.475	1.68
472.827	1.7
473.178	1.72
473.53	1.72
473.882	1.72
474.233	1.73
474.585	1.72
474.936	1.75
475.288	1.75
475.639	1.78
475.99	1.78
476.342	1.79
476.693	1.76
477.044	1.77
477.395	1.78
477.746	1.78
478.097	1.79
478.448	1.79
478.8	1.78
479.15	1.76
479.501	1.78
479.852	1.79
480.203	1.78
480.554	1.79
480.905	1.79
481.255	1.77
481.606	1.79
481.957	1.79
482.307	1.78
482.658	1.77
483.009	1.76
483.359	1.76
483.709	1.77
484.06	1.77
484.41	1.77
484.761	1.77
485.111	1.78
485.461	1.78
485.811	1.78
486.162	1.78
486.512	1.79
486.862	1.78
487.212	1.78
487.562	1.79
487.912	1.78
488.262	1.78
488.612	1.8
488.961	1.79
489.311	1.8
489.661	1.8
490.011	1.79
490.36	1.79
490.71	1.8
491.06	1.79
491.409	1.79
491.759	1.79
492.108	1.79
492.458	1.79
492.807	1.78
493.157	1.79
493.506	1.79
493.855	1.78
494.204	1.79
494.554	1.78
494.903	1.77
495.252	1.77
495.601	1.76
495.95	1.76
496.299	1.76
496.648	1.76
496.997	1.77
497.346	1.79
497.695	1.8
498.043	1.8
498.392	1.8
498.741	1.81
499.09	1.81
499.438	1.83
499.787	1.83
500.135	1.86
500.484	1.86
500.832	1.86
501.181	1.89
501.529	1.89
501.878	1.92
502.226	1.93
502.574	1.93
502.923	1.93
503.271	1.94
503.619	1.95
503.967	1.96
504.315	1.95
504.663	1.96
505.011	1.97
505.359	1.98
505.707	1.99
506.055	2
506.403	2.02
506.751	2.04
507.098	2.05
507.446	2.06
507.794	2.08
508.141	2.1
508.489	2.11
508.837	2.15
509.184	2.15
509.531	2.18
509.879	2.22
510.226	2.28
510.574	2.3
510.921	2.31
511.268	2.34
511.616	2.38
511.963	2.42
512.31	2.45
512.657	2.5
513.004	2.54
513.351	2.58
513.698	2.62
514.045	2.64
514.392	2.68
514.739	2.72
515.086	2.79
515.432	2.83
515.779	2.88
516.126	2.9
516.473	2.96
516.819	3.02
517.166	3.06
517.512	3.11
517.859	3.16
518.205	3.23
518.552	3.27
518.898	3.32
519.245	3.36
519.591	3.42
519.937	3.47
520.283	3.53
520.629	3.6
520.976	3.67
521.322	3.78
521.668	3.87
522.014	3.97
522.36	4.05
522.706	4.16
523.052	4.27
523.398	4.41
523.743	4.55
524.089	4.69
524.435	4.81
524.781	4.91
525.126	5.03
525.472	5.13
525.817	5.26
526.163	5.36
526.509	5.46
526.854	5.57
527.199	5.66
527.545	5.75
527.89	5.85
528.235	5.95
528.581	6.04
528.926	6.15
529.271	6.25
529.616	6.35
529.961	6.46
530.306	6.58
530.651	6.68
530.996	6.79
531.341	6.91
531.686	7.05
532.031	7.21
532.376	7.36
532.721	7.51
533.065	7.66
533.41	7.83
533.755	7.99
534.099	8.16
534.444	8.34
534.788	8.54
535.133	8.7
535.477	8.89
535.822	9.07
536.166	9.27
536.51	9.5
536.855	9.74
537.199	9.97
537.543	10.23
537.887	10.49
538.231	10.79
538.576	11.06
538.92	11.31
539.264	11.53
539.608	11.75
539.951	11.96
540.295	12.17
540.639	12.39
540.983	12.59
541.327	12.79
541.671	13
542.014	13.19
542.358	13.39
542.701	13.58
543.045	13.77
543.389	13.97
543.732	14.16
544.075	14.37
544.419	14.58
544.762	14.78
545.105	15.01
545.449	15.24
545.792	15.48
546.135	15.76
546.478	16.04
546.821	16.36
547.165	16.64
547.508	16.95
547.851	17.24
548.194	17.54
548.536	17.88
548.879	18.14
549.222	18.44
549.565	18.74
549.908	19.05
550.25	19.38
550.593	19.71
550.936	20.01
551.278	20.33
551.621	20.67
551.963	20.99
552.306	21.3
552.648	21.59
552.991	21.9
553.333	22.13
553.675	22.39
554.017	22.63
554.36	22.92
554.702	23.16
555.044	23.4
555.386	23.69
555.728	23.93
556.07	24.25
556.412	24.48
556.754	24.78
557.096	25.09
557.438	25.35
557.78	25.62
558.121	25.93
558.463	26.17
558.805	26.39
559.147	26.64
559.488	26.86
559.83	27.12
560.171	27.33
560.513	27.62
560.854	27.86
561.196	28.08
561.537	28.34
561.878	28.59
562.22	28.84
562.561	28.99
562.902	29.17
563.243	29.34
563.584	29.57
563.925	29.72
564.266	29.85
564.607	30.06
564.948	30.21
565.289	30.36
565.63	30.56
565.971	30.77
566.312	30.95
566.653	31.14
566.993	31.28
567.334	31.4
567.675	31.54
568.015	31.7
568.356	31.84
568.696	31.96
569.037	32.09
569.377	32.28
569.718	32.46
570.058	32.63
570.398	32.8
570.739	32.97
571.079	33.17
571.419	33.38
571.759	33.53
572.099	33.68
572.439	33.83
572.779	33.92
573.119	34.01
573.459	34.18
573.799	34.31
574.139	34.44
574.479	34.62
574.819	34.8
575.158	34.99
575.498	35.17
575.838	35.33
576.177	35.54
576.517	35.65
576.856	35.81
577.196	35.96
577.535	36.1
577.875	36.26
578.214	36.39
578.553	36.53
578.893	36.68
579.232	36.86
579.571	37.06
579.91	37.31
580.25	37.48
580.589	37.65
580.928	37.84
581.267	38.05
581.606	38.23
581.945	38.3
582.283	38.37
582.622	38.55
582.961	38.67
583.3	38.71
583.639	38.9
583.977	39.05
584.316	39.16
584.654	39.3
584.993	39.4
585.332	39.57
585.67	39.61
586.008	39.71
586.347	39.83
586.685	39.92
587.024	40
587.362	40.07
587.7	40.16
588.038	40.2
588.376	40.25
588.715	40.26
589.053	40.38
589.391	40.48
589.729	40.55
590.067	40.68
590.404	40.79
590.742	40.8
591.08	40.86
591.418	40.98
591.756	41.06
592.093	41.1
592.431	41.1
592.769	41.23
593.106	41.26
593.444	41.3
593.781	41.33
594.119	41.34
594.456	41.47
594.793	41.45
595.131	41.5
595.468	41.53
595.805	41.59
596.143	41.67
596.48	41.74
596.817	41.76
597.154	41.85
597.491	41.94
597.828	42.04
598.165	42.11
598.502	42.22
598.839	42.34
599.176	42.37
599.512	42.46
599.849	42.48
600.186	42.63
600.523	42.67
600.859	42.78
601.196	42.87
601.532	42.89
601.869	42.96
602.205	43
602.542	43.1
602.878	43.14
603.215	43.2
603.551	43.29
603.887	43.32
604.223	43.32
604.56	43.28
604.896	43.31
605.232	43.34
605.568	43.31
605.904	43.34
606.24	43.41
606.576	43.42
606.912	43.52
607.248	43.51
607.583	43.63
607.919	43.62
608.255	43.69
608.591	43.79
608.926	43.94
609.262	44.05
609.597	44.13
609.933	44.19
610.268	44.25
610.604	44.31
610.939	44.44
611.275	44.52
611.61	44.69
611.945	44.75
612.281	44.77
612.616	44.82
612.951	44.91
613.286	45.08
613.621	45.23
613.956	45.3
614.291	45.43
614.626	45.52
614.961	45.69
615.296	45.79
615.631	45.78
615.966	45.83
616.3	46.01
616.635	46.08
616.97	46.26
617.304	46.37
617.639	46.39
617.973	46.44
618.308	46.47
618.642	46.54
618.977	46.6
619.311	46.73
619.646	46.85
619.98	46.94
620.314	46.96
620.648	47.04
620.983	47.04
621.317	47.14
621.651	47.15
621.985	47.06
622.319	47.05
622.653	47.06
622.987	47.05
623.321	46.97
623.655	46.94
623.988	46.93
624.322	46.78
624.656	46.73
624.99	46.72
625.323	46.7
625.657	46.67
625.99	46.73
626.324	46.74
626.657	46.77
626.991	46.78
627.324	46.76
627.658	46.79
627.991	46.82
628.324	46.75
628.657	46.78
628.991	46.82
629.324	46.93
629.657	47.08
629.99	47.14
630.323	47.11
630.656	47.17
630.989	47.22
631.322	47.34
631.655	47.51
631.987	47.63
632.32	47.77
632.653	47.82
632.986	47.78
633.318	47.82
633.651	47.9
633.984	47.89
634.316	47.95
634.649	47.96
634.981	48.02
635.313	48.18
635.646	48.33
635.978	48.5
636.31	48.52
636.643	48.52
636.975	48.52
637.307	48.66
637.639	48.64
637.971	48.73
638.303	48.74
638.635	48.67
638.967	48.6
639.299	48.61
639.631	48.62
639.963	48.73
640.295	48.81
640.626	48.82
640.958	48.83
641.29	48.89
641.621	48.96
641.953	48.97
642.285	49.06
642.616	49
642.948	48.97
643.279	48.94
643.61	48.92
643.942	48.93
644.273	48.98
644.604	49.07
644.936	48.99
645.267	49.17
645.598	49.4
645.929	49.44
646.26	49.57
646.591	49.73
646.922	49.64
647.253	49.65
647.584	49.75
647.915	49.74
648.245	49.73
648.576	49.62
648.907	49.7
649.238	49.6
649.568	49.53
649.899	49.61
650.229	49.7
650.56	49.71
650.89	49.78
651.221	49.86
651.551	49.91
651.882	49.94
652.212	49.95
652.542	49.85
652.872	49.86
653.203	49.7
653.533	49.63
653.863	49.65
654.193	49.51
654.523	49.51
654.853	49.55
655.183	49.57
655.513	49.67
655.843	49.59
656.172	49.51
656.502	49.6
656.832	49.51
657.162	49.51
657.491	49.58
657.821	49.63
658.15	49.6
658.48	49.54
658.809	49.6
659.139	49.52
659.468	49.43
659.798	49.46
660.127	49.48
660.456	49.58
660.785	49.73
661.115	49.88
661.444	49.85
661.773	49.94
662.102	50.05
662.431	50.07
662.76	50.27
663.089	50.45
663.418	50.51
663.747	50.73
664.076	50.75
664.404	50.84
664.733	50.91
665.062	50.99
665.39	51.05
665.719	51.06
666.048	51.21
666.376	51.3
666.705	51.26
