Data from BA56852_Reflection_00004.txt Node
Date: Mon Nov 18 15:22:55 EST 2019
User: vgr7
Spectrometer: USB2G7710
Scans to average: 3
Trigger mode: 4
Integration Time (sec): 2.000000E-2
Electric dark correction enabled: true
Boxcar width: 10
XAxis mode: Wavelengths
Number of Pixels in Spectrum: 2048
>>>>>Begin Spectral Data<<<<<
177.721	-42.16
178.105	-213.36
178.488	-309.44
178.871	-165.78
179.254	-160.95
179.636	-129.51
180.019	-65.88
180.402	145.16
180.785	361.08
181.168	155.91
181.55	108.43
181.933	62.88
182.316	68.05
182.698	89.45
183.081	63.33
183.463	75.8
183.846	83.05
184.228	102.14
184.611	160.59
184.993	174.05
185.376	129.3
185.758	180.86
186.14	183.97
186.522	185.97
186.904	158.25
187.287	197.55
187.669	202.46
188.051	163.98
188.433	168.44
188.815	180.09
189.197	170.54
189.579	177.54
189.961	219.65
190.342	287.26
190.724	436.31
191.106	441.04
191.488	323.9
191.869	393.21
192.251	559.2
192.633	409.06
193.014	495.73
193.396	738.85
193.777	361.06
194.159	427.35
194.54	477.42
194.922	-24794.74
195.303	-3523.85
195.684	-766.93
196.065	-313.43
196.447	-287.84
196.828	-285.61
197.209	-201.2
197.59	-279.81
197.971	-265.82
198.352	-229.99
198.733	-270.96
199.114	-182.03
199.495	-183.76
199.876	-154.41
200.257	-148.61
200.638	-121.31
201.018	-159.11
201.399	-150.63
201.78	-113.35
202.16	-137.43
202.541	-155.73
202.922	-157.91
203.302	-191.84
203.683	-243.83
204.063	-352.55
204.444	-280.27
204.824	-302.32
205.204	-264.59
205.585	-193.53
205.965	-164.76
206.345	-229.26
206.725	-327.13
207.106	-551.59
207.486	-396.89
207.866	-392.62
208.246	-396.45
208.626	-659.4
209.006	-420.32
209.386	-1002.97
209.766	-1356.97
210.145	762.57
210.525	2417.92
210.905	4875.28
211.285	-507.88
211.664	-354.67
212.044	-297.17
212.424	-316.13
212.803	-369.56
213.183	-389.05
213.562	-468.79
213.942	-1006.78
214.321	-390.75
214.701	-316.72
215.08	-247.8
215.459	-266.3
215.838	-552.39
216.218	-643.3
216.597	-211.57
216.976	-201.42
217.355	-170.88
217.734	-176.46
218.113	-154.53
218.492	-229.69
218.871	-265.5
219.25	-229.94
219.629	-216.48
220.008	-228.92
220.387	-187.34
220.766	-151.6
221.144	-166.25
221.523	-125.19
221.902	-115.8
222.28	-143.69
222.659	-117.08
223.037	-110.67
223.416	-123.13
223.794	-96.7
224.173	-97.52
224.551	-88.38
224.929	-89.05
225.308	-71.41
225.686	-59.97
226.064	-47.62
226.442	-37.51
226.821	-32.98
227.199	-31.85
227.577	-32.42
227.955	-25.65
228.333	-26.98
228.711	-22.27
229.089	-17.22
229.467	-18.67
229.845	-17.02
230.222	-14.6
230.6	-15.43
230.978	-16.26
231.356	-11.74
231.733	-11.71
232.111	-8.76
232.488	-7.84
232.866	-5.82
233.243	-7
233.621	-6.7
233.998	-4.13
234.376	-3.72
234.753	-3.57
235.13	-3.27
235.508	-2.19
235.885	-4.57
236.262	-4.13
236.639	-5.44
237.016	-6.01
237.393	-3.36
237.77	-1.61
238.147	-0.72
238.524	0.69
238.901	1.6
239.278	2.77
239.655	3.39
240.032	3.57
240.409	2.93
240.785	2.66
241.162	3
241.539	3.06
241.915	2.41
242.292	2.56
242.668	2.49
243.045	2.66
243.421	2.82
243.798	3.43
244.174	3.94
244.551	3.95
244.927	4.22
245.303	3.81
245.679	3.65
246.056	3.42
246.432	3.12
246.808	3.16
247.184	2.58
247.56	2.56
247.936	2.48
248.312	2.71
248.688	2.67
249.064	2.55
249.44	2.4
249.815	2.5
250.191	2.49
250.567	2.46
250.943	2.24
251.318	2.29
251.694	2.05
252.069	1.77
252.445	1.8
252.82	1.62
253.196	1.44
253.571	1.44
253.947	1.58
254.322	1.73
254.697	1.42
255.073	1.52
255.448	1.54
255.823	1.54
256.198	1.6
256.573	1.79
256.948	2.1
257.323	2.46
257.698	2.42
258.073	2.64
258.448	2.58
258.823	2.73
259.198	2.67
259.573	2.76
259.948	2.74
260.322	2.79
260.697	2.72
261.072	2.84
261.446	2.79
261.821	2.91
262.195	2.97
262.57	2.94
262.944	3.07
263.319	3.1
263.693	3.11
264.067	3.15
264.442	3.14
264.816	3.11
265.19	2.88
265.564	3.12
265.938	2.99
266.313	3.11
266.687	3
267.061	3.04
267.435	3.08
267.809	3.03
268.183	3.19
268.556	3.23
268.93	3.25
269.304	3.09
269.678	2.87
270.051	2.68
270.425	2.76
270.799	2.58
271.172	2.65
271.546	2.62
271.919	2.6
272.293	2.64
272.666	2.61
273.04	2.7
273.413	2.59
273.787	2.62
274.16	2.53
274.533	2.55
274.906	2.48
275.279	2.39
275.653	2.36
276.026	2.1
276.399	2.15
276.772	2.26
277.145	2.37
277.518	2.54
277.891	2.62
278.263	2.61
278.636	2.55
279.009	2.61
279.382	2.78
279.755	2.7
280.127	2.75
280.5	2.96
280.872	2.98
281.245	2.99
281.617	2.98
281.99	3.17
282.362	3.3
282.735	3.25
283.107	3.27
283.479	3.41
283.852	3.6
284.224	3.49
284.596	3.37
284.968	3.44
285.34	3.38
285.713	3.42
286.085	3.5
286.457	3.72
286.829	3.71
287.201	3.64
287.572	3.64
287.944	3.6
288.316	3.55
288.688	3.49
289.06	3.4
289.431	3.43
289.803	3.54
290.175	3.53
290.546	3.68
290.918	3.72
291.289	3.72
291.661	3.67
292.032	3.82
292.403	3.95
292.775	3.95
293.146	3.98
293.517	3.86
293.889	3.91
294.26	3.76
294.631	3.62
295.002	3.64
295.373	3.7
295.744	3.83
296.115	3.77
296.486	3.76
296.857	3.86
297.228	3.93
297.599	3.77
297.97	3.79
298.34	3.73
298.711	3.76
299.082	3.78
299.452	3.83
299.823	3.84
300.194	3.73
300.564	3.73
300.935	3.85
301.305	3.85
301.676	3.73
302.046	3.78
302.416	3.94
302.787	3.86
303.157	3.75
303.527	3.6
303.897	3.59
304.267	3.65
304.637	3.68
305.008	3.64
305.378	3.8
305.748	3.84
306.117	3.75
306.487	3.78
306.857	3.74
307.227	3.78
307.597	3.78
307.967	3.79
308.336	3.79
308.706	3.76
309.076	3.87
309.445	3.83
309.815	3.86
310.184	3.74
310.554	3.76
310.923	3.9
311.293	3.9
311.662	3.89
312.031	3.87
312.401	3.73
312.77	3.76
313.139	3.6
313.508	3.45
313.877	3.53
314.246	3.36
314.616	3.35
314.985	3.21
315.353	3.14
315.722	3.17
316.091	3.06
316.46	2.86
316.829	2.82
317.198	2.93
317.567	2.83
317.935	2.73
318.304	2.7
318.672	2.51
319.041	2.63
319.41	2.59
319.778	2.71
320.147	2.68
320.515	2.5
320.883	2.6
321.252	2.83
321.62	2.86
321.988	2.94
322.357	2.93
322.725	2.84
323.093	2.85
323.461	2.89
323.829	3.05
324.197	3.15
324.565	3.27
324.933	3.22
325.301	3.32
325.669	3.47
326.037	3.59
326.405	3.64
326.772	3.54
327.14	3.65
327.508	3.56
327.875	3.57
328.243	3.67
328.61	3.82
328.978	3.75
329.346	3.86
329.713	3.86
330.08	3.76
330.448	3.69
330.815	3.69
331.182	3.64
331.55	3.6
331.917	3.71
332.284	3.75
332.651	3.74
333.018	3.72
333.385	3.62
333.752	3.66
334.119	3.79
334.486	3.86
334.853	3.74
335.22	3.7
335.587	3.87
335.954	3.87
336.32	3.64
336.687	3.64
337.054	3.6
337.42	3.65
337.787	3.67
338.153	3.85
338.52	3.78
338.886	3.75
339.253	3.73
339.619	3.68
339.986	3.67
340.352	3.72
340.718	3.67
341.084	3.73
341.451	3.61
341.817	3.51
342.183	3.48
342.549	3.48
342.915	3.65
343.281	3.61
343.647	3.62
344.013	3.8
344.379	3.75
344.745	3.79
345.11	3.69
345.476	3.72
345.842	3.75
346.208	3.83
346.573	3.81
346.939	3.79
347.304	3.76
347.67	3.67
348.035	3.62
348.401	3.62
348.766	3.6
349.132	3.61
349.497	3.62
349.862	3.64
350.228	3.68
350.593	3.54
350.958	3.45
351.323	3.45
351.688	3.35
352.053	3.34
352.418	3.31
352.783	3.37
353.148	3.25
353.513	3.15
353.878	3.16
354.243	3.19
354.608	3.19
354.972	3.16
355.337	3.26
355.702	3.3
356.066	3.35
356.431	3.39
356.795	3.47
357.16	3.4
357.524	3.35
357.889	3.36
358.253	3.35
358.618	3.5
358.982	3.5
359.346	3.46
359.71	3.4
360.075	3.37
360.439	3.36
360.803	3.46
361.167	3.5
361.531	3.47
361.895	3.43
362.259	3.44
362.623	3.47
362.987	3.38
363.351	3.37
363.714	3.42
364.078	3.36
364.442	3.27
364.806	3.3
365.169	3.33
365.533	3.38
365.896	3.39
366.26	3.31
366.623	3.3
366.987	3.36
367.35	3.43
367.714	3.45
368.077	3.46
368.44	3.46
368.803	3.43
369.167	3.41
369.53	3.41
369.893	3.37
370.256	3.44
370.619	3.43
370.982	3.47
371.345	3.36
371.708	3.43
372.071	3.44
372.434	3.4
372.797	3.41
373.159	3.32
373.522	3.36
373.885	3.43
374.247	3.41
374.61	3.44
374.973	3.48
375.335	3.47
375.698	3.51
376.06	3.51
376.423	3.48
376.785	3.5
377.147	3.55
377.51	3.62
377.872	3.55
378.234	3.54
378.596	3.51
378.958	3.53
379.321	3.54
379.683	3.58
380.045	3.68
380.407	3.68
380.769	3.65
381.13	3.6
381.492	3.54
381.854	3.56
382.216	3.55
382.578	3.55
382.939	3.52
383.301	3.47
383.663	3.48
384.024	3.49
384.386	3.53
384.747	3.55
385.109	3.56
385.47	3.58
385.832	3.64
386.193	3.67
386.554	3.68
386.916	3.64
387.277	3.6
387.638	3.56
387.999	3.57
388.36	3.61
388.721	3.63
389.082	3.6
389.443	3.55
389.804	3.53
390.165	3.5
390.526	3.54
390.887	3.55
391.248	3.54
391.609	3.58
391.969	3.57
392.33	3.57
392.691	3.54
393.051	3.57
393.412	3.55
393.772	3.53
394.133	3.5
394.493	3.51
394.854	3.53
395.214	3.55
395.574	3.55
395.935	3.56
396.295	3.58
396.655	3.58
397.015	3.63
397.376	3.59
397.736	3.61
398.096	3.61
398.456	3.6
398.816	3.62
399.176	3.59
399.535	3.58
399.895	3.55
400.255	3.52
400.615	3.5
400.975	3.5
401.334	3.52
401.694	3.56
402.054	3.56
402.413	3.58
402.773	3.52
403.132	3.51
403.492	3.49
403.851	3.47
404.211	3.5
404.57	3.48
404.929	3.53
405.288	3.49
405.648	3.48
406.007	3.5
406.366	3.5
406.725	3.52
407.084	3.52
407.443	3.52
407.802	3.55
408.161	3.53
408.52	3.55
408.879	3.53
409.238	3.53
409.596	3.53
409.955	3.51
410.314	3.53
410.673	3.54
411.031	3.54
411.39	3.54
411.748	3.54
412.107	3.57
412.465	3.56
412.824	3.58
413.182	3.56
413.54	3.58
413.899	3.56
414.257	3.57
414.615	3.56
414.974	3.57
415.332	3.55
415.69	3.56
416.048	3.54
416.406	3.54
416.764	3.53
417.122	3.52
417.48	3.52
417.838	3.53
418.195	3.52
418.553	3.51
418.911	3.53
419.269	3.52
419.626	3.5
419.984	3.5
420.342	3.51
420.699	3.52
421.057	3.51
421.414	3.52
421.772	3.49
422.129	3.5
422.486	3.51
422.844	3.52
423.201	3.5
423.558	3.51
423.915	3.53
424.273	3.52
424.63	3.51
424.987	3.51
425.344	3.5
425.701	3.51
426.058	3.53
426.415	3.52
426.772	3.52
427.128	3.52
427.485	3.53
427.842	3.52
428.199	3.52
428.555	3.53
428.912	3.55
429.269	3.56
429.625	3.57
429.982	3.56
430.338	3.56
430.695	3.58
431.051	3.57
431.407	3.57
431.764	3.58
432.12	3.59
432.476	3.62
432.832	3.61
433.189	3.6
433.545	3.6
433.901	3.6
434.257	3.59
434.613	3.61
434.969	3.6
435.325	3.59
435.681	3.62
436.036	3.62
436.392	3.61
436.748	3.61
437.104	3.58
437.459	3.58
437.815	3.58
438.171	3.58
438.526	3.57
438.882	3.56
439.237	3.57
439.593	3.57
439.948	3.56
440.304	3.55
440.659	3.57
441.014	3.57
441.369	3.55
441.725	3.55
442.08	3.54
442.435	3.54
442.79	3.55
443.145	3.52
443.5	3.5
443.855	3.49
444.21	3.48
444.565	3.5
444.92	3.51
445.275	3.51
445.629	3.49
445.984	3.49
446.339	3.49
446.693	3.48
447.048	3.48
447.403	3.48
447.757	3.49
448.112	3.47
448.466	3.46
448.82	3.46
449.175	3.46
449.529	3.46
449.883	3.46
450.238	3.46
450.592	3.46
450.946	3.45
451.3	3.46
451.654	3.46
452.008	3.47
452.362	3.44
452.716	3.44
453.07	3.47
453.424	3.47
453.778	3.46
454.132	3.45
454.486	3.45
454.839	3.46
455.193	3.43
455.547	3.44
455.9	3.44
456.254	3.47
456.607	3.48
456.961	3.46
457.314	3.48
457.668	3.48
458.021	3.48
458.375	3.5
458.728	3.48
459.081	3.47
459.434	3.45
459.787	3.46
460.141	3.47
460.494	3.44
460.847	3.44
461.2	3.44
461.553	3.45
461.906	3.45
462.259	3.44
462.611	3.47
462.964	3.48
463.317	3.47
463.67	3.45
464.022	3.43
464.375	3.45
464.728	3.43
465.08	3.44
465.433	3.44
465.785	3.43
466.138	3.45
466.49	3.46
466.843	3.46
467.195	3.44
467.547	3.44
467.899	3.46
468.252	3.47
468.604	3.48
468.956	3.48
469.308	3.48
469.66	3.47
470.012	3.45
470.364	3.46
470.716	3.46
471.068	3.46
471.42	3.46
471.772	3.47
472.123	3.49
472.475	3.47
472.827	3.47
473.178	3.49
473.53	3.47
473.882	3.47
474.233	3.49
474.585	3.49
474.936	3.5
475.288	3.51
475.639	3.51
475.99	3.51
476.342	3.51
476.693	3.51
477.044	3.55
477.395	3.56
477.746	3.55
478.097	3.54
478.448	3.56
478.8	3.56
479.15	3.57
479.501	3.57
479.852	3.59
480.203	3.61
480.554	3.61
480.905	3.63
481.255	3.64
481.606	3.65
481.957	3.65
482.307	3.66
482.658	3.66
483.009	3.66
483.359	3.67
483.709	3.68
484.06	3.67
484.41	3.66
484.761	3.66
485.111	3.66
485.461	3.67
485.811	3.66
486.162	3.66
486.512	3.66
486.862	3.67
487.212	3.66
487.562	3.65
487.912	3.64
488.262	3.64
488.612	3.64
488.961	3.63
489.311	3.63
489.661	3.62
490.011	3.62
490.36	3.62
490.71	3.61
491.06	3.6
491.409	3.6
491.759	3.61
492.108	3.6
492.458	3.6
492.807	3.6
493.157	3.6
493.506	3.61
493.855	3.6
494.204	3.59
494.554	3.58
494.903	3.59
495.252	3.6
495.601	3.62
495.95	3.61
496.299	3.59
496.648	3.59
496.997	3.59
497.346	3.58
497.695	3.59
498.043	3.6
498.392	3.58
498.741	3.57
499.09	3.57
499.438	3.58
499.787	3.58
500.135	3.58
500.484	3.59
500.832	3.6
501.181	3.6
501.529	3.62
501.878	3.62
502.226	3.62
502.574	3.62
502.923	3.61
503.271	3.61
503.619	3.63
503.967	3.64
504.315	3.63
504.663	3.63
505.011	3.63
505.359	3.63
505.707	3.67
506.055	3.69
506.403	3.68
506.751	3.69
507.098	3.67
507.446	3.69
507.794	3.68
508.141	3.69
508.489	3.69
508.837	3.68
509.184	3.68
509.531	3.69
509.879	3.69
510.226	3.7
510.574	3.69
510.921	3.68
511.268	3.68
511.616	3.7
511.963	3.71
512.31	3.72
512.657	3.75
513.004	3.73
513.351	3.75
513.698	3.75
514.045	3.74
514.392	3.75
514.739	3.76
515.086	3.76
515.432	3.76
515.779	3.77
516.126	3.8
516.473	3.82
516.819	3.82
517.166	3.85
517.512	3.84
517.859	3.87
518.205	3.86
518.552	3.87
518.898	3.86
519.245	3.87
519.591	3.86
519.937	3.82
520.283	3.84
520.629	3.83
520.976	3.83
521.322	3.85
521.668	3.84
522.014	3.85
522.36	3.86
522.706	3.86
523.052	3.88
523.398	3.89
523.743	3.89
524.089	3.9
524.435	3.9
524.781	3.92
525.126	3.93
525.472	3.95
525.817	3.95
526.163	3.96
526.509	3.97
526.854	4
527.199	4.01
527.545	4.02
527.89	4.02
528.235	4.04
528.581	4.05
528.926	4.05
529.271	4.06
529.616	4.06
529.961	4.08
530.306	4.07
530.651	4.06
530.996	4.06
531.341	4.04
531.686	4.04
532.031	4.04
532.376	4.04
532.721	4.04
533.065	4.04
533.41	4.05
533.755	4.04
534.099	4.03
534.444	4.03
534.788	4.03
535.133	4.03
535.477	4.03
535.822	4.03
536.166	4.03
536.51	4.01
536.855	4
537.199	3.98
537.543	3.99
537.887	3.99
538.231	3.99
538.576	4.01
538.92	4.01
539.264	4.02
539.608	4.01
539.951	4
540.295	4.01
540.639	4
540.983	4.01
541.327	4.02
541.671	4.02
542.014	4.03
542.358	4
542.701	4
543.045	4
543.389	4.01
543.732	4.02
544.075	4.02
544.419	4.03
544.762	4.01
545.105	4.02
545.449	4.01
545.792	4.02
546.135	4
546.478	3.99
546.821	3.98
547.165	3.99
547.508	3.99
547.851	4
548.194	3.98
548.536	3.96
548.879	3.97
549.222	3.97
549.565	4.01
549.908	4
550.25	4.03
550.593	4.03
550.936	4.03
551.278	4.04
551.621	4.05
551.963	4.07
552.306	4.07
552.648	4.08
552.991	4.09
553.333	4.1
553.675	4.1
554.017	4.12
554.36	4.12
554.702	4.12
555.044	4.12
555.386	4.13
555.728	4.13
556.07	4.13
556.412	4.12
556.754	4.1
557.096	4.11
557.438	4.08
557.78	4.08
558.121	4.05
558.463	4.05
558.805	4.04
559.147	4.05
559.488	4.04
559.83	4.06
560.171	4.05
560.513	4.05
560.854	4.04
561.196	4.06
561.537	4.06
561.878	4.07
562.22	4.08
562.561	4.06
562.902	4.07
563.243	4.06
563.584	4.08
563.925	4.09
564.266	4.06
564.607	4.08
564.948	4.06
565.289	4.07
565.63	4.11
565.971	4.12
566.312	4.11
566.653	4.08
566.993	4.09
567.334	4.07
567.675	4.07
568.015	4.08
568.356	4.06
568.696	4.07
569.037	4.04
569.377	4.04
569.718	4.05
570.058	4.04
570.398	4.04
570.739	4.04
571.079	4.05
571.419	4.06
571.759	4.04
572.099	4.06
572.439	4.07
572.779	4.02
573.119	4.03
573.459	4.03
573.799	4.06
574.139	4.05
574.479	4.09
574.819	4.09
575.158	4.07
575.498	4.05
575.838	4.05
576.177	4.05
576.517	4.03
576.856	4.04
577.196	4.03
577.535	4
577.875	4
578.214	4
578.553	3.99
578.893	3.99
579.232	3.96
579.571	3.96
579.91	3.99
580.25	3.97
580.589	3.94
580.928	3.92
581.267	3.93
581.606	3.9
581.945	3.91
582.283	3.91
582.622	3.93
582.961	3.97
583.3	3.98
583.639	4
583.977	4.01
584.316	3.99
584.654	4
584.993	3.99
585.332	3.98
585.67	4.01
586.008	4.02
586.347	3.98
586.685	3.97
587.024	3.98
587.362	3.99
587.7	4.02
588.038	4.02
588.376	4.03
588.715	4.04
589.053	4.06
589.391	4.09
589.729	4.1
590.067	4.07
590.404	4.08
590.742	4.07
591.08	4.05
591.418	4.1
591.756	4.11
592.093	4.12
592.431	4.11
592.769	4.08
593.106	4.09
593.444	4.14
593.781	4.11
594.119	4.11
594.456	4.1
594.793	4.07
595.131	4.06
595.468	4.07
595.805	4.04
596.143	4.02
596.48	3.99
596.817	3.97
597.154	3.98
597.491	3.99
597.828	3.99
598.165	4
598.502	3.99
598.839	4
599.176	4
599.512	4.01
599.849	4.02
600.186	4.03
600.523	4.08
600.859	4.11
601.196	4.13
601.532	4.09
601.869	4.1
602.205	4.11
602.542	4.12
602.878	4.11
603.215	4.1
603.551	4.13
603.887	4.17
604.223	4.14
604.56	4.13
604.896	4.12
605.232	4.11
605.568	4.11
605.904	4.1
606.24	4.1
606.576	4.14
606.912	4.12
607.248	4.11
607.583	4.09
607.919	4.08
608.255	4.02
608.591	4.08
608.926	4.07
609.262	4.09
609.597	4.13
609.933	4.16
610.268	4.18
610.604	4.15
610.939	4.13
611.275	4.15
611.61	4.16
611.945	4.21
612.281	4.23
612.616	4.21
612.951	4.21
613.286	4.25
613.621	4.22
613.956	4.25
614.291	4.27
614.626	4.27
614.961	4.27
615.296	4.33
615.631	4.35
615.966	4.36
616.3	4.34
616.635	4.33
616.97	4.28
617.304	4.3
617.639	4.31
617.973	4.3
618.308	4.3
618.642	4.33
618.977	4.33
619.311	4.3
619.646	4.36
619.98	4.34
620.314	4.24
620.648	4.25
620.983	4.23
621.317	4.22
621.651	4.25
621.985	4.27
622.319	4.23
622.653	4.21
622.987	4.21
623.321	4.26
623.655	4.21
623.988	4.27
624.322	4.26
624.656	4.27
624.99	4.3
625.323	4.33
625.657	4.29
625.99	4.27
626.324	4.29
626.657	4.25
626.991	4.3
627.324	4.34
627.658	4.36
627.991	4.42
628.324	4.43
628.657	4.38
628.991	4.39
629.324	4.43
629.657	4.45
629.99	4.46
630.323	4.43
630.656	4.41
630.989	4.42
631.322	4.41
631.655	4.41
631.987	4.4
632.32	4.37
632.653	4.39
632.986	4.42
633.318	4.38
633.651	4.39
633.984	4.39
634.316	4.41
634.649	4.4
634.981	4.38
635.313	4.35
635.646	4.33
635.978	4.32
636.31	4.32
636.643	4.32
636.975	4.27
637.307	4.28
637.639	4.29
637.971	4.24
638.303	4.27
638.635	4.26
638.967	4.24
639.299	4.23
639.631	4.22
639.963	4.15
640.295	4.2
640.626	4.22
640.958	4.24
641.29	4.25
641.621	4.17
641.953	4.17
642.285	4.18
642.616	4.25
642.948	4.18
643.279	4.16
643.61	4.09
643.942	4.11
644.273	4.1
644.604	4.1
644.936	4.11
645.267	4.08
645.598	4.03
645.929	4.07
646.26	4.11
646.591	4.15
646.922	4.17
647.253	4.17
647.584	4.1
647.915	4.08
648.245	4.03
648.576	4.13
648.907	4.12
649.238	4.12
649.568	4.12
649.899	4.21
650.229	4.23
650.56	4.31
650.89	4.42
651.221	4.44
651.551	4.46
651.882	4.49
652.212	4.5
652.542	4.56
652.872	4.52
653.203	4.4
653.533	4.42
653.863	4.44
654.193	4.44
654.523	4.45
654.853	4.41
655.183	4.44
655.513	4.38
655.843	4.37
656.172	4.37
656.502	4.35
656.832	4.32
657.162	4.28
657.491	4.29
657.821	4.22
658.15	4.23
658.48	4.18
658.809	4.2
659.139	4.2
659.468	4.18
659.798	4.14
660.127	4.2
660.456	4.17
660.785	4.1
661.115	4.08
661.444	4.08
661.773	4.13
662.102	4.1
662.431	4.1
662.76	4.19
663.089	4.19
663.418	4.21
663.747	4.18
664.076	4.2
664.404	4.12
664.733	4.15
665.062	4.13
665.39	4.19
665.719	4.18
666.048	4.18
666.376	4.12
666.705	4.13
667.033	4.17
667.362	4.28
667.69	4.37
668.018	4.35
668.347	4.44
668.675	4.42
669.003	4.43
669.331	4.44
669.659	4.34
669.987	4.26
670.315	4.26
670.643	4.27
670.971	4.26
671.299	4.34
671.627	4.32
671.955	4.33
672.283	4.34
672.61	4.32
672.938	4.32
673.266	4.4
673.593	4.44
673.921	4.4
674.249	4.29
674.576	4.25
674.904	4.28
675.231	4.15
675.558	4.16
