Data from BA56825_Reflection_00002.txt Node
Date: Mon Nov 18 15:37:15 EST 2019
User: vgr7
Spectrometer: USB2G7710
Scans to average: 3
Trigger mode: 4
Integration Time (sec): 2.000000E-2
Electric dark correction enabled: true
Boxcar width: 10
XAxis mode: Wavelengths
Number of Pixels in Spectrum: 2048
>>>>>Begin Spectral Data<<<<<
177.721	186.65
178.105	78.55
178.488	97.22
178.871	126.86
179.254	89.41
179.636	-3.31
180.019	6.61
180.402	40
180.785	39.08
181.168	-10.69
181.55	2511.76
181.933	71.43
182.316	37.47
182.698	38.18
183.081	48.61
183.463	19.38
183.846	225.51
184.228	-269.77
184.611	-231.51
184.993	-99.03
185.376	-56.96
185.758	-66.23
186.14	-124.39
186.522	-123.13
186.904	-94.73
187.287	-148.55
187.669	-26.54
188.051	-22.83
188.433	5.45
188.815	0.03
189.197	-7.39
189.579	-14.67
189.961	-24.21
190.342	-31.14
190.724	-20.73
191.106	-0.26
191.488	-0.57
191.869	15.66
192.251	12.73
192.633	1.84
193.014	13.72
193.396	4.78
193.777	-14.45
194.159	-6.49
194.54	-1.83
194.922	1.74
195.303	-6.25
195.684	-10.39
196.065	-1.54
196.447	-12.28
196.828	-1.62
197.209	11.6
197.59	12.08
197.971	17.33
198.352	25.45
198.733	23.79
199.114	10.61
199.495	9.09
199.876	1.24
200.257	7.9
200.638	21.15
201.018	13.56
201.399	19.86
201.78	33.84
202.16	17.41
202.541	7.8
202.922	0.14
203.302	4.09
203.683	-1.54
204.063	-8.47
204.444	-6.83
204.824	-20.63
205.204	-24.93
205.585	-28.42
205.965	-29.41
206.345	-42.53
206.725	-55.96
207.106	-59.63
207.486	-66.07
207.866	-78.12
208.246	-116.33
208.626	-122.18
209.006	-62.32
209.386	-71.47
209.766	-95.37
210.145	-68.87
210.525	-61.68
210.905	-52.95
211.285	-48.71
211.664	-42.92
212.044	-43.11
212.424	-41.5
212.803	-32.25
213.183	-36.82
213.562	-30.22
213.942	-15.14
214.321	-14.19
214.701	-32.3
215.08	-41.54
215.459	-40.12
215.838	-37.66
216.218	-35.42
216.597	-52.74
216.976	-67.54
217.355	-55.84
217.734	-54.59
218.113	-45.94
218.492	-36.49
218.871	-28.94
219.25	-22.12
219.629	-25.97
220.008	-20.99
220.387	-35.55
220.766	-33.49
221.144	-60.1
221.523	-65.71
221.902	-71.64
222.28	-84.94
222.659	-51.36
223.037	-34.97
223.416	-36.26
223.794	-20.69
224.173	-17.98
224.551	-4.25
224.929	-6.05
225.308	4.28
225.686	6.01
226.064	3.69
226.442	4.9
226.821	4.2
227.199	1.56
227.577	0.52
227.955	-0.33
228.333	1.45
228.711	0.86
229.089	7.96
229.467	4.01
229.845	3.75
230.222	2.23
230.6	0.96
230.978	-0.31
231.356	0.49
231.733	0.15
232.111	2.03
232.488	3.03
232.866	3.96
233.243	3.11
233.621	2.52
233.998	4.53
234.376	3.83
234.753	4.3
235.13	5.4
235.508	6.26
235.885	6.05
236.262	4.97
236.639	5
237.016	4.6
237.393	6.4
237.77	5.76
238.147	6.99
238.524	6.91
238.901	7.79
239.278	8.02
239.655	8.08
240.032	7.01
240.409	6.12
240.785	5.64
241.162	5.88
241.539	6.18
241.915	5.98
242.292	5.88
242.668	5.64
243.045	5.8
243.421	5.82
243.798	5.61
244.174	5.95
244.551	6.15
244.927	5.81
245.303	5.87
245.679	6.05
246.056	5.98
246.432	5.91
246.808	5.96
247.184	5.76
247.56	5.65
247.936	5.91
248.312	5.77
248.688	5.96
249.064	5.89
249.44	5.87
249.815	5.84
250.191	6.11
250.567	6.28
250.943	6
251.318	5.88
251.694	5.97
252.069	5.92
252.445	5.72
252.82	5.83
253.196	5.7
253.571	5.63
253.947	5.9
254.322	6.11
254.697	5.82
255.073	5.92
255.448	5.47
255.823	5.18
256.198	5.65
256.573	5.54
256.948	5.66
257.323	5.49
257.698	5.52
258.073	5.3
258.448	5.15
258.823	5.16
259.198	5.16
259.573	5.15
259.948	5.13
260.322	5.28
260.697	5.33
261.072	5.19
261.446	5.28
261.821	5.18
262.195	5.16
262.57	5.14
262.944	5.08
263.319	5.32
263.693	5.35
264.067	5.23
264.442	5.19
264.816	4.93
265.19	5.07
265.564	5.07
265.938	5.01
266.313	4.97
266.687	5.09
267.061	5.15
267.435	5.31
267.809	5.18
268.183	5.01
268.556	4.95
268.93	5.06
269.304	4.95
269.678	5
270.051	5
270.425	5.1
270.799	5.02
271.172	5.07
271.546	5.09
271.919	5.04
272.293	5.1
272.666	5.23
273.04	5.01
273.413	5.01
273.787	5.03
274.16	5.05
274.533	5.15
274.906	5.01
275.279	4.9
275.653	4.95
276.026	4.98
276.399	5.01
276.772	5.09
277.145	5.02
277.518	5.09
277.891	5.09
278.263	4.94
278.636	4.8
279.009	4.5
279.382	4.56
279.755	4.5
280.127	4.58
280.5	4.66
280.872	4.9
281.245	4.76
281.617	5.02
281.99	5.22
282.362	5.17
282.735	5.08
283.107	5
283.479	5.1
283.852	5.08
284.224	5.11
284.596	4.99
284.968	5.09
285.34	5.03
285.713	4.99
286.085	5.09
286.457	5.29
286.829	5.34
287.201	5.33
287.572	5.35
287.944	5.27
288.316	5.2
288.688	5.21
289.06	5.29
289.431	5.23
289.803	5.12
290.175	5.19
290.546	5.58
290.918	5.76
291.289	5.7
291.661	5.68
292.032	5.69
292.403	5.81
292.775	5.84
293.146	5.79
293.517	5.85
293.889	5.95
294.26	5.93
294.631	6.08
295.002	6.09
295.373	6.1
295.744	6.06
296.115	6.07
296.486	6.02
296.857	6
297.228	5.98
297.599	5.94
297.97	5.9
298.34	5.74
298.711	5.76
299.082	5.75
299.452	5.82
299.823	5.98
300.194	5.99
300.564	5.98
300.935	5.97
301.305	5.91
301.676	5.95
302.046	6
302.416	6.09
302.787	6.16
303.157	6.26
303.527	6.35
303.897	6.39
304.267	6.59
304.637	6.59
305.008	6.61
305.378	6.72
305.748	6.9
306.117	6.83
306.487	6.71
306.857	6.79
307.227	6.81
307.597	6.75
307.967	6.81
308.336	6.91
308.706	6.98
309.076	7.09
309.445	7.06
309.815	7.03
310.184	6.94
310.554	6.84
310.923	6.77
311.293	6.78
311.662	6.7
312.031	6.61
312.401	6.64
312.77	6.69
313.139	6.72
313.508	6.59
313.877	6.74
314.246	6.85
314.616	6.91
314.985	6.92
315.353	6.87
315.722	6.88
316.091	6.75
316.46	6.69
316.829	6.67
317.198	6.55
317.567	6.41
317.935	6.49
318.304	6.61
318.672	6.66
319.041	6.7
319.41	6.81
319.778	6.76
320.147	6.75
320.515	6.65
320.883	6.58
321.252	6.67
321.62	6.6
321.988	6.7
322.357	6.55
322.725	6.52
323.093	6.61
323.461	6.62
323.829	6.64
324.197	6.72
324.565	6.87
324.933	6.86
325.301	7.08
325.669	7.18
326.037	7
326.405	7.09
326.772	7.12
327.14	7.23
327.508	7.26
327.875	7.35
328.243	7.36
328.61	7.4
328.978	7.31
329.346	7.46
329.713	7.19
330.08	7.22
330.448	7.25
330.815	7.1
331.182	7.09
331.55	7.16
331.917	7.33
332.284	7.21
332.651	7.25
333.018	7.16
333.385	7.13
333.752	7.25
334.119	7.08
334.486	7.15
334.853	7.21
335.22	7.21
335.587	7.14
335.954	7.2
336.32	7.25
336.687	7.28
337.054	7.21
337.42	7.31
337.787	7.49
338.153	7.48
338.52	7.61
338.886	7.52
339.253	7.47
339.619	7.27
339.986	7.21
340.352	7.27
340.718	7.21
341.084	7.1
341.451	7.18
341.817	7.36
342.183	7.33
342.549	7.21
342.915	7.23
343.281	7.28
343.647	7.3
344.013	7.36
344.379	7.31
344.745	7.34
345.11	7.36
345.476	7.18
345.842	7.22
346.208	7.14
346.573	7.18
346.939	7.28
347.304	7.38
347.67	7.32
348.035	7.28
348.401	7.37
348.766	7.42
349.132	7.44
349.497	7.27
349.862	7.26
350.228	7.3
350.593	7.25
350.958	7.21
351.323	7.15
351.688	7.06
352.053	7.09
352.418	7.12
352.783	7.1
353.148	7.18
353.513	7.23
353.878	7.23
354.243	7.32
354.608	7.28
354.972	7.26
355.337	7.39
355.702	7.49
356.066	7.53
356.431	7.51
356.795	7.45
357.16	7.51
357.524	7.44
357.889	7.46
358.253	7.48
358.618	7.48
358.982	7.47
359.346	7.47
359.71	7.44
360.075	7.43
360.439	7.46
360.803	7.41
361.167	7.34
361.531	7.37
361.895	7.3
362.259	7.26
362.623	7.25
362.987	7.18
363.351	7.15
363.714	7.17
364.078	7.22
364.442	7.24
364.806	7.24
365.169	7.22
365.533	7.14
365.896	7.08
366.26	7.09
366.623	7.03
366.987	7
367.35	7.08
367.714	7.03
368.077	7
368.44	7.05
368.803	7.04
369.167	7.01
369.53	7.02
369.893	7.11
370.256	7.1
370.619	7.12
370.982	7.14
371.345	7.13
371.708	7.08
372.071	7.06
372.434	7.1
372.797	7.1
373.159	7.11
373.522	7.21
373.885	7.24
374.247	7.32
374.61	7.38
374.973	7.37
375.335	7.38
375.698	7.41
376.06	7.46
376.423	7.48
376.785	7.48
377.147	7.5
377.51	7.45
377.872	7.46
378.234	7.5
378.596	7.43
378.958	7.35
379.321	7.37
379.683	7.4
380.045	7.35
380.407	7.43
380.769	7.44
381.13	7.41
381.492	7.4
381.854	7.39
382.216	7.32
382.578	7.3
382.939	7.34
383.301	7.29
383.663	7.26
384.024	7.23
384.386	7.23
384.747	7.23
385.109	7.19
385.47	7.16
385.832	7.15
386.193	7.19
386.554	7.21
386.916	7.21
387.277	7.2
387.638	7.23
387.999	7.21
388.36	7.23
388.721	7.26
389.082	7.21
389.443	7.2
389.804	7.23
390.165	7.24
390.526	7.22
390.887	7.26
391.248	7.26
391.609	7.34
391.969	7.34
392.33	7.33
392.691	7.36
393.051	7.38
393.412	7.37
393.772	7.36
394.133	7.4
394.493	7.38
394.854	7.4
395.214	7.41
395.574	7.42
395.935	7.44
396.295	7.45
396.655	7.49
397.015	7.51
397.376	7.55
397.736	7.58
398.096	7.57
398.456	7.59
398.816	7.59
399.176	7.53
399.535	7.52
399.895	7.54
400.255	7.54
400.615	7.55
400.975	7.56
401.334	7.55
401.694	7.53
402.054	7.54
402.413	7.55
402.773	7.51
403.132	7.52
403.492	7.49
403.851	7.45
404.211	7.45
404.57	7.44
404.929	7.45
405.288	7.41
405.648	7.39
406.007	7.38
406.366	7.38
406.725	7.42
407.084	7.43
407.443	7.44
407.802	7.45
408.161	7.46
408.52	7.43
408.879	7.44
409.238	7.48
409.596	7.46
409.955	7.44
410.314	7.48
410.673	7.42
411.031	7.45
411.39	7.49
411.748	7.51
412.107	7.53
412.465	7.5
412.824	7.51
413.182	7.54
413.54	7.56
413.899	7.57
414.257	7.58
414.615	7.55
414.974	7.58
415.332	7.57
415.69	7.56
416.048	7.56
416.406	7.58
416.764	7.58
417.122	7.57
417.48	7.56
417.838	7.56
418.195	7.57
418.553	7.56
418.911	7.57
419.269	7.58
419.626	7.56
419.984	7.57
420.342	7.58
420.699	7.59
421.057	7.58
421.414	7.58
421.772	7.58
422.129	7.6
422.486	7.58
422.844	7.6
423.201	7.61
423.558	7.61
423.915	7.6
424.273	7.57
424.63	7.59
424.987	7.59
425.344	7.58
425.701	7.58
426.058	7.58
426.415	7.56
426.772	7.54
427.128	7.54
427.485	7.54
427.842	7.54
428.199	7.52
428.555	7.53
428.912	7.52
429.269	7.51
429.625	7.5
429.982	7.51
430.338	7.49
430.695	7.47
431.051	7.48
431.407	7.47
431.764	7.51
432.12	7.48
432.476	7.51
432.832	7.52
433.189	7.54
433.545	7.54
433.901	7.53
434.257	7.52
434.613	7.53
434.969	7.52
435.325	7.52
435.681	7.52
436.036	7.51
436.392	7.48
436.748	7.48
437.104	7.48
437.459	7.48
437.815	7.5
438.171	7.52
438.526	7.52
438.882	7.53
439.237	7.53
439.593	7.55
439.948	7.54
440.304	7.53
440.659	7.53
441.014	7.55
441.369	7.56
441.725	7.58
442.08	7.6
442.435	7.62
442.79	7.61
443.145	7.61
443.5	7.59
443.855	7.59
444.21	7.6
444.565	7.59
444.92	7.59
445.275	7.56
445.629	7.55
445.984	7.55
446.339	7.53
446.693	7.52
447.048	7.5
447.403	7.49
447.757	7.48
448.112	7.49
448.466	7.47
448.82	7.46
449.175	7.48
449.529	7.44
449.883	7.41
450.238	7.41
450.592	7.41
450.946	7.42
451.3	7.43
451.654	7.43
452.008	7.43
452.362	7.43
452.716	7.43
453.07	7.43
453.424	7.43
453.778	7.43
454.132	7.4
454.486	7.42
454.839	7.43
455.193	7.44
455.547	7.46
455.9	7.46
456.254	7.46
456.607	7.46
456.961	7.48
457.314	7.49
457.668	7.5
458.021	7.47
458.375	7.48
458.728	7.48
459.081	7.48
459.434	7.5
459.787	7.51
460.141	7.53
460.494	7.53
460.847	7.53
461.2	7.52
461.553	7.55
461.906	7.53
462.259	7.53
462.611	7.53
462.964	7.5
463.317	7.5
463.67	7.51
464.022	7.49
464.375	7.48
464.728	7.5
465.08	7.49
465.433	7.51
465.785	7.51
466.138	7.53
466.49	7.53
466.843	7.52
467.195	7.51
467.547	7.5
467.899	7.51
468.252	7.51
468.604	7.54
468.956	7.52
469.308	7.53
469.66	7.53
470.012	7.56
470.364	7.56
470.716	7.55
471.068	7.56
471.42	7.57
471.772	7.59
472.123	7.57
472.475	7.59
472.827	7.6
473.178	7.58
473.53	7.57
473.882	7.57
474.233	7.58
474.585	7.57
474.936	7.56
475.288	7.58
475.639	7.57
475.99	7.57
476.342	7.6
476.693	7.6
477.044	7.61
477.395	7.59
477.746	7.58
478.097	7.58
478.448	7.57
478.8	7.56
479.15	7.58
479.501	7.58
479.852	7.58
480.203	7.6
480.554	7.61
480.905	7.62
481.255	7.62
481.606	7.64
481.957	7.67
482.307	7.7
482.658	7.7
483.009	7.7
483.359	7.7
483.709	7.71
484.06	7.71
484.41	7.71
484.761	7.72
485.111	7.72
485.461	7.74
485.811	7.74
486.162	7.75
486.512	7.75
486.862	7.75
487.212	7.75
487.562	7.75
487.912	7.76
488.262	7.77
488.612	7.77
488.961	7.75
489.311	7.73
489.661	7.72
490.011	7.72
490.36	7.73
490.71	7.75
491.06	7.75
491.409	7.75
491.759	7.74
492.108	7.75
492.458	7.76
492.807	7.74
493.157	7.74
493.506	7.74
493.855	7.75
494.204	7.75
494.554	7.75
494.903	7.74
495.252	7.73
495.601	7.74
495.95	7.76
496.299	7.76
496.648	7.78
496.997	7.79
497.346	7.79
497.695	7.8
498.043	7.8
498.392	7.78
498.741	7.79
499.09	7.78
499.438	7.78
499.787	7.79
500.135	7.81
500.484	7.82
500.832	7.82
501.181	7.81
501.529	7.8
501.878	7.81
502.226	7.83
502.574	7.84
502.923	7.83
503.271	7.82
503.619	7.83
503.967	7.83
504.315	7.81
504.663	7.81
505.011	7.79
505.359	7.76
505.707	7.77
506.055	7.77
506.403	7.81
506.751	7.8
507.098	7.82
507.446	7.84
507.794	7.83
508.141	7.84
508.489	7.83
508.837	7.87
509.184	7.88
509.531	7.9
509.879	7.91
510.226	7.92
510.574	7.94
510.921	7.95
511.268	7.94
511.616	7.95
511.963	7.95
512.31	7.96
512.657	8
513.004	7.99
513.351	7.99
513.698	7.97
514.045	7.99
514.392	7.98
514.739	7.97
515.086	7.98
515.432	7.99
515.779	8.02
516.126	8.04
516.473	8.04
516.819	8.05
517.166	8.03
517.512	8.03
517.859	8.05
518.205	8.05
518.552	8.07
518.898	8.09
519.245	8.12
519.591	8.11
519.937	8.08
520.283	8.11
520.629	8.1
520.976	8.12
521.322	8.11
521.668	8.13
522.014	8.13
522.36	8.13
522.706	8.12
523.052	8.12
523.398	8.12
523.743	8.13
524.089	8.13
524.435	8.12
524.781	8.14
525.126	8.14
525.472	8.15
525.817	8.15
526.163	8.15
526.509	8.15
526.854	8.15
527.199	8.17
527.545	8.17
527.89	8.2
528.235	8.19
528.581	8.2
528.926	8.2
529.271	8.21
529.616	8.22
529.961	8.23
530.306	8.25
530.651	8.23
530.996	8.23
531.341	8.23
531.686	8.26
532.031	8.25
532.376	8.26
532.721	8.27
533.065	8.27
533.41	8.29
533.755	8.3
534.099	8.33
534.444	8.33
534.788	8.35
535.133	8.35
535.477	8.35
535.822	8.35
536.166	8.36
536.51	8.34
536.855	8.36
537.199	8.35
537.543	8.32
537.887	8.33
538.231	8.32
538.576	8.32
538.92	8.29
539.264	8.31
539.608	8.32
539.951	8.33
540.295	8.33
540.639	8.33
540.983	8.32
541.327	8.32
541.671	8.33
542.014	8.31
542.358	8.31
542.701	8.32
543.045	8.34
543.389	8.33
543.732	8.34
544.075	8.35
544.419	8.35
544.762	8.36
545.105	8.37
545.449	8.39
545.792	8.42
546.135	8.43
546.478	8.41
546.821	8.41
547.165	8.4
547.508	8.41
547.851	8.38
548.194	8.35
548.536	8.36
548.879	8.36
549.222	8.36
549.565	8.36
549.908	8.36
550.25	8.35
550.593	8.35
550.936	8.34
551.278	8.34
551.621	8.35
551.963	8.37
552.306	8.35
552.648	8.35
552.991	8.35
553.333	8.36
553.675	8.36
554.017	8.34
554.36	8.32
554.702	8.34
555.044	8.35
555.386	8.39
555.728	8.41
556.07	8.43
556.412	8.41
556.754	8.41
557.096	8.44
557.438	8.41
557.78	8.42
558.121	8.45
558.463	8.44
558.805	8.47
559.147	8.46
559.488	8.45
559.83	8.46
560.171	8.46
560.513	8.47
560.854	8.5
561.196	8.51
561.537	8.54
561.878	8.51
562.22	8.51
562.561	8.48
562.902	8.46
563.243	8.44
563.584	8.48
563.925	8.5
564.266	8.46
564.607	8.48
564.948	8.46
565.289	8.46
565.63	8.46
565.971	8.45
566.312	8.43
566.653	8.43
566.993	8.43
567.334	8.39
567.675	8.38
568.015	8.38
568.356	8.37
568.696	8.37
569.037	8.39
569.377	8.41
569.718	8.44
570.058	8.43
570.398	8.43
570.739	8.42
571.079	8.42
571.419	8.47
571.759	8.49
572.099	8.51
572.439	8.52
572.779	8.52
573.119	8.53
573.459	8.55
573.799	8.6
574.139	8.6
574.479	8.62
574.819	8.62
575.158	8.6
575.498	8.63
575.838	8.64
576.177	8.66
576.517	8.64
576.856	8.66
577.196	8.65
577.535	8.66
577.875	8.68
578.214	8.68
578.553	8.69
578.893	8.67
579.232	8.67
579.571	8.65
579.91	8.64
580.25	8.66
580.589	8.66
580.928	8.67
581.267	8.69
581.606	8.69
581.945	8.7
582.283	8.7
582.622	8.66
582.961	8.66
583.3	8.62
583.639	8.68
583.977	8.61
584.316	8.62
584.654	8.66
584.993	8.65
585.332	8.64
585.67	8.61
586.008	8.6
586.347	8.59
586.685	8.61
587.024	8.63
587.362	8.65
587.7	8.66
588.038	8.62
588.376	8.61
588.715	8.57
589.053	8.63
589.391	8.64
589.729	8.68
590.067	8.68
590.404	8.71
590.742	8.68
591.08	8.73
591.418	8.77
591.756	8.78
592.093	8.78
592.431	8.77
592.769	8.79
593.106	8.83
593.444	8.83
593.781	8.86
594.119	8.87
594.456	8.86
594.793	8.85
595.131	8.89
595.468	8.9
595.805	8.91
596.143	8.86
596.48	8.87
596.817	8.86
597.154	8.89
597.491	8.88
597.828	8.87
598.165	8.86
598.502	8.84
598.839	8.8
599.176	8.82
599.512	8.81
599.849	8.79
600.186	8.78
600.523	8.82
600.859	8.82
601.196	8.79
601.532	8.79
601.869	8.8
602.205	8.78
602.542	8.81
602.878	8.85
603.215	8.88
603.551	8.88
603.887	8.88
604.223	8.85
604.56	8.88
604.896	8.86
605.232	8.89
605.568	8.88
605.904	8.88
606.24	8.88
606.576	8.87
606.912	8.92
607.248	8.93
607.583	8.93
607.919	8.9
608.255	8.91
608.591	8.95
608.926	8.93
609.262	8.96
609.597	8.95
609.933	8.94
610.268	8.93
610.604	8.91
610.939	8.91
611.275	8.91
611.61	8.91
611.945	8.92
612.281	8.9
612.616	8.93
612.951	8.93
613.286	8.93
613.621	8.96
613.956	8.91
614.291	8.89
614.626	8.87
614.961	8.88
615.296	8.89
615.631	8.87
615.966	8.85
616.3	8.78
616.635	8.77
616.97	8.77
617.304	8.79
617.639	8.79
617.973	8.77
618.308	8.77
618.642	8.74
618.977	8.77
619.311	8.76
619.646	8.71
619.98	8.76
620.314	8.8
620.648	8.81
620.983	8.83
621.317	8.84
621.651	8.88
621.985	8.89
622.319	8.93
622.653	8.93
622.987	8.96
623.321	9.05
623.655	9.06
623.988	9.12
624.322	9.09
624.656	9.15
624.99	9.21
625.323	9.27
625.657	9.32
625.99	9.29
626.324	9.3
626.657	9.35
626.991	9.33
627.324	9.29
627.658	9.31
627.991	9.32
628.324	9.28
628.657	9.25
628.991	9.24
629.324	9.2
629.657	9.18
629.99	9.18
630.323	9.14
630.656	9.15
630.989	9.12
631.322	9.17
631.655	9.13
631.987	9.14
632.32	9.08
632.653	9.08
632.986	9.14
633.318	9.13
633.651	9.14
633.984	9.07
634.316	9.04
634.649	9.01
634.981	9.01
635.313	9.03
635.646	9.05
635.978	9.05
636.31	9.11
636.643	9.12
636.975	9.12
637.307	9.15
637.639	9.13
637.971	9.12
638.303	9.08
638.635	9.04
638.967	9.04
639.299	9.05
639.631	8.99
639.963	8.95
640.295	8.96
640.626	8.96
640.958	9.09
641.29	9.2
641.621	9.19
641.953	9.22
642.285	9.24
642.616	9.32
642.948	9.32
643.279	9.28
643.61	9.32
643.942	9.29
644.273	9.27
644.604	9.29
644.936	9.26
645.267	9.3
645.598	9.31
645.929	9.24
646.26	9.26
646.591	9.33
646.922	9.3
647.253	9.33
647.584	9.3
647.915	9.23
648.245	9.22
648.576	9.19
648.907	9.16
649.238	9.2
649.568	9.14
649.899	9.1
650.229	9.15
650.56	9.16
650.89	9.2
651.221	9.21
651.551	9.25
651.882	9.32
652.212	9.33
652.542	9.33
652.872	9.32
653.203	9.32
653.533	9.25
653.863	9.35
654.193	9.27
654.523	9.29
654.853	9.3
655.183	9.26
655.513	9.34
655.843	9.32
656.172	9.27
656.502	9.24
656.832	9.21
657.162	9.2
657.491	9.21
657.821	9.14
658.15	9.1
658.48	9.06
658.809	9.03
659.139	9.01
659.468	9.05
659.798	9.04
660.127	9.05
660.456	9.12
660.785	9.13
661.115	9.21
661.444	9.25
661.773	9.24
662.102	9.25
662.431	9.25
662.76	9.28
663.089	9.25
663.418	9.3
663.747	9.36
664.076	9.29
664.404	9.22
664.733	9.32
665.062	9.4
665.39	9.44
665.719	9.43
666.048	9.46
666.376	9.48
666.705	9.49
667.033	9.44
667.362	9.47
667.69	9.48
668.018	9.44
668.347	9.33
668.675	9.36
669.003	9.32
669.331	9.37
669.659	9.41
669.987	9.42
670.315	9.39
670.643	9.4
670.971	9.42
671.299	9.47
671.627	9.37
671.955	9.37
672.283	9.38
672.61	9.39
672.938	9.41
673.266	9.41
673.593	9.53
673.921	9.64
674.249	9.62
674.576	9.53
674.904	9.57
675.231	9.68
675.558	9.76
675.886	9.84
676.213	9.74
676.54	9.66
676.867	9.77
677.195	9.79
677.522	9.77
677.849	9.79
678.176	9.76
678.503	9.84
678.83	9.82
