Data from BA56813_Reflection_00009.txt Node
Date: Mon Nov 18 15:50:57 EST 2019
User: vgr7
Spectrometer: USB2G7710
Scans to average: 3
Trigger mode: 4
Integration Time (sec): 2.000000E-2
Electric dark correction enabled: true
Boxcar width: 10
XAxis mode: Wavelengths
Number of Pixels in Spectrum: 2048
>>>>>Begin Spectral Data<<<<<
177.721	154.09
178.105	209.54
178.488	227.22
178.871	138.26
179.254	89.99
179.636	177.87
180.019	331.16
180.402	100
180.785	-56.22
181.168	35.96
181.55	45.11
181.933	89.56
182.316	92.58
182.698	74.43
183.081	86.64
183.463	87.52
183.846	92.95
184.228	54.63
184.611	64.57
184.993	67.66
185.376	39.55
185.758	49.1
186.14	65.31
186.522	56.83
186.904	70.15
187.287	42.52
187.669	23.84
188.051	31.98
188.433	31.24
188.815	61.8
189.197	28.42
189.579	-1.9
189.961	18.51
190.342	-5.1
190.724	-54.46
191.106	21
191.488	-139.52
191.869	24.1
192.251	77.73
192.633	177.33
193.014	902.4
193.396	287.29
193.777	173.3
194.159	626.32
194.54	295.97
194.922	717.45
195.303	62.93
195.684	53.26
196.065	70.51
196.447	106.09
196.828	57.33
197.209	30.65
197.59	-13.51
197.971	-6
198.352	1.93
198.733	-14.13
199.114	9.6
199.495	66.93
199.876	101.21
200.257	73.07
200.638	63.32
201.018	16.19
201.399	-5.12
201.78	12.24
202.16	2.59
202.541	-66.07
202.922	-73.52
203.302	-67.58
203.683	-70.34
204.063	-98.5
204.444	-95.45
204.824	-88.01
205.204	-42.71
205.585	-17.83
205.965	-78.14
206.345	-976.92
206.725	453.25
207.106	188.08
207.486	222.79
207.866	243.18
208.246	255.54
208.626	321.19
209.006	228.08
209.386	195.69
209.766	248.8
210.145	343.29
210.525	-848.91
210.905	-74.73
211.285	-259.18
211.664	32.2
212.044	-2242.86
212.424	-149.44
212.803	67.21
213.183	18.78
213.562	224.65
213.942	356.08
214.321	159.6
214.701	110.3
215.08	82
215.459	98.57
215.838	79.16
216.218	71.27
216.597	72.02
216.976	68.14
217.355	61.42
217.734	71.95
218.113	58.1
218.492	50.33
218.871	35.69
219.25	48.61
219.629	37.69
220.008	43.73
220.387	46.52
220.766	29.13
221.144	32.58
221.523	23.86
221.902	15.42
222.28	9.9
222.659	27.26
223.037	30.8
223.416	28.63
223.794	17.93
224.173	25.91
224.551	22.81
224.929	7.41
225.308	12.77
225.686	5.01
226.064	7.67
226.442	10.29
226.821	13.3
227.199	6.28
227.577	5.41
227.955	1.77
228.333	1.5
228.711	4.55
229.089	7.44
229.467	6.75
229.845	3.34
230.222	5.24
230.6	2.54
230.978	3.67
231.356	5.25
231.733	5.21
232.111	4.12
232.488	4.64
232.866	7.87
233.243	5.92
233.621	6.76
233.998	5.6
234.376	5.53
234.753	6.37
235.13	7.08
235.508	8.34
235.885	9.65
236.262	9.91
236.639	8.99
237.016	7.74
237.393	8.46
237.77	9.79
238.147	9.07
238.524	8.57
238.901	8.75
239.278	7.93
239.655	7.85
240.032	8.04
240.409	7.74
240.785	6.83
241.162	7.11
241.539	7.02
241.915	6.98
242.292	6.62
242.668	6.15
243.045	6.07
243.421	5.86
243.798	5.66
244.174	5.41
244.551	5.36
244.927	5.23
245.303	5.2
245.679	5.03
246.056	4.86
246.432	5.13
246.808	5.07
247.184	4.86
247.56	4.98
247.936	4.65
248.312	4.7
248.688	4.72
249.064	4.84
249.44	4.72
249.815	4.79
250.191	4.86
250.567	4.94
250.943	4.72
251.318	4.74
251.694	4.92
252.069	4.96
252.445	4.96
252.82	4.89
253.196	4.58
253.571	4.61
253.947	4.63
254.322	4.18
254.697	3.92
255.073	3.79
255.448	3.46
255.823	3.84
256.198	3.93
256.573	3.65
256.948	3.77
257.323	3.77
257.698	3.84
258.073	4.02
258.448	3.86
258.823	3.96
259.198	3.91
259.573	3.81
259.948	3.87
260.322	3.92
260.697	3.95
261.072	3.97
261.446	3.85
261.821	3.9
262.195	4.04
262.57	4.12
262.944	4.11
263.319	4.13
263.693	3.9
264.067	3.85
264.442	4.16
264.816	3.99
265.19	3.91
265.564	3.91
265.938	3.66
266.313	3.71
266.687	3.73
267.061	3.86
267.435	3.75
267.809	3.6
268.183	3.54
268.556	3.49
268.93	3.6
269.304	3.79
269.678	3.8
270.051	3.77
270.425	3.69
270.799	3.64
271.172	3.77
271.546	3.78
271.919	3.68
272.293	3.66
272.666	3.62
273.04	3.82
273.413	3.67
273.787	3.8
274.16	3.87
274.533	3.84
274.906	3.68
275.279	3.83
275.653	3.75
276.026	3.76
276.399	3.88
276.772	3.87
277.145	3.78
277.518	3.82
277.891	3.69
278.263	3.57
278.636	3.74
279.009	3.71
279.382	3.8
279.755	3.79
280.127	3.83
280.5	4
280.872	3.89
281.245	3.97
281.617	4
281.99	4.13
282.362	4.05
282.735	4.13
283.107	4.03
283.479	4.14
283.852	4.08
284.224	3.99
284.596	3.99
284.968	3.98
285.34	3.98
285.713	3.94
286.085	4.09
286.457	4.16
286.829	4.22
287.201	4.16
287.572	4.14
287.944	4.1
288.316	3.99
288.688	4.03
289.06	3.92
289.431	3.97
289.803	3.84
290.175	4.03
290.546	4.06
290.918	4.1
291.289	4.11
291.661	4.23
292.032	4.32
292.403	4.36
292.775	4.4
293.146	4.37
293.517	4.43
293.889	4.42
294.26	4.37
294.631	4.34
295.002	4.32
295.373	4.36
295.744	4.32
296.115	4.33
296.486	4.27
296.857	4.38
297.228	4.34
297.599	4.37
297.97	4.36
298.34	4.38
298.711	4.49
299.082	4.5
299.452	4.44
299.823	4.5
300.194	4.5
300.564	4.41
300.935	4.47
301.305	4.51
301.676	4.61
302.046	4.67
302.416	4.74
302.787	4.81
303.157	4.85
303.527	4.85
303.897	4.91
304.267	5.06
304.637	5.06
305.008	5.06
305.378	5.1
305.748	5.05
306.117	5.04
306.487	4.97
306.857	5.01
307.227	5.19
307.597	5.09
307.967	5.17
308.336	5.35
308.706	5.35
309.076	5.46
309.445	5.36
309.815	5.36
310.184	5.36
310.554	5.46
310.923	5.43
311.293	5.57
311.662	5.52
312.031	5.45
312.401	5.52
312.77	5.58
313.139	5.73
313.508	5.76
313.877	5.79
314.246	5.9
314.616	5.83
314.985	5.69
315.353	5.78
315.722	5.88
316.091	5.75
316.46	5.73
316.829	5.67
317.198	5.73
317.567	5.77
317.935	5.71
318.304	5.77
318.672	5.99
319.041	5.96
319.41	6.13
319.778	6.09
320.147	6.12
320.515	6.25
320.883	6.23
321.252	6.35
321.62	6.4
321.988	6.39
322.357	6.58
322.725	6.65
323.093	6.73
323.461	6.59
323.829	6.69
324.197	6.72
324.565	6.79
324.933	6.73
325.301	6.82
325.669	7.01
326.037	7.08
326.405	6.87
326.772	7.03
327.14	7.11
327.508	7.24
327.875	7.28
328.243	7.18
328.61	7.11
328.978	7.28
329.346	7.32
329.713	7.3
330.08	7.32
330.448	7.3
330.815	7.21
331.182	7.31
331.55	7.37
331.917	7.51
332.284	7.45
332.651	7.52
333.018	7.61
333.385	7.46
333.752	7.28
334.119	7.49
334.486	7.4
334.853	7.26
335.22	7.29
335.587	7.31
335.954	7.35
336.32	7.45
336.687	7.25
337.054	7.21
337.42	7.24
337.787	7.24
338.153	7.34
338.52	7.39
338.886	7.27
339.253	7.2
339.619	7.17
339.986	7.26
340.352	7.41
340.718	7.32
341.084	7.33
341.451	7.54
341.817	7.56
342.183	7.48
342.549	7.66
342.915	7.71
343.281	7.71
343.647	7.61
344.013	7.62
344.379	7.62
344.745	7.69
345.11	7.63
345.476	7.55
345.842	7.61
346.208	7.72
346.573	7.88
346.939	8
347.304	7.97
347.67	7.97
348.035	7.83
348.401	7.86
348.766	7.92
349.132	7.81
349.497	7.84
349.862	8.01
350.228	7.94
350.593	7.98
350.958	7.97
351.323	8.14
351.688	8.13
352.053	8.19
352.418	8.27
352.783	8.29
353.148	8.27
353.513	8.22
353.878	8.18
354.243	8.18
354.608	8.17
354.972	8.2
355.337	8.21
355.702	8.26
356.066	8.25
356.431	8.23
356.795	8.28
357.16	8.24
357.524	8.19
357.889	8.2
358.253	8.09
358.618	8.16
358.982	8.11
359.346	8.06
359.71	8.02
360.075	8
360.439	8.01
360.803	8.08
361.167	8.09
361.531	8.04
361.895	8.02
362.259	8.03
362.623	8
362.987	7.99
363.351	8
363.714	8
364.078	7.97
364.442	7.93
364.806	7.89
365.169	7.84
365.533	7.85
365.896	7.87
366.26	7.78
366.623	7.76
366.987	7.76
367.35	7.76
367.714	7.69
368.077	7.71
368.44	7.68
368.803	7.67
369.167	7.65
369.53	7.57
369.893	7.52
370.256	7.5
370.619	7.46
370.982	7.44
371.345	7.41
371.708	7.49
372.071	7.47
372.434	7.47
372.797	7.5
373.159	7.42
373.522	7.46
373.885	7.48
374.247	7.48
374.61	7.5
374.973	7.47
375.335	7.43
375.698	7.38
376.06	7.36
376.423	7.29
376.785	7.27
377.147	7.28
377.51	7.27
377.872	7.32
378.234	7.32
378.596	7.32
378.958	7.3
379.321	7.24
379.683	7.2
380.045	7.15
380.407	7.08
380.769	7.05
381.13	7.02
381.492	6.94
381.854	6.92
382.216	6.83
382.578	6.8
382.939	6.71
383.301	6.67
383.663	6.63
384.024	6.59
384.386	6.59
384.747	6.56
385.109	6.54
385.47	6.45
385.832	6.38
386.193	6.37
386.554	6.31
386.916	6.27
387.277	6.27
387.638	6.25
387.999	6.22
388.36	6.18
388.721	6.12
389.082	6.13
389.443	6.07
389.804	6.08
390.165	6.05
390.526	6.08
390.887	6.03
391.248	6
391.609	6
391.969	5.97
392.33	5.97
392.691	5.88
393.051	5.82
393.412	5.83
393.772	5.78
394.133	5.76
394.493	5.71
394.854	5.63
395.214	5.6
395.574	5.56
395.935	5.53
396.295	5.52
396.655	5.45
397.015	5.41
397.376	5.36
397.736	5.33
398.096	5.32
398.456	5.35
398.816	5.31
399.176	5.25
399.535	5.2
399.895	5.16
400.255	5.18
400.615	5.19
400.975	5.12
401.334	5.12
401.694	5.07
402.054	5.03
402.413	5.05
402.773	4.98
403.132	4.98
403.492	4.92
403.851	4.91
404.211	4.91
404.57	4.93
404.929	4.89
405.288	4.85
405.648	4.79
406.007	4.73
406.366	4.71
406.725	4.74
407.084	4.74
407.443	4.71
407.802	4.71
408.161	4.67
408.52	4.63
408.879	4.57
409.238	4.58
409.596	4.56
409.955	4.54
410.314	4.56
410.673	4.54
411.031	4.56
411.39	4.53
411.748	4.5
412.107	4.46
412.465	4.45
412.824	4.46
413.182	4.45
413.54	4.45
413.899	4.47
414.257	4.42
414.615	4.4
414.974	4.37
415.332	4.34
415.69	4.32
416.048	4.33
416.406	4.33
416.764	4.32
417.122	4.31
417.48	4.27
417.838	4.26
418.195	4.23
418.553	4.22
418.911	4.19
419.269	4.18
419.626	4.17
419.984	4.16
420.342	4.13
420.699	4.13
421.057	4.12
421.414	4.09
421.772	4.05
422.129	4.03
422.486	4.01
422.844	3.98
423.201	3.96
423.558	3.95
423.915	3.93
424.273	3.91
424.63	3.89
424.987	3.89
425.344	3.87
425.701	3.88
426.058	3.87
426.415	3.84
426.772	3.84
427.128	3.81
427.485	3.8
427.842	3.79
428.199	3.78
428.555	3.77
428.912	3.79
429.269	3.8
429.625	3.82
429.982	3.84
430.338	3.84
430.695	3.84
431.051	3.83
431.407	3.82
431.764	3.83
432.12	3.83
432.476	3.82
432.832	3.8
433.189	3.79
433.545	3.78
433.901	3.78
434.257	3.76
434.613	3.77
434.969	3.78
435.325	3.78
435.681	3.76
436.036	3.75
436.392	3.73
436.748	3.74
437.104	3.72
437.459	3.71
437.815	3.71
438.171	3.73
438.526	3.74
438.882	3.75
439.237	3.74
439.593	3.74
439.948	3.74
440.304	3.74
440.659	3.73
441.014	3.71
441.369	3.71
441.725	3.71
442.08	3.7
442.435	3.7
442.79	3.69
443.145	3.7
443.5	3.68
443.855	3.68
444.21	3.67
444.565	3.67
444.92	3.67
445.275	3.67
445.629	3.66
445.984	3.64
446.339	3.63
446.693	3.6
447.048	3.59
447.403	3.59
447.757	3.58
448.112	3.58
448.466	3.59
448.82	3.6
449.175	3.6
449.529	3.6
449.883	3.57
450.238	3.56
450.592	3.55
450.946	3.53
451.3	3.52
451.654	3.51
452.008	3.52
452.362	3.49
452.716	3.47
453.07	3.47
453.424	3.49
453.778	3.46
454.132	3.46
454.486	3.47
454.839	3.47
455.193	3.45
455.547	3.43
455.9	3.42
456.254	3.42
456.607	3.43
456.961	3.42
457.314	3.44
457.668	3.45
458.021	3.43
458.375	3.44
458.728	3.43
459.081	3.44
459.434	3.43
459.787	3.43
460.141	3.44
460.494	3.43
460.847	3.42
461.2	3.43
461.553	3.44
461.906	3.44
462.259	3.44
462.611	3.46
462.964	3.48
463.317	3.49
463.67	3.51
464.022	3.52
464.375	3.52
464.728	3.54
465.08	3.54
465.433	3.57
465.785	3.58
466.138	3.59
466.49	3.6
466.843	3.59
467.195	3.6
467.547	3.63
467.899	3.62
468.252	3.62
468.604	3.67
468.956	3.67
469.308	3.68
469.66	3.68
470.012	3.7
470.364	3.7
470.716	3.71
471.068	3.71
471.42	3.71
471.772	3.74
472.123	3.72
472.475	3.73
472.827	3.73
473.178	3.76
473.53	3.76
473.882	3.75
474.233	3.78
474.585	3.78
474.936	3.78
475.288	3.8
475.639	3.83
475.99	3.81
476.342	3.81
476.693	3.84
477.044	3.88
477.395	3.87
477.746	3.85
478.097	3.84
478.448	3.83
478.8	3.82
479.15	3.79
479.501	3.81
479.852	3.8
480.203	3.8
480.554	3.79
480.905	3.78
481.255	3.78
481.606	3.78
481.957	3.78
482.307	3.79
482.658	3.79
483.009	3.78
483.359	3.76
483.709	3.78
484.06	3.77
484.41	3.75
484.761	3.75
485.111	3.75
485.461	3.75
485.811	3.76
486.162	3.76
486.512	3.77
486.862	3.77
487.212	3.76
487.562	3.77
487.912	3.77
488.262	3.77
488.612	3.79
488.961	3.79
489.311	3.79
489.661	3.79
490.011	3.78
490.36	3.79
490.71	3.8
491.06	3.79
491.409	3.79
491.759	3.81
492.108	3.82
492.458	3.84
492.807	3.84
493.157	3.85
493.506	3.86
493.855	3.86
494.204	3.87
494.554	3.88
494.903	3.89
495.252	3.9
495.601	3.93
495.95	3.94
496.299	3.95
496.648	3.96
496.997	3.98
497.346	4.02
497.695	4.05
498.043	4.08
498.392	4.11
498.741	4.14
499.09	4.17
499.438	4.2
499.787	4.21
500.135	4.25
500.484	4.29
500.832	4.34
501.181	4.36
501.529	4.41
501.878	4.46
502.226	4.5
502.574	4.54
502.923	4.59
503.271	4.62
503.619	4.66
503.967	4.73
504.315	4.78
504.663	4.83
505.011	4.88
505.359	4.94
505.707	4.99
506.055	5.05
506.403	5.12
506.751	5.19
507.098	5.24
507.446	5.31
507.794	5.37
508.141	5.43
508.489	5.53
508.837	5.6
509.184	5.68
509.531	5.76
509.879	5.82
510.226	5.91
510.574	6
510.921	6.07
511.268	6.16
511.616	6.24
511.963	6.32
512.31	6.4
512.657	6.5
513.004	6.61
513.351	6.7
513.698	6.8
514.045	6.91
514.392	7.06
514.739	7.17
515.086	7.3
515.432	7.43
515.779	7.53
516.126	7.66
516.473	7.78
516.819	7.89
517.166	8.04
517.512	8.14
517.859	8.24
518.205	8.36
518.552	8.47
518.898	8.59
519.245	8.7
519.591	8.84
519.937	8.94
520.283	9.08
520.629	9.23
520.976	9.37
521.322	9.53
521.668	9.66
522.014	9.83
522.36	10
522.706	10.16
523.052	10.38
523.398	10.58
523.743	10.82
524.089	11.05
524.435	11.24
524.781	11.45
525.126	11.64
525.472	11.85
525.817	12.02
526.163	12.18
526.509	12.34
526.854	12.47
527.199	12.63
527.545	12.76
527.89	12.9
528.235	13.04
528.581	13.2
528.926	13.37
529.271	13.53
529.616	13.69
529.961	13.87
530.306	14.04
530.651	14.19
530.996	14.37
531.341	14.56
531.686	14.78
532.031	15
532.376	15.21
532.721	15.44
533.065	15.68
533.41	15.91
533.755	16.16
534.099	16.45
534.444	16.69
534.788	16.96
535.133	17.22
535.477	17.49
535.822	17.76
536.166	18.04
536.51	18.32
536.855	18.62
537.199	18.95
537.543	19.29
537.887	19.64
538.231	19.97
538.576	20.33
538.92	20.66
539.264	20.97
539.608	21.32
539.951	21.59
540.295	21.87
540.639	22.16
540.983	22.4
541.327	22.64
541.671	22.91
542.014	23.15
542.358	23.4
542.701	23.64
543.045	23.86
543.389	24.11
543.732	24.38
544.075	24.66
544.419	24.88
544.762	25.14
545.105	25.46
545.449	25.77
545.792	26.05
546.135	26.36
546.478	26.67
546.821	26.94
547.165	27.29
547.508	27.62
547.851	27.97
548.194	28.36
548.536	28.71
548.879	29.03
549.222	29.33
549.565	29.67
549.908	30.06
550.25	30.42
550.593	30.77
550.936	31.13
551.278	31.47
551.621	31.89
551.963	32.26
552.306	32.5
552.648	32.83
552.991	33.16
553.333	33.43
553.675	33.78
554.017	34.13
554.36	34.37
554.702	34.68
555.044	34.94
555.386	35.21
555.728	35.53
556.07	35.88
556.412	36.24
556.754	36.52
557.096	36.78
557.438	37.1
557.78	37.39
558.121	37.65
558.463	37.97
558.805	38.26
559.147	38.46
559.488	38.75
559.83	38.99
560.171	39.24
560.513	39.55
560.854	39.72
561.196	39.96
561.537	40.3
561.878	40.52
562.22	40.79
562.561	41.01
562.902	41.17
563.243	41.35
563.584	41.57
563.925	41.79
564.266	41.97
564.607	42.21
564.948	42.4
565.289	42.56
565.63	42.74
565.971	42.91
566.312	43.16
566.653	43.4
566.993	43.55
567.334	43.76
567.675	43.94
568.015	44.17
568.356	44.35
568.696	44.5
569.037	44.68
569.377	44.8
569.718	44.93
570.058	45.17
570.398	45.35
570.739	45.47
571.079	45.64
571.419	45.87
571.759	45.98
572.099	46.14
572.439	46.36
572.779	46.44
573.119	46.54
573.459	46.64
573.799	46.77
574.139	46.87
574.479	47.03
574.819	47.18
575.158	47.29
575.498	47.43
575.838	47.54
576.177	47.67
576.517	47.8
576.856	48.02
577.196	48.12
577.535	48.21
577.875	48.36
578.214	48.43
578.553	48.52
578.893	48.67
579.232	48.82
579.571	48.97
579.91	49.15
580.25	49.36
580.589	49.54
580.928	49.64
581.267	49.82
581.606	49.91
581.945	49.98
582.283	50.09
582.622	50.14
582.961	50.23
583.3	50.33
583.639	50.4
583.977	50.43
584.316	50.43
584.654	50.59
584.993	50.74
585.332	50.83
585.67	50.89
586.008	50.89
586.347	50.92
586.685	50.96
587.024	51.05
587.362	51.1
587.7	51.17
588.038	51.22
588.376	51.29
588.715	51.37
589.053	51.42
589.391	51.46
589.729	51.59
590.067	51.65
590.404	51.74
590.742	51.78
591.08	51.85
591.418	51.95
591.756	51.97
592.093	51.98
592.431	52.08
592.769	52.18
593.106	52.34
593.444	52.46
593.781	52.45
594.119	52.49
594.456	52.51
594.793	52.58
595.131	52.59
595.468	52.69
595.805	52.66
596.143	52.71
596.48	52.75
596.817	52.74
597.154	52.82
597.491	52.88
597.828	52.99
598.165	53.11
598.502	53.24
598.839	53.33
599.176	53.41
599.512	53.49
599.849	53.57
600.186	53.62
600.523	53.64
600.859	53.8
601.196	53.89
601.532	54.01
601.869	54.03
602.205	54.07
602.542	54.09
602.878	54.14
603.215	54.27
603.551	54.34
603.887	54.43
604.223	54.49
604.56	54.51
604.896	54.58
605.232	54.64
605.568	54.63
605.904	54.67
606.24	54.71
606.576	54.65
606.912	54.73
607.248	54.7
607.583	54.76
607.919	54.76
608.255	54.83
608.591	54.85
608.926	54.98
609.262	55.09
609.597	55.19
609.933	55.3
610.268	55.26
610.604	55.34
610.939	55.42
611.275	55.46
611.61	55.53
611.945	55.57
612.281	55.54
612.616	55.64
612.951	55.68
613.286	55.76
613.621	55.85
613.956	55.76
614.291	55.9
614.626	55.93
614.961	56
615.296	56
615.631	56.06
615.966	56.01
616.3	56.11
616.635	56.05
616.97	56
617.304	56.09
617.639	56.11
617.973	56.19
618.308	56.16
618.642	56.18
618.977	56.16
619.311	56.26
619.646	56.3
619.98	56.33
620.314	56.32
620.648	56.47
620.983	56.65
621.317	56.66
621.651	56.79
621.985	56.8
622.319	56.77
622.653	56.85
622.987	56.89
623.321	56.85
623.655	56.96
623.988	57.07
624.322	57.07
624.656	57.1
624.99	57.04
625.323	57.16
625.657	57.18
625.99	57.2
626.324	57.13
626.657	57.2
626.991	57.28
627.324	57.3
627.658	57.28
627.991	57.26
628.324	57.24
628.657	57.16
628.991	57.23
629.324	57.26
629.657	57.27
629.99	57.25
630.323	57.27
630.656	57.26
630.989	57.28
631.322	57.27
631.655	57.3
631.987	57.36
632.32	57.37
632.653	57.41
632.986	57.38
633.318	57.45
633.651	57.4
633.984	57.38
634.316	57.43
634.649	57.47
634.981	57.47
635.313	57.62
635.646	57.73
635.978	57.64
636.31	57.68
636.643	57.68
636.975	57.75
637.307	57.76
637.639	57.73
637.971	57.73
638.303	57.76
638.635	57.79
638.967	57.82
639.299	57.74
639.631	57.77
639.963	57.85
640.295	57.84
640.626	57.86
640.958	57.83
641.29	57.77
641.621	57.76
641.953	57.72
642.285	57.68
642.616	57.63
642.948	57.69
643.279	57.64
643.61	57.64
643.942	57.71
644.273	57.83
644.604	57.81
644.936	57.84
645.267	57.87
645.598	57.87
645.929	57.81
646.26	58.08
646.591	58.11
646.922	58.06
647.253	58.09
647.584	58.22
647.915	58.24
648.245	58.4
648.576	58.46
648.907	58.54
649.238	58.48
649.568	58.49
649.899	58.54
650.229	58.53
650.56	58.48
650.89	58.49
651.221	58.42
651.551	58.49
651.882	58.5
652.212	58.49
652.542	58.56
652.872	58.61
653.203	58.37
653.533	58.38
653.863	58.53
654.193	58.51
654.523	58.45
654.853	58.48
655.183	58.34
655.513	58.33
655.843	58.42
656.172	58.41
656.502	58.5
656.832	58.48
657.162	58.6
657.491	58.6
657.821	58.49
658.15	58.57
658.48	58.53
658.809	58.57
659.139	58.51
659.468	58.41
659.798	58.4
660.127	58.43
660.456	58.45
660.785	58.42
661.115	58.47
661.444	58.5
661.773	58.62
662.102	58.81
662.431	58.84
662.76	58.75
663.089	58.77
663.418	58.72
663.747	58.81
664.076	58.76
664.404	58.87
664.733	59.07
665.062	59.01
665.39	59.07
665.719	59.02
666.048	59.11
666.376	59.03
666.705	59
667.033	59.03
667.362	58.93
667.69	58.96
668.018	58.93
668.347	58.9
668.675	58.88
669.003	58.7
669.331	58.67
669.659	58.74
