Data from BA57662_Reflection_00003.txt Node
Date: Mon Nov 18 15:34:14 EST 2019
User: vgr7
Spectrometer: USB2G7710
Scans to average: 3
Trigger mode: 4
Integration Time (sec): 2.000000E-2
Electric dark correction enabled: true
Boxcar width: 10
XAxis mode: Wavelengths
Number of Pixels in Spectrum: 2048
>>>>>Begin Spectral Data<<<<<
177.721	93.7
178.105	89.86
178.488	67.6
178.871	122.03
179.254	184.28
179.636	96.24
180.019	29.86
180.402	247.06
180.785	-35.58
181.168	-0.57
181.55	-44.88
181.933	69.45
182.316	100.45
182.698	89.56
183.081	119.41
183.463	128.44
183.846	123.8
184.228	103.09
184.611	155.53
184.993	152.38
185.376	290.42
185.758	347.12
186.14	481.44
186.522	700.89
186.904	-701.35
187.287	-1266.53
187.669	-198.62
188.051	-196.63
188.433	-118.35
188.815	-104.07
189.197	-96.87
189.579	-114.97
189.961	-101.79
190.342	-59.07
190.724	-37.9
191.106	-48.56
191.488	-57.77
191.869	-45.21
192.251	-40.46
192.633	-25.58
193.014	-46.58
193.396	-52.87
193.777	-78.19
194.159	-78.52
194.54	-59.13
194.922	-65.7
195.303	-64.43
195.684	-72.38
196.065	-46.97
196.447	-61.01
196.828	-85.82
197.209	-85.43
197.59	-61.93
197.971	-52.08
198.352	-53.77
198.733	-65.16
199.114	-43.76
199.495	-30.32
199.876	-38.28
200.257	-36.24
200.638	-25.09
201.018	-30.39
201.399	-25.69
201.78	-17.9
202.16	-31.73
202.541	-49.62
202.922	-62.42
203.302	-51.23
203.683	-47.92
204.063	-77.01
204.444	-54.31
204.824	-33.2
205.204	-39.93
205.585	-52.27
205.965	-51.14
206.345	-49.4
206.725	-43.88
207.106	-66.14
207.486	-111.6
207.866	-76.9
208.246	-58.61
208.626	-89.53
209.006	-81.28
209.386	-100
209.766	-101.26
210.145	-120.62
210.525	-105.74
210.905	-88.45
211.285	-92.74
211.664	-72.45
212.044	-74.83
212.424	-78.73
212.803	-94.28
213.183	-68.2
213.562	-54.51
213.942	-60.64
214.321	-65.44
214.701	-85.44
215.08	-78.02
215.459	-57.04
215.838	-83.69
216.218	-89.54
216.597	-51
216.976	-51.06
217.355	-43.31
217.734	-29.71
218.113	-27.05
218.492	-25.07
218.871	-30.3
219.25	-18.95
219.629	-28.63
220.008	-20.53
220.387	-24.93
220.766	-26
221.144	-47.2
221.523	-48.82
221.902	-54.28
222.28	-58.87
222.659	-42.32
223.037	-33.32
223.416	-30.67
223.794	-19.33
224.173	-27.78
224.551	-32.09
224.929	-32.57
225.308	-25.59
225.686	-23.03
226.064	-14.74
226.442	-13.79
226.821	-9.34
227.199	-8.57
227.577	-8.99
227.955	-8.84
228.333	-7.26
228.711	-4.25
229.089	0.65
229.467	-0.89
229.845	-0.43
230.222	1.76
230.6	2.33
230.978	2.72
231.356	1.98
231.733	0.78
232.111	3.91
232.488	5.42
232.866	7.1
233.243	5.53
233.621	4.6
233.998	4.92
234.376	4.29
234.753	4.49
235.13	3.73
235.508	4.25
235.885	3.53
236.262	3.04
236.639	2.87
237.016	3.74
237.393	4.81
237.77	5.43
238.147	5.31
238.524	5.19
238.901	5.47
239.278	6.79
239.655	7.48
240.032	7.09
240.409	6.7
240.785	6.43
241.162	7.28
241.539	7.62
241.915	7.48
242.292	7.62
242.668	7.51
243.045	7.27
243.421	7.25
243.798	7.33
244.174	7.55
244.551	7.38
244.927	7.13
245.303	7.39
245.679	7.56
246.056	7.51
246.432	7.4
246.808	7.38
247.184	7
247.56	6.68
247.936	6.74
248.312	6.6
248.688	6.7
249.064	6.64
249.44	6.51
249.815	6.46
250.191	6.46
250.567	6.52
250.943	6.59
251.318	6.67
251.694	6.51
252.069	6.28
252.445	6.52
252.82	6.68
253.196	6.32
253.571	6.09
253.947	5.95
254.322	6.15
254.697	5.89
255.073	5.78
255.448	5.85
255.823	5.92
256.198	6.21
256.573	6.16
256.948	6.18
257.323	6.28
257.698	6.42
258.073	6.43
258.448	6.36
258.823	6.28
259.198	6.3
259.573	6.47
259.948	6.31
260.322	6.21
260.697	6.03
261.072	6.09
261.446	6.11
261.821	6.15
262.195	6.22
262.57	6.3
262.944	6.46
263.319	6.42
263.693	6.27
264.067	6.18
264.442	6.35
264.816	6.29
265.19	6.26
265.564	6.09
265.938	5.89
266.313	5.73
266.687	5.81
267.061	5.8
267.435	5.82
267.809	6.09
268.183	6.1
268.556	6.07
268.93	6.04
269.304	6.02
269.678	6.08
270.051	6
270.425	5.96
270.799	5.98
271.172	6.09
271.546	6.16
271.919	6.13
272.293	5.98
272.666	6.11
273.04	6.19
273.413	6.14
273.787	6.3
274.16	6.42
274.533	6.41
274.906	6.4
275.279	6.35
275.653	6.33
276.026	6.09
276.399	6.13
276.772	6.32
277.145	6.22
277.518	6.17
277.891	6.13
278.263	6.12
278.636	6.19
279.009	6.27
279.382	6.35
279.755	6.44
280.127	6.56
280.5	6.36
280.872	6.4
281.245	6.46
281.617	6.56
281.99	6.46
282.362	6.47
282.735	6.39
283.107	6.17
283.479	6.16
283.852	6.28
284.224	6.31
284.596	6.16
284.968	6.2
285.34	6.19
285.713	6.12
286.085	6.15
286.457	6.04
286.829	5.97
287.201	5.95
287.572	5.77
287.944	5.71
288.316	5.8
288.688	5.65
289.06	5.6
289.431	5.54
289.803	5.56
290.175	5.55
290.546	5.63
290.918	5.85
291.289	5.79
291.661	5.85
292.032	5.85
292.403	5.82
292.775	5.89
293.146	6.02
293.517	6.06
293.889	6.29
294.26	6.43
294.631	6.4
295.002	6.45
295.373	6.53
295.744	6.65
296.115	6.6
296.486	6.58
296.857	6.53
297.228	6.63
297.599	6.76
297.97	6.76
298.34	6.78
298.711	6.85
299.082	6.89
299.452	6.98
299.823	6.96
300.194	7.1
300.564	7.11
300.935	7.01
301.305	7.07
301.676	6.97
302.046	6.92
302.416	7.09
302.787	7.08
303.157	7.09
303.527	7.03
303.897	7.09
304.267	7.28
304.637	7.55
305.008	7.52
305.378	7.47
305.748	7.51
306.117	7.43
306.487	7.35
306.857	7.44
307.227	7.54
307.597	7.64
307.967	7.6
308.336	7.62
308.706	7.62
309.076	7.7
309.445	7.65
309.815	7.7
310.184	7.66
310.554	7.7
310.923	7.73
311.293	7.68
311.662	7.69
312.031	7.64
312.401	7.47
312.77	7.47
313.139	7.57
313.508	7.74
313.877	7.68
314.246	7.76
314.616	7.59
314.985	7.47
315.353	7.52
315.722	7.64
316.091	7.68
316.46	7.77
316.829	7.7
317.198	7.81
317.567	7.64
317.935	7.48
318.304	7.52
318.672	7.56
319.041	7.65
319.41	7.73
319.778	7.62
320.147	7.8
320.515	7.77
320.883	7.57
321.252	7.34
321.62	7.45
321.988	7.43
322.357	7.57
322.725	7.57
323.093	7.46
323.461	7.23
323.829	7.16
324.197	7.05
324.565	7.02
324.933	6.94
325.301	7.11
325.669	7.27
326.037	7.17
326.405	7.21
326.772	7.22
327.14	7.11
327.508	7.2
327.875	7.07
328.243	7.06
328.61	7.08
328.978	7.2
329.346	7.15
329.713	7.01
330.08	7.06
330.448	6.91
330.815	6.84
331.182	6.91
331.55	6.98
331.917	7.09
332.284	7.17
332.651	7.15
333.018	7.08
333.385	7.02
333.752	7.05
334.119	7.04
334.486	7.04
334.853	6.89
335.22	6.87
335.587	6.9
335.954	6.94
336.32	6.95
336.687	7
337.054	7.06
337.42	7.18
337.787	7.15
338.153	7.16
338.52	7.28
338.886	7.17
339.253	7.13
339.619	7.1
339.986	7.05
340.352	7.04
340.718	7.06
341.084	7.08
341.451	7.09
341.817	7.06
342.183	7.02
342.549	7.18
342.915	7.23
343.281	7.22
343.647	7.09
344.013	7.12
344.379	7.01
344.745	7.02
345.11	7.09
345.476	7.09
345.842	7.15
346.208	7.12
346.573	7.28
346.939	7.36
347.304	7.43
347.67	7.39
348.035	7.43
348.401	7.39
348.766	7.32
349.132	7.36
349.497	7.26
349.862	7.37
350.228	7.36
350.593	7.36
350.958	7.29
351.323	7.42
351.688	7.43
352.053	7.43
352.418	7.48
352.783	7.4
353.148	7.36
353.513	7.4
353.878	7.37
354.243	7.35
354.608	7.31
354.972	7.28
355.337	7.4
355.702	7.35
356.066	7.4
356.431	7.48
356.795	7.47
357.16	7.53
357.524	7.45
357.889	7.43
358.253	7.4
358.618	7.5
358.982	7.46
359.346	7.37
359.71	7.39
360.075	7.42
360.439	7.39
360.803	7.39
361.167	7.32
361.531	7.33
361.895	7.31
362.259	7.28
362.623	7.22
362.987	7.12
363.351	7.17
363.714	7.2
364.078	7.09
364.442	7.04
364.806	6.99
365.169	7.07
365.533	7.09
365.896	7.13
366.26	7.06
366.623	7.06
366.987	7.13
367.35	7.14
367.714	7.09
368.077	7.06
368.44	7.04
368.803	7.08
369.167	7.02
369.53	6.98
369.893	7.07
370.256	7.1
370.619	7.13
370.982	7.12
371.345	7.06
371.708	7.1
372.071	7.14
372.434	7.2
372.797	7.1
373.159	7.05
373.522	7.01
373.885	7
374.247	7.03
374.61	7.05
374.973	7.08
375.335	7.07
375.698	7.06
376.06	7.07
376.423	7.11
376.785	7.16
377.147	7.22
377.51	7.21
377.872	7.28
378.234	7.26
378.596	7.26
378.958	7.25
379.321	7.29
379.683	7.3
380.045	7.32
380.407	7.35
380.769	7.4
381.13	7.37
381.492	7.43
381.854	7.43
382.216	7.41
382.578	7.34
382.939	7.31
383.301	7.34
383.663	7.34
384.024	7.29
384.386	7.34
384.747	7.34
385.109	7.33
385.47	7.34
385.832	7.36
386.193	7.36
386.554	7.35
386.916	7.34
387.277	7.35
387.638	7.32
387.999	7.34
388.36	7.37
388.721	7.39
389.082	7.38
389.443	7.33
389.804	7.33
390.165	7.39
390.526	7.42
390.887	7.41
391.248	7.46
391.609	7.48
391.969	7.47
392.33	7.46
392.691	7.41
393.051	7.36
393.412	7.36
393.772	7.33
394.133	7.35
394.493	7.37
394.854	7.35
395.214	7.37
395.574	7.35
395.935	7.29
396.295	7.32
396.655	7.29
397.015	7.29
397.376	7.3
397.736	7.28
398.096	7.27
398.456	7.31
398.816	7.28
399.176	7.27
399.535	7.25
399.895	7.23
400.255	7.26
400.615	7.28
400.975	7.24
401.334	7.24
401.694	7.23
402.054	7.16
402.413	7.15
402.773	7.14
403.132	7.16
403.492	7.16
403.851	7.13
404.211	7.16
404.57	7.17
404.929	7.16
405.288	7.16
405.648	7.15
406.007	7.09
406.366	7.09
406.725	7.1
407.084	7.12
407.443	7.12
407.802	7.13
408.161	7.14
408.52	7.17
408.879	7.17
409.238	7.16
409.596	7.24
409.955	7.25
410.314	7.24
410.673	7.2
411.031	7.19
411.39	7.18
411.748	7.18
412.107	7.18
412.465	7.18
412.824	7.17
413.182	7.17
413.54	7.2
413.899	7.21
414.257	7.22
414.615	7.19
414.974	7.2
415.332	7.17
415.69	7.16
416.048	7.15
416.406	7.17
416.764	7.17
417.122	7.14
417.48	7.13
417.838	7.16
418.195	7.16
418.553	7.17
418.911	7.18
419.269	7.17
419.626	7.16
419.984	7.16
420.342	7.18
420.699	7.17
421.057	7.16
421.414	7.15
421.772	7.13
422.129	7.14
422.486	7.14
422.844	7.14
423.201	7.13
423.558	7.14
423.915	7.15
424.273	7.15
424.63	7.14
424.987	7.16
425.344	7.14
425.701	7.15
426.058	7.14
426.415	7.15
426.772	7.14
427.128	7.15
427.485	7.16
427.842	7.14
428.199	7.16
428.555	7.17
428.912	7.19
429.269	7.2
429.625	7.19
429.982	7.18
430.338	7.2
430.695	7.19
431.051	7.17
431.407	7.17
431.764	7.15
432.12	7.15
432.476	7.13
432.832	7.15
433.189	7.14
433.545	7.13
433.901	7.13
434.257	7.12
434.613	7.14
434.969	7.15
435.325	7.15
435.681	7.14
436.036	7.12
436.392	7.09
436.748	7.07
437.104	7.07
437.459	7.06
437.815	7.07
438.171	7.08
438.526	7.08
438.882	7.07
439.237	7.09
439.593	7.1
439.948	7.11
440.304	7.11
440.659	7.12
441.014	7.12
441.369	7.1
441.725	7.11
442.08	7.08
442.435	7.06
442.79	7.05
443.145	7.05
443.5	7.05
443.855	7.06
444.21	7.08
444.565	7.08
444.92	7.11
445.275	7.09
445.629	7.08
445.984	7.07
446.339	7.06
446.693	7.04
447.048	7.02
447.403	7
447.757	6.99
448.112	6.98
448.466	6.98
448.82	6.98
449.175	6.97
449.529	6.96
449.883	6.95
450.238	6.95
450.592	6.98
450.946	6.98
451.3	6.97
451.654	6.96
452.008	6.97
452.362	6.92
452.716	6.93
453.07	6.94
453.424	6.94
453.778	6.96
454.132	6.96
454.486	6.98
454.839	6.99
455.193	6.98
455.547	6.98
455.9	6.98
456.254	6.98
456.607	6.99
456.961	7.02
457.314	7.04
457.668	7.04
458.021	7.01
458.375	7.02
458.728	7.01
459.081	7.01
459.434	7.01
459.787	7.03
460.141	7.04
460.494	7.04
460.847	7.05
461.2	7.04
461.553	7.05
461.906	7.05
462.259	7.07
462.611	7.08
462.964	7.09
463.317	7.08
463.67	7.08
464.022	7.09
464.375	7.06
464.728	7.06
465.08	7.05
465.433	7.08
465.785	7.05
466.138	7.05
466.49	7.07
466.843	7.07
467.195	7.08
467.547	7.07
467.899	7.04
468.252	7.05
468.604	7.08
468.956	7.07
469.308	7.09
469.66	7.07
470.012	7.09
470.364	7.1
470.716	7.11
471.068	7.14
471.42	7.13
471.772	7.18
472.123	7.19
472.475	7.18
472.827	7.18
473.178	7.22
473.53	7.23
473.882	7.22
474.233	7.23
474.585	7.22
474.936	7.21
475.288	7.21
475.639	7.24
475.99	7.24
476.342	7.25
476.693	7.23
477.044	7.24
477.395	7.23
477.746	7.23
478.097	7.22
478.448	7.21
478.8	7.21
479.15	7.19
479.501	7.21
479.852	7.23
480.203	7.21
480.554	7.22
480.905	7.25
481.255	7.25
481.606	7.25
481.957	7.27
482.307	7.29
482.658	7.29
483.009	7.29
483.359	7.27
483.709	7.28
484.06	7.28
484.41	7.28
484.761	7.29
485.111	7.28
485.461	7.29
485.811	7.29
486.162	7.3
486.512	7.31
486.862	7.3
487.212	7.3
487.562	7.32
487.912	7.32
488.262	7.31
488.612	7.3
488.961	7.31
489.311	7.31
489.661	7.3
490.011	7.31
490.36	7.31
490.71	7.31
491.06	7.31
491.409	7.31
491.759	7.32
492.108	7.31
492.458	7.32
492.807	7.32
493.157	7.33
493.506	7.32
493.855	7.32
494.204	7.3
494.554	7.29
494.903	7.27
495.252	7.26
495.601	7.27
495.95	7.3
496.299	7.28
496.648	7.28
496.997	7.28
497.346	7.27
497.695	7.27
498.043	7.29
498.392	7.27
498.741	7.28
499.09	7.27
499.438	7.27
499.787	7.28
500.135	7.3
500.484	7.32
500.832	7.33
501.181	7.34
501.529	7.39
501.878	7.42
502.226	7.44
502.574	7.42
502.923	7.41
503.271	7.41
503.619	7.4
503.967	7.38
504.315	7.41
504.663	7.43
505.011	7.46
505.359	7.46
505.707	7.49
506.055	7.51
506.403	7.52
506.751	7.54
507.098	7.54
507.446	7.53
507.794	7.5
508.141	7.52
508.489	7.51
508.837	7.51
509.184	7.52
509.531	7.52
509.879	7.55
510.226	7.57
510.574	7.58
510.921	7.61
511.268	7.63
511.616	7.62
511.963	7.61
512.31	7.59
512.657	7.59
513.004	7.62
513.351	7.61
513.698	7.62
514.045	7.64
514.392	7.64
514.739	7.64
515.086	7.69
515.432	7.67
515.779	7.68
516.126	7.72
516.473	7.73
516.819	7.74
517.166	7.74
517.512	7.75
517.859	7.76
518.205	7.76
518.552	7.78
518.898	7.8
519.245	7.82
519.591	7.83
519.937	7.82
520.283	7.8
520.629	7.8
520.976	7.81
521.322	7.79
521.668	7.79
522.014	7.81
522.36	7.8
522.706	7.82
523.052	7.81
523.398	7.81
523.743	7.81
524.089	7.81
524.435	7.83
524.781	7.85
525.126	7.84
525.472	7.86
525.817	7.85
526.163	7.87
526.509	7.89
526.854	7.9
527.199	7.91
527.545	7.92
527.89	7.94
528.235	7.94
528.581	7.94
528.926	7.95
529.271	7.94
529.616	7.93
529.961	7.94
530.306	7.95
530.651	7.94
530.996	7.95
531.341	7.96
531.686	7.96
532.031	7.95
532.376	7.97
532.721	7.98
533.065	7.99
533.41	7.99
533.755	7.99
534.099	7.99
534.444	7.99
534.788	8
535.133	8
535.477	8.02
535.822	8.04
536.166	8.04
536.51	8.06
536.855	8.05
537.199	8.05
537.543	8.06
537.887	8.04
538.231	8.03
538.576	8.02
538.92	8.02
539.264	8
539.608	7.99
539.951	7.97
540.295	7.96
540.639	7.96
540.983	7.95
541.327	7.96
541.671	7.96
542.014	7.96
542.358	7.95
542.701	7.95
543.045	7.95
543.389	7.97
543.732	7.96
544.075	7.98
544.419	8
544.762	8.01
545.105	8.02
545.449	8.04
545.792	8.06
546.135	8.06
546.478	8.1
546.821	8.12
547.165	8.13
547.508	8.16
547.851	8.14
548.194	8.14
548.536	8.1
548.879	8.12
549.222	8.12
549.565	8.12
549.908	8.12
550.25	8.11
550.593	8.09
550.936	8.09
551.278	8.09
551.621	8.1
551.963	8.08
552.306	8.09
552.648	8.08
552.991	8.07
553.333	8.05
553.675	8.02
554.017	8.01
554.36	8.02
554.702	8.03
555.044	8.04
555.386	8.04
555.728	8.08
556.07	8.07
556.412	8.04
556.754	8.05
557.096	8.05
557.438	8.07
557.78	8.08
558.121	8.11
558.463	8.11
558.805	8.11
559.147	8.1
559.488	8.09
559.83	8.09
560.171	8.1
560.513	8.14
560.854	8.18
561.196	8.17
561.537	8.16
561.878	8.13
562.22	8.14
562.561	8.15
562.902	8.15
563.243	8.13
563.584	8.16
563.925	8.15
564.266	8.15
564.607	8.16
564.948	8.19
565.289	8.18
565.63	8.18
565.971	8.15
566.312	8.19
566.653	8.2
566.993	8.17
567.334	8.19
567.675	8.16
568.015	8.16
568.356	8.14
568.696	8.15
569.037	8.16
569.377	8.17
569.718	8.18
570.058	8.19
570.398	8.2
570.739	8.2
571.079	8.21
571.419	8.23
571.759	8.23
572.099	8.19
572.439	8.2
572.779	8.22
573.119	8.26
573.459	8.26
573.799	8.29
574.139	8.29
574.479	8.28
574.819	8.31
575.158	8.29
575.498	8.3
575.838	8.3
576.177	8.26
576.517	8.26
576.856	8.27
577.196	8.24
577.535	8.25
577.875	8.27
578.214	8.26
578.553	8.23
578.893	8.2
579.232	8.2
579.571	8.18
579.91	8.17
580.25	8.15
580.589	8.11
580.928	8.1
581.267	8.16
581.606	8.17
581.945	8.12
582.283	8.11
582.622	8.13
582.961	8.14
583.3	8.2
583.639	8.25
583.977	8.26
584.316	8.25
584.654	8.28
584.993	8.27
585.332	8.26
585.67	8.28
586.008	8.3
586.347	8.29
586.685	8.25
587.024	8.23
587.362	8.23
587.7	8.25
588.038	8.25
588.376	8.25
588.715	8.23
589.053	8.27
589.391	8.31
589.729	8.32
590.067	8.3
590.404	8.29
590.742	8.31
591.08	8.28
591.418	8.3
591.756	8.3
592.093	8.32
592.431	8.33
592.769	8.33
593.106	8.33
593.444	8.36
593.781	8.4
594.119	8.43
594.456	8.4
594.793	8.41
595.131	8.4
595.468	8.38
595.805	8.43
596.143	8.42
596.48	8.39
596.817	8.4
597.154	8.41
597.491	8.41
597.828	8.37
598.165	8.4
598.502	8.39
598.839	8.39
599.176	8.39
599.512	8.4
599.849	8.38
600.186	8.39
600.523	8.43
600.859	8.47
601.196	8.48
601.532	8.49
601.869	8.47
602.205	8.46
602.542	8.5
602.878	8.44
603.215	8.43
603.551	8.49
603.887	8.52
604.223	8.53
604.56	8.57
604.896	8.58
605.232	8.58
605.568	8.6
605.904	8.6
606.24	8.61
606.576	8.64
606.912	8.68
607.248	8.69
607.583	8.67
607.919	8.65
608.255	8.64
608.591	8.7
608.926	8.71
609.262	8.76
609.597	8.74
609.933	8.8
610.268	8.83
610.604	8.8
610.939	8.77
611.275	8.76
611.61	8.73
611.945	8.74
612.281	8.73
612.616	8.74
612.951	8.76
613.286	8.8
613.621	8.79
613.956	8.73
614.291	8.75
614.626	8.79
614.961	8.83
615.296	8.83
615.631	8.77
615.966	8.75
616.3	8.75
616.635	8.68
616.97	8.61
617.304	8.57
617.639	8.58
617.973	8.57
618.308	8.61
618.642	8.55
618.977	8.52
619.311	8.53
619.646	8.54
619.98	8.52
620.314	8.49
620.648	8.55
620.983	8.61
621.317	8.64
621.651	8.65
621.985	8.6
622.319	8.62
622.653	8.64
622.987	8.67
623.321	8.66
623.655	8.75
623.988	8.84
624.322	8.86
624.656	8.9
624.99	8.89
625.323	8.88
625.657	8.91
625.99	8.9
626.324	8.88
626.657	8.85
626.991	8.89
627.324	8.89
627.658	8.89
627.991	8.85
628.324	8.84
628.657	8.79
628.991	8.81
629.324	8.81
629.657	8.83
629.99	8.89
630.323	8.88
630.656	8.83
630.989	8.82
631.322	8.84
631.655	8.84
631.987	8.88
632.32	8.9
632.653	8.93
632.986	8.97
633.318	9.03
633.651	9.03
633.984	8.98
634.316	9
634.649	8.97
634.981	9
635.313	8.96
635.646	8.99
635.978	9.03
636.31	9.04
636.643	9.03
636.975	8.98
637.307	9
637.639	9.03
637.971	9.01
638.303	8.97
638.635	8.9
638.967	8.89
639.299	8.88
639.631	8.87
639.963	8.84
640.295	8.76
640.626	8.82
640.958	8.89
641.29	8.94
641.621	8.93
641.953	8.9
642.285	8.95
642.616	9.01
642.948	8.98
643.279	9.01
643.61	9.01
643.942	8.98
644.273	9.04
644.604	9
644.936	8.99
645.267	9.05
645.598	9
645.929	8.98
646.26	8.97
646.591	8.96
646.922	9.06
647.253	9.09
647.584	9.02
647.915	9
648.245	8.89
648.576	8.93
648.907	8.95
649.238	8.89
649.568	8.86
649.899	8.92
650.229	8.89
650.56	8.85
650.89	8.9
651.221	8.9
651.551	8.95
651.882	8.97
652.212	8.91
652.542	9.04
652.872	9.04
653.203	9.07
653.533	9.08
653.863	9.04
654.193	9.01
654.523	9.07
654.853	9.05
655.183	9.09
655.513	9.08
655.843	9.06
656.172	9.01
656.502	8.92
656.832	8.83
657.162	8.87
657.491	8.92
657.821	8.88
658.15	8.88
658.48	8.89
658.809	9.01
659.139	9.06
659.468	8.99
659.798	8.96
660.127	8.99
660.456	9.04
660.785	9.03
661.115	9.07
661.444	9.08
661.773	9.09
662.102	9.06
662.431	8.99
662.76	9.05
663.089	9.17
663.418	9.23
663.747	9.22
664.076	9.2
664.404	9.18
664.733	9.26
665.062	9.24
665.39	9.26
665.719	9.08
666.048	9.06
666.376	9.09
666.705	9.11
667.033	9.06
667.362	9.05
667.69	9.07
668.018	9.06
668.347	8.99
668.675	9.01
669.003	9.02
669.331	9.05
669.659	9
669.987	8.9
670.315	8.95
670.643	9.01
670.971	8.96
671.299	9
671.627	9
671.955	9.04
672.283	9
672.61	8.94
672.938	8.94
673.266	9.03
673.593	9.1
673.921	9.05
674.249	9.01
674.576	8.93
674.904	9
675.231	9.03
675.558	8.98
675.886	9.03
676.213	9.07
676.54	9.06
676.867	9.23
677.195	9.22
677.522	9.25
677.849	9.27
678.176	9.27
