Data from BA57758_Reflection_00008.txt Node
Date: Mon Nov 18 15:11:37 EST 2019
User: vgr7
Spectrometer: USB2G7710
Scans to average: 3
Trigger mode: 4
Integration Time (sec): 2.000000E-2
Electric dark correction enabled: true
Boxcar width: 10
XAxis mode: Wavelengths
Number of Pixels in Spectrum: 2048
>>>>>Begin Spectral Data<<<<<
177.721	-1001.21
178.105	-110.76
178.488	-103.89
178.871	45.43
179.254	205.54
179.636	-133.05
180.019	-890.1
180.402	-380
180.785	193.31
181.168	125.82
181.55	119.12
181.933	134.98
182.316	145.02
182.698	229.21
183.081	264.02
183.463	511.91
183.846	615.22
184.228	222.89
184.611	285.47
184.993	189.89
185.376	189.81
185.758	186.96
186.14	184.35
186.522	165.46
186.904	178.69
187.287	196.6
187.669	233.24
188.051	279.02
188.433	211.03
188.815	174.01
189.197	196.13
189.579	239.86
189.961	130.47
190.342	135.34
190.724	-80.09
191.106	-275.69
191.488	-502.74
191.869	399.65
192.251	162.69
192.633	193.02
193.014	118.25
193.396	10.14
193.777	-5.26
194.159	-0.87
194.54	60.28
194.922	87.59
195.303	89.33
195.684	52.07
196.065	82.23
196.447	69.21
196.828	58.76
197.209	60.38
197.59	57.67
197.971	40.64
198.352	55.16
198.733	41.77
199.114	48.19
199.495	69.16
199.876	88.31
200.257	71.34
200.638	76.71
201.018	67.89
201.399	64.35
201.78	51.96
202.16	53.87
202.541	41.91
202.922	27.96
203.302	30.27
203.683	80.38
204.063	58.7
204.444	67.92
204.824	60.93
205.204	65.35
205.585	96.03
205.965	68.35
206.345	-28.74
206.725	-32.17
207.106	-234.19
207.486	-327.29
207.866	-412.65
208.246	-966.15
208.626	-1058.37
209.006	-253.1
209.386	7220
209.766	-294
210.145	-165.06
210.525	-101.89
210.905	3.81
211.285	-9.41
211.664	-19.81
212.044	-15.24
212.424	-17.79
212.803	-22.55
213.183	-20.66
213.562	-27.27
213.942	-16.07
214.321	-0.79
214.701	2.98
215.08	11.8
215.459	25.82
215.838	35.32
216.218	31.34
216.597	36.04
216.976	49.97
217.355	47.81
217.734	58.57
218.113	59.08
218.492	54.34
218.871	50.27
219.25	72.51
219.629	83.64
220.008	85.88
220.387	83.27
220.766	102.68
221.144	92.54
221.523	81.75
221.902	91.1
222.28	76.18
222.659	84.28
223.037	77.94
223.416	56.25
223.794	36.27
224.173	33.6
224.551	33.48
224.929	21.81
225.308	23.22
225.686	24.75
226.064	22.52
226.442	19.53
226.821	23.86
227.199	13.94
227.577	12.77
227.955	12.99
228.333	12.67
228.711	10.55
229.089	12.31
229.467	11.74
229.845	12.67
230.222	11.22
230.6	9.08
230.978	12.51
231.356	14.3
231.733	11.86
232.111	10.67
232.488	8.79
232.866	7.83
233.243	6.01
233.621	4.36
233.998	4.72
234.376	2.95
234.753	3.19
235.13	4.37
235.508	5.77
235.885	5.47
236.262	5.55
236.639	6.2
237.016	5.25
237.393	6.74
237.77	7.01
238.147	7.07
238.524	6.83
238.901	6.06
239.278	6.11
239.655	7.66
240.032	8.53
240.409	8.74
240.785	8.48
241.162	8.67
241.539	8.24
241.915	7.86
242.292	7.5
242.668	7.31
243.045	7.41
243.421	7.42
243.798	6.63
244.174	6.52
244.551	6.21
244.927	6.25
245.303	6.32
245.679	6.22
246.056	6.09
246.432	6.04
246.808	5.9
247.184	5.51
247.56	5.21
247.936	5.31
248.312	5.17
248.688	5.46
249.064	5.41
249.44	5.5
249.815	5.57
250.191	5.69
250.567	5.77
250.943	5.5
251.318	5.6
251.694	5.59
252.069	5.44
252.445	5.65
252.82	5.69
253.196	5.46
253.571	5.63
253.947	5.49
254.322	5.6
254.697	5.31
255.073	5.4
255.448	5.49
255.823	4.91
256.198	4.89
256.573	4.71
256.948	4.6
257.323	4.45
257.698	4.51
258.073	4.45
258.448	4.21
258.823	4.32
259.198	3.99
259.573	4.07
259.948	4.22
260.322	4.19
260.697	4.29
261.072	4.34
261.446	4.19
261.821	4.15
262.195	4.05
262.57	4.13
262.944	4.04
263.319	3.95
263.693	3.96
264.067	3.95
264.442	4.02
264.816	4.02
265.19	4.02
265.564	3.9
265.938	3.72
266.313	3.72
266.687	3.59
267.061	3.79
267.435	3.76
267.809	3.64
268.183	3.64
268.556	3.44
268.93	3.31
269.304	3.39
269.678	3.66
270.051	3.6
270.425	3.62
270.799	3.65
271.172	3.64
271.546	3.67
271.919	3.65
272.293	3.46
272.666	3.5
273.04	3.46
273.413	3.49
273.787	3.61
274.16	3.58
274.533	3.54
274.906	3.4
275.279	3.45
275.653	3.52
276.026	3.57
276.399	3.52
276.772	3.56
277.145	3.29
277.518	3.06
277.891	3.13
278.263	3.05
278.636	3.13
279.009	3.03
279.382	3.12
279.755	3.04
280.127	3.36
280.5	3.38
280.872	3.49
281.245	3.4
281.617	3.5
281.99	3.61
282.362	3.81
282.735	3.66
283.107	3.7
283.479	3.78
283.852	3.81
284.224	3.87
284.596	3.86
284.968	3.98
285.34	4.1
285.713	4.12
286.085	4.11
286.457	4.36
286.829	4.53
287.201	4.48
287.572	4.45
287.944	4.24
288.316	4.11
288.688	4.01
289.06	4.11
289.431	4.1
289.803	4.18
290.175	4.09
290.546	4.31
290.918	4.31
291.289	4.2
291.661	4.15
292.032	4.19
292.403	4.25
292.775	4.36
293.146	4.32
293.517	4.28
293.889	4.43
294.26	4.17
294.631	4.21
295.002	4.2
295.373	4.27
295.744	4.35
296.115	4.4
296.486	4.31
296.857	4.23
297.228	4.33
297.599	4.21
297.97	4.34
298.34	4.31
298.711	4.4
299.082	4.52
299.452	4.54
299.823	4.59
300.194	4.58
300.564	4.49
300.935	4.61
301.305	4.72
301.676	4.79
302.046	4.91
302.416	5.05
302.787	5.28
303.157	5.21
303.527	5.28
303.897	5.45
304.267	5.93
304.637	6.06
305.008	6.05
305.378	6.17
305.748	6.15
306.117	6.29
306.487	6.47
306.857	6.42
307.227	6.59
307.597	6.68
307.967	6.84
308.336	6.96
308.706	6.94
309.076	7.02
309.445	6.89
309.815	6.9
310.184	6.75
310.554	6.71
310.923	6.86
311.293	6.88
311.662	7.06
312.031	6.93
312.401	6.95
312.77	7.1
313.139	7.18
313.508	7.25
313.877	7.24
314.246	7.09
314.616	7.1
314.985	6.98
315.353	6.96
315.722	7.12
316.091	7.21
316.46	7.33
316.829	7.27
317.198	7.51
317.567	7.63
317.935	7.72
318.304	7.79
318.672	7.81
319.041	8.01
319.41	7.97
319.778	8.09
320.147	8.31
320.515	8.22
320.883	8.2
321.252	8.22
321.62	8.37
321.988	8.47
322.357	8.54
322.725	8.86
323.093	8.99
323.461	8.82
323.829	8.92
324.197	8.93
324.565	9.1
324.933	9
325.301	9.08
325.669	9.16
326.037	9.22
326.405	9.51
326.772	9.76
327.14	9.71
327.508	9.74
327.875	9.6
328.243	9.65
328.61	9.74
328.978	9.92
329.346	10.03
329.713	9.98
330.08	10.14
330.448	10.04
330.815	10.02
331.182	10.22
331.55	10.23
331.917	10.32
332.284	10.28
332.651	10.5
333.018	10.57
333.385	10.61
333.752	10.71
334.119	10.68
334.486	10.37
334.853	10.44
335.22	10.51
335.587	10.68
335.954	10.71
336.32	10.74
336.687	10.58
337.054	10.61
337.42	10.73
337.787	10.65
338.153	10.69
338.52	10.73
338.886	10.66
339.253	10.68
339.619	10.77
339.986	10.92
340.352	10.89
340.718	10.86
341.084	10.85
341.451	10.76
341.817	10.76
342.183	10.82
342.549	10.87
342.915	10.91
343.281	10.81
343.647	10.98
344.013	11.03
344.379	11.05
344.745	10.98
345.11	10.99
345.476	11.13
345.842	11.08
346.208	11.07
346.573	11.14
346.939	11.18
347.304	11.11
347.67	11.05
348.035	11.02
348.401	11.08
348.766	11.14
349.132	11.27
349.497	11.23
349.862	11.42
350.228	11.42
350.593	11.44
350.958	11.47
351.323	11.31
351.688	11.2
352.053	11.34
352.418	11.45
352.783	11.58
353.148	11.54
353.513	11.57
353.878	11.61
354.243	11.6
354.608	11.53
354.972	11.51
355.337	11.5
355.702	11.5
356.066	11.38
356.431	11.43
356.795	11.36
357.16	11.29
357.524	11.13
357.889	11.1
358.253	10.98
358.618	11.03
358.982	10.92
359.346	10.92
359.71	10.88
360.075	10.76
360.439	10.66
360.803	10.67
361.167	10.58
361.531	10.56
361.895	10.49
362.259	10.44
362.623	10.4
362.987	10.32
363.351	10.27
363.714	10.32
364.078	10.2
364.442	10.14
364.806	10.07
365.169	10.02
365.533	9.93
365.896	9.86
366.26	9.76
366.623	9.71
366.987	9.63
367.35	9.44
367.714	9.42
368.077	9.29
368.44	9.14
368.803	9.07
369.167	8.88
369.53	8.8
369.893	8.8
370.256	8.73
370.619	8.73
370.982	8.64
371.345	8.42
371.708	8.35
372.071	8.2
372.434	8.12
372.797	8.04
373.159	7.96
373.522	7.93
373.885	7.9
374.247	7.94
374.61	7.92
374.973	7.89
375.335	7.76
375.698	7.76
376.06	7.71
376.423	7.64
376.785	7.63
377.147	7.55
377.51	7.46
377.872	7.4
378.234	7.32
378.596	7.33
378.958	7.29
379.321	7.23
379.683	7.27
380.045	7.25
380.407	7.19
380.769	7.2
381.13	7.13
381.492	7.05
381.854	6.97
382.216	6.91
382.578	6.86
382.939	6.8
383.301	6.72
383.663	6.61
384.024	6.6
384.386	6.57
384.747	6.56
385.109	6.47
385.47	6.42
385.832	6.39
386.193	6.33
386.554	6.31
386.916	6.25
387.277	6.14
387.638	6.09
387.999	6.04
388.36	5.97
388.721	5.93
389.082	5.85
389.443	5.79
389.804	5.75
390.165	5.73
390.526	5.69
390.887	5.64
391.248	5.7
391.609	5.66
391.969	5.6
392.33	5.52
392.691	5.5
393.051	5.49
393.412	5.42
393.772	5.35
394.133	5.31
394.493	5.27
394.854	5.25
395.214	5.22
395.574	5.17
395.935	5.11
396.295	5.05
396.655	4.98
397.015	4.92
397.376	4.86
397.736	4.81
398.096	4.76
398.456	4.73
398.816	4.65
399.176	4.56
399.535	4.55
399.895	4.55
400.255	4.55
400.615	4.49
400.975	4.48
401.334	4.45
401.694	4.41
402.054	4.36
402.413	4.31
402.773	4.25
403.132	4.23
403.492	4.21
403.851	4.16
404.211	4.2
404.57	4.17
404.929	4.17
405.288	4.15
405.648	4.11
406.007	4.09
406.366	4.07
406.725	4.08
407.084	4.05
407.443	4.03
407.802	4.02
408.161	4.01
408.52	3.99
408.879	3.95
409.238	3.91
409.596	3.91
409.955	3.9
410.314	3.9
410.673	3.88
411.031	3.86
411.39	3.88
411.748	3.86
412.107	3.85
412.465	3.8
412.824	3.74
413.182	3.75
413.54	3.75
413.899	3.74
414.257	3.73
414.615	3.71
414.974	3.68
415.332	3.63
415.69	3.58
416.048	3.52
416.406	3.52
416.764	3.51
417.122	3.49
417.48	3.45
417.838	3.45
418.195	3.41
418.553	3.39
418.911	3.36
419.269	3.35
419.626	3.34
419.984	3.31
420.342	3.32
420.699	3.3
421.057	3.27
421.414	3.23
421.772	3.2
422.129	3.17
422.486	3.15
422.844	3.13
423.201	3.11
423.558	3.11
423.915	3.09
424.273	3.08
424.63	3.07
424.987	3.07
425.344	3.06
425.701	3.06
426.058	3.05
426.415	3.04
426.772	3.02
427.128	3
427.485	3.01
427.842	3
428.199	3
428.555	2.99
428.912	3.01
429.269	3.03
429.625	3.03
429.982	3.03
430.338	3.03
430.695	3.04
431.051	3.03
431.407	3.03
431.764	3.02
432.12	3.01
432.476	2.99
432.832	2.97
433.189	2.95
433.545	2.96
433.901	2.96
434.257	2.97
434.613	2.98
434.969	2.97
435.325	2.97
435.681	2.98
436.036	2.98
436.392	2.99
436.748	2.97
437.104	2.97
437.459	2.98
437.815	2.97
438.171	2.96
438.526	2.97
438.882	2.97
439.237	2.98
439.593	2.98
439.948	2.98
440.304	2.98
440.659	2.97
441.014	2.97
441.369	2.96
441.725	2.94
442.08	2.93
442.435	2.93
442.79	2.92
443.145	2.9
443.5	2.9
443.855	2.89
444.21	2.89
444.565	2.88
444.92	2.88
445.275	2.88
445.629	2.87
445.984	2.85
446.339	2.84
446.693	2.83
447.048	2.81
447.403	2.79
447.757	2.79
448.112	2.8
448.466	2.8
448.82	2.79
449.175	2.79
449.529	2.78
449.883	2.76
450.238	2.73
450.592	2.74
450.946	2.72
451.3	2.71
451.654	2.71
452.008	2.69
452.362	2.67
452.716	2.65
453.07	2.65
453.424	2.66
453.778	2.66
454.132	2.64
454.486	2.64
454.839	2.66
455.193	2.66
455.547	2.66
455.9	2.65
456.254	2.66
456.607	2.68
456.961	2.68
457.314	2.69
457.668	2.71
458.021	2.7
458.375	2.69
458.728	2.7
459.081	2.7
459.434	2.7
459.787	2.7
460.141	2.72
460.494	2.73
460.847	2.75
461.2	2.75
461.553	2.76
461.906	2.78
462.259	2.78
462.611	2.79
462.964	2.8
463.317	2.8
463.67	2.8
464.022	2.79
464.375	2.81
464.728	2.82
465.08	2.83
465.433	2.85
465.785	2.86
466.138	2.86
466.49	2.87
466.843	2.88
467.195	2.9
467.547	2.91
467.899	2.91
468.252	2.9
468.604	2.93
468.956	2.93
469.308	2.93
469.66	2.94
470.012	2.93
470.364	2.93
470.716	2.95
471.068	2.96
471.42	2.99
471.772	2.99
472.123	3
472.475	3.03
472.827	3.04
473.178	3.05
473.53	3.04
473.882	3.04
474.233	3.05
474.585	3.04
474.936	3.03
475.288	3.04
475.639	3.03
475.99	3.01
476.342	3.02
476.693	3.03
477.044	3.04
477.395	3.04
477.746	3.03
478.097	3.03
478.448	3.01
478.8	2.99
479.15	2.96
479.501	2.95
479.852	2.91
480.203	2.9
480.554	2.91
480.905	2.91
481.255	2.9
481.606	2.91
481.957	2.9
482.307	2.91
482.658	2.91
483.009	2.9
483.359	2.91
483.709	2.9
484.06	2.9
484.41	2.91
484.761	2.91
485.111	2.91
485.461	2.91
485.811	2.92
486.162	2.92
486.512	2.93
486.862	2.95
487.212	2.95
487.562	2.95
487.912	2.96
488.262	2.97
488.612	2.97
488.961	2.98
489.311	2.99
489.661	2.99
490.011	3
490.36	3.01
490.71	3.03
491.06	3.04
491.409	3.05
491.759	3.05
492.108	3.07
492.458	3.09
492.807	3.1
493.157	3.11
493.506	3.12
493.855	3.12
494.204	3.12
494.554	3.16
494.903	3.18
495.252	3.19
495.601	3.19
495.95	3.22
496.299	3.25
496.648	3.27
496.997	3.3
497.346	3.32
497.695	3.38
498.043	3.4
498.392	3.43
498.741	3.47
499.09	3.51
499.438	3.55
499.787	3.59
500.135	3.64
500.484	3.67
500.832	3.74
501.181	3.81
501.529	3.86
501.878	3.92
502.226	3.98
502.574	4.04
502.923	4.12
503.271	4.18
503.619	4.25
503.967	4.33
504.315	4.4
504.663	4.49
505.011	4.57
505.359	4.64
505.707	4.73
506.055	4.8
506.403	4.88
506.751	4.95
507.098	5.03
507.446	5.12
507.794	5.24
508.141	5.31
508.489	5.41
508.837	5.52
509.184	5.62
509.531	5.71
509.879	5.82
510.226	5.92
510.574	6
510.921	6.1
511.268	6.21
511.616	6.33
511.963	6.44
512.31	6.54
512.657	6.68
513.004	6.81
513.351	6.96
513.698	7.1
514.045	7.23
514.392	7.37
514.739	7.53
515.086	7.66
515.432	7.79
515.779	7.91
516.126	8.06
516.473	8.21
516.819	8.37
517.166	8.49
517.512	8.62
517.859	8.77
518.205	8.9
518.552	9.03
518.898	9.16
519.245	9.27
519.591	9.4
519.937	9.53
520.283	9.67
520.629	9.82
520.976	9.99
521.322	10.18
521.668	10.34
522.014	10.53
522.36	10.72
522.706	10.95
523.052	11.17
523.398	11.39
523.743	11.61
524.089	11.82
524.435	12.03
524.781	12.27
525.126	12.48
525.472	12.67
525.817	12.85
526.163	13.02
526.509	13.17
526.854	13.33
527.199	13.46
527.545	13.59
527.89	13.73
528.235	13.88
528.581	14.01
528.926	14.18
529.271	14.35
529.616	14.5
529.961	14.66
530.306	14.83
530.651	14.99
530.996	15.18
531.341	15.37
531.686	15.57
532.031	15.75
532.376	15.95
532.721	16.17
533.065	16.39
533.41	16.62
533.755	16.86
534.099	17.1
534.444	17.37
534.788	17.62
535.133	17.84
535.477	18.09
535.822	18.36
536.166	18.63
536.51	18.91
536.855	19.19
537.199	19.51
537.543	19.83
537.887	20.18
538.231	20.52
538.576	20.83
538.92	21.16
539.264	21.49
539.608	21.8
539.951	22.06
540.295	22.32
540.639	22.57
540.983	22.85
541.327	23.12
541.671	23.35
542.014	23.6
542.358	23.86
542.701	24.1
543.045	24.33
543.389	24.59
543.732	24.83
544.075	25.08
544.419	25.32
544.762	25.58
545.105	25.84
545.449	26.12
545.792	26.43
546.135	26.76
546.478	27.08
546.821	27.39
547.165	27.75
547.508	28.1
547.851	28.42
548.194	28.73
548.536	29.07
548.879	29.45
549.222	29.8
549.565	30.16
549.908	30.48
550.25	30.84
550.593	31.16
550.936	31.52
551.278	31.89
551.621	32.25
551.963	32.58
552.306	32.89
552.648	33.16
552.991	33.53
553.333	33.79
553.675	34.07
554.017	34.38
554.36	34.65
554.702	34.99
555.044	35.3
555.386	35.56
555.728	35.84
556.07	36.11
556.412	36.4
556.754	36.67
557.096	36.92
557.438	37.24
557.78	37.54
558.121	37.78
558.463	38.04
558.805	38.23
559.147	38.56
559.488	38.85
559.83	39.15
560.171	39.36
560.513	39.63
560.854	39.87
561.196	40.16
561.537	40.38
561.878	40.52
562.22	40.69
562.561	40.94
562.902	41.13
563.243	41.31
563.584	41.52
563.925	41.69
564.266	41.92
564.607	42.07
564.948	42.23
565.289	42.4
565.63	42.61
565.971	42.79
566.312	42.92
566.653	43.1
566.993	43.28
567.334	43.46
567.675	43.68
568.015	43.85
568.356	44.02
568.696	44.22
569.037	44.45
569.377	44.66
569.718	44.81
570.058	44.96
570.398	45.07
570.739	45.17
571.079	45.34
571.419	45.43
571.759	45.58
572.099	45.72
572.439	45.86
572.779	45.98
573.119	46.13
573.459	46.26
573.799	46.36
574.139	46.45
574.479	46.56
574.819	46.64
575.158	46.78
575.498	46.9
575.838	46.98
576.177	47.07
576.517	47.16
576.856	47.22
577.196	47.35
577.535	47.52
577.875	47.71
578.214	47.81
578.553	47.99
578.893	48.1
579.232	48.27
579.571	48.41
579.91	48.56
580.25	48.7
580.589	48.77
580.928	48.88
581.267	49.02
581.606	49.12
581.945	49.19
582.283	49.23
582.622	49.24
582.961	49.27
583.3	49.37
583.639	49.45
583.977	49.55
584.316	49.64
584.654	49.74
584.993	49.78
585.332	49.84
585.67	49.93
586.008	50.01
586.347	49.97
586.685	50.07
587.024	50.13
587.362	50.14
587.7	50.24
588.038	50.33
588.376	50.4
588.715	50.41
589.053	50.45
589.391	50.49
589.729	50.63
590.067	50.74
590.404	50.75
590.742	50.84
591.08	50.93
591.418	50.92
591.756	51
592.093	51.02
592.431	51.12
592.769	51.15
593.106	51.19
593.444	51.27
593.781	51.33
594.119	51.33
594.456	51.42
594.793	51.45
595.131	51.46
595.468	51.46
595.805	51.52
596.143	51.57
596.48	51.65
596.817	51.63
597.154	51.63
597.491	51.75
597.828	51.83
598.165	51.86
598.502	51.92
598.839	51.92
599.176	51.99
599.512	52.01
599.849	52.06
600.186	52.13
600.523	52.14
600.859	52.1
601.196	52.23
601.532	52.22
601.869	52.32
602.205	52.38
602.542	52.45
602.878	52.49
603.215	52.55
603.551	52.59
603.887	52.65
604.223	52.72
604.56	52.73
604.896	52.78
605.232	52.83
605.568	52.85
605.904	52.87
606.24	52.93
606.576	52.91
606.912	52.96
607.248	52.96
607.583	53
607.919	53.04
608.255	52.98
608.591	53.09
608.926	53.04
609.262	53.06
609.597	53.11
609.933	53.17
610.268	53.15
610.604	53.13
610.939	53.14
611.275	53.12
611.61	53.11
611.945	53.01
612.281	53.02
612.616	53.08
612.951	53.18
613.286	53.22
613.621	53.32
613.956	53.32
614.291	53.35
614.626	53.38
614.961	53.4
615.296	53.46
615.631	53.52
615.966	53.61
616.3	53.71
616.635	53.74
616.97	53.73
617.304	53.77
617.639	53.82
617.973	53.86
618.308	53.99
618.642	54.03
618.977	54.11
619.311	54.22
619.646	54.19
619.98	54.21
620.314	54.16
620.648	54.19
620.983	54.2
621.317	54.28
621.651	54.37
621.985	54.5
622.319	54.49
622.653	54.43
622.987	54.41
623.321	54.35
623.655	54.3
623.988	54.32
624.322	54.34
624.656	54.32
624.99	54.33
625.323	54.27
625.657	54.3
625.99	54.3
626.324	54.24
626.657	54.29
626.991	54.23
627.324	54.27
627.658	54.28
627.991	54.36
628.324	54.39
628.657	54.33
628.991	54.28
629.324	54.31
629.657	54.37
629.99	54.41
630.323	54.44
630.656	54.46
630.989	54.49
631.322	54.48
631.655	54.55
631.987	54.64
632.32	54.66
632.653	54.66
632.986	54.67
633.318	54.71
633.651	54.77
633.984	54.82
634.316	54.79
634.649	54.72
634.981	54.7
635.313	54.67
635.646	54.75
635.978	54.75
636.31	54.73
636.643	54.67
636.975	54.71
637.307	54.76
637.639	54.82
637.971	54.89
638.303	55.01
638.635	54.98
638.967	54.9
639.299	54.93
639.631	54.93
639.963	54.93
640.295	54.91
640.626	54.87
640.958	54.92
641.29	54.99
641.621	55.12
641.953	55.08
642.285	55.13
642.616	55.07
642.948	55.16
643.279	55.21
643.61	55.24
643.942	55.22
644.273	55.23
644.604	55.22
644.936	55.05
645.267	55.03
645.598	54.98
645.929	55.03
646.26	55.03
646.591	55.01
646.922	54.99
647.253	55.02
647.584	55.01
647.915	55.03
648.245	55.08
648.576	55.04
648.907	55.13
649.238	55.1
649.568	55.14
649.899	55.14
650.229	55.2
650.56	55.32
650.89	55.34
651.221	55.44
651.551	55.41
651.882	55.54
652.212	55.5
652.542	55.55
652.872	55.57
653.203	55.6
653.533	55.76
653.863	55.89
654.193	55.87
654.523	55.9
654.853	55.93
655.183	55.84
655.513	55.86
655.843	55.87
656.172	55.8
656.502	55.79
656.832	55.82
657.162	55.77
657.491	55.7
657.821	55.63
658.15	55.51
658.48	55.5
658.809	55.54
659.139	55.67
659.468	55.71
659.798	55.71
660.127	55.73
660.456	55.65
660.785	55.57
661.115	55.58
661.444	55.61
661.773	55.5
662.102	55.58
662.431	55.57
662.76	55.5
663.089	55.65
663.418	55.7
663.747	55.67
664.076	55.73
664.404	55.67
664.733	55.79
665.062	55.88
665.39	56
665.719	55.91
666.048	55.81
