Data from BA57757_Reflection_00043.txt Node
Date: Mon Nov 18 15:02:48 EST 2019
User: vgr7
Spectrometer: USB2G7710
Scans to average: 3
Trigger mode: 4
Integration Time (sec): 2.000000E-2
Electric dark correction enabled: true
Boxcar width: 10
XAxis mode: Wavelengths
Number of Pixels in Spectrum: 2048
>>>>>Begin Spectral Data<<<<<
177.721	134.89
178.105	2.44
178.488	-393.72
178.871	-76.72
179.254	54.44
179.636	39.66
180.019	270.85
180.402	58.54
180.785	118.69
181.168	210.62
181.55	1030.23
181.933	81.09
182.316	99.07
182.698	75.64
183.081	57.74
183.463	48.4
183.846	25.97
184.228	-9.02
184.611	3.91
184.993	-17.82
185.376	72.74
185.758	33.22
186.14	-107.79
186.522	-234.19
186.904	-337.38
187.287	1017.43
187.669	-181.2
188.051	-145.92
188.433	-42.26
188.815	-7.06
189.197	10.49
189.579	34.87
189.961	23.49
190.342	31.5
190.724	33.32
191.106	21.61
191.488	5.79
191.869	0.2
192.251	-15.9
192.633	-10.92
193.014	3.94
193.396	-12.63
193.777	-9.26
194.159	9.45
194.54	22.77
194.922	27.33
195.303	13.54
195.684	14.8
196.065	13.01
196.447	17.24
196.828	9.25
197.209	3.44
197.59	-5.26
197.971	-5.52
198.352	2.23
198.733	-6.34
199.114	5.97
199.495	15.97
199.876	22.4
200.257	20.5
200.638	18.22
201.018	3.32
201.399	10.9
201.78	18.02
202.16	16.12
202.541	3.78
202.922	-0.58
203.302	-4.16
203.683	16.64
204.063	8.81
204.444	-21.13
204.824	-19.35
205.204	-10.25
205.585	-12.34
205.965	-29.67
206.345	-41.74
206.725	-34.24
207.106	-61.21
207.486	-62.43
207.866	-57.58
208.246	-53.6
208.626	-63.64
209.006	-31.24
209.386	-40.95
209.766	-44.09
210.145	-40.15
210.525	-32.91
210.905	-34.51
211.285	-28.41
211.664	-35.53
212.044	-29.12
212.424	-19.6
212.803	-14.64
213.183	-0.56
213.562	11.99
213.942	20.18
214.321	20.44
214.701	23.18
215.08	33.4
215.459	29.75
215.838	27.67
216.218	26.73
216.597	32.88
216.976	34.97
217.355	44.5
217.734	45.43
218.113	63.84
218.492	82.62
218.871	95.75
219.25	72.37
219.629	53.83
220.008	48.17
220.387	45.12
220.766	42.21
221.144	28.18
221.523	19.69
221.902	14.54
222.28	9.57
222.659	13.2
223.037	16.57
223.416	16.17
223.794	6.56
224.173	6.95
224.551	13.46
224.929	10.35
225.308	12.44
225.686	15.44
226.064	11.52
226.442	6.84
226.821	10.84
227.199	10.42
227.577	13.69
227.955	14.76
228.333	12.51
228.711	10.09
229.089	14.09
229.467	11.7
229.845	13.49
230.222	15.39
230.6	15.11
230.978	12.78
231.356	14.56
231.733	15.69
232.111	14.61
232.488	13.79
232.866	14.2
233.243	13.09
233.621	11.18
233.998	12.61
234.376	12.12
234.753	12.06
235.13	13.29
235.508	12.41
235.885	11.69
236.262	10.63
236.639	12.08
237.016	10.38
237.393	11.53
237.77	11.1
238.147	10.52
238.524	9.62
238.901	10.03
239.278	9.67
239.655	9.86
240.032	9.75
240.409	8.53
240.785	8.05
241.162	7.96
241.539	8.37
241.915	7.6
242.292	7.34
242.668	6.85
243.045	6.51
243.421	6.47
243.798	6.14
244.174	6.03
244.551	5.92
244.927	5.63
245.303	5.59
245.679	5.79
246.056	5.4
246.432	5.38
246.808	5.11
247.184	4.96
247.56	4.67
247.936	4.61
248.312	4.88
248.688	4.84
249.064	4.7
249.44	4.38
249.815	4.48
250.191	4.51
250.567	4.57
250.943	4.57
251.318	4.6
251.694	4.68
252.069	4.81
252.445	4.77
252.82	4.64
253.196	4.41
253.571	4.08
253.947	4.11
254.322	4.25
254.697	4.37
255.073	4.21
255.448	4.18
255.823	4.06
256.198	3.97
256.573	4.03
256.948	4.23
257.323	4.36
257.698	4.37
258.073	4.4
258.448	4.27
258.823	4.22
259.198	4.11
259.573	4.17
259.948	4.14
260.322	4.05
260.697	4.19
261.072	4.22
261.446	4.4
261.821	4.51
262.195	4.42
262.57	4.19
262.944	4.22
263.319	4.14
263.693	4.19
264.067	4.22
264.442	4.33
264.816	4.18
265.19	4.16
265.564	4.12
265.938	3.97
266.313	4
266.687	4.06
267.061	4.34
267.435	4.23
267.809	4.27
268.183	4.29
268.556	4.11
268.93	4.24
269.304	3.93
269.678	4.05
270.051	4.12
270.425	4.45
270.799	4.51
271.172	4.75
271.546	4.62
271.919	4.56
272.293	4.5
272.666	4.52
273.04	4.47
273.413	4.59
273.787	4.62
274.16	4.6
274.533	4.65
274.906	4.53
275.279	4.6
275.653	4.56
276.026	4.65
276.399	4.72
276.772	4.81
277.145	4.88
277.518	4.74
277.891	4.67
278.263	4.62
278.636	4.67
279.009	4.42
279.382	4.81
279.755	4.65
280.127	4.78
280.5	5.02
280.872	5.12
281.245	4.85
281.617	5.09
281.99	5.16
282.362	5.19
282.735	5.14
283.107	5.03
283.479	4.98
283.852	5.01
284.224	4.97
284.596	4.84
284.968	4.77
285.34	4.91
285.713	4.89
286.085	4.67
286.457	4.61
286.829	4.75
287.201	4.64
287.572	4.67
287.944	4.62
288.316	4.54
288.688	4.45
289.06	4.57
289.431	4.39
289.803	4.49
290.175	4.41
290.546	4.49
290.918	4.61
291.289	4.69
291.661	4.55
292.032	4.8
292.403	4.77
292.775	4.95
293.146	4.92
293.517	5.02
293.889	5.26
294.26	5.26
294.631	5.26
295.002	5.2
295.373	5.33
295.744	5.36
296.115	5.39
296.486	5.44
296.857	5.44
297.228	5.61
297.599	5.52
297.97	5.67
298.34	5.62
298.711	5.63
299.082	5.61
299.452	5.72
299.823	5.82
300.194	5.86
300.564	5.9
300.935	5.86
301.305	5.89
301.676	5.94
302.046	6.03
302.416	6.09
302.787	6.16
303.157	6.08
303.527	6.22
303.897	6.34
304.267	6.59
304.637	6.75
305.008	6.77
305.378	6.98
305.748	6.96
306.117	6.95
306.487	7.16
306.857	7.18
307.227	7.21
307.597	7.16
307.967	7.3
308.336	7.24
308.706	7.42
309.076	7.56
309.445	7.56
309.815	7.67
310.184	7.67
310.554	7.79
310.923	7.87
311.293	7.78
311.662	7.86
312.031	7.74
312.401	7.71
312.77	7.82
313.139	7.87
313.508	7.95
313.877	8.12
314.246	8.04
314.616	8.14
314.985	8.31
315.353	8.37
315.722	8.47
316.091	8.67
316.46	8.63
316.829	8.55
317.198	8.8
317.567	8.92
317.935	8.99
318.304	9.09
318.672	9.24
319.041	9.47
319.41	9.43
319.778	9.6
320.147	9.79
320.515	9.73
320.883	9.67
321.252	9.73
321.62	9.79
321.988	9.96
322.357	10.13
322.725	10.15
323.093	10.1
323.461	10.19
323.829	10.27
324.197	10.44
324.565	10.63
324.933	10.59
325.301	10.6
325.669	10.71
326.037	10.74
326.405	10.84
326.772	10.79
327.14	10.92
327.508	10.94
327.875	10.86
328.243	10.88
328.61	10.92
328.978	10.89
329.346	10.95
329.713	10.94
330.08	10.81
330.448	10.74
330.815	10.78
331.182	10.78
331.55	10.77
331.917	10.71
332.284	10.75
332.651	10.73
333.018	10.89
333.385	10.88
333.752	10.93
334.119	10.98
334.486	11
334.853	10.89
335.22	11.01
335.587	10.96
335.954	11.14
336.32	11.17
336.687	11.37
337.054	11.39
337.42	11.5
337.787	11.68
338.153	11.7
338.52	11.94
338.886	11.84
339.253	11.89
339.619	12.05
339.986	12.06
340.352	12.1
340.718	11.99
341.084	12.07
341.451	12.17
341.817	12.27
342.183	12.22
342.549	12.34
342.915	12.33
343.281	12.45
343.647	12.44
344.013	12.51
344.379	12.43
344.745	12.48
345.11	12.49
345.476	12.48
345.842	12.63
346.208	12.57
346.573	12.59
346.939	12.61
347.304	12.54
347.67	12.57
348.035	12.54
348.401	12.57
348.766	12.55
349.132	12.5
349.497	12.4
349.862	12.57
350.228	12.41
350.593	12.41
350.958	12.31
351.323	12.25
351.688	12.31
352.053	12.38
352.418	12.17
352.783	12.09
353.148	12.09
353.513	12.02
353.878	11.94
354.243	12.02
354.608	11.95
354.972	11.88
355.337	11.88
355.702	11.9
356.066	11.92
356.431	11.92
356.795	11.9
357.16	11.88
357.524	11.79
357.889	11.93
358.253	11.93
358.618	12.04
358.982	12.1
359.346	11.99
359.71	11.86
360.075	11.93
360.439	11.93
360.803	11.9
361.167	11.84
361.531	11.8
361.895	11.74
362.259	11.75
362.623	11.78
362.987	11.68
363.351	11.6
363.714	11.55
364.078	11.46
364.442	11.37
364.806	11.3
365.169	11.25
365.533	11.11
365.896	11.08
366.26	10.92
366.623	10.74
366.987	10.7
367.35	10.65
367.714	10.63
368.077	10.52
368.44	10.5
368.803	10.39
369.167	10.32
369.53	10.22
369.893	10.21
370.256	10.17
370.619	10.09
370.982	10.02
371.345	9.88
371.708	9.9
372.071	9.84
372.434	9.8
372.797	9.76
373.159	9.64
373.522	9.56
373.885	9.49
374.247	9.46
374.61	9.42
374.973	9.36
375.335	9.27
375.698	9.2
376.06	9.03
376.423	8.98
376.785	8.95
377.147	8.91
377.51	8.78
377.872	8.68
378.234	8.64
378.596	8.59
378.958	8.53
379.321	8.47
379.683	8.47
380.045	8.42
380.407	8.31
380.769	8.32
381.13	8.28
381.492	8.3
381.854	8.27
382.216	8.2
382.578	8.17
382.939	8.08
383.301	8.02
383.663	7.96
384.024	7.87
384.386	7.82
384.747	7.81
385.109	7.82
385.47	7.75
385.832	7.75
386.193	7.75
386.554	7.75
386.916	7.65
387.277	7.54
387.638	7.45
387.999	7.43
388.36	7.39
388.721	7.33
389.082	7.2
389.443	7.12
389.804	7.07
390.165	7
390.526	7.02
390.887	6.97
391.248	6.95
391.609	6.97
391.969	6.96
392.33	6.89
392.691	6.81
393.051	6.78
393.412	6.72
393.772	6.64
394.133	6.59
394.493	6.55
394.854	6.54
395.214	6.49
395.574	6.43
395.935	6.37
396.295	6.32
396.655	6.29
397.015	6.25
397.376	6.2
397.736	6.13
398.096	6.04
398.456	6
398.816	5.95
399.176	5.85
399.535	5.74
399.895	5.66
400.255	5.6
400.615	5.54
400.975	5.53
401.334	5.46
401.694	5.39
402.054	5.36
402.413	5.28
402.773	5.25
403.132	5.23
403.492	5.19
403.851	5.15
404.211	5.11
404.57	5.09
404.929	5.06
405.288	5.05
405.648	4.99
406.007	4.97
406.366	4.94
406.725	4.94
407.084	4.93
407.443	4.92
407.802	4.92
408.161	4.91
408.52	4.85
408.879	4.87
409.238	4.88
409.596	4.85
409.955	4.86
410.314	4.84
410.673	4.8
411.031	4.79
411.39	4.77
411.748	4.74
412.107	4.72
412.465	4.71
412.824	4.71
413.182	4.72
413.54	4.7
413.899	4.69
414.257	4.68
414.615	4.62
414.974	4.63
415.332	4.61
415.69	4.57
416.048	4.55
416.406	4.52
416.764	4.49
417.122	4.5
417.48	4.44
417.838	4.42
418.195	4.41
418.553	4.39
418.911	4.38
419.269	4.37
419.626	4.33
419.984	4.31
420.342	4.29
420.699	4.27
421.057	4.25
421.414	4.24
421.772	4.21
422.129	4.2
422.486	4.17
422.844	4.15
423.201	4.12
423.558	4.1
423.915	4.08
424.273	4.06
424.63	4.04
424.987	4.04
425.344	4.04
425.701	4.03
426.058	4.02
426.415	3.99
426.772	3.99
427.128	3.98
427.485	3.97
427.842	3.95
428.199	3.93
428.555	3.92
428.912	3.91
429.269	3.91
429.625	3.91
429.982	3.91
430.338	3.9
430.695	3.92
431.051	3.91
431.407	3.9
431.764	3.89
432.12	3.88
432.476	3.86
432.832	3.83
433.189	3.81
433.545	3.81
433.901	3.82
434.257	3.81
434.613	3.8
434.969	3.78
435.325	3.76
435.681	3.77
436.036	3.78
436.392	3.78
436.748	3.76
437.104	3.76
437.459	3.76
437.815	3.77
438.171	3.76
438.526	3.78
438.882	3.77
439.237	3.76
439.593	3.76
439.948	3.77
440.304	3.77
440.659	3.77
441.014	3.76
441.369	3.75
441.725	3.72
442.08	3.73
442.435	3.74
442.79	3.73
443.145	3.72
443.5	3.7
443.855	3.69
444.21	3.69
444.565	3.69
444.92	3.68
445.275	3.65
445.629	3.65
445.984	3.64
446.339	3.63
446.693	3.62
447.048	3.59
447.403	3.58
447.757	3.56
448.112	3.55
448.466	3.54
448.82	3.52
449.175	3.54
449.529	3.52
449.883	3.52
450.238	3.5
450.592	3.51
450.946	3.51
451.3	3.49
451.654	3.47
452.008	3.46
452.362	3.45
452.716	3.45
453.07	3.44
453.424	3.44
453.778	3.44
454.132	3.45
454.486	3.46
454.839	3.45
455.193	3.44
455.547	3.47
455.9	3.48
456.254	3.49
456.607	3.48
456.961	3.49
457.314	3.47
457.668	3.49
458.021	3.46
458.375	3.46
458.728	3.47
459.081	3.48
459.434	3.48
459.787	3.5
460.141	3.51
460.494	3.49
460.847	3.5
461.2	3.51
461.553	3.5
461.906	3.51
462.259	3.53
462.611	3.54
462.964	3.54
463.317	3.53
463.67	3.54
464.022	3.55
464.375	3.54
464.728	3.57
465.08	3.57
465.433	3.61
465.785	3.63
466.138	3.64
466.49	3.65
466.843	3.65
467.195	3.64
467.547	3.65
467.899	3.67
468.252	3.67
468.604	3.68
468.956	3.7
469.308	3.71
469.66	3.71
470.012	3.72
470.364	3.74
470.716	3.75
471.068	3.76
471.42	3.75
471.772	3.78
472.123	3.79
472.475	3.81
472.827	3.82
473.178	3.81
473.53	3.82
473.882	3.82
474.233	3.83
474.585	3.82
474.936	3.83
475.288	3.84
475.639	3.84
475.99	3.84
476.342	3.84
476.693	3.84
477.044	3.85
477.395	3.83
477.746	3.81
478.097	3.8
478.448	3.8
478.8	3.8
479.15	3.78
479.501	3.77
479.852	3.78
480.203	3.75
480.554	3.76
480.905	3.76
481.255	3.75
481.606	3.75
481.957	3.75
482.307	3.74
482.658	3.72
483.009	3.72
483.359	3.72
483.709	3.73
484.06	3.72
484.41	3.72
484.761	3.72
485.111	3.73
485.461	3.73
485.811	3.73
486.162	3.74
486.512	3.74
486.862	3.74
487.212	3.74
487.562	3.74
487.912	3.73
488.262	3.73
488.612	3.73
488.961	3.73
489.311	3.74
489.661	3.75
490.011	3.77
490.36	3.77
490.71	3.79
491.06	3.79
491.409	3.8
491.759	3.79
492.108	3.81
492.458	3.82
492.807	3.83
493.157	3.85
493.506	3.86
493.855	3.89
494.204	3.89
494.554	3.91
494.903	3.94
495.252	3.96
495.601	3.99
495.95	4.03
496.299	4.06
496.648	4.09
496.997	4.13
497.346	4.16
497.695	4.2
498.043	4.22
498.392	4.25
498.741	4.29
499.09	4.32
499.438	4.36
499.787	4.38
500.135	4.41
500.484	4.44
500.832	4.47
501.181	4.51
501.529	4.56
501.878	4.61
502.226	4.65
502.574	4.7
502.923	4.75
503.271	4.79
503.619	4.83
503.967	4.91
504.315	4.94
504.663	4.98
505.011	5.03
505.359	5.09
505.707	5.14
506.055	5.2
506.403	5.29
506.751	5.34
507.098	5.42
507.446	5.48
507.794	5.54
508.141	5.62
508.489	5.69
508.837	5.76
509.184	5.83
509.531	5.9
509.879	5.98
510.226	6.06
510.574	6.12
510.921	6.19
511.268	6.24
511.616	6.33
511.963	6.42
512.31	6.48
512.657	6.56
513.004	6.66
513.351	6.74
513.698	6.82
514.045	6.89
514.392	7
514.739	7.1
515.086	7.22
515.432	7.32
515.779	7.39
516.126	7.49
516.473	7.61
516.819	7.69
517.166	7.78
517.512	7.87
517.859	7.98
518.205	8.06
518.552	8.15
518.898	8.25
519.245	8.34
519.591	8.43
519.937	8.53
520.283	8.63
520.629	8.75
520.976	8.88
521.322	9.04
521.668	9.14
522.014	9.28
522.36	9.41
522.706	9.54
523.052	9.72
523.398	9.91
523.743	10.04
524.089	10.24
524.435	10.41
524.781	10.57
525.126	10.72
525.472	10.87
525.817	11
526.163	11.13
526.509	11.27
526.854	11.38
527.199	11.52
527.545	11.63
527.89	11.75
528.235	11.85
528.581	11.96
528.926	12.09
529.271	12.21
529.616	12.32
529.961	12.45
530.306	12.59
530.651	12.71
530.996	12.85
531.341	13
531.686	13.17
532.031	13.32
532.376	13.48
532.721	13.67
533.065	13.87
533.41	14.05
533.755	14.25
534.099	14.45
534.444	14.63
534.788	14.85
535.133	15.07
535.477	15.3
535.822	15.52
536.166	15.77
536.51	16.04
536.855	16.36
537.199	16.63
537.543	16.95
537.887	17.24
538.231	17.55
538.576	17.84
538.92	18.12
539.264	18.42
539.608	18.71
539.951	18.96
540.295	19.18
540.639	19.41
540.983	19.65
541.327	19.91
541.671	20.18
542.014	20.4
542.358	20.62
542.701	20.83
543.045	21.07
543.389	21.29
543.732	21.54
544.075	21.77
544.419	22.05
544.762	22.29
545.105	22.61
545.449	22.92
545.792	23.23
546.135	23.59
546.478	23.95
546.821	24.31
547.165	24.67
547.508	25.1
547.851	25.49
548.194	25.85
548.536	26.25
548.879	26.61
549.222	27
549.565	27.42
549.908	27.84
550.25	28.25
550.593	28.66
550.936	29.01
551.278	29.42
551.621	29.79
551.963	30.19
552.306	30.55
552.648	30.97
552.991	31.32
553.333	31.61
553.675	31.91
554.017	32.28
554.36	32.62
554.702	32.95
555.044	33.33
555.386	33.71
555.728	34.05
556.07	34.41
556.412	34.69
556.754	34.97
557.096	35.36
557.438	35.7
557.78	36.04
558.121	36.46
558.463	36.81
558.805	37.16
559.147	37.46
559.488	37.77
559.83	38.09
560.171	38.38
560.513	38.75
560.854	39.03
561.196	39.33
561.537	39.66
561.878	39.97
562.22	40.23
562.561	40.53
562.902	40.82
563.243	41.08
563.584	41.42
563.925	41.74
564.266	41.98
564.607	42.29
564.948	42.58
565.289	42.83
565.63	43.08
565.971	43.35
566.312	43.58
566.653	43.86
566.993	44.07
567.334	44.37
567.675	44.59
568.015	44.91
568.356	45.13
568.696	45.34
569.037	45.56
569.377	45.83
569.718	46.03
570.058	46.26
570.398	46.51
570.739	46.75
571.079	46.95
571.419	47.2
571.759	47.36
572.099	47.53
572.439	47.7
572.779	47.88
573.119	48.07
573.459	48.24
573.799	48.37
574.139	48.52
574.479	48.69
574.819	48.82
575.158	49.02
575.498	49.18
575.838	49.35
576.177	49.52
576.517	49.66
576.856	49.88
577.196	50.08
577.535	50.21
577.875	50.4
578.214	50.57
578.553	50.64
578.893	50.79
579.232	50.94
579.571	51.17
579.91	51.37
580.25	51.56
580.589	51.72
580.928	51.9
581.267	52.12
581.606	52.21
581.945	52.44
582.283	52.53
582.622	52.77
582.961	52.92
583.3	53.05
583.639	53.23
583.977	53.33
584.316	53.39
584.654	53.48
584.993	53.59
585.332	53.83
585.67	54.11
586.008	54.23
586.347	54.35
586.685	54.41
587.024	54.51
587.362	54.51
587.7	54.71
588.038	54.88
588.376	54.98
588.715	55.13
589.053	55.19
589.391	55.27
589.729	55.3
590.067	55.38
590.404	55.41
590.742	55.51
591.08	55.51
591.418	55.57
591.756	55.7
592.093	55.78
592.431	55.75
592.769	55.79
593.106	55.95
593.444	56.03
593.781	56.13
594.119	56.24
594.456	56.39
594.793	56.4
595.131	56.4
595.468	56.42
595.805	56.49
596.143	56.52
596.48	56.57
596.817	56.66
597.154	56.75
597.491	56.87
597.828	56.97
598.165	57.1
598.502	57.14
598.839	57.2
599.176	57.32
599.512	57.43
599.849	57.45
600.186	57.51
600.523	57.64
600.859	57.7
601.196	57.72
601.532	57.75
601.869	57.77
602.205	57.88
602.542	57.93
602.878	57.95
603.215	58.02
603.551	58.1
603.887	58.08
604.223	58.08
604.56	58.11
604.896	58.06
605.232	58.15
605.568	58.17
605.904	58.15
606.24	58.22
606.576	58.22
606.912	58.33
607.248	58.32
607.583	58.32
607.919	58.39
608.255	58.49
608.591	58.58
608.926	58.78
609.262	58.79
609.597	58.88
609.933	58.93
610.268	58.98
610.604	59.03
610.939	59.13
611.275	59.25
611.61	59.28
611.945	59.41
612.281	59.44
612.616	59.59
612.951	59.78
613.286	59.77
613.621	59.9
613.956	59.95
614.291	60.06
614.626	60.2
614.961	60.26
615.296	60.28
615.631	60.33
615.966	60.29
616.3	60.35
616.635	60.36
616.97	60.44
617.304	60.4
617.639	60.38
617.973	60.49
618.308	60.54
618.642	60.59
618.977	60.58
619.311	60.67
619.646	60.64
619.98	60.7
620.314	60.6
620.648	60.62
620.983	60.69
621.317	60.68
621.651	60.6
621.985	60.55
622.319	60.55
622.653	60.45
622.987	60.42
623.321	60.5
623.655	60.5
623.988	60.52
624.322	60.54
624.656	60.61
624.99	60.54
625.323	60.47
625.657	60.54
625.99	60.47
626.324	60.46
626.657	60.53
626.991	60.5
627.324	60.63
627.658	60.69
627.991	60.76
628.324	60.76
628.657	60.8
628.991	60.9
629.324	60.99
629.657	61.07
629.99	61.15
630.323	61.16
630.656	61.16
630.989	61.19
631.322	61.37
631.655	61.44
631.987	61.56
632.32	61.67
632.653	61.61
632.986	61.75
633.318	61.61
633.651	61.67
633.984	61.71
634.316	61.69
634.649	61.65
634.981	61.55
635.313	61.51
635.646	61.51
635.978	61.5
636.31	61.45
636.643	61.52
636.975	61.47
637.307	61.58
637.639	61.66
637.971	61.71
638.303	61.72
638.635	61.66
638.967	61.61
639.299	61.64
639.631	61.7
639.963	61.7
640.295	61.89
640.626	61.91
640.958	61.9
641.29	61.81
641.621	61.82
641.953	61.78
642.285	61.85
642.616	61.9
642.948	61.9
643.279	61.89
643.61	61.77
643.942	61.87
644.273	61.78
644.604	61.68
644.936	61.71
645.267	61.66
645.598	61.67
645.929	61.72
646.26	61.61
646.591	61.66
646.922	61.76
647.253	61.81
647.584	61.78
647.915	61.8
648.245	61.84
648.576	61.82
648.907	61.91
649.238	61.9
649.568	62
649.899	62.03
650.229	62.03
650.56	62.06
650.89	62.12
651.221	62.1
651.551	62.3
651.882	62.19
652.212	62.23
652.542	62.24
652.872	62.18
653.203	62.25
653.533	62.11
653.863	62.01
654.193	61.83
654.523	61.82
654.853	61.79
655.183	61.9
655.513	61.94
655.843	62.01
656.172	62.1
656.502	62.18
656.832	62.12
657.162	62.19
657.491	62.29
657.821	62.32
658.15	62.34
658.48	62.29
658.809	62.36
659.139	62.39
659.468	62.34
659.798	62.38
660.127	62.39
660.456	62.47
660.785	62.45
661.115	62.59
661.444	62.61
661.773	62.58
662.102	62.63
662.431	62.74
662.76	62.65
663.089	62.61
663.418	62.42
663.747	62.35
664.076	62.19
664.404	62.18
664.733	62.18
665.062	62.15
665.39	62.18
665.719	62.12
