Data from BA57663_Reflection_00008.txt Node
Date: Mon Nov 18 15:44:02 EST 2019
User: vgr7
Spectrometer: USB2G7710
Scans to average: 3
Trigger mode: 4
Integration Time (sec): 2.000000E-2
Electric dark correction enabled: true
Boxcar width: 10
XAxis mode: Wavelengths
Number of Pixels in Spectrum: 2048
>>>>>Begin Spectral Data<<<<<
177.721	304.47
178.105	7.51
178.488	-28.06
178.871	-138.84
179.254	-61.56
179.636	396.46
180.019	11.36
180.402	71.43
180.785	54.57
181.168	51.51
181.55	26.73
181.933	80.56
182.316	91.78
182.698	96.67
183.081	118.53
183.463	178.4
183.846	142.85
184.228	128.78
184.611	146.65
184.993	136.58
185.376	157.04
185.758	135.77
186.14	141.46
186.522	151.99
186.904	130.62
187.287	149.06
187.669	194.25
188.051	181.63
188.433	167.9
188.815	172.67
189.197	192.69
189.579	354.25
189.961	259.08
190.342	328.72
190.724	4353.52
191.106	2013.04
191.488	831.23
191.869	6137.74
192.251	3138.17
192.633	-3991.74
193.014	-1372.31
193.396	1372.73
193.777	822.99
194.159	1286.89
194.54	1048.81
194.922	-1864.5
195.303	-903.13
195.684	-277900
196.065	-407.41
196.447	-356.49
196.828	-345.37
197.209	-167.87
197.59	-210.8
197.971	-167.7
198.352	-156.67
198.733	-861.13
199.114	-1554.68
199.495	-494.46
199.876	-403.2
200.257	-102.6
200.638	16.78
201.018	-7.11
201.399	13.18
201.78	9.81
202.16	1.87
202.541	-129.59
202.922	-118.97
203.302	-178.84
203.683	-318.26
204.063	-415.46
204.444	-673.84
204.824	-1302.84
205.204	-671.08
205.585	-545.8
205.965	-525.95
206.345	-889.2
206.725	-534.73
207.106	-611.7
207.486	-1151.64
207.866	2091.19
208.246	1058.25
208.626	602.45
209.006	742.94
209.386	587.8
209.766	364.28
210.145	324.62
210.525	386.18
210.905	283.44
211.285	658.94
211.664	2009.5
212.044	838.82
212.424	5114.08
212.803	7904.88
213.183	888.51
213.562	559.2
213.942	10621.74
214.321	-1168.29
214.701	-476.99
215.08	-720.34
215.459	-1025.51
215.838	-270.01
216.218	-318.79
216.597	-137.48
216.976	-166.75
217.355	-332.37
217.734	-262.63
218.113	-136.57
218.492	-218.22
218.871	-176.96
219.25	-163.51
219.629	-185.71
220.008	-221.86
220.387	-189.27
220.766	-199.94
221.144	-618.04
221.523	-464.37
221.902	-749.32
222.28	-888.29
222.659	-1835.83
223.037	-805.31
223.416	-603.63
223.794	-410.95
224.173	-155.69
224.551	-77.72
224.929	-60.49
225.308	-31.23
225.686	-21.81
226.064	-20.8
226.442	-21.81
226.821	-14.25
227.199	-10.67
227.577	-9
227.955	-5.87
228.333	-7.14
228.711	-5.67
229.089	-2.14
229.467	-5.03
229.845	-5.14
230.222	-3.54
230.6	-3.65
230.978	-4.56
231.356	-2.61
231.733	-3.28
232.111	-2.64
232.488	-2.53
232.866	-0.97
233.243	-0.11
233.621	-0.02
233.998	0.86
234.376	0.68
234.753	-0.05
235.13	-0.02
235.508	0.11
235.885	-1.14
236.262	-0.71
236.639	-0.02
237.016	0.5
237.393	2.11
237.77	2.03
238.147	1.73
238.524	1.31
238.901	1.72
239.278	1.09
239.655	1.79
240.032	2.12
240.409	1.56
240.785	1.66
241.162	1.72
241.539	1.75
241.915	1.6
242.292	1.39
242.668	1.85
243.045	1.83
243.421	1.71
243.798	2.04
244.174	1.9
244.551	1.89
244.927	1.84
245.303	2.03
245.679	2.22
246.056	2
246.432	2.24
246.808	2.25
247.184	2.35
247.56	2.25
247.936	2.11
248.312	2.26
248.688	2.33
249.064	2.56
249.44	2.41
249.815	2.43
250.191	2.61
250.567	2.34
250.943	2.43
251.318	2.59
251.694	2.61
252.069	2.62
252.445	2.93
252.82	2.76
253.196	2.69
253.571	2.64
253.947	3.1
254.322	3.18
254.697	3.2
255.073	3.15
255.448	3.05
255.823	3.09
256.198	2.92
256.573	2.78
256.948	2.56
257.323	2.79
257.698	2.74
258.073	2.81
258.448	2.9
258.823	2.78
259.198	2.55
259.573	2.49
259.948	2.53
260.322	2.33
260.697	2.32
261.072	2.18
261.446	2.2
261.821	2.12
262.195	2.27
262.57	2.29
262.944	2.22
263.319	2.27
263.693	2.32
264.067	2.47
264.442	2.43
264.816	2.28
265.19	2.18
265.564	2.24
265.938	2.09
266.313	2.11
266.687	2.16
267.061	2.43
267.435	2.53
267.809	2.3
268.183	2.35
268.556	2.45
268.93	2.62
269.304	2.55
269.678	2.79
270.051	2.54
270.425	2.55
270.799	2.65
271.172	2.54
271.546	2.35
271.919	2.23
272.293	2.18
272.666	2.21
273.04	2.23
273.413	2.19
273.787	2.21
274.16	2.17
274.533	2.26
274.906	2.15
275.279	2.08
275.653	2.32
276.026	2.16
276.399	2
276.772	1.94
277.145	1.98
277.518	1.81
277.891	1.93
278.263	1.81
278.636	1.7
279.009	1.74
279.382	1.98
279.755	1.9
280.127	2.21
280.5	2.32
280.872	2.36
281.245	2.41
281.617	2.47
281.99	2.5
282.362	2.49
282.735	2.52
283.107	2.38
283.479	2.42
283.852	2.44
284.224	2.48
284.596	2.48
284.968	2.51
285.34	2.51
285.713	2.43
286.085	2.57
286.457	2.68
286.829	2.67
287.201	2.65
287.572	2.73
287.944	2.58
288.316	2.61
288.688	2.56
289.06	2.54
289.431	2.58
289.803	2.57
290.175	2.63
290.546	2.79
290.918	2.89
291.289	2.77
291.661	2.94
292.032	3.07
292.403	3.02
292.775	3.07
293.146	3.05
293.517	3.11
293.889	3.11
294.26	3.17
294.631	3.19
295.002	3.27
295.373	3.27
295.744	3.3
296.115	3.3
296.486	3.24
296.857	3.24
297.228	3.27
297.599	3.22
297.97	3.11
298.34	3.05
298.711	3.15
299.082	3.26
299.452	3.28
299.823	3.41
300.194	3.49
300.564	3.48
300.935	3.57
301.305	3.59
301.676	3.59
302.046	3.61
302.416	3.76
302.787	3.77
303.157	3.84
303.527	3.9
303.897	3.83
304.267	4.15
304.637	4.25
305.008	4.29
305.378	4.42
305.748	4.6
306.117	4.52
306.487	4.58
306.857	4.62
307.227	4.63
307.597	4.57
307.967	4.66
308.336	4.82
308.706	4.81
309.076	4.91
309.445	4.97
309.815	5.03
310.184	5.03
310.554	5.03
310.923	5.12
311.293	5.15
311.662	5.34
312.031	5.23
312.401	5.22
312.77	5.42
313.139	5.67
313.508	5.66
313.877	5.75
314.246	5.94
314.616	5.95
314.985	6.04
315.353	6.06
315.722	6.13
316.091	6.12
316.46	6.23
316.829	6.36
317.198	6.45
317.567	6.41
317.935	6.56
318.304	6.65
318.672	6.72
319.041	6.85
319.41	6.82
319.778	6.92
320.147	6.99
320.515	6.83
320.883	6.63
321.252	6.76
321.62	6.87
321.988	6.91
322.357	6.9
322.725	6.99
323.093	7.17
323.461	7.14
323.829	7.19
324.197	7.25
324.565	7.16
324.933	7.16
325.301	7.33
325.669	7.33
326.037	7.39
326.405	7.38
326.772	7.37
327.14	7.43
327.508	7.56
327.875	7.57
328.243	7.68
328.61	7.76
328.978	7.83
329.346	7.98
329.713	7.76
330.08	8.04
330.448	7.97
330.815	7.88
331.182	7.91
331.55	8.04
331.917	8.13
332.284	8.3
332.651	8.36
333.018	8.44
333.385	8.55
333.752	8.5
334.119	8.59
334.486	8.64
334.853	8.71
335.22	8.62
335.587	8.76
335.954	8.79
336.32	8.89
336.687	8.91
337.054	8.86
337.42	9.06
337.787	9.05
338.153	9.23
338.52	9.34
338.886	9.33
339.253	9.33
339.619	9.37
339.986	9.29
340.352	9.38
340.718	9.31
341.084	9.18
341.451	9.33
341.817	9.52
342.183	9.65
342.549	9.62
342.915	9.79
343.281	9.87
343.647	9.9
344.013	9.98
344.379	10.02
344.745	9.97
345.11	9.96
345.476	9.98
345.842	9.87
346.208	9.89
346.573	9.97
346.939	9.99
347.304	9.92
347.67	9.85
348.035	9.87
348.401	9.84
348.766	10.04
349.132	10.04
349.497	9.84
349.862	9.88
350.228	9.93
350.593	9.83
350.958	9.8
351.323	9.74
351.688	9.65
352.053	9.66
352.418	9.78
352.783	9.77
353.148	9.79
353.513	9.76
353.878	9.75
354.243	9.81
354.608	9.75
354.972	9.82
355.337	9.98
355.702	9.95
356.066	10.03
356.431	9.94
356.795	9.97
357.16	9.99
357.524	9.84
357.889	9.77
358.253	9.75
358.618	9.79
358.982	9.76
359.346	9.75
359.71	9.76
360.075	9.66
360.439	9.63
360.803	9.55
361.167	9.65
361.531	9.6
361.895	9.53
362.259	9.54
362.623	9.54
362.987	9.48
363.351	9.41
363.714	9.42
364.078	9.35
364.442	9.22
364.806	9.17
365.169	9.2
365.533	9.2
365.896	9.18
366.26	9.08
366.623	9.04
366.987	8.99
367.35	8.89
367.714	8.91
368.077	8.8
368.44	8.75
368.803	8.65
369.167	8.6
369.53	8.58
369.893	8.59
370.256	8.52
370.619	8.46
370.982	8.37
371.345	8.22
371.708	8.2
372.071	8.19
372.434	8.15
372.797	8.06
373.159	8.02
373.522	7.95
373.885	7.88
374.247	7.86
374.61	7.85
374.973	7.81
375.335	7.72
375.698	7.75
376.06	7.73
376.423	7.65
376.785	7.65
377.147	7.56
377.51	7.41
377.872	7.37
378.234	7.31
378.596	7.32
378.958	7.29
379.321	7.26
379.683	7.22
380.045	7.18
380.407	7.11
380.769	7.02
381.13	7.01
381.492	6.93
381.854	6.84
382.216	6.76
382.578	6.68
382.939	6.67
383.301	6.63
383.663	6.57
384.024	6.5
384.386	6.44
384.747	6.5
385.109	6.46
385.47	6.41
385.832	6.32
386.193	6.34
386.554	6.28
386.916	6.21
387.277	6.14
387.638	6.09
387.999	6.06
388.36	6
388.721	5.93
389.082	5.93
389.443	5.91
389.804	5.84
390.165	5.77
390.526	5.7
390.887	5.66
391.248	5.64
391.609	5.61
391.969	5.59
392.33	5.49
392.691	5.45
393.051	5.39
393.412	5.38
393.772	5.27
394.133	5.22
394.493	5.17
394.854	5.15
395.214	5.09
395.574	5.05
395.935	5.05
396.295	5.01
396.655	4.94
397.015	4.91
397.376	4.88
397.736	4.84
398.096	4.79
398.456	4.73
398.816	4.65
399.176	4.58
399.535	4.51
399.895	4.47
400.255	4.46
400.615	4.41
400.975	4.37
401.334	4.36
401.694	4.35
402.054	4.3
402.413	4.27
402.773	4.26
403.132	4.23
403.492	4.18
403.851	4.18
404.211	4.15
404.57	4.09
404.929	4.08
405.288	4.08
405.648	4.03
406.007	3.99
406.366	3.98
406.725	4
407.084	4.01
407.443	3.97
407.802	3.96
408.161	3.96
408.52	3.94
408.879	3.9
409.238	3.88
409.596	3.88
409.955	3.84
410.314	3.83
410.673	3.82
411.031	3.81
411.39	3.75
411.748	3.77
412.107	3.79
412.465	3.78
412.824	3.76
413.182	3.77
413.54	3.77
413.899	3.76
414.257	3.73
414.615	3.68
414.974	3.69
415.332	3.67
415.69	3.63
416.048	3.63
416.406	3.62
416.764	3.59
417.122	3.56
417.48	3.52
417.838	3.51
418.195	3.5
418.553	3.47
418.911	3.46
419.269	3.42
419.626	3.39
419.984	3.34
420.342	3.32
420.699	3.29
421.057	3.27
421.414	3.25
421.772	3.22
422.129	3.22
422.486	3.18
422.844	3.15
423.201	3.13
423.558	3.11
423.915	3.1
424.273	3.09
424.63	3.07
424.987	3.06
425.344	3.03
425.701	3.01
426.058	3.01
426.415	2.98
426.772	2.96
427.128	2.95
427.485	2.94
427.842	2.92
428.199	2.93
428.555	2.92
428.912	2.93
429.269	2.92
429.625	2.89
429.982	2.9
430.338	2.9
430.695	2.91
431.051	2.9
431.407	2.87
431.764	2.86
432.12	2.87
432.476	2.87
432.832	2.87
433.189	2.86
433.545	2.85
433.901	2.86
434.257	2.87
434.613	2.87
434.969	2.88
435.325	2.89
435.681	2.86
436.036	2.85
436.392	2.84
436.748	2.83
437.104	2.83
437.459	2.82
437.815	2.81
438.171	2.8
438.526	2.81
438.882	2.84
439.237	2.84
439.593	2.85
439.948	2.84
440.304	2.85
440.659	2.85
441.014	2.86
441.369	2.84
441.725	2.82
442.08	2.81
442.435	2.8
442.79	2.78
443.145	2.78
443.5	2.78
443.855	2.77
444.21	2.78
444.565	2.78
444.92	2.78
445.275	2.78
445.629	2.78
445.984	2.76
446.339	2.73
446.693	2.72
447.048	2.69
447.403	2.69
447.757	2.65
448.112	2.64
448.466	2.61
448.82	2.61
449.175	2.61
449.529	2.61
449.883	2.61
450.238	2.62
450.592	2.62
450.946	2.6
451.3	2.58
451.654	2.58
452.008	2.58
452.362	2.56
452.716	2.56
453.07	2.57
453.424	2.57
453.778	2.56
454.132	2.56
454.486	2.58
454.839	2.57
455.193	2.58
455.547	2.58
455.9	2.58
456.254	2.6
456.607	2.62
456.961	2.63
457.314	2.64
457.668	2.64
458.021	2.63
458.375	2.64
458.728	2.64
459.081	2.65
459.434	2.65
459.787	2.66
460.141	2.64
460.494	2.64
460.847	2.65
461.2	2.66
461.553	2.66
461.906	2.66
462.259	2.65
462.611	2.68
462.964	2.69
463.317	2.7
463.67	2.7
464.022	2.69
464.375	2.67
464.728	2.65
465.08	2.66
465.433	2.67
465.785	2.68
466.138	2.69
466.49	2.69
466.843	2.7
467.195	2.7
467.547	2.73
467.899	2.74
468.252	2.74
468.604	2.76
468.956	2.77
469.308	2.77
469.66	2.79
470.012	2.79
470.364	2.81
470.716	2.82
471.068	2.82
471.42	2.82
471.772	2.84
472.123	2.87
472.475	2.87
472.827	2.9
473.178	2.89
473.53	2.89
473.882	2.88
474.233	2.89
474.585	2.88
474.936	2.87
475.288	2.87
475.639	2.86
475.99	2.86
476.342	2.85
476.693	2.85
477.044	2.87
477.395	2.85
477.746	2.83
478.097	2.83
478.448	2.82
478.8	2.81
479.15	2.79
479.501	2.79
479.852	2.8
480.203	2.79
480.554	2.8
480.905	2.81
481.255	2.82
481.606	2.82
481.957	2.82
482.307	2.82
482.658	2.82
483.009	2.83
483.359	2.83
483.709	2.84
484.06	2.84
484.41	2.84
484.761	2.85
485.111	2.87
485.461	2.88
485.811	2.88
486.162	2.89
486.512	2.91
486.862	2.92
487.212	2.92
487.562	2.92
487.912	2.92
488.262	2.92
488.612	2.93
488.961	2.93
489.311	2.95
489.661	2.95
490.011	2.96
490.36	2.96
490.71	2.98
491.06	2.99
491.409	2.99
491.759	3.01
492.108	3.01
492.458	3.01
492.807	3.02
493.157	3.04
493.506	3.06
493.855	3.06
494.204	3.07
494.554	3.11
494.903	3.12
495.252	3.15
495.601	3.17
495.95	3.2
496.299	3.24
496.648	3.26
496.997	3.3
497.346	3.34
497.695	3.39
498.043	3.4
498.392	3.43
498.741	3.48
499.09	3.48
499.438	3.52
499.787	3.58
500.135	3.62
500.484	3.65
500.832	3.68
501.181	3.71
501.529	3.74
501.878	3.75
502.226	3.81
502.574	3.86
502.923	3.92
503.271	3.97
503.619	4.03
503.967	4.09
504.315	4.16
504.663	4.2
505.011	4.25
505.359	4.32
505.707	4.38
506.055	4.42
506.403	4.5
506.751	4.56
507.098	4.61
507.446	4.67
507.794	4.75
508.141	4.81
508.489	4.9
508.837	4.99
509.184	5.07
509.531	5.13
509.879	5.22
510.226	5.31
510.574	5.35
510.921	5.42
511.268	5.49
511.616	5.57
511.963	5.66
512.31	5.73
512.657	5.81
513.004	5.9
513.351	6.03
513.698	6.13
514.045	6.25
514.392	6.33
514.739	6.45
515.086	6.56
515.432	6.67
515.779	6.76
516.126	6.86
516.473	6.97
516.819	7.08
517.166	7.17
517.512	7.25
517.859	7.36
518.205	7.44
518.552	7.51
518.898	7.6
519.245	7.69
519.591	7.82
519.937	7.92
520.283	8.03
520.629	8.12
520.976	8.24
521.322	8.34
521.668	8.49
522.014	8.62
522.36	8.77
522.706	8.92
523.052	9.11
523.398	9.31
523.743	9.49
524.089	9.69
524.435	9.85
524.781	10.03
525.126	10.19
525.472	10.35
525.817	10.51
526.163	10.65
526.509	10.79
526.854	10.9
527.199	11.01
527.545	11.13
527.89	11.25
528.235	11.37
528.581	11.53
528.926	11.66
529.271	11.79
529.616	11.93
529.961	12.06
530.306	12.18
530.651	12.32
530.996	12.46
531.341	12.6
531.686	12.77
532.031	12.96
532.376	13.14
532.721	13.33
533.065	13.51
533.41	13.69
533.755	13.87
534.099	14.08
534.444	14.3
534.788	14.5
535.133	14.7
535.477	14.91
535.822	15.09
536.166	15.3
536.51	15.56
536.855	15.82
537.199	16.1
537.543	16.39
537.887	16.67
538.231	16.96
538.576	17.26
538.92	17.56
539.264	17.8
539.608	18.07
539.951	18.3
540.295	18.54
540.639	18.79
540.983	19.01
541.327	19.21
541.671	19.43
542.014	19.63
542.358	19.86
542.701	20.08
543.045	20.32
543.389	20.54
543.732	20.75
544.075	20.95
544.419	21.17
544.762	21.4
545.105	21.65
545.449	21.91
545.792	22.17
546.135	22.41
546.478	22.71
546.821	23.01
547.165	23.3
547.508	23.58
547.851	23.87
548.194	24.18
548.536	24.51
548.879	24.8
549.222	25.14
549.565	25.41
549.908	25.71
550.25	25.98
550.593	26.27
550.936	26.55
551.278	26.83
551.621	27.14
551.963	27.41
552.306	27.71
552.648	27.92
552.991	28.21
553.333	28.48
553.675	28.74
554.017	28.97
554.36	29.21
554.702	29.5
555.044	29.73
555.386	29.97
555.728	30.16
556.07	30.37
556.412	30.57
556.754	30.86
557.096	31.1
557.438	31.34
557.78	31.59
558.121	31.88
558.463	32.15
558.805	32.43
559.147	32.68
559.488	32.85
559.83	33.11
560.171	33.33
560.513	33.54
560.854	33.73
561.196	33.95
561.537	34.17
561.878	34.39
562.22	34.6
562.561	34.81
562.902	35.07
563.243	35.29
563.584	35.49
563.925	35.64
564.266	35.79
564.607	35.98
564.948	36.13
565.289	36.29
565.63	36.42
565.971	36.51
566.312	36.66
566.653	36.86
566.993	37.02
567.334	37.12
567.675	37.31
568.015	37.45
568.356	37.61
568.696	37.72
569.037	37.81
569.377	38.01
569.718	38.11
570.058	38.2
570.398	38.31
570.739	38.44
571.079	38.59
571.419	38.72
571.759	38.85
572.099	39
572.439	39.1
572.779	39.19
573.119	39.31
573.459	39.41
573.799	39.52
574.139	39.61
574.479	39.72
574.819	39.77
575.158	39.82
575.498	39.92
575.838	40.01
576.177	40.11
576.517	40.11
576.856	40.27
577.196	40.35
577.535	40.48
577.875	40.59
578.214	40.65
578.553	40.79
578.893	40.9
579.232	40.98
579.571	41.08
579.91	41.22
580.25	41.36
580.589	41.44
580.928	41.46
581.267	41.54
581.606	41.71
581.945	41.76
582.283	41.82
582.622	41.93
582.961	42.03
583.3	42.2
583.639	42.39
583.977	42.43
584.316	42.58
584.654	42.68
584.993	42.71
585.332	42.86
585.67	42.93
586.008	43.01
586.347	43.12
586.685	43.2
587.024	43.3
587.362	43.38
587.7	43.46
588.038	43.57
588.376	43.68
588.715	43.75
589.053	43.81
589.391	43.96
589.729	44.01
590.067	44.05
590.404	44.06
590.742	44.13
591.08	44.18
591.418	44.21
591.756	44.29
592.093	44.37
592.431	44.39
592.769	44.4
593.106	44.44
593.444	44.42
593.781	44.46
594.119	44.49
594.456	44.44
594.793	44.47
595.131	44.53
595.468	44.56
595.805	44.54
596.143	44.63
596.48	44.68
596.817	44.75
597.154	44.84
597.491	44.87
597.828	44.82
598.165	44.82
598.502	44.84
598.839	44.85
599.176	44.84
599.512	44.86
599.849	44.88
600.186	44.9
600.523	44.97
600.859	45.04
601.196	45.04
601.532	45.1
601.869	45.11
602.205	45.13
602.542	45.12
602.878	45.18
603.215	45.25
603.551	45.26
603.887	45.26
604.223	45.2
604.56	45.25
604.896	45.3
605.232	45.34
605.568	45.37
605.904	45.4
606.24	45.5
606.576	45.54
606.912	45.6
607.248	45.62
607.583	45.61
607.919	45.59
608.255	45.62
608.591	45.66
608.926	45.71
609.262	45.72
609.597	45.81
609.933	45.81
610.268	45.85
610.604	45.84
610.939	45.82
611.275	45.89
611.61	45.88
611.945	45.89
612.281	45.95
612.616	45.98
612.951	45.99
613.286	46.01
613.621	46
613.956	45.96
614.291	46
614.626	46.06
614.961	46.1
615.296	46.15
615.631	46.18
615.966	46.2
616.3	46.15
616.635	46.15
616.97	46.17
617.304	46.11
617.639	46.1
617.973	46.14
618.308	46.24
618.642	46.24
618.977	46.32
619.311	46.33
619.646	46.41
619.98	46.4
620.314	46.42
620.648	46.52
620.983	46.55
621.317	46.68
621.651	46.75
621.985	46.83
622.319	46.87
622.653	46.92
622.987	46.96
623.321	47.05
623.655	47.02
623.988	46.96
624.322	46.98
624.656	47.02
624.99	47.06
625.323	47.03
625.657	46.99
625.99	47.02
626.324	47.03
626.657	46.96
626.991	46.98
627.324	46.97
627.658	46.98
627.991	47.04
628.324	46.97
628.657	46.97
628.991	46.88
629.324	46.87
629.657	46.83
629.99	46.87
630.323	46.84
630.656	46.87
630.989	46.98
631.322	47.05
631.655	47.1
631.987	47.11
632.32	47.16
632.653	47.17
632.986	47.17
633.318	47.25
633.651	47.41
633.984	47.41
634.316	47.36
634.649	47.27
634.981	47.36
635.313	47.3
635.646	47.3
635.978	47.37
636.31	47.4
636.643	47.48
636.975	47.49
637.307	47.54
637.639	47.65
637.971	47.66
638.303	47.59
638.635	47.58
638.967	47.62
639.299	47.62
639.631	47.68
639.963	47.61
640.295	47.54
640.626	47.42
640.958	47.49
641.29	47.56
641.621	47.63
641.953	47.57
642.285	47.76
642.616	47.7
642.948	47.67
643.279	47.63
643.61	47.51
643.942	47.47
644.273	47.46
644.604	47.34
644.936	47.31
645.267	47.25
645.598	47.23
645.929	47.18
646.26	47.15
646.591	47.16
646.922	47.15
647.253	47.23
647.584	47.14
647.915	47.1
648.245	47.2
648.576	47.28
648.907	47.22
649.238	47.09
649.568	47.12
649.899	47.15
650.229	47.12
650.56	47.18
650.89	47.21
651.221	47.19
651.551	47.19
651.882	47.19
652.212	47.37
652.542	47.45
652.872	47.52
653.203	47.53
653.533	47.6
653.863	47.73
654.193	47.7
654.523	47.88
654.853	47.85
655.183	47.75
655.513	47.69
655.843	47.74
656.172	47.8
656.502	47.76
656.832	47.82
657.162	47.92
657.491	47.92
657.821	47.96
658.15	48.01
658.48	48.02
658.809	48.02
659.139	47.97
659.468	47.95
659.798	47.96
660.127	47.93
660.456	47.87
660.785	47.79
661.115	47.73
661.444	47.65
661.773	47.65
662.102	47.64
662.431	47.6
662.76	47.58
663.089	47.53
663.418	47.61
663.747	47.6
664.076	47.64
664.404	47.71
664.733	47.74
665.062	47.87
