Data from BA57730_Reflection_00013.txt Node
Date: Mon Nov 18 15:59:59 EST 2019
User: vgr7
Spectrometer: USB2G7710
Scans to average: 3
Trigger mode: 4
Integration Time (sec): 2.000000E-2
Electric dark correction enabled: true
Boxcar width: 10
XAxis mode: Wavelengths
Number of Pixels in Spectrum: 2048
>>>>>Begin Spectral Data<<<<<
177.721	-6709.52
178.105	511.76
178.488	647.33
178.871	317.95
179.254	145.27
179.636	201.01
180.019	26.71
180.402	79.07
180.785	5.98
181.168	8.05
181.55	41.18
181.933	205.45
182.316	130.63
182.698	157.09
183.081	141.73
183.463	136.09
183.846	121.7
184.228	211.11
184.611	365.12
184.993	582.52
185.376	441.61
185.758	233.64
186.14	160.05
186.522	189.92
186.904	102.23
187.287	108.16
187.669	154.26
188.051	78.85
188.433	587.18
188.815	61.37
189.197	28.35
189.579	71.43
189.961	63.7
190.342	75.74
190.724	11.56
191.106	-117.39
191.488	-160.5
191.869	-46.44
192.251	-103.54
192.633	2.65
193.014	6.47
193.396	538.6
193.777	-236.9
194.159	-305.71
194.54	-150.97
194.922	-100.75
195.303	-84.27
195.684	-168.14
196.065	-117.18
196.447	-133.6
196.828	-187.83
197.209	-226.6
197.59	-227.22
197.971	-261.4
198.352	-66.37
198.733	-112.28
199.114	-141.98
199.495	-201.31
199.876	-155.97
200.257	-233.33
200.638	-215.94
201.018	-150.5
201.399	-134.35
201.78	-144.04
202.16	-153.86
202.541	-384.72
202.922	657.25
203.302	583.44
203.683	-3334.78
204.063	384.05
204.444	228.61
204.824	209.41
205.204	833.33
205.585	1001.23
205.965	853.85
206.345	563.09
206.725	415.56
207.106	293.08
207.486	287.35
207.866	331.2
208.246	323.72
208.626	271.22
209.006	464.71
209.386	381.16
209.766	1033.88
210.145	-2791.89
210.525	-410.04
210.905	-184.92
211.285	-119.86
211.664	-100.64
212.044	-56.89
212.424	-53.92
212.803	-59.39
213.183	-51.36
213.562	-50.82
213.942	-39.2
214.321	-37.37
214.701	-40.98
215.08	-36.39
215.459	-26.08
215.838	-28.96
216.218	-23.48
216.597	-21.06
216.976	-9.1
217.355	3.43
217.734	1.71
218.113	-24.55
218.492	-20.68
218.871	-21.19
219.25	-22.83
219.629	-46.78
220.008	-60.8
220.387	-50.14
220.766	-32.64
221.144	-51.79
221.523	-60.1
221.902	-89.87
222.28	-105.31
222.659	-72.48
223.037	-57.89
223.416	-64.63
223.794	-75.45
224.173	-76.65
224.551	-57.83
224.929	-68.43
225.308	-44.67
225.686	-41.36
226.064	-36.97
226.442	-27.03
226.821	-18.97
227.199	-19.54
227.577	-21.34
227.955	-13.7
228.333	-15.36
228.711	-14.37
229.089	-8.45
229.467	-8.79
229.845	-9.09
230.222	-4.61
230.6	-3.4
230.978	-3.72
231.356	3.22
231.733	3.53
232.111	3.22
232.488	2.14
232.866	3.01
233.243	2.69
233.621	1.94
233.998	4.6
234.376	5.33
234.753	5.19
235.13	4.26
235.508	7.51
235.885	4.97
236.262	4.53
236.639	3.82
237.016	3
237.393	3.82
237.77	4.95
238.147	4.96
238.524	4.18
238.901	3.16
239.278	2.41
239.655	3.83
240.032	4.05
240.409	4.2
240.785	4.79
241.162	5.39
241.539	5.73
241.915	6.05
242.292	5.22
242.668	4.91
243.045	5.17
243.421	4.44
243.798	4.43
244.174	4.64
244.551	4.42
244.927	3.89
245.303	4.1
245.679	4.01
246.056	3.94
246.432	4
246.808	4.46
247.184	4.12
247.56	3.69
247.936	3.44
248.312	3.51
248.688	3.29
249.064	3.17
249.44	3.26
249.815	3.42
250.191	3.6
250.567	3.5
250.943	3.36
251.318	3.92
251.694	4.06
252.069	4.03
252.445	4.22
252.82	4.71
253.196	4.47
253.571	4.5
253.947	4.39
254.322	4.72
254.697	4.59
255.073	4.8
255.448	4.69
255.823	4.73
256.198	4.67
256.573	4.56
256.948	4.67
257.323	4.57
257.698	4.31
258.073	4.45
258.448	4.35
258.823	4.33
259.198	3.85
259.573	3.87
259.948	3.82
260.322	3.9
260.697	3.74
261.072	3.71
261.446	3.66
261.821	3.69
262.195	3.56
262.57	3.46
262.944	3.47
263.319	3.59
263.693	3.64
264.067	3.61
264.442	3.68
264.816	3.52
265.19	3.49
265.564	3.68
265.938	3.43
266.313	3.55
266.687	3.58
267.061	3.83
267.435	3.73
267.809	3.48
268.183	3.47
268.556	3.57
268.93	3.62
269.304	3.65
269.678	3.72
270.051	3.58
270.425	3.56
270.799	3.58
271.172	3.49
271.546	3.39
271.919	3.33
272.293	3.34
272.666	3.26
273.04	3.38
273.413	3.36
273.787	3.31
274.16	3.16
274.533	3.19
274.906	3.08
275.279	2.94
275.653	2.97
276.026	2.82
276.399	2.9
276.772	2.87
277.145	2.88
277.518	2.9
277.891	3.13
278.263	3.14
278.636	2.99
279.009	3.06
279.382	3.27
279.755	3.21
280.127	3.28
280.5	3.4
280.872	3.34
281.245	3.18
281.617	3.38
281.99	3.55
282.362	3.62
282.735	3.71
283.107	3.87
283.479	3.99
283.852	3.93
284.224	3.91
284.596	3.95
284.968	3.91
285.34	3.77
285.713	3.58
286.085	3.64
286.457	3.85
286.829	3.9
287.201	3.85
287.572	3.89
287.944	3.74
288.316	3.64
288.688	3.66
289.06	3.67
289.431	3.61
289.803	3.72
290.175	3.74
290.546	3.74
290.918	3.71
291.289	3.79
291.661	3.95
292.032	4.02
292.403	4.08
292.775	4.19
293.146	4.25
293.517	4.32
293.889	4.37
294.26	4.32
294.631	4.31
295.002	4.34
295.373	4.38
295.744	4.55
296.115	4.52
296.486	4.45
296.857	4.48
297.228	4.55
297.599	4.53
297.97	4.56
298.34	4.7
298.711	4.86
299.082	4.85
299.452	4.86
299.823	4.98
300.194	4.97
300.564	4.91
300.935	5.03
301.305	5.11
301.676	5.17
302.046	5.15
302.416	5.3
302.787	5.32
303.157	5.39
303.527	5.38
303.897	5.55
304.267	5.71
304.637	5.77
305.008	5.8
305.378	5.97
305.748	6.03
306.117	5.98
306.487	5.87
306.857	5.94
307.227	6.04
307.597	5.88
307.967	5.98
308.336	6.08
308.706	5.95
309.076	5.96
309.445	5.91
309.815	5.97
310.184	5.95
310.554	6.16
310.923	6.27
311.293	6.26
311.662	6.29
312.031	6.22
312.401	6.14
312.77	6.22
313.139	6.17
313.508	6.19
313.877	6.11
314.246	6.24
314.616	6.24
314.985	6.21
315.353	6.32
315.722	6.46
316.091	6.62
316.46	6.85
316.829	7.1
317.198	7.25
317.567	7.31
317.935	7.32
318.304	7.2
318.672	6.97
319.041	7.23
319.41	7.37
319.778	7.4
320.147	7.68
320.515	7.62
320.883	7.72
321.252	7.92
321.62	8.03
321.988	8.11
322.357	8.3
322.725	8.43
323.093	8.47
323.461	8.44
323.829	8.45
324.197	8.41
324.565	8.43
324.933	8.41
325.301	8.62
325.669	8.83
326.037	8.87
326.405	9.2
326.772	9.14
327.14	9.17
327.508	9.28
327.875	9.22
328.243	9.38
328.61	9.25
328.978	9.37
329.346	9.58
329.713	9.6
330.08	9.71
330.448	9.79
330.815	9.85
331.182	9.92
331.55	9.95
331.917	10.12
332.284	10.04
332.651	10.09
333.018	10
333.385	10.02
333.752	10.2
334.119	10.18
334.486	10.22
334.853	10.31
335.22	10.44
335.587	10.62
335.954	10.67
336.32	10.84
336.687	10.65
337.054	10.61
337.42	10.64
337.787	10.58
338.153	10.59
338.52	10.72
338.886	10.74
339.253	10.74
339.619	10.78
339.986	10.78
340.352	10.91
340.718	11.15
341.084	11.14
341.451	11.23
341.817	11.3
342.183	11.38
342.549	11.39
342.915	11.45
343.281	11.38
343.647	11.36
344.013	11.4
344.379	11.45
344.745	11.45
345.11	11.5
345.476	11.58
345.842	11.68
346.208	11.63
346.573	11.75
346.939	11.81
347.304	11.8
347.67	11.86
348.035	11.81
348.401	11.73
348.766	11.76
349.132	11.76
349.497	11.71
349.862	11.81
350.228	11.8
350.593	11.65
350.958	11.71
351.323	11.78
351.688	11.78
352.053	11.84
352.418	11.92
352.783	11.96
353.148	11.89
353.513	11.76
353.878	11.75
354.243	11.73
354.608	11.71
354.972	11.77
355.337	11.79
355.702	11.81
356.066	11.81
356.431	11.77
356.795	11.7
357.16	11.7
357.524	11.58
357.889	11.53
358.253	11.58
358.618	11.56
358.982	11.51
359.346	11.41
359.71	11.33
360.075	11.32
360.439	11.23
360.803	11.26
361.167	11.27
361.531	11.3
361.895	11.22
362.259	11.27
362.623	11.32
362.987	11.29
363.351	11.29
363.714	11.26
364.078	11.22
364.442	11.15
364.806	11.09
365.169	11.06
365.533	11.05
365.896	11.06
366.26	10.99
366.623	10.97
366.987	10.98
367.35	10.96
367.714	10.94
368.077	10.8
368.44	10.76
368.803	10.68
369.167	10.51
369.53	10.46
369.893	10.38
370.256	10.25
370.619	10.18
370.982	10.04
371.345	9.96
371.708	10
372.071	9.99
372.434	9.96
372.797	9.98
373.159	9.95
373.522	9.86
373.885	9.83
374.247	9.77
374.61	9.74
374.973	9.65
375.335	9.55
375.698	9.6
376.06	9.51
376.423	9.45
376.785	9.43
377.147	9.41
377.51	9.31
377.872	9.22
378.234	9.18
378.596	9.17
378.958	9.14
379.321	9.05
379.683	8.97
380.045	8.85
380.407	8.74
380.769	8.63
381.13	8.56
381.492	8.49
381.854	8.44
382.216	8.34
382.578	8.32
382.939	8.24
383.301	8.18
383.663	8.11
384.024	8.06
384.386	8.04
384.747	8
385.109	8.01
385.47	7.94
385.832	7.88
386.193	7.85
386.554	7.74
386.916	7.66
387.277	7.63
387.638	7.64
387.999	7.6
388.36	7.52
388.721	7.51
389.082	7.48
389.443	7.4
389.804	7.39
390.165	7.34
390.526	7.3
390.887	7.24
391.248	7.3
391.609	7.23
391.969	7.18
392.33	7.1
392.691	7.06
393.051	7.03
393.412	7
393.772	6.9
394.133	6.9
394.493	6.84
394.854	6.77
395.214	6.7
395.574	6.66
395.935	6.66
396.295	6.61
396.655	6.53
397.015	6.49
397.376	6.45
397.736	6.41
398.096	6.39
398.456	6.37
398.816	6.32
399.176	6.26
399.535	6.21
399.895	6.21
400.255	6.12
400.615	6.1
400.975	6.03
401.334	6.02
401.694	5.95
402.054	5.92
402.413	5.92
402.773	5.86
403.132	5.84
403.492	5.8
403.851	5.78
404.211	5.78
404.57	5.76
404.929	5.74
405.288	5.7
405.648	5.66
406.007	5.58
406.366	5.52
406.725	5.53
407.084	5.5
407.443	5.47
407.802	5.48
408.161	5.44
408.52	5.4
408.879	5.39
409.238	5.37
409.596	5.35
409.955	5.32
410.314	5.3
410.673	5.26
411.031	5.24
411.39	5.23
411.748	5.18
412.107	5.18
412.465	5.11
412.824	5.1
413.182	5.04
413.54	5.04
413.899	5.01
414.257	4.97
414.615	4.95
414.974	4.93
415.332	4.91
415.69	4.9
416.048	4.87
416.406	4.85
416.764	4.85
417.122	4.83
417.48	4.8
417.838	4.79
418.195	4.76
418.553	4.74
418.911	4.7
419.269	4.68
419.626	4.65
419.984	4.64
420.342	4.63
420.699	4.62
421.057	4.6
421.414	4.58
421.772	4.57
422.129	4.56
422.486	4.54
422.844	4.51
423.201	4.47
423.558	4.48
423.915	4.46
424.273	4.44
424.63	4.43
424.987	4.41
425.344	4.4
425.701	4.39
426.058	4.36
426.415	4.36
426.772	4.34
427.128	4.33
427.485	4.3
427.842	4.28
428.199	4.27
428.555	4.27
428.912	4.26
429.269	4.24
429.625	4.21
429.982	4.19
430.338	4.17
430.695	4.17
431.051	4.14
431.407	4.11
431.764	4.1
432.12	4.08
432.476	4.09
432.832	4.07
433.189	4.06
433.545	4.08
433.901	4.07
434.257	4.06
434.613	4.07
434.969	4.07
435.325	4.07
435.681	4.05
436.036	4.03
436.392	4.02
436.748	4.01
437.104	4.01
437.459	4.01
437.815	4
438.171	4
438.526	3.99
438.882	4.02
439.237	4.02
439.593	4.02
439.948	4
440.304	4
440.659	4
441.014	3.99
441.369	3.98
441.725	3.97
442.08	3.96
442.435	3.95
442.79	3.92
443.145	3.92
443.5	3.91
443.855	3.91
444.21	3.9
444.565	3.9
444.92	3.89
445.275	3.88
445.629	3.87
445.984	3.87
446.339	3.83
446.693	3.82
447.048	3.8
447.403	3.8
447.757	3.78
448.112	3.77
448.466	3.75
448.82	3.74
449.175	3.74
449.529	3.73
449.883	3.71
450.238	3.72
450.592	3.73
450.946	3.72
451.3	3.71
451.654	3.69
452.008	3.67
452.362	3.66
452.716	3.68
453.07	3.68
453.424	3.67
453.778	3.67
454.132	3.67
454.486	3.66
454.839	3.66
455.193	3.64
455.547	3.62
455.9	3.62
456.254	3.63
456.607	3.62
456.961	3.62
457.314	3.62
457.668	3.59
458.021	3.57
458.375	3.57
458.728	3.56
459.081	3.58
459.434	3.58
459.787	3.59
460.141	3.58
460.494	3.57
460.847	3.57
461.2	3.56
461.553	3.56
461.906	3.58
462.259	3.59
462.611	3.6
462.964	3.62
463.317	3.63
463.67	3.64
464.022	3.64
464.375	3.64
464.728	3.66
465.08	3.69
465.433	3.71
465.785	3.71
466.138	3.75
466.49	3.75
466.843	3.75
467.195	3.74
467.547	3.75
467.899	3.78
468.252	3.78
468.604	3.8
468.956	3.81
469.308	3.82
469.66	3.83
470.012	3.84
470.364	3.87
470.716	3.88
471.068	3.9
471.42	3.9
471.772	3.93
472.123	3.94
472.475	3.95
472.827	3.97
473.178	4
473.53	4.02
473.882	4.03
474.233	4.08
474.585	4.08
474.936	4.05
475.288	4.04
475.639	4.05
475.99	4.05
476.342	4.05
476.693	4.05
477.044	4.07
477.395	4.08
477.746	4.07
478.097	4.08
478.448	4.07
478.8	4.06
479.15	4.03
479.501	4.03
479.852	4.02
480.203	4
480.554	4
480.905	3.99
481.255	3.99
481.606	3.96
481.957	3.98
482.307	4
482.658	4.01
483.009	4
483.359	4
483.709	4.01
484.06	4.01
484.41	4.01
484.761	4.01
485.111	4
485.461	3.99
485.811	3.99
486.162	4
486.512	4.01
486.862	4.01
487.212	4
487.562	4.01
487.912	4.01
488.262	4
488.612	3.99
488.961	4.01
489.311	4.01
489.661	4
490.011	4
490.36	4.01
490.71	4.01
491.06	4.01
491.409	4.02
491.759	4.01
492.108	4
492.458	4.02
492.807	4.03
493.157	4.03
493.506	4.02
493.855	4.04
494.204	4.06
494.554	4.08
494.903	4.11
495.252	4.13
495.601	4.16
495.95	4.21
496.299	4.21
496.648	4.22
496.997	4.27
497.346	4.31
497.695	4.35
498.043	4.38
498.392	4.42
498.741	4.46
499.09	4.49
499.438	4.54
499.787	4.58
500.135	4.63
500.484	4.71
500.832	4.79
501.181	4.83
501.529	4.88
501.878	4.94
502.226	4.98
502.574	5.04
502.923	5.12
503.271	5.16
503.619	5.23
503.967	5.29
504.315	5.33
504.663	5.39
505.011	5.43
505.359	5.46
505.707	5.52
506.055	5.57
506.403	5.64
506.751	5.7
507.098	5.78
507.446	5.84
507.794	5.88
508.141	5.94
508.489	6
508.837	6.08
509.184	6.14
509.531	6.19
509.879	6.28
510.226	6.33
510.574	6.4
510.921	6.46
511.268	6.52
511.616	6.61
511.963	6.68
512.31	6.76
512.657	6.86
513.004	6.93
513.351	7.02
513.698	7.09
514.045	7.18
514.392	7.26
514.739	7.35
515.086	7.44
515.432	7.52
515.779	7.58
516.126	7.67
516.473	7.76
516.819	7.86
517.166	7.92
517.512	7.99
517.859	8.08
518.205	8.16
518.552	8.25
518.898	8.33
519.245	8.39
519.591	8.47
519.937	8.54
520.283	8.62
520.629	8.74
520.976	8.87
521.322	8.98
521.668	9.08
522.014	9.19
522.36	9.31
522.706	9.43
523.052	9.59
523.398	9.74
523.743	9.9
524.089	10.04
524.435	10.21
524.781	10.36
525.126	10.5
525.472	10.63
525.817	10.75
526.163	10.87
526.509	11
526.854	11.09
527.199	11.21
527.545	11.32
527.89	11.41
528.235	11.51
528.581	11.61
528.926	11.74
529.271	11.86
529.616	11.97
529.961	12.08
530.306	12.21
530.651	12.35
530.996	12.48
531.341	12.64
531.686	12.79
532.031	12.95
532.376	13.12
532.721	13.3
533.065	13.47
533.41	13.67
533.755	13.87
534.099	14.08
534.444	14.26
534.788	14.46
535.133	14.67
535.477	14.88
535.822	15.1
536.166	15.34
536.51	15.59
536.855	15.88
537.199	16.16
537.543	16.45
537.887	16.76
538.231	17.06
538.576	17.35
538.92	17.65
539.264	17.94
539.608	18.2
539.951	18.46
540.295	18.72
540.639	18.95
540.983	19.18
541.327	19.43
541.671	19.69
542.014	19.94
542.358	20.17
542.701	20.42
543.045	20.67
543.389	20.91
543.732	21.16
544.075	21.43
544.419	21.7
544.762	21.97
545.105	22.24
545.449	22.54
545.792	22.87
546.135	23.17
546.478	23.5
546.821	23.86
547.165	24.2
547.508	24.57
547.851	24.96
548.194	25.3
548.536	25.66
548.879	26.08
549.222	26.42
549.565	26.79
549.908	27.16
550.25	27.53
550.593	27.86
550.936	28.22
551.278	28.59
551.621	28.97
551.963	29.34
552.306	29.72
552.648	30.1
552.991	30.43
553.333	30.75
553.675	31.08
554.017	31.41
554.36	31.74
554.702	32.08
555.044	32.4
555.386	32.75
555.728	33.07
556.07	33.34
556.412	33.71
556.754	34.06
557.096	34.38
557.438	34.71
557.78	35.07
558.121	35.41
558.463	35.77
558.805	36.12
559.147	36.45
559.488	36.73
559.83	37
560.171	37.37
560.513	37.73
560.854	38.05
561.196	38.37
561.537	38.66
561.878	38.94
562.22	39.16
562.561	39.42
562.902	39.73
563.243	40.06
563.584	40.28
563.925	40.53
564.266	40.75
564.607	41
564.948	41.29
565.289	41.47
565.63	41.66
565.971	41.84
566.312	42.03
566.653	42.21
566.993	42.44
567.334	42.62
567.675	42.79
568.015	42.96
568.356	43.17
568.696	43.41
569.037	43.58
569.377	43.84
569.718	44.07
570.058	44.22
570.398	44.34
570.739	44.58
571.079	44.78
571.419	44.97
571.759	45.2
572.099	45.38
572.439	45.6
572.779	45.81
573.119	46.02
573.459	46.21
573.799	46.4
574.139	46.55
574.479	46.63
574.819	46.81
575.158	46.98
575.498	47.09
575.838	47.28
576.177	47.37
576.517	47.45
576.856	47.64
577.196	47.82
577.535	47.99
577.875	48.08
578.214	48.25
578.553	48.4
578.893	48.44
579.232	48.52
579.571	48.67
579.91	48.75
580.25	48.8
580.589	48.97
580.928	49.15
581.267	49.33
581.606	49.6
581.945	49.71
582.283	49.88
582.622	50.04
582.961	50.14
583.3	50.34
583.639	50.53
583.977	50.58
584.316	50.68
584.654	50.81
584.993	50.89
585.332	51.03
585.67	51.17
586.008	51.38
586.347	51.47
586.685	51.56
587.024	51.67
587.362	51.86
587.7	51.92
588.038	51.96
588.376	52.02
588.715	52.09
589.053	52.19
589.391	52.28
589.729	52.32
590.067	52.33
590.404	52.33
590.742	52.34
591.08	52.41
591.418	52.51
591.756	52.62
592.093	52.66
592.431	52.74
592.769	52.87
593.106	52.89
593.444	52.99
593.781	53
594.119	53.04
594.456	53.07
594.793	53.1
595.131	53.17
595.468	53.18
595.805	53.23
596.143	53.3
596.48	53.3
596.817	53.35
597.154	53.42
597.491	53.58
597.828	53.69
598.165	53.77
598.502	53.78
598.839	53.8
599.176	53.94
599.512	53.96
599.849	53.91
600.186	54.03
600.523	53.99
600.859	54.1
601.196	54.14
601.532	54.16
601.869	54.19
602.205	54.23
602.542	54.32
602.878	54.31
603.215	54.32
603.551	54.46
603.887	54.48
604.223	54.52
604.56	54.54
604.896	54.54
605.232	54.61
605.568	54.7
605.904	54.74
606.24	54.78
606.576	54.84
606.912	54.88
607.248	54.88
607.583	55
607.919	55.05
608.255	55.16
608.591	55.24
608.926	55.31
609.262	55.39
609.597	55.45
609.933	55.52
610.268	55.55
610.604	55.53
610.939	55.59
611.275	55.64
611.61	55.62
611.945	55.72
612.281	55.61
612.616	55.65
612.951	55.73
613.286	55.76
613.621	55.76
613.956	55.91
614.291	56.03
614.626	56.04
614.961	56.06
615.296	56.13
615.631	56.1
615.966	56.17
616.3	56.15
616.635	56.17
616.97	56.19
617.304	56.2
617.639	56.2
617.973	56.35
618.308	56.39
618.642	56.47
618.977	56.42
619.311	56.53
619.646	56.47
619.98	56.45
620.314	56.42
620.648	56.5
620.983	56.47
621.317	56.48
621.651	56.56
621.985	56.58
622.319	56.59
622.653	56.61
622.987	56.64
623.321	56.75
623.655	56.74
623.988	56.71
624.322	56.79
624.656	56.85
624.99	56.84
625.323	56.81
625.657	56.83
625.99	56.92
626.324	56.97
626.657	57.04
626.991	57.02
627.324	57.06
627.658	57.06
627.991	57.09
628.324	57.07
628.657	57.12
628.991	57.13
629.324	57.11
629.657	57.19
629.99	57.26
630.323	57.21
630.656	57.2
630.989	57.37
631.322	57.34
631.655	57.29
631.987	57.23
632.32	57.26
632.653	57.31
632.986	57.35
633.318	57.35
633.651	57.38
633.984	57.48
634.316	57.57
634.649	57.55
634.981	57.57
635.313	57.55
635.646	57.59
635.978	57.6
636.31	57.64
636.643	57.61
636.975	57.55
637.307	57.56
637.639	57.59
637.971	57.53
638.303	57.66
638.635	57.7
638.967	57.76
639.299	57.9
639.631	57.88
639.963	57.82
640.295	57.83
640.626	57.74
640.958	57.71
641.29	57.76
641.621	57.95
641.953	57.96
642.285	58.03
642.616	58.02
642.948	58.12
643.279	58.05
643.61	58.14
643.942	58.17
644.273	58.22
644.604	58.26
644.936	58.32
645.267	58.28
645.598	58.34
645.929	58.38
646.26	58.28
646.591	58.31
646.922	58.21
647.253	58.35
647.584	58.47
647.915	58.39
648.245	58.34
648.576	58.3
648.907	58.34
649.238	58.4
649.568	58.37
649.899	58.26
650.229	58.4
650.56	58.33
650.89	58.3
651.221	58.32
651.551	58.37
651.882	58.43
652.212	58.4
652.542	58.37
652.872	58.34
653.203	58.41
653.533	58.5
653.863	58.77
654.193	58.71
654.523	58.75
654.853	58.91
655.183	58.89
655.513	58.66
655.843	58.55
656.172	58.53
656.502	58.47
656.832	58.54
657.162	58.54
657.491	58.61
657.821	58.65
658.15	58.67
658.48	58.67
658.809	58.63
659.139	58.64
659.468	58.69
659.798	58.74
660.127	58.77
660.456	58.69
660.785	58.58
661.115	58.58
661.444	58.56
661.773	58.54
662.102	58.66
662.431	58.87
662.76	58.96
663.089	59.03
663.418	59.07
663.747	59.06
664.076	58.94
664.404	58.9
664.733	58.92
665.062	59.07
665.39	59.03
