Data from BA57748_Reflection_00008.txt Node
Date: Mon Nov 18 15:55:32 EST 2019
User: vgr7
Spectrometer: USB2G7710
Scans to average: 3
Trigger mode: 4
Integration Time (sec): 2.000000E-2
Electric dark correction enabled: true
Boxcar width: 10
XAxis mode: Wavelengths
Number of Pixels in Spectrum: 2048
>>>>>Begin Spectral Data<<<<<
177.721	77.37
178.105	-6.19
178.488	-142.46
178.871	-126.74
179.254	-43.69
179.636	-384.25
180.019	-37.32
180.402	172.73
180.785	-210.09
181.168	-139.26
181.55	112.15
181.933	90.42
182.316	92.21
182.698	81.15
183.081	60.46
183.463	51.48
183.846	194.1
184.228	163.95
184.611	196.94
184.993	477.89
185.376	740.87
185.758	-1870.41
186.14	448.46
186.522	612.48
186.904	318.59
187.287	201.85
187.669	263.25
188.051	280.5
188.433	551.83
188.815	525.51
189.197	450.97
189.579	359.39
189.961	411.73
190.342	416.88
190.724	808.25
191.106	578.39
191.488	-10035.14
191.869	-2059.24
192.251	7490.24
192.633	777.42
193.014	376.27
193.396	283.32
193.777	213.26
194.159	230.21
194.54	314
194.922	1226.7
195.303	-2459.63
195.684	1114.87
196.065	-621.07
196.447	13688.24
196.828	-9867.74
197.209	-10641.94
197.59	6252.54
197.971	1932.43
198.352	-7764.86
198.733	515.56
199.114	2367.18
199.495	482.89
199.876	796.31
200.257	1792.74
200.638	-567.29
201.018	-723.68
201.399	-327.59
201.78	-276.74
202.16	-359.1
202.541	-60328.57
202.922	724.77
203.302	399.06
203.683	2063.35
204.063	739.34
204.444	1149.54
204.824	1543.51
205.204	1341.86
205.585	750.13
205.965	-1524.39
206.345	-1718.65
206.725	-2486.21
207.106	-21531.58
207.486	-2194.12
207.866	3056.2
208.246	-2354.55
208.626	-2900
209.006	-846.99
209.386	1420
209.766	1130.96
210.145	1159.48
210.525	2462.83
210.905	-690.28
211.285	-374.13
211.664	-394.06
212.044	-219.71
212.424	-217.81
212.803	-200.42
213.183	-74.32
213.562	-84.09
213.942	-16.26
214.321	-3.87
214.701	-9.71
215.08	-3.81
215.459	-7.47
215.838	5.94
216.218	-15.87
216.597	10.46
216.976	-10.41
217.355	11.65
217.734	0.06
218.113	22.61
218.492	2.99
218.871	-5.6
219.25	-3.09
219.629	-5.07
220.008	-16.47
220.387	-29.4
220.766	-37.08
221.144	-115.39
221.523	-118.73
221.902	-153.83
222.28	-241.96
222.659	-194.03
223.037	-91.03
223.416	-127.31
223.794	-57.89
224.173	-28.55
224.551	-48.62
224.929	-37.43
225.308	-32.34
225.686	-24.83
226.064	-26.75
226.442	-15.3
226.821	-9.34
227.199	-8.11
227.577	-9.17
227.955	-12.35
228.333	-11.6
228.711	-6.08
229.089	2.11
229.467	1.96
229.845	-2.6
230.222	-1.93
230.6	-3.52
230.978	-4.59
231.356	-1.73
231.733	-4.51
232.111	-3.35
232.488	-3.14
232.866	-4.53
233.243	-4.06
233.621	-4.04
233.998	-2.41
234.376	-2.34
234.753	-3.05
235.13	-3.83
235.508	-2.28
235.885	-0.63
236.262	-0.11
236.639	-0.86
237.016	0.02
237.393	2.14
237.77	4.43
238.147	6.03
238.524	7.65
238.901	7.61
239.278	7.67
239.655	7.63
240.032	7.27
240.409	7.15
240.785	7.73
241.162	8.46
241.539	8.42
241.915	7.55
242.292	7.17
242.668	7.16
243.045	7.15
243.421	6.97
243.798	6.63
244.174	6.08
244.551	6.21
244.927	5.66
245.303	5.59
245.679	5.29
246.056	5
246.432	4.77
246.808	4.73
247.184	4.38
247.56	4.16
247.936	4.41
248.312	4.29
248.688	4.29
249.064	3.85
249.44	3.59
249.815	3.67
250.191	3.67
250.567	3.5
250.943	3.4
251.318	3.4
251.694	3.47
252.069	3.67
252.445	3.53
252.82	3.74
253.196	3.61
253.571	3.49
253.947	3.64
254.322	3.83
254.697	3.82
255.073	3.96
255.448	4.66
255.823	4.09
256.198	4.2
256.573	4.17
256.948	4.47
257.323	4.77
257.698	5.01
258.073	4.83
258.448	4.68
258.823	4.51
259.198	4.52
259.573	4.66
259.948	4.55
260.322	4.66
260.697	4.38
261.072	4.26
261.446	4.34
261.821	4.3
262.195	4.21
262.57	4.05
262.944	3.95
263.319	3.53
263.693	3.57
264.067	3.58
264.442	3.59
264.816	3.43
265.19	3.2
265.564	2.97
265.938	3.06
266.313	3.1
266.687	3.25
267.061	3.2
267.435	3.04
267.809	3.12
268.183	3.11
268.556	3.2
268.93	3.29
269.304	3.14
269.678	3.14
270.051	3.12
270.425	3.26
270.799	3.47
271.172	3.6
271.546	3.68
271.919	3.51
272.293	3.5
272.666	3.71
273.04	3.88
273.413	3.93
273.787	3.94
274.16	3.98
274.533	3.84
274.906	3.81
275.279	3.72
275.653	3.64
276.026	3.56
276.399	3.52
276.772	3.57
277.145	3.7
277.518	3.72
277.891	3.69
278.263	3.73
278.636	3.52
279.009	3.54
279.382	3.81
279.755	3.81
280.127	3.77
280.5	3.82
280.872	3.74
281.245	3.7
281.617	3.79
281.99	3.86
282.362	4.04
282.735	4.01
283.107	3.82
283.479	3.99
283.852	4.04
284.224	4.05
284.596	3.88
284.968	3.83
285.34	3.93
285.713	3.95
286.085	4.01
286.457	4.04
286.829	4.02
287.201	3.94
287.572	3.99
287.944	3.97
288.316	3.87
288.688	3.87
289.06	3.92
289.431	3.97
289.803	4.01
290.175	4
290.546	4.11
290.918	4.26
291.289	4.13
291.661	3.95
292.032	4.18
292.403	4.26
292.775	4.38
293.146	4.33
293.517	4.44
293.889	4.51
294.26	4.61
294.631	4.72
295.002	4.73
295.373	4.81
295.744	4.93
296.115	4.95
296.486	4.96
296.857	4.91
297.228	4.94
297.599	4.88
297.97	4.97
298.34	5.01
298.711	5.15
299.082	5.1
299.452	5.38
299.823	5.43
300.194	5.51
300.564	5.44
300.935	5.51
301.305	5.42
301.676	5.42
302.046	5.55
302.416	5.61
302.787	5.65
303.157	5.61
303.527	5.47
303.897	5.48
304.267	5.61
304.637	5.77
305.008	5.65
305.378	5.93
305.748	5.94
306.117	5.85
306.487	5.94
306.857	6.13
307.227	5.99
307.597	5.96
307.967	6.1
308.336	6.31
308.706	6.41
309.076	6.56
309.445	6.52
309.815	6.45
310.184	6.41
310.554	6.45
310.923	6.61
311.293	6.72
311.662	6.75
312.031	6.84
312.401	6.83
312.77	6.95
313.139	6.99
313.508	7
313.877	7.08
314.246	7.12
314.616	7.27
314.985	7.51
315.353	7.54
315.722	7.58
316.091	7.57
316.46	7.51
316.829	7.55
317.198	7.58
317.567	7.76
317.935	7.79
318.304	7.91
318.672	7.98
319.041	8.22
319.41	8.27
319.778	8.18
320.147	8.29
320.515	8.39
320.883	8.39
321.252	8.47
321.62	8.56
321.988	8.5
322.357	8.58
322.725	8.37
323.093	8.47
323.461	8.42
323.829	8.56
324.197	8.61
324.565	8.81
324.933	8.92
325.301	8.9
325.669	9.03
326.037	9
326.405	9.1
326.772	9.03
327.14	9.13
327.508	9.27
327.875	9.29
328.243	9.39
328.61	9.36
328.978	9.41
329.346	9.49
329.713	9.48
330.08	9.5
330.448	9.62
330.815	9.68
331.182	9.76
331.55	9.6
331.917	9.68
332.284	9.67
332.651	9.68
333.018	9.73
333.385	9.71
333.752	9.8
334.119	9.83
334.486	9.9
334.853	9.98
335.22	9.9
335.587	9.93
335.954	9.95
336.32	10.07
336.687	10.06
337.054	10.11
337.42	10.26
337.787	10.29
338.153	10.35
338.52	10.36
338.886	10.31
339.253	10.45
339.619	10.56
339.986	10.48
340.352	10.57
340.718	10.59
341.084	10.71
341.451	10.77
341.817	10.85
342.183	10.77
342.549	10.83
342.915	10.93
343.281	10.9
343.647	10.87
344.013	10.9
344.379	10.96
344.745	11.01
345.11	11.01
345.476	10.98
345.842	10.92
346.208	10.99
346.573	11.13
346.939	11.23
347.304	11.16
347.67	11.16
348.035	11.18
348.401	11.22
348.766	11.21
349.132	11.12
349.497	11.08
349.862	11.14
350.228	11.07
350.593	11.05
350.958	11.14
351.323	11.22
351.688	11.15
352.053	11.23
352.418	11.17
352.783	11.12
353.148	11.11
353.513	11.16
353.878	11.07
354.243	11.04
354.608	11.01
354.972	11.03
355.337	11.02
355.702	11.08
356.066	11.09
356.431	11.07
356.795	11.14
357.16	11.04
357.524	10.94
357.889	10.9
358.253	10.78
358.618	10.78
358.982	10.68
359.346	10.68
359.71	10.53
360.075	10.44
360.439	10.4
360.803	10.36
361.167	10.33
361.531	10.28
361.895	10.2
362.259	10.13
362.623	10.12
362.987	10.1
363.351	9.97
363.714	9.88
364.078	9.76
364.442	9.62
364.806	9.57
365.169	9.54
365.533	9.5
365.896	9.51
366.26	9.37
366.623	9.33
366.987	9.22
367.35	9.21
367.714	9.25
368.077	9.24
368.44	9.23
368.803	9.16
369.167	9.14
369.53	9.09
369.893	9.01
370.256	8.92
370.619	8.86
370.982	8.77
371.345	8.72
371.708	8.72
372.071	8.79
372.434	8.7
372.797	8.69
373.159	8.67
373.522	8.62
373.885	8.58
374.247	8.51
374.61	8.5
374.973	8.38
375.335	8.28
375.698	8.22
376.06	8.09
376.423	8.04
376.785	7.99
377.147	8
377.51	7.92
377.872	7.83
378.234	7.76
378.596	7.72
378.958	7.66
379.321	7.57
379.683	7.46
380.045	7.39
380.407	7.34
380.769	7.28
381.13	7.24
381.492	7.17
381.854	7.13
382.216	7.05
382.578	7.06
382.939	6.93
383.301	6.85
383.663	6.82
384.024	6.75
384.386	6.71
384.747	6.64
385.109	6.64
385.47	6.59
385.832	6.53
386.193	6.5
386.554	6.47
386.916	6.44
387.277	6.36
387.638	6.4
387.999	6.33
388.36	6.28
388.721	6.25
389.082	6.18
389.443	6.12
389.804	6.09
390.165	6.06
390.526	6.07
390.887	6.07
391.248	6.06
391.609	6.01
391.969	5.95
392.33	5.92
392.691	5.84
393.051	5.78
393.412	5.71
393.772	5.65
394.133	5.6
394.493	5.56
394.854	5.57
395.214	5.48
395.574	5.46
395.935	5.39
396.295	5.35
396.655	5.34
397.015	5.27
397.376	5.24
397.736	5.14
398.096	5.11
398.456	5.06
398.816	5.01
399.176	4.96
399.535	4.88
399.895	4.82
400.255	4.79
400.615	4.77
400.975	4.77
401.334	4.75
401.694	4.73
402.054	4.69
402.413	4.65
402.773	4.62
403.132	4.58
403.492	4.6
403.851	4.57
404.211	4.57
404.57	4.55
404.929	4.54
405.288	4.54
405.648	4.48
406.007	4.49
406.366	4.47
406.725	4.48
407.084	4.5
407.443	4.47
407.802	4.44
408.161	4.43
408.52	4.42
408.879	4.4
409.238	4.39
409.596	4.39
409.955	4.37
410.314	4.37
410.673	4.36
411.031	4.32
411.39	4.28
411.748	4.24
412.107	4.26
412.465	4.23
412.824	4.21
413.182	4.2
413.54	4.15
413.899	4.14
414.257	4.13
414.615	4.12
414.974	4.1
415.332	4.1
415.69	4.08
416.048	4.03
416.406	4.01
416.764	3.96
417.122	3.93
417.48	3.91
417.838	3.9
418.195	3.89
418.553	3.86
418.911	3.85
419.269	3.84
419.626	3.81
419.984	3.79
420.342	3.77
420.699	3.75
421.057	3.75
421.414	3.73
421.772	3.7
422.129	3.68
422.486	3.66
422.844	3.67
423.201	3.66
423.558	3.65
423.915	3.65
424.273	3.65
424.63	3.64
424.987	3.64
425.344	3.63
425.701	3.62
426.058	3.61
426.415	3.6
426.772	3.6
427.128	3.59
427.485	3.6
427.842	3.59
428.199	3.6
428.555	3.59
428.912	3.59
429.269	3.61
429.625	3.62
429.982	3.62
430.338	3.6
430.695	3.61
431.051	3.6
431.407	3.58
431.764	3.57
432.12	3.55
432.476	3.54
432.832	3.52
433.189	3.52
433.545	3.51
433.901	3.51
434.257	3.5
434.613	3.49
434.969	3.47
435.325	3.48
435.681	3.47
436.036	3.46
436.392	3.46
436.748	3.44
437.104	3.41
437.459	3.42
437.815	3.43
438.171	3.42
438.526	3.43
438.882	3.43
439.237	3.45
439.593	3.45
439.948	3.44
440.304	3.45
440.659	3.42
441.014	3.41
441.369	3.4
441.725	3.4
442.08	3.41
442.435	3.39
442.79	3.38
443.145	3.37
443.5	3.37
443.855	3.35
444.21	3.36
444.565	3.36
444.92	3.35
445.275	3.33
445.629	3.32
445.984	3.32
446.339	3.3
446.693	3.25
447.048	3.24
447.403	3.23
447.757	3.21
448.112	3.21
448.466	3.2
448.82	3.21
449.175	3.21
449.529	3.19
449.883	3.18
450.238	3.18
450.592	3.18
450.946	3.15
451.3	3.14
451.654	3.12
452.008	3.12
452.362	3.11
452.716	3.09
453.07	3.09
453.424	3.09
453.778	3.1
454.132	3.1
454.486	3.1
454.839	3.11
455.193	3.1
455.547	3.09
455.9	3.08
456.254	3.07
456.607	3.07
456.961	3.06
457.314	3.09
457.668	3.08
458.021	3.08
458.375	3.08
458.728	3.1
459.081	3.1
459.434	3.11
459.787	3.11
460.141	3.12
460.494	3.12
460.847	3.12
461.2	3.11
461.553	3.13
461.906	3.15
462.259	3.15
462.611	3.17
462.964	3.18
463.317	3.2
463.67	3.21
464.022	3.21
464.375	3.21
464.728	3.21
465.08	3.22
465.433	3.24
465.785	3.25
466.138	3.25
466.49	3.25
466.843	3.24
467.195	3.25
467.547	3.25
467.899	3.27
468.252	3.26
468.604	3.3
468.956	3.3
469.308	3.32
469.66	3.31
470.012	3.33
470.364	3.34
470.716	3.34
471.068	3.35
471.42	3.35
471.772	3.38
472.123	3.39
472.475	3.41
472.827	3.4
473.178	3.4
473.53	3.38
473.882	3.39
474.233	3.4
474.585	3.38
474.936	3.4
475.288	3.39
475.639	3.38
475.99	3.37
476.342	3.36
476.693	3.35
477.044	3.38
477.395	3.36
477.746	3.36
478.097	3.36
478.448	3.36
478.8	3.35
479.15	3.34
479.501	3.35
479.852	3.35
480.203	3.34
480.554	3.35
480.905	3.37
481.255	3.36
481.606	3.36
481.957	3.37
482.307	3.37
482.658	3.38
483.009	3.38
483.359	3.39
483.709	3.4
484.06	3.39
484.41	3.38
484.761	3.39
485.111	3.39
485.461	3.4
485.811	3.4
486.162	3.39
486.512	3.4
486.862	3.4
487.212	3.4
487.562	3.41
487.912	3.41
488.262	3.41
488.612	3.41
488.961	3.41
489.311	3.42
489.661	3.42
490.011	3.42
490.36	3.42
490.71	3.42
491.06	3.42
491.409	3.43
491.759	3.43
492.108	3.44
492.458	3.44
492.807	3.44
493.157	3.45
493.506	3.48
493.855	3.48
494.204	3.49
494.554	3.5
494.903	3.48
495.252	3.5
495.601	3.51
495.95	3.56
496.299	3.58
496.648	3.59
496.997	3.6
497.346	3.63
497.695	3.66
498.043	3.69
498.392	3.71
498.741	3.74
499.09	3.77
499.438	3.8
499.787	3.84
500.135	3.87
500.484	3.9
500.832	3.92
501.181	3.98
501.529	4.02
501.878	4.08
502.226	4.14
502.574	4.17
502.923	4.22
503.271	4.25
503.619	4.28
503.967	4.33
504.315	4.38
504.663	4.46
505.011	4.52
505.359	4.55
505.707	4.62
506.055	4.66
506.403	4.72
506.751	4.79
507.098	4.84
507.446	4.89
507.794	4.94
508.141	5.01
508.489	5.05
508.837	5.09
509.184	5.14
509.531	5.22
509.879	5.29
510.226	5.35
510.574	5.42
510.921	5.5
511.268	5.57
511.616	5.66
511.963	5.7
512.31	5.78
512.657	5.89
513.004	5.97
513.351	6.07
513.698	6.15
514.045	6.24
514.392	6.36
514.739	6.48
515.086	6.58
515.432	6.66
515.779	6.78
516.126	6.89
516.473	7.01
516.819	7.11
517.166	7.21
517.512	7.33
517.859	7.44
518.205	7.55
518.552	7.67
518.898	7.76
519.245	7.86
519.591	7.96
519.937	8.07
520.283	8.18
520.629	8.31
520.976	8.47
521.322	8.61
521.668	8.74
522.014	8.9
522.36	9.08
522.706	9.28
523.052	9.49
523.398	9.71
523.743	9.95
524.089	10.16
524.435	10.39
524.781	10.6
525.126	10.78
525.472	10.98
525.817	11.13
526.163	11.29
526.509	11.46
526.854	11.62
527.199	11.78
527.545	11.93
527.89	12.08
528.235	12.22
528.581	12.39
528.926	12.55
529.271	12.7
529.616	12.87
529.961	13.02
530.306	13.18
530.651	13.35
530.996	13.53
531.341	13.71
531.686	13.91
532.031	14.12
532.376	14.35
532.721	14.58
533.065	14.82
533.41	15.09
533.755	15.32
534.099	15.58
534.444	15.82
534.788	16.08
535.133	16.31
535.477	16.58
535.822	16.83
536.166	17.14
536.51	17.45
536.855	17.78
537.199	18.13
537.543	18.47
537.887	18.81
538.231	19.15
538.576	19.53
538.92	19.86
539.264	20.17
539.608	20.47
539.951	20.77
540.295	21.05
540.639	21.3
540.983	21.57
541.327	21.83
541.671	22.1
542.014	22.35
542.358	22.62
542.701	22.86
543.045	23.1
543.389	23.33
543.732	23.61
544.075	23.87
544.419	24.13
544.762	24.4
545.105	24.68
545.449	24.98
545.792	25.26
546.135	25.58
546.478	25.93
546.821	26.27
547.165	26.6
547.508	26.93
547.851	27.28
548.194	27.63
548.536	27.96
548.879	28.33
549.222	28.68
549.565	29.03
549.908	29.39
550.25	29.76
550.593	30.12
550.936	30.44
551.278	30.78
551.621	31.16
551.963	31.52
552.306	31.88
552.648	32.21
552.991	32.57
553.333	32.84
553.675	33.1
554.017	33.39
554.36	33.71
554.702	34.01
555.044	34.31
555.386	34.57
555.728	34.86
556.07	35.13
556.412	35.43
556.754	35.71
557.096	36
557.438	36.32
557.78	36.58
558.121	36.92
558.463	37.17
558.805	37.44
559.147	37.68
559.488	37.89
559.83	38.16
560.171	38.39
560.513	38.64
560.854	38.9
561.196	39.16
561.537	39.4
561.878	39.68
562.22	39.84
562.561	40.05
562.902	40.29
563.243	40.5
563.584	40.71
563.925	40.95
564.266	41.11
564.607	41.25
564.948	41.42
565.289	41.57
565.63	41.69
565.971	41.81
566.312	41.98
566.653	42.19
566.993	42.34
567.334	42.51
567.675	42.73
568.015	42.88
568.356	43.04
568.696	43.2
569.037	43.32
569.377	43.55
569.718	43.73
570.058	43.89
570.398	44.06
570.739	44.2
571.079	44.36
571.419	44.49
571.759	44.62
572.099	44.84
572.439	44.98
572.779	45.21
573.119	45.39
573.459	45.54
573.799	45.66
574.139	45.78
574.479	45.89
574.819	45.96
575.158	46.08
575.498	46.16
575.838	46.25
576.177	46.36
576.517	46.48
576.856	46.61
577.196	46.72
577.535	46.83
577.875	46.98
578.214	47.09
578.553	47.28
578.893	47.44
579.232	47.46
579.571	47.59
579.91	47.71
580.25	47.75
580.589	47.87
580.928	48.01
581.267	48.18
581.606	48.32
581.945	48.52
582.283	48.61
582.622	48.75
582.961	48.84
583.3	48.97
583.639	49.04
583.977	49.17
584.316	49.25
584.654	49.35
584.993	49.47
585.332	49.53
585.67	49.61
586.008	49.69
586.347	49.82
586.685	49.82
587.024	49.85
587.362	49.97
587.7	50.07
588.038	50.14
588.376	50.21
588.715	50.19
589.053	50.21
589.391	50.35
589.729	50.46
590.067	50.49
590.404	50.53
590.742	50.63
591.08	50.68
591.418	50.72
591.756	50.76
592.093	50.81
592.431	50.81
592.769	50.76
593.106	50.81
593.444	50.9
593.781	50.97
594.119	51.04
594.456	51.04
594.793	51.09
595.131	51.11
595.468	51.16
595.805	51.27
596.143	51.34
596.48	51.36
596.817	51.37
597.154	51.47
597.491	51.56
597.828	51.61
598.165	51.59
598.502	51.63
598.839	51.7
599.176	51.76
599.512	51.94
599.849	52.07
600.186	52.05
600.523	52.12
600.859	52.21
601.196	52.25
601.532	52.3
601.869	52.28
602.205	52.36
602.542	52.37
602.878	52.39
603.215	52.43
603.551	52.45
603.887	52.55
604.223	52.6
604.56	52.61
604.896	52.59
605.232	52.67
605.568	52.75
605.904	52.8
606.24	52.76
606.576	52.73
606.912	52.77
607.248	52.89
607.583	52.89
607.919	52.92
608.255	52.95
608.591	53.07
608.926	53.11
609.262	53.17
609.597	53.22
609.933	53.27
610.268	53.34
610.604	53.41
610.939	53.35
611.275	53.4
611.61	53.46
611.945	53.5
612.281	53.57
612.616	53.56
612.951	53.63
613.286	53.7
613.621	53.7
613.956	53.74
614.291	53.85
614.626	53.91
614.961	54
615.296	54.05
615.631	54.13
615.966	54.19
616.3	54.22
616.635	54.27
616.97	54.34
617.304	54.3
617.639	54.34
617.973	54.43
618.308	54.46
618.642	54.48
618.977	54.56
619.311	54.61
619.646	54.76
619.98	54.7
620.314	54.79
620.648	54.83
620.983	54.97
621.317	54.88
621.651	54.92
621.985	54.89
622.319	54.89
622.653	54.8
622.987	54.87
623.321	54.86
623.655	54.87
623.988	54.82
624.322	54.79
624.656	54.9
624.99	54.92
625.323	54.85
625.657	54.93
625.99	55
626.324	54.98
626.657	54.97
626.991	55.03
627.324	55.01
627.658	55.03
627.991	55
628.324	55.02
628.657	54.99
628.991	55
629.324	55.1
629.657	55.1
629.99	55.15
630.323	55.11
630.656	55.2
630.989	55.34
631.322	55.36
631.655	55.31
631.987	55.3
632.32	55.35
632.653	55.35
632.986	55.2
633.318	55.26
633.651	55.2
633.984	55.2
634.316	55.17
634.649	55.22
634.981	55.22
635.313	55.2
635.646	55.24
635.978	55.21
636.31	55.17
636.643	55.22
636.975	55.17
637.307	55.24
637.639	55.09
637.971	55.03
638.303	55.05
638.635	55.05
638.967	55.16
639.299	55.27
639.631	55.23
639.963	55.27
640.295	55.17
640.626	55.22
640.958	55.18
641.29	55.31
641.621	55.29
641.953	55.24
642.285	55.39
642.616	55.4
642.948	55.5
643.279	55.5
643.61	55.56
643.942	55.66
644.273	55.69
644.604	55.7
644.936	55.7
645.267	55.75
645.598	55.72
645.929	55.63
646.26	55.56
646.591	55.65
646.922	55.69
647.253	55.73
647.584	55.68
647.915	55.66
648.245	55.58
648.576	55.6
648.907	55.55
649.238	55.46
649.568	55.42
649.899	55.36
650.229	55.45
650.56	55.53
650.89	55.49
651.221	55.49
651.551	55.56
651.882	55.6
652.212	55.61
652.542	55.56
652.872	55.7
653.203	55.67
653.533	55.56
653.863	55.6
654.193	55.65
654.523	55.77
654.853	55.78
655.183	55.79
655.513	55.85
655.843	55.88
656.172	55.99
656.502	56.11
656.832	56.13
657.162	56.18
657.491	56.04
657.821	56.06
658.15	56.18
658.48	56.26
658.809	56.26
659.139	56.24
659.468	56.27
659.798	56.08
660.127	56.13
660.456	56.11
660.785	56.06
661.115	56.08
661.444	56.05
661.773	56.14
662.102	56.13
662.431	56.09
662.76	56.19
663.089	56.14
663.418	56.07
663.747	56.14
664.076	56.08
664.404	56.17
