Data from BA57965_Reflection_00009.txt Node
Date: Mon Nov 18 15:16:18 EST 2019
User: vgr7
Spectrometer: USB2G7710
Scans to average: 3
Trigger mode: 4
Integration Time (sec): 2.000000E-2
Electric dark correction enabled: true
Boxcar width: 10
XAxis mode: Wavelengths
Number of Pixels in Spectrum: 2048
>>>>>Begin Spectral Data<<<<<
177.721	149.7
178.105	91.1
178.488	49.47
178.871	-5.22
179.254	-99.58
179.636	19.64
180.019	-34.94
180.402	86.84
180.785	-113.54
181.168	-109.91
181.55	-77.34
181.933	136.81
182.316	147.68
182.698	677.41
183.081	1338.71
183.463	-1237.58
183.846	-420.8
184.228	-215.79
184.611	-242.86
184.993	-158.89
185.376	-102.25
185.758	-104.1
186.14	-106.9
186.522	-126.55
186.904	-118.15
187.287	-129.63
187.669	-68.1
188.051	-75.99
188.433	-68.34
188.815	-62.38
189.197	-64.12
189.579	-58.88
189.961	-58.87
190.342	-69.06
190.724	-54.32
191.106	-40.43
191.488	-34.41
191.869	-15.88
192.251	-11.72
192.633	6.71
193.014	-1.18
193.396	3.29
193.777	30.39
194.159	54.48
194.54	62.79
194.922	69.75
195.303	63.53
195.684	49.19
196.065	58.4
196.447	47.45
196.828	41.68
197.209	37.68
197.59	56.65
197.971	54.09
198.352	63.58
198.733	59.64
199.114	56.06
199.495	56.67
199.876	46.44
200.257	36.5
200.638	35.43
201.018	43.5
201.399	49.04
201.78	33.92
202.16	24.23
202.541	11.95
202.922	2.83
203.302	-7.8
203.683	-1.84
204.063	-24.28
204.444	-21.19
204.824	-15.77
205.204	-17.63
205.585	-20.06
205.965	-11.63
206.345	-28
206.725	-34.82
207.106	-63.13
207.486	-78.52
207.866	-76.52
208.246	-51.97
208.626	-47.65
209.006	-43.61
209.386	-52.01
209.766	-53.21
210.145	-53.74
210.525	-34.42
210.905	-21.17
211.285	-14.72
211.664	-20.52
212.044	-14.83
212.424	-21.06
212.803	-25.08
213.183	-21.17
213.562	-24.6
213.942	-30.08
214.321	-21.47
214.701	-22.65
215.08	-17.31
215.459	-16.47
215.838	-19.48
216.218	-32.15
216.597	-38.3
216.976	-34.34
217.355	-29.25
217.734	-31.11
218.113	-22.55
218.492	-24.8
218.871	-30.2
219.25	-23.68
219.629	-17.09
220.008	-16.96
220.387	-10.89
220.766	-11.7
221.144	-22.77
221.523	-17.63
221.902	-10.13
222.28	-18.92
222.659	-4.07
223.037	3.37
223.416	7.98
223.794	9.69
224.173	10.81
224.551	17.88
224.929	19.56
225.308	21.37
225.686	23.24
226.064	14.81
226.442	15.7
226.821	18.1
227.199	15.86
227.577	9.04
227.955	8.33
228.333	8.22
228.711	9.78
229.089	13.63
229.467	10.35
229.845	6.48
230.222	7.43
230.6	5.35
230.978	3.73
231.356	2.69
231.733	2.1
232.111	3.09
232.488	4
232.866	3.33
233.243	1.95
233.621	1.69
233.998	3.11
234.376	0.84
234.753	-2.18
235.13	-3.15
235.508	-0.59
235.885	0.4
236.262	-0.9
236.639	-0.88
237.016	-0.73
237.393	0.77
237.77	2.24
238.147	3.33
238.524	2.66
238.901	3.1
239.278	3.43
239.655	3.41
240.032	3.39
240.409	2.32
240.785	2.69
241.162	3.17
241.539	3.68
241.915	3.33
242.292	3.39
242.668	3.81
243.045	4.19
243.421	4.15
243.798	4.11
244.174	4.36
244.551	4.4
244.927	4.1
245.303	4.46
245.679	4.33
246.056	4.25
246.432	4.28
246.808	4.34
247.184	4.23
247.56	4.01
247.936	3.89
248.312	3.96
248.688	4
249.064	3.95
249.44	3.79
249.815	3.84
250.191	4.09
250.567	4.1
250.943	4.08
251.318	4.05
251.694	3.76
252.069	3.75
252.445	3.83
252.82	3.89
253.196	3.79
253.571	3.67
253.947	3.5
254.322	3.61
254.697	3.58
255.073	3.38
255.448	3.64
255.823	3.59
256.198	3.8
256.573	3.66
256.948	3.79
257.323	3.78
257.698	3.74
258.073	3.59
258.448	3.33
258.823	3.25
259.198	3.19
259.573	3.09
259.948	3.02
260.322	3.01
260.697	2.98
261.072	2.79
261.446	2.87
261.821	2.9
262.195	3.07
262.57	2.95
262.944	3.04
263.319	2.96
263.693	3.01
264.067	2.98
264.442	2.99
264.816	2.67
265.19	2.53
265.564	2.6
265.938	2.46
266.313	2.54
266.687	2.73
267.061	2.72
267.435	2.92
267.809	2.99
268.183	2.85
268.556	2.83
268.93	2.83
269.304	2.88
269.678	2.93
270.051	2.58
270.425	2.56
270.799	2.59
271.172	2.63
271.546	2.65
271.919	2.54
272.293	2.52
272.666	2.8
273.04	3.09
273.413	3.1
273.787	3.17
274.16	3.16
274.533	3
274.906	3.02
275.279	3.15
275.653	3.2
276.026	3.13
276.399	3.06
276.772	3.04
277.145	2.92
277.518	2.97
277.891	3.04
278.263	3.1
278.636	3.06
279.009	2.97
279.382	2.99
279.755	2.94
280.127	2.97
280.5	3.03
280.872	2.83
281.245	2.65
281.617	2.65
281.99	2.75
282.362	2.72
282.735	2.66
283.107	2.52
283.479	2.49
283.852	2.57
284.224	2.63
284.596	2.62
284.968	2.73
285.34	2.78
285.713	2.85
286.085	2.97
286.457	3.06
286.829	3.16
287.201	3.19
287.572	3.19
287.944	3.2
288.316	3.1
288.688	3.11
289.06	3.24
289.431	3.25
289.803	3.38
290.175	3.43
290.546	3.54
290.918	3.68
291.289	3.58
291.661	3.67
292.032	3.71
292.403	3.8
292.775	3.87
293.146	3.68
293.517	3.61
293.889	3.63
294.26	3.6
294.631	3.58
295.002	3.53
295.373	3.7
295.744	3.65
296.115	3.66
296.486	3.56
296.857	3.51
297.228	3.61
297.599	3.48
297.97	3.49
298.34	3.52
298.711	3.45
299.082	3.59
299.452	3.47
299.823	3.62
300.194	3.64
300.564	3.59
300.935	3.72
301.305	3.69
301.676	3.63
302.046	3.59
302.416	3.74
302.787	3.71
303.157	3.64
303.527	3.76
303.897	3.81
304.267	3.94
304.637	4.05
305.008	3.96
305.378	4.14
305.748	4.03
306.117	4.06
306.487	4.09
306.857	4.1
307.227	4.22
307.597	4.05
307.967	4.03
308.336	4.09
308.706	4.12
309.076	4.27
309.445	4.27
309.815	4.42
310.184	4.2
310.554	4.45
310.923	4.37
311.293	4.34
311.662	4.35
312.031	4.37
312.401	4.32
312.77	4.47
313.139	4.38
313.508	4.61
313.877	4.56
314.246	4.6
314.616	4.64
314.985	4.69
315.353	4.77
315.722	4.92
316.091	4.84
316.46	4.82
316.829	4.82
317.198	4.78
317.567	4.71
317.935	4.96
318.304	4.94
318.672	5.02
319.041	5.11
319.41	5.12
319.778	5.11
320.147	5.12
320.515	4.98
320.883	4.87
321.252	4.86
321.62	4.82
321.988	4.8
322.357	4.8
322.725	4.95
323.093	5.11
323.461	5.05
323.829	5.27
324.197	5.32
324.565	5.36
324.933	5.49
325.301	5.49
325.669	5.36
326.037	5.31
326.405	5.37
326.772	5.41
327.14	5.46
327.508	5.51
327.875	5.54
328.243	5.74
328.61	5.92
328.978	5.91
329.346	6.01
329.713	6
330.08	6.05
330.448	5.92
330.815	5.88
331.182	5.89
331.55	5.84
331.917	5.94
332.284	6.11
332.651	6
333.018	6.11
333.385	6.28
333.752	6.33
334.119	6.44
334.486	6.42
334.853	6.35
335.22	6.44
335.587	6.47
335.954	6.44
336.32	6.42
336.687	6.43
337.054	6.44
337.42	6.62
337.787	6.69
338.153	6.69
338.52	6.67
338.886	6.69
339.253	6.62
339.619	6.62
339.986	6.59
340.352	6.76
340.718	6.72
341.084	6.67
341.451	6.64
341.817	6.67
342.183	6.66
342.549	6.76
342.915	6.77
343.281	6.89
343.647	6.85
344.013	6.9
344.379	6.88
344.745	6.92
345.11	6.9
345.476	7.03
345.842	7.1
346.208	7.14
346.573	7.15
346.939	7.3
347.304	7.27
347.67	7.27
348.035	7.25
348.401	7.25
348.766	7.19
349.132	7.27
349.497	7.22
349.862	7.27
350.228	7.24
350.593	7.18
350.958	7.12
351.323	7.1
351.688	7.05
352.053	7.17
352.418	7.16
352.783	7.21
353.148	7.03
353.513	7.02
353.878	7.08
354.243	7.04
354.608	6.95
354.972	6.97
355.337	6.96
355.702	7.01
356.066	7.09
356.431	7.16
356.795	7.1
357.16	7.11
357.524	7.01
357.889	6.9
358.253	6.9
358.618	6.94
358.982	6.9
359.346	6.81
359.71	6.7
360.075	6.67
360.439	6.55
360.803	6.49
361.167	6.41
361.531	6.28
361.895	6.29
362.259	6.25
362.623	6.23
362.987	6.18
363.351	6.14
363.714	6.08
364.078	5.99
364.442	5.93
364.806	5.83
365.169	5.85
365.533	5.88
365.896	5.85
366.26	5.74
366.623	5.76
366.987	5.74
367.35	5.74
367.714	5.68
368.077	5.66
368.44	5.68
368.803	5.69
369.167	5.73
369.53	5.68
369.893	5.67
370.256	5.58
370.619	5.56
370.982	5.46
371.345	5.41
371.708	5.41
372.071	5.41
372.434	5.4
372.797	5.37
373.159	5.32
373.522	5.29
373.885	5.27
374.247	5.25
374.61	5.27
374.973	5.16
375.335	5.12
375.698	5.07
376.06	5.02
376.423	5.01
376.785	5.01
377.147	5
377.51	4.94
377.872	4.96
378.234	4.89
378.596	4.91
378.958	4.9
379.321	4.85
379.683	4.86
380.045	4.83
380.407	4.8
380.769	4.75
381.13	4.69
381.492	4.63
381.854	4.59
382.216	4.56
382.578	4.57
382.939	4.53
383.301	4.56
383.663	4.56
384.024	4.52
384.386	4.5
384.747	4.47
385.109	4.47
385.47	4.4
385.832	4.39
386.193	4.35
386.554	4.31
386.916	4.29
387.277	4.24
387.638	4.23
387.999	4.18
388.36	4.18
388.721	4.18
389.082	4.17
389.443	4.11
389.804	4.12
390.165	4.1
390.526	4.13
390.887	4.09
391.248	4.08
391.609	4.04
391.969	3.98
392.33	3.94
392.691	3.94
393.051	3.9
393.412	3.89
393.772	3.86
394.133	3.82
394.493	3.82
394.854	3.78
395.214	3.77
395.574	3.73
395.935	3.73
396.295	3.71
396.655	3.7
397.015	3.7
397.376	3.68
397.736	3.64
398.096	3.61
398.456	3.59
398.816	3.55
399.176	3.53
399.535	3.53
399.895	3.53
400.255	3.5
400.615	3.52
400.975	3.49
401.334	3.46
401.694	3.45
402.054	3.41
402.413	3.4
402.773	3.34
403.132	3.33
403.492	3.3
403.851	3.26
404.211	3.27
404.57	3.25
404.929	3.24
405.288	3.23
405.648	3.21
406.007	3.23
406.366	3.23
406.725	3.24
407.084	3.23
407.443	3.19
407.802	3.2
408.161	3.19
408.52	3.18
408.879	3.18
409.238	3.19
409.596	3.19
409.955	3.2
410.314	3.22
410.673	3.21
411.031	3.2
411.39	3.21
411.748	3.18
412.107	3.17
412.465	3.14
412.824	3.15
413.182	3.13
413.54	3.09
413.899	3.05
414.257	3.04
414.615	2.99
414.974	3.02
415.332	2.99
415.69	2.97
416.048	2.97
416.406	2.96
416.764	2.92
417.122	2.94
417.48	2.91
417.838	2.9
418.195	2.89
418.553	2.88
418.911	2.87
419.269	2.88
419.626	2.87
419.984	2.87
420.342	2.86
420.699	2.86
421.057	2.84
421.414	2.84
421.772	2.83
422.129	2.83
422.486	2.81
422.844	2.81
423.201	2.79
423.558	2.78
423.915	2.79
424.273	2.82
424.63	2.81
424.987	2.81
425.344	2.81
425.701	2.83
426.058	2.83
426.415	2.83
426.772	2.81
427.128	2.81
427.485	2.82
427.842	2.81
428.199	2.81
428.555	2.81
428.912	2.83
429.269	2.84
429.625	2.84
429.982	2.84
430.338	2.85
430.695	2.84
431.051	2.84
431.407	2.82
431.764	2.79
432.12	2.76
432.476	2.76
432.832	2.73
433.189	2.73
433.545	2.71
433.901	2.72
434.257	2.74
434.613	2.76
434.969	2.74
435.325	2.75
435.681	2.76
436.036	2.77
436.392	2.75
436.748	2.74
437.104	2.74
437.459	2.73
437.815	2.71
438.171	2.74
438.526	2.75
438.882	2.75
439.237	2.76
439.593	2.76
439.948	2.75
440.304	2.76
440.659	2.75
441.014	2.76
441.369	2.75
441.725	2.72
442.08	2.72
442.435	2.74
442.79	2.72
443.145	2.72
443.5	2.7
443.855	2.7
444.21	2.69
444.565	2.7
444.92	2.7
445.275	2.69
445.629	2.67
445.984	2.65
446.339	2.64
446.693	2.63
447.048	2.63
447.403	2.64
447.757	2.63
448.112	2.64
448.466	2.6
448.82	2.6
449.175	2.6
449.529	2.58
449.883	2.57
450.238	2.56
450.592	2.57
450.946	2.56
451.3	2.55
451.654	2.55
452.008	2.54
452.362	2.55
452.716	2.54
453.07	2.54
453.424	2.55
453.778	2.54
454.132	2.55
454.486	2.56
454.839	2.54
455.193	2.52
455.547	2.52
455.9	2.54
456.254	2.52
456.607	2.53
456.961	2.53
457.314	2.52
457.668	2.53
458.021	2.51
458.375	2.52
458.728	2.54
459.081	2.54
459.434	2.53
459.787	2.52
460.141	2.55
460.494	2.55
460.847	2.56
461.2	2.56
461.553	2.56
461.906	2.55
462.259	2.58
462.611	2.59
462.964	2.59
463.317	2.6
463.67	2.62
464.022	2.64
464.375	2.64
464.728	2.65
465.08	2.64
465.433	2.65
465.785	2.66
466.138	2.66
466.49	2.67
466.843	2.68
467.195	2.68
467.547	2.69
467.899	2.67
468.252	2.66
468.604	2.69
468.956	2.69
469.308	2.71
469.66	2.69
470.012	2.69
470.364	2.7
470.716	2.69
471.068	2.7
471.42	2.68
471.772	2.71
472.123	2.71
472.475	2.7
472.827	2.72
473.178	2.71
473.53	2.71
473.882	2.71
474.233	2.72
474.585	2.71
474.936	2.71
475.288	2.71
475.639	2.73
475.99	2.72
476.342	2.73
476.693	2.74
477.044	2.75
477.395	2.75
477.746	2.74
478.097	2.73
478.448	2.71
478.8	2.7
479.15	2.68
479.501	2.69
479.852	2.72
480.203	2.7
480.554	2.71
480.905	2.72
481.255	2.71
481.606	2.71
481.957	2.72
482.307	2.71
482.658	2.72
483.009	2.72
483.359	2.72
483.709	2.73
484.06	2.72
484.41	2.71
484.761	2.72
485.111	2.73
485.461	2.73
485.811	2.73
486.162	2.75
486.512	2.76
486.862	2.76
487.212	2.75
487.562	2.76
487.912	2.76
488.262	2.77
488.612	2.78
488.961	2.78
489.311	2.79
489.661	2.79
490.011	2.81
490.36	2.81
490.71	2.82
491.06	2.82
491.409	2.83
491.759	2.84
492.108	2.84
492.458	2.84
492.807	2.85
493.157	2.86
493.506	2.87
493.855	2.87
494.204	2.89
494.554	2.9
494.903	2.89
495.252	2.91
495.601	2.91
495.95	2.93
496.299	2.92
496.648	2.94
496.997	2.95
497.346	2.96
497.695	2.99
498.043	2.99
498.392	3
498.741	3.02
499.09	3.05
499.438	3.07
499.787	3.1
500.135	3.12
500.484	3.16
500.832	3.17
501.181	3.19
501.529	3.2
501.878	3.24
502.226	3.3
502.574	3.31
502.923	3.32
503.271	3.33
503.619	3.38
503.967	3.41
504.315	3.43
504.663	3.46
505.011	3.5
505.359	3.51
505.707	3.58
506.055	3.62
506.403	3.66
506.751	3.69
507.098	3.73
507.446	3.76
507.794	3.77
508.141	3.82
508.489	3.85
508.837	3.88
509.184	3.92
509.531	3.95
509.879	4.01
510.226	4.04
510.574	4.08
510.921	4.12
511.268	4.15
511.616	4.21
511.963	4.24
512.31	4.26
512.657	4.31
513.004	4.34
513.351	4.41
513.698	4.46
514.045	4.51
514.392	4.56
514.739	4.62
515.086	4.68
515.432	4.73
515.779	4.78
516.126	4.84
516.473	4.9
516.819	4.96
517.166	5.01
517.512	5.08
517.859	5.15
518.205	5.19
518.552	5.25
518.898	5.29
519.245	5.34
519.591	5.4
519.937	5.46
520.283	5.51
520.629	5.57
520.976	5.65
521.322	5.73
521.668	5.81
522.014	5.87
522.36	5.97
522.706	6.07
523.052	6.19
523.398	6.29
523.743	6.4
524.089	6.53
524.435	6.64
524.781	6.75
525.126	6.87
525.472	6.97
525.817	7.07
526.163	7.17
526.509	7.28
526.854	7.36
527.199	7.46
527.545	7.55
527.89	7.63
528.235	7.71
528.581	7.8
528.926	7.9
529.271	8.01
529.616	8.11
529.961	8.21
530.306	8.32
530.651	8.42
530.996	8.54
531.341	8.66
531.686	8.8
532.031	8.94
532.376	9.07
532.721	9.22
533.065	9.38
533.41	9.53
533.755	9.66
534.099	9.84
534.444	10.01
534.788	10.17
535.133	10.34
535.477	10.52
535.822	10.72
536.166	10.93
536.51	11.13
536.855	11.37
537.199	11.63
537.543	11.89
537.887	12.17
538.231	12.45
538.576	12.71
538.92	12.97
539.264	13.21
539.608	13.47
539.951	13.71
540.295	13.96
540.639	14.18
540.983	14.41
541.327	14.62
541.671	14.84
542.014	15.08
542.358	15.29
542.701	15.51
543.045	15.73
543.389	15.96
543.732	16.19
544.075	16.45
544.419	16.67
544.762	16.91
545.105	17.18
545.449	17.45
545.792	17.72
546.135	18.01
546.478	18.34
546.821	18.65
547.165	18.98
547.508	19.28
547.851	19.63
548.194	19.97
548.536	20.3
548.879	20.63
549.222	20.95
549.565	21.31
549.908	21.66
550.25	21.99
550.593	22.32
550.936	22.65
551.278	22.95
551.621	23.3
551.963	23.66
552.306	24
552.648	24.26
552.991	24.63
553.333	24.97
553.675	25.24
554.017	25.53
554.36	25.83
554.702	26.17
555.044	26.48
555.386	26.76
555.728	27.08
556.07	27.42
556.412	27.75
556.754	28.05
557.096	28.42
557.438	28.77
557.78	29.07
558.121	29.44
558.463	29.78
558.805	30.11
559.147	30.39
559.488	30.66
559.83	31.02
560.171	31.26
560.513	31.52
560.854	31.82
561.196	32.08
561.537	32.38
561.878	32.64
562.22	32.92
562.561	33.21
562.902	33.48
563.243	33.73
563.584	33.98
563.925	34.23
564.266	34.37
564.607	34.59
564.948	34.84
565.289	35.04
565.63	35.27
565.971	35.45
566.312	35.67
566.653	35.9
566.993	36.1
567.334	36.34
567.675	36.56
568.015	36.78
568.356	37.01
568.696	37.22
569.037	37.43
569.377	37.66
569.718	37.86
570.058	38.05
570.398	38.25
570.739	38.43
571.079	38.61
571.419	38.85
571.759	39.03
572.099	39.19
572.439	39.36
572.779	39.51
573.119	39.71
573.459	39.9
573.799	40.08
574.139	40.23
574.479	40.35
574.819	40.5
575.158	40.65
575.498	40.86
575.838	41.04
576.177	41.14
576.517	41.22
576.856	41.37
577.196	41.52
577.535	41.67
577.875	41.85
578.214	42
578.553	42.16
578.893	42.32
579.232	42.46
579.571	42.59
579.91	42.7
580.25	42.81
580.589	42.86
580.928	43.01
581.267	43.18
581.606	43.34
581.945	43.45
582.283	43.53
582.622	43.53
582.961	43.6
583.3	43.77
583.639	43.97
583.977	44.19
584.316	44.29
584.654	44.39
584.993	44.45
585.332	44.61
585.67	44.66
586.008	44.79
586.347	44.95
586.685	45.09
587.024	45.25
587.362	45.39
587.7	45.53
588.038	45.6
588.376	45.74
588.715	45.79
589.053	45.91
589.391	46.07
589.729	46.21
590.067	46.21
590.404	46.32
590.742	46.39
591.08	46.39
591.418	46.53
591.756	46.68
592.093	46.82
592.431	46.87
592.769	46.97
593.106	47.07
593.444	47.08
593.781	47.13
594.119	47.18
594.456	47.23
594.793	47.35
595.131	47.42
595.468	47.46
595.805	47.6
596.143	47.69
596.48	47.7
596.817	47.73
597.154	47.84
597.491	47.92
597.828	47.96
598.165	48.04
598.502	48.13
598.839	48.12
599.176	48.2
599.512	48.26
599.849	48.3
600.186	48.36
600.523	48.5
600.859	48.59
601.196	48.72
601.532	48.73
601.869	48.77
602.205	48.9
602.542	48.95
602.878	48.93
603.215	48.95
603.551	49.06
603.887	49.15
604.223	49.24
604.56	49.32
604.896	49.37
605.232	49.44
605.568	49.45
605.904	49.5
606.24	49.55
606.576	49.62
606.912	49.74
607.248	49.78
607.583	49.75
607.919	49.85
608.255	49.87
608.591	50
608.926	50.07
609.262	50.1
609.597	50.14
609.933	50.26
610.268	50.44
610.604	50.51
610.939	50.55
611.275	50.56
611.61	50.6
611.945	50.67
612.281	50.7
612.616	50.76
612.951	50.82
613.286	50.83
613.621	50.92
613.956	51.01
614.291	51.06
614.626	51.15
614.961	51.2
615.296	51.19
615.631	51.19
615.966	51.25
616.3	51.24
616.635	51.24
616.97	51.24
617.304	51.2
617.639	51.19
617.973	51.28
618.308	51.35
618.642	51.36
618.977	51.36
619.311	51.34
619.646	51.34
619.98	51.42
620.314	51.48
620.648	51.5
620.983	51.45
621.317	51.5
621.651	51.62
621.985	51.62
622.319	51.72
622.653	51.8
622.987	51.84
623.321	51.91
623.655	52.01
623.988	52.03
624.322	51.96
624.656	51.93
624.99	51.85
625.323	51.79
625.657	51.83
625.99	51.9
626.324	52.04
626.657	52.12
626.991	52.08
627.324	52.08
627.658	52.09
627.991	52.11
628.324	52.1
628.657	52.05
628.991	52.14
629.324	52.24
629.657	52.31
629.99	52.31
630.323	52.28
630.656	52.29
630.989	52.32
631.322	52.41
631.655	52.53
631.987	52.61
632.32	52.8
632.653	52.72
632.986	52.74
633.318	52.71
633.651	52.71
633.984	52.7
634.316	52.73
634.649	52.76
634.981	52.83
635.313	52.89
635.646	52.96
635.978	52.85
636.31	52.87
636.643	52.75
636.975	52.79
637.307	52.83
637.639	52.84
637.971	52.95
638.303	52.86
638.635	52.77
638.967	52.74
639.299	52.65
639.631	52.74
639.963	52.84
640.295	52.82
640.626	52.77
640.958	52.87
641.29	52.95
641.621	52.95
641.953	52.91
642.285	52.9
642.616	52.99
642.948	53.12
643.279	53.07
643.61	53.19
643.942	53.08
644.273	53.11
644.604	53.11
644.936	53.07
645.267	53.27
645.598	53.41
645.929	53.59
646.26	53.65
646.591	53.7
646.922	53.56
647.253	53.6
647.584	53.71
647.915	53.73
648.245	53.71
648.576	53.79
648.907	53.89
649.238	53.92
649.568	53.82
649.899	53.86
650.229	53.81
650.56	53.87
650.89	53.98
651.221	54.09
651.551	54.12
651.882	54.13
652.212	54.03
652.542	53.96
652.872	53.89
653.203	53.88
653.533	53.92
653.863	54.08
654.193	54.08
654.523	54.01
654.853	54.04
655.183	54.05
655.513	54.06
655.843	53.95
656.172	53.85
656.502	53.88
656.832	53.85
657.162	53.89
657.491	53.85
657.821	53.72
658.15	53.55
658.48	53.62
658.809	53.6
659.139	53.64
659.468	53.76
659.798	53.79
660.127	53.83
660.456	53.82
660.785	53.75
661.115	53.81
661.444	53.83
661.773	53.81
662.102	53.88
662.431	53.92
662.76	54
663.089	54.19
663.418	54.31
663.747	54.33
664.076	54.35
664.404	54.34
664.733	54.51
665.062	54.63
665.39	54.61
665.719	54.67
666.048	54.79
666.376	54.72
666.705	54.79
667.033	54.73
667.362	54.76
667.69	54.83
668.018	54.85
668.347	54.96
668.675	54.98
669.003	54.98
