Data from BA57712_Reflection_00010.txt Node
Date: Mon Nov 18 15:19:35 EST 2019
User: vgr7
Spectrometer: USB2G7710
Scans to average: 3
Trigger mode: 4
Integration Time (sec): 2.000000E-2
Electric dark correction enabled: true
Boxcar width: 10
XAxis mode: Wavelengths
Number of Pixels in Spectrum: 2048
>>>>>Begin Spectral Data<<<<<
177.721	-310.31
178.105	-145.42
178.488	-45.58
178.871	-71.63
179.254	-19.87
179.636	-98.83
180.019	19.69
180.402	11.36
180.785	-76.01
181.168	2822.22
181.55	203.75
181.933	99.38
182.316	79.45
182.698	76.09
183.081	78.77
183.463	41.42
183.846	30.85
184.228	-7.95
184.611	-1.27
184.993	-18.99
185.376	36.54
185.758	56.8
186.14	117.17
186.522	105.04
186.904	167.42
187.287	212.91
187.669	266.09
188.051	453.54
188.433	560.64
188.815	413.8
189.197	1067
189.579	-841.33
189.961	-425.87
190.342	-541.23
190.724	-491.57
191.106	-412.9
191.488	-167.48
191.869	-174.92
192.251	-248.46
192.633	-165.16
193.014	-277.01
193.396	-314.6
193.777	-326.7
194.159	-377.93
194.54	-242.32
194.922	-187.39
195.303	-152.58
195.684	-221.05
196.065	-164.4
196.447	-113.97
196.828	-119.91
197.209	-138.95
197.59	-137.84
197.971	-98.62
198.352	-75.68
198.733	-97.8
199.114	-81.84
199.495	-109.41
199.876	-62.05
200.257	-50.88
200.638	-56.48
201.018	-58.79
201.399	-71.33
201.78	-61.23
202.16	-49.27
202.541	-62.47
202.922	-67.87
203.302	-81.85
203.683	-78.56
204.063	-88.48
204.444	-105.76
204.824	-104.7
205.204	-88.26
205.585	-65.83
205.965	-75.05
206.345	-61.4
206.725	-70.48
207.106	-145.25
207.486	-486.56
207.866	252.41
208.246	167.17
208.626	207.6
209.006	251.32
209.386	232.16
209.766	267.31
210.145	136.58
210.525	161.73
210.905	246.14
211.285	142.42
211.664	152.75
212.044	515.87
212.424	209.03
212.803	285.19
213.183	-162.79
213.562	-310.47
213.942	-185.49
214.321	-506.35
214.701	-143.54
215.08	-93.77
215.459	-62.03
215.838	-35.21
216.218	-30.07
216.597	-27.42
216.976	-21.7
217.355	-11.5
217.734	-11.67
218.113	-8.03
218.492	-25.71
218.871	-58.45
219.25	-67.46
219.629	-92.25
220.008	-99.53
220.387	-103.07
220.766	-81.15
221.144	-121.96
221.523	-144.09
221.902	-130.69
222.28	-124.16
222.659	-118.23
223.037	-100.99
223.416	-125.15
223.794	-117.81
224.173	-121.98
224.551	-85.76
224.929	-89
225.308	-71.14
225.686	-49.23
226.064	-49.54
226.442	-38.3
226.821	-23.81
227.199	-22.99
227.577	-21.06
227.955	-19.8
228.333	-20.22
228.711	-18.78
229.089	-14.32
229.467	-12.25
229.845	-14.62
230.222	-12.62
230.6	-12.66
230.978	-12.66
231.356	-9.05
231.733	-8.77
232.111	-6.52
232.488	-7.14
232.866	-7.4
233.243	-8.98
233.621	-9.8
233.998	-7.88
234.376	-7.15
234.753	-7.87
235.13	-5.13
235.508	-1.91
235.885	-0.31
236.262	0.19
236.639	0.69
237.016	1.89
237.393	1.91
237.77	3.63
238.147	4.73
238.524	4.6
238.901	5.66
239.278	5.69
239.655	6.13
240.032	6.34
240.409	6.07
240.785	6.11
241.162	6.63
241.539	6.34
241.915	5.77
242.292	5.41
242.668	5.56
243.045	5.01
243.421	4.54
243.798	4.31
244.174	4.49
244.551	4.52
244.927	4.32
245.303	4.37
245.679	4.61
246.056	4.38
246.432	4.41
246.808	4.35
247.184	4.16
247.56	3.91
247.936	3.67
248.312	3.46
248.688	3.59
249.064	3.49
249.44	3.7
249.815	3.84
250.191	3.83
250.567	3.89
250.943	3.95
251.318	4.11
251.694	3.94
252.069	3.8
252.445	3.71
252.82	3.64
253.196	3.29
253.571	2.87
253.947	2.8
254.322	2.87
254.697	2.79
255.073	2.79
255.448	3.12
255.823	3.16
256.198	3.6
256.573	3.72
256.948	3.85
257.323	3.79
257.698	3.77
258.073	3.83
258.448	3.81
258.823	3.73
259.198	3.62
259.573	3.69
259.948	3.77
260.322	3.93
260.697	3.93
261.072	4.03
261.446	4.1
261.821	4.21
262.195	4.31
262.57	4.08
262.944	4.08
263.319	3.94
263.693	4.03
264.067	3.99
264.442	3.95
264.816	3.89
265.19	3.86
265.564	3.76
265.938	3.68
266.313	3.47
266.687	3.46
267.061	3.62
267.435	3.63
267.809	3.56
268.183	3.44
268.556	3.43
268.93	3.49
269.304	3.43
269.678	3.44
270.051	3.22
270.425	3.35
270.799	3.51
271.172	3.61
271.546	3.44
271.919	3.39
272.293	3.3
272.666	3.31
273.04	3.22
273.413	3.32
273.787	3.36
274.16	3.38
274.533	3.39
274.906	3.1
275.279	3.04
275.653	2.97
276.026	2.88
276.399	2.8
276.772	2.74
277.145	2.8
277.518	2.68
277.891	2.72
278.263	2.65
278.636	2.71
279.009	2.72
279.382	2.96
279.755	2.94
280.127	3.04
280.5	3.13
280.872	3.12
281.245	3.01
281.617	3.16
281.99	3.27
282.362	3.15
282.735	3.3
283.107	3.18
283.479	3.4
283.852	3.46
284.224	3.68
284.596	3.69
284.968	3.68
285.34	3.77
285.713	3.71
286.085	3.79
286.457	3.77
286.829	3.75
287.201	3.64
287.572	3.63
287.944	3.64
288.316	3.59
288.688	3.59
289.06	3.75
289.431	3.69
289.803	3.85
290.175	4.1
290.546	4.28
290.918	4.47
291.289	4.47
291.661	4.54
292.032	4.54
292.403	4.54
292.775	4.47
293.146	4.41
293.517	4.55
293.889	4.63
294.26	4.59
294.631	4.55
295.002	4.49
295.373	4.55
295.744	4.55
296.115	4.55
296.486	4.62
296.857	4.63
297.228	4.7
297.599	4.61
297.97	4.44
298.34	4.39
298.711	4.48
299.082	4.48
299.452	4.48
299.823	4.51
300.194	4.6
300.564	4.72
300.935	4.73
301.305	4.81
301.676	4.85
302.046	4.85
302.416	5.02
302.787	5.24
303.157	5.4
303.527	5.49
303.897	5.65
304.267	5.72
304.637	5.75
305.008	5.84
305.378	5.95
305.748	6.17
306.117	6.18
306.487	6.22
306.857	6.26
307.227	6.44
307.597	6.46
307.967	6.57
308.336	6.69
308.706	6.77
309.076	6.92
309.445	6.93
309.815	7.07
310.184	7.12
310.554	7.25
310.923	7.29
311.293	7.41
311.662	7.41
312.031	7.41
312.401	7.52
312.77	7.7
313.139	7.83
313.508	7.9
313.877	8.11
314.246	8.18
314.616	8.23
314.985	8.35
315.353	8.38
315.722	8.52
316.091	8.57
316.46	8.72
316.829	8.65
317.198	8.77
317.567	8.83
317.935	8.88
318.304	9
318.672	8.89
319.041	8.98
319.41	9.01
319.778	9.19
320.147	9.33
320.515	9.21
320.883	9.11
321.252	9.38
321.62	9.3
321.988	9.48
322.357	9.69
322.725	9.58
323.093	9.72
323.461	9.8
323.829	9.85
324.197	10.08
324.565	10.15
324.933	10.21
325.301	10.28
325.669	10.36
326.037	10.23
326.405	10.41
326.772	10.51
327.14	10.8
327.508	10.9
327.875	10.86
328.243	11.09
328.61	11.21
328.978	11.2
329.346	11.41
329.713	11.34
330.08	11.26
330.448	11.32
330.815	11.31
331.182	11.24
331.55	11.33
331.917	11.33
332.284	11.45
332.651	11.35
333.018	11.4
333.385	11.54
333.752	11.54
334.119	11.53
334.486	11.47
334.853	11.37
335.22	11.3
335.587	11.31
335.954	11.22
336.32	11.19
336.687	11.17
337.054	11.08
337.42	11.12
337.787	11.31
338.153	11.41
338.52	11.56
338.886	11.61
339.253	11.62
339.619	11.56
339.986	11.52
340.352	11.7
340.718	11.64
341.084	11.48
341.451	11.55
341.817	11.65
342.183	11.71
342.549	11.75
342.915	11.84
343.281	11.85
343.647	11.77
344.013	11.87
344.379	11.79
344.745	11.88
345.11	11.78
345.476	11.75
345.842	11.77
346.208	11.73
346.573	11.73
346.939	11.76
347.304	11.81
347.67	11.88
348.035	11.9
348.401	12.04
348.766	12.14
349.132	12.14
349.497	12.06
349.862	12.1
350.228	12.09
350.593	11.99
350.958	12.11
351.323	12.21
351.688	12.17
352.053	12.28
352.418	12.33
352.783	12.41
353.148	12.32
353.513	12.2
353.878	12.19
354.243	12.22
354.608	12.17
354.972	12.15
355.337	12.12
355.702	12.05
356.066	12.08
356.431	12.08
356.795	12.14
357.16	12.07
357.524	12
357.889	11.97
358.253	12.01
358.618	12
358.982	11.99
359.346	11.99
359.71	11.91
360.075	11.78
360.439	11.79
360.803	11.78
361.167	11.82
361.531	11.85
361.895	11.73
362.259	11.76
362.623	11.7
362.987	11.66
363.351	11.62
363.714	11.57
364.078	11.5
364.442	11.48
364.806	11.47
365.169	11.43
365.533	11.36
365.896	11.32
366.26	11.26
366.623	11.14
366.987	11.11
367.35	11.07
367.714	11.11
368.077	11.01
368.44	10.94
368.803	10.9
369.167	10.71
369.53	10.66
369.893	10.6
370.256	10.5
370.619	10.44
370.982	10.37
371.345	10.27
371.708	10.23
372.071	10.09
372.434	10.05
372.797	10.01
373.159	9.9
373.522	9.84
373.885	9.74
374.247	9.8
374.61	9.7
374.973	9.66
375.335	9.53
375.698	9.48
376.06	9.39
376.423	9.25
376.785	9.26
377.147	9.23
377.51	9.16
377.872	9.12
378.234	9.02
378.596	9
378.958	8.9
379.321	8.82
379.683	8.8
380.045	8.72
380.407	8.61
380.769	8.61
381.13	8.51
381.492	8.43
381.854	8.3
382.216	8.18
382.578	8.07
382.939	7.96
383.301	7.92
383.663	7.88
384.024	7.84
384.386	7.79
384.747	7.76
385.109	7.73
385.47	7.69
385.832	7.67
386.193	7.6
386.554	7.58
386.916	7.56
387.277	7.48
387.638	7.45
387.999	7.4
388.36	7.36
388.721	7.33
389.082	7.29
389.443	7.25
389.804	7.23
390.165	7.22
390.526	7.17
390.887	7.08
391.248	7.06
391.609	7
391.969	6.91
392.33	6.84
392.691	6.74
393.051	6.67
393.412	6.63
393.772	6.58
394.133	6.5
394.493	6.43
394.854	6.36
395.214	6.28
395.574	6.22
395.935	6.16
396.295	6.14
396.655	6.07
397.015	6
397.376	5.98
397.736	5.9
398.096	5.85
398.456	5.84
398.816	5.77
399.176	5.71
399.535	5.69
399.895	5.65
400.255	5.62
400.615	5.57
400.975	5.51
401.334	5.46
401.694	5.41
402.054	5.37
402.413	5.35
402.773	5.33
403.132	5.26
403.492	5.2
403.851	5.13
404.211	5.1
404.57	5.07
404.929	5.01
405.288	4.97
405.648	4.97
406.007	4.92
406.366	4.92
406.725	4.92
407.084	4.89
407.443	4.9
407.802	4.91
408.161	4.87
408.52	4.84
408.879	4.81
409.238	4.84
409.596	4.81
409.955	4.8
410.314	4.78
410.673	4.82
411.031	4.83
411.39	4.81
411.748	4.81
412.107	4.81
412.465	4.77
412.824	4.77
413.182	4.73
413.54	4.7
413.899	4.66
414.257	4.65
414.615	4.62
414.974	4.59
415.332	4.54
415.69	4.54
416.048	4.51
416.406	4.49
416.764	4.43
417.122	4.42
417.48	4.41
417.838	4.4
418.195	4.35
418.553	4.31
418.911	4.29
419.269	4.28
419.626	4.27
419.984	4.27
420.342	4.25
420.699	4.23
421.057	4.23
421.414	4.2
421.772	4.17
422.129	4.15
422.486	4.11
422.844	4.11
423.201	4.07
423.558	4.05
423.915	4.04
424.273	4.02
424.63	4
424.987	3.97
425.344	3.94
425.701	3.94
426.058	3.93
426.415	3.92
426.772	3.88
427.128	3.85
427.485	3.82
427.842	3.8
428.199	3.79
428.555	3.79
428.912	3.8
429.269	3.8
429.625	3.8
429.982	3.79
430.338	3.77
430.695	3.8
431.051	3.78
431.407	3.79
431.764	3.79
432.12	3.79
432.476	3.79
432.832	3.79
433.189	3.79
433.545	3.79
433.901	3.8
434.257	3.81
434.613	3.81
434.969	3.82
435.325	3.83
435.681	3.85
436.036	3.82
436.392	3.84
436.748	3.83
437.104	3.83
437.459	3.85
437.815	3.86
438.171	3.84
438.526	3.85
438.882	3.85
439.237	3.85
439.593	3.86
439.948	3.87
440.304	3.86
440.659	3.87
441.014	3.85
441.369	3.83
441.725	3.81
442.08	3.82
442.435	3.8
442.79	3.8
443.145	3.78
443.5	3.78
443.855	3.75
444.21	3.74
444.565	3.75
444.92	3.72
445.275	3.7
445.629	3.7
445.984	3.69
446.339	3.67
446.693	3.65
447.048	3.63
447.403	3.61
447.757	3.61
448.112	3.59
448.466	3.6
448.82	3.6
449.175	3.6
449.529	3.57
449.883	3.55
450.238	3.52
450.592	3.52
450.946	3.5
451.3	3.5
451.654	3.5
452.008	3.48
452.362	3.46
452.716	3.47
453.07	3.46
453.424	3.46
453.778	3.45
454.132	3.46
454.486	3.46
454.839	3.46
455.193	3.45
455.547	3.45
455.9	3.45
456.254	3.46
456.607	3.46
456.961	3.47
457.314	3.48
457.668	3.51
458.021	3.5
458.375	3.5
458.728	3.48
459.081	3.5
459.434	3.49
459.787	3.51
460.141	3.5
460.494	3.52
460.847	3.53
461.2	3.52
461.553	3.54
461.906	3.55
462.259	3.56
462.611	3.56
462.964	3.58
463.317	3.58
463.67	3.57
464.022	3.58
464.375	3.58
464.728	3.58
465.08	3.59
465.433	3.61
465.785	3.63
466.138	3.65
466.49	3.65
466.843	3.66
467.195	3.66
467.547	3.68
467.899	3.68
468.252	3.69
468.604	3.72
468.956	3.73
469.308	3.72
469.66	3.72
470.012	3.74
470.364	3.75
470.716	3.77
471.068	3.79
471.42	3.8
471.772	3.84
472.123	3.85
472.475	3.87
472.827	3.86
473.178	3.86
473.53	3.85
473.882	3.83
474.233	3.86
474.585	3.86
474.936	3.82
475.288	3.82
475.639	3.84
475.99	3.83
476.342	3.82
476.693	3.85
477.044	3.87
477.395	3.86
477.746	3.83
478.097	3.83
478.448	3.83
478.8	3.82
479.15	3.78
479.501	3.77
479.852	3.75
480.203	3.77
480.554	3.77
480.905	3.78
481.255	3.79
481.606	3.78
481.957	3.79
482.307	3.81
482.658	3.81
483.009	3.8
483.359	3.8
483.709	3.81
484.06	3.8
484.41	3.79
484.761	3.78
485.111	3.8
485.461	3.79
485.811	3.79
486.162	3.8
486.512	3.82
486.862	3.82
487.212	3.83
487.562	3.83
487.912	3.84
488.262	3.84
488.612	3.85
488.961	3.86
489.311	3.87
489.661	3.87
490.011	3.88
490.36	3.88
490.71	3.88
491.06	3.89
491.409	3.9
491.759	3.91
492.108	3.93
492.458	3.95
492.807	3.97
493.157	3.98
493.506	4
493.855	4
494.204	4.03
494.554	4.05
494.903	4.06
495.252	4.09
495.601	4.13
495.95	4.15
496.299	4.16
496.648	4.18
496.997	4.22
497.346	4.27
497.695	4.31
498.043	4.34
498.392	4.37
498.741	4.41
499.09	4.45
499.438	4.51
499.787	4.54
500.135	4.58
500.484	4.62
500.832	4.65
501.181	4.68
501.529	4.7
501.878	4.78
502.226	4.83
502.574	4.88
502.923	4.93
503.271	4.98
503.619	5.07
503.967	5.13
504.315	5.2
504.663	5.24
505.011	5.32
505.359	5.41
505.707	5.48
506.055	5.56
506.403	5.63
506.751	5.69
507.098	5.77
507.446	5.86
507.794	5.93
508.141	6.04
508.489	6.14
508.837	6.25
509.184	6.34
509.531	6.41
509.879	6.54
510.226	6.62
510.574	6.71
510.921	6.77
511.268	6.86
511.616	6.93
511.963	7.01
512.31	7.11
512.657	7.21
513.004	7.32
513.351	7.44
513.698	7.58
514.045	7.7
514.392	7.82
514.739	7.93
515.086	8.08
515.432	8.19
515.779	8.31
516.126	8.43
516.473	8.55
516.819	8.67
517.166	8.78
517.512	8.89
517.859	9.01
518.205	9.14
518.552	9.26
518.898	9.39
519.245	9.52
519.591	9.63
519.937	9.72
520.283	9.86
520.629	9.98
520.976	10.11
521.322	10.24
521.668	10.38
522.014	10.53
522.36	10.68
522.706	10.85
523.052	11.05
523.398	11.26
523.743	11.46
524.089	11.67
524.435	11.86
524.781	12.06
525.126	12.25
525.472	12.43
525.817	12.59
526.163	12.73
526.509	12.88
526.854	13.04
527.199	13.19
527.545	13.3
527.89	13.44
528.235	13.57
528.581	13.7
528.926	13.84
529.271	14.01
529.616	14.15
529.961	14.29
530.306	14.44
530.651	14.61
530.996	14.78
531.341	14.95
531.686	15.14
532.031	15.31
532.376	15.49
532.721	15.69
533.065	15.89
533.41	16.1
533.755	16.31
534.099	16.52
534.444	16.75
534.788	16.98
535.133	17.21
535.477	17.44
535.822	17.68
536.166	17.95
536.51	18.21
536.855	18.5
537.199	18.8
537.543	19.12
537.887	19.39
538.231	19.7
538.576	20.05
538.92	20.34
539.264	20.63
539.608	20.91
539.951	21.16
540.295	21.42
540.639	21.71
540.983	21.95
541.327	22.18
541.671	22.41
542.014	22.67
542.358	22.91
542.701	23.15
543.045	23.41
543.389	23.62
543.732	23.85
544.075	24.1
544.419	24.37
544.762	24.62
545.105	24.9
545.449	25.18
545.792	25.42
546.135	25.73
546.478	26.07
546.821	26.41
547.165	26.75
547.508	27.09
547.851	27.4
548.194	27.73
548.536	28.06
548.879	28.43
549.222	28.71
549.565	29.07
549.908	29.45
550.25	29.78
550.593	30.16
550.936	30.49
551.278	30.79
551.621	31.1
551.963	31.4
552.306	31.7
552.648	31.99
552.991	32.34
553.333	32.64
553.675	32.9
554.017	33.19
554.36	33.48
554.702	33.73
555.044	34.02
555.386	34.31
555.728	34.6
556.07	34.85
556.412	35.11
556.754	35.34
557.096	35.59
557.438	35.87
557.78	36.14
558.121	36.48
558.463	36.78
558.805	37.08
559.147	37.37
559.488	37.63
559.83	37.85
560.171	38.1
560.513	38.33
560.854	38.63
561.196	38.95
561.537	39.23
561.878	39.44
562.22	39.65
562.561	39.89
562.902	40.15
563.243	40.39
563.584	40.65
563.925	40.97
564.266	41.19
564.607	41.39
564.948	41.66
565.289	41.87
565.63	42.05
565.971	42.21
566.312	42.45
566.653	42.67
566.993	42.91
567.334	43.1
567.675	43.34
568.015	43.46
568.356	43.58
568.696	43.75
569.037	43.94
569.377	44.13
569.718	44.31
570.058	44.45
570.398	44.62
570.739	44.82
571.079	44.94
571.419	45.12
571.759	45.32
572.099	45.44
572.439	45.63
572.779	45.82
573.119	46.03
573.459	46.13
573.799	46.29
574.139	46.48
574.479	46.62
574.819	46.74
575.158	46.93
575.498	47.1
575.838	47.2
576.177	47.38
576.517	47.56
576.856	47.76
577.196	47.92
577.535	48.03
577.875	48.15
578.214	48.3
578.553	48.45
578.893	48.56
579.232	48.69
579.571	48.78
579.91	48.96
580.25	49.08
580.589	49.26
580.928	49.46
581.267	49.53
581.606	49.69
581.945	49.81
582.283	49.91
582.622	50.05
582.961	50.24
583.3	50.37
583.639	50.47
583.977	50.56
584.316	50.65
584.654	50.81
584.993	50.86
585.332	50.95
585.67	51.01
586.008	51.09
586.347	51.22
586.685	51.33
587.024	51.29
587.362	51.32
587.7	51.36
588.038	51.34
588.376	51.45
588.715	51.49
589.053	51.68
589.391	51.78
589.729	51.92
590.067	52.03
590.404	52.08
590.742	52.2
591.08	52.25
591.418	52.38
591.756	52.45
592.093	52.59
592.431	52.62
592.769	52.76
593.106	52.86
593.444	52.88
593.781	52.97
594.119	53.13
594.456	53.24
594.793	53.31
595.131	53.4
595.468	53.48
595.805	53.57
596.143	53.5
596.48	53.52
596.817	53.5
597.154	53.56
597.491	53.64
597.828	53.73
598.165	53.79
598.502	53.92
598.839	53.92
599.176	53.94
599.512	54.06
599.849	54.1
600.186	54.19
600.523	54.26
600.859	54.29
601.196	54.28
601.532	54.36
601.869	54.47
602.205	54.5
602.542	54.48
602.878	54.47
603.215	54.55
603.551	54.61
603.887	54.63
604.223	54.61
604.56	54.7
604.896	54.66
605.232	54.68
605.568	54.67
605.904	54.75
606.24	54.78
606.576	54.8
606.912	54.83
607.248	54.82
607.583	54.91
607.919	54.93
608.255	55.05
608.591	55.1
608.926	55.08
609.262	55.14
609.597	55.23
609.933	55.3
610.268	55.39
610.604	55.42
610.939	55.57
611.275	55.64
611.61	55.65
611.945	55.7
612.281	55.76
612.616	55.84
612.951	55.87
613.286	56.01
613.621	56.05
613.956	56.12
614.291	56.21
614.626	56.24
614.961	56.28
615.296	56.36
615.631	56.35
615.966	56.43
616.3	56.51
616.635	56.52
616.97	56.65
617.304	56.67
617.639	56.71
617.973	56.69
618.308	56.77
618.642	56.83
618.977	56.84
619.311	56.83
619.646	56.87
619.98	57.05
620.314	57.08
620.648	57.1
620.983	57.15
621.317	57.13
621.651	57.18
621.985	57.28
622.319	57.27
622.653	57.22
622.987	57.27
623.321	57.28
623.655	57.31
623.988	57.28
624.322	57.27
624.656	57.35
624.99	57.4
625.323	57.42
625.657	57.41
625.99	57.48
626.324	57.58
626.657	57.57
626.991	57.52
627.324	57.55
627.658	57.63
627.991	57.59
628.324	57.7
628.657	57.71
628.991	57.66
629.324	57.71
629.657	57.81
629.99	57.81
630.323	57.85
630.656	57.85
630.989	58
631.322	58.05
631.655	58.08
631.987	58.13
632.32	58.19
632.653	58.28
632.986	58.25
633.318	58.2
633.651	58.22
633.984	58.27
634.316	58.34
634.649	58.31
634.981	58.29
635.313	58.21
635.646	58.22
635.978	58.33
636.31	58.33
636.643	58.34
636.975	58.35
637.307	58.36
637.639	58.4
637.971	58.34
638.303	58.36
638.635	58.36
638.967	58.36
639.299	58.33
639.631	58.28
639.963	58.38
640.295	58.36
640.626	58.44
640.958	58.42
641.29	58.33
641.621	58.45
641.953	58.58
642.285	58.69
642.616	58.69
642.948	58.68
643.279	58.63
643.61	58.74
643.942	58.78
644.273	58.78
644.604	58.83
644.936	58.68
645.267	58.76
645.598	58.79
645.929	58.75
646.26	58.67
646.591	58.6
646.922	58.63
647.253	58.72
647.584	58.57
647.915	58.63
648.245	58.66
648.576	58.66
648.907	58.65
649.238	58.61
649.568	58.64
649.899	58.61
650.229	58.72
650.56	58.69
650.89	58.67
651.221	58.64
651.551	58.62
651.882	58.72
652.212	58.65
652.542	58.63
652.872	58.65
653.203	58.66
653.533	58.76
653.863	58.81
654.193	58.9
654.523	58.96
654.853	58.92
655.183	58.98
655.513	58.91
655.843	58.91
656.172	58.89
656.502	58.98
656.832	59.06
657.162	59.05
657.491	59.06
657.821	59.15
658.15	59.22
658.48	59.25
658.809	59.32
659.139	59.35
659.468	59.38
659.798	59.35
660.127	59.4
660.456	59.44
660.785	59.39
661.115	59.33
661.444	59.24
661.773	59.19
662.102	59.16
662.431	59.25
662.76	59.22
663.089	59.36
