Data from BA57663_Reflection_00004.txt Node
Date: Mon Nov 18 15:43:48 EST 2019
User: vgr7
Spectrometer: USB2G7710
Scans to average: 3
Trigger mode: 4
Integration Time (sec): 2.000000E-2
Electric dark correction enabled: true
Boxcar width: 10
XAxis mode: Wavelengths
Number of Pixels in Spectrum: 2048
>>>>>Begin Spectral Data<<<<<
177.721	723
178.105	-90.75
178.488	-71.13
178.871	-107.59
179.254	41.5
179.636	126.55
180.019	41.83
180.402	53.57
180.785	112.55
181.168	125.08
181.55	60.25
181.933	96.64
182.316	130.28
182.698	123.01
183.081	134.11
183.463	213.33
183.846	185.12
184.228	192.22
184.611	136.73
184.993	127.43
185.376	161.38
185.758	142.61
186.14	179.77
186.522	192.78
186.904	185.64
187.287	211.54
187.669	287.99
188.051	270.65
188.433	279.2
188.815	307.57
189.197	261.97
189.579	461.94
189.961	375.18
190.342	463.71
190.724	6818.31
191.106	3509.94
191.488	1298.55
191.869	9892.45
192.251	4565.65
192.633	-5762.39
193.014	-2157.33
193.396	1991.5
193.777	1331.83
194.159	2116.39
194.54	2076.11
194.922	-3397.04
195.303	-1733.86
195.684	-548900
196.065	-715.49
196.447	-562.04
196.828	-483.77
197.209	-339.28
197.59	-526.64
197.971	-406.61
198.352	-386.66
198.733	-2009.54
199.114	-3849.64
199.495	-1328.21
199.876	-1019.4
200.257	-651.09
200.638	-532.21
201.018	-381.99
201.399	-295.42
201.78	-175.33
202.16	-196.32
202.541	-290.46
202.922	-309.41
203.302	-444.63
203.683	-673.2
204.063	-779.23
204.444	-1379.56
204.824	-2132.23
205.204	-1208.43
205.585	-843.99
205.965	-747.33
206.345	-1085.75
206.725	-600.6
207.106	-620.14
207.486	-1153.83
207.866	2597.8
208.246	1060.24
208.626	568.11
209.006	655.83
209.386	553.66
209.766	312.93
210.145	275.09
210.525	436.06
210.905	284.04
211.285	469.54
211.664	1308.14
212.044	643.53
212.424	3860.56
212.803	6173.17
213.183	499.48
213.562	344.78
213.942	7013.04
214.321	-734.15
214.701	-351.33
215.08	-622.03
215.459	-592.31
215.838	-130.77
216.218	-203.37
216.597	-90.77
216.976	-62
217.355	-42.2
217.734	-74.84
218.113	-64.76
218.492	-80.54
218.871	-74.22
219.25	-97.63
219.629	-127.76
220.008	-125.58
220.387	-83.17
220.766	-146.97
221.144	-472.68
221.523	-364.24
221.902	-633.86
222.28	-792.27
222.659	-1488.24
223.037	-641.34
223.416	-582.6
223.794	-394.89
224.173	-145.24
224.551	-81.85
224.929	-64.98
225.308	-52.25
225.686	-47.06
226.064	-33.92
226.442	-26.83
226.821	-27.14
227.199	-25.42
227.577	-25.82
227.955	-21.77
228.333	-20.95
228.711	-14.1
229.089	-11.41
229.467	-10.05
229.845	-6.23
230.222	-3.34
230.6	-4.87
230.978	-3.7
231.356	-3.71
231.733	-2.7
232.111	-1.09
232.488	1.55
232.866	0.32
233.243	1.34
233.621	2.12
233.998	3.46
234.376	2.88
234.753	3.26
235.13	2.4
235.508	3.95
235.885	4.74
236.262	3.33
236.639	1.08
237.016	1.01
237.393	2.82
237.77	4.58
238.147	3.84
238.524	4.79
238.901	4.93
239.278	4.97
239.655	5.38
240.032	5.09
240.409	4.88
240.785	4.56
241.162	4.39
241.539	4.01
241.915	4.2
242.292	3.9
242.668	4.01
243.045	4.35
243.421	4.22
243.798	4.14
244.174	4.29
244.551	4.76
244.927	4.77
245.303	4.44
245.679	4.11
246.056	4.03
246.432	3.84
246.808	3.76
247.184	3.92
247.56	3.53
247.936	3.54
248.312	3.26
248.688	3.39
249.064	3.34
249.44	3.57
249.815	3.38
250.191	3.57
250.567	3.72
250.943	3.62
251.318	3.78
251.694	3.64
252.069	3.67
252.445	3.49
252.82	3.73
253.196	3.64
253.571	3.51
253.947	3.92
254.322	4.14
254.697	3.97
255.073	3.63
255.448	3.82
255.823	3.8
256.198	4.13
256.573	4.09
256.948	4.23
257.323	4.3
257.698	4.29
258.073	4.19
258.448	4
258.823	4.15
259.198	3.95
259.573	4.06
259.948	4.08
260.322	4.19
260.697	3.99
261.072	3.93
261.446	3.96
261.821	3.81
262.195	3.82
262.57	3.88
262.944	3.87
263.319	3.84
263.693	3.75
264.067	3.71
264.442	3.81
264.816	3.87
265.19	3.77
265.564	3.76
265.938	3.75
266.313	3.87
266.687	3.68
267.061	3.89
267.435	3.84
267.809	3.74
268.183	3.62
268.556	3.54
268.93	3.73
269.304	3.72
269.678	3.87
270.051	3.75
270.425	3.84
270.799	3.9
271.172	3.98
271.546	4.07
271.919	3.94
272.293	3.81
272.666	3.75
273.04	3.79
273.413	3.78
273.787	3.74
274.16	3.74
274.533	3.7
274.906	3.57
275.279	3.64
275.653	3.76
276.026	3.74
276.399	3.82
276.772	3.86
277.145	3.89
277.518	3.88
277.891	3.99
278.263	3.87
278.636	3.89
279.009	3.77
279.382	3.7
279.755	3.68
280.127	3.84
280.5	3.76
280.872	3.75
281.245	3.74
281.617	3.94
281.99	3.82
282.362	4.1
282.735	4.01
283.107	3.88
283.479	3.88
283.852	3.96
284.224	4.06
284.596	3.98
284.968	4.03
285.34	3.98
285.713	3.88
286.085	3.99
286.457	4.19
286.829	4.35
287.201	4.46
287.572	4.46
287.944	4.34
288.316	4.37
288.688	4.37
289.06	4.42
289.431	4.31
289.803	4.4
290.175	4.19
290.546	4.4
290.918	4.5
291.289	4.54
291.661	4.62
292.032	4.62
292.403	4.73
292.775	4.76
293.146	4.84
293.517	4.87
293.889	4.76
294.26	4.65
294.631	4.6
295.002	4.42
295.373	4.33
295.744	4.35
296.115	4.38
296.486	4.31
296.857	4.26
297.228	4.34
297.599	4.23
297.97	4.32
298.34	4.26
298.711	4.37
299.082	4.28
299.452	4.24
299.823	4.31
300.194	4.38
300.564	4.19
300.935	4.16
301.305	4.19
301.676	4.38
302.046	4.38
302.416	4.35
302.787	4.44
303.157	4.64
303.527	4.61
303.897	4.67
304.267	4.86
304.637	5.02
305.008	4.96
305.378	5.23
305.748	5.16
306.117	5.19
306.487	5.09
306.857	5
307.227	4.97
307.597	4.94
307.967	4.79
308.336	4.97
308.706	5.01
309.076	5.04
309.445	4.88
309.815	4.76
310.184	4.79
310.554	4.83
310.923	4.79
311.293	4.8
311.662	4.72
312.031	4.58
312.401	4.55
312.77	4.49
313.139	4.45
313.508	4.43
313.877	4.35
314.246	4.25
314.616	4.31
314.985	4.38
315.353	4.2
315.722	4.33
316.091	4.29
316.46	4.16
316.829	4.17
317.198	4.12
317.567	4.14
317.935	3.99
318.304	3.9
318.672	3.86
319.041	4
319.41	3.97
319.778	3.92
320.147	3.8
320.515	3.81
320.883	3.55
321.252	3.74
321.62	3.74
321.988	3.84
322.357	3.91
322.725	3.82
323.093	3.9
323.461	3.81
323.829	3.84
324.197	3.98
324.565	3.96
324.933	4.02
325.301	4.04
325.669	4.12
326.037	4.26
326.405	4.31
326.772	4.35
327.14	4.39
327.508	4.39
327.875	4.47
328.243	4.61
328.61	4.83
328.978	4.72
329.346	4.8
329.713	4.74
330.08	4.76
330.448	4.72
330.815	4.52
331.182	4.56
331.55	4.54
331.917	4.46
332.284	4.48
332.651	4.35
333.018	4.39
333.385	4.38
333.752	4.41
334.119	4.45
334.486	4.41
334.853	4.31
335.22	4.41
335.587	4.4
335.954	4.39
336.32	4.31
336.687	4.2
337.054	4.1
337.42	4.08
337.787	4.11
338.153	4.2
338.52	4.41
338.886	4.28
339.253	4.11
339.619	4.14
339.986	4.08
340.352	4.14
340.718	4.12
341.084	4.13
341.451	4.07
341.817	4.06
342.183	3.98
342.549	4.05
342.915	4.06
343.281	4
343.647	3.88
344.013	3.84
344.379	3.97
344.745	4.02
345.11	4.07
345.476	4.08
345.842	3.95
346.208	3.9
346.573	4.01
346.939	4.17
347.304	4.14
347.67	4.11
348.035	4.15
348.401	4.12
348.766	4.13
349.132	4.14
349.497	3.98
349.862	4.17
350.228	4.13
350.593	4.14
350.958	4.18
351.323	4.27
351.688	4.31
352.053	4.29
352.418	4.35
352.783	4.3
353.148	4.25
353.513	4.32
353.878	4.32
354.243	4.33
354.608	4.24
354.972	4.22
355.337	4.26
355.702	4.36
356.066	4.39
356.431	4.4
356.795	4.43
357.16	4.54
357.524	4.44
357.889	4.46
358.253	4.47
358.618	4.49
358.982	4.41
359.346	4.37
359.71	4.36
360.075	4.34
360.439	4.35
360.803	4.32
361.167	4.26
361.531	4.3
361.895	4.27
362.259	4.32
362.623	4.33
362.987	4.29
363.351	4.23
363.714	4.26
364.078	4.21
364.442	4.17
364.806	4.16
365.169	4.13
365.533	4.12
365.896	4.13
366.26	4.08
366.623	4.08
366.987	4.11
367.35	4.1
367.714	4.12
368.077	4.14
368.44	4.16
368.803	4.22
369.167	4.21
369.53	4.24
369.893	4.2
370.256	4.23
370.619	4.32
370.982	4.28
371.345	4.2
371.708	4.27
372.071	4.21
372.434	4.21
372.797	4.21
373.159	4.25
373.522	4.26
373.885	4.29
374.247	4.34
374.61	4.38
374.973	4.4
375.335	4.34
375.698	4.35
376.06	4.4
376.423	4.39
376.785	4.42
377.147	4.39
377.51	4.43
377.872	4.45
378.234	4.41
378.596	4.45
378.958	4.49
379.321	4.47
379.683	4.51
380.045	4.54
380.407	4.56
380.769	4.54
381.13	4.5
381.492	4.52
381.854	4.53
382.216	4.5
382.578	4.54
382.939	4.57
383.301	4.57
383.663	4.51
384.024	4.51
384.386	4.5
384.747	4.53
385.109	4.5
385.47	4.45
385.832	4.46
386.193	4.46
386.554	4.43
386.916	4.43
387.277	4.39
387.638	4.41
387.999	4.37
388.36	4.35
388.721	4.35
389.082	4.32
389.443	4.31
389.804	4.27
390.165	4.19
390.526	4.2
390.887	4.18
391.248	4.21
391.609	4.2
391.969	4.17
392.33	4.14
392.691	4.13
393.051	4.12
393.412	4.14
393.772	4.12
394.133	4.14
394.493	4.16
394.854	4.18
395.214	4.14
395.574	4.16
395.935	4.18
396.295	4.22
396.655	4.23
397.015	4.21
397.376	4.24
397.736	4.28
398.096	4.29
398.456	4.3
398.816	4.3
399.176	4.27
399.535	4.28
399.895	4.29
400.255	4.3
400.615	4.32
400.975	4.29
401.334	4.29
401.694	4.27
402.054	4.25
402.413	4.27
402.773	4.25
403.132	4.24
403.492	4.21
403.851	4.15
404.211	4.15
404.57	4.15
404.929	4.14
405.288	4.13
405.648	4.09
406.007	4.08
406.366	4.07
406.725	4.1
407.084	4.14
407.443	4.13
407.802	4.17
408.161	4.16
408.52	4.14
408.879	4.13
409.238	4.15
409.596	4.14
409.955	4.16
410.314	4.2
410.673	4.22
411.031	4.22
411.39	4.24
411.748	4.23
412.107	4.26
412.465	4.24
412.824	4.24
413.182	4.24
413.54	4.25
413.899	4.26
414.257	4.27
414.615	4.22
414.974	4.23
415.332	4.2
415.69	4.19
416.048	4.2
416.406	4.23
416.764	4.2
417.122	4.21
417.48	4.18
417.838	4.18
418.195	4.18
418.553	4.19
418.911	4.21
419.269	4.22
419.626	4.22
419.984	4.21
420.342	4.22
420.699	4.22
421.057	4.23
421.414	4.23
421.772	4.23
422.129	4.23
422.486	4.24
422.844	4.26
423.201	4.25
423.558	4.25
423.915	4.24
424.273	4.25
424.63	4.24
424.987	4.25
425.344	4.25
425.701	4.24
426.058	4.24
426.415	4.22
426.772	4.21
427.128	4.18
427.485	4.21
427.842	4.18
428.199	4.18
428.555	4.15
428.912	4.15
429.269	4.13
429.625	4.15
429.982	4.14
430.338	4.1
430.695	4.1
431.051	4.09
431.407	4.1
431.764	4.09
432.12	4.11
432.476	4.08
432.832	4.08
433.189	4.09
433.545	4.1
433.901	4.1
434.257	4.1
434.613	4.1
434.969	4.11
435.325	4.12
435.681	4.12
436.036	4.13
436.392	4.11
436.748	4.11
437.104	4.1
437.459	4.11
437.815	4.12
438.171	4.14
438.526	4.14
438.882	4.13
439.237	4.13
439.593	4.14
439.948	4.16
440.304	4.17
440.659	4.18
441.014	4.19
441.369	4.18
441.725	4.18
442.08	4.21
442.435	4.21
442.79	4.21
443.145	4.23
443.5	4.23
443.855	4.25
444.21	4.25
444.565	4.26
444.92	4.28
445.275	4.28
445.629	4.28
445.984	4.29
446.339	4.3
446.693	4.3
447.048	4.28
447.403	4.27
447.757	4.26
448.112	4.25
448.466	4.24
448.82	4.22
449.175	4.23
449.529	4.2
449.883	4.18
450.238	4.16
450.592	4.17
450.946	4.15
451.3	4.13
451.654	4.11
452.008	4.11
452.362	4.08
452.716	4.07
453.07	4.06
453.424	4.06
453.778	4.05
454.132	4.05
454.486	4.05
454.839	4.07
455.193	4.06
455.547	4.06
455.9	4.07
456.254	4.09
456.607	4.09
456.961	4.09
457.314	4.1
457.668	4.12
458.021	4.12
458.375	4.12
458.728	4.13
459.081	4.15
459.434	4.12
459.787	4.13
460.141	4.12
460.494	4.13
460.847	4.12
461.2	4.13
461.553	4.11
461.906	4.12
462.259	4.11
462.611	4.13
462.964	4.13
463.317	4.14
463.67	4.15
464.022	4.17
464.375	4.18
464.728	4.19
465.08	4.18
465.433	4.18
465.785	4.19
466.138	4.18
466.49	4.19
466.843	4.21
467.195	4.22
467.547	4.25
467.899	4.25
468.252	4.25
468.604	4.25
468.956	4.27
469.308	4.25
469.66	4.25
470.012	4.24
470.364	4.23
470.716	4.22
471.068	4.2
471.42	4.18
471.772	4.18
472.123	4.18
472.475	4.2
472.827	4.2
473.178	4.19
473.53	4.19
473.882	4.19
474.233	4.21
474.585	4.18
474.936	4.17
475.288	4.17
475.639	4.17
475.99	4.19
476.342	4.18
476.693	4.2
477.044	4.2
477.395	4.2
477.746	4.2
478.097	4.21
478.448	4.2
478.8	4.2
479.15	4.19
479.501	4.19
479.852	4.2
480.203	4.21
480.554	4.23
480.905	4.24
481.255	4.25
481.606	4.26
481.957	4.29
482.307	4.29
482.658	4.29
483.009	4.29
483.359	4.29
483.709	4.3
484.06	4.3
484.41	4.31
484.761	4.32
485.111	4.33
485.461	4.33
485.811	4.34
486.162	4.34
486.512	4.36
486.862	4.36
487.212	4.36
487.562	4.36
487.912	4.36
488.262	4.36
488.612	4.36
488.961	4.35
489.311	4.34
489.661	4.33
490.011	4.33
490.36	4.33
490.71	4.31
491.06	4.3
491.409	4.3
491.759	4.29
492.108	4.27
492.458	4.28
492.807	4.28
493.157	4.28
493.506	4.27
493.855	4.27
494.204	4.26
494.554	4.27
494.903	4.25
495.252	4.25
495.601	4.26
495.95	4.26
496.299	4.28
496.648	4.26
496.997	4.26
497.346	4.27
497.695	4.28
498.043	4.29
498.392	4.28
498.741	4.3
499.09	4.28
499.438	4.3
499.787	4.29
500.135	4.29
500.484	4.32
500.832	4.32
501.181	4.33
501.529	4.34
501.878	4.32
502.226	4.33
502.574	4.32
502.923	4.32
503.271	4.3
503.619	4.32
503.967	4.33
504.315	4.33
504.663	4.33
505.011	4.33
505.359	4.33
505.707	4.37
506.055	4.36
506.403	4.38
506.751	4.39
507.098	4.41
507.446	4.42
507.794	4.39
508.141	4.42
508.489	4.42
508.837	4.43
509.184	4.45
509.531	4.46
509.879	4.48
510.226	4.5
510.574	4.51
510.921	4.49
511.268	4.48
511.616	4.51
511.963	4.51
512.31	4.52
512.657	4.52
513.004	4.5
513.351	4.51
513.698	4.52
514.045	4.52
514.392	4.5
514.739	4.5
515.086	4.52
515.432	4.52
515.779	4.52
516.126	4.52
516.473	4.53
516.819	4.53
517.166	4.53
517.512	4.54
517.859	4.53
518.205	4.54
518.552	4.55
518.898	4.56
519.245	4.57
519.591	4.58
519.937	4.56
520.283	4.57
520.629	4.58
520.976	4.59
521.322	4.6
521.668	4.61
522.014	4.61
522.36	4.61
522.706	4.62
523.052	4.62
523.398	4.64
523.743	4.65
524.089	4.67
524.435	4.67
524.781	4.68
525.126	4.7
525.472	4.7
525.817	4.72
526.163	4.71
526.509	4.73
526.854	4.74
527.199	4.76
527.545	4.77
527.89	4.75
528.235	4.76
528.581	4.76
528.926	4.76
529.271	4.77
529.616	4.77
529.961	4.77
530.306	4.77
530.651	4.77
530.996	4.76
531.341	4.76
531.686	4.76
532.031	4.76
532.376	4.76
532.721	4.77
533.065	4.76
533.41	4.76
533.755	4.75
534.099	4.76
534.444	4.77
534.788	4.77
535.133	4.78
535.477	4.77
535.822	4.77
536.166	4.78
536.51	4.77
536.855	4.77
537.199	4.77
537.543	4.79
537.887	4.79
538.231	4.79
538.576	4.8
538.92	4.8
539.264	4.8
539.608	4.8
539.951	4.8
540.295	4.79
540.639	4.81
540.983	4.8
541.327	4.78
541.671	4.77
542.014	4.77
542.358	4.77
542.701	4.78
543.045	4.79
543.389	4.8
543.732	4.79
544.075	4.79
544.419	4.79
544.762	4.77
545.105	4.77
545.449	4.78
545.792	4.79
546.135	4.8
546.478	4.8
546.821	4.79
547.165	4.79
547.508	4.81
547.851	4.79
548.194	4.8
548.536	4.8
548.879	4.81
549.222	4.82
549.565	4.82
549.908	4.85
550.25	4.83
550.593	4.82
550.936	4.83
551.278	4.83
551.621	4.84
551.963	4.84
552.306	4.82
552.648	4.82
552.991	4.82
553.333	4.78
553.675	4.77
554.017	4.75
554.36	4.76
554.702	4.77
555.044	4.76
555.386	4.77
555.728	4.77
556.07	4.77
556.412	4.73
556.754	4.74
557.096	4.68
557.438	4.67
557.78	4.69
558.121	4.71
558.463	4.73
558.805	4.74
559.147	4.73
559.488	4.72
559.83	4.69
560.171	4.71
560.513	4.74
560.854	4.76
561.196	4.78
561.537	4.76
561.878	4.73
562.22	4.77
562.561	4.77
562.902	4.81
563.243	4.81
563.584	4.83
563.925	4.82
564.266	4.83
564.607	4.85
564.948	4.82
565.289	4.8
565.63	4.77
565.971	4.79
566.312	4.79
566.653	4.82
566.993	4.83
567.334	4.8
567.675	4.81
568.015	4.81
568.356	4.81
568.696	4.83
569.037	4.88
569.377	4.88
569.718	4.9
570.058	4.88
570.398	4.87
570.739	4.88
571.079	4.9
571.419	4.92
571.759	4.93
572.099	4.95
572.439	4.96
572.779	4.96
573.119	4.96
573.459	5
573.799	5
574.139	5
574.479	5
574.819	5.01
575.158	5.01
575.498	5
575.838	5.01
576.177	4.99
576.517	4.97
576.856	4.94
577.196	4.94
577.535	4.93
577.875	4.94
578.214	4.92
578.553	4.94
578.893	4.93
579.232	4.93
579.571	4.95
579.91	4.98
580.25	4.99
580.589	4.97
580.928	5
581.267	5
581.606	5.03
581.945	5.02
582.283	4.96
582.622	4.98
582.961	4.97
583.3	5
583.639	5.02
583.977	5.04
584.316	5.06
584.654	5.1
584.993	5.07
585.332	5.09
585.67	5.07
586.008	5.05
586.347	5.05
586.685	5.02
587.024	5
587.362	5.01
587.7	5.02
588.038	4.99
588.376	4.99
588.715	4.94
589.053	4.97
589.391	5.01
589.729	5.02
590.067	5.01
590.404	4.97
590.742	4.94
591.08	4.93
591.418	4.91
591.756	4.9
592.093	4.87
592.431	4.89
592.769	4.9
593.106	4.94
593.444	4.89
593.781	4.87
594.119	4.89
594.456	4.83
594.793	4.83
595.131	4.81
595.468	4.81
595.805	4.85
596.143	4.83
596.48	4.85
596.817	4.85
597.154	4.86
597.491	4.89
597.828	4.88
598.165	4.88
598.502	4.85
598.839	4.84
599.176	4.85
599.512	4.83
599.849	4.82
600.186	4.81
600.523	4.87
600.859	4.89
601.196	4.88
601.532	4.89
601.869	4.86
602.205	4.85
602.542	4.9
602.878	4.87
603.215	4.89
603.551	4.9
603.887	4.88
604.223	4.89
604.56	4.91
604.896	4.94
605.232	4.98
605.568	4.98
605.904	5.01
606.24	5.05
606.576	5.09
606.912	5.1
607.248	5.09
607.583	5.09
607.919	5.09
608.255	5.09
608.591	5.15
608.926	5.17
609.262	5.21
609.597	5.21
609.933	5.23
610.268	5.23
610.604	5.21
610.939	5.21
611.275	5.21
611.61	5.19
611.945	5.18
612.281	5.17
612.616	5.17
612.951	5.14
613.286	5.15
613.621	5.12
613.956	5.08
614.291	5.09
614.626	5.05
614.961	5.09
615.296	5.06
615.631	5.03
615.966	4.99
616.3	4.98
616.635	4.94
616.97	4.95
617.304	4.92
617.639	4.93
617.973	4.91
618.308	4.95
618.642	4.9
618.977	4.9
619.311	4.92
619.646	4.98
619.98	4.99
620.314	5
620.648	4.98
620.983	4.99
621.317	5.02
621.651	5.02
621.985	5
622.319	5.01
622.653	5
622.987	5.08
623.321	5.07
623.655	5.07
623.988	5.09
624.322	5.09
624.656	5.1
624.99	5.15
625.323	5.13
625.657	5.2
625.99	5.24
626.324	5.23
626.657	5.21
626.991	5.22
627.324	5.19
627.658	5.22
627.991	5.29
628.324	5.31
628.657	5.36
628.991	5.38
629.324	5.42
629.657	5.49
629.99	5.48
630.323	5.51
630.656	5.55
630.989	5.57
631.322	5.62
631.655	5.58
631.987	5.59
632.32	5.55
632.653	5.53
632.986	5.53
633.318	5.54
633.651	5.56
633.984	5.55
634.316	5.54
634.649	5.54
634.981	5.47
635.313	5.46
635.646	5.42
635.978	5.38
636.31	5.34
636.643	5.26
636.975	5.22
637.307	5.15
637.639	5.14
637.971	5.13
638.303	5.09
638.635	5.11
638.967	5.11
639.299	5.12
639.631	5.07
639.963	5.02
640.295	4.98
640.626	4.95
640.958	4.99
641.29	5.01
641.621	4.96
641.953	4.97
642.285	4.93
642.616	4.97
642.948	4.99
643.279	4.97
643.61	4.99
643.942	5
644.273	5.03
644.604	5.03
644.936	4.92
645.267	4.96
645.598	4.92
645.929	4.95
646.26	4.96
646.591	4.98
646.922	4.97
647.253	4.98
647.584	5
647.915	4.98
648.245	4.94
648.576	4.97
648.907	4.96
649.238	5.01
649.568	4.95
649.899	4.97
650.229	4.98
650.56	4.98
650.89	5.03
651.221	5.06
651.551	4.98
651.882	5.04
652.212	5.01
652.542	5.08
652.872	5.02
653.203	4.99
653.533	5.06
653.863	5.04
654.193	5.07
654.523	5.06
654.853	5.07
655.183	5.07
655.513	5.03
655.843	5.07
656.172	5.12
656.502	5.21
656.832	5.19
657.162	5.25
657.491	5.25
657.821	5.24
658.15	5.26
658.48	5.31
658.809	5.3
659.139	5.24
659.468	5.22
659.798	5.24
660.127	5.25
660.456	5.18
660.785	5.24
661.115	5.28
661.444	5.3
661.773	5.3
662.102	5.34
662.431	5.43
662.76	5.39
663.089	5.31
663.418	5.27
663.747	5.27
664.076	5.28
664.404	5.3
664.733	5.36
665.062	5.34
665.39	5.38
665.719	5.37
666.048	5.49
666.376	5.49
666.705	5.52
667.033	5.54
667.362	5.63
667.69	5.58
668.018	5.51
668.347	5.48
668.675	5.54
669.003	5.53
669.331	5.6
669.659	5.62
669.987	5.62
670.315	5.6
670.643	5.56
670.971	5.53
671.299	5.63
671.627	5.55
671.955	5.57
672.283	5.55
672.61	5.65
672.938	5.67
673.266	5.67
673.593	5.75
673.921	5.8
674.249	5.71
674.576	5.69
674.904	5.71
675.231	5.68
675.558	5.61
675.886	5.62
