Data from BA57730_Reflection_00010.txt Node
Date: Mon Nov 18 15:59:50 EST 2019
User: vgr7
Spectrometer: USB2G7710
Scans to average: 3
Trigger mode: 4
Integration Time (sec): 2.000000E-2
Electric dark correction enabled: true
Boxcar width: 10
XAxis mode: Wavelengths
Number of Pixels in Spectrum: 2048
>>>>>Begin Spectral Data<<<<<
177.721	449.21
178.105	191.5
178.488	-9.74
178.871	-6.84
179.254	53.36
179.636	-2.69
180.019	73.21
180.402	72.09
180.785	18.6
181.168	37.74
181.55	76.93
181.933	131.52
182.316	68.77
182.698	68.08
183.081	43.41
183.463	41.97
183.846	47.69
184.228	65.97
184.611	75.19
184.993	-21.21
185.376	66.87
185.758	47.77
186.14	70.41
186.522	9.17
186.904	3.49
187.287	9.73
187.669	-6.8
188.051	-0.7
188.433	-241.88
188.815	8.44
189.197	58.46
189.579	76.72
189.961	75.8
190.342	53.28
190.724	145.35
191.106	-624.64
191.488	-90.48
191.869	-3.21
192.251	-47.49
192.633	-82.89
193.014	-264.51
193.396	252.05
193.777	-138.86
194.159	-75.24
194.54	58.82
194.922	38.71
195.303	15.8
195.684	97.9
196.065	69.77
196.447	124.5
196.828	216.72
197.209	299.78
197.59	238.63
197.971	273.1
198.352	145.32
198.733	226.17
199.114	208.84
199.495	297.96
199.876	309.33
200.257	314.73
200.638	214.01
201.018	166.8
201.399	148.9
201.78	150.15
202.16	133.85
202.541	79.62
202.922	-62.85
203.302	-107.51
203.683	592.75
204.063	1.43
204.444	17.76
204.824	66.07
205.204	296.83
205.585	108.23
205.965	325.64
206.345	158.17
206.725	147.41
207.106	113.45
207.486	116.22
207.866	135.28
208.246	96.41
208.626	86.77
209.006	63.4
209.386	96.14
209.766	155.1
210.145	-134.23
210.525	41.1
210.905	50.34
211.285	16.78
211.664	18.67
212.044	36.93
212.424	21.91
212.803	17.48
213.183	23.35
213.562	1.38
213.942	18.23
214.321	12.69
214.701	-4.04
215.08	7.85
215.459	20.84
215.838	13.55
216.218	17.68
216.597	29.98
216.976	25.97
217.355	26.06
217.734	20.95
218.113	23.21
218.492	19.55
218.871	-5.29
219.25	1.53
219.629	-27.61
220.008	-33.84
220.387	-34.72
220.766	-35.56
221.144	-62.53
221.523	-61.5
221.902	-79.81
222.28	-82.5
222.659	-48.94
223.037	-57.6
223.416	-42.82
223.794	-31.89
224.173	-67.3
224.551	-66.78
224.929	-49.58
225.308	-33.64
225.686	-31.58
226.064	-26.01
226.442	-21.03
226.821	-10.96
227.199	-13.47
227.577	-10.54
227.955	-9.62
228.333	-7.72
228.711	-6.04
229.089	0.83
229.467	4.18
229.845	5.09
230.222	6.78
230.6	8.7
230.978	9.14
231.356	8.21
231.733	5.74
232.111	9.76
232.488	12.47
232.866	9.65
233.243	11.81
233.621	10.69
233.998	9.9
234.376	10.56
234.753	9.55
235.13	10.53
235.508	12.08
235.885	12.94
236.262	11.68
236.639	10.34
237.016	8.88
237.393	8.91
237.77	8.14
238.147	8.34
238.524	7.54
238.901	8.26
239.278	7.97
239.655	8.22
240.032	8.11
240.409	7.26
240.785	7.93
241.162	7.05
241.539	7.63
241.915	7.96
242.292	7.29
242.668	7.38
243.045	7.27
243.421	6.89
243.798	6.52
244.174	6.77
244.551	7.16
244.927	6.9
245.303	6.58
245.679	6.31
246.056	6.05
246.432	6.01
246.808	5.79
247.184	5.44
247.56	5.25
247.936	5.15
248.312	5.12
248.688	4.83
249.064	4.7
249.44	4.77
249.815	4.62
250.191	4.75
250.567	4.76
250.943	4.63
251.318	4.85
251.694	5.04
252.069	4.71
252.445	4.41
252.82	4.58
253.196	4.62
253.571	5.17
253.947	5.17
254.322	5.06
254.697	5.03
255.073	5.23
255.448	5.18
255.823	5.31
256.198	5.37
256.573	5.4
256.948	5.52
257.323	5.43
257.698	5.1
258.073	5.06
258.448	5.08
258.823	5.14
259.198	5.05
259.573	4.75
259.948	4.83
260.322	4.74
260.697	4.72
261.072	4.75
261.446	4.62
261.821	4.52
262.195	4.51
262.57	4.55
262.944	4.53
263.319	4.55
263.693	4.53
264.067	4.43
264.442	4.53
264.816	4.33
265.19	4.12
265.564	4.43
265.938	4.48
266.313	4.39
266.687	4.3
267.061	4.2
267.435	4.44
267.809	4.31
268.183	4.36
268.556	4.14
268.93	4.12
269.304	4.08
269.678	4.24
270.051	4.21
270.425	4.06
270.799	4.03
271.172	4.15
271.546	4.11
271.919	4.14
272.293	4.04
272.666	4.16
273.04	4.43
273.413	4.45
273.787	4.43
274.16	4.36
274.533	4.45
274.906	4.49
275.279	4.39
275.653	4.67
276.026	4.6
276.399	4.71
276.772	4.74
277.145	4.55
277.518	4.46
277.891	4.55
278.263	4.54
278.636	4.69
279.009	4.52
279.382	4.48
279.755	4.43
280.127	4.55
280.5	4.58
280.872	4.55
281.245	4.32
281.617	4.38
281.99	4.56
282.362	4.56
282.735	4.4
283.107	4.47
283.479	4.25
283.852	4.34
284.224	4.35
284.596	4.36
284.968	4.58
285.34	4.7
285.713	4.67
286.085	4.71
286.457	4.74
286.829	4.78
287.201	4.75
287.572	4.75
287.944	4.7
288.316	4.71
288.688	4.64
289.06	4.73
289.431	4.78
289.803	4.72
290.175	4.83
290.546	5.05
290.918	4.88
291.289	4.85
291.661	5.02
292.032	5.05
292.403	5.03
292.775	5.07
293.146	5.02
293.517	5.03
293.889	5.19
294.26	5.17
294.631	5.19
295.002	5.18
295.373	5.18
295.744	5.12
296.115	5.21
296.486	5.05
296.857	5.01
297.228	4.98
297.599	4.86
297.97	4.79
298.34	4.78
298.711	4.97
299.082	5.05
299.452	4.93
299.823	5.05
300.194	4.98
300.564	4.9
300.935	4.85
301.305	4.77
301.676	4.74
302.046	4.76
302.416	4.91
302.787	4.98
303.157	4.97
303.527	5.11
303.897	5.01
304.267	5.27
304.637	5.41
305.008	5.41
305.378	5.56
305.748	5.55
306.117	5.63
306.487	5.6
306.857	5.66
307.227	5.71
307.597	5.64
307.967	5.72
308.336	5.77
308.706	5.86
309.076	6.11
309.445	6.07
309.815	6.13
310.184	6.07
310.554	6.04
310.923	6.21
311.293	6.22
311.662	6.2
312.031	6.17
312.401	6.06
312.77	6.22
313.139	6.36
313.508	6.47
313.877	6.36
314.246	6.36
314.616	6.34
314.985	6.54
315.353	6.62
315.722	6.8
316.091	6.83
316.46	6.85
316.829	6.73
317.198	6.89
317.567	6.89
317.935	6.84
318.304	7.04
318.672	6.87
319.041	6.85
319.41	6.95
319.778	7.08
320.147	7.16
320.515	6.96
320.883	6.9
321.252	6.89
321.62	7.04
321.988	7.13
322.357	7.24
322.725	7.15
323.093	7.18
323.461	7.07
323.829	7.18
324.197	7.35
324.565	7.4
324.933	7.5
325.301	7.59
325.669	7.7
326.037	7.64
326.405	7.87
326.772	8.06
327.14	8.22
327.508	8.25
327.875	8.32
328.243	8.43
328.61	8.42
328.978	8.55
329.346	8.61
329.713	8.64
330.08	8.71
330.448	8.76
330.815	8.8
331.182	9.06
331.55	9.04
331.917	9
332.284	9.25
332.651	9.25
333.018	9.17
333.385	9.28
333.752	9.42
334.119	9.44
334.486	9.22
334.853	9.18
335.22	9.18
335.587	9.28
335.954	9.32
336.32	9.4
336.687	9.42
337.054	9.45
337.42	9.67
337.787	9.77
338.153	9.81
338.52	9.83
338.886	9.68
339.253	9.74
339.619	9.74
339.986	9.63
340.352	9.71
340.718	9.75
341.084	9.67
341.451	9.72
341.817	9.73
342.183	9.84
342.549	9.89
342.915	9.98
343.281	10
343.647	10.07
344.013	10.03
344.379	9.92
344.745	9.94
345.11	9.77
345.476	9.77
345.842	9.82
346.208	9.89
346.573	9.95
346.939	10.09
347.304	10.11
347.67	10.19
348.035	10.11
348.401	10.15
348.766	10.27
349.132	10.24
349.497	10.36
349.862	10.49
350.228	10.5
350.593	10.4
350.958	10.41
351.323	10.31
351.688	10.43
352.053	10.5
352.418	10.58
352.783	10.66
353.148	10.64
353.513	10.6
353.878	10.58
354.243	10.66
354.608	10.6
354.972	10.68
355.337	10.66
355.702	10.68
356.066	10.68
356.431	10.61
356.795	10.65
357.16	10.51
357.524	10.42
357.889	10.39
358.253	10.43
358.618	10.46
358.982	10.51
359.346	10.34
359.71	10.3
360.075	10.25
360.439	10.24
360.803	10.24
361.167	10.25
361.531	10.2
361.895	10.12
362.259	10.04
362.623	9.99
362.987	9.96
363.351	10.06
363.714	10.05
364.078	10.01
364.442	9.89
364.806	9.89
365.169	9.87
365.533	9.86
365.896	9.84
366.26	9.75
366.623	9.76
366.987	9.79
367.35	9.79
367.714	9.78
368.077	9.69
368.44	9.63
368.803	9.58
369.167	9.52
369.53	9.47
369.893	9.53
370.256	9.52
370.619	9.46
370.982	9.3
371.345	9.27
371.708	9.27
372.071	9.27
372.434	9.22
372.797	9.18
373.159	9.13
373.522	9.01
373.885	8.98
374.247	8.91
374.61	8.87
374.973	8.77
375.335	8.67
375.698	8.61
376.06	8.58
376.423	8.49
376.785	8.45
377.147	8.47
377.51	8.38
377.872	8.35
378.234	8.33
378.596	8.28
378.958	8.16
379.321	8.09
379.683	8.08
380.045	8.04
380.407	7.92
380.769	7.88
381.13	7.83
381.492	7.75
381.854	7.67
382.216	7.65
382.578	7.65
382.939	7.6
383.301	7.58
383.663	7.51
384.024	7.47
384.386	7.48
384.747	7.39
385.109	7.34
385.47	7.23
385.832	7.16
386.193	7.15
386.554	7.15
386.916	7.12
387.277	7.06
387.638	7
387.999	6.98
388.36	6.91
388.721	6.91
389.082	6.92
389.443	6.91
389.804	6.84
390.165	6.78
390.526	6.72
390.887	6.66
391.248	6.62
391.609	6.57
391.969	6.53
392.33	6.55
392.691	6.48
393.051	6.48
393.412	6.46
393.772	6.37
394.133	6.32
394.493	6.23
394.854	6.21
395.214	6.16
395.574	6.14
395.935	6.11
396.295	6.07
396.655	6.02
397.015	5.96
397.376	5.93
397.736	5.89
398.096	5.88
398.456	5.86
398.816	5.82
399.176	5.77
399.535	5.69
399.895	5.59
400.255	5.55
400.615	5.49
400.975	5.44
401.334	5.42
401.694	5.37
402.054	5.36
402.413	5.31
402.773	5.25
403.132	5.21
403.492	5.21
403.851	5.16
404.211	5.12
404.57	5.08
404.929	5.06
405.288	5.03
405.648	4.98
406.007	4.94
406.366	4.94
406.725	4.98
407.084	4.98
407.443	4.98
407.802	4.98
408.161	4.95
408.52	4.89
408.879	4.84
409.238	4.85
409.596	4.83
409.955	4.82
410.314	4.85
410.673	4.84
411.031	4.78
411.39	4.75
411.748	4.75
412.107	4.71
412.465	4.67
412.824	4.67
413.182	4.64
413.54	4.62
413.899	4.59
414.257	4.55
414.615	4.48
414.974	4.45
415.332	4.42
415.69	4.38
416.048	4.38
416.406	4.37
416.764	4.32
417.122	4.3
417.48	4.26
417.838	4.24
418.195	4.21
418.553	4.2
418.911	4.18
419.269	4.15
419.626	4.14
419.984	4.11
420.342	4.09
420.699	4.07
421.057	4.06
421.414	4.03
421.772	4.02
422.129	4.01
422.486	4
422.844	4
423.201	3.98
423.558	3.96
423.915	3.94
424.273	3.95
424.63	3.93
424.987	3.93
425.344	3.91
425.701	3.9
426.058	3.89
426.415	3.88
426.772	3.87
427.128	3.86
427.485	3.87
427.842	3.85
428.199	3.87
428.555	3.84
428.912	3.84
429.269	3.83
429.625	3.81
429.982	3.8
430.338	3.78
430.695	3.78
431.051	3.77
431.407	3.77
431.764	3.75
432.12	3.75
432.476	3.73
432.832	3.7
433.189	3.7
433.545	3.68
433.901	3.69
434.257	3.69
434.613	3.69
434.969	3.68
435.325	3.68
435.681	3.66
436.036	3.67
436.392	3.68
436.748	3.66
437.104	3.65
437.459	3.65
437.815	3.64
438.171	3.64
438.526	3.67
438.882	3.67
439.237	3.68
439.593	3.68
439.948	3.69
440.304	3.69
440.659	3.69
441.014	3.68
441.369	3.66
441.725	3.66
442.08	3.64
442.435	3.63
442.79	3.63
443.145	3.63
443.5	3.61
443.855	3.6
444.21	3.59
444.565	3.61
444.92	3.61
445.275	3.61
445.629	3.59
445.984	3.56
446.339	3.54
446.693	3.52
447.048	3.5
447.403	3.5
447.757	3.49
448.112	3.48
448.466	3.46
448.82	3.45
449.175	3.46
449.529	3.46
449.883	3.43
450.238	3.42
450.592	3.43
450.946	3.42
451.3	3.4
451.654	3.41
452.008	3.38
452.362	3.35
452.716	3.34
453.07	3.34
453.424	3.34
453.778	3.34
454.132	3.34
454.486	3.33
454.839	3.32
455.193	3.31
455.547	3.3
455.9	3.32
456.254	3.35
456.607	3.32
456.961	3.31
457.314	3.31
457.668	3.31
458.021	3.29
458.375	3.3
458.728	3.3
459.081	3.31
459.434	3.3
459.787	3.31
460.141	3.31
460.494	3.31
460.847	3.32
461.2	3.32
461.553	3.32
461.906	3.34
462.259	3.35
462.611	3.37
462.964	3.39
463.317	3.41
463.67	3.38
464.022	3.4
464.375	3.4
464.728	3.42
465.08	3.42
465.433	3.46
465.785	3.48
466.138	3.49
466.49	3.49
466.843	3.52
467.195	3.51
467.547	3.54
467.899	3.55
468.252	3.53
468.604	3.53
468.956	3.55
469.308	3.56
469.66	3.58
470.012	3.58
470.364	3.58
470.716	3.56
471.068	3.6
471.42	3.62
471.772	3.64
472.123	3.66
472.475	3.66
472.827	3.64
473.178	3.64
473.53	3.63
473.882	3.65
474.233	3.63
474.585	3.64
474.936	3.64
475.288	3.64
475.639	3.67
475.99	3.68
476.342	3.67
476.693	3.67
477.044	3.66
477.395	3.63
477.746	3.64
478.097	3.65
478.448	3.63
478.8	3.6
479.15	3.57
479.501	3.56
479.852	3.57
480.203	3.57
480.554	3.57
480.905	3.57
481.255	3.58
481.606	3.59
481.957	3.58
482.307	3.58
482.658	3.58
483.009	3.57
483.359	3.57
483.709	3.57
484.06	3.56
484.41	3.56
484.761	3.57
485.111	3.56
485.461	3.57
485.811	3.57
486.162	3.58
486.512	3.59
486.862	3.59
487.212	3.59
487.562	3.59
487.912	3.58
488.262	3.58
488.612	3.59
488.961	3.6
489.311	3.6
489.661	3.6
490.011	3.59
490.36	3.6
490.71	3.6
491.06	3.61
491.409	3.61
491.759	3.62
492.108	3.63
492.458	3.64
492.807	3.64
493.157	3.66
493.506	3.68
493.855	3.7
494.204	3.72
494.554	3.72
494.903	3.73
495.252	3.76
495.601	3.78
495.95	3.77
496.299	3.78
496.648	3.81
496.997	3.84
497.346	3.88
497.695	3.9
498.043	3.93
498.392	3.96
498.741	4.01
499.09	4.01
499.438	4.05
499.787	4.08
500.135	4.1
500.484	4.12
500.832	4.15
501.181	4.18
501.529	4.22
501.878	4.26
502.226	4.32
502.574	4.36
502.923	4.42
503.271	4.47
503.619	4.54
503.967	4.55
504.315	4.6
504.663	4.66
505.011	4.72
505.359	4.75
505.707	4.81
506.055	4.85
506.403	4.94
506.751	4.97
507.098	5.01
507.446	5.06
507.794	5.11
508.141	5.16
508.489	5.2
508.837	5.23
509.184	5.29
509.531	5.32
509.879	5.38
510.226	5.44
510.574	5.49
510.921	5.53
511.268	5.59
511.616	5.64
511.963	5.69
512.31	5.74
512.657	5.83
513.004	5.9
513.351	5.97
513.698	6.04
514.045	6.11
514.392	6.17
514.739	6.26
515.086	6.34
515.432	6.41
515.779	6.49
516.126	6.58
516.473	6.66
516.819	6.75
517.166	6.8
517.512	6.87
517.859	6.93
518.205	7.02
518.552	7.1
518.898	7.19
519.245	7.26
519.591	7.32
519.937	7.4
520.283	7.44
520.629	7.54
520.976	7.65
521.322	7.75
521.668	7.86
522.014	7.97
522.36	8.09
522.706	8.22
523.052	8.34
523.398	8.5
523.743	8.63
524.089	8.78
524.435	8.91
524.781	9.06
525.126	9.19
525.472	9.3
525.817	9.42
526.163	9.52
526.509	9.65
526.854	9.77
527.199	9.87
527.545	9.98
527.89	10.06
528.235	10.16
528.581	10.26
528.926	10.39
529.271	10.5
529.616	10.61
529.961	10.72
530.306	10.86
530.651	10.99
530.996	11.13
531.341	11.28
531.686	11.46
532.031	11.62
532.376	11.78
532.721	11.98
533.065	12.15
533.41	12.35
533.755	12.53
534.099	12.71
534.444	12.91
534.788	13.12
535.133	13.37
535.477	13.57
535.822	13.82
536.166	14.06
536.51	14.32
536.855	14.6
537.199	14.88
537.543	15.2
537.887	15.52
538.231	15.82
538.576	16.11
538.92	16.4
539.264	16.71
539.608	17.01
539.951	17.25
540.295	17.53
540.639	17.8
540.983	18.08
541.327	18.35
541.671	18.62
542.014	18.89
542.358	19.13
542.701	19.39
543.045	19.64
543.389	19.9
543.732	20.17
544.075	20.45
544.419	20.75
544.762	21.05
545.105	21.32
545.449	21.67
545.792	22.03
546.135	22.39
546.478	22.77
546.821	23.16
547.165	23.57
547.508	23.99
547.851	24.42
548.194	24.8
548.536	25.16
548.879	25.59
549.222	26
549.565	26.38
549.908	26.81
550.25	27.23
550.593	27.67
550.936	28.09
551.278	28.57
551.621	29
551.963	29.44
552.306	29.88
552.648	30.29
552.991	30.71
553.333	31.1
553.675	31.46
554.017	31.88
554.36	32.24
554.702	32.63
555.044	32.93
555.386	33.33
555.728	33.76
556.07	34.16
556.412	34.54
556.754	35.01
557.096	35.39
557.438	35.8
557.78	36.15
558.121	36.58
558.463	36.98
558.805	37.39
559.147	37.74
559.488	38.12
559.83	38.51
560.171	38.94
560.513	39.34
560.854	39.68
561.196	39.99
561.537	40.39
561.878	40.66
562.22	41.03
562.561	41.41
562.902	41.79
563.243	42.15
563.584	42.45
563.925	42.74
564.266	43
564.607	43.33
564.948	43.63
565.289	43.87
565.63	44.17
565.971	44.42
566.312	44.7
566.653	44.96
566.993	45.18
567.334	45.41
567.675	45.66
568.015	45.93
568.356	46.24
568.696	46.56
569.037	46.83
569.377	47.13
569.718	47.36
570.058	47.54
570.398	47.68
570.739	47.96
571.079	48.24
571.419	48.49
571.759	48.73
572.099	48.96
572.439	49.2
572.779	49.39
573.119	49.64
573.459	49.83
573.799	50.05
574.139	50.26
574.479	50.43
574.819	50.63
575.158	50.85
575.498	50.99
575.838	51.12
576.177	51.34
576.517	51.45
576.856	51.62
577.196	51.83
577.535	52.08
577.875	52.24
578.214	52.36
578.553	52.57
578.893	52.73
579.232	52.9
579.571	53.14
579.91	53.25
580.25	53.33
580.589	53.5
580.928	53.68
581.267	53.9
581.606	54.11
581.945	54.26
582.283	54.45
582.622	54.61
582.961	54.77
583.3	54.92
583.639	55.14
583.977	55.31
584.316	55.49
584.654	55.66
584.993	55.83
585.332	55.99
585.67	56.11
586.008	56.26
586.347	56.43
586.685	56.5
587.024	56.65
587.362	56.83
587.7	56.95
588.038	57.08
588.376	57.13
588.715	57.24
589.053	57.32
589.391	57.35
589.729	57.48
590.067	57.55
590.404	57.57
590.742	57.62
591.08	57.71
591.418	57.83
591.756	57.89
592.093	57.99
592.431	58.07
592.769	58.25
593.106	58.31
593.444	58.44
593.781	58.47
594.119	58.58
594.456	58.63
594.793	58.7
595.131	58.77
595.468	58.86
595.805	58.85
596.143	58.92
596.48	59.01
596.817	59.06
597.154	59.14
597.491	59.32
597.828	59.43
598.165	59.5
598.502	59.51
598.839	59.6
599.176	59.71
599.512	59.82
599.849	59.83
600.186	59.95
600.523	59.94
600.859	60.07
601.196	60.15
601.532	60.27
601.869	60.37
602.205	60.39
602.542	60.48
602.878	60.58
603.215	60.69
603.551	60.75
603.887	60.75
604.223	60.84
604.56	60.83
604.896	60.91
605.232	60.97
605.568	61.09
605.904	61.14
606.24	61.24
606.576	61.31
606.912	61.42
607.248	61.47
607.583	61.52
607.919	61.55
608.255	61.64
608.591	61.69
608.926	61.7
609.262	61.78
609.597	61.83
609.933	61.88
610.268	61.89
610.604	61.93
610.939	62.01
611.275	62
611.61	62.1
611.945	62.15
612.281	62.08
612.616	62.07
612.951	62.1
613.286	62.09
613.621	61.99
613.956	62.05
614.291	62.02
614.626	62.15
614.961	62.17
615.296	62.14
615.631	62.11
615.966	62.22
616.3	62.39
616.635	62.41
616.97	62.45
617.304	62.46
617.639	62.67
617.973	62.83
618.308	62.92
618.642	62.93
618.977	62.96
619.311	63.11
619.646	63.16
619.98	63.24
620.314	63.22
620.648	63.37
620.983	63.31
621.317	63.45
621.651	63.5
621.985	63.62
622.319	63.61
622.653	63.62
622.987	63.64
623.321	63.55
623.655	63.59
623.988	63.61
624.322	63.71
624.656	63.65
624.99	63.64
625.323	63.68
625.657	63.73
625.99	63.77
626.324	63.76
626.657	63.73
626.991	63.76
627.324	63.77
627.658	63.79
627.991	63.89
628.324	63.91
628.657	63.92
628.991	63.86
629.324	63.94
629.657	64.03
629.99	64.04
630.323	64.05
630.656	64.07
630.989	64.2
631.322	64.16
631.655	64.16
631.987	64.11
632.32	64.08
632.653	64.08
632.986	63.96
633.318	64.06
633.651	64.18
633.984	64.18
634.316	64.21
634.649	64.26
634.981	64.3
635.313	64.3
635.646	64.27
635.978	64.26
636.31	64.3
636.643	64.25
636.975	64.3
637.307	64.37
637.639	64.52
637.971	64.44
638.303	64.59
638.635	64.49
638.967	64.55
639.299	64.53
639.631	64.45
639.963	64.54
640.295	64.62
640.626	64.53
640.958	64.51
641.29	64.53
641.621	64.55
641.953	64.45
642.285	64.43
642.616	64.5
642.948	64.68
643.279	64.74
643.61	64.86
643.942	64.8
644.273	64.83
644.604	64.75
644.936	64.77
645.267	64.68
645.598	64.81
645.929	64.75
646.26	64.9
646.591	64.99
646.922	64.89
647.253	64.86
647.584	65.01
647.915	64.99
648.245	65.07
648.576	65.06
648.907	65.2
649.238	65.25
649.568	65.26
649.899	65.17
650.229	65.18
650.56	65.12
650.89	65.13
651.221	65.14
651.551	65.18
651.882	65.27
652.212	65.22
652.542	65.27
652.872	65.35
653.203	65.34
653.533	65.4
653.863	65.72
654.193	65.71
654.523	65.74
654.853	65.74
655.183	65.73
655.513	65.62
655.843	65.44
656.172	65.48
656.502	65.51
656.832	65.64
657.162	65.57
657.491	65.61
657.821	65.76
658.15	65.86
658.48	65.89
658.809	65.87
659.139	65.88
659.468	65.85
659.798	65.87
660.127	65.9
660.456	65.89
660.785	65.79
661.115	65.74
661.444	65.61
661.773	65.64
662.102	65.65
662.431	65.81
662.76	65.85
663.089	65.85
663.418	65.79
663.747	65.69
664.076	65.73
664.404	65.84
664.733	65.84
665.062	65.74
665.39	65.62
665.719	65.62
666.048	65.79
666.376	65.81
666.705	65.84
667.033	65.75
667.362	65.71
667.69	65.67
