Data from BA57663_Reflection_00014.txt Node
Date: Mon Nov 18 15:44:17 EST 2019
User: vgr7
Spectrometer: USB2G7710
Scans to average: 3
Trigger mode: 4
Integration Time (sec): 2.000000E-2
Electric dark correction enabled: true
Boxcar width: 10
XAxis mode: Wavelengths
Number of Pixels in Spectrum: 2048
>>>>>Begin Spectral Data<<<<<
177.721	163.9
178.105	53.76
178.488	137.25
178.871	204.91
179.254	211.42
179.636	-103.54
180.019	-127.15
180.402	160.71
180.785	30.66
181.168	70.74
181.55	89.09
181.933	108.22
182.316	110.47
182.698	91.33
183.081	81.47
183.463	98.57
183.846	98.84
184.228	134.01
184.611	137.32
184.993	137.65
185.376	139.68
185.758	114.73
186.14	104.51
186.522	120.62
186.904	94.21
187.287	96.93
187.669	95.86
188.051	65.26
188.433	34.68
188.815	24.34
189.197	13.04
189.579	-37.65
189.961	-24.44
190.342	-82.29
190.724	-2378.87
191.106	-769.57
191.488	-326.15
191.869	-3220.75
192.251	-1609.92
192.633	1934.86
193.014	673.29
193.396	-433.72
193.777	-387.23
194.159	-457.38
194.54	-623.55
194.922	892.9
195.303	576.49
195.684	194100
196.065	360.3
196.447	253.85
196.828	201.98
197.209	147.19
197.59	198.89
197.971	190.27
198.352	166.33
198.733	658.3
199.114	1323.02
199.495	543.32
199.876	372.92
200.257	233.14
200.638	352.35
201.018	224.63
201.399	182.08
201.78	123.34
202.16	155.52
202.541	184.07
202.922	143.18
203.302	108.02
203.683	191.31
204.063	76.44
204.444	105.45
204.824	81.04
205.204	104.82
205.585	123.06
205.965	84.73
206.345	52.48
206.725	30.54
207.106	8.32
207.486	25.6
207.866	-120.26
208.246	-70.97
208.626	-2.06
209.006	-49.69
209.386	-42.44
209.766	-22.33
210.145	-24.57
210.525	-29.19
210.905	-33.41
211.285	-117.22
211.664	-261.99
212.044	-158.82
212.424	-519.72
212.803	197.56
213.183	32.11
213.562	39.28
213.942	3143.48
214.321	-446.34
214.701	-172.57
215.08	-442.37
215.459	-766.4
215.838	-201.85
216.218	-235.04
216.597	-131.85
216.976	-121.21
217.355	-182.08
217.734	-208.97
218.113	-141.4
218.492	-200.08
218.871	-151.44
219.25	-142.78
219.629	-157.96
220.008	-96.77
220.387	-76.64
220.766	-32.74
221.144	-201.23
221.523	-139.27
221.902	-213.11
222.28	-260.66
222.659	-466.84
223.037	-47.81
223.416	-22.37
223.794	32.85
224.173	31.16
224.551	24.47
224.929	5.59
225.308	6.4
225.686	16
226.064	17.22
226.442	17.9
226.821	15.05
227.199	18.02
227.577	14.21
227.955	11.82
228.333	11.69
228.711	11.31
229.089	13.62
229.467	10.07
229.845	11.54
230.222	11.19
230.6	11.33
230.978	10.17
231.356	11.33
231.733	11.19
232.111	9.79
232.488	9.73
232.866	9.38
233.243	9.14
233.621	6.98
233.998	8.88
234.376	7.13
234.753	7.08
235.13	5.95
235.508	7.02
235.885	5.17
236.262	4.03
236.639	3.15
237.016	2.72
237.393	3.76
237.77	4.33
238.147	4.43
238.524	3.86
238.901	4.67
239.278	4.73
239.655	4.96
240.032	5.59
240.409	5.05
240.785	4.66
241.162	4.59
241.539	4.99
241.915	4.56
242.292	4.54
242.668	4.65
243.045	4.79
243.421	4.56
243.798	4.74
244.174	4.94
244.551	4.87
244.927	4.5
245.303	4.59
245.679	4.55
246.056	4.56
246.432	4.63
246.808	4.52
247.184	4.11
247.56	3.59
247.936	3.49
248.312	3.53
248.688	3.67
249.064	3.54
249.44	3.47
249.815	3.44
250.191	3.52
250.567	3.44
250.943	3.07
251.318	3.25
251.694	3.22
252.069	3.23
252.445	3.37
252.82	3.85
253.196	3.66
253.571	3.64
253.947	3.56
254.322	3.72
254.697	3.8
255.073	4.1
255.448	4.22
255.823	4.24
256.198	4.24
256.573	4.43
256.948	4.6
257.323	4.47
257.698	4.34
258.073	4.33
258.448	4.23
258.823	4.29
259.198	4.17
259.573	4.12
259.948	4.01
260.322	4.04
260.697	3.89
261.072	3.9
261.446	3.89
261.821	3.91
262.195	3.78
262.57	3.66
262.944	3.56
263.319	3.74
263.693	3.5
264.067	3.58
264.442	3.52
264.816	3.45
265.19	3.48
265.564	3.49
265.938	3.48
266.313	3.54
266.687	3.61
267.061	3.67
267.435	3.71
267.809	3.57
268.183	3.32
268.556	3.31
268.93	3.34
269.304	3.34
269.678	3.53
270.051	3.46
270.425	3.44
270.799	3.62
271.172	3.45
271.546	3.54
271.919	3.39
272.293	3.38
272.666	3.42
273.04	3.38
273.413	3.42
273.787	3.28
274.16	3.24
274.533	3.23
274.906	3.15
275.279	3.26
275.653	3.45
276.026	3.49
276.399	3.49
276.772	3.51
277.145	3.6
277.518	3.51
277.891	3.51
278.263	3.46
278.636	3.29
279.009	3.4
279.382	3.57
279.755	3.58
280.127	3.55
280.5	3.69
280.872	3.86
281.245	3.82
281.617	4.09
281.99	4.23
282.362	4.25
282.735	4.18
283.107	4.04
283.479	4.15
283.852	4.09
284.224	4.26
284.596	4.2
284.968	4.22
285.34	4.25
285.713	4.32
286.085	4.42
286.457	4.55
286.829	4.65
287.201	4.64
287.572	4.62
287.944	4.56
288.316	4.5
288.688	4.49
289.06	4.58
289.431	4.54
289.803	4.52
290.175	4.53
290.546	4.69
290.918	4.77
291.289	4.73
291.661	4.76
292.032	4.65
292.403	4.7
292.775	4.75
293.146	4.64
293.517	4.69
293.889	4.81
294.26	4.79
294.631	4.77
295.002	4.8
295.373	5.03
295.744	5.14
296.115	5.07
296.486	4.86
296.857	4.85
297.228	4.82
297.599	4.8
297.97	4.82
298.34	4.83
298.711	4.93
299.082	4.92
299.452	5.15
299.823	5.13
300.194	5.21
300.564	5.04
300.935	5.19
301.305	5.14
301.676	5.22
302.046	5.23
302.416	5.31
302.787	5.31
303.157	5.08
303.527	5.08
303.897	5.21
304.267	5.65
304.637	5.8
305.008	5.93
305.378	6.13
305.748	6.11
306.117	6.06
306.487	5.95
306.857	5.98
307.227	5.92
307.597	6.05
307.967	6.09
308.336	6.29
308.706	6.26
309.076	6.36
309.445	6.26
309.815	6.39
310.184	6.42
310.554	6.49
310.923	6.59
311.293	6.74
311.662	6.73
312.031	6.65
312.401	6.6
312.77	6.64
313.139	6.57
313.508	6.72
313.877	6.75
314.246	6.94
314.616	7.03
314.985	7.13
315.353	7.21
315.722	7.44
316.091	7.56
316.46	7.54
316.829	7.66
317.198	7.86
317.567	7.81
317.935	7.98
318.304	8.02
318.672	8.04
319.041	8.11
319.41	8.24
319.778	8.4
320.147	8.63
320.515	8.6
320.883	8.52
321.252	8.64
321.62	8.68
321.988	8.66
322.357	8.7
322.725	8.73
323.093	8.75
323.461	8.75
323.829	8.83
324.197	9.06
324.565	9.09
324.933	8.96
325.301	9.23
325.669	9.16
326.037	9.17
326.405	9.35
326.772	9.36
327.14	9.39
327.508	9.38
327.875	9.32
328.243	9.46
328.61	9.65
328.978	9.71
329.346	9.77
329.713	9.81
330.08	9.77
330.448	9.84
330.815	9.75
331.182	9.64
331.55	9.55
331.917	9.53
332.284	9.62
332.651	9.88
333.018	9.78
333.385	9.81
333.752	9.86
334.119	10
334.486	9.98
334.853	10.03
335.22	10.02
335.587	10.15
335.954	10.15
336.32	10.1
336.687	10.06
337.054	10.18
337.42	10.23
337.787	10.35
338.153	10.36
338.52	10.54
338.886	10.62
339.253	10.63
339.619	10.72
339.986	10.82
340.352	10.75
340.718	10.87
341.084	10.77
341.451	11.01
341.817	10.84
342.183	10.85
342.549	10.81
342.915	10.86
343.281	10.79
343.647	10.81
344.013	10.89
344.379	10.85
344.745	10.88
345.11	10.93
345.476	10.94
345.842	11.04
346.208	10.93
346.573	11.05
346.939	11.1
347.304	11.08
347.67	11.03
348.035	11.07
348.401	11.09
348.766	11.21
349.132	11.14
349.497	11.19
349.862	11.25
350.228	11.34
350.593	11.34
350.958	11.36
351.323	11.39
351.688	11.46
352.053	11.51
352.418	11.47
352.783	11.44
353.148	11.39
353.513	11.25
353.878	11.34
354.243	11.22
354.608	11.26
354.972	11.25
355.337	11.17
355.702	11.16
356.066	11.12
356.431	11.1
356.795	11.02
357.16	10.94
357.524	10.84
357.889	10.74
358.253	10.72
358.618	10.69
358.982	10.63
359.346	10.6
359.71	10.54
360.075	10.51
360.439	10.53
360.803	10.48
361.167	10.52
361.531	10.48
361.895	10.45
362.259	10.35
362.623	10.31
362.987	10.21
363.351	10.18
363.714	10.13
364.078	10.02
364.442	9.93
364.806	9.93
365.169	9.96
365.533	9.98
365.896	9.91
366.26	9.83
366.623	9.79
366.987	9.69
367.35	9.67
367.714	9.67
368.077	9.49
368.44	9.47
368.803	9.4
369.167	9.32
369.53	9.27
369.893	9.21
370.256	9.1
370.619	9.15
370.982	9
371.345	8.89
371.708	8.91
372.071	8.91
372.434	8.86
372.797	8.77
373.159	8.62
373.522	8.61
373.885	8.57
374.247	8.5
374.61	8.48
374.973	8.42
375.335	8.3
375.698	8.27
376.06	8.21
376.423	8.17
376.785	8.13
377.147	8.1
377.51	8.09
377.872	8.14
378.234	8.04
378.596	8.04
378.958	7.98
379.321	7.94
379.683	7.86
380.045	7.79
380.407	7.77
380.769	7.78
381.13	7.67
381.492	7.65
381.854	7.61
382.216	7.5
382.578	7.46
382.939	7.4
383.301	7.41
383.663	7.32
384.024	7.27
384.386	7.24
384.747	7.2
385.109	7.14
385.47	7.08
385.832	7.08
386.193	7.08
386.554	7.08
386.916	7.01
387.277	6.99
387.638	6.98
387.999	6.89
388.36	6.87
388.721	6.83
389.082	6.77
389.443	6.75
389.804	6.7
390.165	6.62
390.526	6.56
390.887	6.48
391.248	6.54
391.609	6.47
391.969	6.42
392.33	6.34
392.691	6.32
393.051	6.27
393.412	6.24
393.772	6.14
394.133	6.08
394.493	6.06
394.854	5.95
395.214	5.89
395.574	5.83
395.935	5.76
396.295	5.74
396.655	5.73
397.015	5.66
397.376	5.6
397.736	5.6
398.096	5.59
398.456	5.56
398.816	5.49
399.176	5.4
399.535	5.35
399.895	5.27
400.255	5.21
400.615	5.18
400.975	5.09
401.334	5.04
401.694	5.02
402.054	5
402.413	5
402.773	4.99
403.132	4.96
403.492	4.95
403.851	4.91
404.211	4.85
404.57	4.81
404.929	4.82
405.288	4.78
405.648	4.77
406.007	4.77
406.366	4.7
406.725	4.73
407.084	4.73
407.443	4.74
407.802	4.75
408.161	4.72
408.52	4.71
408.879	4.7
409.238	4.67
409.596	4.64
409.955	4.63
410.314	4.59
410.673	4.57
411.031	4.53
411.39	4.47
411.748	4.46
412.107	4.46
412.465	4.43
412.824	4.43
413.182	4.37
413.54	4.33
413.899	4.36
414.257	4.32
414.615	4.3
414.974	4.29
415.332	4.27
415.69	4.22
416.048	4.19
416.406	4.18
416.764	4.16
417.122	4.13
417.48	4.08
417.838	4.08
418.195	4.08
418.553	4.07
418.911	4.07
419.269	4.06
419.626	4.05
419.984	4.05
420.342	4.03
420.699	4.01
421.057	4
421.414	3.96
421.772	3.96
422.129	3.94
422.486	3.92
422.844	3.9
423.201	3.9
423.558	3.89
423.915	3.88
424.273	3.87
424.63	3.86
424.987	3.86
425.344	3.86
425.701	3.85
426.058	3.83
426.415	3.83
426.772	3.81
427.128	3.8
427.485	3.76
427.842	3.75
428.199	3.76
428.555	3.76
428.912	3.76
429.269	3.76
429.625	3.76
429.982	3.75
430.338	3.73
430.695	3.7
431.051	3.7
431.407	3.7
431.764	3.67
432.12	3.67
432.476	3.68
432.832	3.65
433.189	3.64
433.545	3.65
433.901	3.63
434.257	3.62
434.613	3.63
434.969	3.63
435.325	3.64
435.681	3.63
436.036	3.63
436.392	3.63
436.748	3.62
437.104	3.6
437.459	3.61
437.815	3.6
438.171	3.62
438.526	3.62
438.882	3.64
439.237	3.66
439.593	3.65
439.948	3.65
440.304	3.68
440.659	3.68
441.014	3.67
441.369	3.65
441.725	3.64
442.08	3.63
442.435	3.64
442.79	3.63
443.145	3.62
443.5	3.61
443.855	3.6
444.21	3.59
444.565	3.6
444.92	3.6
445.275	3.59
445.629	3.58
445.984	3.57
446.339	3.52
446.693	3.49
447.048	3.48
447.403	3.47
447.757	3.44
448.112	3.41
448.466	3.4
448.82	3.4
449.175	3.4
449.529	3.39
449.883	3.37
450.238	3.36
450.592	3.35
450.946	3.32
451.3	3.29
451.654	3.28
452.008	3.27
452.362	3.23
452.716	3.24
453.07	3.24
453.424	3.26
453.778	3.28
454.132	3.3
454.486	3.3
454.839	3.29
455.193	3.29
455.547	3.31
455.9	3.31
456.254	3.34
456.607	3.34
456.961	3.35
457.314	3.34
457.668	3.34
458.021	3.35
458.375	3.38
458.728	3.4
459.081	3.42
459.434	3.41
459.787	3.44
460.141	3.43
460.494	3.41
460.847	3.42
461.2	3.42
461.553	3.43
461.906	3.44
462.259	3.46
462.611	3.49
462.964	3.5
463.317	3.51
463.67	3.49
464.022	3.51
464.375	3.51
464.728	3.53
465.08	3.56
465.433	3.57
465.785	3.56
466.138	3.57
466.49	3.56
466.843	3.58
467.195	3.57
467.547	3.59
467.899	3.61
468.252	3.61
468.604	3.63
468.956	3.62
469.308	3.63
469.66	3.64
470.012	3.63
470.364	3.64
470.716	3.64
471.068	3.65
471.42	3.64
471.772	3.66
472.123	3.67
472.475	3.67
472.827	3.67
473.178	3.68
473.53	3.66
473.882	3.66
474.233	3.66
474.585	3.66
474.936	3.64
475.288	3.62
475.639	3.61
475.99	3.61
476.342	3.6
476.693	3.6
477.044	3.6
477.395	3.59
477.746	3.57
478.097	3.55
478.448	3.55
478.8	3.54
479.15	3.5
479.501	3.5
479.852	3.49
480.203	3.49
480.554	3.5
480.905	3.51
481.255	3.52
481.606	3.53
481.957	3.53
482.307	3.54
482.658	3.55
483.009	3.56
483.359	3.56
483.709	3.57
484.06	3.57
484.41	3.58
484.761	3.58
485.111	3.59
485.461	3.61
485.811	3.61
486.162	3.61
486.512	3.63
486.862	3.64
487.212	3.64
487.562	3.65
487.912	3.66
488.262	3.67
488.612	3.68
488.961	3.68
489.311	3.69
489.661	3.71
490.011	3.7
490.36	3.71
490.71	3.7
491.06	3.71
491.409	3.72
491.759	3.72
492.108	3.73
492.458	3.74
492.807	3.73
493.157	3.74
493.506	3.77
493.855	3.79
494.204	3.8
494.554	3.82
494.903	3.83
495.252	3.84
495.601	3.84
495.95	3.87
496.299	3.9
496.648	3.93
496.997	3.95
497.346	4
497.695	4.03
498.043	4.07
498.392	4.1
498.741	4.14
499.09	4.18
499.438	4.22
499.787	4.25
500.135	4.31
500.484	4.36
500.832	4.41
501.181	4.44
501.529	4.5
501.878	4.56
502.226	4.62
502.574	4.67
502.923	4.74
503.271	4.76
503.619	4.81
503.967	4.85
504.315	4.88
504.663	4.95
505.011	5.03
505.359	5.07
505.707	5.15
506.055	5.2
506.403	5.26
506.751	5.33
507.098	5.38
507.446	5.44
507.794	5.48
508.141	5.53
508.489	5.57
508.837	5.62
509.184	5.67
509.531	5.75
509.879	5.83
510.226	5.89
510.574	5.97
510.921	6.01
511.268	6.08
511.616	6.18
511.963	6.25
512.31	6.31
512.657	6.42
513.004	6.48
513.351	6.59
513.698	6.68
514.045	6.74
514.392	6.85
514.739	6.97
515.086	7.07
515.432	7.16
515.779	7.25
516.126	7.35
516.473	7.45
516.819	7.52
517.166	7.61
517.512	7.7
517.859	7.81
518.205	7.92
518.552	8.02
518.898	8.1
519.245	8.19
519.591	8.27
519.937	8.34
520.283	8.45
520.629	8.55
520.976	8.67
521.322	8.8
521.668	8.93
522.014	9.04
522.36	9.19
522.706	9.31
523.052	9.49
523.398	9.65
523.743	9.81
524.089	10.01
524.435	10.17
524.781	10.33
525.126	10.48
525.472	10.61
525.817	10.74
526.163	10.85
526.509	10.98
526.854	11.1
527.199	11.22
527.545	11.32
527.89	11.43
528.235	11.54
528.581	11.68
528.926	11.81
529.271	11.94
529.616	12.04
529.961	12.2
530.306	12.33
530.651	12.49
530.996	12.63
531.341	12.78
531.686	12.93
532.031	13.11
532.376	13.28
532.721	13.47
533.065	13.64
533.41	13.84
533.755	14.04
534.099	14.25
534.444	14.46
534.788	14.69
535.133	14.88
535.477	15.08
535.822	15.28
536.166	15.48
536.51	15.72
536.855	16
537.199	16.28
537.543	16.56
537.887	16.81
538.231	17.1
538.576	17.4
538.92	17.7
539.264	17.95
539.608	18.2
539.951	18.44
540.295	18.68
540.639	18.92
540.983	19.13
541.327	19.34
541.671	19.56
542.014	19.77
542.358	19.98
542.701	20.21
543.045	20.4
543.389	20.65
543.732	20.88
544.075	21.11
544.419	21.35
544.762	21.58
545.105	21.86
545.449	22.12
545.792	22.34
546.135	22.64
546.478	22.93
546.821	23.23
547.165	23.53
547.508	23.87
547.851	24.2
548.194	24.51
548.536	24.83
548.879	25.15
549.222	25.5
549.565	25.84
549.908	26.17
550.25	26.55
550.593	26.86
550.936	27.19
551.278	27.52
551.621	27.81
551.963	28.14
552.306	28.41
552.648	28.72
552.991	29.1
553.333	29.36
553.675	29.64
554.017	29.95
554.36	30.24
554.702	30.5
555.044	30.73
555.386	31.03
555.728	31.26
556.07	31.51
556.412	31.78
556.754	32.08
557.096	32.33
557.438	32.57
557.78	32.88
558.121	33.13
558.463	33.41
558.805	33.71
559.147	33.97
559.488	34.22
559.83	34.44
560.171	34.74
560.513	35
560.854	35.26
561.196	35.49
561.537	35.76
561.878	36
562.22	36.23
562.561	36.41
562.902	36.68
563.243	36.95
563.584	37.13
563.925	37.32
564.266	37.56
564.607	37.81
564.948	37.97
565.289	38.17
565.63	38.37
565.971	38.48
566.312	38.67
566.653	38.84
566.993	39.03
567.334	39.1
567.675	39.31
568.015	39.49
568.356	39.63
568.696	39.82
569.037	40.02
569.377	40.28
569.718	40.46
570.058	40.66
570.398	40.77
570.739	40.93
571.079	41.13
571.419	41.25
571.759	41.36
572.099	41.49
572.439	41.6
572.779	41.7
573.119	41.84
573.459	41.98
573.799	42.13
574.139	42.22
574.479	42.37
574.819	42.44
575.158	42.53
575.498	42.69
575.838	42.74
576.177	42.83
576.517	42.9
576.856	43.1
577.196	43.2
577.535	43.43
577.875	43.64
578.214	43.72
578.553	43.89
578.893	44.01
579.232	44.16
579.571	44.32
579.91	44.5
580.25	44.69
580.589	44.83
580.928	45.01
581.267	45.21
581.606	45.35
581.945	45.45
582.283	45.56
582.622	45.66
582.961	45.81
583.3	45.96
583.639	46
583.977	46.03
584.316	46.15
584.654	46.18
584.993	46.22
585.332	46.28
585.67	46.36
586.008	46.5
586.347	46.58
586.685	46.72
587.024	46.77
587.362	46.88
587.7	46.93
588.038	46.96
588.376	47
588.715	47.03
589.053	47.11
589.391	47.25
589.729	47.4
590.067	47.42
590.404	47.45
590.742	47.57
591.08	47.67
591.418	47.68
591.756	47.69
592.093	47.73
592.431	47.82
592.769	47.85
593.106	47.84
593.444	47.9
593.781	47.86
594.119	47.91
594.456	47.85
594.793	47.82
595.131	47.87
595.468	47.99
595.805	48.11
596.143	48.14
596.48	48.18
596.817	48.19
597.154	48.32
597.491	48.38
597.828	48.36
598.165	48.39
598.502	48.38
598.839	48.48
599.176	48.53
599.512	48.49
599.849	48.53
600.186	48.64
600.523	48.72
600.859	48.77
601.196	48.85
601.532	48.93
601.869	49.01
602.205	49.11
602.542	49.04
602.878	49.04
603.215	49.12
603.551	49.07
603.887	49.08
604.223	48.99
604.56	49.01
604.896	49.08
605.232	49.1
605.568	49.2
605.904	49.21
606.24	49.23
606.576	49.34
606.912	49.4
607.248	49.43
607.583	49.44
607.919	49.46
608.255	49.48
608.591	49.53
608.926	49.57
609.262	49.54
609.597	49.69
609.933	49.75
610.268	49.78
610.604	49.89
610.939	49.93
611.275	50.09
611.61	50.11
611.945	50.13
612.281	50.17
612.616	50.23
612.951	50.31
613.286	50.4
613.621	50.47
613.956	50.44
614.291	50.53
614.626	50.68
614.961	50.79
615.296	50.8
615.631	50.87
615.966	50.95
616.3	50.98
616.635	51.02
616.97	51.01
617.304	51.12
617.639	51.13
617.973	51.19
618.308	51.25
618.642	51.33
618.977	51.47
619.311	51.49
619.646	51.57
619.98	51.54
620.314	51.64
620.648	51.63
620.983	51.68
621.317	51.63
621.651	51.57
621.985	51.61
622.319	51.66
622.653	51.66
622.987	51.75
623.321	51.73
623.655	51.58
623.988	51.52
624.322	51.42
624.656	51.41
624.99	51.35
625.323	51.31
625.657	51.32
625.99	51.18
626.324	51.2
626.657	51.16
626.991	51.22
627.324	51.15
627.658	51.17
627.991	51.26
628.324	51.26
628.657	51.26
628.991	51.22
629.324	51.25
629.657	51.25
629.99	51.22
630.323	51.19
630.656	51.3
630.989	51.46
631.322	51.55
631.655	51.65
631.987	51.77
632.32	51.83
632.653	51.79
632.986	51.98
633.318	52.07
633.651	52.13
633.984	52.09
634.316	52.12
634.649	52.21
634.981	52.28
635.313	52.34
635.646	52.32
635.978	52.43
636.31	52.44
636.643	52.51
636.975	52.56
637.307	52.7
637.639	52.71
637.971	52.67
638.303	52.73
638.635	52.65
638.967	52.71
639.299	52.67
639.631	52.72
639.963	52.61
640.295	52.61
640.626	52.63
640.958	52.73
641.29	52.82
641.621	52.69
641.953	52.59
642.285	52.63
642.616	52.75
642.948	52.77
643.279	52.81
643.61	52.75
643.942	52.78
644.273	52.69
644.604	52.65
644.936	52.64
645.267	52.65
645.598	52.72
645.929	52.6
646.26	52.68
646.591	52.74
646.922	52.82
647.253	52.74
647.584	52.59
647.915	52.49
648.245	52.43
648.576	52.55
648.907	52.6
649.238	52.51
649.568	52.46
649.899	52.47
650.229	52.36
650.56	52.33
650.89	52.33
651.221	52.38
651.551	52.4
651.882	52.52
652.212	52.49
652.542	52.52
652.872	52.63
653.203	52.56
653.533	52.63
653.863	52.63
654.193	52.66
654.523	52.88
654.853	52.88
655.183	52.82
655.513	52.74
655.843	52.69
656.172	52.64
656.502	52.59
656.832	52.54
657.162	52.59
657.491	52.71
657.821	52.65
658.15	52.76
658.48	52.82
658.809	52.77
659.139	52.8
659.468	52.74
659.798	52.67
660.127	52.7
660.456	52.65
660.785	52.64
661.115	52.66
661.444	52.51
661.773	52.52
662.102	52.62
662.431	52.64
662.76	52.63
663.089	52.79
663.418	52.83
663.747	52.83
664.076	52.87
664.404	52.82
664.733	52.89
665.062	52.85
