Data from BA57748_Reflection_00001.txt Node
Date: Mon Nov 18 15:55:10 EST 2019
User: vgr7
Spectrometer: USB2G7710
Scans to average: 3
Trigger mode: 4
Integration Time (sec): 2.000000E-2
Electric dark correction enabled: true
Boxcar width: 10
XAxis mode: Wavelengths
Number of Pixels in Spectrum: 2048
>>>>>Begin Spectral Data<<<<<
177.721	58.79
178.105	-200.88
178.488	43.31
178.871	88.37
179.254	98.55
179.636	48.82
180.019	75.95
180.402	104.55
180.785	61.39
181.168	170.55
181.55	-308.91
181.933	160.7
182.316	127.53
182.698	85.02
183.081	95.99
183.463	79.36
183.846	189.08
184.228	160.24
184.611	167.25
184.993	483.03
185.376	542.72
185.758	-781.66
186.14	202.8
186.522	432.05
186.904	339.7
187.287	213.76
187.669	302.5
188.051	227.19
188.433	391.72
188.815	299.05
189.197	330.93
189.579	245.85
189.961	253.48
190.342	294.47
190.724	604.8
191.106	474.07
191.488	-7981.08
191.869	-1880.89
192.251	7392.68
192.633	1029.62
193.014	339.44
193.396	331.81
193.777	373.05
194.159	380
194.54	583.18
194.922	1615.84
195.303	-3413.76
195.684	1189.22
196.065	-1143.32
196.447	22982.35
196.828	-16706.45
197.209	-14190.32
197.59	7608.47
197.971	2462.16
198.352	-12197.3
198.733	986.15
199.114	3619.08
199.495	687.66
199.876	1165.08
200.257	2910.06
200.638	-918.69
201.018	-1303.02
201.399	-644.58
201.78	-406.98
202.16	-372.57
202.541	-59757.14
202.922	976.17
203.302	583.74
203.683	2921.99
204.063	858.57
204.444	1713
204.824	1903.35
205.204	2411.63
205.585	1444.65
205.965	-2587.8
206.345	-2910.36
206.725	-3451.72
207.106	-30163.16
207.486	-3552.41
207.866	4428.47
208.246	-3488.24
208.626	-4025.83
209.006	-1343.37
209.386	1994.55
209.766	1898.76
210.145	2505.2
210.525	5719.47
210.905	-1508.7
211.285	-788.11
211.664	-1008.66
212.044	-835.77
212.424	-695.11
212.803	-905.64
213.183	-294.58
213.562	-356.51
213.942	-273.93
214.321	-227.09
214.701	-276.07
215.08	-374.49
215.459	-228.44
215.838	-267.34
216.218	-279.25
216.597	-221.5
216.976	-253.38
217.355	-287.25
217.734	-397.27
218.113	-256.36
218.492	-231.15
218.871	-274.32
219.25	-191.22
219.629	-176.6
220.008	-213.98
220.387	-160.45
220.766	-153.34
221.144	-344
221.523	-273.07
221.902	-347.04
222.28	-427.89
222.659	-394.47
223.037	-247.94
223.416	-389.87
223.794	-311.76
224.173	-240.39
224.551	-209.95
224.929	-162.3
225.308	-104.11
225.686	-83.89
226.064	-81.62
226.442	-75.25
226.821	-61.61
227.199	-57.02
227.577	-58.64
227.955	-55.94
228.333	-59.49
228.711	-43.94
229.089	-33.6
229.467	-36.92
229.845	-31.27
230.222	-27.06
230.6	-23.8
230.978	-21.54
231.356	-17.41
231.733	-14.61
232.111	-11.44
232.488	-10.46
232.866	-9.19
233.243	-7.42
233.621	-9.12
233.998	-6.52
234.376	-7.46
234.753	-6.18
235.13	-3.48
235.508	0.14
235.885	1.48
236.262	0.78
236.639	-1.63
237.016	-0.04
237.393	2.4
237.77	-0.24
238.147	0.77
238.524	1.64
238.901	2.45
239.278	2.3
239.655	3.04
240.032	2.84
240.409	1.89
240.785	1.79
241.162	1.67
241.539	2.22
241.915	1.68
242.292	1.38
242.668	2.02
243.045	1.4
243.421	1.08
243.798	0.7
244.174	1.04
244.551	1.24
244.927	1.02
245.303	1.26
245.679	1.64
246.056	1.52
246.432	1.32
246.808	1.28
247.184	0.86
247.56	0.63
247.936	0.79
248.312	0.81
248.688	1.14
249.064	1.06
249.44	1.26
249.815	1.48
250.191	1.79
250.567	1.42
250.943	1.23
251.318	1.26
251.694	1.5
252.069	1.12
252.445	1.2
252.82	1.2
253.196	0.57
253.571	0.46
253.947	0.72
254.322	0.84
254.697	0.95
255.073	1.02
255.448	0.92
255.823	1.05
256.198	1.27
256.573	0.78
256.948	0.87
257.323	0.59
257.698	0.69
258.073	0.76
258.448	0.94
258.823	1.17
259.198	1.09
259.573	1.17
259.948	1.42
260.322	1.36
260.697	1.28
261.072	1.44
261.446	1.46
261.821	1.22
262.195	1.31
262.57	1.14
262.944	1.08
263.319	1.01
263.693	0.87
264.067	0.86
264.442	1.1
264.816	1.21
265.19	1.23
265.564	1.13
265.938	0.96
266.313	0.81
266.687	0.7
267.061	0.84
267.435	1.03
267.809	0.91
268.183	0.98
268.556	1.04
268.93	1.04
269.304	1.06
269.678	1.25
270.051	1.22
270.425	1.36
270.799	1.61
271.172	1.86
271.546	1.85
271.919	1.76
272.293	1.62
272.666	1.6
273.04	1.66
273.413	1.63
273.787	1.66
274.16	1.56
274.533	1.63
274.906	1.69
275.279	1.52
275.653	1.7
276.026	1.55
276.399	1.48
276.772	1.58
277.145	1.68
277.518	1.78
277.891	1.96
278.263	1.92
278.636	1.88
279.009	1.8
279.382	1.91
279.755	2.03
280.127	2.32
280.5	2.43
280.872	2.5
281.245	2.54
281.617	2.77
281.99	3.11
282.362	3.11
282.735	3.04
283.107	2.96
283.479	2.91
283.852	2.86
284.224	2.88
284.596	2.88
284.968	2.88
285.34	2.73
285.713	2.5
286.085	2.47
286.457	2.59
286.829	2.6
287.201	2.62
287.572	2.52
287.944	2.4
288.316	2.2
288.688	2.09
289.06	2.02
289.431	1.79
289.803	1.6
290.175	1.69
290.546	1.72
290.918	1.87
291.289	1.8
291.661	2.07
292.032	2.24
292.403	2.13
292.775	2.23
293.146	2.21
293.517	2.2
293.889	2.21
294.26	2.24
294.631	2.26
295.002	2.19
295.373	2.25
295.744	2.31
296.115	2.34
296.486	2.43
296.857	2.6
297.228	2.79
297.599	2.91
297.97	2.86
298.34	2.77
298.711	2.79
299.082	2.82
299.452	2.67
299.823	2.61
300.194	2.72
300.564	2.62
300.935	2.64
301.305	2.6
301.676	2.67
302.046	2.55
302.416	2.64
302.787	2.71
303.157	2.76
303.527	2.64
303.897	2.75
304.267	2.79
304.637	2.65
305.008	2.43
305.378	2.49
305.748	2.55
306.117	2.58
306.487	2.57
306.857	2.63
307.227	2.63
307.597	2.58
307.967	2.48
308.336	2.54
308.706	2.55
309.076	2.73
309.445	2.63
309.815	2.62
310.184	2.47
310.554	2.44
310.923	2.33
311.293	2.32
311.662	2.37
312.031	2.31
312.401	2.48
312.77	2.71
313.139	2.5
313.508	2.49
313.877	2.52
314.246	2.44
314.616	2.27
314.985	2.25
315.353	2.11
315.722	2.16
316.091	2.06
316.46	2.1
316.829	2.15
317.198	2.25
317.567	2.37
317.935	2.33
318.304	2.34
318.672	2.32
319.041	2.4
319.41	2.3
319.778	2.41
320.147	2.21
320.515	2.07
320.883	2.14
321.252	2.18
321.62	2.15
321.988	2.18
322.357	2.3
322.725	2.34
323.093	2.5
323.461	2.45
323.829	2.55
324.197	2.58
324.565	2.54
324.933	2.47
325.301	2.25
325.669	2.36
326.037	2.28
326.405	2.4
326.772	2.53
327.14	2.51
327.508	2.4
327.875	2.36
328.243	2.36
328.61	2.45
328.978	2.4
329.346	2.45
329.713	2.42
330.08	2.44
330.448	2.3
330.815	2.21
331.182	2.23
331.55	2.25
331.917	2.29
332.284	2.27
332.651	2.19
333.018	2.33
333.385	2.31
333.752	2.46
334.119	2.57
334.486	2.49
334.853	2.52
335.22	2.51
335.587	2.6
335.954	2.52
336.32	2.43
336.687	2.43
337.054	2.41
337.42	2.48
337.787	2.54
338.153	2.65
338.52	2.77
338.886	2.82
339.253	2.7
339.619	2.68
339.986	2.7
340.352	2.92
340.718	2.87
341.084	2.81
341.451	2.83
341.817	2.81
342.183	2.78
342.549	2.74
342.915	2.72
343.281	2.69
343.647	2.79
344.013	2.85
344.379	2.84
344.745	2.88
345.11	2.83
345.476	2.77
345.842	2.7
346.208	2.72
346.573	2.73
346.939	2.93
347.304	2.93
347.67	2.87
348.035	2.77
348.401	2.77
348.766	2.78
349.132	2.75
349.497	2.72
349.862	2.83
350.228	2.82
350.593	2.78
350.958	2.8
351.323	2.75
351.688	2.72
352.053	2.76
352.418	2.8
352.783	2.85
353.148	2.88
353.513	2.93
353.878	2.83
354.243	2.81
354.608	2.74
354.972	2.75
355.337	2.82
355.702	2.89
356.066	2.99
356.431	3.04
356.795	3.06
357.16	3
357.524	2.93
357.889	2.94
358.253	3.04
358.618	3.05
358.982	3.03
359.346	2.99
359.71	2.97
360.075	2.9
360.439	2.92
360.803	2.98
361.167	2.99
361.531	3.01
361.895	2.99
362.259	2.96
362.623	2.94
362.987	2.91
363.351	2.88
363.714	2.89
364.078	2.79
364.442	2.71
364.806	2.69
365.169	2.74
365.533	2.77
365.896	2.76
366.26	2.71
366.623	2.7
366.987	2.71
367.35	2.71
367.714	2.74
368.077	2.66
368.44	2.61
368.803	2.58
369.167	2.56
369.53	2.55
369.893	2.5
370.256	2.48
370.619	2.48
370.982	2.43
371.345	2.36
371.708	2.45
372.071	2.49
372.434	2.52
372.797	2.48
373.159	2.46
373.522	2.41
373.885	2.51
374.247	2.53
374.61	2.61
374.973	2.59
375.335	2.59
375.698	2.66
376.06	2.62
376.423	2.63
376.785	2.63
377.147	2.68
377.51	2.7
377.872	2.73
378.234	2.75
378.596	2.77
378.958	2.78
379.321	2.8
379.683	2.8
380.045	2.82
380.407	2.85
380.769	2.83
381.13	2.83
381.492	2.76
381.854	2.78
382.216	2.72
382.578	2.73
382.939	2.68
383.301	2.64
383.663	2.62
384.024	2.59
384.386	2.62
384.747	2.58
385.109	2.62
385.47	2.59
385.832	2.57
386.193	2.6
386.554	2.62
386.916	2.6
387.277	2.6
387.638	2.63
387.999	2.6
388.36	2.63
388.721	2.7
389.082	2.72
389.443	2.69
389.804	2.72
390.165	2.72
390.526	2.73
390.887	2.74
391.248	2.76
391.609	2.8
391.969	2.8
392.33	2.86
392.691	2.81
393.051	2.81
393.412	2.83
393.772	2.8
394.133	2.79
394.493	2.81
394.854	2.83
395.214	2.79
395.574	2.81
395.935	2.81
396.295	2.8
396.655	2.79
397.015	2.83
397.376	2.83
397.736	2.84
398.096	2.85
398.456	2.87
398.816	2.87
399.176	2.86
399.535	2.83
399.895	2.79
400.255	2.79
400.615	2.75
400.975	2.75
401.334	2.71
401.694	2.71
402.054	2.7
402.413	2.69
402.773	2.68
403.132	2.65
403.492	2.63
403.851	2.62
404.211	2.64
404.57	2.61
404.929	2.62
405.288	2.63
405.648	2.62
406.007	2.61
406.366	2.61
406.725	2.64
407.084	2.67
407.443	2.68
407.802	2.69
408.161	2.7
408.52	2.68
408.879	2.72
409.238	2.73
409.596	2.69
409.955	2.69
410.314	2.67
410.673	2.69
411.031	2.66
411.39	2.67
411.748	2.66
412.107	2.66
412.465	2.62
412.824	2.61
413.182	2.59
413.54	2.6
413.899	2.6
414.257	2.61
414.615	2.57
414.974	2.58
415.332	2.58
415.69	2.61
416.048	2.63
416.406	2.62
416.764	2.61
417.122	2.63
417.48	2.63
417.838	2.67
418.195	2.69
418.553	2.7
418.911	2.7
419.269	2.72
419.626	2.73
419.984	2.75
420.342	2.75
420.699	2.77
421.057	2.77
421.414	2.77
421.772	2.74
422.129	2.76
422.486	2.76
422.844	2.78
423.201	2.79
423.558	2.77
423.915	2.78
424.273	2.78
424.63	2.77
424.987	2.77
425.344	2.75
425.701	2.75
426.058	2.75
426.415	2.76
426.772	2.75
427.128	2.73
427.485	2.71
427.842	2.72
428.199	2.72
428.555	2.7
428.912	2.72
429.269	2.73
429.625	2.71
429.982	2.71
430.338	2.69
430.695	2.69
431.051	2.69
431.407	2.68
431.764	2.69
432.12	2.69
432.476	2.69
432.832	2.68
433.189	2.69
433.545	2.67
433.901	2.66
434.257	2.66
434.613	2.69
434.969	2.69
435.325	2.7
435.681	2.71
436.036	2.71
436.392	2.71
436.748	2.73
437.104	2.74
437.459	2.72
437.815	2.73
438.171	2.74
438.526	2.77
438.882	2.78
439.237	2.78
439.593	2.79
439.948	2.79
440.304	2.81
440.659	2.81
441.014	2.82
441.369	2.82
441.725	2.81
442.08	2.8
442.435	2.82
442.79	2.81
443.145	2.8
443.5	2.8
443.855	2.79
444.21	2.78
444.565	2.79
444.92	2.8
445.275	2.79
445.629	2.79
445.984	2.77
446.339	2.76
446.693	2.77
447.048	2.76
447.403	2.76
447.757	2.75
448.112	2.74
448.466	2.74
448.82	2.75
449.175	2.75
449.529	2.74
449.883	2.73
450.238	2.72
450.592	2.73
450.946	2.73
451.3	2.72
451.654	2.73
452.008	2.72
452.362	2.71
452.716	2.72
453.07	2.73
453.424	2.73
453.778	2.72
454.132	2.72
454.486	2.71
454.839	2.72
455.193	2.7
455.547	2.71
455.9	2.73
456.254	2.73
456.607	2.74
456.961	2.74
457.314	2.73
457.668	2.73
458.021	2.72
458.375	2.72
458.728	2.71
459.081	2.7
459.434	2.7
459.787	2.71
460.141	2.7
460.494	2.69
460.847	2.7
461.2	2.69
461.553	2.68
461.906	2.71
462.259	2.71
462.611	2.72
462.964	2.72
463.317	2.7
463.67	2.7
464.022	2.71
464.375	2.71
464.728	2.72
465.08	2.74
465.433	2.75
465.785	2.74
466.138	2.75
466.49	2.75
466.843	2.75
467.195	2.75
467.547	2.76
467.899	2.77
468.252	2.75
468.604	2.79
468.956	2.78
469.308	2.78
469.66	2.77
470.012	2.77
470.364	2.77
470.716	2.77
471.068	2.78
471.42	2.76
471.772	2.78
472.123	2.78
472.475	2.78
472.827	2.8
473.178	2.83
473.53	2.81
473.882	2.82
474.233	2.83
474.585	2.82
474.936	2.82
475.288	2.82
475.639	2.84
475.99	2.84
476.342	2.86
476.693	2.87
477.044	2.89
477.395	2.89
477.746	2.89
478.097	2.89
478.448	2.89
478.8	2.88
479.15	2.85
479.501	2.84
479.852	2.84
480.203	2.83
480.554	2.83
480.905	2.86
481.255	2.86
481.606	2.86
481.957	2.87
482.307	2.87
482.658	2.88
483.009	2.89
483.359	2.89
483.709	2.9
484.06	2.89
484.41	2.89
484.761	2.89
485.111	2.89
485.461	2.91
485.811	2.92
486.162	2.92
486.512	2.94
486.862	2.95
487.212	2.95
487.562	2.96
487.912	2.96
488.262	2.96
488.612	2.96
488.961	2.95
489.311	2.96
489.661	2.96
490.011	2.95
490.36	2.94
490.71	2.93
491.06	2.94
491.409	2.94
491.759	2.94
492.108	2.93
492.458	2.93
492.807	2.91
493.157	2.9
493.506	2.9
493.855	2.89
494.204	2.88
494.554	2.88
494.903	2.88
495.252	2.87
495.601	2.88
495.95	2.88
496.299	2.88
496.648	2.88
496.997	2.88
497.346	2.89
497.695	2.91
498.043	2.91
498.392	2.88
498.741	2.89
499.09	2.88
499.438	2.9
499.787	2.91
500.135	2.92
500.484	2.92
500.832	2.92
501.181	2.91
501.529	2.91
501.878	2.91
502.226	2.92
502.574	2.89
502.923	2.89
503.271	2.88
503.619	2.88
503.967	2.88
504.315	2.87
504.663	2.87
505.011	2.89
505.359	2.9
505.707	2.92
506.055	2.92
506.403	2.93
506.751	2.93
507.098	2.93
507.446	2.93
507.794	2.91
508.141	2.93
508.489	2.95
508.837	2.97
509.184	2.98
509.531	2.97
509.879	3
510.226	3.01
510.574	3.02
510.921	3.02
511.268	3.03
511.616	3.04
511.963	3.05
512.31	3.03
512.657	3.04
513.004	3.04
513.351	3.04
513.698	3.04
514.045	3.03
514.392	3.03
514.739	3.03
515.086	3.06
515.432	3.06
515.779	3.04
516.126	3.04
516.473	3.04
516.819	3.06
517.166	3.04
517.512	3.03
517.859	3.04
518.205	3.03
518.552	3.04
518.898	3.02
519.245	3.04
519.591	3.04
519.937	3.03
520.283	3.02
520.629	3.03
520.976	3.04
521.322	3.03
521.668	3.02
522.014	3.03
522.36	3.03
522.706	3.03
523.052	3.06
523.398	3.07
523.743	3.07
524.089	3.08
524.435	3.1
524.781	3.11
525.126	3.13
525.472	3.14
525.817	3.14
526.163	3.14
526.509	3.14
526.854	3.14
527.199	3.15
527.545	3.15
527.89	3.16
528.235	3.15
528.581	3.17
528.926	3.18
529.271	3.18
529.616	3.19
529.961	3.2
530.306	3.2
530.651	3.19
530.996	3.2
531.341	3.19
531.686	3.18
532.031	3.2
532.376	3.19
532.721	3.19
533.065	3.2
533.41	3.22
533.755	3.2
534.099	3.21
534.444	3.21
534.788	3.24
535.133	3.24
535.477	3.25
535.822	3.24
536.166	3.25
536.51	3.23
536.855	3.23
537.199	3.23
537.543	3.23
537.887	3.24
538.231	3.23
538.576	3.23
538.92	3.23
539.264	3.24
539.608	3.24
539.951	3.25
540.295	3.24
540.639	3.25
540.983	3.26
541.327	3.26
541.671	3.25
542.014	3.23
542.358	3.23
542.701	3.23
543.045	3.24
543.389	3.24
543.732	3.26
544.075	3.26
544.419	3.25
544.762	3.26
545.105	3.26
545.449	3.27
545.792	3.27
546.135	3.28
546.478	3.27
546.821	3.27
547.165	3.26
547.508	3.25
547.851	3.26
548.194	3.25
548.536	3.25
548.879	3.27
549.222	3.27
549.565	3.28
549.908	3.28
550.25	3.25
550.593	3.24
550.936	3.23
551.278	3.25
551.621	3.26
551.963	3.27
552.306	3.26
552.648	3.24
552.991	3.26
553.333	3.27
553.675	3.28
554.017	3.28
554.36	3.27
554.702	3.3
555.044	3.27
555.386	3.29
555.728	3.29
556.07	3.28
556.412	3.3
556.754	3.27
557.096	3.25
557.438	3.28
557.78	3.3
558.121	3.32
558.463	3.3
558.805	3.29
559.147	3.23
559.488	3.25
559.83	3.27
560.171	3.27
560.513	3.25
560.854	3.24
561.196	3.26
561.537	3.28
561.878	3.25
562.22	3.24
562.561	3.24
562.902	3.25
563.243	3.23
563.584	3.23
563.925	3.24
564.266	3.24
564.607	3.23
564.948	3.24
565.289	3.21
565.63	3.21
565.971	3.21
566.312	3.24
566.653	3.25
566.993	3.24
567.334	3.25
567.675	3.24
568.015	3.27
568.356	3.23
568.696	3.23
569.037	3.26
569.377	3.31
569.718	3.32
570.058	3.32
570.398	3.35
570.739	3.35
571.079	3.37
571.419	3.39
571.759	3.41
572.099	3.41
572.439	3.43
572.779	3.44
573.119	3.45
573.459	3.44
573.799	3.45
574.139	3.44
574.479	3.44
574.819	3.47
575.158	3.45
575.498	3.48
575.838	3.48
576.177	3.44
576.517	3.45
576.856	3.46
577.196	3.45
577.535	3.42
577.875	3.43
578.214	3.43
578.553	3.41
578.893	3.38
579.232	3.37
579.571	3.37
579.91	3.37
580.25	3.38
580.589	3.42
580.928	3.42
581.267	3.42
581.606	3.39
581.945	3.4
582.283	3.38
582.622	3.36
582.961	3.34
583.3	3.37
583.639	3.36
583.977	3.33
584.316	3.34
584.654	3.36
584.993	3.37
585.332	3.41
585.67	3.42
586.008	3.47
586.347	3.45
586.685	3.43
587.024	3.41
587.362	3.38
587.7	3.36
588.038	3.34
588.376	3.35
588.715	3.37
589.053	3.37
589.391	3.37
589.729	3.39
590.067	3.38
590.404	3.37
590.742	3.35
591.08	3.31
591.418	3.29
591.756	3.31
592.093	3.31
592.431	3.26
592.769	3.25
593.106	3.2
593.444	3.19
593.781	3.16
594.119	3.19
594.456	3.2
594.793	3.22
595.131	3.25
595.468	3.25
595.805	3.23
596.143	3.22
596.48	3.23
596.817	3.21
597.154	3.22
597.491	3.24
597.828	3.24
598.165	3.28
598.502	3.28
598.839	3.24
599.176	3.21
599.512	3.22
599.849	3.23
600.186	3.23
600.523	3.25
600.859	3.3
601.196	3.29
601.532	3.32
601.869	3.31
602.205	3.33
602.542	3.33
602.878	3.36
603.215	3.39
603.551	3.41
603.887	3.41
604.223	3.41
604.56	3.43
604.896	3.45
605.232	3.45
605.568	3.47
605.904	3.49
606.24	3.51
606.576	3.52
606.912	3.53
607.248	3.56
607.583	3.59
607.919	3.58
608.255	3.55
608.591	3.56
608.926	3.56
609.262	3.54
609.597	3.54
609.933	3.55
610.268	3.53
610.604	3.51
610.939	3.52
611.275	3.5
611.61	3.47
611.945	3.48
612.281	3.52
612.616	3.51
612.951	3.55
613.286	3.52
613.621	3.49
613.956	3.48
614.291	3.47
614.626	3.45
614.961	3.43
615.296	3.48
615.631	3.42
615.966	3.39
616.3	3.35
616.635	3.37
616.97	3.34
617.304	3.34
617.639	3.36
617.973	3.37
618.308	3.41
618.642	3.43
618.977	3.41
619.311	3.35
619.646	3.3
619.98	3.26
620.314	3.28
620.648	3.37
620.983	3.41
621.317	3.41
621.651	3.39
621.985	3.48
622.319	3.47
622.653	3.55
622.987	3.57
623.321	3.6
623.655	3.62
623.988	3.66
624.322	3.65
624.656	3.63
624.99	3.62
625.323	3.63
625.657	3.65
625.99	3.66
626.324	3.67
626.657	3.73
626.991	3.72
627.324	3.71
627.658	3.68
627.991	3.68
628.324	3.7
628.657	3.72
628.991	3.69
629.324	3.65
629.657	3.61
629.99	3.62
630.323	3.62
630.656	3.58
630.989	3.58
631.322	3.6
631.655	3.6
631.987	3.63
632.32	3.62
632.653	3.6
632.986	3.61
633.318	3.6
633.651	3.58
633.984	3.6
634.316	3.58
634.649	3.56
634.981	3.51
635.313	3.46
635.646	3.46
635.978	3.43
636.31	3.41
636.643	3.39
636.975	3.4
637.307	3.43
637.639	3.41
637.971	3.39
638.303	3.35
638.635	3.35
638.967	3.33
639.299	3.39
639.631	3.34
639.963	3.28
640.295	3.31
640.626	3.35
640.958	3.38
641.29	3.49
641.621	3.53
641.953	3.53
642.285	3.52
642.616	3.58
642.948	3.63
643.279	3.67
643.61	3.63
643.942	3.61
644.273	3.57
644.604	3.56
644.936	3.57
645.267	3.66
645.598	3.63
645.929	3.65
646.26	3.6
646.591	3.65
646.922	3.65
647.253	3.62
647.584	3.61
647.915	3.53
648.245	3.44
648.576	3.41
648.907	3.47
649.238	3.46
649.568	3.4
649.899	3.38
650.229	3.43
650.56	3.52
650.89	3.56
651.221	3.57
651.551	3.63
651.882	3.56
652.212	3.53
652.542	3.59
652.872	3.5
653.203	3.51
653.533	3.51
653.863	3.53
654.193	3.58
654.523	3.59
654.853	3.62
655.183	3.67
655.513	3.69
655.843	3.66
656.172	3.69
656.502	3.68
656.832	3.65
657.162	3.61
657.491	3.54
657.821	3.51
658.15	3.54
658.48	3.54
658.809	3.62
659.139	3.62
659.468	3.54
659.798	3.59
660.127	3.58
660.456	3.58
660.785	3.61
661.115	3.58
661.444	3.6
661.773	3.64
662.102	3.61
662.431	3.61
662.76	3.66
663.089	3.72
663.418	3.72
663.747	3.77
664.076	3.8
664.404	3.87
664.733	3.91
665.062	3.91
665.39	3.87
665.719	3.8
666.048	3.79
666.376	3.9
666.705	3.87
667.033	3.81
667.362	3.87
667.69	3.91
668.018	3.86
668.347	3.81
668.675	3.74
669.003	3.75
669.331	3.78
669.659	3.75
669.987	3.68
670.315	3.73
670.643	3.64
670.971	3.63
671.299	3.64
671.627	3.58
671.955	3.6
672.283	3.64
672.61	3.67
672.938	3.65
673.266	3.6
673.593	3.73
673.921	3.78
