Data from BA57750_Reflection_00014.txt Node
Date: Mon Nov 18 15:47:34 EST 2019
User: vgr7
Spectrometer: USB2G7710
Scans to average: 3
Trigger mode: 4
Integration Time (sec): 2.000000E-2
Electric dark correction enabled: true
Boxcar width: 10
XAxis mode: Wavelengths
Number of Pixels in Spectrum: 2048
>>>>>Begin Spectral Data<<<<<
177.721	88.25
178.105	55.84
178.488	3378.69
178.871	-59.34
179.254	-16.41
179.636	-72.79
180.019	-30.38
180.402	43.75
180.785	-22.67
181.168	-30.99
181.55	-16.64
181.933	50.86
182.316	57.66
182.698	39.78
183.081	45.82
183.463	96.01
183.846	192.95
184.228	73.46
184.611	52.45
184.993	-30.38
185.376	15.17
185.758	-33.13
186.14	71.38
186.522	26.52
186.904	57.26
187.287	62.54
187.669	107.61
188.051	97.41
188.433	135.28
188.815	183.18
189.197	10407.69
189.579	1213.04
189.961	10310.53
190.342	5867.44
190.724	-286.07
191.106	-189.21
191.488	-188.43
191.869	-84.15
192.251	-177.68
192.633	-73.78
193.014	-117.16
193.396	-184.59
193.777	-164.24
194.159	-125.1
194.54	-80.73
194.922	-45.85
195.303	-10.12
195.684	-1.72
196.065	13.36
196.447	3.11
196.828	-39.95
197.209	-30.08
197.59	-19.57
197.971	-15.66
198.352	-6.71
198.733	-17.28
199.114	-8.49
199.495	-1.43
199.876	2.7
200.257	13.53
200.638	24.97
201.018	28.89
201.399	27.72
201.78	24.97
202.16	8.73
202.541	-19.11
202.922	-18.46
203.302	-40.68
203.683	-51.75
204.063	-64.83
204.444	-60.44
204.824	-44.04
205.204	-45.34
205.585	-57.06
205.965	-42.97
206.345	-55.27
206.725	-44.15
207.106	-57.88
207.486	-99.45
207.866	-123.99
208.246	-117.15
208.626	-105.74
209.006	-96.61
209.386	-92.11
209.766	-109.01
210.145	-94.3
210.525	-53.59
210.905	-44.23
211.285	-50.58
211.664	-30.13
212.044	-26.38
212.424	7.05
212.803	24.14
213.183	24.18
213.562	41.5
213.942	35.85
214.321	39.87
214.701	23.02
215.08	14.58
215.459	10.27
215.838	19.27
216.218	20.87
216.597	15.74
216.976	18.05
217.355	5.39
217.734	14.25
218.113	16.74
218.492	8.77
218.871	-0.52
219.25	17.06
219.629	4.28
220.008	4.03
220.387	6.98
220.766	13
221.144	11.04
221.523	4.44
221.902	-0.19
222.28	-23.17
222.659	4.47
223.037	14.04
223.416	33.21
223.794	36.81
224.173	27.22
224.551	33.06
224.929	25.4
225.308	21.25
225.686	16.98
226.064	12.21
226.442	16.5
226.821	21.53
227.199	9
227.577	10.99
227.955	8.55
228.333	5.42
228.711	3.09
229.089	1.36
229.467	1.77
229.845	4.92
230.222	5.23
230.6	3.56
230.978	2.64
231.356	0.79
231.733	-1.89
232.111	-0.57
232.488	-1.55
232.866	-0.09
233.243	1.22
233.621	-0.69
233.998	0.68
234.376	-0.25
234.753	-2.33
235.13	-1.31
235.508	0.57
235.885	2.56
236.262	2.73
236.639	1.3
237.016	1.06
237.393	2.04
237.77	2.2
238.147	3.45
238.524	2.88
238.901	3.96
239.278	3.93
239.655	4.5
240.032	3.82
240.409	3.17
240.785	2.81
241.162	2.92
241.539	3.62
241.915	3.06
242.292	2.56
242.668	3.06
243.045	3.11
243.421	2.78
243.798	2.45
244.174	2.03
244.551	2.36
244.927	2.32
245.303	2.33
245.679	2.07
246.056	1.73
246.432	1.75
246.808	1.52
247.184	1.41
247.56	1.4
247.936	1.4
248.312	1.59
248.688	1.67
249.064	1.58
249.44	1.17
249.815	1.27
250.191	1.43
250.567	1.41
250.943	1.38
251.318	1.45
251.694	1.41
252.069	1.71
252.445	1.61
252.82	1.78
253.196	1.6
253.571	1.59
253.947	1.84
254.322	2
254.697	1.87
255.073	1.65
255.448	1.56
255.823	1.64
256.198	1.77
256.573	1.8
256.948	2.01
257.323	2.39
257.698	2.34
258.073	2.35
258.448	2.28
258.823	2.17
259.198	2.02
259.573	2.03
259.948	1.93
260.322	2.11
260.697	2.18
261.072	2.2
261.446	2.32
261.821	2.3
262.195	2.25
262.57	2.32
262.944	2.38
263.319	2.34
263.693	2.41
264.067	2.29
264.442	2.37
264.816	2.15
265.19	2.07
265.564	2.1
265.938	2.01
266.313	1.96
266.687	2.06
267.061	2.34
267.435	2.43
267.809	2.69
268.183	2.57
268.556	2.57
268.93	2.59
269.304	2.45
269.678	2.44
270.051	2.41
270.425	2.48
270.799	2.72
271.172	2.78
271.546	2.85
271.919	2.89
272.293	2.85
272.666	3.05
273.04	3.1
273.413	3.1
273.787	3.08
274.16	3.07
274.533	3.07
274.906	2.94
275.279	2.93
275.653	2.91
276.026	2.96
276.399	2.87
276.772	2.74
277.145	2.67
277.518	2.74
277.891	2.88
278.263	2.89
278.636	2.79
279.009	2.85
279.382	2.78
279.755	2.66
280.127	2.79
280.5	2.85
280.872	2.84
281.245	2.64
281.617	2.79
281.99	2.98
282.362	3.05
282.735	3
283.107	2.92
283.479	2.83
283.852	2.75
284.224	2.74
284.596	2.77
284.968	2.86
285.34	2.89
285.713	2.82
286.085	2.91
286.457	2.97
286.829	2.89
287.201	2.85
287.572	2.99
287.944	2.84
288.316	2.65
288.688	2.59
289.06	2.73
289.431	2.75
289.803	2.7
290.175	2.66
290.546	2.7
290.918	2.74
291.289	2.76
291.661	2.83
292.032	2.95
292.403	3.12
292.775	3.23
293.146	3.03
293.517	3.03
293.889	2.97
294.26	2.88
294.631	2.94
295.002	2.95
295.373	2.89
295.744	2.91
296.115	2.98
296.486	2.9
296.857	2.89
297.228	2.93
297.599	2.82
297.97	2.78
298.34	2.89
298.711	2.97
299.082	2.88
299.452	2.87
299.823	2.86
300.194	2.84
300.564	2.81
300.935	2.82
301.305	2.73
301.676	2.74
302.046	2.78
302.416	2.84
302.787	2.86
303.157	2.89
303.527	2.87
303.897	2.98
304.267	3.22
304.637	3.17
305.008	3.1
305.378	3.25
305.748	3.35
306.117	3.36
306.487	3.37
306.857	3.6
307.227	3.64
307.597	3.68
307.967	3.61
308.336	3.55
308.706	3.69
309.076	3.95
309.445	3.94
309.815	3.94
310.184	3.98
310.554	4.12
310.923	4.09
311.293	4.2
311.662	4.23
312.031	4.16
312.401	4.29
312.77	4.42
313.139	4.43
313.508	4.56
313.877	4.51
314.246	4.47
314.616	4.4
314.985	4.39
315.353	4.46
315.722	4.57
316.091	4.63
316.46	4.72
316.829	4.61
317.198	4.58
317.567	4.63
317.935	4.73
318.304	4.77
318.672	4.85
319.041	5.04
319.41	4.92
319.778	5.06
320.147	5.15
320.515	5.11
320.883	5.09
321.252	5.05
321.62	5.01
321.988	5.1
322.357	5.16
322.725	5.05
323.093	5.07
323.461	5.19
323.829	5.17
324.197	5.31
324.565	5.37
324.933	5.51
325.301	5.55
325.669	5.47
326.037	5.34
326.405	5.47
326.772	5.3
327.14	5.39
327.508	5.31
327.875	5.24
328.243	5.18
328.61	5.27
328.978	5.35
329.346	5.4
329.713	5.46
330.08	5.45
330.448	5.54
330.815	5.44
331.182	5.42
331.55	5.51
331.917	5.43
332.284	5.43
332.651	5.4
333.018	5.42
333.385	5.62
333.752	5.79
334.119	5.82
334.486	5.91
334.853	5.97
335.22	6.02
335.587	6.01
335.954	6.1
336.32	6.14
336.687	6.18
337.054	6.23
337.42	6.23
337.787	6.39
338.153	6.45
338.52	6.63
338.886	6.61
339.253	6.56
339.619	6.6
339.986	6.72
340.352	6.75
340.718	6.73
341.084	6.6
341.451	6.64
341.817	6.63
342.183	6.67
342.549	6.72
342.915	6.83
343.281	6.87
343.647	6.96
344.013	6.99
344.379	6.84
344.745	6.96
345.11	7.01
345.476	6.99
345.842	7.09
346.208	7.07
346.573	7.18
346.939	7.34
347.304	7.23
347.67	7.17
348.035	7.22
348.401	7.31
348.766	7.31
349.132	7.27
349.497	7.27
349.862	7.35
350.228	7.35
350.593	7.29
350.958	7.35
351.323	7.28
351.688	7.25
352.053	7.43
352.418	7.4
352.783	7.36
353.148	7.26
353.513	7.23
353.878	7.22
354.243	7.16
354.608	7.14
354.972	7.22
355.337	7.35
355.702	7.33
356.066	7.34
356.431	7.39
356.795	7.42
357.16	7.36
357.524	7.24
357.889	7.19
358.253	7.25
358.618	7.35
358.982	7.41
359.346	7.36
359.71	7.3
360.075	7.3
360.439	7.3
360.803	7.36
361.167	7.31
361.531	7.3
361.895	7.26
362.259	7.15
362.623	7.13
362.987	7.06
363.351	7.06
363.714	6.98
364.078	6.9
364.442	6.83
364.806	6.84
365.169	6.85
365.533	6.86
365.896	6.77
366.26	6.64
366.623	6.6
366.987	6.59
367.35	6.57
367.714	6.49
368.077	6.45
368.44	6.37
368.803	6.31
369.167	6.2
369.53	6.16
369.893	6.23
370.256	6.18
370.619	6.11
370.982	5.98
371.345	5.91
371.708	5.91
372.071	5.9
372.434	5.83
372.797	5.76
373.159	5.7
373.522	5.78
373.885	5.71
374.247	5.7
374.61	5.67
374.973	5.63
375.335	5.64
375.698	5.64
376.06	5.63
376.423	5.59
376.785	5.65
377.147	5.66
377.51	5.59
377.872	5.58
378.234	5.58
378.596	5.67
378.958	5.66
379.321	5.67
379.683	5.68
380.045	5.64
380.407	5.63
380.769	5.6
381.13	5.49
381.492	5.47
381.854	5.38
382.216	5.34
382.578	5.31
382.939	5.22
383.301	5.17
383.663	5.12
384.024	5.12
384.386	5.07
384.747	5.04
385.109	5.07
385.47	5.01
385.832	4.97
386.193	4.91
386.554	4.88
386.916	4.77
387.277	4.72
387.638	4.71
387.999	4.7
388.36	4.71
388.721	4.68
389.082	4.61
389.443	4.55
389.804	4.56
390.165	4.53
390.526	4.56
390.887	4.49
391.248	4.5
391.609	4.45
391.969	4.42
392.33	4.37
392.691	4.34
393.051	4.31
393.412	4.3
393.772	4.22
394.133	4.23
394.493	4.27
394.854	4.26
395.214	4.21
395.574	4.17
395.935	4.07
396.295	4.01
396.655	4.03
397.015	4.04
397.376	3.94
397.736	3.88
398.096	3.84
398.456	3.84
398.816	3.79
399.176	3.74
399.535	3.68
399.895	3.63
400.255	3.59
400.615	3.57
400.975	3.53
401.334	3.49
401.694	3.45
402.054	3.4
402.413	3.36
402.773	3.32
403.132	3.29
403.492	3.31
403.851	3.3
404.211	3.29
404.57	3.26
404.929	3.3
405.288	3.27
405.648	3.23
406.007	3.18
406.366	3.17
406.725	3.21
407.084	3.23
407.443	3.22
407.802	3.23
408.161	3.24
408.52	3.19
408.879	3.2
409.238	3.2
409.596	3.18
409.955	3.17
410.314	3.18
410.673	3.15
411.031	3.14
411.39	3.17
411.748	3.14
412.107	3.13
412.465	3.08
412.824	3.08
413.182	3.08
413.54	3.1
413.899	3.09
414.257	3.08
414.615	3.03
414.974	3.02
415.332	2.97
415.69	2.92
416.048	2.92
416.406	2.9
416.764	2.88
417.122	2.85
417.48	2.83
417.838	2.82
418.195	2.82
418.553	2.81
418.911	2.78
419.269	2.78
419.626	2.76
419.984	2.76
420.342	2.77
420.699	2.75
421.057	2.72
421.414	2.71
421.772	2.68
422.129	2.68
422.486	2.66
422.844	2.64
423.201	2.63
423.558	2.64
423.915	2.64
424.273	2.63
424.63	2.62
424.987	2.62
425.344	2.61
425.701	2.6
426.058	2.57
426.415	2.57
426.772	2.55
427.128	2.54
427.485	2.53
427.842	2.5
428.199	2.49
428.555	2.48
428.912	2.47
429.269	2.48
429.625	2.46
429.982	2.48
430.338	2.46
430.695	2.46
431.051	2.44
431.407	2.42
431.764	2.4
432.12	2.4
432.476	2.39
432.832	2.38
433.189	2.39
433.545	2.39
433.901	2.37
434.257	2.36
434.613	2.36
434.969	2.36
435.325	2.36
435.681	2.36
436.036	2.36
436.392	2.38
436.748	2.37
437.104	2.36
437.459	2.35
437.815	2.36
438.171	2.36
438.526	2.37
438.882	2.37
439.237	2.38
439.593	2.38
439.948	2.38
440.304	2.4
440.659	2.4
441.014	2.41
441.369	2.42
441.725	2.41
442.08	2.42
442.435	2.41
442.79	2.41
443.145	2.41
443.5	2.4
443.855	2.37
444.21	2.36
444.565	2.37
444.92	2.38
445.275	2.35
445.629	2.36
445.984	2.35
446.339	2.34
446.693	2.33
447.048	2.33
447.403	2.33
447.757	2.31
448.112	2.28
448.466	2.27
448.82	2.26
449.175	2.25
449.529	2.23
449.883	2.23
450.238	2.22
450.592	2.22
450.946	2.21
451.3	2.2
451.654	2.21
452.008	2.21
452.362	2.18
452.716	2.19
453.07	2.19
453.424	2.2
453.778	2.21
454.132	2.19
454.486	2.19
454.839	2.18
455.193	2.17
455.547	2.18
455.9	2.19
456.254	2.18
456.607	2.2
456.961	2.21
457.314	2.22
457.668	2.22
458.021	2.21
458.375	2.21
458.728	2.23
459.081	2.22
459.434	2.22
459.787	2.22
460.141	2.23
460.494	2.23
460.847	2.24
461.2	2.24
461.553	2.23
461.906	2.24
462.259	2.23
462.611	2.25
462.964	2.25
463.317	2.25
463.67	2.26
464.022	2.23
464.375	2.22
464.728	2.22
465.08	2.22
465.433	2.23
465.785	2.25
466.138	2.25
466.49	2.25
466.843	2.25
467.195	2.26
467.547	2.27
467.899	2.28
468.252	2.26
468.604	2.26
468.956	2.27
469.308	2.29
469.66	2.29
470.012	2.31
470.364	2.31
470.716	2.32
471.068	2.33
471.42	2.36
471.772	2.36
472.123	2.37
472.475	2.36
472.827	2.36
473.178	2.36
473.53	2.35
473.882	2.39
474.233	2.4
474.585	2.4
474.936	2.4
475.288	2.38
475.639	2.41
475.99	2.4
476.342	2.41
476.693	2.37
477.044	2.4
477.395	2.37
477.746	2.38
478.097	2.37
478.448	2.36
478.8	2.36
479.15	2.35
479.501	2.35
479.852	2.36
480.203	2.38
480.554	2.37
480.905	2.38
481.255	2.37
481.606	2.37
481.957	2.37
482.307	2.37
482.658	2.37
483.009	2.36
483.359	2.37
483.709	2.37
484.06	2.38
484.41	2.37
484.761	2.38
485.111	2.38
485.461	2.38
485.811	2.38
486.162	2.38
486.512	2.39
486.862	2.39
487.212	2.39
487.562	2.4
487.912	2.4
488.262	2.4
488.612	2.4
488.961	2.39
489.311	2.39
489.661	2.39
490.011	2.39
490.36	2.4
490.71	2.41
491.06	2.41
491.409	2.41
491.759	2.42
492.108	2.42
492.458	2.42
492.807	2.41
493.157	2.42
493.506	2.44
493.855	2.44
494.204	2.45
494.554	2.45
494.903	2.44
495.252	2.45
495.601	2.47
495.95	2.49
496.299	2.5
496.648	2.52
496.997	2.53
497.346	2.56
497.695	2.57
498.043	2.58
498.392	2.58
498.741	2.6
499.09	2.62
499.438	2.64
499.787	2.67
500.135	2.71
500.484	2.73
500.832	2.75
501.181	2.77
501.529	2.8
501.878	2.84
502.226	2.86
502.574	2.89
502.923	2.92
503.271	2.92
503.619	2.96
503.967	2.98
504.315	3
504.663	3.03
505.011	3.06
505.359	3.08
505.707	3.15
506.055	3.18
506.403	3.23
506.751	3.26
507.098	3.31
507.446	3.35
507.794	3.38
508.141	3.42
508.489	3.48
508.837	3.52
509.184	3.57
509.531	3.64
509.879	3.7
510.226	3.76
510.574	3.82
510.921	3.86
511.268	3.91
511.616	3.96
511.963	4.03
512.31	4.09
512.657	4.18
513.004	4.24
513.351	4.31
513.698	4.4
514.045	4.46
514.392	4.55
514.739	4.64
515.086	4.72
515.432	4.81
515.779	4.86
516.126	4.95
516.473	5
516.819	5.08
517.166	5.14
517.512	5.21
517.859	5.3
518.205	5.37
518.552	5.47
518.898	5.57
519.245	5.63
519.591	5.7
519.937	5.77
520.283	5.88
520.629	5.98
520.976	6.07
521.322	6.19
521.668	6.29
522.014	6.4
522.36	6.53
522.706	6.66
523.052	6.8
523.398	6.96
523.743	7.15
524.089	7.31
524.435	7.48
524.781	7.64
525.126	7.8
525.472	7.96
525.817	8.1
526.163	8.21
526.509	8.34
526.854	8.46
527.199	8.58
527.545	8.69
527.89	8.81
528.235	8.94
528.581	9.07
528.926	9.2
529.271	9.32
529.616	9.46
529.961	9.61
530.306	9.75
530.651	9.9
530.996	10.05
531.341	10.21
531.686	10.38
532.031	10.55
532.376	10.73
532.721	10.91
533.065	11.09
533.41	11.32
533.755	11.53
534.099	11.75
534.444	11.95
534.788	12.18
535.133	12.39
535.477	12.61
535.822	12.82
536.166	13.05
536.51	13.32
536.855	13.59
537.199	13.85
537.543	14.15
537.887	14.47
538.231	14.78
538.576	15.09
538.92	15.4
539.264	15.69
539.608	15.97
539.951	16.23
540.295	16.48
540.639	16.73
540.983	16.95
541.327	17.2
541.671	17.45
542.014	17.68
542.358	17.92
542.701	18.15
543.045	18.43
543.389	18.66
543.732	18.9
544.075	19.15
544.419	19.41
544.762	19.67
545.105	19.92
545.449	20.21
545.792	20.5
546.135	20.83
546.478	21.14
546.821	21.47
547.165	21.77
547.508	22.1
547.851	22.4
548.194	22.76
548.536	23.13
548.879	23.48
549.222	23.78
549.565	24.11
549.908	24.49
550.25	24.8
550.593	25.14
550.936	25.51
551.278	25.82
551.621	26.15
551.963	26.48
552.306	26.79
552.648	27.09
552.991	27.39
553.333	27.68
553.675	28
554.017	28.3
554.36	28.63
554.702	28.96
555.044	29.27
555.386	29.53
555.728	29.76
556.07	30.09
556.412	30.4
556.754	30.72
557.096	30.98
557.438	31.3
557.78	31.64
558.121	31.95
558.463	32.26
558.805	32.58
559.147	32.84
559.488	33.17
559.83	33.45
560.171	33.7
560.513	33.97
560.854	34.21
561.196	34.44
561.537	34.68
561.878	34.91
562.22	35.18
562.561	35.4
562.902	35.61
563.243	35.8
563.584	36.03
563.925	36.22
564.266	36.4
564.607	36.58
564.948	36.81
565.289	36.99
565.63	37.17
565.971	37.38
566.312	37.56
566.653	37.71
566.993	37.93
567.334	38.12
567.675	38.22
568.015	38.39
568.356	38.58
568.696	38.74
569.037	38.91
569.377	39.11
569.718	39.37
570.058	39.53
570.398	39.66
570.739	39.82
571.079	39.98
571.419	40.18
571.759	40.34
572.099	40.48
572.439	40.62
572.779	40.78
573.119	40.88
573.459	41.04
573.799	41.18
574.139	41.25
574.479	41.41
574.819	41.56
575.158	41.71
575.498	41.83
575.838	41.96
576.177	42.09
576.517	42.18
576.856	42.27
577.196	42.44
577.535	42.6
577.875	42.77
578.214	42.93
578.553	43.08
578.893	43.21
579.232	43.32
579.571	43.47
579.91	43.58
580.25	43.73
580.589	43.83
580.928	43.99
581.267	44.17
581.606	44.22
581.945	44.37
582.283	44.47
582.622	44.64
582.961	44.77
583.3	44.91
583.639	45.05
583.977	45.17
584.316	45.26
584.654	45.32
584.993	45.39
585.332	45.42
585.67	45.48
586.008	45.57
586.347	45.72
586.685	45.72
587.024	45.84
587.362	45.97
587.7	46.1
588.038	46.17
588.376	46.23
588.715	46.38
589.053	46.51
589.391	46.59
589.729	46.68
590.067	46.76
590.404	46.75
590.742	46.83
591.08	46.84
591.418	46.88
591.756	46.98
592.093	47.03
592.431	47.14
592.769	47.16
593.106	47.22
593.444	47.21
593.781	47.25
594.119	47.29
594.456	47.26
594.793	47.32
595.131	47.38
595.468	47.46
595.805	47.56
596.143	47.57
596.48	47.67
596.817	47.72
597.154	47.72
597.491	47.78
597.828	47.8
598.165	47.85
598.502	48
598.839	48.09
599.176	48.13
599.512	48.17
599.849	48.27
600.186	48.4
600.523	48.47
600.859	48.53
601.196	48.58
601.532	48.63
601.869	48.6
602.205	48.63
602.542	48.65
602.878	48.62
603.215	48.63
603.551	48.66
603.887	48.69
604.223	48.74
604.56	48.79
604.896	48.82
605.232	48.86
605.568	48.86
605.904	48.82
606.24	48.85
606.576	48.87
606.912	48.87
607.248	48.8
607.583	48.82
607.919	48.86
608.255	48.88
608.591	49.04
608.926	49.08
609.262	49.17
609.597	49.17
609.933	49.22
610.268	49.29
610.604	49.28
610.939	49.27
611.275	49.39
611.61	49.42
611.945	49.47
612.281	49.58
612.616	49.59
612.951	49.72
613.286	49.75
613.621	49.8
613.956	49.9
614.291	50.01
614.626	50.12
614.961	50.24
615.296	50.28
615.631	50.2
615.966	50.31
616.3	50.35
616.635	50.47
616.97	50.52
617.304	50.5
617.639	50.58
617.973	50.61
618.308	50.65
618.642	50.72
618.977	50.72
619.311	50.71
619.646	50.77
619.98	50.71
620.314	50.8
620.648	50.81
620.983	50.81
621.317	50.74
621.651	50.76
621.985	50.73
622.319	50.75
622.653	50.73
622.987	50.73
623.321	50.69
623.655	50.59
623.988	50.62
624.322	50.57
624.656	50.45
624.99	50.42
625.323	50.29
625.657	50.32
625.99	50.41
626.324	50.42
626.657	50.44
626.991	50.54
627.324	50.54
627.658	50.6
627.991	50.64
628.324	50.68
628.657	50.69
628.991	50.78
629.324	50.78
629.657	50.77
629.99	50.75
630.323	50.76
630.656	50.82
630.989	50.82
631.322	50.97
631.655	51.08
631.987	51.18
632.32	51.35
632.653	51.33
632.986	51.33
633.318	51.3
633.651	51.31
633.984	51.31
634.316	51.27
634.649	51.24
634.981	51.21
635.313	51.28
635.646	51.26
635.978	51.23
636.31	51.25
636.643	51.35
636.975	51.47
637.307	51.58
637.639	51.71
637.971	51.86
638.303	51.87
638.635	51.86
638.967	51.91
639.299	51.9
639.631	51.9
639.963	51.79
640.295	51.86
640.626	51.92
640.958	51.94
641.29	52.02
641.621	52
641.953	51.98
642.285	51.87
642.616	51.83
642.948	51.8
643.279	51.87
643.61	51.87
643.942	51.86
644.273	51.76
644.604	51.7
644.936	51.63
645.267	51.54
645.598	51.62
645.929	51.58
646.26	51.6
646.591	51.65
646.922	51.69
647.253	51.63
647.584	51.54
647.915	51.52
648.245	51.51
648.576	51.53
648.907	51.61
649.238	51.77
649.568	51.79
649.899	51.82
650.229	51.83
650.56	51.81
650.89	51.69
651.221	51.66
651.551	51.53
651.882	51.39
652.212	51.52
652.542	51.53
652.872	51.49
653.203	51.39
653.533	51.49
653.863	51.54
654.193	51.61
654.523	51.65
654.853	51.61
655.183	51.61
655.513	51.59
655.843	51.52
656.172	51.53
656.502	51.62
656.832	51.6
657.162	51.56
657.491	51.58
657.821	51.66
658.15	51.69
658.48	51.84
658.809	51.94
659.139	51.9
659.468	51.82
659.798	51.77
660.127	51.8
660.456	51.73
660.785	51.58
661.115	51.53
661.444	51.52
661.773	51.53
662.102	51.59
662.431	51.79
662.76	51.86
663.089	51.78
663.418	51.75
663.747	51.77
664.076	51.83
664.404	51.9
664.733	51.92
665.062	51.84
665.39	51.72
665.719	51.69
666.048	51.74
666.376	51.89
666.705	52.01
667.033	51.98
667.362	52.05
667.69	52.23
668.018	52.26
668.347	52.21
668.675	52.1
669.003	52.02
