Data from BA57715_Reflection_00009.txt Node
Date: Mon Nov 18 15:26:04 EST 2019
User: vgr7
Spectrometer: USB2G7710
Scans to average: 3
Trigger mode: 4
Integration Time (sec): 2.000000E-2
Electric dark correction enabled: true
Boxcar width: 10
XAxis mode: Wavelengths
Number of Pixels in Spectrum: 2048
>>>>>Begin Spectral Data<<<<<
177.721	-12.45
178.105	-46.38
178.488	-32.07
178.871	-59.32
179.254	-74.45
179.636	43.22
180.019	395.41
180.402	87.5
180.785	48.96
181.168	275.6
181.55	245.21
181.933	137.45
182.316	62.3
182.698	61.94
183.081	90.34
183.463	147.88
183.846	24.49
184.228	-36.55
184.611	5.19
184.993	223.46
185.376	191.71
185.758	271.09
186.14	155.89
186.522	151
186.904	-357.91
187.287	-91
187.669	742.57
188.051	-2915.87
188.433	-643.96
188.815	-619.58
189.197	342.89
189.579	182.27
189.961	313.15
190.342	68.25
190.724	49.01
191.106	-16.26
191.488	-26.02
191.869	-25.08
192.251	-76.28
192.633	-69
193.014	-116.01
193.396	-349.21
193.777	-480.04
194.159	1362.22
194.54	-458.21
194.922	-227.37
195.303	-159.59
195.684	-391.83
196.065	-268.38
196.447	-210.11
196.828	-214.06
197.209	-141.03
197.59	-293.67
197.971	-151.59
198.352	-127.38
198.733	-109.61
199.114	-69.6
199.495	-82.58
199.876	-47.05
200.257	-27.4
200.638	-18.17
201.018	-37.2
201.399	-37.43
201.78	-23.12
202.16	-13.27
202.541	-17.48
202.922	-20.54
203.302	28.15
203.683	27.4
204.063	15.34
204.444	16.18
204.824	-14.61
205.204	-47.67
205.585	-15.53
205.965	-33.33
206.345	-39.56
206.725	-77.17
207.106	-170.17
207.486	-196.01
207.866	-1246.41
208.246	824.28
208.626	-1531.21
209.006	-153.11
209.386	-135.9
209.766	-108.71
210.145	-78.83
210.525	-102.29
210.905	-39.07
211.285	-60.29
211.664	-64.91
212.044	-89.11
212.424	-59.38
212.803	-56.38
213.183	-34.72
213.562	-32.64
213.942	-23.5
214.321	-18.76
214.701	-16.04
215.08	3.08
215.459	-1.11
215.838	3.48
216.218	3.54
216.597	8.99
216.976	5.96
217.355	11.59
217.734	7.75
218.113	7.82
218.492	6.2
218.871	-2.43
219.25	5.39
219.629	2.95
220.008	-0.24
220.387	-3.65
220.766	-1.87
221.144	-11.27
221.523	-6.71
221.902	-10.92
222.28	-8.06
222.659	-10.4
223.037	-22.22
223.416	-35.88
223.794	-40.86
224.173	-31.24
224.551	-35.18
224.929	-36.57
225.308	-39.72
225.686	-31.28
226.064	-26.58
226.442	-23.81
226.821	-10.91
227.199	-13.41
227.577	-14.6
227.955	-11.09
228.333	-9.91
228.711	-8.79
229.089	-2.84
229.467	-3.15
229.845	-0.9
230.222	-0.97
230.6	-0.04
230.978	0.69
231.356	2.85
231.733	4.12
232.111	3.97
232.488	6.29
232.866	6.14
233.243	7.27
233.621	5.4
233.998	4.89
234.376	3.77
234.753	2.07
235.13	4.32
235.508	6.22
235.885	6.78
236.262	4.47
236.639	4.83
237.016	2.41
237.393	2.69
237.77	2.42
238.147	2.07
238.524	1.81
238.901	2.47
239.278	3.08
239.655	3.3
240.032	3.15
240.409	2.13
240.785	2.1
241.162	1.97
241.539	2.77
241.915	3.31
242.292	3.7
242.668	3.52
243.045	3.66
243.421	3.56
243.798	3.33
244.174	3.72
244.551	3.56
244.927	3.66
245.303	3.97
245.679	3.88
246.056	3.84
246.432	3.73
246.808	3.53
247.184	3.14
247.56	3.01
247.936	2.9
248.312	3.11
248.688	3.05
249.064	3.03
249.44	3.02
249.815	2.98
250.191	3.01
250.567	3.27
250.943	3.09
251.318	3.18
251.694	3.34
252.069	3.23
252.445	3.4
252.82	3.33
253.196	3.07
253.571	3.23
253.947	3.23
254.322	3.74
254.697	3.41
255.073	3.51
255.448	3.49
255.823	3.7
256.198	3.5
256.573	3.49
256.948	3.75
257.323	3.76
257.698	3.46
258.073	3.36
258.448	3.14
258.823	3.18
259.198	2.88
259.573	2.86
259.948	2.97
260.322	2.96
260.697	2.83
261.072	2.64
261.446	2.67
261.821	2.59
262.195	2.45
262.57	2.59
262.944	2.6
263.319	2.59
263.693	2.45
264.067	2.49
264.442	2.59
264.816	2.57
265.19	2.44
265.564	2.54
265.938	2.51
266.313	2.57
266.687	2.64
267.061	2.87
267.435	2.82
267.809	2.76
268.183	2.76
268.556	2.9
268.93	3.19
269.304	3.1
269.678	3.14
270.051	3.04
270.425	2.99
270.799	2.95
271.172	2.93
271.546	3.06
271.919	2.99
272.293	2.87
272.666	2.73
273.04	2.73
273.413	2.72
273.787	2.75
274.16	2.67
274.533	2.57
274.906	2.38
275.279	2.31
275.653	2.44
276.026	2.36
276.399	2.38
276.772	2.25
277.145	2.26
277.518	2.35
277.891	2.55
278.263	2.61
278.636	2.51
279.009	2.56
279.382	2.71
279.755	2.77
280.127	3.01
280.5	3.1
280.872	3.09
281.245	3.19
281.617	3.16
281.99	3.33
282.362	3.39
282.735	3.5
283.107	3.5
283.479	3.35
283.852	3.23
284.224	3.15
284.596	3.27
284.968	3.41
285.34	3.43
285.713	3.26
286.085	3.26
286.457	3.3
286.829	3.27
287.201	3.21
287.572	3.14
287.944	2.96
288.316	2.89
288.688	2.95
289.06	2.77
289.431	2.81
289.803	2.78
290.175	2.77
290.546	2.9
290.918	3.06
291.289	3.12
291.661	3.35
292.032	3.49
292.403	3.49
292.775	3.32
293.146	3.17
293.517	3.27
293.889	3.41
294.26	3.51
294.631	3.46
295.002	3.45
295.373	3.51
295.744	3.58
296.115	3.63
296.486	3.52
296.857	3.62
297.228	3.64
297.599	3.48
297.97	3.44
298.34	3.36
298.711	3.27
299.082	3.29
299.452	3.25
299.823	3.31
300.194	3.24
300.564	3.21
300.935	3.37
301.305	3.35
301.676	3.34
302.046	3.36
302.416	3.53
302.787	3.55
303.157	3.59
303.527	3.6
303.897	3.58
304.267	3.8
304.637	3.93
305.008	3.99
305.378	4.14
305.748	4.24
306.117	4.27
306.487	4.35
306.857	4.34
307.227	4.44
307.597	4.44
307.967	4.4
308.336	4.48
308.706	4.46
309.076	4.55
309.445	4.55
309.815	4.56
310.184	4.46
310.554	4.56
310.923	4.73
311.293	4.79
311.662	4.81
312.031	4.75
312.401	4.75
312.77	4.88
313.139	5.02
313.508	5.05
313.877	5.17
314.246	5.25
314.616	5.33
314.985	5.25
315.353	5.32
315.722	5.55
316.091	5.61
316.46	5.74
316.829	5.92
317.198	6.01
317.567	6.19
317.935	6.26
318.304	6.19
318.672	6.15
319.041	6.24
319.41	6.38
319.778	6.55
320.147	6.61
320.515	6.42
320.883	6.26
321.252	6.43
321.62	6.29
321.988	6.31
322.357	6.36
322.725	6.43
323.093	6.43
323.461	6.5
323.829	6.59
324.197	6.58
324.565	6.51
324.933	6.6
325.301	6.53
325.669	6.64
326.037	6.74
326.405	6.93
326.772	7.1
327.14	7.21
327.508	7.21
327.875	7.22
328.243	7.38
328.61	7.5
328.978	7.36
329.346	7.6
329.713	7.59
330.08	7.74
330.448	7.82
330.815	7.9
331.182	7.94
331.55	7.91
331.917	8.06
332.284	8.18
332.651	8.18
333.018	8.28
333.385	8.3
333.752	8.37
334.119	8.4
334.486	8.28
334.853	8.31
335.22	8.47
335.587	8.57
335.954	8.6
336.32	8.67
336.687	8.91
337.054	8.85
337.42	9.01
337.787	8.97
338.153	9.04
338.52	9.03
338.886	8.95
339.253	8.92
339.619	8.84
339.986	8.84
340.352	8.88
340.718	8.88
341.084	8.89
341.451	8.95
341.817	8.96
342.183	8.93
342.549	8.85
342.915	8.82
343.281	8.73
343.647	8.78
344.013	8.83
344.379	8.67
344.745	8.71
345.11	8.77
345.476	8.82
345.842	8.81
346.208	8.91
346.573	9.02
346.939	9.14
347.304	9.21
347.67	9.21
348.035	9.19
348.401	9.21
348.766	9.32
349.132	9.3
349.497	9.29
349.862	9.49
350.228	9.56
350.593	9.45
350.958	9.59
351.323	9.58
351.688	9.54
352.053	9.66
352.418	9.65
352.783	9.56
353.148	9.43
353.513	9.49
353.878	9.46
354.243	9.47
354.608	9.46
354.972	9.51
355.337	9.51
355.702	9.54
356.066	9.61
356.431	9.49
356.795	9.5
357.16	9.49
357.524	9.35
357.889	9.31
358.253	9.3
358.618	9.27
358.982	9.25
359.346	9.14
359.71	9.07
360.075	9.05
360.439	9.07
360.803	9.07
361.167	9
361.531	8.98
361.895	8.98
362.259	9
362.623	8.97
362.987	8.93
363.351	8.9
363.714	8.86
364.078	8.83
364.442	8.82
364.806	8.7
365.169	8.65
365.533	8.63
365.896	8.63
366.26	8.55
366.623	8.45
366.987	8.52
367.35	8.55
367.714	8.51
368.077	8.46
368.44	8.44
368.803	8.38
369.167	8.32
369.53	8.22
369.893	8.13
370.256	8
370.619	7.94
370.982	7.83
371.345	7.69
371.708	7.74
372.071	7.68
372.434	7.71
372.797	7.74
373.159	7.64
373.522	7.62
373.885	7.59
374.247	7.58
374.61	7.58
374.973	7.47
375.335	7.4
375.698	7.33
376.06	7.3
376.423	7.29
376.785	7.29
377.147	7.29
377.51	7.2
377.872	7.23
378.234	7.18
378.596	7.21
378.958	7.1
379.321	7.07
379.683	7.02
380.045	6.93
380.407	6.89
380.769	6.92
381.13	6.84
381.492	6.81
381.854	6.81
382.216	6.66
382.578	6.65
382.939	6.64
383.301	6.59
383.663	6.55
384.024	6.48
384.386	6.4
384.747	6.36
385.109	6.36
385.47	6.31
385.832	6.31
386.193	6.27
386.554	6.31
386.916	6.22
387.277	6.21
387.638	6.21
387.999	6.11
388.36	6.01
388.721	6
389.082	5.95
389.443	5.86
389.804	5.84
390.165	5.78
390.526	5.74
390.887	5.69
391.248	5.67
391.609	5.66
391.969	5.62
392.33	5.57
392.691	5.54
393.051	5.46
393.412	5.4
393.772	5.34
394.133	5.28
394.493	5.25
394.854	5.17
395.214	5.1
395.574	5.07
395.935	5.05
396.295	5.03
396.655	4.98
397.015	4.96
397.376	4.97
397.736	4.93
398.096	4.89
398.456	4.84
398.816	4.8
399.176	4.74
399.535	4.69
399.895	4.61
400.255	4.6
400.615	4.58
400.975	4.54
401.334	4.46
401.694	4.46
402.054	4.45
402.413	4.42
402.773	4.37
403.132	4.38
403.492	4.36
403.851	4.3
404.211	4.28
404.57	4.23
404.929	4.15
405.288	4.14
405.648	4.11
406.007	4.1
406.366	4.08
406.725	4.09
407.084	4.09
407.443	4.09
407.802	4.07
408.161	4.07
408.52	4.06
408.879	4.08
409.238	4.04
409.596	4.02
409.955	4
410.314	4.01
410.673	3.99
411.031	3.95
411.39	3.91
411.748	3.89
412.107	3.9
412.465	3.91
412.824	3.91
413.182	3.87
413.54	3.87
413.899	3.87
414.257	3.83
414.615	3.81
414.974	3.77
415.332	3.74
415.69	3.69
416.048	3.66
416.406	3.64
416.764	3.61
417.122	3.61
417.48	3.59
417.838	3.56
418.195	3.54
418.553	3.52
418.911	3.52
419.269	3.51
419.626	3.49
419.984	3.47
420.342	3.44
420.699	3.43
421.057	3.39
421.414	3.34
421.772	3.34
422.129	3.33
422.486	3.32
422.844	3.31
423.201	3.29
423.558	3.29
423.915	3.27
424.273	3.27
424.63	3.23
424.987	3.25
425.344	3.24
425.701	3.23
426.058	3.22
426.415	3.21
426.772	3.19
427.128	3.16
427.485	3.16
427.842	3.16
428.199	3.17
428.555	3.16
428.912	3.19
429.269	3.18
429.625	3.15
429.982	3.14
430.338	3.14
430.695	3.15
431.051	3.15
431.407	3.16
431.764	3.14
432.12	3.15
432.476	3.11
432.832	3.09
433.189	3.09
433.545	3.07
433.901	3.06
434.257	3.05
434.613	3.07
434.969	3.05
435.325	3.06
435.681	3.07
436.036	3.07
436.392	3.07
436.748	3.05
437.104	3.05
437.459	3.07
437.815	3.06
438.171	3.05
438.526	3.05
438.882	3.03
439.237	3.03
439.593	3.04
439.948	3.04
440.304	3.06
440.659	3.06
441.014	3.07
441.369	3.05
441.725	3.05
442.08	3.05
442.435	3.04
442.79	3
443.145	2.99
443.5	2.97
443.855	2.97
444.21	2.98
444.565	2.97
444.92	2.96
445.275	2.93
445.629	2.92
445.984	2.9
446.339	2.9
446.693	2.89
447.048	2.86
447.403	2.84
447.757	2.8
448.112	2.79
448.466	2.76
448.82	2.77
449.175	2.75
449.529	2.75
449.883	2.75
450.238	2.76
450.592	2.75
450.946	2.73
451.3	2.7
451.654	2.69
452.008	2.69
452.362	2.66
452.716	2.68
453.07	2.69
453.424	2.69
453.778	2.69
454.132	2.69
454.486	2.69
454.839	2.71
455.193	2.73
455.547	2.75
455.9	2.78
456.254	2.79
456.607	2.79
456.961	2.79
457.314	2.78
457.668	2.79
458.021	2.78
458.375	2.82
458.728	2.83
459.081	2.82
459.434	2.82
459.787	2.83
460.141	2.81
460.494	2.81
460.847	2.82
461.2	2.82
461.553	2.83
461.906	2.85
462.259	2.85
462.611	2.85
462.964	2.84
463.317	2.85
463.67	2.85
464.022	2.84
464.375	2.83
464.728	2.84
465.08	2.85
465.433	2.87
465.785	2.84
466.138	2.84
466.49	2.87
466.843	2.89
467.195	2.92
467.547	2.93
467.899	2.93
468.252	2.91
468.604	2.93
468.956	2.94
469.308	2.95
469.66	2.96
470.012	2.99
470.364	3
470.716	3
471.068	2.99
471.42	3.02
471.772	3.05
472.123	3.05
472.475	3.05
472.827	3.04
473.178	3.04
473.53	3.06
473.882	3.03
474.233	3.02
474.585	2.98
474.936	3.02
475.288	3.04
475.639	3.08
475.99	3.06
476.342	3.06
476.693	3.07
477.044	3.07
477.395	3.04
477.746	3.05
478.097	3.04
478.448	3.04
478.8	3.03
479.15	3.01
479.501	3.01
479.852	3.01
480.203	3
480.554	3
480.905	3.01
481.255	3.02
481.606	3.01
481.957	3.02
482.307	3.02
482.658	3.01
483.009	3
483.359	3.01
483.709	3.02
484.06	3.02
484.41	3.02
484.761	3.02
485.111	3.02
485.461	3.01
485.811	3.01
486.162	3.01
486.512	3.02
486.862	3.03
487.212	3.04
487.562	3.05
487.912	3.05
488.262	3.05
488.612	3.06
488.961	3.07
489.311	3.08
489.661	3.07
490.011	3.08
490.36	3.1
490.71	3.11
491.06	3.11
491.409	3.11
491.759	3.12
492.108	3.12
492.458	3.14
492.807	3.15
493.157	3.18
493.506	3.21
493.855	3.21
494.204	3.23
494.554	3.24
494.903	3.25
495.252	3.29
495.601	3.31
495.95	3.34
496.299	3.36
496.648	3.38
496.997	3.4
497.346	3.44
497.695	3.46
498.043	3.48
498.392	3.5
498.741	3.54
499.09	3.55
499.438	3.61
499.787	3.65
500.135	3.69
500.484	3.71
500.832	3.75
501.181	3.8
501.529	3.84
501.878	3.9
502.226	3.96
502.574	3.99
502.923	4.04
503.271	4.06
503.619	4.11
503.967	4.19
504.315	4.25
504.663	4.29
505.011	4.34
505.359	4.38
505.707	4.43
506.055	4.49
506.403	4.57
506.751	4.62
507.098	4.69
507.446	4.77
507.794	4.82
508.141	4.88
508.489	4.93
508.837	4.98
509.184	5.02
509.531	5.1
509.879	5.14
510.226	5.23
510.574	5.31
510.921	5.36
511.268	5.42
511.616	5.51
511.963	5.59
512.31	5.66
512.657	5.77
513.004	5.85
513.351	5.94
513.698	6.02
514.045	6.09
514.392	6.18
514.739	6.26
515.086	6.34
515.432	6.43
515.779	6.53
516.126	6.63
516.473	6.73
516.819	6.82
517.166	6.91
517.512	7
517.859	7.09
518.205	7.18
518.552	7.25
518.898	7.32
519.245	7.4
519.591	7.49
519.937	7.56
520.283	7.66
520.629	7.75
520.976	7.86
521.322	8.01
521.668	8.13
522.014	8.25
522.36	8.4
522.706	8.56
523.052	8.73
523.398	8.91
523.743	9.09
524.089	9.25
524.435	9.42
524.781	9.59
525.126	9.74
525.472	9.9
525.817	10.06
526.163	10.17
526.509	10.3
526.854	10.43
527.199	10.55
527.545	10.67
527.89	10.8
528.235	10.92
528.581	11.03
528.926	11.15
529.271	11.27
529.616	11.39
529.961	11.51
530.306	11.63
530.651	11.75
530.996	11.89
531.341	12.04
531.686	12.21
532.031	12.37
532.376	12.55
532.721	12.71
533.065	12.88
533.41	13.09
533.755	13.27
534.099	13.45
534.444	13.65
534.788	13.86
535.133	14.03
535.477	14.22
535.822	14.44
536.166	14.67
536.51	14.93
536.855	15.17
537.199	15.44
537.543	15.72
537.887	16.01
538.231	16.29
538.576	16.55
538.92	16.84
539.264	17.11
539.608	17.34
539.951	17.59
540.295	17.82
540.639	18.03
540.983	18.26
541.327	18.5
541.671	18.7
542.014	18.92
542.358	19.14
542.701	19.39
543.045	19.61
543.389	19.82
543.732	20.03
544.075	20.28
544.419	20.5
544.762	20.75
545.105	20.98
545.449	21.22
545.792	21.5
546.135	21.76
546.478	22.03
546.821	22.36
547.165	22.64
547.508	22.95
547.851	23.24
548.194	23.53
548.536	23.81
548.879	24.12
549.222	24.39
549.565	24.72
549.908	24.95
550.25	25.22
550.593	25.54
550.936	25.82
551.278	26.1
551.621	26.41
551.963	26.71
552.306	26.97
552.648	27.25
552.991	27.53
553.333	27.76
553.675	28.04
554.017	28.29
554.36	28.57
554.702	28.82
555.044	29.08
555.386	29.33
555.728	29.6
556.07	29.86
556.412	30.13
556.754	30.36
557.096	30.64
557.438	30.89
557.78	31.1
558.121	31.34
558.463	31.6
558.805	31.78
559.147	32.02
559.488	32.24
559.83	32.52
560.171	32.73
560.513	32.96
560.854	33.18
561.196	33.41
561.537	33.58
561.878	33.78
562.22	34.01
562.561	34.28
562.902	34.52
563.243	34.73
563.584	34.91
563.925	35.11
564.266	35.34
564.607	35.51
564.948	35.71
565.289	35.93
565.63	36.05
565.971	36.25
566.312	36.41
566.653	36.6
566.993	36.75
567.334	36.96
567.675	37.12
568.015	37.26
568.356	37.36
568.696	37.6
569.037	37.73
569.377	37.87
569.718	37.92
570.058	38.05
570.398	38.15
570.739	38.36
571.079	38.48
571.419	38.6
571.759	38.73
572.099	38.89
572.439	38.98
572.779	39.12
573.119	39.25
573.459	39.39
573.799	39.48
574.139	39.57
574.479	39.62
574.819	39.7
575.158	39.85
575.498	39.97
575.838	40.02
576.177	40.17
576.517	40.25
576.856	40.44
577.196	40.53
577.535	40.7
577.875	40.73
578.214	40.81
578.553	40.87
578.893	41
579.232	41.11
579.571	41.23
579.91	41.37
580.25	41.53
580.589	41.62
580.928	41.73
581.267	41.87
581.606	42.02
581.945	42.14
582.283	42.17
582.622	42.22
582.961	42.28
583.3	42.3
583.639	42.37
583.977	42.4
584.316	42.54
584.654	42.56
584.993	42.62
585.332	42.74
585.67	42.88
586.008	42.91
586.347	42.86
586.685	42.89
587.024	42.99
587.362	43.05
587.7	43.03
588.038	43.16
588.376	43.22
588.715	43.24
589.053	43.32
589.391	43.38
589.729	43.45
590.067	43.54
590.404	43.64
590.742	43.78
591.08	43.85
591.418	43.87
591.756	43.92
592.093	44.04
592.431	44.08
592.769	44.1
593.106	44.23
593.444	44.32
593.781	44.4
594.119	44.44
594.456	44.41
594.793	44.48
595.131	44.45
595.468	44.54
595.805	44.61
596.143	44.62
596.48	44.69
596.817	44.75
597.154	44.82
597.491	44.84
597.828	44.86
598.165	44.9
598.502	44.89
598.839	44.93
599.176	44.95
599.512	45.02
599.849	45.07
600.186	45.13
600.523	45.21
600.859	45.17
601.196	45.22
601.532	45.28
601.869	45.28
602.205	45.33
602.542	45.33
602.878	45.37
603.215	45.4
603.551	45.44
603.887	45.51
604.223	45.5
604.56	45.57
604.896	45.59
605.232	45.61
605.568	45.73
605.904	45.78
606.24	45.78
606.576	45.77
606.912	45.82
607.248	45.8
607.583	45.83
607.919	45.88
608.255	45.89
608.591	45.93
608.926	45.99
609.262	46.12
609.597	46.14
609.933	46.18
610.268	46.29
610.604	46.34
610.939	46.38
611.275	46.43
611.61	46.43
611.945	46.43
612.281	46.51
612.616	46.47
612.951	46.48
613.286	46.59
613.621	46.66
613.956	46.67
614.291	46.73
614.626	46.76
614.961	46.9
615.296	46.88
615.631	46.97
615.966	47.07
616.3	47.05
616.635	47
616.97	46.94
617.304	46.92
617.639	46.87
617.973	46.88
618.308	46.97
618.642	47.01
618.977	47.01
619.311	46.98
619.646	47.02
619.98	47.01
620.314	47.07
620.648	47.07
620.983	47.07
621.317	47.01
621.651	47.01
621.985	46.95
622.319	46.98
622.653	46.99
622.987	46.99
623.321	47.06
623.655	47.17
623.988	47.21
624.322	47.2
624.656	47.24
624.99	47.27
625.323	47.25
625.657	47.22
625.99	47.37
626.324	47.38
626.657	47.42
626.991	47.43
627.324	47.42
627.658	47.48
627.991	47.53
628.324	47.61
628.657	47.62
628.991	47.68
629.324	47.72
629.657	47.8
629.99	47.84
630.323	47.79
630.656	47.8
630.989	47.87
631.322	47.93
631.655	47.94
631.987	47.94
632.32	47.97
632.653	47.99
632.986	47.97
633.318	47.98
633.651	48.04
633.984	48.1
634.316	48.04
634.649	47.91
634.981	47.94
635.313	47.91
635.646	47.92
635.978	48.04
636.31	48.13
636.643	47.96
636.975	47.91
637.307	47.89
637.639	47.91
637.971	47.84
638.303	47.74
638.635	47.8
638.967	47.85
639.299	47.86
639.631	47.8
639.963	47.7
640.295	47.71
640.626	47.7
640.958	47.73
641.29	47.73
641.621	47.9
641.953	47.89
642.285	47.96
642.616	48.03
642.948	47.93
643.279	47.86
643.61	48.06
643.942	48.03
644.273	48.1
644.604	48.13
644.936	48.13
645.267	48.26
645.598	48.33
645.929	48.28
646.26	48.29
646.591	48.32
646.922	48.44
647.253	48.57
647.584	48.46
647.915	48.42
648.245	48.42
648.576	48.34
648.907	48.3
649.238	48.38
649.568	48.31
649.899	48.37
650.229	48.43
650.56	48.47
650.89	48.57
651.221	48.53
651.551	48.47
651.882	48.56
652.212	48.48
652.542	48.38
652.872	48.27
653.203	48.27
653.533	48.28
653.863	48.3
654.193	48.3
654.523	48.47
654.853	48.46
655.183	48.54
655.513	48.65
655.843	48.67
656.172	48.6
656.502	48.58
656.832	48.55
657.162	48.45
657.491	48.38
657.821	48.38
658.15	48.48
658.48	48.53
658.809	48.59
659.139	48.68
659.468	48.66
659.798	48.77
660.127	48.8
660.456	48.96
660.785	48.92
661.115	48.77
661.444	48.64
661.773	48.69
662.102	48.65
662.431	48.62
662.76	48.67
663.089	48.65
663.418	48.72
663.747	48.67
664.076	48.81
664.404	48.8
664.733	48.84
665.062	48.64
665.39	48.69
665.719	48.6
666.048	48.53
666.376	48.5
666.705	48.6
667.033	48.46
667.362	48.43
667.69	48.47
