Data from BA57710_Reflection_00007.txt Node
Date: Mon Nov 18 15:31:51 EST 2019
User: vgr7
Spectrometer: USB2G7710
Scans to average: 3
Trigger mode: 4
Integration Time (sec): 2.000000E-2
Electric dark correction enabled: true
Boxcar width: 10
XAxis mode: Wavelengths
Number of Pixels in Spectrum: 2048
>>>>>Begin Spectral Data<<<<<
177.721	-11.64
178.105	-27.47
178.488	-39.5
178.871	-86.03
179.254	-415.53
179.636	54.9
180.019	47.05
180.402	83.33
180.785	183.24
181.168	110.87
181.55	145.1
181.933	87.71
182.316	147.27
182.698	204.19
183.081	243.93
183.463	-386.38
183.846	-224.23
184.228	8.89
184.611	38.35
184.993	-13.53
185.376	-22.9
185.758	-31.63
186.14	-58.74
186.522	-59.2
186.904	-93.93
187.287	-159.53
187.669	10.01
188.051	-14.75
188.433	0.46
188.815	50.99
189.197	24.15
189.579	30.06
189.961	17.08
190.342	28.42
190.724	23.22
191.106	3.71
191.488	-1.85
191.869	8.72
192.251	-7.53
192.633	-20.56
193.014	-0.12
193.396	31.87
193.777	8.18
194.159	14.46
194.54	31.06
194.922	53.98
195.303	61.68
195.684	60.42
196.065	65.73
196.447	60.2
196.828	39.16
197.209	50.02
197.59	63.98
197.971	56.93
198.352	45.98
198.733	50.71
199.114	78.33
199.495	88.4
199.876	81.56
200.257	60.4
200.638	64.37
201.018	59.21
201.399	37.54
201.78	44.57
202.16	42.88
202.541	21.08
202.922	-13.21
203.302	-19.37
203.683	-15.67
204.063	-20.59
204.444	-24.18
204.824	-5.95
205.204	-5.15
205.585	-1.27
205.965	6.54
206.345	14.39
206.725	-0.36
207.106	-26.17
207.486	-46.22
207.866	-36.5
208.246	-29.4
208.626	-51.89
209.006	-41.76
209.386	-49.88
209.766	-43.27
210.145	-30.49
210.525	-23.71
210.905	-8.7
211.285	12.48
211.664	-2.07
212.044	-2.8
212.424	19.59
212.803	12.77
213.183	28.72
213.562	23.46
213.942	25.94
214.321	13.29
214.701	15.93
215.08	18.2
215.459	28.38
215.838	36.81
216.218	29.47
216.597	27.18
216.976	37.93
217.355	24.47
217.734	23.39
218.113	39.07
218.492	29.32
218.871	33.36
219.25	25.29
219.629	22.44
220.008	25.66
220.387	11.8
220.766	15.94
221.144	0.45
221.523	-17.28
221.902	-31.38
222.28	-34.83
222.659	-24.43
223.037	-5.14
223.416	2.14
223.794	2.85
224.173	9.75
224.551	9.06
224.929	0.4
225.308	10.29
225.686	10.4
226.064	5.15
226.442	3.17
226.821	6.23
227.199	3.79
227.577	6.51
227.955	8.07
228.333	13.04
228.711	9.17
229.089	12.02
229.467	12.23
229.845	11.83
230.222	11.71
230.6	11.07
230.978	9.28
231.356	6.86
231.733	6.56
232.111	6.33
232.488	7.24
232.866	7.95
233.243	6.7
233.621	5.37
233.998	6.35
234.376	5.65
234.753	3.69
235.13	3.96
235.508	4.79
235.885	2.7
236.262	0.33
236.639	0.88
237.016	1.78
237.393	3.89
237.77	6.23
238.147	6.86
238.524	6.21
238.901	6.01
239.278	6.72
239.655	6.88
240.032	6.16
240.409	5.9
240.785	5.49
241.162	5.57
241.539	5.76
241.915	5.36
242.292	5.12
242.668	5.77
243.045	6.02
243.421	5.65
243.798	5.81
244.174	5.92
244.551	6.11
244.927	5.44
245.303	5.42
245.679	5.16
246.056	4.76
246.432	4.72
246.808	4.65
247.184	4.49
247.56	4.07
247.936	4.03
248.312	4.02
248.688	4.11
249.064	3.95
249.44	3.97
249.815	3.95
250.191	4.18
250.567	4
250.943	3.76
251.318	4.01
251.694	3.86
252.069	4.02
252.445	4.12
252.82	4
253.196	3.75
253.571	3.88
253.947	4.3
254.322	4.56
254.697	4.69
255.073	4.54
255.448	4.7
255.823	4.99
256.198	5.03
256.573	4.75
256.948	4.66
257.323	4.77
257.698	4.57
258.073	4.71
258.448	4.66
258.823	4.58
259.198	4.33
259.573	4.46
259.948	4.32
260.322	4.21
260.697	4.47
261.072	4.5
261.446	4.35
261.821	4.2
262.195	4.16
262.57	4.09
262.944	4.24
263.319	4.33
263.693	4.25
264.067	4.18
264.442	4.37
264.816	4.58
265.19	4.45
265.564	4.42
265.938	4.18
266.313	4.22
266.687	4.5
267.061	4.64
267.435	4.71
267.809	4.68
268.183	4.57
268.556	4.29
268.93	4.39
269.304	4.45
269.678	4.55
270.051	4.44
270.425	4.38
270.799	4.25
271.172	4.15
271.546	4.12
271.919	4.23
272.293	4.14
272.666	4.02
273.04	4.07
273.413	4.21
273.787	4.29
274.16	4.28
274.533	4.15
274.906	4.14
275.279	4.09
275.653	4.24
276.026	4.28
276.399	4.43
276.772	4.41
277.145	4.36
277.518	4.43
277.891	4.55
278.263	4.68
278.636	4.64
279.009	4.74
279.382	4.91
279.755	5.01
280.127	5.22
280.5	5.2
280.872	5.25
281.245	5.24
281.617	5.27
281.99	5.3
282.362	5.44
282.735	5.38
283.107	5.22
283.479	5.18
283.852	5.06
284.224	5.05
284.596	5.01
284.968	4.92
285.34	4.88
285.713	4.75
286.085	4.63
286.457	4.68
286.829	4.63
287.201	4.49
287.572	4.29
287.944	4.18
288.316	4.26
288.688	4.24
289.06	4.19
289.431	4.16
289.803	4.11
290.175	4.09
290.546	4.14
290.918	4.26
291.289	4.15
291.661	4.34
292.032	4.45
292.403	4.45
292.775	4.59
293.146	4.48
293.517	4.62
293.889	4.77
294.26	4.7
294.631	4.77
295.002	4.91
295.373	4.85
295.744	4.84
296.115	4.65
296.486	4.55
296.857	4.63
297.228	4.64
297.599	4.61
297.97	4.47
298.34	4.5
298.711	4.47
299.082	4.55
299.452	4.49
299.823	4.57
300.194	4.61
300.564	4.59
300.935	4.7
301.305	4.7
301.676	4.78
302.046	4.9
302.416	4.99
302.787	4.99
303.157	5.05
303.527	5.05
303.897	5.21
304.267	5.49
304.637	5.64
305.008	5.77
305.378	5.94
305.748	5.98
306.117	5.97
306.487	6.02
306.857	6.07
307.227	6.06
307.597	5.96
307.967	6.05
308.336	6.1
308.706	6.06
309.076	6.14
309.445	6.15
309.815	6.09
310.184	6.03
310.554	6.06
310.923	6.11
311.293	6.21
311.662	6.29
312.031	6.18
312.401	6.08
312.77	6.15
313.139	6.16
313.508	6.38
313.877	6.32
314.246	6.45
314.616	6.59
314.985	6.74
315.353	6.65
315.722	6.78
316.091	6.93
316.46	6.96
316.829	7.03
317.198	7.01
317.567	7.27
317.935	7.21
318.304	7.19
318.672	7.46
319.041	7.67
319.41	7.75
319.778	7.85
320.147	7.94
320.515	7.84
320.883	7.8
321.252	7.75
321.62	7.8
321.988	7.81
322.357	7.78
322.725	7.75
323.093	8.02
323.461	8.02
323.829	8.01
324.197	8.26
324.565	8.19
324.933	8.3
325.301	8.22
325.669	8.45
326.037	8.56
326.405	8.38
326.772	8.26
327.14	8.36
327.508	8.33
327.875	8.37
328.243	8.36
328.61	8.37
328.978	8.45
329.346	8.69
329.713	8.72
330.08	8.82
330.448	8.79
330.815	8.68
331.182	8.71
331.55	8.73
331.917	8.57
332.284	8.84
332.651	8.85
333.018	8.97
333.385	8.89
333.752	8.92
334.119	9.1
334.486	9.24
334.853	9.32
335.22	9.42
335.587	9.58
335.954	9.89
336.32	9.93
336.687	9.99
337.054	9.93
337.42	9.95
337.787	10.02
338.153	10.11
338.52	10.17
338.886	10.12
339.253	10.14
339.619	10.26
339.986	10.16
340.352	10.21
340.718	10.26
341.084	10.35
341.451	10.43
341.817	10.55
342.183	10.44
342.549	10.27
342.915	10.33
343.281	10.22
343.647	10.07
344.013	10.25
344.379	10.2
344.745	10.25
345.11	10.35
345.476	10.24
345.842	10.32
346.208	10.41
346.573	10.47
346.939	10.54
347.304	10.52
347.67	10.49
348.035	10.51
348.401	10.49
348.766	10.5
349.132	10.46
349.497	10.43
349.862	10.57
350.228	10.73
350.593	10.73
350.958	10.83
351.323	10.9
351.688	10.86
352.053	10.93
352.418	10.93
352.783	10.9
353.148	10.92
353.513	10.9
353.878	10.91
354.243	10.97
354.608	10.92
354.972	10.91
355.337	10.98
355.702	11.04
356.066	11.09
356.431	11.09
356.795	11.08
357.16	11.03
357.524	10.97
357.889	10.96
358.253	11
358.618	11.03
358.982	10.92
359.346	10.87
359.71	10.83
360.075	10.88
360.439	10.82
360.803	10.84
361.167	10.86
361.531	10.84
361.895	10.69
362.259	10.66
362.623	10.76
362.987	10.75
363.351	10.7
363.714	10.66
364.078	10.69
364.442	10.63
364.806	10.58
365.169	10.56
365.533	10.51
365.896	10.42
366.26	10.29
366.623	10.31
366.987	10.25
367.35	10.21
367.714	10.18
368.077	10.16
368.44	10.05
368.803	10.01
369.167	9.92
369.53	9.91
369.893	9.96
370.256	9.86
370.619	9.8
370.982	9.69
371.345	9.66
371.708	9.58
372.071	9.59
372.434	9.55
372.797	9.56
373.159	9.53
373.522	9.49
373.885	9.53
374.247	9.51
374.61	9.49
374.973	9.41
375.335	9.3
375.698	9.25
376.06	9.19
376.423	9.11
376.785	9.13
377.147	9.14
377.51	9.06
377.872	9
378.234	8.94
378.596	8.95
378.958	8.83
379.321	8.78
379.683	8.73
380.045	8.7
380.407	8.59
380.769	8.54
381.13	8.5
381.492	8.42
381.854	8.35
382.216	8.33
382.578	8.36
382.939	8.31
383.301	8.3
383.663	8.31
384.024	8.28
384.386	8.24
384.747	8.15
385.109	8.11
385.47	8.02
385.832	7.95
386.193	7.92
386.554	7.89
386.916	7.8
387.277	7.76
387.638	7.72
387.999	7.68
388.36	7.62
388.721	7.62
389.082	7.55
389.443	7.46
389.804	7.42
390.165	7.36
390.526	7.3
390.887	7.26
391.248	7.24
391.609	7.2
391.969	7.12
392.33	7.08
392.691	7.01
393.051	6.95
393.412	6.96
393.772	6.86
394.133	6.83
394.493	6.82
394.854	6.76
395.214	6.72
395.574	6.65
395.935	6.66
396.295	6.56
396.655	6.55
397.015	6.53
397.376	6.45
397.736	6.38
398.096	6.3
398.456	6.23
398.816	6.16
399.176	6.1
399.535	6.05
399.895	5.99
400.255	5.96
400.615	5.96
400.975	5.88
401.334	5.86
401.694	5.8
402.054	5.78
402.413	5.68
402.773	5.63
403.132	5.61
403.492	5.58
403.851	5.56
404.211	5.51
404.57	5.46
404.929	5.46
405.288	5.41
405.648	5.42
406.007	5.4
406.366	5.37
406.725	5.39
407.084	5.39
407.443	5.37
407.802	5.36
408.161	5.33
408.52	5.3
408.879	5.28
409.238	5.27
409.596	5.23
409.955	5.23
410.314	5.23
410.673	5.18
411.031	5.14
411.39	5.11
411.748	5.1
412.107	5.12
412.465	5.07
412.824	5.1
413.182	5.08
413.54	5.08
413.899	5.1
414.257	5.07
414.615	5.05
414.974	5.04
415.332	5.02
415.69	4.99
416.048	4.95
416.406	4.94
416.764	4.91
417.122	4.92
417.48	4.88
417.838	4.86
418.195	4.85
418.553	4.81
418.911	4.79
419.269	4.78
419.626	4.76
419.984	4.74
420.342	4.71
420.699	4.68
421.057	4.65
421.414	4.61
421.772	4.58
422.129	4.57
422.486	4.55
422.844	4.52
423.201	4.51
423.558	4.51
423.915	4.49
424.273	4.48
424.63	4.44
424.987	4.44
425.344	4.42
425.701	4.42
426.058	4.4
426.415	4.39
426.772	4.37
427.128	4.33
427.485	4.33
427.842	4.3
428.199	4.3
428.555	4.27
428.912	4.26
429.269	4.25
429.625	4.21
429.982	4.21
430.338	4.19
430.695	4.17
431.051	4.15
431.407	4.15
431.764	4.15
432.12	4.13
432.476	4.12
432.832	4.09
433.189	4.08
433.545	4.08
433.901	4.07
434.257	4.05
434.613	4.08
434.969	4.08
435.325	4.08
435.681	4.09
436.036	4.09
436.392	4.09
436.748	4.08
437.104	4.07
437.459	4.06
437.815	4.07
438.171	4.07
438.526	4.08
438.882	4.09
439.237	4.09
439.593	4.11
439.948	4.1
440.304	4.11
440.659	4.11
441.014	4.12
441.369	4.11
441.725	4.11
442.08	4.09
442.435	4.09
442.79	4.09
443.145	4.07
443.5	4.06
443.855	4.05
444.21	4.04
444.565	4.05
444.92	4.05
445.275	4.02
445.629	4.03
445.984	4.02
446.339	3.99
446.693	3.97
447.048	3.95
447.403	3.94
447.757	3.94
448.112	3.94
448.466	3.92
448.82	3.92
449.175	3.93
449.529	3.92
449.883	3.89
450.238	3.88
450.592	3.87
450.946	3.85
451.3	3.85
451.654	3.86
452.008	3.83
452.362	3.81
452.716	3.82
453.07	3.81
453.424	3.79
453.778	3.8
454.132	3.77
454.486	3.77
454.839	3.74
455.193	3.73
455.547	3.72
455.9	3.72
456.254	3.7
456.607	3.67
456.961	3.65
457.314	3.67
457.668	3.66
458.021	3.66
458.375	3.67
458.728	3.67
459.081	3.67
459.434	3.68
459.787	3.7
460.141	3.71
460.494	3.73
460.847	3.74
461.2	3.74
461.553	3.76
461.906	3.78
462.259	3.8
462.611	3.82
462.964	3.83
463.317	3.85
463.67	3.86
464.022	3.89
464.375	3.9
464.728	3.94
465.08	3.95
465.433	3.95
465.785	3.97
466.138	3.98
466.49	3.99
466.843	3.99
467.195	3.97
467.547	3.98
467.899	3.98
468.252	3.99
468.604	4.02
468.956	4
469.308	4
469.66	4.02
470.012	4.05
470.364	4.04
470.716	4.03
471.068	4.04
471.42	4.05
471.772	4.07
472.123	4.05
472.475	4.09
472.827	4.11
473.178	4.12
473.53	4.13
473.882	4.12
474.233	4.14
474.585	4.16
474.936	4.15
475.288	4.16
475.639	4.15
475.99	4.14
476.342	4.17
476.693	4.2
477.044	4.2
477.395	4.19
477.746	4.19
478.097	4.19
478.448	4.18
478.8	4.15
479.15	4.13
479.501	4.13
479.852	4.12
480.203	4.13
480.554	4.13
480.905	4.12
481.255	4.12
481.606	4.11
481.957	4.11
482.307	4.12
482.658	4.11
483.009	4.1
483.359	4.1
483.709	4.1
484.06	4.09
484.41	4.08
484.761	4.08
485.111	4.08
485.461	4.08
485.811	4.08
486.162	4.09
486.512	4.11
486.862	4.1
487.212	4.1
487.562	4.09
487.912	4.09
488.262	4.09
488.612	4.1
488.961	4.11
489.311	4.11
489.661	4.11
490.011	4.12
490.36	4.14
490.71	4.14
491.06	4.14
491.409	4.14
491.759	4.16
492.108	4.17
492.458	4.18
492.807	4.19
493.157	4.19
493.506	4.21
493.855	4.22
494.204	4.23
494.554	4.25
494.903	4.27
495.252	4.29
495.601	4.32
495.95	4.34
496.299	4.38
496.648	4.41
496.997	4.41
497.346	4.46
497.695	4.49
498.043	4.51
498.392	4.54
498.741	4.58
499.09	4.61
499.438	4.67
499.787	4.73
500.135	4.79
500.484	4.85
500.832	4.9
501.181	4.95
501.529	5
501.878	5.06
502.226	5.12
502.574	5.19
502.923	5.26
503.271	5.29
503.619	5.34
503.967	5.39
504.315	5.49
504.663	5.54
505.011	5.62
505.359	5.69
505.707	5.79
506.055	5.88
506.403	5.95
506.751	6.01
507.098	6.07
507.446	6.16
507.794	6.24
508.141	6.32
508.489	6.43
508.837	6.54
509.184	6.62
509.531	6.72
509.879	6.81
510.226	6.91
510.574	7.04
510.921	7.15
511.268	7.24
511.616	7.35
511.963	7.49
512.31	7.59
512.657	7.72
513.004	7.86
513.351	7.99
513.698	8.13
514.045	8.23
514.392	8.38
514.739	8.52
515.086	8.66
515.432	8.79
515.779	8.9
516.126	9.02
516.473	9.19
516.819	9.32
517.166	9.46
517.512	9.59
517.859	9.71
518.205	9.81
518.552	9.93
518.898	10.04
519.245	10.13
519.591	10.23
519.937	10.34
520.283	10.44
520.629	10.56
520.976	10.71
521.322	10.89
521.668	11.04
522.014	11.17
522.36	11.35
522.706	11.52
523.052	11.71
523.398	11.94
523.743	12.12
524.089	12.37
524.435	12.56
524.781	12.77
525.126	12.96
525.472	13.14
525.817	13.3
526.163	13.46
526.509	13.62
526.854	13.78
527.199	13.92
527.545	14.07
527.89	14.2
528.235	14.35
528.581	14.48
528.926	14.64
529.271	14.79
529.616	14.94
529.961	15.07
530.306	15.22
530.651	15.39
530.996	15.57
531.341	15.73
531.686	15.93
532.031	16.1
532.376	16.27
532.721	16.5
533.065	16.71
533.41	16.93
533.755	17.15
534.099	17.35
534.444	17.6
534.788	17.81
535.133	18.05
535.477	18.27
535.822	18.52
536.166	18.75
536.51	19.02
536.855	19.31
537.199	19.65
537.543	19.95
537.887	20.25
538.231	20.56
538.576	20.86
538.92	21.16
539.264	21.49
539.608	21.8
539.951	22.03
540.295	22.32
540.639	22.54
540.983	22.78
541.327	23.01
541.671	23.23
542.014	23.47
542.358	23.71
542.701	23.96
543.045	24.21
543.389	24.48
543.732	24.73
544.075	24.99
544.419	25.25
544.762	25.54
545.105	25.82
545.449	26.11
545.792	26.42
546.135	26.74
546.478	27.04
546.821	27.35
547.165	27.71
547.508	28.06
547.851	28.43
548.194	28.78
548.536	29.17
548.879	29.59
549.222	29.97
549.565	30.3
549.908	30.59
550.25	30.98
550.593	31.34
550.936	31.73
551.278	32.08
551.621	32.42
551.963	32.76
552.306	33.15
552.648	33.47
552.991	33.79
553.333	34.08
553.675	34.39
554.017	34.69
554.36	35.02
554.702	35.3
555.044	35.63
555.386	35.94
555.728	36.22
556.07	36.45
556.412	36.74
556.754	37.06
557.096	37.43
557.438	37.69
557.78	37.97
558.121	38.23
558.463	38.58
558.805	38.87
559.147	39.14
559.488	39.38
559.83	39.69
560.171	39.98
560.513	40.3
560.854	40.57
561.196	40.91
561.537	41.19
561.878	41.43
562.22	41.67
562.561	42
562.902	42.29
563.243	42.56
563.584	42.82
563.925	43.11
564.266	43.32
564.607	43.53
564.948	43.76
565.289	43.98
565.63	44.13
565.971	44.31
566.312	44.53
566.653	44.78
566.993	44.99
567.334	45.21
567.675	45.45
568.015	45.68
568.356	45.87
568.696	46.07
569.037	46.3
569.377	46.55
569.718	46.74
570.058	46.91
570.398	47.1
570.739	47.29
571.079	47.47
571.419	47.72
571.759	47.94
572.099	48.12
572.439	48.33
572.779	48.56
573.119	48.75
573.459	48.88
573.799	49.07
574.139	49.19
574.479	49.32
574.819	49.41
575.158	49.54
575.498	49.6
575.838	49.75
576.177	49.9
576.517	50.03
576.856	50.18
577.196	50.33
577.535	50.42
577.875	50.53
578.214	50.64
578.553	50.79
578.893	50.92
579.232	51.09
579.571	51.17
579.91	51.27
580.25	51.44
580.589	51.59
580.928	51.67
581.267	51.89
581.606	51.98
581.945	52.06
582.283	52.16
582.622	52.35
582.961	52.48
583.3	52.51
583.639	52.64
583.977	52.76
584.316	52.9
584.654	53.06
584.993	53.17
585.332	53.27
585.67	53.33
586.008	53.45
586.347	53.53
586.685	53.64
587.024	53.71
587.362	53.79
587.7	53.88
588.038	54
588.376	54.08
588.715	54.21
589.053	54.4
589.391	54.61
589.729	54.72
590.067	54.72
590.404	54.93
590.742	54.98
591.08	55.07
591.418	55.21
591.756	55.34
592.093	55.48
592.431	55.64
592.769	55.62
593.106	55.74
593.444	55.75
593.781	55.8
594.119	55.94
594.456	56.02
594.793	56.1
595.131	56.15
595.468	56.12
595.805	56.15
596.143	56.18
596.48	56.16
596.817	56.24
597.154	56.31
597.491	56.29
597.828	56.4
598.165	56.41
598.502	56.47
598.839	56.53
599.176	56.53
599.512	56.52
599.849	56.64
600.186	56.65
600.523	56.85
600.859	56.93
601.196	56.96
601.532	57.06
601.869	57.16
602.205	57.21
602.542	57.31
602.878	57.39
603.215	57.35
603.551	57.43
603.887	57.44
604.223	57.56
604.56	57.63
604.896	57.67
605.232	57.71
605.568	57.71
605.904	57.71
606.24	57.79
606.576	57.88
606.912	57.92
607.248	57.95
607.583	57.93
607.919	58.03
608.255	58.09
608.591	58.1
608.926	58.12
609.262	58.19
609.597	58.23
609.933	58.34
610.268	58.44
610.604	58.46
610.939	58.5
611.275	58.49
611.61	58.5
611.945	58.52
612.281	58.55
612.616	58.55
612.951	58.72
613.286	58.77
613.621	58.78
613.956	58.84
614.291	58.93
614.626	58.96
614.961	58.96
615.296	59.02
615.631	58.98
615.966	59.06
616.3	59.06
616.635	59.1
616.97	59.09
617.304	59.24
617.639	59.34
617.973	59.46
618.308	59.5
618.642	59.63
618.977	59.6
619.311	59.6
619.646	59.67
619.98	59.66
620.314	59.67
620.648	59.63
620.983	59.68
621.317	59.62
621.651	59.67
621.985	59.74
622.319	59.68
622.653	59.81
622.987	59.8
623.321	59.81
623.655	59.82
623.988	59.87
624.322	59.77
624.656	59.82
624.99	59.86
625.323	59.84
625.657	59.83
625.99	59.93
626.324	60
626.657	59.99
626.991	60.01
627.324	59.95
627.658	59.98
627.991	60.02
628.324	60.06
628.657	60.08
628.991	60.07
629.324	60.18
629.657	60.19
629.99	60.19
630.323	60.2
630.656	60.3
630.989	60.34
631.322	60.47
631.655	60.44
631.987	60.42
632.32	60.5
632.653	60.62
632.986	60.6
633.318	60.63
633.651	60.65
633.984	60.69
634.316	60.81
634.649	60.85
634.981	60.87
635.313	60.89
635.646	60.81
635.978	60.92
636.31	60.9
636.643	60.87
636.975	60.79
637.307	60.89
637.639	60.79
637.971	60.74
638.303	60.64
638.635	60.65
638.967	60.56
639.299	60.61
639.631	60.52
639.963	60.53
640.295	60.56
640.626	60.73
640.958	60.74
641.29	60.81
641.621	60.89
641.953	60.93
642.285	60.98
642.616	61.09
642.948	61.03
643.279	61.09
643.61	61.1
643.942	61.25
644.273	61.15
644.604	61.25
644.936	61.25
645.267	61.21
645.598	61.24
645.929	61.37
646.26	61.37
646.591	61.49
646.922	61.49
647.253	61.42
647.584	61.27
647.915	61.28
648.245	61.17
648.576	61.28
648.907	61.26
649.238	61.34
649.568	61.42
649.899	61.43
650.229	61.39
650.56	61.43
650.89	61.48
651.221	61.7
651.551	61.66
651.882	61.71
652.212	61.88
652.542	61.94
652.872	61.91
653.203	62.04
653.533	61.98
653.863	61.99
654.193	62.13
654.523	62.25
654.853	62.34
655.183	62.45
655.513	62.4
655.843	62.43
656.172	62.51
656.502	62.43
656.832	62.5
657.162	62.72
657.491	62.73
657.821	62.74
658.15	62.66
658.48	62.7
658.809	62.77
659.139	62.8
659.468	62.7
659.798	62.8
660.127	62.67
660.456	62.66
660.785	62.66
661.115	62.6
661.444	62.59
661.773	62.59
662.102	62.55
662.431	62.52
662.76	62.62
663.089	62.51
663.418	62.56
663.747	62.48
664.076	62.38
664.404	62.37
664.733	62.4
665.062	62.37
665.39	62.4
665.719	62.5
666.048	62.55
666.376	62.72
666.705	62.54
667.033	62.5
667.362	62.63
