Data from BA57965_Reflection_00012.txt Node
Date: Mon Nov 18 15:16:25 EST 2019
User: vgr7
Spectrometer: USB2G7710
Scans to average: 3
Trigger mode: 4
Integration Time (sec): 2.000000E-2
Electric dark correction enabled: true
Boxcar width: 10
XAxis mode: Wavelengths
Number of Pixels in Spectrum: 2048
>>>>>Begin Spectral Data<<<<<
177.721	76.53
178.105	64.39
178.488	-2.75
178.871	16.37
179.254	-6.03
179.636	46.43
180.019	-11.2
180.402	44.74
180.785	35.1
181.168	56.27
181.55	321.67
181.933	177.3
182.316	223.18
182.698	564.44
183.081	274.19
183.463	-71.97
183.846	-3.07
184.228	32.33
184.611	-22.98
184.993	29.6
185.376	19.39
185.758	17.46
186.14	1.2
186.522	-15.61
186.904	-1.49
187.287	-13.82
187.669	25.53
188.051	23.84
188.433	39.02
188.815	40.28
189.197	40.51
189.579	47.69
189.961	55.49
190.342	68.67
190.724	67.69
191.106	52.59
191.488	59.68
191.869	57.47
192.251	70.64
192.633	75.63
193.014	71.38
193.396	65.16
193.777	72.6
194.159	89.98
194.54	95.77
194.922	96.02
195.303	99.17
195.684	72.96
196.065	49.39
196.447	38.69
196.828	22.93
197.209	27.94
197.59	32.18
197.971	34.33
198.352	34.8
198.733	23.31
199.114	24.45
199.495	29.72
199.876	30.07
200.257	17.07
200.638	15.6
201.018	20.8
201.399	22.03
201.78	19.07
202.16	21.18
202.541	17.15
202.922	14.16
203.302	14.92
203.683	4.18
204.063	10.99
204.444	13.04
204.824	31.59
205.204	23.13
205.585	22.82
205.965	9.06
206.345	3.71
206.725	4.56
207.106	9.45
207.486	-9.55
207.866	-5.74
208.246	2.04
208.626	16.18
209.006	13.69
209.386	4.22
209.766	6.37
210.145	-4.82
210.525	-12.78
210.905	-4.65
211.285	-5.93
211.664	0.68
212.044	-4.58
212.424	-2.01
212.803	-5.35
213.183	-5.52
213.562	-8.73
213.942	-0.69
214.321	1.35
214.701	-4.36
215.08	-1.78
215.459	-0.25
215.838	-3.76
216.218	-0.12
216.597	1.46
216.976	-4.6
217.355	-0.05
217.734	0.34
218.113	3.56
218.492	12.64
218.871	-7.68
219.25	0.01
219.629	0.76
220.008	8.98
220.387	14.31
220.766	6.01
221.144	10.25
221.523	9.48
221.902	7.74
222.28	2.49
222.659	16.33
223.037	10.95
223.416	10.04
223.794	9.33
224.173	1.75
224.551	1.26
224.929	5.02
225.308	5.82
225.686	-0.04
226.064	2.29
226.442	3.04
226.821	8.82
227.199	9.69
227.577	7.32
227.955	6.43
228.333	4.97
228.711	7.5
229.089	8.79
229.467	9.49
229.845	8.23
230.222	9.33
230.6	8.91
230.978	8.18
231.356	10.08
231.733	9.25
232.111	11.37
232.488	11.41
232.866	9.65
233.243	8.69
233.621	9.03
233.998	8.38
234.376	6.78
234.753	6.63
235.13	5.86
235.508	7.58
235.885	5.89
236.262	5.72
236.639	4.63
237.016	3.79
237.393	4.1
237.77	4.88
238.147	5.17
238.524	4.87
238.901	5.12
239.278	4.86
239.655	5.94
240.032	5.18
240.409	4.88
240.785	5.36
241.162	5.59
241.539	5.78
241.915	5.85
242.292	5.62
242.668	5.49
243.045	5.41
243.421	5.1
243.798	5.19
244.174	5.18
244.551	5.28
244.927	5.22
245.303	5.42
245.679	5.24
246.056	5.04
246.432	4.73
246.808	4.74
247.184	4.56
247.56	4.39
247.936	4.16
248.312	4.14
248.688	4.1
249.064	4.08
249.44	4.13
249.815	4.12
250.191	4.32
250.567	4.34
250.943	4.39
251.318	4.62
251.694	4.87
252.069	4.83
252.445	4.84
252.82	4.74
253.196	4.55
253.571	4.43
253.947	4.67
254.322	5.16
254.697	4.95
255.073	4.84
255.448	4.63
255.823	4.97
256.198	5.01
256.573	4.95
256.948	4.89
257.323	4.98
257.698	4.99
258.073	4.9
258.448	4.81
258.823	4.54
259.198	4.27
259.573	4.06
259.948	4.05
260.322	4.16
260.697	4.06
261.072	3.91
261.446	3.98
261.821	3.95
262.195	3.91
262.57	4.17
262.944	4.13
263.319	4.06
263.693	4.09
264.067	4.14
264.442	4.1
264.816	4.08
265.19	3.93
265.564	3.91
265.938	3.71
266.313	3.68
266.687	3.96
267.061	4.22
267.435	4.42
267.809	4.47
268.183	4.25
268.556	4.35
268.93	4.61
269.304	4.77
269.678	4.56
270.051	4.58
270.425	4.43
270.799	4.45
271.172	4.58
271.546	4.57
271.919	4.46
272.293	4.56
272.666	4.54
273.04	4.41
273.413	4.39
273.787	4.52
274.16	4.52
274.533	4.24
274.906	4.23
275.279	4.09
275.653	3.89
276.026	4.01
276.399	4.04
276.772	3.92
277.145	3.65
277.518	3.75
277.891	3.71
278.263	3.6
278.636	3.71
279.009	3.77
279.382	3.87
279.755	3.86
280.127	3.93
280.5	4.06
280.872	4.21
281.245	4.21
281.617	4.26
281.99	4.34
282.362	4.41
282.735	4.29
283.107	4.22
283.479	4.24
283.852	4.28
284.224	4.32
284.596	4.25
284.968	4.44
285.34	4.46
285.713	4.5
286.085	4.44
286.457	4.51
286.829	4.43
287.201	4.3
287.572	4.19
287.944	4.14
288.316	4.1
288.688	4.09
289.06	4.06
289.431	4.11
289.803	4.12
290.175	4.22
290.546	4.25
290.918	4.29
291.289	4.46
291.661	4.45
292.032	4.5
292.403	4.57
292.775	4.59
293.146	4.45
293.517	4.4
293.889	4.51
294.26	4.4
294.631	4.49
295.002	4.55
295.373	4.63
295.744	4.52
296.115	4.41
296.486	4.36
296.857	4.45
297.228	4.46
297.599	4.42
297.97	4.46
298.34	4.51
298.711	4.61
299.082	4.59
299.452	4.66
299.823	4.66
300.194	4.67
300.564	4.58
300.935	4.78
301.305	4.79
301.676	4.78
302.046	4.89
302.416	4.87
302.787	4.94
303.157	4.92
303.527	5.01
303.897	5.22
304.267	5.37
304.637	5.41
305.008	5.4
305.378	5.6
305.748	5.59
306.117	5.56
306.487	5.68
306.857	5.74
307.227	5.66
307.597	5.69
307.967	5.79
308.336	5.88
308.706	5.83
309.076	5.95
309.445	6.01
309.815	6
310.184	6.05
310.554	6.04
310.923	6.15
311.293	6.29
311.662	6.31
312.031	6.31
312.401	6.27
312.77	6.33
313.139	6.39
313.508	6.52
313.877	6.65
314.246	6.66
314.616	6.61
314.985	6.66
315.353	6.74
315.722	6.72
316.091	6.71
316.46	6.78
316.829	6.77
317.198	6.82
317.567	6.93
317.935	6.85
318.304	6.86
318.672	6.88
319.041	6.82
319.41	6.87
319.778	7.06
320.147	7.16
320.515	7.23
320.883	7.16
321.252	7.18
321.62	7.2
321.988	7.17
322.357	7.26
322.725	7.29
323.093	7.3
323.461	7.41
323.829	7.53
324.197	7.65
324.565	7.73
324.933	7.82
325.301	7.82
325.669	8.02
326.037	8.08
326.405	8.13
326.772	8.21
327.14	8.18
327.508	8.13
327.875	8.04
328.243	8.06
328.61	8.14
328.978	8.13
329.346	8.19
329.713	8.15
330.08	8.08
330.448	8.09
330.815	8.06
331.182	8.14
331.55	8.17
331.917	8.1
332.284	8.13
332.651	8.24
333.018	8.28
333.385	8.23
333.752	8.38
334.119	8.33
334.486	8.25
334.853	8.27
335.22	8.27
335.587	8.41
335.954	8.48
336.32	8.43
336.687	8.5
337.054	8.52
337.42	8.6
337.787	8.77
338.153	8.75
338.52	8.87
338.886	8.74
339.253	8.65
339.619	8.82
339.986	8.83
340.352	8.74
340.718	8.73
341.084	8.76
341.451	8.74
341.817	8.85
342.183	8.84
342.549	8.87
342.915	8.88
343.281	8.83
343.647	8.8
344.013	8.87
344.379	8.82
344.745	8.86
345.11	8.96
345.476	9.08
345.842	9.16
346.208	9.22
346.573	9.35
346.939	9.43
347.304	9.42
347.67	9.42
348.035	9.43
348.401	9.43
348.766	9.51
349.132	9.54
349.497	9.5
349.862	9.65
350.228	9.64
350.593	9.7
350.958	9.75
351.323	9.72
351.688	9.78
352.053	9.87
352.418	9.87
352.783	9.83
353.148	9.63
353.513	9.65
353.878	9.61
354.243	9.59
354.608	9.56
354.972	9.51
355.337	9.55
355.702	9.55
356.066	9.6
356.431	9.56
356.795	9.51
357.16	9.51
357.524	9.41
357.889	9.36
358.253	9.32
358.618	9.24
358.982	9.17
359.346	8.9
359.71	8.83
360.075	8.78
360.439	8.72
360.803	8.78
361.167	8.72
361.531	8.65
361.895	8.6
362.259	8.56
362.623	8.5
362.987	8.49
363.351	8.46
363.714	8.45
364.078	8.38
364.442	8.28
364.806	8.28
365.169	8.28
365.533	8.29
365.896	8.22
366.26	8.21
366.623	8.24
366.987	8.31
367.35	8.28
367.714	8.18
368.077	8.21
368.44	8.09
368.803	8.14
369.167	8.04
369.53	7.91
369.893	7.88
370.256	7.91
370.619	7.81
370.982	7.77
371.345	7.59
371.708	7.61
372.071	7.56
372.434	7.5
372.797	7.43
373.159	7.34
373.522	7.3
373.885	7.24
374.247	7.19
374.61	7.15
374.973	7.06
375.335	7.01
375.698	6.86
376.06	6.76
376.423	6.67
376.785	6.7
377.147	6.74
377.51	6.68
377.872	6.58
378.234	6.54
378.596	6.5
378.958	6.47
379.321	6.39
379.683	6.38
380.045	6.27
380.407	6.24
380.769	6.17
381.13	6.12
381.492	6.08
381.854	6.05
382.216	6
382.578	5.99
382.939	5.93
383.301	5.94
383.663	5.92
384.024	5.85
384.386	5.79
384.747	5.76
385.109	5.75
385.47	5.67
385.832	5.63
386.193	5.55
386.554	5.52
386.916	5.46
387.277	5.45
387.638	5.47
387.999	5.41
388.36	5.4
388.721	5.39
389.082	5.37
389.443	5.31
389.804	5.25
390.165	5.16
390.526	5.13
390.887	5.07
391.248	5.12
391.609	5.1
391.969	5.04
392.33	5
392.691	4.97
393.051	5
393.412	4.97
393.772	4.96
394.133	4.95
394.493	4.92
394.854	4.85
395.214	4.77
395.574	4.73
395.935	4.67
396.295	4.64
396.655	4.58
397.015	4.52
397.376	4.55
397.736	4.55
398.096	4.57
398.456	4.56
398.816	4.5
399.176	4.46
399.535	4.44
399.895	4.39
400.255	4.32
400.615	4.24
400.975	4.18
401.334	4.12
401.694	4.09
402.054	4.05
402.413	4.08
402.773	4.08
403.132	4.07
403.492	4.09
403.851	4.05
404.211	4.04
404.57	4.04
404.929	4
405.288	3.98
405.648	3.93
406.007	3.93
406.366	3.93
406.725	3.93
407.084	3.93
407.443	3.92
407.802	3.95
408.161	3.95
408.52	3.96
408.879	3.97
409.238	3.98
409.596	3.98
409.955	3.96
410.314	3.97
410.673	3.95
411.031	3.93
411.39	3.9
411.748	3.89
412.107	3.93
412.465	3.92
412.824	3.94
413.182	3.92
413.54	3.9
413.899	3.89
414.257	3.91
414.615	3.88
414.974	3.86
415.332	3.84
415.69	3.82
416.048	3.78
416.406	3.75
416.764	3.73
417.122	3.71
417.48	3.67
417.838	3.66
418.195	3.64
418.553	3.59
418.911	3.58
419.269	3.58
419.626	3.55
419.984	3.54
420.342	3.52
420.699	3.51
421.057	3.5
421.414	3.46
421.772	3.44
422.129	3.43
422.486	3.42
422.844	3.41
423.201	3.4
423.558	3.42
423.915	3.42
424.273	3.43
424.63	3.41
424.987	3.42
425.344	3.42
425.701	3.43
426.058	3.44
426.415	3.44
426.772	3.43
427.128	3.43
427.485	3.43
427.842	3.43
428.199	3.44
428.555	3.42
428.912	3.42
429.269	3.41
429.625	3.42
429.982	3.41
430.338	3.4
430.695	3.42
431.051	3.39
431.407	3.38
431.764	3.36
432.12	3.37
432.476	3.36
432.832	3.34
433.189	3.34
433.545	3.33
433.901	3.34
434.257	3.34
434.613	3.36
434.969	3.36
435.325	3.37
435.681	3.37
436.036	3.38
436.392	3.38
436.748	3.37
437.104	3.35
437.459	3.34
437.815	3.33
438.171	3.3
438.526	3.32
438.882	3.32
439.237	3.32
439.593	3.33
439.948	3.34
440.304	3.33
440.659	3.34
441.014	3.35
441.369	3.34
441.725	3.32
442.08	3.29
442.435	3.29
442.79	3.27
443.145	3.26
443.5	3.25
443.855	3.25
444.21	3.24
444.565	3.27
444.92	3.28
445.275	3.28
445.629	3.28
445.984	3.28
446.339	3.25
446.693	3.24
447.048	3.22
447.403	3.2
447.757	3.19
448.112	3.18
448.466	3.17
448.82	3.17
449.175	3.17
449.529	3.17
449.883	3.16
450.238	3.16
450.592	3.15
450.946	3.15
451.3	3.15
451.654	3.16
452.008	3.13
452.362	3.11
452.716	3.1
453.07	3.11
453.424	3.11
453.778	3.13
454.132	3.13
454.486	3.15
454.839	3.16
455.193	3.16
455.547	3.15
455.9	3.17
456.254	3.17
456.607	3.15
456.961	3.15
457.314	3.14
457.668	3.14
458.021	3.14
458.375	3.14
458.728	3.13
459.081	3.13
459.434	3.13
459.787	3.14
460.141	3.16
460.494	3.17
460.847	3.16
461.2	3.15
461.553	3.17
461.906	3.17
462.259	3.18
462.611	3.19
462.964	3.2
463.317	3.2
463.67	3.2
464.022	3.21
464.375	3.23
464.728	3.23
465.08	3.25
465.433	3.27
465.785	3.28
466.138	3.3
466.49	3.31
466.843	3.3
467.195	3.32
467.547	3.34
467.899	3.32
468.252	3.33
468.604	3.35
468.956	3.34
469.308	3.33
469.66	3.32
470.012	3.33
470.364	3.32
470.716	3.34
471.068	3.34
471.42	3.35
471.772	3.33
472.123	3.35
472.475	3.34
472.827	3.33
473.178	3.33
473.53	3.31
473.882	3.31
474.233	3.33
474.585	3.31
474.936	3.3
475.288	3.31
475.639	3.31
475.99	3.29
476.342	3.29
476.693	3.29
477.044	3.3
477.395	3.28
477.746	3.28
478.097	3.27
478.448	3.28
478.8	3.27
479.15	3.27
479.501	3.27
479.852	3.24
480.203	3.24
480.554	3.25
480.905	3.26
481.255	3.25
481.606	3.25
481.957	3.25
482.307	3.24
482.658	3.25
483.009	3.25
483.359	3.26
483.709	3.26
484.06	3.26
484.41	3.25
484.761	3.26
485.111	3.27
485.461	3.27
485.811	3.26
486.162	3.27
486.512	3.28
486.862	3.28
487.212	3.3
487.562	3.29
487.912	3.29
488.262	3.31
488.612	3.32
488.961	3.33
489.311	3.34
489.661	3.35
490.011	3.35
490.36	3.34
490.71	3.34
491.06	3.35
491.409	3.37
491.759	3.38
492.108	3.4
492.458	3.4
492.807	3.41
493.157	3.42
493.506	3.44
493.855	3.45
494.204	3.47
494.554	3.48
494.903	3.52
495.252	3.53
495.601	3.55
495.95	3.57
496.299	3.59
496.648	3.59
496.997	3.63
497.346	3.67
497.695	3.72
498.043	3.74
498.392	3.77
498.741	3.8
499.09	3.83
499.438	3.85
499.787	3.88
500.135	3.91
500.484	3.95
500.832	3.97
501.181	4
501.529	4.04
501.878	4.07
502.226	4.11
502.574	4.14
502.923	4.16
503.271	4.21
503.619	4.24
503.967	4.28
504.315	4.3
504.663	4.33
505.011	4.37
505.359	4.43
505.707	4.49
506.055	4.53
506.403	4.58
506.751	4.64
507.098	4.67
507.446	4.75
507.794	4.81
508.141	4.86
508.489	4.92
508.837	4.98
509.184	5.03
509.531	5.09
509.879	5.17
510.226	5.23
510.574	5.28
510.921	5.34
511.268	5.42
511.616	5.48
511.963	5.54
512.31	5.59
512.657	5.66
513.004	5.71
513.351	5.78
513.698	5.85
514.045	5.92
514.392	5.99
514.739	6.06
515.086	6.12
515.432	6.17
515.779	6.22
516.126	6.28
516.473	6.36
516.819	6.42
517.166	6.49
517.512	6.55
517.859	6.63
518.205	6.7
518.552	6.78
518.898	6.83
519.245	6.9
519.591	6.96
519.937	7.03
520.283	7.12
520.629	7.21
520.976	7.31
521.322	7.41
521.668	7.53
522.014	7.63
522.36	7.76
522.706	7.91
523.052	8.07
523.398	8.22
523.743	8.36
524.089	8.5
524.435	8.64
524.781	8.79
525.126	8.93
525.472	9.06
525.817	9.19
526.163	9.31
526.509	9.41
526.854	9.51
527.199	9.63
527.545	9.74
527.89	9.85
528.235	9.96
528.581	10.07
528.926	10.18
529.271	10.3
529.616	10.42
529.961	10.53
530.306	10.67
530.651	10.8
530.996	10.96
531.341	11.12
531.686	11.29
532.031	11.44
532.376	11.6
532.721	11.78
533.065	11.95
533.41	12.14
533.755	12.35
534.099	12.57
534.444	12.78
534.788	12.98
535.133	13.18
535.477	13.39
535.822	13.64
536.166	13.87
536.51	14.13
536.855	14.42
537.199	14.72
537.543	14.99
537.887	15.31
538.231	15.6
538.576	15.91
538.92	16.22
539.264	16.52
539.608	16.83
539.951	17.1
540.295	17.38
540.639	17.64
540.983	17.91
541.327	18.18
541.671	18.43
542.014	18.68
542.358	18.94
542.701	19.19
543.045	19.43
543.389	19.71
543.732	20
544.075	20.28
544.419	20.55
544.762	20.85
545.105	21.16
545.449	21.48
545.792	21.78
546.135	22.11
546.478	22.47
546.821	22.83
547.165	23.21
547.508	23.54
547.851	23.93
548.194	24.31
548.536	24.68
548.879	25.04
549.222	25.44
549.565	25.79
549.908	26.16
550.25	26.55
550.593	26.9
550.936	27.25
551.278	27.65
551.621	28.04
551.963	28.39
552.306	28.73
552.648	29.08
552.991	29.42
553.333	29.81
553.675	30.16
554.017	30.5
554.36	30.8
554.702	31.19
555.044	31.52
555.386	31.85
555.728	32.19
556.07	32.52
556.412	32.85
556.754	33.2
557.096	33.59
557.438	33.9
557.78	34.29
558.121	34.65
558.463	34.97
558.805	35.3
559.147	35.65
559.488	35.95
559.83	36.31
560.171	36.62
560.513	36.92
560.854	37.24
561.196	37.55
561.537	37.95
561.878	38.26
562.22	38.55
562.561	38.84
562.902	39.13
563.243	39.4
563.584	39.67
563.925	39.99
564.266	40.25
564.607	40.51
564.948	40.76
565.289	41
565.63	41.23
565.971	41.44
566.312	41.72
566.653	41.98
566.993	42.2
567.334	42.47
567.675	42.71
568.015	42.93
568.356	43.11
568.696	43.3
569.037	43.51
569.377	43.79
569.718	44.06
570.058	44.34
570.398	44.61
570.739	44.84
571.079	45
571.419	45.21
571.759	45.42
572.099	45.62
572.439	45.85
572.779	46.05
573.119	46.24
573.459	46.38
573.799	46.59
574.139	46.77
574.479	46.94
574.819	47.08
575.158	47.33
575.498	47.53
575.838	47.69
576.177	47.81
576.517	47.97
576.856	48.06
577.196	48.15
577.535	48.29
577.875	48.42
578.214	48.62
578.553	48.78
578.893	48.9
579.232	49.05
579.571	49.22
579.91	49.37
580.25	49.57
580.589	49.73
580.928	49.89
581.267	50.05
581.606	50.21
581.945	50.41
582.283	50.54
582.622	50.74
582.961	50.88
583.3	51.09
583.639	51.2
583.977	51.42
584.316	51.55
584.654	51.75
584.993	51.93
585.332	52.11
585.67	52.23
586.008	52.42
586.347	52.53
586.685	52.61
587.024	52.74
587.362	52.88
587.7	53.07
588.038	53.22
588.376	53.35
588.715	53.44
589.053	53.52
589.391	53.57
589.729	53.59
590.067	53.64
590.404	53.76
590.742	53.89
591.08	53.95
591.418	54.14
591.756	54.24
592.093	54.32
592.431	54.37
592.769	54.44
593.106	54.58
593.444	54.69
593.781	54.84
594.119	54.95
594.456	54.96
594.793	55.03
595.131	55.05
595.468	55.08
595.805	55.19
596.143	55.31
596.48	55.38
596.817	55.5
597.154	55.64
597.491	55.76
597.828	55.85
598.165	55.95
598.502	55.99
598.839	55.98
599.176	56.12
599.512	56.16
599.849	56.28
600.186	56.29
600.523	56.48
600.859	56.54
601.196	56.62
601.532	56.74
601.869	56.79
602.205	56.89
602.542	57.01
602.878	57.07
603.215	57.12
603.551	57.15
603.887	57.21
604.223	57.27
604.56	57.3
604.896	57.28
605.232	57.36
605.568	57.45
605.904	57.56
606.24	57.53
606.576	57.63
606.912	57.73
607.248	57.78
607.583	57.72
607.919	57.75
608.255	57.85
608.591	57.92
608.926	58.03
609.262	58.11
609.597	58.16
609.933	58.22
610.268	58.33
610.604	58.48
610.939	58.47
611.275	58.49
611.61	58.51
611.945	58.68
612.281	58.74
612.616	58.71
612.951	58.83
613.286	58.94
613.621	59.11
613.956	59.15
614.291	59.3
614.626	59.41
614.961	59.5
615.296	59.5
615.631	59.6
615.966	59.63
616.3	59.69
616.635	59.74
616.97	59.74
617.304	59.74
617.639	59.84
617.973	60.03
618.308	60.13
618.642	60.17
618.977	60.13
619.311	60.09
619.646	60.15
619.98	60.08
620.314	60.26
620.648	60.23
620.983	60.25
621.317	60.26
621.651	60.37
621.985	60.26
622.319	60.41
622.653	60.43
622.987	60.51
623.321	60.45
623.655	60.45
623.988	60.48
624.322	60.47
624.656	60.44
624.99	60.42
625.323	60.45
625.657	60.59
625.99	60.68
626.324	60.85
626.657	60.95
626.991	61.05
627.324	61.01
627.658	60.97
627.991	61.04
628.324	61.06
628.657	61.09
628.991	61.25
629.324	61.29
629.657	61.29
629.99	61.23
630.323	61.38
630.656	61.5
630.989	61.56
631.322	61.64
631.655	61.67
631.987	61.66
632.32	61.74
632.653	61.58
632.986	61.56
633.318	61.45
633.651	61.49
633.984	61.48
634.316	61.48
634.649	61.57
634.981	61.61
635.313	61.73
635.646	61.77
635.978	61.76
636.31	61.66
636.643	61.68
636.975	61.82
637.307	61.78
637.639	61.71
637.971	61.79
638.303	61.78
638.635	61.8
638.967	61.8
639.299	61.8
639.631	61.92
639.963	62.02
640.295	62.01
640.626	61.98
640.958	62.03
641.29	62.08
641.621	62.01
641.953	62.05
642.285	62.01
642.616	61.91
642.948	61.98
643.279	62.02
643.61	62.07
643.942	62.07
644.273	62.03
644.604	62.18
644.936	62.14
645.267	62.26
645.598	62.37
645.929	62.47
646.26	62.56
646.591	62.6
646.922	62.62
647.253	62.74
647.584	62.87
647.915	62.85
648.245	62.98
648.576	63.05
648.907	63.12
649.238	63.06
649.568	63.14
649.899	63.16
650.229	63.25
650.56	63.25
650.89	63.28
651.221	63.36
651.551	63.35
651.882	63.37
652.212	63.26
652.542	63.19
652.872	63.06
653.203	63.07
653.533	63.17
653.863	63.19
654.193	63.11
654.523	63.07
654.853	63.16
655.183	63.11
655.513	63.16
655.843	63.07
656.172	62.97
656.502	63
656.832	62.97
657.162	62.85
657.491	62.92
657.821	62.89
658.15	62.91
658.48	62.93
658.809	62.99
659.139	63.04
659.468	63.03
659.798	63.15
660.127	63.09
660.456	63.1
660.785	63.03
661.115	63.19
661.444	63.23
661.773	63.21
662.102	63.24
662.431	63.27
662.76	63.41
663.089	63.69
663.418	63.77
663.747	63.74
664.076	63.82
664.404	63.84
664.733	63.94
665.062	63.9
665.39	63.96
665.719	63.92
666.048	64.09
666.376	64.15
666.705	64.2
667.033	64.23
667.362	64.2
667.69	64.3
668.018	64.28
668.347	64.24
668.675	64.33
669.003	64.39
669.331	64.38
669.659	64.31
669.987	64.14
670.315	64.07
