Data from BA57750_Reflection_00005.txt Node
Date: Mon Nov 18 15:46:33 EST 2019
User: vgr7
Spectrometer: USB2G7710
Scans to average: 3
Trigger mode: 4
Integration Time (sec): 2.000000E-2
Electric dark correction enabled: true
Boxcar width: 10
XAxis mode: Wavelengths
Number of Pixels in Spectrum: 2048
>>>>>Begin Spectral Data<<<<<
177.721	-23.81
178.105	-16.72
178.488	-916.39
178.871	57.42
179.254	48.78
179.636	-69.12
180.019	55.76
180.402	18.75
180.785	216.1
181.168	98.5
181.55	97.16
181.933	101.97
182.316	102.23
182.698	99.03
183.081	95.39
183.463	139.88
183.846	222.94
184.228	198.91
184.611	273.43
184.993	174.51
185.376	341.44
185.758	196.82
186.14	300.36
186.522	283.7
186.904	156.01
187.287	110.84
187.669	183.73
188.051	180.36
188.433	309.48
188.815	459.17
189.197	17484.62
189.579	2169.57
189.961	14205.26
190.342	8286.05
190.724	-524.09
191.106	-405.01
191.488	-738.71
191.869	-769.38
192.251	-687.35
192.633	-270.83
193.014	-255.13
193.396	-427.97
193.777	-388.85
194.159	-389.07
194.54	-416.39
194.922	-377.89
195.303	-187.71
195.684	-198.98
196.065	-114.52
196.447	-133.88
196.828	-147.77
197.209	-129.48
197.59	-121.29
197.971	-151.62
198.352	-122.28
198.733	-123.51
199.114	-115.4
199.495	-97.41
199.876	-94.59
200.257	-87.9
200.638	-106.33
201.018	-104.38
201.399	-106.91
201.78	-103.33
202.16	-119.44
202.541	-135.29
202.922	-130.79
203.302	-187.45
203.683	-211.67
204.063	-203.24
204.444	-161.3
204.824	-153.34
205.204	-176.03
205.585	-189.02
205.965	-128.65
206.345	-157.08
206.725	-147.04
207.106	-178.14
207.486	-270.52
207.866	-290.31
208.246	-259.22
208.626	-226.35
209.006	-202.62
209.386	-240.99
209.766	-265.38
210.145	-268.99
210.525	-202.08
210.905	-173.47
211.285	-212.24
211.664	-174.91
212.044	-293.49
212.424	-240.08
212.803	-181.78
213.183	-148.8
213.562	-164.94
213.942	-153.08
214.321	-139.46
214.701	-142.91
215.08	-148.6
215.459	-114.49
215.838	-90.11
216.218	-91.6
216.597	-75.82
216.976	-82.01
217.355	-58.56
217.734	-73.63
218.113	-69.49
218.492	-75.11
218.871	-81.96
219.25	-80.6
219.629	-83.35
220.008	-68.82
220.387	-86.05
220.766	-100.1
221.144	-110.43
221.523	-94.33
221.902	-113.01
222.28	-120.87
222.659	-123.91
223.037	-106.41
223.416	-98.26
223.794	-114.39
224.173	-73.59
224.551	-51.78
224.929	-48.14
225.308	-35.1
225.686	-16.85
226.064	-14.7
226.442	-9.58
226.821	-7.32
227.199	-2.93
227.577	-3.35
227.955	-1.5
228.333	1.92
228.711	6.86
229.089	8
229.467	6.86
229.845	7.57
230.222	7.39
230.6	4.28
230.978	1.54
231.356	0.48
231.733	1.2
232.111	-1.3
232.488	-3.12
232.866	-3.71
233.243	-6.33
233.621	-8.13
233.998	-8.04
234.376	-8.81
234.753	-9.03
235.13	-7.55
235.508	-7.33
235.885	-8.47
236.262	-8.89
236.639	-9.24
237.016	-9.27
237.393	-8.36
237.77	-7.46
238.147	-6.07
238.524	-3.6
238.901	-1.89
239.278	-0.09
239.655	0.41
240.032	1.15
240.409	1.3
240.785	1.9
241.162	2.29
241.539	2.55
241.915	3.14
242.292	3.01
242.668	3.05
243.045	3.42
243.421	3.57
243.798	3.69
244.174	3.55
244.551	3.67
244.927	3.85
245.303	4.19
245.679	4.42
246.056	4.23
246.432	4.29
246.808	4.35
247.184	3.92
247.56	3.67
247.936	3.62
248.312	3.65
248.688	3.59
249.064	3.83
249.44	3.82
249.815	3.48
250.191	3.6
250.567	3.58
250.943	3.2
251.318	3.24
251.694	3.46
252.069	3.61
252.445	3.8
252.82	3.59
253.196	3.36
253.571	2.85
253.947	3
254.322	2.85
254.697	2.57
255.073	2.6
255.448	2.84
255.823	2.67
256.198	2.81
256.573	2.97
256.948	2.9
257.323	2.97
257.698	3.23
258.073	3.31
258.448	3.36
258.823	3.47
259.198	3.4
259.573	3.17
259.948	3.21
260.322	3.04
260.697	2.98
261.072	3.06
261.446	3.31
261.821	3.33
262.195	3.4
262.57	3.43
262.944	3.45
263.319	3.4
263.693	3.49
264.067	3.35
264.442	3.3
264.816	3.26
265.19	3.14
265.564	3.25
265.938	3.21
266.313	3.21
266.687	3.31
267.061	3.36
267.435	3.45
267.809	3.49
268.183	3.6
268.556	3.49
268.93	3.27
269.304	3.25
269.678	3.17
270.051	2.97
270.425	3.12
270.799	3.13
271.172	3.17
271.546	3
271.919	2.96
272.293	3.01
272.666	3.05
273.04	3.23
273.413	3.09
273.787	3.22
274.16	3.18
274.533	3.14
274.906	3.13
275.279	3.1
275.653	3.04
276.026	2.85
276.399	3
276.772	3.18
277.145	3.12
277.518	3.29
277.891	3.24
278.263	3.25
278.636	3.46
279.009	3.53
279.382	3.79
279.755	3.76
280.127	3.83
280.5	3.77
280.872	3.76
281.245	3.63
281.617	3.52
281.99	3.68
282.362	3.71
282.735	3.51
283.107	3.59
283.479	3.58
283.852	3.65
284.224	3.62
284.596	3.63
284.968	3.8
285.34	3.72
285.713	3.82
286.085	3.87
286.457	3.82
286.829	3.87
287.201	3.8
287.572	3.83
287.944	3.74
288.316	3.7
288.688	3.63
289.06	3.79
289.431	3.86
289.803	3.87
290.175	3.9
290.546	4.18
290.918	4.12
291.289	4.22
291.661	4.26
292.032	4.47
292.403	4.45
292.775	4.35
293.146	4.43
293.517	4.42
293.889	4.37
294.26	4.41
294.631	4.27
295.002	4.33
295.373	4.38
295.744	4.45
296.115	4.53
296.486	4.38
296.857	4.37
297.228	4.36
297.599	4.39
297.97	4.42
298.34	4.4
298.711	4.48
299.082	4.43
299.452	4.48
299.823	4.5
300.194	4.49
300.564	4.37
300.935	4.33
301.305	4.28
301.676	4.27
302.046	4.22
302.416	4.43
302.787	4.38
303.157	4.43
303.527	4.47
303.897	4.36
304.267	4.61
304.637	4.56
305.008	4.6
305.378	4.65
305.748	4.61
306.117	4.54
306.487	4.4
306.857	4.39
307.227	4.39
307.597	4.23
307.967	4.36
308.336	4.44
308.706	4.41
309.076	4.54
309.445	4.64
309.815	4.62
310.184	4.46
310.554	4.55
310.923	4.44
311.293	4.31
311.662	4.28
312.031	4.34
312.401	4.28
312.77	4.22
313.139	4.12
313.508	4.1
313.877	4.06
314.246	4.05
314.616	4.04
314.985	4.02
315.353	4.01
315.722	3.81
316.091	3.68
316.46	3.71
316.829	3.55
317.198	3.42
317.567	3.27
317.935	3.25
318.304	3.12
318.672	3.26
319.041	3.36
319.41	3.51
319.778	3.51
320.147	3.58
320.515	3.6
320.883	3.51
321.252	3.56
321.62	3.51
321.988	3.61
322.357	3.64
322.725	3.57
323.093	3.7
323.461	3.66
323.829	3.87
324.197	3.85
324.565	3.9
324.933	3.89
325.301	3.96
325.669	3.96
326.037	3.96
326.405	3.89
326.772	3.86
327.14	3.8
327.508	3.76
327.875	3.71
328.243	3.75
328.61	3.8
328.978	3.71
329.346	3.82
329.713	3.67
330.08	3.71
330.448	3.72
330.815	3.63
331.182	3.74
331.55	3.6
331.917	3.71
332.284	3.72
332.651	3.8
333.018	3.89
333.385	3.95
333.752	3.97
334.119	3.99
334.486	4.08
334.853	4.22
335.22	4.21
335.587	4.26
335.954	4.18
336.32	4.14
336.687	4.22
337.054	4.17
337.42	4.32
337.787	4.33
338.153	4.39
338.52	4.39
338.886	4.35
339.253	4.35
339.619	4.22
339.986	4.25
340.352	4.29
340.718	4.22
341.084	4.18
341.451	4.23
341.817	4.37
342.183	4.32
342.549	4.21
342.915	4.21
343.281	4.24
343.647	4.22
344.013	4.21
344.379	4.19
344.745	4.23
345.11	4.19
345.476	4.18
345.842	4.09
346.208	4.1
346.573	4.07
346.939	4.14
347.304	4.16
347.67	4.09
348.035	4.03
348.401	4.08
348.766	4.13
349.132	4.08
349.497	4.01
349.862	4.12
350.228	4.09
350.593	4.05
350.958	4.04
351.323	4.1
351.688	4.16
352.053	4.15
352.418	4.22
352.783	4.19
353.148	4.18
353.513	4.35
353.878	4.36
354.243	4.44
354.608	4.47
354.972	4.48
355.337	4.6
355.702	4.6
356.066	4.63
356.431	4.62
356.795	4.69
357.16	4.59
357.524	4.5
357.889	4.54
358.253	4.57
358.618	4.61
358.982	4.57
359.346	4.52
359.71	4.59
360.075	4.59
360.439	4.68
360.803	4.65
361.167	4.59
361.531	4.53
361.895	4.53
362.259	4.52
362.623	4.53
362.987	4.47
363.351	4.5
363.714	4.49
364.078	4.48
364.442	4.43
364.806	4.48
365.169	4.52
365.533	4.5
365.896	4.51
366.26	4.51
366.623	4.48
366.987	4.57
367.35	4.49
367.714	4.45
368.077	4.37
368.44	4.41
368.803	4.39
369.167	4.46
369.53	4.36
369.893	4.38
370.256	4.37
370.619	4.42
370.982	4.36
371.345	4.36
371.708	4.38
372.071	4.43
372.434	4.38
372.797	4.35
373.159	4.36
373.522	4.35
373.885	4.35
374.247	4.45
374.61	4.42
374.973	4.4
375.335	4.43
375.698	4.43
376.06	4.41
376.423	4.38
376.785	4.38
377.147	4.5
377.51	4.48
377.872	4.52
378.234	4.5
378.596	4.53
378.958	4.48
379.321	4.49
379.683	4.55
380.045	4.62
380.407	4.64
380.769	4.65
381.13	4.7
381.492	4.71
381.854	4.67
382.216	4.66
382.578	4.7
382.939	4.65
383.301	4.67
383.663	4.67
384.024	4.72
384.386	4.75
384.747	4.73
385.109	4.73
385.47	4.71
385.832	4.72
386.193	4.74
386.554	4.79
386.916	4.79
387.277	4.74
387.638	4.75
387.999	4.72
388.36	4.74
388.721	4.71
389.082	4.69
389.443	4.65
389.804	4.67
390.165	4.7
390.526	4.76
390.887	4.75
391.248	4.77
391.609	4.75
391.969	4.74
392.33	4.72
392.691	4.7
393.051	4.73
393.412	4.75
393.772	4.74
394.133	4.77
394.493	4.73
394.854	4.72
395.214	4.72
395.574	4.73
395.935	4.7
396.295	4.73
396.655	4.72
397.015	4.74
397.376	4.74
397.736	4.74
398.096	4.74
398.456	4.72
398.816	4.74
399.176	4.74
399.535	4.72
399.895	4.73
400.255	4.78
400.615	4.76
400.975	4.72
401.334	4.72
401.694	4.71
402.054	4.71
402.413	4.72
402.773	4.7
403.132	4.7
403.492	4.71
403.851	4.69
404.211	4.7
404.57	4.7
404.929	4.71
405.288	4.7
405.648	4.68
406.007	4.72
406.366	4.69
406.725	4.73
407.084	4.74
407.443	4.76
407.802	4.76
408.161	4.73
408.52	4.72
408.879	4.73
409.238	4.72
409.596	4.74
409.955	4.74
410.314	4.77
410.673	4.78
411.031	4.8
411.39	4.78
411.748	4.79
412.107	4.81
412.465	4.8
412.824	4.81
413.182	4.82
413.54	4.82
413.899	4.85
414.257	4.83
414.615	4.84
414.974	4.84
415.332	4.84
415.69	4.86
416.048	4.86
416.406	4.84
416.764	4.84
417.122	4.84
417.48	4.82
417.838	4.82
418.195	4.82
418.553	4.8
418.911	4.82
419.269	4.84
419.626	4.84
419.984	4.84
420.342	4.85
420.699	4.84
421.057	4.83
421.414	4.81
421.772	4.8
422.129	4.79
422.486	4.78
422.844	4.78
423.201	4.77
423.558	4.79
423.915	4.8
424.273	4.79
424.63	4.78
424.987	4.78
425.344	4.79
425.701	4.79
426.058	4.79
426.415	4.79
426.772	4.78
427.128	4.78
427.485	4.78
427.842	4.78
428.199	4.77
428.555	4.79
428.912	4.81
429.269	4.84
429.625	4.84
429.982	4.83
430.338	4.83
430.695	4.85
431.051	4.82
431.407	4.81
431.764	4.82
432.12	4.82
432.476	4.82
432.832	4.8
433.189	4.81
433.545	4.82
433.901	4.82
434.257	4.81
434.613	4.8
434.969	4.77
435.325	4.76
435.681	4.78
436.036	4.75
436.392	4.74
436.748	4.73
437.104	4.74
437.459	4.73
437.815	4.72
438.171	4.72
438.526	4.73
438.882	4.75
439.237	4.75
439.593	4.74
439.948	4.74
440.304	4.73
440.659	4.71
441.014	4.71
441.369	4.7
441.725	4.69
442.08	4.69
442.435	4.69
442.79	4.7
443.145	4.7
443.5	4.7
443.855	4.7
444.21	4.71
444.565	4.69
444.92	4.69
445.275	4.69
445.629	4.68
445.984	4.68
446.339	4.66
446.693	4.66
447.048	4.66
447.403	4.65
447.757	4.66
448.112	4.66
448.466	4.65
448.82	4.66
449.175	4.67
449.529	4.66
449.883	4.64
450.238	4.63
450.592	4.63
450.946	4.63
451.3	4.62
451.654	4.6
452.008	4.61
452.362	4.62
452.716	4.61
453.07	4.63
453.424	4.63
453.778	4.64
454.132	4.64
454.486	4.65
454.839	4.67
455.193	4.67
455.547	4.67
455.9	4.67
456.254	4.67
456.607	4.68
456.961	4.69
457.314	4.7
457.668	4.71
458.021	4.71
458.375	4.72
458.728	4.73
459.081	4.73
459.434	4.74
459.787	4.73
460.141	4.73
460.494	4.73
460.847	4.73
461.2	4.72
461.553	4.72
461.906	4.71
462.259	4.71
462.611	4.71
462.964	4.7
463.317	4.72
463.67	4.7
464.022	4.7
464.375	4.71
464.728	4.72
465.08	4.7
465.433	4.71
465.785	4.68
466.138	4.69
466.49	4.7
466.843	4.7
467.195	4.7
467.547	4.71
467.899	4.73
468.252	4.73
468.604	4.74
468.956	4.72
469.308	4.73
469.66	4.72
470.012	4.74
470.364	4.75
470.716	4.74
471.068	4.75
471.42	4.74
471.772	4.73
472.123	4.75
472.475	4.77
472.827	4.78
473.178	4.77
473.53	4.78
473.882	4.79
474.233	4.82
474.585	4.79
474.936	4.81
475.288	4.81
475.639	4.81
475.99	4.81
476.342	4.85
476.693	4.86
477.044	4.85
477.395	4.86
477.746	4.85
478.097	4.85
478.448	4.86
478.8	4.87
479.15	4.86
479.501	4.88
479.852	4.87
480.203	4.9
480.554	4.94
480.905	4.96
481.255	4.96
481.606	4.96
481.957	4.97
482.307	4.98
482.658	4.97
483.009	4.96
483.359	4.97
483.709	4.97
484.06	4.98
484.41	4.99
484.761	4.99
485.111	5
485.461	5.01
485.811	5.01
486.162	5.02
486.512	5.03
486.862	5.03
487.212	5.04
487.562	5.03
487.912	5.02
488.262	5
488.612	5
488.961	5
489.311	5.01
489.661	5
490.011	5
490.36	5
490.71	5
491.06	4.99
491.409	4.99
491.759	4.97
492.108	4.98
492.458	4.97
492.807	4.96
493.157	4.96
493.506	4.95
493.855	4.95
494.204	4.94
494.554	4.95
494.903	4.94
495.252	4.95
495.601	4.97
495.95	4.97
496.299	4.95
496.648	4.97
496.997	4.98
497.346	5
497.695	5.02
498.043	5.03
498.392	5.03
498.741	5.03
499.09	5.04
499.438	5.05
499.787	5.07
500.135	5.08
500.484	5.08
500.832	5.1
501.181	5.1
501.529	5.09
501.878	5.09
502.226	5.12
502.574	5.12
502.923	5.12
503.271	5.11
503.619	5.15
503.967	5.14
504.315	5.13
504.663	5.14
505.011	5.15
505.359	5.14
505.707	5.18
506.055	5.19
506.403	5.22
506.751	5.23
507.098	5.23
507.446	5.28
507.794	5.29
508.141	5.28
508.489	5.29
508.837	5.31
509.184	5.3
509.531	5.31
509.879	5.34
510.226	5.35
510.574	5.34
510.921	5.35
511.268	5.34
511.616	5.35
511.963	5.35
512.31	5.34
512.657	5.37
513.004	5.36
513.351	5.39
513.698	5.4
514.045	5.39
514.392	5.39
514.739	5.38
515.086	5.4
515.432	5.43
515.779	5.44
516.126	5.46
516.473	5.48
516.819	5.48
517.166	5.48
517.512	5.48
517.859	5.5
518.205	5.51
518.552	5.55
518.898	5.55
519.245	5.55
519.591	5.55
519.937	5.53
520.283	5.54
520.629	5.54
520.976	5.54
521.322	5.55
521.668	5.55
522.014	5.57
522.36	5.57
522.706	5.57
523.052	5.58
523.398	5.61
523.743	5.6
524.089	5.61
524.435	5.63
524.781	5.64
525.126	5.64
525.472	5.66
525.817	5.66
526.163	5.68
526.509	5.69
526.854	5.71
527.199	5.74
527.545	5.74
527.89	5.74
528.235	5.76
528.581	5.77
528.926	5.77
529.271	5.77
529.616	5.77
529.961	5.76
530.306	5.77
530.651	5.76
530.996	5.76
531.341	5.77
531.686	5.77
532.031	5.78
532.376	5.78
532.721	5.79
533.065	5.78
533.41	5.78
533.755	5.77
534.099	5.77
534.444	5.76
534.788	5.77
535.133	5.76
535.477	5.75
535.822	5.76
536.166	5.77
536.51	5.78
536.855	5.79
537.199	5.81
537.543	5.81
537.887	5.8
538.231	5.82
538.576	5.81
538.92	5.82
539.264	5.8
539.608	5.81
539.951	5.8
540.295	5.81
540.639	5.8
540.983	5.81
541.327	5.81
541.671	5.83
542.014	5.83
542.358	5.84
542.701	5.83
543.045	5.85
543.389	5.86
543.732	5.85
544.075	5.86
544.419	5.86
544.762	5.87
545.105	5.89
545.449	5.89
545.792	5.89
546.135	5.91
546.478	5.94
546.821	5.93
547.165	5.94
547.508	5.94
547.851	5.96
548.194	5.93
548.536	5.93
548.879	5.93
549.222	5.94
549.565	5.93
549.908	5.95
550.25	5.93
550.593	5.93
550.936	5.92
551.278	5.92
551.621	5.91
551.963	5.9
552.306	5.92
552.648	5.89
552.991	5.93
553.333	5.89
553.675	5.91
554.017	5.93
554.36	5.93
554.702	5.95
555.044	5.92
555.386	5.96
555.728	5.96
556.07	5.97
556.412	5.97
556.754	5.99
557.096	5.98
557.438	5.94
557.78	5.94
558.121	5.95
558.463	5.98
558.805	5.99
559.147	5.98
559.488	5.96
559.83	6.01
560.171	5.97
560.513	6.03
560.854	5.98
561.196	5.99
561.537	5.99
561.878	6.02
562.22	6.05
562.561	6.06
562.902	6.09
563.243	6.05
563.584	6.06
563.925	6.07
564.266	6.08
564.607	6.11
564.948	6.14
565.289	6.14
565.63	6.11
565.971	6.12
566.312	6.12
566.653	6.11
566.993	6.09
567.334	6.1
567.675	6.08
568.015	6.09
568.356	6.07
568.696	6.11
569.037	6.07
569.377	6.05
569.718	6.05
570.058	6.04
570.398	6.06
570.739	6.06
571.079	6.08
571.419	6.11
571.759	6.12
572.099	6.11
572.439	6.1
572.779	6.13
573.119	6.14
573.459	6.14
573.799	6.16
574.139	6.17
574.479	6.16
574.819	6.16
575.158	6.16
575.498	6.17
575.838	6.14
576.177	6.14
576.517	6.14
576.856	6.14
577.196	6.15
577.535	6.12
577.875	6.12
578.214	6.1
578.553	6.08
578.893	6.07
579.232	6.06
579.571	6.09
579.91	6.07
580.25	6.05
580.589	6.02
580.928	6.05
581.267	6.07
581.606	6.1
581.945	6.08
582.283	6.1
582.622	6.09
582.961	6.13
583.3	6.17
583.639	6.2
583.977	6.21
584.316	6.17
584.654	6.19
584.993	6.18
585.332	6.21
585.67	6.21
586.008	6.23
586.347	6.24
586.685	6.18
587.024	6.16
587.362	6.17
587.7	6.24
588.038	6.21
588.376	6.19
588.715	6.22
589.053	6.25
589.391	6.25
589.729	6.27
590.067	6.23
590.404	6.16
590.742	6.18
591.08	6.18
591.418	6.24
591.756	6.23
592.093	6.25
592.431	6.27
592.769	6.27
593.106	6.28
593.444	6.25
593.781	6.27
594.119	6.3
594.456	6.29
594.793	6.28
595.131	6.28
595.468	6.28
595.805	6.26
596.143	6.26
596.48	6.24
596.817	6.28
597.154	6.3
597.491	6.34
597.828	6.31
598.165	6.28
598.502	6.26
598.839	6.3
599.176	6.28
599.512	6.26
599.849	6.26
600.186	6.28
600.523	6.32
600.859	6.35
601.196	6.34
601.532	6.34
601.869	6.33
602.205	6.34
602.542	6.34
602.878	6.35
603.215	6.37
603.551	6.38
603.887	6.35
604.223	6.34
604.56	6.37
604.896	6.41
605.232	6.44
605.568	6.45
605.904	6.45
606.24	6.47
606.576	6.49
606.912	6.47
607.248	6.44
607.583	6.44
607.919	6.43
608.255	6.42
608.591	6.47
608.926	6.46
609.262	6.47
609.597	6.52
609.933	6.51
610.268	6.48
610.604	6.51
610.939	6.52
611.275	6.52
611.61	6.46
611.945	6.44
612.281	6.43
612.616	6.42
612.951	6.46
613.286	6.43
613.621	6.42
613.956	6.45
614.291	6.43
614.626	6.42
614.961	6.37
615.296	6.35
615.631	6.35
615.966	6.37
616.3	6.32
616.635	6.24
616.97	6.28
617.304	6.29
617.639	6.29
617.973	6.27
618.308	6.34
618.642	6.38
618.977	6.38
619.311	6.4
619.646	6.44
619.98	6.41
620.314	6.44
620.648	6.48
620.983	6.5
621.317	6.51
621.651	6.54
621.985	6.64
622.319	6.68
622.653	6.66
622.987	6.67
623.321	6.71
623.655	6.77
623.988	6.78
624.322	6.77
624.656	6.74
624.99	6.74
625.323	6.68
625.657	6.69
625.99	6.71
626.324	6.68
626.657	6.66
626.991	6.66
627.324	6.67
627.658	6.64
627.991	6.66
628.324	6.69
628.657	6.69
628.991	6.67
629.324	6.66
629.657	6.64
629.99	6.66
630.323	6.64
630.656	6.64
630.989	6.63
631.322	6.61
631.655	6.66
631.987	6.68
632.32	6.69
632.653	6.65
632.986	6.66
633.318	6.68
633.651	6.68
633.984	6.67
634.316	6.68
634.649	6.7
634.981	6.66
635.313	6.68
635.646	6.65
635.978	6.64
636.31	6.67
636.643	6.69
636.975	6.68
637.307	6.65
637.639	6.61
637.971	6.61
638.303	6.64
638.635	6.63
638.967	6.68
639.299	6.72
639.631	6.78
639.963	6.73
640.295	6.75
640.626	6.75
640.958	6.78
641.29	6.79
641.621	6.71
641.953	6.69
642.285	6.65
642.616	6.66
642.948	6.63
643.279	6.61
643.61	6.62
643.942	6.49
644.273	6.53
644.604	6.54
644.936	6.53
645.267	6.53
645.598	6.56
645.929	6.57
646.26	6.54
646.591	6.54
646.922	6.59
647.253	6.56
647.584	6.54
647.915	6.46
648.245	6.42
648.576	6.54
648.907	6.55
649.238	6.56
649.568	6.56
649.899	6.62
650.229	6.61
650.56	6.66
650.89	6.81
651.221	6.84
651.551	6.86
651.882	6.88
652.212	6.88
652.542	6.8
652.872	6.69
653.203	6.74
653.533	6.77
653.863	6.77
654.193	6.79
654.523	6.76
654.853	6.91
655.183	6.92
655.513	6.88
655.843	6.91
656.172	6.96
656.502	7.01
656.832	7
657.162	7.14
657.491	7.12
657.821	7.11
658.15	7.11
658.48	7.09
658.809	7.11
659.139	7.13
659.468	7.17
659.798	7.26
660.127	7.22
660.456	7.19
660.785	7.2
661.115	7.23
661.444	7.22
661.773	7.15
662.102	7.18
662.431	7.21
662.76	7.19
663.089	7.15
663.418	7.11
663.747	7.1
664.076	7.01
664.404	6.93
664.733	6.9
665.062	6.85
665.39	6.88
665.719	6.85
666.048	6.81
666.376	6.81
666.705	6.76
667.033	6.77
667.362	6.76
667.69	6.76
668.018	6.69
668.347	6.75
668.675	6.77
669.003	6.83
669.331	6.82
669.659	6.86
669.987	6.88
670.315	6.88
670.643	6.85
670.971	6.87
671.299	6.9
671.627	7.02
671.955	7.07
672.283	7.05
672.61	6.98
672.938	6.97
673.266	7.05
673.593	7.12
673.921	7.16
674.249	7.17
674.576	7.17
674.904	7.1
675.231	7.08
675.558	7.06
