Data from BA57663_Reflection_00015.txt Node
Date: Mon Nov 18 15:44:19 EST 2019
User: vgr7
Spectrometer: USB2G7710
Scans to average: 3
Trigger mode: 4
Integration Time (sec): 2.000000E-2
Electric dark correction enabled: true
Boxcar width: 10
XAxis mode: Wavelengths
Number of Pixels in Spectrum: 2048
>>>>>Begin Spectral Data<<<<<
177.721	-216.29
178.105	117.34
178.488	152.39
178.871	180.36
179.254	91.64
179.636	179.65
180.019	-24.65
180.402	89.29
180.785	8.55
181.168	47.32
181.55	8.81
181.933	45.05
182.316	42.8
182.698	32.98
183.081	40.63
183.463	55.1
183.846	46.15
184.228	54.87
184.611	77.26
184.993	75.79
185.376	94.42
185.758	63.7
186.14	74.31
186.522	71.76
186.904	81.38
187.287	71.25
187.669	92.23
188.051	93.49
188.433	65.19
188.815	62.67
189.197	32.63
189.579	83
189.961	101.92
190.342	164.49
190.724	2170.42
191.106	1199.38
191.488	383.29
191.869	2533.96
192.251	1267.94
192.633	-1303.67
193.014	-711.07
193.396	689.44
193.777	459.53
194.159	818.03
194.54	724.57
194.922	-1018.34
195.303	-511.29
195.684	-74900
196.065	-23.56
196.447	-85.37
196.828	-127.89
197.209	-114.43
197.59	-145.21
197.971	-103.11
198.352	-75.2
198.733	-504.24
199.114	-871.22
199.495	-315.62
199.876	-277.4
200.257	-130.1
200.638	-48.99
201.018	-13.92
201.399	36.07
201.78	37.93
202.16	36.09
202.541	29.67
202.922	-27.22
203.302	-107.62
203.683	-222.53
204.063	-275.55
204.444	-496.73
204.824	-369.19
205.204	-196.39
205.585	-142.17
205.965	-78.63
206.345	-139.74
206.725	-25.75
207.106	-70.08
207.486	-300.44
207.866	853.3
208.246	380.32
208.626	220.71
209.006	236.2
209.386	237.56
209.766	139.82
210.145	113.24
210.525	195.67
210.905	80.35
211.285	56.29
211.664	276.47
212.044	248.24
212.424	1325.35
212.803	4709.76
213.183	499.48
213.562	367.55
213.942	7534.78
214.321	-792.68
214.701	-404.42
215.08	-500
215.459	-568.02
215.838	-60.66
216.218	-93.05
216.597	-6.36
216.976	-22.97
217.355	-14.45
217.734	-13.78
218.113	4.04
218.492	23.33
218.871	-9.13
219.25	-13.25
219.629	14.29
220.008	22
220.387	12.86
220.766	36.82
221.144	115.76
221.523	127.31
221.902	11.94
222.28	-145.9
222.659	-204.81
223.037	-211.78
223.416	-77.82
223.794	-167.15
224.173	-78.86
224.551	-32.34
224.929	-6.92
225.308	-8.62
225.686	-2.5
226.064	8.68
226.442	3.88
226.821	1.79
227.199	0.5
227.577	1.07
227.955	5.15
228.333	3.95
228.711	0.98
229.089	5.89
229.467	3.21
229.845	6.87
230.222	9.47
230.6	9.49
230.978	8.41
231.356	9.03
231.733	10.61
232.111	10.62
232.488	8.59
232.866	8.65
233.243	9.73
233.621	9.55
233.998	8.91
234.376	7.84
234.753	8.61
235.13	8.26
235.508	8.75
235.885	6.86
236.262	6.23
236.639	7.65
237.016	5.92
237.393	7.65
237.77	6.91
238.147	7.08
238.524	7.09
238.901	7.98
239.278	7.66
239.655	7.42
240.032	6.93
240.409	6.73
240.785	6.57
241.162	6.49
241.539	6.28
241.915	5.87
242.292	5.55
242.668	5.18
243.045	5.73
243.421	5.19
243.798	5.29
244.174	5.18
244.551	5.2
244.927	5.13
245.303	4.93
245.679	4.85
246.056	4.79
246.432	4.57
246.808	4.52
247.184	4.33
247.56	4.24
247.936	4.48
248.312	4.49
248.688	4.44
249.064	4.37
249.44	4.31
249.815	4.13
250.191	4.3
250.567	4.35
250.943	3.89
251.318	3.96
251.694	3.86
252.069	4.01
252.445	3.89
252.82	3.95
253.196	3.79
253.571	3.81
253.947	3.84
254.322	4.14
254.697	3.8
255.073	3.73
255.448	3.84
255.823	3.66
256.198	3.73
256.573	3.45
256.948	3.65
257.323	3.49
257.698	3.71
258.073	3.69
258.448	3.63
258.823	3.75
259.198	3.75
259.573	3.77
259.948	3.79
260.322	3.78
260.697	3.65
261.072	3.7
261.446	3.63
261.821	3.47
262.195	3.4
262.57	3.42
262.944	3.35
263.319	3.27
263.693	3.3
264.067	3.34
264.442	3.58
264.816	3.42
265.19	3.56
265.564	3.67
265.938	3.66
266.313	3.79
266.687	3.76
267.061	3.76
267.435	3.85
267.809	3.78
268.183	3.67
268.556	3.67
268.93	3.68
269.304	3.83
269.678	4.06
270.051	3.94
270.425	3.99
270.799	4.04
271.172	4.14
271.546	4.18
271.919	4.06
272.293	4.11
272.666	4.15
273.04	4.1
273.413	3.93
273.787	4.08
274.16	3.95
274.533	4.08
274.906	4.04
275.279	3.93
275.653	3.92
276.026	3.99
276.399	4.02
276.772	3.9
277.145	3.68
277.518	3.7
277.891	3.87
278.263	3.76
278.636	3.8
279.009	3.79
279.382	3.73
279.755	3.82
280.127	3.76
280.5	3.86
280.872	4.08
281.245	4.05
281.617	3.85
281.99	4.08
282.362	4.04
282.735	4
283.107	4.01
283.479	4.07
283.852	4.15
284.224	4.2
284.596	4.17
284.968	4.3
285.34	4.34
285.713	4.22
286.085	4.29
286.457	4.37
286.829	4.25
287.201	4.42
287.572	4.36
287.944	4.32
288.316	4.28
288.688	4.15
289.06	4.09
289.431	4.24
289.803	4.08
290.175	4.08
290.546	4.22
290.918	4.22
291.289	4.18
291.661	4.13
292.032	4.08
292.403	4.09
292.775	4.1
293.146	3.89
293.517	4
293.889	4.11
294.26	4.05
294.631	4.15
295.002	3.89
295.373	3.91
295.744	4.05
296.115	4.04
296.486	4.03
296.857	4.09
297.228	4.22
297.599	4.23
297.97	4.19
298.34	4.13
298.711	4.24
299.082	4.25
299.452	4.2
299.823	4.29
300.194	4.39
300.564	4.29
300.935	4.39
301.305	4.32
301.676	4.29
302.046	4.32
302.416	4.49
302.787	4.67
303.157	4.83
303.527	4.66
303.897	4.72
304.267	4.88
304.637	5.09
305.008	5.08
305.378	5.19
305.748	5.22
306.117	5.27
306.487	5.32
306.857	5.49
307.227	5.67
307.597	5.71
307.967	5.87
308.336	6.07
308.706	6.24
309.076	6.51
309.445	6.54
309.815	6.59
310.184	6.49
310.554	6.63
310.923	6.6
311.293	6.68
311.662	6.72
312.031	6.71
312.401	6.64
312.77	6.73
313.139	6.92
313.508	6.94
313.877	7.03
314.246	7.08
314.616	7.03
314.985	7.19
315.353	7.33
315.722	7.4
316.091	7.44
316.46	7.35
316.829	7.35
317.198	7.58
317.567	7.69
317.935	7.89
318.304	7.84
318.672	7.89
319.041	8.11
319.41	8.12
319.778	8.24
320.147	8.32
320.515	8.18
320.883	8.15
321.252	8.38
321.62	8.61
321.988	8.7
322.357	8.76
322.725	8.72
323.093	8.66
323.461	8.61
323.829	8.61
324.197	8.79
324.565	8.72
324.933	8.74
325.301	8.74
325.669	8.81
326.037	8.84
326.405	8.84
326.772	8.85
327.14	8.95
327.508	8.81
327.875	8.79
328.243	8.97
328.61	9.01
328.978	9.02
329.346	8.96
329.713	9.06
330.08	9.09
330.448	9.11
330.815	9.08
331.182	9.11
331.55	9.37
331.917	9.26
332.284	9.45
332.651	9.43
333.018	9.44
333.385	9.39
333.752	9.49
334.119	9.65
334.486	9.65
334.853	9.65
335.22	9.79
335.587	10
335.954	9.91
336.32	9.91
336.687	9.92
337.054	9.92
337.42	9.83
337.787	9.97
338.153	9.93
338.52	10.03
338.886	10.13
339.253	10.01
339.619	10.14
339.986	10.12
340.352	10.16
340.718	10.25
341.084	10.21
341.451	10.22
341.817	10.29
342.183	10.27
342.549	10.32
342.915	10.56
343.281	10.48
343.647	10.45
344.013	10.58
344.379	10.56
344.745	10.58
345.11	10.67
345.476	10.66
345.842	10.8
346.208	10.82
346.573	10.84
346.939	10.94
347.304	10.92
347.67	10.95
348.035	10.92
348.401	10.86
348.766	10.93
349.132	10.9
349.497	10.86
349.862	10.98
350.228	10.9
350.593	10.73
350.958	10.77
351.323	10.9
351.688	10.86
352.053	10.92
352.418	10.93
352.783	10.91
353.148	10.9
353.513	10.85
353.878	10.87
354.243	10.9
354.608	10.88
354.972	10.89
355.337	10.9
355.702	10.94
356.066	10.99
356.431	10.95
356.795	11.02
357.16	10.95
357.524	10.83
357.889	10.82
358.253	10.85
358.618	10.8
358.982	10.68
359.346	10.61
359.71	10.55
360.075	10.62
360.439	10.64
360.803	10.61
361.167	10.61
361.531	10.47
361.895	10.41
362.259	10.35
362.623	10.32
362.987	10.22
363.351	10.18
363.714	10.16
364.078	10.13
364.442	10
364.806	10.03
365.169	10.05
365.533	10.03
365.896	10.03
366.26	10
366.623	10.01
366.987	10
367.35	9.98
367.714	9.86
368.077	9.81
368.44	9.77
368.803	9.71
369.167	9.65
369.53	9.54
369.893	9.52
370.256	9.5
370.619	9.52
370.982	9.45
371.345	9.37
371.708	9.34
372.071	9.26
372.434	9.11
372.797	9.03
373.159	8.95
373.522	8.85
373.885	8.8
374.247	8.72
374.61	8.72
374.973	8.61
375.335	8.56
375.698	8.48
376.06	8.41
376.423	8.3
376.785	8.37
377.147	8.39
377.51	8.3
377.872	8.26
378.234	8.18
378.596	8.09
378.958	8.03
379.321	8.05
379.683	8.05
380.045	8.04
380.407	8.03
380.769	7.94
381.13	7.85
381.492	7.81
381.854	7.71
382.216	7.62
382.578	7.59
382.939	7.52
383.301	7.41
383.663	7.32
384.024	7.3
384.386	7.26
384.747	7.18
385.109	7.17
385.47	7.04
385.832	7
386.193	7
386.554	6.94
386.916	6.81
387.277	6.78
387.638	6.72
387.999	6.64
388.36	6.62
388.721	6.63
389.082	6.59
389.443	6.57
389.804	6.5
390.165	6.46
390.526	6.39
390.887	6.4
391.248	6.44
391.609	6.42
391.969	6.39
392.33	6.33
392.691	6.26
393.051	6.26
393.412	6.23
393.772	6.18
394.133	6.11
394.493	6.07
394.854	6.01
395.214	6
395.574	5.95
395.935	5.91
396.295	5.86
396.655	5.78
397.015	5.73
397.376	5.73
397.736	5.66
398.096	5.68
398.456	5.61
398.816	5.53
399.176	5.47
399.535	5.38
399.895	5.36
400.255	5.36
400.615	5.29
400.975	5.23
401.334	5.19
401.694	5.2
402.054	5.21
402.413	5.2
402.773	5.15
403.132	5.14
403.492	5.1
403.851	5.06
404.211	5.09
404.57	5.07
404.929	5.05
405.288	5.05
405.648	5.01
406.007	4.98
406.366	4.96
406.725	4.93
407.084	4.96
407.443	4.95
407.802	4.94
408.161	4.91
408.52	4.9
408.879	4.88
409.238	4.87
409.596	4.82
409.955	4.76
410.314	4.74
410.673	4.7
411.031	4.71
411.39	4.7
411.748	4.66
412.107	4.68
412.465	4.64
412.824	4.61
413.182	4.57
413.54	4.55
413.899	4.53
414.257	4.52
414.615	4.47
414.974	4.44
415.332	4.4
415.69	4.4
416.048	4.36
416.406	4.33
416.764	4.3
417.122	4.3
417.48	4.3
417.838	4.28
418.195	4.28
418.553	4.26
418.911	4.23
419.269	4.25
419.626	4.22
419.984	4.19
420.342	4.18
420.699	4.15
421.057	4.15
421.414	4.14
421.772	4.11
422.129	4.1
422.486	4.09
422.844	4.08
423.201	4.06
423.558	4.05
423.915	4.04
424.273	4.03
424.63	4.02
424.987	4
425.344	3.98
425.701	3.97
426.058	3.96
426.415	3.95
426.772	3.91
427.128	3.9
427.485	3.89
427.842	3.89
428.199	3.91
428.555	3.88
428.912	3.89
429.269	3.91
429.625	3.9
429.982	3.88
430.338	3.87
430.695	3.89
431.051	3.88
431.407	3.87
431.764	3.86
432.12	3.84
432.476	3.84
432.832	3.84
433.189	3.85
433.545	3.84
433.901	3.83
434.257	3.81
434.613	3.82
434.969	3.83
435.325	3.82
435.681	3.82
436.036	3.84
436.392	3.84
436.748	3.81
437.104	3.81
437.459	3.8
437.815	3.79
438.171	3.78
438.526	3.8
438.882	3.82
439.237	3.82
439.593	3.83
439.948	3.81
440.304	3.81
440.659	3.79
441.014	3.79
441.369	3.79
441.725	3.78
442.08	3.77
442.435	3.77
442.79	3.76
443.145	3.75
443.5	3.74
443.855	3.71
444.21	3.7
444.565	3.69
444.92	3.7
445.275	3.69
445.629	3.67
445.984	3.64
446.339	3.62
446.693	3.6
447.048	3.59
447.403	3.59
447.757	3.58
448.112	3.58
448.466	3.57
448.82	3.56
449.175	3.57
449.529	3.55
449.883	3.54
450.238	3.52
450.592	3.51
450.946	3.49
451.3	3.5
451.654	3.5
452.008	3.49
452.362	3.47
452.716	3.48
453.07	3.5
453.424	3.51
453.778	3.51
454.132	3.52
454.486	3.51
454.839	3.5
455.193	3.5
455.547	3.49
455.9	3.51
456.254	3.52
456.607	3.5
456.961	3.5
457.314	3.49
457.668	3.51
458.021	3.51
458.375	3.52
458.728	3.52
459.081	3.53
459.434	3.53
459.787	3.53
460.141	3.52
460.494	3.51
460.847	3.52
461.2	3.52
461.553	3.53
461.906	3.55
462.259	3.58
462.611	3.6
462.964	3.6
463.317	3.61
463.67	3.62
464.022	3.64
464.375	3.65
464.728	3.67
465.08	3.68
465.433	3.7
465.785	3.72
466.138	3.73
466.49	3.74
466.843	3.74
467.195	3.77
467.547	3.78
467.899	3.77
468.252	3.77
468.604	3.78
468.956	3.78
469.308	3.78
469.66	3.77
470.012	3.76
470.364	3.77
470.716	3.78
471.068	3.78
471.42	3.78
471.772	3.79
472.123	3.8
472.475	3.79
472.827	3.8
473.178	3.8
473.53	3.78
473.882	3.78
474.233	3.79
474.585	3.78
474.936	3.78
475.288	3.78
475.639	3.77
475.99	3.76
476.342	3.75
476.693	3.76
477.044	3.76
477.395	3.75
477.746	3.73
478.097	3.7
478.448	3.7
478.8	3.7
479.15	3.68
479.501	3.67
479.852	3.68
480.203	3.69
480.554	3.68
480.905	3.68
481.255	3.68
481.606	3.7
481.957	3.71
482.307	3.72
482.658	3.72
483.009	3.73
483.359	3.73
483.709	3.74
484.06	3.74
484.41	3.74
484.761	3.75
485.111	3.75
485.461	3.77
485.811	3.78
486.162	3.78
486.512	3.78
486.862	3.8
487.212	3.8
487.562	3.8
487.912	3.8
488.262	3.8
488.612	3.81
488.961	3.81
489.311	3.82
489.661	3.82
490.011	3.83
490.36	3.83
490.71	3.84
491.06	3.84
491.409	3.86
491.759	3.87
492.108	3.88
492.458	3.9
492.807	3.89
493.157	3.9
493.506	3.93
493.855	3.95
494.204	3.95
494.554	3.96
494.903	3.99
495.252	4.01
495.601	4.06
495.95	4.09
496.299	4.09
496.648	4.1
496.997	4.13
497.346	4.18
497.695	4.22
498.043	4.25
498.392	4.28
498.741	4.31
499.09	4.32
499.438	4.36
499.787	4.39
500.135	4.45
500.484	4.48
500.832	4.52
501.181	4.56
501.529	4.6
501.878	4.68
502.226	4.73
502.574	4.76
502.923	4.77
503.271	4.83
503.619	4.92
503.967	4.96
504.315	5.03
504.663	5.06
505.011	5.11
505.359	5.15
505.707	5.21
506.055	5.27
506.403	5.36
506.751	5.41
507.098	5.47
507.446	5.52
507.794	5.59
508.141	5.64
508.489	5.72
508.837	5.79
509.184	5.83
509.531	5.9
509.879	5.98
510.226	6.06
510.574	6.13
510.921	6.19
511.268	6.28
511.616	6.34
511.963	6.44
512.31	6.52
512.657	6.62
513.004	6.7
513.351	6.81
513.698	6.87
514.045	6.97
514.392	7.06
514.739	7.16
515.086	7.26
515.432	7.37
515.779	7.45
516.126	7.56
516.473	7.67
516.819	7.78
517.166	7.87
517.512	7.95
517.859	8.04
518.205	8.13
518.552	8.2
518.898	8.28
519.245	8.35
519.591	8.44
519.937	8.53
520.283	8.63
520.629	8.72
520.976	8.83
521.322	8.95
521.668	9.07
522.014	9.19
522.36	9.32
522.706	9.42
523.052	9.6
523.398	9.77
523.743	9.96
524.089	10.15
524.435	10.32
524.781	10.51
525.126	10.69
525.472	10.84
525.817	10.98
526.163	11.12
526.509	11.26
526.854	11.37
527.199	11.5
527.545	11.62
527.89	11.76
528.235	11.9
528.581	12.03
528.926	12.15
529.271	12.28
529.616	12.4
529.961	12.56
530.306	12.69
530.651	12.81
530.996	12.93
531.341	13.07
531.686	13.24
532.031	13.4
532.376	13.55
532.721	13.74
533.065	13.91
533.41	14.11
533.755	14.31
534.099	14.53
534.444	14.71
534.788	14.91
535.133	15.09
535.477	15.29
535.822	15.49
536.166	15.73
536.51	16
536.855	16.28
537.199	16.55
537.543	16.81
537.887	17.12
538.231	17.42
538.576	17.71
538.92	18
539.264	18.26
539.608	18.53
539.951	18.79
540.295	19.04
540.639	19.27
540.983	19.49
541.327	19.73
541.671	19.98
542.014	20.19
542.358	20.4
542.701	20.63
543.045	20.88
543.389	21.09
543.732	21.31
544.075	21.55
544.419	21.78
544.762	22.04
545.105	22.31
545.449	22.55
545.792	22.81
546.135	23.11
546.478	23.42
546.821	23.74
547.165	24.02
547.508	24.33
547.851	24.67
548.194	24.98
548.536	25.26
548.879	25.57
549.222	25.92
549.565	26.25
549.908	26.58
550.25	26.89
550.593	27.26
550.936	27.59
551.278	27.93
551.621	28.28
551.963	28.62
552.306	28.95
552.648	29.29
552.991	29.6
553.333	29.89
553.675	30.16
554.017	30.47
554.36	30.78
554.702	31.08
555.044	31.33
555.386	31.62
555.728	31.93
556.07	32.24
556.412	32.52
556.754	32.78
557.096	33.04
557.438	33.32
557.78	33.57
558.121	33.92
558.463	34.2
558.805	34.46
559.147	34.72
559.488	34.93
559.83	35.18
560.171	35.48
560.513	35.72
560.854	35.94
561.196	36.15
561.537	36.38
561.878	36.62
562.22	36.91
562.561	37.15
562.902	37.35
563.243	37.54
563.584	37.73
563.925	37.97
564.266	38.23
564.607	38.39
564.948	38.6
565.289	38.67
565.63	38.85
565.971	39
566.312	39.19
566.653	39.35
566.993	39.51
567.334	39.65
567.675	39.83
568.015	40.06
568.356	40.2
568.696	40.37
569.037	40.55
569.377	40.68
569.718	40.84
570.058	41.02
570.398	41.13
570.739	41.35
571.079	41.53
571.419	41.59
571.759	41.75
572.099	41.87
572.439	42.07
572.779	42.17
573.119	42.29
573.459	42.43
573.799	42.63
574.139	42.78
574.479	42.91
574.819	43.02
575.158	43.12
575.498	43.3
575.838	43.42
576.177	43.55
576.517	43.7
576.856	43.86
577.196	43.98
577.535	44.16
577.875	44.32
578.214	44.39
578.553	44.61
578.893	44.8
579.232	44.98
579.571	45.09
579.91	45.31
580.25	45.49
580.589	45.62
580.928	45.73
581.267	45.89
581.606	46.01
581.945	46.11
582.283	46.22
582.622	46.31
582.961	46.38
583.3	46.49
583.639	46.57
583.977	46.63
584.316	46.72
584.654	46.87
584.993	46.95
585.332	47.06
585.67	47.17
586.008	47.25
586.347	47.31
586.685	47.38
587.024	47.44
587.362	47.56
587.7	47.61
588.038	47.68
588.376	47.73
588.715	47.79
589.053	47.91
589.391	47.99
589.729	48.09
590.067	48.21
590.404	48.25
590.742	48.3
591.08	48.37
591.418	48.39
591.756	48.36
592.093	48.33
592.431	48.41
592.769	48.43
593.106	48.48
593.444	48.48
593.781	48.49
594.119	48.52
594.456	48.42
594.793	48.41
595.131	48.41
595.468	48.42
595.805	48.5
596.143	48.47
596.48	48.56
596.817	48.66
597.154	48.69
597.491	48.78
597.828	48.77
598.165	48.8
598.502	48.89
598.839	48.95
599.176	49.07
599.512	49.04
599.849	49.02
600.186	49.01
600.523	49.1
600.859	49.23
601.196	49.24
601.532	49.28
601.869	49.28
602.205	49.33
602.542	49.37
602.878	49.39
603.215	49.46
603.551	49.43
603.887	49.46
604.223	49.46
604.56	49.49
604.896	49.59
605.232	49.61
605.568	49.58
605.904	49.67
606.24	49.68
606.576	49.72
606.912	49.86
607.248	49.89
607.583	49.91
607.919	49.9
608.255	50.01
608.591	50.12
608.926	50.2
609.262	50.28
609.597	50.35
609.933	50.4
610.268	50.47
610.604	50.54
610.939	50.51
611.275	50.59
611.61	50.65
611.945	50.68
612.281	50.69
612.616	50.82
612.951	50.85
613.286	50.92
613.621	51.04
613.956	51.04
614.291	51.17
614.626	51.28
614.961	51.36
615.296	51.33
615.631	51.37
615.966	51.43
616.3	51.54
616.635	51.61
616.97	51.57
617.304	51.52
617.639	51.54
617.973	51.55
618.308	51.6
618.642	51.65
618.977	51.76
619.311	51.83
619.646	51.88
619.98	51.88
620.314	51.89
620.648	51.97
620.983	51.94
621.317	51.99
621.651	51.94
621.985	52.01
622.319	52.01
622.653	52.06
622.987	52.14
623.321	52.06
623.655	51.98
623.988	51.98
624.322	51.95
624.656	51.9
624.99	51.92
625.323	51.89
625.657	51.8
625.99	51.71
626.324	51.77
626.657	51.79
626.991	51.87
627.324	51.93
627.658	51.83
627.991	51.89
628.324	51.86
628.657	51.91
628.991	51.84
629.324	51.92
629.657	51.83
629.99	51.77
630.323	51.73
630.656	51.77
630.989	51.83
631.322	51.92
631.655	51.96
631.987	51.93
632.32	52
632.653	52.02
632.986	52.07
633.318	52.1
633.651	52.05
633.984	51.95
634.316	51.87
634.649	51.93
634.981	51.98
635.313	51.88
635.646	51.93
635.978	51.94
636.31	51.98
636.643	52.05
636.975	52.19
637.307	52.32
637.639	52.32
637.971	52.37
638.303	52.5
638.635	52.52
638.967	52.6
639.299	52.55
639.631	52.58
639.963	52.59
640.295	52.62
640.626	52.68
640.958	52.77
641.29	52.81
641.621	52.76
641.953	52.76
642.285	52.91
642.616	52.85
642.948	53.06
643.279	53.02
643.61	53.07
643.942	53.13
644.273	53.08
644.604	53.1
644.936	53.11
645.267	52.96
645.598	53.03
645.929	53.04
646.26	53.08
646.591	53.15
646.922	53.11
647.253	53.14
647.584	53.03
647.915	53.04
648.245	53.16
648.576	53.3
648.907	53.17
649.238	53.17
649.568	53.14
649.899	52.99
650.229	52.96
650.56	52.97
650.89	52.88
651.221	52.86
651.551	52.88
651.882	52.95
652.212	53.02
652.542	52.99
652.872	53.01
653.203	53.02
653.533	53.01
653.863	53.12
654.193	53.01
654.523	53.2
654.853	53.13
655.183	52.95
655.513	52.92
655.843	53.08
656.172	53.05
656.502	53.03
656.832	52.96
657.162	52.97
657.491	53.03
657.821	52.97
658.15	53.02
658.48	53.11
658.809	53.13
659.139	53.24
659.468	53.18
659.798	53.2
660.127	53.2
660.456	53.16
660.785	53.14
661.115	53.13
661.444	53.04
661.773	53.09
662.102	53.13
662.431	53.04
662.76	52.97
663.089	52.92
663.418	53.03
663.747	53.07
664.076	53.1
664.404	53.17
664.733	53.35
665.062	53.43
665.39	53.29
665.719	53.19
666.048	53.1
666.376	53.28
