Data from BA57662_Reflection_00009.txt Node
Date: Mon Nov 18 15:34:40 EST 2019
User: vgr7
Spectrometer: USB2G7710
Scans to average: 3
Trigger mode: 4
Integration Time (sec): 2.000000E-2
Electric dark correction enabled: true
Boxcar width: 10
XAxis mode: Wavelengths
Number of Pixels in Spectrum: 2048
>>>>>Begin Spectral Data<<<<<
177.721	172.12
178.105	118.26
178.488	116.99
178.871	189.21
179.254	469.02
179.636	-712.03
180.019	496.79
180.402	217.65
180.785	50.45
181.168	176.49
181.55	418.02
181.933	120.75
182.316	86.46
182.698	52.5
183.081	62.08
183.463	47.77
183.846	96.68
184.228	86.78
184.611	87.06
184.993	132.84
185.376	168.1
185.758	261.33
186.14	250.22
186.522	472.51
186.904	-455.3
187.287	-1238.65
187.669	-192.92
188.051	-190.88
188.433	-66.27
188.815	-35.8
189.197	-22.81
189.579	-29.73
189.961	-40.99
190.342	-62.58
190.724	-37.64
191.106	-55.4
191.488	-62.68
191.869	-43.35
192.251	-46.5
192.633	-68.28
193.014	-68.42
193.396	-79.71
193.777	-94.39
194.159	-151.66
194.54	-119.62
194.922	-112.81
195.303	-80.64
195.684	-92.03
196.065	-16.5
196.447	-8.93
196.828	-33.58
197.209	-34.52
197.59	4.83
197.971	10.15
198.352	12.85
198.733	-19.89
199.114	-22.68
199.495	-25.23
199.876	-19.41
200.257	-17.85
200.638	4.53
201.018	2.8
201.399	-12.88
201.78	-17.67
202.16	-25.9
202.541	-46.45
202.922	-69.48
203.302	-70.86
203.683	-82.59
204.063	-144.77
204.444	-133.63
204.824	-137.61
205.204	-115.13
205.585	-138.66
205.965	-127.07
206.345	-125.2
206.725	-140.99
207.106	-163.32
207.486	-187.88
207.866	-192.05
208.246	-180.01
208.626	-201.91
209.006	-197.4
209.386	-213.42
209.766	-195.08
210.145	-204.57
210.525	-178.25
210.905	-147.75
211.285	-154.16
211.664	-134.49
212.044	-129.93
212.424	-121.69
212.803	-124.57
213.183	-123.04
213.562	-108.16
213.942	-113.05
214.321	-105.44
214.701	-110.05
215.08	-72.21
215.459	-58.35
215.838	-47.37
216.218	-47.73
216.597	-18.47
216.976	-12.4
217.355	8.21
217.734	20.72
218.113	8.25
218.492	11.12
218.871	5.71
219.25	13.16
219.629	19.46
220.008	24.26
220.387	17.58
220.766	21.09
221.144	18.44
221.523	17.3
221.902	15.39
222.28	4.8
222.659	19.21
223.037	20.3
223.416	13.33
223.794	2.83
224.173	7.1
224.551	-5.58
224.929	-16.15
225.308	-18.28
225.686	-19.95
226.064	-15.14
226.442	-10.57
226.821	-7.39
227.199	-11.12
227.577	-15.61
227.955	-16
228.333	-13.76
228.711	-11.8
229.089	-8.21
229.467	-9.22
229.845	-9.23
230.222	-8.02
230.6	-11.42
230.978	-12.25
231.356	-10.05
231.733	-8.41
232.111	-7.68
232.488	-4.06
232.866	-2.09
233.243	-1.82
233.621	-2.63
233.998	-1.97
234.376	-4.49
234.753	-5.52
235.13	-3.97
235.508	-0.72
235.885	0.08
236.262	-0.45
236.639	-0.74
237.016	-2.87
237.393	-0.94
237.77	0.26
238.147	1.16
238.524	2.19
238.901	4.05
239.278	4.19
239.655	4.07
240.032	3.31
240.409	2.84
240.785	3.12
241.162	3.53
241.539	3.95
241.915	3.92
242.292	4.15
242.668	5.05
243.045	5.2
243.421	5.09
243.798	5.05
244.174	4.92
244.551	4.99
244.927	4.95
245.303	5.23
245.679	5.37
246.056	5.19
246.432	5.13
246.808	4.73
247.184	4.73
247.56	4.67
247.936	4.8
248.312	4.66
248.688	4.59
249.064	4.53
249.44	4.55
249.815	4.39
250.191	4.23
250.567	3.78
250.943	3.39
251.318	3.57
251.694	3.48
252.069	3.45
252.445	3.29
252.82	3.42
253.196	2.98
253.571	2.81
253.947	2.75
254.322	2.85
254.697	3.1
255.073	2.58
255.448	2.53
255.823	2.44
256.198	2.53
256.573	2.71
256.948	2.66
257.323	2.55
257.698	2.76
258.073	2.99
258.448	3.18
258.823	3.34
259.198	3.25
259.573	3.08
259.948	3.16
260.322	3.21
260.697	3.19
261.072	2.95
261.446	2.93
261.821	3
262.195	3.04
262.57	2.87
262.944	2.99
263.319	3
263.693	2.96
264.067	3.01
264.442	3.05
264.816	3.04
265.19	3.17
265.564	3.22
265.938	3.13
266.313	3.08
266.687	3.13
267.061	3.03
267.435	3.22
267.809	3.26
268.183	3.24
268.556	3.29
268.93	3.56
269.304	3.53
269.678	3.65
270.051	3.58
270.425	3.59
270.799	3.65
271.172	3.62
271.546	3.68
271.919	3.62
272.293	3.43
272.666	3.58
273.04	3.43
273.413	3.38
273.787	3.37
274.16	3.42
274.533	3.41
274.906	3.36
275.279	3.28
275.653	3.25
276.026	3.26
276.399	3.21
276.772	3.3
277.145	3.39
277.518	3.2
277.891	3.17
278.263	3.3
278.636	3.32
279.009	3.45
279.382	3.44
279.755	3.36
280.127	3.62
280.5	3.67
280.872	3.72
281.245	3.67
281.617	3.7
281.99	3.83
282.362	3.89
282.735	3.78
283.107	3.83
283.479	3.76
283.852	3.8
284.224	3.81
284.596	3.73
284.968	3.64
285.34	3.68
285.713	3.62
286.085	3.51
286.457	3.56
286.829	3.51
287.201	3.57
287.572	3.51
287.944	3.44
288.316	3.31
288.688	3.24
289.06	3.16
289.431	3.05
289.803	2.94
290.175	2.91
290.546	3.02
290.918	2.99
291.289	2.97
291.661	3.07
292.032	3.16
292.403	3.22
292.775	3.33
293.146	3.35
293.517	3.36
293.889	3.44
294.26	3.37
294.631	3.32
295.002	3.42
295.373	3.72
295.744	3.74
296.115	3.78
296.486	3.75
296.857	3.74
297.228	3.77
297.599	3.67
297.97	3.71
298.34	3.73
298.711	3.76
299.082	3.82
299.452	3.77
299.823	3.77
300.194	3.77
300.564	3.71
300.935	3.75
301.305	3.81
301.676	3.88
302.046	3.86
302.416	3.97
302.787	3.79
303.157	3.59
303.527	3.49
303.897	3.46
304.267	3.8
304.637	3.97
305.008	4.17
305.378	4.32
305.748	4.36
306.117	4.31
306.487	4.43
306.857	4.49
307.227	4.48
307.597	4.46
307.967	4.51
308.336	4.58
308.706	4.56
309.076	4.6
309.445	4.55
309.815	4.52
310.184	4.43
310.554	4.58
310.923	4.61
311.293	4.64
311.662	4.69
312.031	4.56
312.401	4.54
312.77	4.58
313.139	4.52
313.508	4.66
313.877	4.71
314.246	4.69
314.616	4.64
314.985	4.51
315.353	4.5
315.722	4.53
316.091	4.43
316.46	4.38
316.829	4.29
317.198	4.44
317.567	4.48
317.935	4.45
318.304	4.5
318.672	4.62
319.041	4.75
319.41	4.83
319.778	4.97
320.147	5.12
320.515	5.08
320.883	5.17
321.252	5.13
321.62	5.29
321.988	5.32
322.357	5.4
322.725	5.59
323.093	5.72
323.461	5.76
323.829	5.83
324.197	6.02
324.565	6.13
324.933	6.11
325.301	6.29
325.669	6.44
326.037	6.38
326.405	6.41
326.772	6.48
327.14	6.47
327.508	6.42
327.875	6.46
328.243	6.59
328.61	6.69
328.978	6.74
329.346	6.96
329.713	6.96
330.08	7.05
330.448	6.97
330.815	6.95
331.182	6.97
331.55	7.11
331.917	7.1
332.284	7.13
332.651	7.19
333.018	7.12
333.385	7.18
333.752	7.27
334.119	7.31
334.486	7.29
334.853	7.34
335.22	7.43
335.587	7.45
335.954	7.46
336.32	7.42
336.687	7.33
337.054	7.12
337.42	7.16
337.787	7.19
338.153	7.38
338.52	7.43
338.886	7.33
339.253	7.31
339.619	7.35
339.986	7.47
340.352	7.39
340.718	7.46
341.084	7.57
341.451	7.68
341.817	7.77
342.183	7.81
342.549	7.87
342.915	7.94
343.281	7.87
343.647	7.82
344.013	7.91
344.379	7.97
344.745	8.08
345.11	8.25
345.476	8.38
345.842	8.34
346.208	8.34
346.573	8.44
346.939	8.51
347.304	8.51
347.67	8.53
348.035	8.68
348.401	8.79
348.766	8.72
349.132	8.69
349.497	8.66
349.862	8.78
350.228	8.83
350.593	8.82
350.958	8.91
351.323	9
351.688	8.9
352.053	8.96
352.418	8.96
352.783	8.76
353.148	8.63
353.513	8.71
353.878	8.73
354.243	8.79
354.608	8.76
354.972	8.72
355.337	8.78
355.702	8.8
356.066	8.86
356.431	8.85
356.795	8.9
357.16	8.86
357.524	8.64
357.889	8.56
358.253	8.64
358.618	8.64
358.982	8.63
359.346	8.7
359.71	8.7
360.075	8.68
360.439	8.77
360.803	8.83
361.167	8.79
361.531	8.73
361.895	8.7
362.259	8.63
362.623	8.7
362.987	8.61
363.351	8.53
363.714	8.44
364.078	8.46
364.442	8.34
364.806	8.31
365.169	8.43
365.533	8.5
365.896	8.38
366.26	8.35
366.623	8.31
366.987	8.26
367.35	8.18
367.714	8.13
368.077	8.08
368.44	7.96
368.803	7.88
369.167	7.85
369.53	7.72
369.893	7.77
370.256	7.68
370.619	7.64
370.982	7.56
371.345	7.51
371.708	7.49
372.071	7.44
372.434	7.41
372.797	7.36
373.159	7.22
373.522	7.19
373.885	7.15
374.247	7.18
374.61	7.14
374.973	7.06
375.335	7.05
375.698	7
376.06	7.02
376.423	7.02
376.785	7.02
377.147	7.07
377.51	7.01
377.872	7.01
378.234	6.98
378.596	6.95
378.958	6.95
379.321	6.89
379.683	6.93
380.045	6.91
380.407	6.81
380.769	6.76
381.13	6.75
381.492	6.74
381.854	6.65
382.216	6.62
382.578	6.64
382.939	6.59
383.301	6.58
383.663	6.54
384.024	6.46
384.386	6.43
384.747	6.42
385.109	6.4
385.47	6.35
385.832	6.31
386.193	6.37
386.554	6.31
386.916	6.29
387.277	6.24
387.638	6.25
387.999	6.27
388.36	6.26
388.721	6.19
389.082	6.14
389.443	6.09
389.804	6.06
390.165	5.99
390.526	5.96
390.887	5.91
391.248	5.85
391.609	5.83
391.969	5.8
392.33	5.72
392.691	5.68
393.051	5.64
393.412	5.62
393.772	5.52
394.133	5.46
394.493	5.41
394.854	5.34
395.214	5.27
395.574	5.21
395.935	5.14
396.295	5.15
396.655	5.07
397.015	5.04
397.376	4.97
397.736	4.92
398.096	4.88
398.456	4.83
398.816	4.79
399.176	4.76
399.535	4.71
399.895	4.69
400.255	4.63
400.615	4.66
400.975	4.63
401.334	4.6
401.694	4.6
402.054	4.54
402.413	4.52
402.773	4.46
403.132	4.45
403.492	4.47
403.851	4.41
404.211	4.41
404.57	4.4
404.929	4.42
405.288	4.43
405.648	4.38
406.007	4.4
406.366	4.41
406.725	4.4
407.084	4.39
407.443	4.39
407.802	4.42
408.161	4.36
408.52	4.32
408.879	4.3
409.238	4.28
409.596	4.28
409.955	4.29
410.314	4.3
410.673	4.3
411.031	4.27
411.39	4.27
411.748	4.25
412.107	4.23
412.465	4.17
412.824	4.15
413.182	4.11
413.54	4.09
413.899	4.05
414.257	4.02
414.615	4.02
414.974	3.99
415.332	3.96
415.69	3.93
416.048	3.92
416.406	3.92
416.764	3.88
417.122	3.88
417.48	3.84
417.838	3.79
418.195	3.74
418.553	3.73
418.911	3.69
419.269	3.69
419.626	3.67
419.984	3.67
420.342	3.66
420.699	3.67
421.057	3.64
421.414	3.62
421.772	3.61
422.129	3.61
422.486	3.59
422.844	3.57
423.201	3.56
423.558	3.54
423.915	3.51
424.273	3.53
424.63	3.49
424.987	3.49
425.344	3.51
425.701	3.52
426.058	3.51
426.415	3.5
426.772	3.47
427.128	3.47
427.485	3.45
427.842	3.43
428.199	3.43
428.555	3.42
428.912	3.42
429.269	3.41
429.625	3.38
429.982	3.38
430.338	3.37
430.695	3.38
431.051	3.38
431.407	3.4
431.764	3.37
432.12	3.36
432.476	3.35
432.832	3.35
433.189	3.33
433.545	3.33
433.901	3.34
434.257	3.36
434.613	3.36
434.969	3.37
435.325	3.37
435.681	3.37
436.036	3.37
436.392	3.38
436.748	3.37
437.104	3.35
437.459	3.35
437.815	3.33
438.171	3.32
438.526	3.33
438.882	3.32
439.237	3.33
439.593	3.34
439.948	3.35
440.304	3.34
440.659	3.34
441.014	3.34
441.369	3.32
441.725	3.3
442.08	3.27
442.435	3.25
442.79	3.25
443.145	3.24
443.5	3.23
443.855	3.21
444.21	3.22
444.565	3.24
444.92	3.24
445.275	3.24
445.629	3.24
445.984	3.23
446.339	3.22
446.693	3.21
447.048	3.19
447.403	3.17
447.757	3.15
448.112	3.14
448.466	3.13
448.82	3.14
449.175	3.15
449.529	3.16
449.883	3.17
450.238	3.15
450.592	3.16
450.946	3.15
451.3	3.14
451.654	3.13
452.008	3.13
452.362	3.1
452.716	3.11
453.07	3.1
453.424	3.1
453.778	3.09
454.132	3.08
454.486	3.07
454.839	3.08
455.193	3.08
455.547	3.09
455.9	3.1
456.254	3.08
456.607	3.06
456.961	3.07
457.314	3.06
457.668	3.06
458.021	3.05
458.375	3.06
458.728	3.06
459.081	3.06
459.434	3.04
459.787	3.04
460.141	3.03
460.494	3.02
460.847	3.02
461.2	3.01
461.553	3.02
461.906	3.05
462.259	3.06
462.611	3.08
462.964	3.08
463.317	3.1
463.67	3.12
464.022	3.12
464.375	3.12
464.728	3.14
465.08	3.16
465.433	3.16
465.785	3.16
466.138	3.17
466.49	3.18
466.843	3.19
467.195	3.19
467.547	3.22
467.899	3.24
468.252	3.24
468.604	3.25
468.956	3.24
469.308	3.24
469.66	3.24
470.012	3.24
470.364	3.26
470.716	3.25
471.068	3.24
471.42	3.23
471.772	3.26
472.123	3.24
472.475	3.23
472.827	3.24
473.178	3.25
473.53	3.25
473.882	3.24
474.233	3.24
474.585	3.25
474.936	3.24
475.288	3.25
475.639	3.27
475.99	3.27
476.342	3.26
476.693	3.25
477.044	3.25
477.395	3.26
477.746	3.24
478.097	3.26
478.448	3.27
478.8	3.28
479.15	3.27
479.501	3.28
479.852	3.29
480.203	3.3
480.554	3.29
480.905	3.29
481.255	3.3
481.606	3.31
481.957	3.31
482.307	3.32
482.658	3.32
483.009	3.31
483.359	3.3
483.709	3.31
484.06	3.32
484.41	3.32
484.761	3.31
485.111	3.32
485.461	3.32
485.811	3.32
486.162	3.32
486.512	3.33
486.862	3.32
487.212	3.31
487.562	3.31
487.912	3.32
488.262	3.32
488.612	3.32
488.961	3.31
489.311	3.31
489.661	3.3
490.011	3.31
490.36	3.31
490.71	3.33
491.06	3.33
491.409	3.33
491.759	3.33
492.108	3.33
492.458	3.33
492.807	3.31
493.157	3.32
493.506	3.34
493.855	3.33
494.204	3.35
494.554	3.38
494.903	3.38
495.252	3.4
495.601	3.42
495.95	3.44
496.299	3.46
496.648	3.48
496.997	3.5
497.346	3.51
497.695	3.54
498.043	3.56
498.392	3.56
498.741	3.57
499.09	3.59
499.438	3.62
499.787	3.64
500.135	3.68
500.484	3.69
500.832	3.7
501.181	3.73
501.529	3.75
501.878	3.77
502.226	3.79
502.574	3.8
502.923	3.81
503.271	3.84
503.619	3.86
503.967	3.87
504.315	3.88
504.663	3.88
505.011	3.91
505.359	3.9
505.707	3.96
506.055	3.99
506.403	4.03
506.751	4.07
507.098	4.08
507.446	4.12
507.794	4.14
508.141	4.18
508.489	4.19
508.837	4.21
509.184	4.24
509.531	4.28
509.879	4.31
510.226	4.35
510.574	4.37
510.921	4.41
511.268	4.46
511.616	4.49
511.963	4.54
512.31	4.58
512.657	4.64
513.004	4.67
513.351	4.73
513.698	4.76
514.045	4.79
514.392	4.84
514.739	4.89
515.086	4.94
515.432	4.98
515.779	5.04
516.126	5.09
516.473	5.14
516.819	5.19
517.166	5.23
517.512	5.26
517.859	5.3
518.205	5.33
518.552	5.38
518.898	5.43
519.245	5.46
519.591	5.48
519.937	5.51
520.283	5.55
520.629	5.58
520.976	5.62
521.322	5.66
521.668	5.72
522.014	5.78
522.36	5.84
522.706	5.93
523.052	5.98
523.398	6.08
523.743	6.17
524.089	6.25
524.435	6.35
524.781	6.42
525.126	6.5
525.472	6.57
525.817	6.63
526.163	6.68
526.509	6.76
526.854	6.83
527.199	6.9
527.545	6.96
527.89	7.03
528.235	7.1
528.581	7.17
528.926	7.23
529.271	7.31
529.616	7.38
529.961	7.44
530.306	7.52
530.651	7.58
530.996	7.65
531.341	7.73
531.686	7.81
532.031	7.92
532.376	8.01
532.721	8.11
533.065	8.22
533.41	8.35
533.755	8.46
534.099	8.57
534.444	8.69
534.788	8.84
535.133	8.97
535.477	9.11
535.822	9.27
536.166	9.42
536.51	9.61
536.855	9.79
537.199	9.99
537.543	10.2
537.887	10.41
538.231	10.6
538.576	10.84
538.92	11.05
539.264	11.25
539.608	11.47
539.951	11.67
540.295	11.86
540.639	12.05
540.983	12.24
541.327	12.45
541.671	12.62
542.014	12.81
542.358	13
542.701	13.19
543.045	13.39
543.389	13.6
543.732	13.78
544.075	13.99
544.419	14.21
544.762	14.46
545.105	14.7
545.449	14.99
545.792	15.24
546.135	15.53
546.478	15.86
546.821	16.15
547.165	16.47
547.508	16.82
547.851	17.16
548.194	17.48
548.536	17.81
548.879	18.15
549.222	18.51
549.565	18.87
549.908	19.22
550.25	19.56
550.593	19.94
550.936	20.31
551.278	20.68
551.621	21.06
551.963	21.47
552.306	21.84
552.648	22.21
552.991	22.57
553.333	22.91
553.675	23.25
554.017	23.63
554.36	23.99
554.702	24.34
555.044	24.66
555.386	25.02
555.728	25.4
556.07	25.8
556.412	26.11
556.754	26.52
557.096	26.86
557.438	27.24
557.78	27.61
558.121	28.01
558.463	28.39
558.805	28.78
559.147	29.06
559.488	29.39
559.83	29.74
560.171	30.09
560.513	30.44
560.854	30.75
561.196	31.09
561.537	31.46
561.878	31.79
562.22	32.15
562.561	32.44
562.902	32.77
563.243	33.03
563.584	33.44
563.925	33.72
564.266	33.96
564.607	34.25
564.948	34.51
565.289	34.77
565.63	35
565.971	35.23
566.312	35.53
566.653	35.79
566.993	36.05
567.334	36.31
567.675	36.57
568.015	36.82
568.356	37.03
568.696	37.28
569.037	37.52
569.377	37.74
569.718	38
570.058	38.22
570.398	38.48
570.739	38.67
571.079	38.9
571.419	39.18
571.759	39.41
572.099	39.61
572.439	39.83
572.779	40
573.119	40.18
573.459	40.33
573.799	40.56
574.139	40.77
574.479	40.95
574.819	41.16
575.158	41.33
575.498	41.58
575.838	41.74
576.177	41.91
576.517	42.13
576.856	42.28
577.196	42.45
577.535	42.67
577.875	42.87
578.214	43.06
578.553	43.21
578.893	43.42
579.232	43.62
579.571	43.76
579.91	44.02
580.25	44.23
580.589	44.41
580.928	44.56
581.267	44.74
581.606	44.9
581.945	45.04
582.283	45.22
582.622	45.28
582.961	45.43
583.3	45.6
583.639	45.75
583.977	45.88
584.316	46.05
584.654	46.16
584.993	46.22
585.332	46.33
585.67	46.43
586.008	46.52
586.347	46.59
586.685	46.8
587.024	46.87
587.362	46.97
587.7	47.07
588.038	47.16
588.376	47.14
588.715	47.21
589.053	47.31
589.391	47.43
589.729	47.55
590.067	47.7
590.404	47.68
590.742	47.75
591.08	47.88
591.418	48.02
591.756	48.13
592.093	48.22
592.431	48.26
592.769	48.41
593.106	48.48
593.444	48.59
593.781	48.67
594.119	48.84
594.456	48.91
594.793	49.01
595.131	49.06
595.468	49.26
595.805	49.42
596.143	49.53
596.48	49.57
596.817	49.68
597.154	49.7
597.491	49.86
597.828	49.91
598.165	50.06
598.502	50.06
598.839	50.06
599.176	50.17
599.512	50.26
599.849	50.29
600.186	50.38
600.523	50.44
600.859	50.47
601.196	50.44
601.532	50.46
601.869	50.5
602.205	50.54
602.542	50.56
602.878	50.53
603.215	50.47
603.551	50.6
603.887	50.63
604.223	50.74
604.56	50.78
604.896	50.84
605.232	50.85
605.568	50.84
605.904	50.93
606.24	50.98
606.576	51.05
606.912	51.15
607.248	51.17
607.583	51.22
607.919	51.26
608.255	51.34
608.591	51.4
608.926	51.43
609.262	51.54
609.597	51.61
609.933	51.7
610.268	51.88
610.604	51.85
610.939	51.84
611.275	51.81
611.61	51.79
611.945	51.82
612.281	51.8
612.616	51.97
612.951	52
613.286	52.08
613.621	52.17
613.956	52.23
614.291	52.31
614.626	52.41
614.961	52.48
615.296	52.53
615.631	52.58
615.966	52.75
616.3	52.78
616.635	52.77
616.97	52.72
617.304	52.61
617.639	52.67
617.973	52.71
618.308	52.78
618.642	52.79
618.977	52.9
619.311	53.03
619.646	53.1
619.98	53.25
620.314	53.31
620.648	53.3
620.983	53.27
621.317	53.25
621.651	53.38
621.985	53.38
622.319	53.4
622.653	53.46
622.987	53.45
623.321	53.5
623.655	53.57
623.988	53.73
624.322	53.84
624.656	53.86
624.99	53.88
625.323	53.94
625.657	54.02
625.99	54.02
626.324	53.99
626.657	53.88
626.991	53.79
627.324	53.76
627.658	53.81
627.991	53.93
628.324	53.95
628.657	53.94
628.991	54.01
629.324	54.07
629.657	54.13
629.99	54.16
630.323	54.13
630.656	54.13
630.989	54.04
631.322	53.99
631.655	54.12
631.987	54.12
632.32	54.01
632.653	54.03
632.986	54.08
633.318	54.18
633.651	54.24
633.984	54.22
634.316	54.23
634.649	54.26
634.981	54.25
635.313	54.33
635.646	54.28
635.978	54.25
636.31	54.31
636.643	54.25
636.975	54.16
637.307	54.13
637.639	54.14
637.971	54.24
638.303	54.34
638.635	54.27
638.967	54.32
639.299	54.38
639.631	54.39
639.963	54.33
640.295	54.27
640.626	54.3
640.958	54.41
641.29	54.41
641.621	54.32
641.953	54.25
642.285	54.19
642.616	54.18
642.948	54.2
643.279	54.19
643.61	54.21
643.942	54.34
644.273	54.44
644.604	54.36
644.936	54.25
645.267	54.28
645.598	54.26
645.929	54.37
646.26	54.48
646.591	54.49
646.922	54.59
647.253	54.53
647.584	54.57
647.915	54.53
648.245	54.53
648.576	54.55
648.907	54.64
649.238	54.69
649.568	54.69
649.899	54.73
650.229	54.7
650.56	54.84
650.89	54.82
651.221	54.74
651.551	54.86
651.882	54.98
652.212	54.93
652.542	54.96
652.872	54.95
653.203	54.96
653.533	55
653.863	54.94
654.193	54.97
654.523	55.01
654.853	54.93
655.183	54.95
655.513	54.98
655.843	55.01
656.172	55
656.502	55.07
656.832	55.13
657.162	55.25
657.491	55.21
657.821	55.28
658.15	55.44
658.48	55.4
658.809	55.42
659.139	55.45
659.468	55.44
659.798	55.36
660.127	55.37
660.456	55.41
660.785	55.46
661.115	55.52
661.444	55.37
661.773	55.57
662.102	55.62
662.431	55.64
662.76	55.65
663.089	55.71
663.418	55.71
663.747	55.61
664.076	55.54
664.404	55.62
664.733	55.59
665.062	55.6
665.39	55.51
665.719	55.53
666.048	55.51
666.376	55.47
666.705	55.42
667.033	55.33
