Data from BA57662_Reflection_00013.txt Node
Date: Mon Nov 18 15:34:53 EST 2019
User: vgr7
Spectrometer: USB2G7710
Scans to average: 3
Trigger mode: 4
Integration Time (sec): 2.000000E-2
Electric dark correction enabled: true
Boxcar width: 10
XAxis mode: Wavelengths
Number of Pixels in Spectrum: 2048
>>>>>Begin Spectral Data<<<<<
177.721	-78.59
178.105	-21.7
178.488	-5.69
178.871	-12.33
179.254	45.33
179.636	190.23
180.019	-200.6
180.402	182.35
180.785	-151.89
181.168	-201.7
181.55	-260.42
181.933	41.21
182.316	48.53
182.698	56.82
183.081	51.24
183.463	30.35
183.846	46.87
184.228	18.03
184.611	41.78
184.993	39.01
185.376	92.43
185.758	138.41
186.14	144.18
186.522	259.65
186.904	-225.06
187.287	-617.13
187.669	-105.04
188.051	-146.51
188.433	-83.47
188.815	-83.33
189.197	-98.73
189.579	-104.57
189.961	-63.37
190.342	-56.84
190.724	-28.03
191.106	-37.54
191.488	-33.26
191.869	-6.72
192.251	-16.57
192.633	-10.31
193.014	-7.17
193.396	-3.42
193.777	12.29
194.159	-13.55
194.54	11.54
194.922	14.24
195.303	13.85
195.684	62.94
196.065	63.84
196.447	97.13
196.828	48.21
197.209	52.36
197.59	51.31
197.971	34.11
198.352	43.16
198.733	40.06
199.114	26.39
199.495	13.3
199.876	22.46
200.257	39.56
200.638	51.53
201.018	35.72
201.399	48.26
201.78	37.06
202.16	38.45
202.541	22.38
202.922	13.42
203.302	3.79
203.683	-4.79
204.063	-0.04
204.444	-19.41
204.824	13.6
205.204	9.2
205.585	7.27
205.965	-6.35
206.345	-11.14
206.725	-35.35
207.106	-14.56
207.486	-7.7
207.866	-17.69
208.246	-37.98
208.626	-52.97
209.006	-31.02
209.386	-39.53
209.766	-21.38
210.145	-21.83
210.525	-1.58
210.905	5
211.285	31.01
211.664	21.29
212.044	12.73
212.424	26.1
212.803	10.17
213.183	44.79
213.562	34.47
213.942	53.33
214.321	53.92
214.701	64.64
215.08	45.04
215.459	31.02
215.838	34.15
216.218	32.29
216.597	40.77
216.976	38.82
217.355	28.46
217.734	26.01
218.113	29.77
218.492	23.5
218.871	20.03
219.25	13.16
219.629	7.22
220.008	8.7
220.387	16.47
220.766	12.56
221.144	-10.53
221.523	-11.75
221.902	-11.13
222.28	-23.12
222.659	-17.61
223.037	-18.58
223.416	-20.54
223.794	-24.68
224.173	-18.76
224.551	-14.85
224.929	-13.63
225.308	-13.84
225.686	-16.95
226.064	-17.04
226.442	-15.06
226.821	-6.64
227.199	-8.51
227.577	-7.88
227.955	-6.49
228.333	-7.21
228.711	-6.17
229.089	-2.54
229.467	-2.41
229.845	-3.49
230.222	-2.77
230.6	0.11
230.978	1.89
231.356	2.85
231.733	1.84
232.111	2.14
232.488	2.54
232.866	3.75
233.243	4.99
233.621	6.31
233.998	6.02
234.376	5.01
234.753	1
235.13	1.35
235.508	2.11
235.885	-0.24
236.262	-1.21
236.639	-0.31
237.016	-0.71
237.393	0.31
237.77	0.49
238.147	0.63
238.524	0.31
238.901	0.58
239.278	1.35
239.655	2.18
240.032	2.06
240.409	1.67
240.785	1.84
241.162	2.27
241.539	2.11
241.915	1.66
242.292	1.62
242.668	2.33
243.045	2.16
243.421	2.2
243.798	2.26
244.174	2.19
244.551	1.95
244.927	1.9
245.303	1.69
245.679	1.73
246.056	1.76
246.432	1.76
246.808	1.55
247.184	1.13
247.56	0.92
247.936	0.82
248.312	0.9
248.688	0.96
249.064	0.81
249.44	0.6
249.815	0.85
250.191	1.06
250.567	1.12
250.943	1.25
251.318	1.25
251.694	1.37
252.069	1.43
252.445	1.37
252.82	1.45
253.196	1.51
253.571	1.45
253.947	1.28
254.322	1.39
254.697	1.29
255.073	1.36
255.448	1.59
255.823	1.84
256.198	1.62
256.573	1.29
256.948	1.54
257.323	1.72
257.698	1.81
258.073	1.71
258.448	1.5
258.823	1.32
259.198	1.29
259.573	1.26
259.948	1.28
260.322	1.39
260.697	1.35
261.072	1.27
261.446	1.35
261.821	1.37
262.195	1.34
262.57	1.35
262.944	1.2
263.319	1.16
263.693	1.07
264.067	1.05
264.442	1.19
264.816	0.81
265.19	0.75
265.564	0.65
265.938	0.66
266.313	0.68
266.687	0.78
267.061	0.83
267.435	0.91
267.809	0.77
268.183	0.78
268.556	0.82
268.93	0.71
269.304	0.79
269.678	0.89
270.051	0.86
270.425	0.89
270.799	1.11
271.172	1.15
271.546	1.21
271.919	1.17
272.293	1.1
272.666	1.4
273.04	1.6
273.413	1.63
273.787	1.56
274.16	1.62
274.533	1.54
274.906	1.45
275.279	1.44
275.653	1.55
276.026	1.56
276.399	1.67
276.772	1.97
277.145	1.78
277.518	1.74
277.891	1.76
278.263	1.63
278.636	1.74
279.009	1.79
279.382	1.82
279.755	1.78
280.127	2.08
280.5	1.96
280.872	1.8
281.245	1.72
281.617	1.82
281.99	1.82
282.362	2.04
282.735	1.97
283.107	1.9
283.479	1.97
283.852	1.98
284.224	1.9
284.596	1.92
284.968	2.03
285.34	2.09
285.713	2.06
286.085	2.15
286.457	2.2
286.829	2.07
287.201	2.04
287.572	2.09
287.944	1.92
288.316	1.93
288.688	1.81
289.06	1.89
289.431	1.9
289.803	1.95
290.175	1.81
290.546	1.97
290.918	2.03
291.289	2.01
291.661	2.09
292.032	2.1
292.403	2.11
292.775	2.17
293.146	2.09
293.517	2.16
293.889	2.28
294.26	2.19
294.631	2.29
295.002	2.18
295.373	2.24
295.744	2.27
296.115	2.27
296.486	2.22
296.857	2.13
297.228	2.17
297.599	2.15
297.97	2.29
298.34	2.32
298.711	2.39
299.082	2.36
299.452	2.24
299.823	2.31
300.194	2.25
300.564	2.17
300.935	2.3
301.305	2.26
301.676	2.31
302.046	2.5
302.416	2.52
302.787	2.59
303.157	2.65
303.527	2.58
303.897	2.66
304.267	2.82
304.637	2.95
305.008	2.87
305.378	2.92
305.748	2.99
306.117	2.99
306.487	2.95
306.857	3
307.227	3.19
307.597	3.14
307.967	3.19
308.336	3.31
308.706	3.32
309.076	3.31
309.445	3.14
309.815	2.98
310.184	2.97
310.554	3
310.923	2.93
311.293	2.99
311.662	2.94
312.031	3.04
312.401	3.03
312.77	3.15
313.139	3.21
313.508	3.18
313.877	3.15
314.246	3.26
314.616	3.26
314.985	3.08
315.353	3.11
315.722	3.16
316.091	3.19
316.46	3.23
316.829	3.33
317.198	3.53
317.567	3.59
317.935	3.62
318.304	3.75
318.672	3.76
319.041	3.94
319.41	4.13
319.778	4.2
320.147	4.22
320.515	4.22
320.883	4.15
321.252	4.37
321.62	4.43
321.988	4.47
322.357	4.53
322.725	4.47
323.093	4.51
323.461	4.65
323.829	4.82
324.197	4.88
324.565	4.95
324.933	4.94
325.301	5.03
325.669	5.06
326.037	5.09
326.405	5.32
326.772	5.36
327.14	5.43
327.508	5.52
327.875	5.5
328.243	5.65
328.61	5.79
328.978	5.76
329.346	5.87
329.713	5.81
330.08	6
330.448	6.25
330.815	6.31
331.182	6.39
331.55	6.38
331.917	6.39
332.284	6.45
332.651	6.45
333.018	6.53
333.385	6.64
333.752	6.64
334.119	6.71
334.486	6.71
334.853	6.73
335.22	6.85
335.587	7.01
335.954	6.95
336.32	6.93
336.687	7.02
337.054	7
337.42	7.15
337.787	7.1
338.153	7.25
338.52	7.37
338.886	7.24
339.253	7.24
339.619	7.35
339.986	7.42
340.352	7.53
340.718	7.54
341.084	7.51
341.451	7.62
341.817	7.63
342.183	7.7
342.549	7.69
342.915	7.55
343.281	7.53
343.647	7.52
344.013	7.63
344.379	7.56
344.745	7.63
345.11	7.57
345.476	7.54
345.842	7.53
346.208	7.46
346.573	7.61
346.939	7.67
347.304	7.6
347.67	7.51
348.035	7.44
348.401	7.44
348.766	7.51
349.132	7.5
349.497	7.48
349.862	7.43
350.228	7.48
350.593	7.55
350.958	7.56
351.323	7.66
351.688	7.6
352.053	7.58
352.418	7.56
352.783	7.63
353.148	7.65
353.513	7.66
353.878	7.69
354.243	7.69
354.608	7.62
354.972	7.66
355.337	7.72
355.702	7.82
356.066	7.87
356.431	7.9
356.795	7.98
357.16	7.96
357.524	7.92
357.889	7.88
358.253	7.76
358.618	7.83
358.982	7.76
359.346	7.74
359.71	7.75
360.075	7.72
360.439	7.69
360.803	7.6
361.167	7.57
361.531	7.52
361.895	7.48
362.259	7.45
362.623	7.43
362.987	7.37
363.351	7.29
363.714	7.24
364.078	7.16
364.442	7.04
364.806	7.02
365.169	7.04
365.533	7.03
365.896	7.1
366.26	7.01
366.623	7.06
366.987	6.94
367.35	6.89
367.714	6.86
368.077	6.84
368.44	6.9
368.803	6.79
369.167	6.81
369.53	6.77
369.893	6.75
370.256	6.7
370.619	6.73
370.982	6.68
371.345	6.64
371.708	6.61
372.071	6.6
372.434	6.58
372.797	6.55
373.159	6.5
373.522	6.51
373.885	6.54
374.247	6.45
374.61	6.52
374.973	6.47
375.335	6.44
375.698	6.44
376.06	6.38
376.423	6.38
376.785	6.35
377.147	6.37
377.51	6.3
377.872	6.32
378.234	6.27
378.596	6.3
378.958	6.28
379.321	6.21
379.683	6.2
380.045	6.16
380.407	6.08
380.769	6.02
381.13	5.96
381.492	5.86
381.854	5.83
382.216	5.75
382.578	5.7
382.939	5.64
383.301	5.55
383.663	5.52
384.024	5.51
384.386	5.51
384.747	5.45
385.109	5.44
385.47	5.38
385.832	5.34
386.193	5.28
386.554	5.21
386.916	5.24
387.277	5.2
387.638	5.15
387.999	5.14
388.36	5.15
388.721	5.11
389.082	5.05
389.443	4.97
389.804	4.97
390.165	4.91
390.526	4.86
390.887	4.81
391.248	4.81
391.609	4.77
391.969	4.71
392.33	4.64
392.691	4.59
393.051	4.55
393.412	4.53
393.772	4.49
394.133	4.46
394.493	4.39
394.854	4.33
395.214	4.28
395.574	4.24
395.935	4.13
396.295	4.07
396.655	4.05
397.015	4
397.376	3.94
397.736	3.92
398.096	3.89
398.456	3.89
398.816	3.83
399.176	3.77
399.535	3.75
399.895	3.71
400.255	3.7
400.615	3.65
400.975	3.61
401.334	3.54
401.694	3.49
402.054	3.47
402.413	3.46
402.773	3.4
403.132	3.37
403.492	3.36
403.851	3.35
404.211	3.35
404.57	3.32
404.929	3.28
405.288	3.26
405.648	3.24
406.007	3.21
406.366	3.16
406.725	3.18
407.084	3.14
407.443	3.13
407.802	3.13
408.161	3.1
408.52	3.06
408.879	3.06
409.238	3.06
409.596	3.04
409.955	3.02
410.314	3.05
410.673	3.03
411.031	2.99
411.39	2.95
411.748	2.92
412.107	2.93
412.465	2.93
412.824	2.9
413.182	2.87
413.54	2.84
413.899	2.84
414.257	2.8
414.615	2.76
414.974	2.77
415.332	2.72
415.69	2.7
416.048	2.67
416.406	2.68
416.764	2.65
417.122	2.66
417.48	2.63
417.838	2.6
418.195	2.57
418.553	2.57
418.911	2.56
419.269	2.55
419.626	2.53
419.984	2.51
420.342	2.5
420.699	2.5
421.057	2.49
421.414	2.47
421.772	2.44
422.129	2.43
422.486	2.4
422.844	2.41
423.201	2.41
423.558	2.39
423.915	2.36
424.273	2.35
424.63	2.32
424.987	2.31
425.344	2.3
425.701	2.29
426.058	2.28
426.415	2.27
426.772	2.26
427.128	2.24
427.485	2.24
427.842	2.23
428.199	2.22
428.555	2.2
428.912	2.19
429.269	2.21
429.625	2.2
429.982	2.17
430.338	2.14
430.695	2.12
431.051	2.12
431.407	2.12
431.764	2.13
432.12	2.12
432.476	2.11
432.832	2.11
433.189	2.12
433.545	2.11
433.901	2.11
434.257	2.09
434.613	2.12
434.969	2.1
435.325	2.11
435.681	2.1
436.036	2.11
436.392	2.11
436.748	2.08
437.104	2.09
437.459	2.11
437.815	2.11
438.171	2.11
438.526	2.12
438.882	2.12
439.237	2.12
439.593	2.13
439.948	2.11
440.304	2.1
440.659	2.09
441.014	2.09
441.369	2.08
441.725	2.06
442.08	2.05
442.435	2.05
442.79	2.04
443.145	2.03
443.5	2.01
443.855	2.01
444.21	2.01
444.565	2.01
444.92	2.01
445.275	2
445.629	1.98
445.984	1.98
446.339	1.97
446.693	1.94
447.048	1.92
447.403	1.91
447.757	1.91
448.112	1.9
448.466	1.88
448.82	1.87
449.175	1.88
449.529	1.86
449.883	1.86
450.238	1.85
450.592	1.85
450.946	1.84
451.3	1.82
451.654	1.81
452.008	1.81
452.362	1.8
452.716	1.8
453.07	1.81
453.424	1.8
453.778	1.81
454.132	1.8
454.486	1.81
454.839	1.82
455.193	1.82
455.547	1.83
455.9	1.84
456.254	1.84
456.607	1.85
456.961	1.85
457.314	1.86
457.668	1.86
458.021	1.84
458.375	1.86
458.728	1.86
459.081	1.85
459.434	1.84
459.787	1.84
460.141	1.83
460.494	1.82
460.847	1.83
461.2	1.82
461.553	1.83
461.906	1.84
462.259	1.84
462.611	1.86
462.964	1.87
463.317	1.88
463.67	1.89
464.022	1.88
464.375	1.87
464.728	1.87
465.08	1.89
465.433	1.91
465.785	1.93
466.138	1.93
466.49	1.95
466.843	1.96
467.195	1.98
467.547	2
467.899	2
468.252	1.98
468.604	1.99
468.956	1.99
469.308	2.01
469.66	2.02
470.012	2.03
470.364	2.03
470.716	2.02
471.068	2.04
471.42	2.06
471.772	2.09
472.123	2.1
472.475	2.11
472.827	2.11
473.178	2.11
473.53	2.11
473.882	2.11
474.233	2.12
474.585	2.1
474.936	2.09
475.288	2.08
475.639	2.11
475.99	2.12
476.342	2.12
476.693	2.12
477.044	2.13
477.395	2.13
477.746	2.12
478.097	2.11
478.448	2.08
478.8	2.06
479.15	2.05
479.501	2.04
479.852	2.03
480.203	2.03
480.554	2.03
480.905	2.05
481.255	2.04
481.606	2.04
481.957	2.04
482.307	2.06
482.658	2.06
483.009	2.05
483.359	2.04
483.709	2.05
484.06	2.04
484.41	2.04
484.761	2.04
485.111	2.04
485.461	2.05
485.811	2.05
486.162	2.06
486.512	2.07
486.862	2.07
487.212	2.07
487.562	2.08
487.912	2.08
488.262	2.07
488.612	2.08
488.961	2.08
489.311	2.09
489.661	2.08
490.011	2.08
490.36	2.09
490.71	2.1
491.06	2.11
491.409	2.11
491.759	2.11
492.108	2.11
492.458	2.12
492.807	2.12
493.157	2.12
493.506	2.14
493.855	2.14
494.204	2.16
494.554	2.16
494.903	2.16
495.252	2.18
495.601	2.21
495.95	2.22
496.299	2.23
496.648	2.25
496.997	2.27
497.346	2.3
497.695	2.33
498.043	2.35
498.392	2.35
498.741	2.39
499.09	2.4
499.438	2.44
499.787	2.46
500.135	2.5
500.484	2.53
500.832	2.55
501.181	2.58
501.529	2.6
501.878	2.64
502.226	2.67
502.574	2.71
502.923	2.73
503.271	2.78
503.619	2.83
503.967	2.86
504.315	2.89
504.663	2.91
505.011	2.95
505.359	2.97
505.707	3.01
506.055	3.04
506.403	3.11
506.751	3.13
507.098	3.18
507.446	3.22
507.794	3.26
508.141	3.29
508.489	3.31
508.837	3.34
509.184	3.39
509.531	3.41
509.879	3.45
510.226	3.48
510.574	3.49
510.921	3.53
511.268	3.57
511.616	3.62
511.963	3.67
512.31	3.72
512.657	3.78
513.004	3.82
513.351	3.89
513.698	3.93
514.045	3.96
514.392	4
514.739	4.03
515.086	4.08
515.432	4.13
515.779	4.19
516.126	4.24
516.473	4.29
516.819	4.35
517.166	4.4
517.512	4.45
517.859	4.52
518.205	4.55
518.552	4.59
518.898	4.65
519.245	4.7
519.591	4.73
519.937	4.76
520.283	4.81
520.629	4.85
520.976	4.9
521.322	4.97
521.668	5.04
522.014	5.11
522.36	5.19
522.706	5.26
523.052	5.35
523.398	5.43
523.743	5.54
524.089	5.61
524.435	5.69
524.781	5.78
525.126	5.86
525.472	5.93
525.817	5.99
526.163	6.05
526.509	6.1
526.854	6.17
527.199	6.25
527.545	6.31
527.89	6.37
528.235	6.43
528.581	6.49
528.926	6.57
529.271	6.64
529.616	6.7
529.961	6.77
530.306	6.84
530.651	6.91
530.996	6.98
531.341	7.07
531.686	7.17
532.031	7.26
532.376	7.36
532.721	7.47
533.065	7.59
533.41	7.71
533.755	7.84
534.099	7.95
534.444	8.07
534.788	8.19
535.133	8.32
535.477	8.46
535.822	8.59
536.166	8.72
536.51	8.87
536.855	9.04
537.199	9.21
537.543	9.39
537.887	9.58
538.231	9.76
538.576	9.95
538.92	10.14
539.264	10.3
539.608	10.45
539.951	10.61
540.295	10.77
540.639	10.91
540.983	11.05
541.327	11.2
541.671	11.35
542.014	11.5
542.358	11.64
542.701	11.79
543.045	11.95
543.389	12.11
543.732	12.26
544.075	12.39
544.419	12.57
544.762	12.72
545.105	12.9
545.449	13.09
545.792	13.29
546.135	13.49
546.478	13.7
546.821	13.94
547.165	14.16
547.508	14.38
547.851	14.61
548.194	14.84
548.536	15.05
548.879	15.29
549.222	15.53
549.565	15.78
549.908	16
550.25	16.22
550.593	16.46
550.936	16.72
551.278	17
551.621	17.24
551.963	17.5
552.306	17.76
552.648	18.02
552.991	18.23
553.333	18.47
553.675	18.69
554.017	18.9
554.36	19.12
554.702	19.33
555.044	19.52
555.386	19.74
555.728	19.97
556.07	20.15
556.412	20.38
556.754	20.6
557.096	20.82
557.438	21.07
557.78	21.28
558.121	21.5
558.463	21.71
558.805	21.88
559.147	22.08
559.488	22.23
559.83	22.38
560.171	22.57
560.513	22.75
560.854	22.95
561.196	23.13
561.537	23.33
561.878	23.51
562.22	23.68
562.561	23.81
562.902	23.99
563.243	24.16
563.584	24.32
563.925	24.46
564.266	24.56
564.607	24.71
564.948	24.88
565.289	25
565.63	25.13
565.971	25.23
566.312	25.38
566.653	25.53
566.993	25.64
567.334	25.77
567.675	25.89
568.015	26.01
568.356	26.14
568.696	26.26
569.037	26.38
569.377	26.48
569.718	26.6
570.058	26.69
570.398	26.8
570.739	26.89
571.079	27
571.419	27.18
571.759	27.29
572.099	27.37
572.439	27.47
572.779	27.59
573.119	27.71
573.459	27.79
573.799	27.88
574.139	27.96
574.479	28.07
574.819	28.17
575.158	28.21
575.498	28.31
575.838	28.35
576.177	28.45
576.517	28.56
576.856	28.64
577.196	28.7
577.535	28.79
577.875	28.91
578.214	29
578.553	29.05
578.893	29.12
579.232	29.18
579.571	29.28
579.91	29.34
580.25	29.44
580.589	29.46
580.928	29.52
581.267	29.66
581.606	29.73
581.945	29.76
582.283	29.79
582.622	29.85
582.961	29.98
583.3	30.02
583.639	30.07
583.977	30.17
584.316	30.25
584.654	30.29
584.993	30.33
585.332	30.37
585.67	30.4
586.008	30.46
586.347	30.48
586.685	30.5
587.024	30.58
587.362	30.56
587.7	30.66
588.038	30.68
588.376	30.7
588.715	30.72
589.053	30.81
589.391	30.9
589.729	30.93
590.067	30.95
590.404	30.97
590.742	31.04
591.08	31.03
591.418	31.15
591.756	31.22
592.093	31.23
592.431	31.22
592.769	31.31
593.106	31.31
593.444	31.38
593.781	31.38
594.119	31.42
594.456	31.5
594.793	31.55
595.131	31.59
595.468	31.61
595.805	31.64
596.143	31.64
596.48	31.68
596.817	31.73
597.154	31.76
597.491	31.82
597.828	31.83
598.165	31.88
598.502	31.86
598.839	31.86
599.176	31.95
599.512	32.02
599.849	31.96
600.186	32.05
600.523	32.1
600.859	32.19
601.196	32.19
601.532	32.2
601.869	32.21
602.205	32.21
602.542	32.24
602.878	32.16
603.215	32.15
603.551	32.19
603.887	32.22
604.223	32.23
604.56	32.25
604.896	32.28
605.232	32.27
605.568	32.31
605.904	32.34
606.24	32.32
606.576	32.32
606.912	32.45
607.248	32.45
607.583	32.46
607.919	32.42
608.255	32.43
608.591	32.42
608.926	32.42
609.262	32.49
609.597	32.55
609.933	32.65
610.268	32.69
610.604	32.69
610.939	32.67
611.275	32.68
611.61	32.67
611.945	32.71
612.281	32.75
612.616	32.73
612.951	32.84
613.286	32.92
613.621	33.01
613.956	32.96
614.291	33.01
614.626	33.04
614.961	33.17
615.296	33.24
615.631	33.37
615.966	33.42
616.3	33.43
616.635	33.32
616.97	33.39
617.304	33.47
617.639	33.52
617.973	33.53
618.308	33.51
618.642	33.53
618.977	33.48
619.311	33.48
619.646	33.54
619.98	33.52
620.314	33.56
620.648	33.52
620.983	33.53
621.317	33.5
621.651	33.47
621.985	33.4
622.319	33.39
622.653	33.32
622.987	33.36
623.321	33.37
623.655	33.47
623.988	33.42
624.322	33.36
624.656	33.35
624.99	33.36
625.323	33.43
625.657	33.48
625.99	33.48
626.324	33.55
626.657	33.52
626.991	33.44
627.324	33.39
627.658	33.43
627.991	33.43
628.324	33.44
628.657	33.46
628.991	33.47
629.324	33.47
629.657	33.53
629.99	33.52
630.323	33.51
630.656	33.49
630.989	33.54
631.322	33.55
631.655	33.59
631.987	33.56
632.32	33.51
632.653	33.42
632.986	33.48
633.318	33.45
633.651	33.46
633.984	33.47
634.316	33.53
634.649	33.52
634.981	33.56
635.313	33.6
635.646	33.56
635.978	33.57
636.31	33.51
636.643	33.5
636.975	33.49
637.307	33.37
637.639	33.34
637.971	33.35
638.303	33.42
638.635	33.34
638.967	33.42
639.299	33.44
639.631	33.47
639.963	33.48
640.295	33.48
640.626	33.52
640.958	33.56
641.29	33.5
641.621	33.42
641.953	33.41
642.285	33.34
642.616	33.46
642.948	33.44
643.279	33.53
643.61	33.5
643.942	33.52
644.273	33.6
644.604	33.66
644.936	33.59
645.267	33.59
645.598	33.66
645.929	33.61
646.26	33.64
646.591	33.67
646.922	33.62
647.253	33.64
647.584	33.71
647.915	33.66
648.245	33.66
648.576	33.7
648.907	33.64
649.238	33.57
649.568	33.52
649.899	33.49
650.229	33.49
650.56	33.52
650.89	33.43
651.221	33.49
651.551	33.52
651.882	33.51
652.212	33.46
652.542	33.4
652.872	33.41
653.203	33.46
653.533	33.51
653.863	33.49
654.193	33.5
654.523	33.46
654.853	33.5
655.183	33.59
655.513	33.52
655.843	33.6
656.172	33.7
656.502	33.69
656.832	33.74
657.162	33.81
657.491	33.82
657.821	33.9
658.15	33.93
658.48	33.88
658.809	33.98
659.139	34.01
659.468	34.09
659.798	34.04
660.127	33.97
660.456	33.99
660.785	33.94
661.115	33.97
661.444	33.9
661.773	33.89
662.102	33.85
662.431	33.94
662.76	33.95
663.089	33.95
663.418	34
663.747	33.95
664.076	33.79
664.404	33.79
664.733	33.8
665.062	33.74
665.39	33.69
665.719	33.63
666.048	33.58
666.376	33.48
666.705	33.45
667.033	33.41
667.362	33.35
667.69	33.41
668.018	33.4
668.347	33.53
668.675	33.65
669.003	33.65
669.331	33.6
669.659	33.58
669.987	33.6
