Data from BA57750_Reflection_00009.txt Node
Date: Mon Nov 18 15:46:44 EST 2019
User: vgr7
Spectrometer: USB2G7710
Scans to average: 3
Trigger mode: 4
Integration Time (sec): 2.000000E-2
Electric dark correction enabled: true
Boxcar width: 10
XAxis mode: Wavelengths
Number of Pixels in Spectrum: 2048
>>>>>Begin Spectral Data<<<<<
177.721	-5.29
178.105	27.44
178.488	-604.92
178.871	76.65
179.254	70.9
179.636	-138.97
180.019	-103.73
180.402	131.25
180.785	302.63
181.168	117.22
181.55	209.53
181.933	158.48
182.316	206.41
182.698	149.05
183.081	161.67
183.463	236.59
183.846	350.37
184.228	315.92
184.611	383.92
184.993	357.28
185.376	460.52
185.758	497.88
186.14	634.88
186.522	498.39
186.904	373.4
187.287	271.02
187.669	424.45
188.051	282.11
188.433	482.58
188.815	642.53
189.197	30023.08
189.579	3221.74
189.961	20257.89
190.342	10402.33
190.724	-647.46
191.106	-432.81
191.488	-843.07
191.869	-951.39
192.251	-784.01
192.633	-387.98
193.014	-288.12
193.396	-517.27
193.777	-404.54
194.159	-380.16
194.54	-375.67
194.922	-266.95
195.303	-127.61
195.684	-159.62
196.065	-105.86
196.447	-142.23
196.828	-175.97
197.209	-119.54
197.59	-96.23
197.971	-101.13
198.352	-59.09
198.733	-73.28
199.114	-79.15
199.495	-68.98
199.876	-64.6
200.257	-56.93
200.638	-46.07
201.018	-49.52
201.399	-43.44
201.78	-36.96
202.16	-30.29
202.541	-46.2
202.922	-48.33
203.302	-84.31
203.683	-56.86
204.063	-67.66
204.444	-42.41
204.824	-44.8
205.204	-40.76
205.585	-40.65
205.965	-48.39
206.345	-92.49
206.725	-89.55
207.106	-92.93
207.486	-140.84
207.866	-132.76
208.246	-111.63
208.626	-116.38
209.006	-91.99
209.386	-124.01
209.766	-153.29
210.145	-202.2
210.525	-151.59
210.905	-109.57
211.285	-115.7
211.664	-114.31
212.044	-157.33
212.424	-152.05
212.803	-89.66
213.183	-80.71
213.562	-97.66
213.942	-45.58
214.321	-20.54
214.701	-4.29
215.08	-11.05
215.459	20.63
215.838	19.99
216.218	22.87
216.597	29.71
216.976	18.7
217.355	20.72
217.734	13.72
218.113	20.19
218.492	12.9
218.871	-8.64
219.25	-5.44
219.629	-9.68
220.008	-14.71
220.387	-16.9
220.766	-15.71
221.144	-28.76
221.523	-29.26
221.902	-47.55
222.28	-62.2
222.659	-93.19
223.037	-78.76
223.416	-100.11
223.794	-106.21
224.173	-104.82
224.551	-95.48
224.929	-74.83
225.308	-64.2
225.686	-55.24
226.064	-46.28
226.442	-40.6
226.821	-21.75
227.199	-24.92
227.577	-21.86
227.955	-17.51
228.333	-14.26
228.711	-10.86
229.089	-8.42
229.467	-10.74
229.845	-8.72
230.222	-6.47
230.6	-4.7
230.978	-3.87
231.356	-2.87
231.733	-4.72
232.111	-0.9
232.488	0.48
232.866	0.01
233.243	-0.29
233.621	2.2
233.998	0.97
234.376	-2.24
234.753	-3.53
235.13	-1.76
235.508	-1.73
235.885	-1.92
236.262	-1.26
236.639	-3.64
237.016	-3.58
237.393	-3.08
237.77	-2.61
238.147	-1.03
238.524	-0.34
238.901	-0.26
239.278	0.3
239.655	2.07
240.032	1.47
240.409	1.74
240.785	1.77
241.162	2.44
241.539	2.23
241.915	2.49
242.292	2.81
242.668	2.83
243.045	2.34
243.421	2.33
243.798	2.3
244.174	2.17
244.551	2.47
244.927	2.55
245.303	2.86
245.679	3.08
246.056	2.58
246.432	2.43
246.808	2.49
247.184	2.42
247.56	2.02
247.936	1.79
248.312	1.58
248.688	1.57
249.064	1.39
249.44	1.2
249.815	1.28
250.191	1.42
250.567	1.34
250.943	1.39
251.318	1.6
251.694	1.68
252.069	1.62
252.445	1.52
252.82	1.33
253.196	1.32
253.571	1.04
253.947	1.65
254.322	1.95
254.697	1.8
255.073	1.69
255.448	1.91
255.823	2.11
256.198	2.09
256.573	2.12
256.948	2.16
257.323	2.36
257.698	2.3
258.073	2.33
258.448	2.32
258.823	2.43
259.198	2.25
259.573	2.29
259.948	2.35
260.322	2.45
260.697	2.42
261.072	2.33
261.446	2.4
261.821	2.16
262.195	2.15
262.57	2.19
262.944	2.22
263.319	2.22
263.693	2.22
264.067	2.3
264.442	2.49
264.816	2.39
265.19	2.35
265.564	2.34
265.938	2.21
266.313	2.16
266.687	2.08
267.061	2.19
267.435	2.21
267.809	2.22
268.183	2.1
268.556	2.16
268.93	2.28
269.304	2.31
269.678	2.44
270.051	2.49
270.425	2.49
270.799	2.42
271.172	2.48
271.546	2.53
271.919	2.49
272.293	2.36
272.666	2.63
273.04	2.66
273.413	2.55
273.787	2.4
274.16	2.44
274.533	2.48
274.906	2.48
275.279	2.33
275.653	2.38
276.026	2.5
276.399	2.53
276.772	2.49
277.145	2.26
277.518	2.11
277.891	2.08
278.263	2.07
278.636	2.2
279.009	2.07
279.382	2.07
279.755	1.98
280.127	2.11
280.5	2.23
280.872	2.27
281.245	2.31
281.617	2.59
281.99	2.75
282.362	2.85
282.735	2.76
283.107	2.82
283.479	2.81
283.852	2.86
284.224	2.91
284.596	2.85
284.968	2.95
285.34	3.11
285.713	3
286.085	2.95
286.457	2.94
286.829	2.96
287.201	3.05
287.572	3.03
287.944	2.98
288.316	2.82
288.688	2.84
289.06	2.86
289.431	2.79
289.803	2.68
290.175	2.68
290.546	2.75
290.918	2.81
291.289	2.97
291.661	2.95
292.032	2.92
292.403	3.02
292.775	3.05
293.146	2.83
293.517	2.83
293.889	3
294.26	3.11
294.631	3.09
295.002	3
295.373	3.21
295.744	3.25
296.115	3.2
296.486	3
296.857	3.09
297.228	3.24
297.599	3.22
297.97	3.19
298.34	3.19
298.711	3.28
299.082	3.11
299.452	3.1
299.823	3.27
300.194	3.28
300.564	3.26
300.935	3.34
301.305	3.42
301.676	3.39
302.046	3.36
302.416	3.5
302.787	3.53
303.157	3.5
303.527	3.57
303.897	3.75
304.267	3.99
304.637	3.98
305.008	3.95
305.378	4.11
305.748	4.22
306.117	4.4
306.487	4.33
306.857	4.46
307.227	4.4
307.597	4.27
307.967	4.36
308.336	4.49
308.706	4.68
309.076	4.72
309.445	4.68
309.815	4.69
310.184	4.69
310.554	4.72
310.923	4.7
311.293	4.69
311.662	4.56
312.031	4.51
312.401	4.51
312.77	4.51
313.139	4.53
313.508	4.52
313.877	4.44
314.246	4.34
314.616	4.36
314.985	4.49
315.353	4.56
315.722	4.65
316.091	4.65
316.46	4.59
316.829	4.73
317.198	4.85
317.567	4.89
317.935	4.94
318.304	5.1
318.672	5.15
319.041	5.22
319.41	5.28
319.778	5.36
320.147	5.49
320.515	5.44
320.883	5.51
321.252	5.53
321.62	5.5
321.988	5.71
322.357	5.74
322.725	5.74
323.093	5.76
323.461	5.6
323.829	5.74
324.197	5.86
324.565	5.84
324.933	5.95
325.301	6.03
325.669	5.97
326.037	5.83
326.405	5.95
326.772	6.01
327.14	6.13
327.508	6.22
327.875	6.13
328.243	6.18
328.61	6.19
328.978	6.29
329.346	6.33
329.713	6.32
330.08	6.29
330.448	6.28
330.815	6.24
331.182	6.35
331.55	6.21
331.917	6.2
332.284	6.25
332.651	6.12
333.018	6.17
333.385	6.13
333.752	6.39
334.119	6.33
334.486	6.3
334.853	6.38
335.22	6.48
335.587	6.64
335.954	6.62
336.32	6.58
336.687	6.55
337.054	6.71
337.42	6.87
337.787	6.91
338.153	6.97
338.52	7.13
338.886	7.01
339.253	6.93
339.619	6.97
339.986	6.99
340.352	7.06
340.718	7.06
341.084	7.21
341.451	7.15
341.817	7.34
342.183	7.33
342.549	7.22
342.915	7.2
343.281	7.16
343.647	7.25
344.013	7.27
344.379	7.23
344.745	7.15
345.11	7.13
345.476	7.17
345.842	7.18
346.208	7.08
346.573	7.16
346.939	7.43
347.304	7.31
347.67	7.32
348.035	7.34
348.401	7.37
348.766	7.41
349.132	7.44
349.497	7.4
349.862	7.55
350.228	7.58
350.593	7.55
350.958	7.6
351.323	7.76
351.688	7.85
352.053	7.95
352.418	8.01
352.783	7.89
353.148	7.94
353.513	7.99
353.878	8.1
354.243	8.21
354.608	8.13
354.972	8.26
355.337	8.25
355.702	8.29
356.066	8.28
356.431	8.22
356.795	8.27
357.16	8.23
357.524	8.15
357.889	8.18
358.253	8.24
358.618	8.24
358.982	8.14
359.346	8.09
359.71	8.06
360.075	7.96
360.439	8.04
360.803	8.02
361.167	8
361.531	7.97
361.895	7.87
362.259	7.85
362.623	7.8
362.987	7.83
363.351	7.8
363.714	7.81
364.078	7.77
364.442	7.64
364.806	7.58
365.169	7.52
365.533	7.46
365.896	7.37
366.26	7.39
366.623	7.43
366.987	7.39
367.35	7.36
367.714	7.49
368.077	7.36
368.44	7.33
368.803	7.3
369.167	7.26
369.53	7.28
369.893	7.33
370.256	7.33
370.619	7.24
370.982	7.2
371.345	7.19
371.708	7.2
372.071	7.21
372.434	7.2
372.797	7.27
373.159	7.25
373.522	7.21
373.885	7.16
374.247	7.11
374.61	7.14
374.973	7.07
375.335	6.94
375.698	7.02
376.06	7.03
376.423	7
376.785	6.98
377.147	6.98
377.51	6.92
377.872	6.87
378.234	6.84
378.596	6.83
378.958	6.75
379.321	6.74
379.683	6.73
380.045	6.72
380.407	6.65
380.769	6.59
381.13	6.61
381.492	6.54
381.854	6.47
382.216	6.41
382.578	6.39
382.939	6.36
383.301	6.36
383.663	6.29
384.024	6.26
384.386	6.28
384.747	6.24
385.109	6.21
385.47	6.12
385.832	6.12
386.193	6.1
386.554	6.06
386.916	6.01
387.277	5.97
387.638	5.9
387.999	5.88
388.36	5.87
388.721	5.87
389.082	5.83
389.443	5.78
389.804	5.73
390.165	5.69
390.526	5.7
390.887	5.57
391.248	5.55
391.609	5.52
391.969	5.37
392.33	5.3
392.691	5.22
393.051	5.25
393.412	5.22
393.772	5.15
394.133	5.11
394.493	5.05
394.854	4.99
395.214	4.97
395.574	4.9
395.935	4.88
396.295	4.83
396.655	4.79
397.015	4.77
397.376	4.76
397.736	4.73
398.096	4.66
398.456	4.67
398.816	4.61
399.176	4.56
399.535	4.55
399.895	4.53
400.255	4.51
400.615	4.46
400.975	4.42
401.334	4.41
401.694	4.37
402.054	4.37
402.413	4.36
402.773	4.29
403.132	4.27
403.492	4.25
403.851	4.22
404.211	4.21
404.57	4.18
404.929	4.11
405.288	4.1
405.648	4.07
406.007	4.04
406.366	4.01
406.725	4.01
407.084	4
407.443	3.99
407.802	3.98
408.161	3.94
408.52	3.88
408.879	3.83
409.238	3.84
409.596	3.84
409.955	3.81
410.314	3.81
410.673	3.78
411.031	3.75
411.39	3.72
411.748	3.7
412.107	3.71
412.465	3.69
412.824	3.67
413.182	3.65
413.54	3.66
413.899	3.66
414.257	3.65
414.615	3.61
414.974	3.62
415.332	3.58
415.69	3.54
416.048	3.53
416.406	3.52
416.764	3.49
417.122	3.47
417.48	3.44
417.838	3.42
418.195	3.41
418.553	3.38
418.911	3.36
419.269	3.33
419.626	3.29
419.984	3.29
420.342	3.26
420.699	3.24
421.057	3.22
421.414	3.2
421.772	3.17
422.129	3.15
422.486	3.12
422.844	3.12
423.201	3.11
423.558	3.1
423.915	3.1
424.273	3.08
424.63	3.06
424.987	3.05
425.344	3.03
425.701	3.01
426.058	2.99
426.415	2.97
426.772	2.94
427.128	2.93
427.485	2.91
427.842	2.89
428.199	2.89
428.555	2.87
428.912	2.85
429.269	2.86
429.625	2.87
429.982	2.87
430.338	2.85
430.695	2.84
431.051	2.82
431.407	2.79
431.764	2.78
432.12	2.76
432.476	2.76
432.832	2.74
433.189	2.73
433.545	2.75
433.901	2.74
434.257	2.74
434.613	2.75
434.969	2.76
435.325	2.76
435.681	2.74
436.036	2.73
436.392	2.73
436.748	2.71
437.104	2.69
437.459	2.67
437.815	2.67
438.171	2.68
438.526	2.68
438.882	2.69
439.237	2.7
439.593	2.7
439.948	2.71
440.304	2.72
440.659	2.71
441.014	2.71
441.369	2.71
441.725	2.71
442.08	2.69
442.435	2.68
442.79	2.68
443.145	2.68
443.5	2.68
443.855	2.66
444.21	2.66
444.565	2.66
444.92	2.66
445.275	2.66
445.629	2.65
445.984	2.63
446.339	2.61
446.693	2.59
447.048	2.58
447.403	2.55
447.757	2.54
448.112	2.54
448.466	2.53
448.82	2.52
449.175	2.51
449.529	2.51
449.883	2.49
450.238	2.48
450.592	2.47
450.946	2.45
451.3	2.44
451.654	2.44
452.008	2.43
452.362	2.43
452.716	2.39
453.07	2.39
453.424	2.4
453.778	2.4
454.132	2.4
454.486	2.4
454.839	2.42
455.193	2.4
455.547	2.39
455.9	2.39
456.254	2.39
456.607	2.4
456.961	2.4
457.314	2.4
457.668	2.41
458.021	2.41
458.375	2.42
458.728	2.42
459.081	2.42
459.434	2.42
459.787	2.42
460.141	2.43
460.494	2.42
460.847	2.43
461.2	2.43
461.553	2.42
461.906	2.43
462.259	2.42
462.611	2.44
462.964	2.46
463.317	2.47
463.67	2.47
464.022	2.48
464.375	2.48
464.728	2.5
465.08	2.5
465.433	2.52
465.785	2.53
466.138	2.54
466.49	2.53
466.843	2.54
467.195	2.55
467.547	2.56
467.899	2.58
468.252	2.58
468.604	2.61
468.956	2.63
469.308	2.64
469.66	2.65
470.012	2.66
470.364	2.66
470.716	2.67
471.068	2.68
471.42	2.68
471.772	2.71
472.123	2.72
472.475	2.7
472.827	2.7
473.178	2.7
473.53	2.71
473.882	2.73
474.233	2.75
474.585	2.74
474.936	2.72
475.288	2.74
475.639	2.74
475.99	2.72
476.342	2.74
476.693	2.73
477.044	2.75
477.395	2.76
477.746	2.76
478.097	2.76
478.448	2.74
478.8	2.74
479.15	2.72
479.501	2.73
479.852	2.74
480.203	2.73
480.554	2.74
480.905	2.74
481.255	2.73
481.606	2.73
481.957	2.74
482.307	2.76
482.658	2.75
483.009	2.74
483.359	2.75
483.709	2.75
484.06	2.75
484.41	2.75
484.761	2.74
485.111	2.75
485.461	2.75
485.811	2.75
486.162	2.75
486.512	2.75
486.862	2.75
487.212	2.75
487.562	2.76
487.912	2.75
488.262	2.74
488.612	2.75
488.961	2.76
489.311	2.75
489.661	2.76
490.011	2.77
490.36	2.77
490.71	2.78
491.06	2.78
491.409	2.79
491.759	2.79
492.108	2.8
492.458	2.8
492.807	2.81
493.157	2.82
493.506	2.82
493.855	2.83
494.204	2.84
494.554	2.86
494.903	2.88
495.252	2.9
495.601	2.93
495.95	2.94
496.299	2.96
496.648	2.99
496.997	3
497.346	3.03
497.695	3.07
498.043	3.1
498.392	3.13
498.741	3.16
499.09	3.17
499.438	3.21
499.787	3.27
500.135	3.3
500.484	3.35
500.832	3.4
501.181	3.44
501.529	3.5
501.878	3.54
502.226	3.58
502.574	3.62
502.923	3.67
503.271	3.71
503.619	3.76
503.967	3.81
504.315	3.85
504.663	3.88
505.011	3.94
505.359	3.99
505.707	4.05
506.055	4.1
506.403	4.17
506.751	4.22
507.098	4.28
507.446	4.36
507.794	4.4
508.141	4.47
508.489	4.53
508.837	4.6
509.184	4.65
509.531	4.71
509.879	4.81
510.226	4.89
510.574	4.96
510.921	5.04
511.268	5.11
511.616	5.2
511.963	5.27
512.31	5.33
512.657	5.42
513.004	5.49
513.351	5.6
513.698	5.7
514.045	5.79
514.392	5.86
514.739	5.94
515.086	6.07
515.432	6.16
515.779	6.25
516.126	6.35
516.473	6.47
516.819	6.57
517.166	6.62
517.512	6.7
517.859	6.79
518.205	6.88
518.552	6.96
518.898	7.03
519.245	7.13
519.591	7.23
519.937	7.32
520.283	7.43
520.629	7.55
520.976	7.65
521.322	7.77
521.668	7.92
522.014	8.06
522.36	8.16
522.706	8.31
523.052	8.48
523.398	8.65
523.743	8.8
524.089	8.99
524.435	9.15
524.781	9.31
525.126	9.45
525.472	9.61
525.817	9.78
526.163	9.92
526.509	10.02
526.854	10.14
527.199	10.27
527.545	10.37
527.89	10.48
528.235	10.59
528.581	10.71
528.926	10.82
529.271	10.93
529.616	11.06
529.961	11.18
530.306	11.31
530.651	11.43
530.996	11.58
531.341	11.72
531.686	11.88
532.031	12.04
532.376	12.22
532.721	12.36
533.065	12.52
533.41	12.69
533.755	12.89
534.099	13.08
534.444	13.28
534.788	13.47
535.133	13.65
535.477	13.85
535.822	14.05
536.166	14.29
536.51	14.55
536.855	14.79
537.199	15.06
537.543	15.32
537.887	15.58
538.231	15.87
538.576	16.17
538.92	16.41
539.264	16.66
539.608	16.91
539.951	17.14
540.295	17.36
540.639	17.57
540.983	17.78
541.327	17.98
541.671	18.17
542.014	18.36
542.358	18.56
542.701	18.76
543.045	18.98
543.389	19.16
543.732	19.36
544.075	19.57
544.419	19.78
544.762	19.98
545.105	20.23
545.449	20.47
545.792	20.69
546.135	20.95
546.478	21.21
546.821	21.47
547.165	21.79
547.508	22.06
547.851	22.34
548.194	22.62
548.536	22.93
548.879	23.22
549.222	23.48
549.565	23.74
549.908	24.03
550.25	24.3
550.593	24.62
550.936	24.88
551.278	25.11
551.621	25.38
551.963	25.7
552.306	25.92
552.648	26.15
552.991	26.36
553.333	26.6
553.675	26.86
554.017	27.05
554.36	27.21
554.702	27.43
555.044	27.63
555.386	27.84
555.728	28.03
556.07	28.25
556.412	28.47
556.754	28.7
557.096	28.91
557.438	29.08
557.78	29.28
558.121	29.51
558.463	29.73
558.805	29.92
559.147	30.08
559.488	30.27
559.83	30.44
560.171	30.63
560.513	30.86
560.854	31
561.196	31.21
561.537	31.4
561.878	31.55
562.22	31.7
562.561	31.83
562.902	31.96
563.243	32.04
563.584	32.19
563.925	32.33
564.266	32.46
564.607	32.62
564.948	32.74
565.289	32.82
565.63	32.95
565.971	33.1
566.312	33.21
566.653	33.35
566.993	33.46
567.334	33.56
567.675	33.61
568.015	33.74
568.356	33.87
568.696	33.99
569.037	34.09
569.377	34.23
569.718	34.37
570.058	34.49
570.398	34.59
570.739	34.69
571.079	34.8
571.419	34.94
571.759	35.01
572.099	35.08
572.439	35.2
572.779	35.32
573.119	35.37
573.459	35.5
573.799	35.57
574.139	35.68
574.479	35.81
574.819	35.91
575.158	35.97
575.498	35.99
575.838	36.06
576.177	36.16
576.517	36.24
576.856	36.33
577.196	36.4
577.535	36.52
577.875	36.65
578.214	36.74
578.553	36.77
578.893	36.9
579.232	36.98
579.571	37.09
579.91	37.12
580.25	37.21
580.589	37.2
580.928	37.31
581.267	37.38
581.606	37.43
581.945	37.47
582.283	37.62
582.622	37.78
582.961	37.9
583.3	38.01
583.639	38.12
583.977	38.21
584.316	38.32
584.654	38.4
584.993	38.43
585.332	38.45
585.67	38.52
586.008	38.55
586.347	38.65
586.685	38.65
587.024	38.69
587.362	38.72
587.7	38.78
588.038	38.83
588.376	38.85
588.715	38.88
589.053	38.97
589.391	38.93
589.729	38.98
590.067	38.98
590.404	39
590.742	39.02
591.08	39.02
591.418	39.03
591.756	39.08
592.093	39.12
592.431	39.2
592.769	39.19
593.106	39.28
593.444	39.23
593.781	39.3
594.119	39.34
594.456	39.4
594.793	39.45
595.131	39.43
595.468	39.51
595.805	39.62
596.143	39.62
596.48	39.67
596.817	39.67
597.154	39.68
597.491	39.66
597.828	39.65
598.165	39.67
598.502	39.68
598.839	39.74
599.176	39.8
599.512	39.81
599.849	39.92
600.186	39.89
600.523	40.01
600.859	39.98
601.196	40.02
601.532	39.96
601.869	40.03
602.205	40.07
602.542	40.04
602.878	40.01
603.215	40.07
603.551	40.12
603.887	40.09
604.223	40.11
604.56	40.18
604.896	40.19
605.232	40.22
605.568	40.24
605.904	40.19
606.24	40.15
606.576	40.2
606.912	40.21
607.248	40.22
607.583	40.24
607.919	40.31
608.255	40.31
608.591	40.42
608.926	40.44
609.262	40.45
609.597	40.51
609.933	40.53
610.268	40.51
610.604	40.5
610.939	40.57
611.275	40.67
611.61	40.65
611.945	40.72
612.281	40.76
612.616	40.83
612.951	40.93
613.286	41.03
613.621	40.98
613.956	40.94
614.291	41.03
614.626	41.04
614.961	41.07
615.296	41.11
615.631	41.19
615.966	41.18
616.3	41.25
616.635	41.29
616.97	41.35
617.304	41.49
617.639	41.51
617.973	41.52
618.308	41.5
618.642	41.6
618.977	41.64
619.311	41.66
619.646	41.7
619.98	41.66
620.314	41.59
620.648	41.62
620.983	41.71
621.317	41.64
621.651	41.66
621.985	41.65
622.319	41.71
622.653	41.62
622.987	41.59
623.321	41.59
623.655	41.55
623.988	41.58
624.322	41.47
624.656	41.4
624.99	41.39
625.323	41.33
625.657	41.29
625.99	41.36
626.324	41.33
626.657	41.29
626.991	41.3
627.324	41.36
627.658	41.35
627.991	41.33
628.324	41.31
628.657	41.28
628.991	41.31
629.324	41.22
629.657	41.24
629.99	41.29
630.323	41.29
630.656	41.32
630.989	41.25
631.322	41.3
631.655	41.38
631.987	41.42
632.32	41.54
632.653	41.58
632.986	41.43
633.318	41.52
633.651	41.55
633.984	41.59
634.316	41.58
634.649	41.63
634.981	41.58
635.313	41.66
635.646	41.72
635.978	41.73
636.31	41.82
636.643	41.76
636.975	41.71
637.307	41.72
637.639	41.69
637.971	41.74
638.303	41.72
638.635	41.72
638.967	41.79
639.299	41.81
639.631	41.74
639.963	41.84
640.295	41.8
640.626	41.81
640.958	41.79
641.29	41.88
641.621	41.94
641.953	41.91
642.285	41.9
642.616	41.85
642.948	41.81
643.279	41.87
643.61	41.97
643.942	42.05
644.273	42.09
644.604	42.14
644.936	42.06
645.267	42.05
645.598	42.04
645.929	41.94
646.26	41.94
646.591	41.91
646.922	41.88
647.253	41.92
647.584	41.85
647.915	41.89
648.245	41.85
648.576	41.75
648.907	41.92
649.238	41.95
649.568	41.97
649.899	41.97
650.229	41.9
650.56	41.91
650.89	41.84
651.221	41.77
651.551	41.68
651.882	41.69
652.212	41.73
652.542	41.78
652.872	41.72
653.203	41.68
653.533	41.72
653.863	41.68
654.193	41.56
654.523	41.57
654.853	41.52
655.183	41.58
655.513	41.47
655.843	41.35
656.172	41.37
656.502	41.36
656.832	41.41
657.162	41.32
657.491	41.28
657.821	41.3
658.15	41.34
658.48	41.45
658.809	41.57
659.139	41.59
659.468	41.57
659.798	41.58
660.127	41.58
660.456	41.59
660.785	41.6
661.115	41.66
661.444	41.7
661.773	41.72
662.102	41.63
662.431	41.78
662.76	41.79
663.089	41.7
663.418	41.72
663.747	41.72
664.076	41.81
664.404	41.8
664.733	41.93
665.062	41.92
665.39	41.91
665.719	41.85
666.048	41.83
666.376	41.9
