Data from BA57730_Reflection_00002.txt Node
Date: Mon Nov 18 15:59:26 EST 2019
User: vgr7
Spectrometer: USB2G7710
Scans to average: 3
Trigger mode: 4
Integration Time (sec): 2.000000E-2
Electric dark correction enabled: true
Boxcar width: 10
XAxis mode: Wavelengths
Number of Pixels in Spectrum: 2048
>>>>>Begin Spectral Data<<<<<
177.721	1576.19
178.105	60.78
178.488	153.5
178.871	48.72
179.254	46.5
179.636	-102.02
180.019	-15.84
180.402	39.53
180.785	5.98
181.168	8.05
181.55	-7.27
181.933	241.82
182.316	145.05
182.698	164.46
183.081	115.83
183.463	131.85
183.846	128.38
184.228	277.18
184.611	504.65
184.993	652.45
185.376	665.22
185.758	500.92
186.14	295.82
186.522	342.51
186.904	262.58
187.287	222.35
187.669	293.8
188.051	393.05
188.433	3766.67
188.815	636.48
189.197	464.49
189.579	522.22
189.961	571.95
190.342	436.93
190.724	1004.76
191.106	-7682.61
191.488	-1555.46
191.869	-757.74
192.251	-1607.96
192.633	-1625.66
193.014	-1302.88
193.396	3380.7
193.777	-996.26
194.159	-1185.71
194.54	-745.56
194.922	-359.66
195.303	-411.39
195.684	-603.47
196.065	-417.9
196.447	-443.31
196.828	-484.57
197.209	-556.57
197.59	-453.52
197.971	-457.89
198.352	-230.95
198.733	-316.88
199.114	-357.73
199.495	-524.45
199.876	-442.66
200.257	-465.54
200.638	-268.12
201.018	-222.65
201.399	-191.59
201.78	-166.06
202.16	-259.82
202.541	-603.06
202.922	1222.14
203.302	901.32
203.683	-6465.22
204.063	617.51
204.444	428.08
204.824	402.8
205.204	1328.57
205.585	1643.21
205.965	1992.31
206.345	885.23
206.725	620
207.106	356.48
207.486	301.95
207.866	342.34
208.246	242.86
208.626	241.44
209.006	245.1
209.386	213.04
209.766	785.95
210.145	-1818.92
210.525	-209.24
210.905	-73.18
211.285	-60.28
211.664	-58.91
212.044	-25.75
212.424	-19.07
212.803	-46.93
213.183	-56.33
213.562	-79.63
213.942	-63.28
214.321	-60.14
214.701	-64.59
215.08	-66.97
215.459	-68.78
215.838	-61.38
216.218	-75.94
216.597	-64.18
216.976	-94.32
217.355	-73.83
217.734	-54.09
218.113	-50.47
218.492	-63.72
218.871	-74.35
219.25	-65.03
219.629	-82.83
220.008	-108.37
220.387	-86.02
220.766	-64.42
221.144	-81.23
221.523	-63.45
221.902	-72.35
222.28	-70.58
222.659	-54.6
223.037	-45.41
223.416	-34.44
223.794	-33.57
224.173	-32.68
224.551	-13.29
224.929	1.18
225.308	-5.67
225.686	-12.47
226.064	-15.29
226.442	-12.88
226.821	-4.72
227.199	-8.06
227.577	-7.04
227.955	-6.08
228.333	-5.51
228.711	-3.85
229.089	-1.28
229.467	-0.51
229.845	-1.55
230.222	-0.73
230.6	-0.82
230.978	-2.09
231.356	-2.77
231.733	-2.73
232.111	-1.49
232.488	-3.34
232.866	-2.37
233.243	-1.23
233.621	-1.71
233.998	-1.45
234.376	-0.67
234.753	-0.72
235.13	-1.79
235.508	-1.75
235.885	-2.27
236.262	-3.6
236.639	-2.35
237.016	-2.86
237.393	-2.65
237.77	-0.9
238.147	-0.38
238.524	0.94
238.901	3.06
239.278	3.26
239.655	4.22
240.032	4.86
240.409	4.96
240.785	4.46
241.162	4.11
241.539	3.95
241.915	4.49
242.292	4.11
242.668	4.58
243.045	5.38
243.421	5.46
243.798	5.53
244.174	5.84
244.551	5.82
244.927	5.5
245.303	5.73
245.679	5.68
246.056	5.6
246.432	5.47
246.808	5.43
247.184	5.31
247.56	5.03
247.936	4.64
248.312	4.8
248.688	4.93
249.064	5.1
249.44	5.4
249.815	5.3
250.191	5.66
250.567	5.34
250.943	4.92
251.318	5.05
251.694	5.06
252.069	4.91
252.445	4.78
252.82	5.11
253.196	5.2
253.571	5.34
253.947	5.29
254.322	5.53
254.697	5
255.073	4.98
255.448	5.18
255.823	5.19
256.198	4.88
256.573	4.99
256.948	5.04
257.323	5.23
257.698	5.19
258.073	5.05
258.448	5.1
258.823	5.17
259.198	5.11
259.573	5.1
259.948	5.13
260.322	5.1
260.697	4.98
261.072	4.78
261.446	4.65
261.821	4.75
262.195	4.87
262.57	4.93
262.944	4.91
263.319	4.76
263.693	4.67
264.067	4.78
264.442	4.68
264.816	4.36
265.19	4.15
265.564	4.14
265.938	4.02
266.313	4.03
266.687	4.34
267.061	4.64
267.435	4.68
267.809	4.62
268.183	4.76
268.556	4.91
268.93	5.01
269.304	5.02
269.678	4.98
270.051	4.75
270.425	4.92
270.799	5.04
271.172	5.05
271.546	5.07
271.919	5.02
272.293	5.04
272.666	5.28
273.04	5.37
273.413	5.36
273.787	5.52
274.16	5.51
274.533	5.2
274.906	5.08
275.279	5.06
275.653	5.07
276.026	5.1
276.399	5.11
276.772	5.14
277.145	5.03
277.518	5.08
277.891	5.21
278.263	4.98
278.636	5.01
279.009	5.21
279.382	5.49
279.755	5.5
280.127	5.6
280.5	5.65
280.872	5.7
281.245	5.52
281.617	5.6
281.99	5.62
282.362	5.91
282.735	5.74
283.107	5.7
283.479	5.68
283.852	5.53
284.224	5.51
284.596	5.39
284.968	5.55
285.34	5.68
285.713	5.6
286.085	5.71
286.457	5.73
286.829	5.72
287.201	5.67
287.572	5.68
287.944	5.58
288.316	5.6
288.688	5.48
289.06	5.57
289.431	5.39
289.803	5.42
290.175	5.43
290.546	5.65
290.918	5.68
291.289	5.76
291.661	5.93
292.032	6.12
292.403	6.21
292.775	6.21
293.146	6.01
293.517	6.09
293.889	6.21
294.26	6.19
294.631	6.21
295.002	6.16
295.373	6.18
295.744	6.23
296.115	6.18
296.486	6.09
296.857	6.2
297.228	6.3
297.599	6.3
297.97	6.18
298.34	6.15
298.711	6.11
299.082	6.16
299.452	6.15
299.823	6.05
300.194	6.03
300.564	5.97
300.935	6.13
301.305	6.15
301.676	6.15
302.046	6.19
302.416	6.23
302.787	6.32
303.157	6.32
303.527	6.19
303.897	6.27
304.267	6.5
304.637	6.46
305.008	6.46
305.378	6.56
305.748	6.62
306.117	6.5
306.487	6.61
306.857	6.45
307.227	6.48
307.597	6.38
307.967	6.46
308.336	6.51
308.706	6.42
309.076	6.52
309.445	6.55
309.815	6.46
310.184	6.41
310.554	6.38
310.923	6.37
311.293	6.43
311.662	6.29
312.031	6.22
312.401	6.24
312.77	6.26
313.139	6.2
313.508	6.12
313.877	6.23
314.246	6.27
314.616	6.33
314.985	6.13
315.353	6.19
315.722	6.17
316.091	6.1
316.46	6.05
316.829	6.04
317.198	6.05
317.567	6.07
317.935	6.16
318.304	6.21
318.672	6.14
319.041	6.27
319.41	6.35
319.778	6.31
320.147	6.22
320.515	6.26
320.883	6.23
321.252	6.44
321.62	6.4
321.988	6.35
322.357	6.39
322.725	6.42
323.093	6.58
323.461	6.5
323.829	6.5
324.197	6.65
324.565	6.54
324.933	6.36
325.301	6.38
325.669	6.35
326.037	6.31
326.405	6.39
326.772	6.45
327.14	6.62
327.508	6.71
327.875	6.68
328.243	6.7
328.61	6.68
328.978	6.64
329.346	6.69
329.713	6.69
330.08	6.7
330.448	6.68
330.815	6.53
331.182	6.55
331.55	6.65
331.917	6.59
332.284	6.68
332.651	6.8
333.018	6.92
333.385	6.8
333.752	6.9
334.119	6.94
334.486	6.78
334.853	6.7
335.22	6.63
335.587	6.74
335.954	6.78
336.32	6.75
336.687	6.73
337.054	6.59
337.42	6.58
337.787	6.62
338.153	6.74
338.52	6.82
338.886	6.84
339.253	6.72
339.619	6.76
339.986	6.76
340.352	6.82
340.718	6.75
341.084	6.76
341.451	6.71
341.817	6.7
342.183	6.78
342.549	6.73
342.915	6.78
343.281	6.84
343.647	6.81
344.013	6.88
344.379	6.75
344.745	6.86
345.11	6.93
345.476	6.93
345.842	6.91
346.208	6.83
346.573	6.81
346.939	6.94
347.304	6.93
347.67	6.89
348.035	6.84
348.401	6.85
348.766	6.88
349.132	6.91
349.497	6.83
349.862	6.81
350.228	6.87
350.593	6.78
350.958	6.67
351.323	6.65
351.688	6.63
352.053	6.73
352.418	6.7
352.783	6.71
353.148	6.66
353.513	6.71
353.878	6.69
354.243	6.69
354.608	6.65
354.972	6.64
355.337	6.67
355.702	6.68
356.066	6.72
356.431	6.66
356.795	6.68
357.16	6.65
357.524	6.6
357.889	6.53
358.253	6.56
358.618	6.62
358.982	6.58
359.346	6.53
359.71	6.46
360.075	6.52
360.439	6.52
360.803	6.53
361.167	6.48
361.531	6.49
361.895	6.47
362.259	6.4
362.623	6.4
362.987	6.38
363.351	6.34
363.714	6.31
364.078	6.34
364.442	6.28
364.806	6.25
365.169	6.27
365.533	6.3
365.896	6.36
366.26	6.41
366.623	6.43
366.987	6.44
367.35	6.53
367.714	6.47
368.077	6.46
368.44	6.49
368.803	6.47
369.167	6.44
369.53	6.48
369.893	6.62
370.256	6.63
370.619	6.62
370.982	6.57
371.345	6.52
371.708	6.57
372.071	6.54
372.434	6.6
372.797	6.66
373.159	6.63
373.522	6.65
373.885	6.61
374.247	6.64
374.61	6.67
374.973	6.64
375.335	6.64
375.698	6.65
376.06	6.62
376.423	6.65
376.785	6.67
377.147	6.71
377.51	6.6
377.872	6.59
378.234	6.58
378.596	6.57
378.958	6.59
379.321	6.53
379.683	6.63
380.045	6.61
380.407	6.57
380.769	6.63
381.13	6.54
381.492	6.51
381.854	6.52
382.216	6.47
382.578	6.5
382.939	6.48
383.301	6.42
383.663	6.4
384.024	6.38
384.386	6.46
384.747	6.42
385.109	6.43
385.47	6.44
385.832	6.46
386.193	6.53
386.554	6.51
386.916	6.48
387.277	6.47
387.638	6.5
387.999	6.5
388.36	6.48
388.721	6.46
389.082	6.46
389.443	6.43
389.804	6.47
390.165	6.45
390.526	6.43
390.887	6.43
391.248	6.45
391.609	6.48
391.969	6.44
392.33	6.42
392.691	6.45
393.051	6.43
393.412	6.42
393.772	6.37
394.133	6.4
394.493	6.43
394.854	6.41
395.214	6.4
395.574	6.38
395.935	6.37
396.295	6.42
396.655	6.39
397.015	6.4
397.376	6.41
397.736	6.39
398.096	6.42
398.456	6.45
398.816	6.44
399.176	6.43
399.535	6.42
399.895	6.43
400.255	6.41
400.615	6.42
400.975	6.41
401.334	6.41
401.694	6.39
402.054	6.37
402.413	6.35
402.773	6.33
403.132	6.35
403.492	6.34
403.851	6.35
404.211	6.38
404.57	6.38
404.929	6.37
405.288	6.37
405.648	6.35
406.007	6.33
406.366	6.31
406.725	6.3
407.084	6.29
407.443	6.27
407.802	6.29
408.161	6.28
408.52	6.28
408.879	6.28
409.238	6.29
409.596	6.29
409.955	6.28
410.314	6.3
410.673	6.28
411.031	6.28
411.39	6.24
411.748	6.21
412.107	6.21
412.465	6.2
412.824	6.2
413.182	6.2
413.54	6.22
413.899	6.22
414.257	6.22
414.615	6.23
414.974	6.24
415.332	6.21
415.69	6.2
416.048	6.2
416.406	6.2
416.764	6.2
417.122	6.2
417.48	6.18
417.838	6.18
418.195	6.19
418.553	6.18
418.911	6.19
419.269	6.21
419.626	6.19
419.984	6.2
420.342	6.23
420.699	6.21
421.057	6.22
421.414	6.2
421.772	6.2
422.129	6.2
422.486	6.2
422.844	6.21
423.201	6.2
423.558	6.19
423.915	6.2
424.273	6.2
424.63	6.21
424.987	6.22
425.344	6.21
425.701	6.2
426.058	6.21
426.415	6.2
426.772	6.19
427.128	6.19
427.485	6.18
427.842	6.15
428.199	6.15
428.555	6.15
428.912	6.19
429.269	6.19
429.625	6.17
429.982	6.17
430.338	6.17
430.695	6.18
431.051	6.15
431.407	6.14
431.764	6.13
432.12	6.13
432.476	6.13
432.832	6.14
433.189	6.14
433.545	6.12
433.901	6.11
434.257	6.1
434.613	6.1
434.969	6.1
435.325	6.09
435.681	6.1
436.036	6.08
436.392	6.06
436.748	6.05
437.104	6.06
437.459	6.05
437.815	6.04
438.171	6.04
438.526	6.08
438.882	6.08
439.237	6.09
439.593	6.08
439.948	6.08
440.304	6.07
440.659	6.08
441.014	6.09
441.369	6.09
441.725	6.1
442.08	6.11
442.435	6.12
442.79	6.13
443.145	6.12
443.5	6.13
443.855	6.13
444.21	6.12
444.565	6.12
444.92	6.14
445.275	6.14
445.629	6.14
445.984	6.14
446.339	6.14
446.693	6.11
447.048	6.11
447.403	6.11
447.757	6.1
448.112	6.08
448.466	6.07
448.82	6.08
449.175	6.08
449.529	6.07
449.883	6.06
450.238	6.05
450.592	6.04
450.946	6.05
451.3	6.04
451.654	6.05
452.008	6.06
452.362	6.03
452.716	6.03
453.07	6.02
453.424	6.03
453.778	6.01
454.132	6.02
454.486	5.99
454.839	6
455.193	5.99
455.547	6
455.9	6
456.254	6
456.607	6
456.961	6.01
457.314	6.01
457.668	6
458.021	6.02
458.375	6.03
458.728	6.03
459.081	6.01
459.434	5.99
459.787	6
460.141	6.01
460.494	6
460.847	5.98
461.2	5.99
461.553	6.01
461.906	6.03
462.259	6.03
462.611	6.06
462.964	6.07
463.317	6.07
463.67	6.05
464.022	6.05
464.375	6.03
464.728	6.03
465.08	6.03
465.433	6.04
465.785	6.02
466.138	6.04
466.49	6.06
466.843	6.06
467.195	6.07
467.547	6.08
467.899	6.08
468.252	6.09
468.604	6.09
468.956	6.08
469.308	6.1
469.66	6.08
470.012	6.06
470.364	6.08
470.716	6.09
471.068	6.11
471.42	6.15
471.772	6.16
472.123	6.17
472.475	6.19
472.827	6.18
473.178	6.17
473.53	6.17
473.882	6.16
474.233	6.19
474.585	6.16
474.936	6.17
475.288	6.18
475.639	6.19
475.99	6.19
476.342	6.19
476.693	6.17
477.044	6.19
477.395	6.19
477.746	6.18
478.097	6.17
478.448	6.18
478.8	6.16
479.15	6.15
479.501	6.14
479.852	6.15
480.203	6.17
480.554	6.19
480.905	6.21
481.255	6.23
481.606	6.24
481.957	6.27
482.307	6.27
482.658	6.27
483.009	6.28
483.359	6.3
483.709	6.3
484.06	6.32
484.41	6.32
484.761	6.32
485.111	6.32
485.461	6.32
485.811	6.33
486.162	6.33
486.512	6.35
486.862	6.36
487.212	6.36
487.562	6.36
487.912	6.36
488.262	6.37
488.612	6.36
488.961	6.35
489.311	6.34
489.661	6.34
490.011	6.35
490.36	6.36
490.71	6.34
491.06	6.34
491.409	6.34
491.759	6.34
492.108	6.34
492.458	6.34
492.807	6.33
493.157	6.31
493.506	6.32
493.855	6.31
494.204	6.3
494.554	6.28
494.903	6.27
495.252	6.26
495.601	6.26
495.95	6.27
496.299	6.29
496.648	6.29
496.997	6.28
497.346	6.3
497.695	6.28
498.043	6.29
498.392	6.3
498.741	6.3
499.09	6.3
499.438	6.3
499.787	6.33
500.135	6.36
500.484	6.38
500.832	6.38
501.181	6.4
501.529	6.42
501.878	6.44
502.226	6.45
502.574	6.47
502.923	6.46
503.271	6.47
503.619	6.48
503.967	6.49
504.315	6.48
504.663	6.47
505.011	6.5
505.359	6.5
505.707	6.51
506.055	6.5
506.403	6.52
506.751	6.54
507.098	6.51
507.446	6.52
507.794	6.53
508.141	6.55
508.489	6.55
508.837	6.57
509.184	6.59
509.531	6.6
509.879	6.59
510.226	6.6
510.574	6.61
510.921	6.6
511.268	6.59
511.616	6.61
511.963	6.61
512.31	6.6
512.657	6.63
513.004	6.63
513.351	6.68
513.698	6.67
514.045	6.66
514.392	6.69
514.739	6.68
515.086	6.68
515.432	6.67
515.779	6.66
516.126	6.65
516.473	6.66
516.819	6.68
517.166	6.69
517.512	6.71
517.859	6.71
518.205	6.7
518.552	6.73
518.898	6.72
519.245	6.74
519.591	6.75
519.937	6.72
520.283	6.72
520.629	6.7
520.976	6.71
521.322	6.73
521.668	6.73
522.014	6.73
522.36	6.72
522.706	6.73
523.052	6.74
523.398	6.76
523.743	6.77
524.089	6.76
524.435	6.75
524.781	6.75
525.126	6.74
525.472	6.74
525.817	6.75
526.163	6.75
526.509	6.77
526.854	6.78
527.199	6.8
527.545	6.81
527.89	6.82
528.235	6.82
528.581	6.82
528.926	6.82
529.271	6.83
529.616	6.84
529.961	6.84
530.306	6.83
530.651	6.83
530.996	6.84
531.341	6.84
531.686	6.87
532.031	6.87
532.376	6.88
532.721	6.89
533.065	6.9
533.41	6.91
533.755	6.9
534.099	6.89
534.444	6.89
534.788	6.89
535.133	6.88
535.477	6.87
535.822	6.87
536.166	6.87
536.51	6.88
536.855	6.88
537.199	6.88
537.543	6.88
537.887	6.88
538.231	6.88
538.576	6.89
538.92	6.89
539.264	6.89
539.608	6.92
539.951	6.92
540.295	6.92
540.639	6.94
540.983	6.95
541.327	6.96
541.671	6.95
542.014	6.97
542.358	6.98
542.701	6.98
543.045	6.99
543.389	7.01
543.732	7.02
544.075	7.03
544.419	7.04
544.762	7.06
545.105	7.07
545.449	7.08
545.792	7.09
546.135	7.11
546.478	7.11
546.821	7.09
547.165	7.08
547.508	7.09
547.851	7.09
548.194	7.07
548.536	7.07
548.879	7.07
549.222	7.06
549.565	7.06
549.908	7.09
550.25	7.11
550.593	7.11
550.936	7.07
551.278	7.08
551.621	7.09
551.963	7.09
552.306	7.07
552.648	7.07
552.991	7.04
553.333	7.05
553.675	7.06
554.017	7.1
554.36	7.1
554.702	7.1
555.044	7.11
555.386	7.11
555.728	7.13
556.07	7.16
556.412	7.16
556.754	7.15
557.096	7.13
557.438	7.09
557.78	7.07
558.121	7.09
558.463	7.08
558.805	7.08
559.147	7.1
559.488	7.12
559.83	7.13
560.171	7.15
560.513	7.14
560.854	7.14
561.196	7.1
561.537	7.1
561.878	7.08
562.22	7.06
562.561	7.07
562.902	7.1
563.243	7.09
563.584	7.07
563.925	7.06
564.266	7.03
564.607	7.05
564.948	7.08
565.289	7.08
565.63	7.12
565.971	7.09
566.312	7.1
566.653	7.09
566.993	7.07
567.334	7.08
567.675	7.05
568.015	7.05
568.356	7.06
568.696	7.07
569.037	7.06
569.377	7.07
569.718	7.08
570.058	7.06
570.398	7.05
570.739	7.07
571.079	7.1
571.419	7.15
571.759	7.17
572.099	7.17
572.439	7.17
572.779	7.14
573.119	7.2
573.459	7.2
573.799	7.21
574.139	7.22
574.479	7.23
574.819	7.25
575.158	7.25
575.498	7.26
575.838	7.24
576.177	7.27
576.517	7.26
576.856	7.27
577.196	7.25
577.535	7.26
577.875	7.27
578.214	7.26
578.553	7.24
578.893	7.21
579.232	7.2
579.571	7.19
579.91	7.16
580.25	7.11
580.589	7.06
580.928	7.07
581.267	7.04
581.606	7.02
581.945	7.01
582.283	7.02
582.622	7
582.961	7
583.3	6.96
583.639	6.99
583.977	7.03
584.316	7.07
584.654	7.05
584.993	7.05
585.332	7.05
585.67	7.01
586.008	7.06
586.347	7.03
586.685	7.04
587.024	7.07
587.362	7.12
587.7	7.19
588.038	7.22
588.376	7.24
588.715	7.23
589.053	7.27
589.391	7.26
589.729	7.3
590.067	7.29
590.404	7.31
590.742	7.27
591.08	7.24
591.418	7.2
591.756	7.24
592.093	7.23
592.431	7.25
592.769	7.3
593.106	7.31
593.444	7.33
593.781	7.32
594.119	7.37
594.456	7.36
594.793	7.3
595.131	7.28
595.468	7.3
595.805	7.33
596.143	7.32
596.48	7.34
596.817	7.35
597.154	7.38
597.491	7.37
597.828	7.41
598.165	7.41
598.502	7.44
598.839	7.44
599.176	7.45
599.512	7.46
599.849	7.45
600.186	7.44
600.523	7.44
600.859	7.44
601.196	7.41
601.532	7.41
601.869	7.44
602.205	7.47
602.542	7.48
602.878	7.43
603.215	7.43
603.551	7.43
603.887	7.39
604.223	7.38
604.56	7.4
604.896	7.38
605.232	7.4
605.568	7.39
605.904	7.38
606.24	7.39
606.576	7.38
606.912	7.39
607.248	7.37
607.583	7.43
607.919	7.41
608.255	7.41
608.591	7.44
608.926	7.44
609.262	7.45
609.597	7.44
609.933	7.48
610.268	7.45
610.604	7.46
610.939	7.49
611.275	7.49
611.61	7.46
611.945	7.46
612.281	7.44
612.616	7.46
612.951	7.47
613.286	7.44
613.621	7.48
613.956	7.48
614.291	7.47
614.626	7.38
614.961	7.36
615.296	7.33
615.631	7.3
615.966	7.26
616.3	7.23
616.635	7.23
616.97	7.22
617.304	7.26
617.639	7.26
617.973	7.25
618.308	7.29
618.642	7.35
618.977	7.36
619.311	7.37
619.646	7.34
619.98	7.37
620.314	7.42
620.648	7.43
620.983	7.44
621.317	7.5
621.651	7.57
621.985	7.62
622.319	7.64
622.653	7.63
622.987	7.66
623.321	7.69
623.655	7.67
623.988	7.69
624.322	7.67
624.656	7.68
624.99	7.65
625.323	7.68
625.657	7.69
625.99	7.71
626.324	7.69
626.657	7.7
626.991	7.67
627.324	7.64
627.658	7.63
627.991	7.63
628.324	7.63
628.657	7.6
628.991	7.59
629.324	7.61
629.657	7.62
629.99	7.62
630.323	7.6
630.656	7.62
630.989	7.64
631.322	7.71
631.655	7.67
631.987	7.71
632.32	7.64
632.653	7.62
632.986	7.6
633.318	7.61
633.651	7.62
633.984	7.62
634.316	7.62
634.649	7.63
634.981	7.61
635.313	7.61
635.646	7.57
635.978	7.59
636.31	7.51
636.643	7.5
636.975	7.54
637.307	7.56
637.639	7.55
637.971	7.62
638.303	7.59
638.635	7.63
638.967	7.64
639.299	7.71
639.631	7.74
639.963	7.71
640.295	7.8
640.626	7.77
640.958	7.79
641.29	7.8
641.621	7.74
641.953	7.65
642.285	7.65
642.616	7.73
642.948	7.73
643.279	7.76
643.61	7.83
643.942	7.81
644.273	7.8
644.604	7.79
644.936	7.64
645.267	7.58
645.598	7.56
645.929	7.55
646.26	7.51
646.591	7.49
646.922	7.55
647.253	7.47
647.584	7.52
647.915	7.48
648.245	7.46
648.576	7.43
648.907	7.56
649.238	7.56
649.568	7.53
649.899	7.58
650.229	7.59
650.56	7.52
650.89	7.51
651.221	7.49
651.551	7.45
651.882	7.57
652.212	7.64
652.542	7.64
652.872	7.6
653.203	7.59
653.533	7.61
653.863	7.58
654.193	7.6
654.523	7.54
654.853	7.61
655.183	7.64
655.513	7.68
655.843	7.68
656.172	7.7
656.502	7.71
656.832	7.69
657.162	7.7
657.491	7.78
657.821	7.75
658.15	7.85
658.48	7.93
658.809	7.87
659.139	7.83
659.468	7.77
659.798	7.81
660.127	7.86
660.456	7.85
660.785	7.87
661.115	7.93
661.444	7.96
661.773	7.92
662.102	7.9
662.431	7.96
662.76	7.92
663.089	7.9
663.418	7.87
663.747	7.84
664.076	7.85
664.404	7.78
664.733	7.81
665.062	7.72
665.39	7.69
665.719	7.67
666.048	7.73
666.376	7.77
666.705	7.76
667.033	7.67
667.362	7.59
667.69	7.53
668.018	7.5
668.347	7.47
668.675	7.52
669.003	7.49
669.331	7.55
669.659	7.54
669.987	7.57
670.315	7.61
670.643	7.68
670.971	7.77
671.299	7.79
671.627	7.77
671.955	7.77
672.283	7.76
672.61	7.75
672.938	7.69
673.266	7.8
673.593	7.91
673.921	7.93
674.249	8.05
674.576	8.14
674.904	8.22
675.231	8.24
675.558	8.3
675.886	8.42
676.213	8.35
676.54	8.44
