Data from BA57757_Reflection_00030.txt Node
Date: Mon Nov 18 15:01:50 EST 2019
User: vgr7
Spectrometer: USB2G7710
Scans to average: 3
Trigger mode: 4
Integration Time (sec): 2.000000E-2
Electric dark correction enabled: true
Boxcar width: 10
XAxis mode: Wavelengths
Number of Pixels in Spectrum: 2048
>>>>>Begin Spectral Data<<<<<
177.721	108.37
178.105	5.92
178.488	526.78
178.871	-184.48
179.254	59
179.636	48.28
180.019	311.06
180.402	9.76
180.785	43.93
181.168	46.9
181.55	-179.07
181.933	65.09
182.316	88.86
182.698	94.78
183.081	79.36
183.463	79.81
183.846	107.66
184.228	159.46
184.611	146.93
184.993	170.69
185.376	-206.64
185.758	-290.65
186.14	-223.68
186.522	-748.33
186.904	-639.56
187.287	3182.57
187.669	-532.69
188.051	-434.5
188.433	-201.26
188.815	-164.33
189.197	-115.24
189.579	-140
189.961	-107.76
190.342	-68.58
190.724	-60.35
191.106	-87.77
191.488	-93.37
191.869	-76.92
192.251	-76.76
192.633	-83.22
193.014	-95.23
193.396	-113.41
193.777	-94.31
194.159	-91.74
194.54	-66.71
194.922	-49.73
195.303	-39.59
195.684	-40.47
196.065	-34.94
196.447	-32.15
196.828	-36.13
197.209	-41.42
197.59	-38.52
197.971	-38.42
198.352	-40.32
198.733	-52.31
199.114	-44.97
199.495	-45.4
199.876	-49.18
200.257	-55.49
200.638	-55.32
201.018	-49.28
201.399	-63.82
201.78	-51.51
202.16	-66.07
202.541	-94.85
202.922	-115.74
203.302	-149.64
203.683	-157.22
204.063	-187.85
204.444	-194.98
204.824	-186.07
205.204	-184.37
205.585	-149.18
205.965	-153.55
206.345	-177.24
206.725	-163.06
207.106	-174.86
207.486	-168.54
207.866	-169.24
208.246	-158.5
208.626	-151.33
209.006	-131.6
209.386	-117.25
209.766	-131.62
210.145	-107.54
210.525	-75.84
210.905	-65.08
211.285	-56.57
211.664	-48.94
212.044	-40.65
212.424	-62.62
212.803	-63.05
213.183	-77.2
213.562	-74.29
213.942	-52.38
214.321	-42.09
214.701	-29.42
215.08	-41.77
215.459	-31
215.838	-31.08
216.218	-40.69
216.597	-37.72
216.976	-45.79
217.355	-58.18
217.734	-45.79
218.113	-50.09
218.492	-63.27
218.871	-67.24
219.25	-50.32
219.629	-57.16
220.008	-60.48
220.387	-33.97
220.766	-30.28
221.144	-33.42
221.523	-49.2
221.902	-67.96
222.28	-69.84
222.659	-68.88
223.037	-49.16
223.416	-55.73
223.794	-52.1
224.173	-48.14
224.551	-42.11
224.929	-38.73
225.308	-29.81
225.686	-32.55
226.064	-30.28
226.442	-32.11
226.821	-24.2
227.199	-23.78
227.577	-23.12
227.955	-21.52
228.333	-23.18
228.711	-17.15
229.089	-10.56
229.467	-10.23
229.845	-8.71
230.222	-6.89
230.6	-6.7
230.978	-7.52
231.356	-3.5
231.733	-1.96
232.111	-1.72
232.488	-2.36
232.866	-2.24
233.243	-1.43
233.621	0.14
233.998	1.71
234.376	3.09
234.753	1.19
235.13	0.29
235.508	0.86
235.885	1.7
236.262	1.73
236.639	-0.02
237.016	-0.83
237.393	1.03
237.77	1.03
238.147	0.42
238.524	0.77
238.901	2.09
239.278	1.89
239.655	2.21
240.032	3.46
240.409	3.4
240.785	4.12
241.162	4.1
241.539	4.57
241.915	4.31
242.292	3.98
242.668	4.3
243.045	4.68
243.421	5.03
243.798	5
244.174	5.04
244.551	5.17
244.927	4.94
245.303	5.07
245.679	5.24
246.056	5.3
246.432	5.41
246.808	5.06
247.184	4.82
247.56	4.55
247.936	4.19
248.312	4.2
248.688	4
249.064	3.89
249.44	3.78
249.815	3.83
250.191	4.04
250.567	3.99
250.943	3.84
251.318	3.37
251.694	3.4
252.069	3.45
252.445	3.35
252.82	3.24
253.196	2.9
253.571	2.69
253.947	2.65
254.322	2.8
254.697	3.01
255.073	3.1
255.448	2.95
255.823	3.23
256.198	3.57
256.573	3.73
256.948	4.14
257.323	4.43
257.698	4.27
258.073	4.21
258.448	4.28
258.823	4.33
259.198	4.56
259.573	4.56
259.948	4.39
260.322	4.4
260.697	4.38
261.072	4.41
261.446	4.47
261.821	4.47
262.195	4.46
262.57	4.39
262.944	4.3
263.319	4.43
263.693	4.14
264.067	4.05
264.442	4.1
264.816	3.74
265.19	3.44
265.564	3.49
265.938	3.32
266.313	3.17
266.687	3.14
267.061	3.13
267.435	2.88
267.809	3.01
268.183	3.01
268.556	2.97
268.93	3.19
269.304	3.23
269.678	3.45
270.051	3.36
270.425	3.48
270.799	3.75
271.172	3.88
271.546	3.96
271.919	3.92
272.293	3.89
272.666	4.08
273.04	4.15
273.413	4.01
273.787	4.08
274.16	4.08
274.533	4
274.906	3.99
275.279	4.03
275.653	4.03
276.026	3.98
276.399	4.16
276.772	4.13
277.145	4.03
277.518	3.92
277.891	3.89
278.263	3.84
278.636	3.77
279.009	3.54
279.382	3.67
279.755	3.65
280.127	3.74
280.5	3.65
280.872	3.67
281.245	3.85
281.617	3.88
281.99	4.1
282.362	4.37
282.735	4.07
283.107	4.22
283.479	4.3
283.852	4.45
284.224	4.43
284.596	4.33
284.968	4.37
285.34	4.45
285.713	4.42
286.085	4.55
286.457	4.59
286.829	4.79
287.201	4.89
287.572	4.8
287.944	4.7
288.316	4.85
288.688	4.93
289.06	4.87
289.431	5
289.803	4.95
290.175	4.81
290.546	5.13
290.918	5.01
291.289	4.93
291.661	4.97
292.032	5.06
292.403	5.18
292.775	5.3
293.146	5.22
293.517	5.31
293.889	5.29
294.26	5.36
294.631	5.41
295.002	5.32
295.373	5.54
295.744	5.54
296.115	5.43
296.486	5.37
296.857	5.48
297.228	5.42
297.599	5.22
297.97	5.32
298.34	5.32
298.711	5.36
299.082	5.37
299.452	5.32
299.823	5.39
300.194	5.38
300.564	5.27
300.935	5.38
301.305	5.35
301.676	5.3
302.046	5.22
302.416	5.25
302.787	5.2
303.157	5.16
303.527	5.27
303.897	5.29
304.267	5.28
304.637	5.34
305.008	5.47
305.378	5.72
305.748	5.66
306.117	5.62
306.487	5.8
306.857	5.99
307.227	5.94
307.597	5.85
307.967	5.84
308.336	5.94
308.706	5.97
309.076	6.09
309.445	6.15
309.815	6.17
310.184	6.11
310.554	6.17
310.923	6.18
311.293	6.22
311.662	6.28
312.031	6.24
312.401	6.26
312.77	6.3
313.139	6.35
313.508	6.45
313.877	6.43
314.246	6.37
314.616	6.34
314.985	6.43
315.353	6.39
315.722	6.39
316.091	6.37
316.46	6.21
316.829	6.08
317.198	6.1
317.567	6.09
317.935	6.11
318.304	6.17
318.672	6.22
319.041	6.27
319.41	6.25
319.778	6.25
320.147	6.15
320.515	5.86
320.883	5.75
321.252	5.81
321.62	5.84
321.988	5.87
322.357	5.74
322.725	5.68
323.093	5.68
323.461	5.82
323.829	5.82
324.197	5.92
324.565	6.03
324.933	6
325.301	5.93
325.669	5.87
326.037	5.89
326.405	5.94
326.772	5.91
327.14	5.97
327.508	5.99
327.875	5.95
328.243	6.1
328.61	6.11
328.978	6.08
329.346	6.09
329.713	6.03
330.08	6.05
330.448	5.95
330.815	5.97
331.182	5.83
331.55	5.79
331.917	5.85
332.284	5.82
332.651	5.81
333.018	5.82
333.385	5.91
333.752	5.97
334.119	5.98
334.486	5.98
334.853	5.82
335.22	5.81
335.587	5.93
335.954	5.89
336.32	5.93
336.687	5.95
337.054	5.92
337.42	5.98
337.787	6.04
338.153	6.14
338.52	6.2
338.886	6.14
339.253	6.14
339.619	6.12
339.986	6.11
340.352	6.18
340.718	6.13
341.084	5.98
341.451	6.03
341.817	5.98
342.183	5.86
342.549	5.91
342.915	6.01
343.281	5.94
343.647	5.92
344.013	6.01
344.379	5.93
344.745	6.06
345.11	6.01
345.476	5.93
345.842	5.93
346.208	5.8
346.573	5.91
346.939	6.05
347.304	5.95
347.67	5.86
348.035	5.76
348.401	5.8
348.766	5.8
349.132	5.8
349.497	5.77
349.862	5.81
350.228	5.83
350.593	5.71
350.958	5.67
351.323	5.69
351.688	5.66
352.053	5.7
352.418	5.58
352.783	5.57
353.148	5.55
353.513	5.54
353.878	5.67
354.243	5.68
354.608	5.6
354.972	5.64
355.337	5.8
355.702	5.87
356.066	5.9
356.431	5.99
356.795	5.98
357.16	5.99
357.524	6.04
357.889	6.06
358.253	6.12
358.618	6.11
358.982	6.02
359.346	5.91
359.71	5.84
360.075	5.88
360.439	5.97
360.803	6.02
361.167	6.01
361.531	5.93
361.895	5.92
362.259	5.88
362.623	5.87
362.987	5.8
363.351	5.78
363.714	5.81
364.078	5.77
364.442	5.68
364.806	5.66
365.169	5.66
365.533	5.62
365.896	5.63
366.26	5.68
366.623	5.75
366.987	5.8
367.35	5.83
367.714	5.88
368.077	5.81
368.44	5.79
368.803	5.76
369.167	5.78
369.53	5.72
369.893	5.81
370.256	5.82
370.619	5.76
370.982	5.68
371.345	5.65
371.708	5.66
372.071	5.68
372.434	5.75
372.797	5.77
373.159	5.74
373.522	5.75
373.885	5.75
374.247	5.76
374.61	5.8
374.973	5.82
375.335	5.76
375.698	5.8
376.06	5.78
376.423	5.8
376.785	5.87
377.147	5.93
377.51	5.89
377.872	5.86
378.234	5.87
378.596	5.96
378.958	5.91
379.321	5.9
379.683	5.97
380.045	5.93
380.407	5.89
380.769	5.9
381.13	5.86
381.492	5.85
381.854	5.84
382.216	5.79
382.578	5.82
382.939	5.8
383.301	5.79
383.663	5.8
384.024	5.77
384.386	5.8
384.747	5.75
385.109	5.74
385.47	5.77
385.832	5.83
386.193	5.77
386.554	5.8
386.916	5.81
387.277	5.77
387.638	5.79
387.999	5.79
388.36	5.81
388.721	5.84
389.082	5.81
389.443	5.77
389.804	5.79
390.165	5.78
390.526	5.76
390.887	5.74
391.248	5.78
391.609	5.79
391.969	5.74
392.33	5.72
392.691	5.73
393.051	5.72
393.412	5.7
393.772	5.71
394.133	5.76
394.493	5.75
394.854	5.73
395.214	5.71
395.574	5.7
395.935	5.69
396.295	5.67
396.655	5.66
397.015	5.7
397.376	5.65
397.736	5.64
398.096	5.7
398.456	5.69
398.816	5.72
399.176	5.7
399.535	5.68
399.895	5.69
400.255	5.69
400.615	5.69
400.975	5.69
401.334	5.69
401.694	5.66
402.054	5.66
402.413	5.67
402.773	5.69
403.132	5.7
403.492	5.68
403.851	5.71
404.211	5.73
404.57	5.76
404.929	5.78
405.288	5.75
405.648	5.72
406.007	5.73
406.366	5.69
406.725	5.74
407.084	5.74
407.443	5.73
407.802	5.72
408.161	5.71
408.52	5.7
408.879	5.69
409.238	5.69
409.596	5.67
409.955	5.68
410.314	5.64
410.673	5.62
411.031	5.64
411.39	5.6
411.748	5.58
412.107	5.54
412.465	5.56
412.824	5.57
413.182	5.55
413.54	5.54
413.899	5.57
414.257	5.54
414.615	5.55
414.974	5.59
415.332	5.61
415.69	5.61
416.048	5.61
416.406	5.59
416.764	5.59
417.122	5.61
417.48	5.59
417.838	5.61
418.195	5.61
418.553	5.61
418.911	5.62
419.269	5.62
419.626	5.62
419.984	5.61
420.342	5.63
420.699	5.62
421.057	5.62
421.414	5.61
421.772	5.61
422.129	5.62
422.486	5.61
422.844	5.61
423.201	5.59
423.558	5.57
423.915	5.59
424.273	5.59
424.63	5.58
424.987	5.59
425.344	5.58
425.701	5.58
426.058	5.57
426.415	5.56
426.772	5.55
427.128	5.56
427.485	5.56
427.842	5.56
428.199	5.56
428.555	5.55
428.912	5.54
429.269	5.54
429.625	5.51
429.982	5.53
430.338	5.51
430.695	5.54
431.051	5.54
431.407	5.55
431.764	5.55
432.12	5.55
432.476	5.52
432.832	5.51
433.189	5.5
433.545	5.5
433.901	5.49
434.257	5.49
434.613	5.47
434.969	5.48
435.325	5.45
435.681	5.44
436.036	5.45
436.392	5.45
436.748	5.45
437.104	5.46
437.459	5.45
437.815	5.44
438.171	5.43
438.526	5.41
438.882	5.4
439.237	5.41
439.593	5.42
439.948	5.43
440.304	5.43
440.659	5.43
441.014	5.44
441.369	5.44
441.725	5.44
442.08	5.43
442.435	5.42
442.79	5.44
443.145	5.45
443.5	5.43
443.855	5.41
444.21	5.41
444.565	5.42
444.92	5.41
445.275	5.4
445.629	5.4
445.984	5.41
446.339	5.4
446.693	5.37
447.048	5.36
447.403	5.36
447.757	5.34
448.112	5.35
448.466	5.33
448.82	5.34
449.175	5.35
449.529	5.34
449.883	5.34
450.238	5.33
450.592	5.32
450.946	5.33
451.3	5.33
451.654	5.31
452.008	5.28
452.362	5.27
452.716	5.29
453.07	5.3
453.424	5.3
453.778	5.32
454.132	5.34
454.486	5.33
454.839	5.33
455.193	5.33
455.547	5.33
455.9	5.34
456.254	5.34
456.607	5.33
456.961	5.34
457.314	5.34
457.668	5.34
458.021	5.33
458.375	5.33
458.728	5.34
459.081	5.34
459.434	5.36
459.787	5.37
460.141	5.37
460.494	5.37
460.847	5.39
461.2	5.36
461.553	5.35
461.906	5.35
462.259	5.33
462.611	5.35
462.964	5.33
463.317	5.33
463.67	5.32
464.022	5.32
464.375	5.31
464.728	5.31
465.08	5.32
465.433	5.33
465.785	5.35
466.138	5.36
466.49	5.35
466.843	5.33
467.195	5.33
467.547	5.32
467.899	5.33
468.252	5.32
468.604	5.34
468.956	5.35
469.308	5.35
469.66	5.36
470.012	5.37
470.364	5.38
470.716	5.38
471.068	5.38
471.42	5.38
471.772	5.4
472.123	5.42
472.475	5.42
472.827	5.41
473.178	5.4
473.53	5.39
473.882	5.4
474.233	5.41
474.585	5.4
474.936	5.4
475.288	5.4
475.639	5.39
475.99	5.39
476.342	5.39
476.693	5.39
477.044	5.39
477.395	5.36
477.746	5.34
478.097	5.32
478.448	5.33
478.8	5.33
479.15	5.36
479.501	5.37
479.852	5.39
480.203	5.42
480.554	5.44
480.905	5.45
481.255	5.48
481.606	5.48
481.957	5.5
482.307	5.51
482.658	5.51
483.009	5.51
483.359	5.53
483.709	5.55
484.06	5.55
484.41	5.56
484.761	5.57
485.111	5.58
485.461	5.59
485.811	5.6
486.162	5.6
486.512	5.6
486.862	5.6
487.212	5.58
487.562	5.58
487.912	5.58
488.262	5.58
488.612	5.57
488.961	5.57
489.311	5.56
489.661	5.55
490.011	5.55
490.36	5.55
490.71	5.53
491.06	5.52
491.409	5.52
491.759	5.51
492.108	5.51
492.458	5.49
492.807	5.48
493.157	5.48
493.506	5.5
493.855	5.49
494.204	5.48
494.554	5.51
494.903	5.5
495.252	5.48
495.601	5.49
495.95	5.5
496.299	5.51
496.648	5.51
496.997	5.51
497.346	5.51
497.695	5.53
498.043	5.53
498.392	5.52
498.741	5.53
499.09	5.54
499.438	5.58
499.787	5.58
500.135	5.6
500.484	5.61
500.832	5.59
501.181	5.57
501.529	5.57
501.878	5.57
502.226	5.59
502.574	5.59
502.923	5.57
503.271	5.57
503.619	5.58
503.967	5.59
504.315	5.6
504.663	5.59
505.011	5.57
505.359	5.56
505.707	5.59
506.055	5.59
506.403	5.59
506.751	5.56
507.098	5.58
507.446	5.59
507.794	5.6
508.141	5.62
508.489	5.64
508.837	5.66
509.184	5.67
509.531	5.68
509.879	5.72
510.226	5.73
510.574	5.74
510.921	5.74
511.268	5.73
511.616	5.75
511.963	5.77
512.31	5.8
512.657	5.82
513.004	5.83
513.351	5.83
513.698	5.83
514.045	5.84
514.392	5.84
514.739	5.83
515.086	5.84
515.432	5.85
515.779	5.84
516.126	5.83
516.473	5.83
516.819	5.84
517.166	5.81
517.512	5.8
517.859	5.8
518.205	5.81
518.552	5.83
518.898	5.84
519.245	5.84
519.591	5.85
519.937	5.84
520.283	5.82
520.629	5.85
520.976	5.86
521.322	5.87
521.668	5.87
522.014	5.88
522.36	5.86
522.706	5.86
523.052	5.89
523.398	5.9
523.743	5.91
524.089	5.91
524.435	5.92
524.781	5.94
525.126	5.95
525.472	5.96
525.817	5.96
526.163	5.96
526.509	5.95
526.854	5.96
527.199	5.98
527.545	5.99
527.89	5.98
528.235	5.99
528.581	6
528.926	6
529.271	6
529.616	6.01
529.961	6
530.306	6
530.651	6.01
530.996	6.02
531.341	6.02
531.686	6.02
532.031	6.03
532.376	6.03
532.721	6.03
533.065	6.02
533.41	6.03
533.755	6.03
534.099	6.03
534.444	6.03
534.788	6.05
535.133	6.06
535.477	6.06
535.822	6.05
536.166	6.06
536.51	6.06
536.855	6.08
537.199	6.11
537.543	6.12
537.887	6.11
538.231	6.07
538.576	6.1
538.92	6.1
539.264	6.1
539.608	6.09
539.951	6.09
540.295	6.1
540.639	6.09
540.983	6.09
541.327	6.09
541.671	6.08
542.014	6.07
542.358	6.06
542.701	6.07
543.045	6.07
543.389	6.07
543.732	6.08
544.075	6.08
544.419	6.06
544.762	6.06
545.105	6.06
545.449	6.09
545.792	6.07
546.135	6.07
546.478	6.07
546.821	6.07
547.165	6.08
547.508	6.07
547.851	6.08
548.194	6.09
548.536	6.1
548.879	6.12
549.222	6.1
549.565	6.11
549.908	6.1
550.25	6.11
550.593	6.11
550.936	6.08
551.278	6.1
551.621	6.1
551.963	6.08
552.306	6.09
552.648	6.08
552.991	6.08
553.333	6.04
553.675	6.05
554.017	6.09
554.36	6.08
554.702	6.09
555.044	6.1
555.386	6.12
555.728	6.12
556.07	6.12
556.412	6.11
556.754	6.09
557.096	6.06
557.438	6.1
557.78	6.08
558.121	6.1
558.463	6.09
558.805	6.12
559.147	6.15
559.488	6.15
559.83	6.14
560.171	6.15
560.513	6.19
560.854	6.16
561.196	6.13
561.537	6.15
561.878	6.15
562.22	6.17
562.561	6.13
562.902	6.15
563.243	6.16
563.584	6.16
563.925	6.19
564.266	6.22
564.607	6.21
564.948	6.24
565.289	6.25
565.63	6.24
565.971	6.24
566.312	6.23
566.653	6.23
566.993	6.24
567.334	6.22
567.675	6.19
568.015	6.21
568.356	6.2
568.696	6.22
569.037	6.24
569.377	6.23
569.718	6.25
570.058	6.25
570.398	6.2
570.739	6.21
571.079	6.2
571.419	6.19
571.759	6.17
572.099	6.16
572.439	6.18
572.779	6.18
573.119	6.18
573.459	6.2
573.799	6.21
574.139	6.22
574.479	6.21
574.819	6.23
575.158	6.2
575.498	6.22
575.838	6.19
576.177	6.16
576.517	6.14
576.856	6.14
577.196	6.12
577.535	6.15
577.875	6.13
578.214	6.14
578.553	6.17
578.893	6.16
579.232	6.14
579.571	6.13
579.91	6.09
580.25	6.1
580.589	6.08
580.928	6.09
581.267	6.09
581.606	6.12
581.945	6.12
582.283	6.14
582.622	6.16
582.961	6.16
583.3	6.21
583.639	6.24
583.977	6.24
584.316	6.24
584.654	6.23
584.993	6.24
585.332	6.25
585.67	6.24
586.008	6.26
586.347	6.29
586.685	6.23
587.024	6.27
587.362	6.27
587.7	6.3
588.038	6.31
588.376	6.35
588.715	6.33
589.053	6.38
589.391	6.39
589.729	6.38
590.067	6.38
590.404	6.35
590.742	6.35
591.08	6.35
591.418	6.35
591.756	6.37
592.093	6.38
592.431	6.42
592.769	6.4
593.106	6.36
593.444	6.33
593.781	6.36
594.119	6.38
594.456	6.36
594.793	6.36
595.131	6.32
595.468	6.31
595.805	6.32
596.143	6.29
596.48	6.3
596.817	6.32
597.154	6.34
597.491	6.32
597.828	6.31
598.165	6.32
598.502	6.35
598.839	6.37
599.176	6.37
599.512	6.36
599.849	6.4
600.186	6.41
600.523	6.48
600.859	6.49
601.196	6.48
601.532	6.49
601.869	6.5
602.205	6.55
602.542	6.52
602.878	6.52
603.215	6.49
603.551	6.51
603.887	6.52
604.223	6.5
604.56	6.55
604.896	6.53
605.232	6.54
605.568	6.5
605.904	6.47
606.24	6.49
606.576	6.49
606.912	6.47
607.248	6.48
607.583	6.46
607.919	6.47
608.255	6.48
608.591	6.5
608.926	6.48
609.262	6.45
609.597	6.5
609.933	6.52
610.268	6.54
610.604	6.51
610.939	6.48
611.275	6.47
611.61	6.46
611.945	6.52
612.281	6.49
612.616	6.5
612.951	6.53
613.286	6.5
613.621	6.49
613.956	6.5
614.291	6.53
614.626	6.56
614.961	6.55
615.296	6.48
615.631	6.45
615.966	6.43
616.3	6.42
616.635	6.39
616.97	6.31
617.304	6.27
617.639	6.31
617.973	6.33
618.308	6.33
618.642	6.31
618.977	6.26
619.311	6.3
619.646	6.32
619.98	6.25
620.314	6.29
620.648	6.25
620.983	6.25
621.317	6.24
621.651	6.23
621.985	6.24
622.319	6.28
622.653	6.3
622.987	6.37
623.321	6.36
623.655	6.39
623.988	6.47
624.322	6.5
624.656	6.47
624.99	6.51
625.323	6.56
625.657	6.55
625.99	6.56
626.324	6.54
626.657	6.57
626.991	6.65
627.324	6.62
627.658	6.64
627.991	6.66
628.324	6.64
628.657	6.6
628.991	6.61
629.324	6.65
629.657	6.65
629.99	6.59
630.323	6.62
630.656	6.65
630.989	6.6
631.322	6.62
631.655	6.62
631.987	6.59
632.32	6.59
632.653	6.62
632.986	6.62
633.318	6.63
633.651	6.62
633.984	6.62
634.316	6.62
634.649	6.66
634.981	6.67
635.313	6.67
635.646	6.71
635.978	6.73
636.31	6.71
636.643	6.7
636.975	6.73
637.307	6.75
637.639	6.66
637.971	6.74
638.303	6.73
638.635	6.73
638.967	6.71
639.299	6.69
639.631	6.66
639.963	6.65
640.295	6.69
640.626	6.63
640.958	6.62
641.29	6.63
641.621	6.6
641.953	6.6
642.285	6.65
642.616	6.69
642.948	6.66
643.279	6.65
643.61	6.66
643.942	6.72
644.273	6.69
644.604	6.69
644.936	6.58
645.267	6.61
645.598	6.62
645.929	6.68
646.26	6.68
646.591	6.73
646.922	6.63
647.253	6.65
647.584	6.64
647.915	6.59
648.245	6.63
648.576	6.66
648.907	6.64
649.238	6.61
649.568	6.57
649.899	6.52
650.229	6.51
650.56	6.45
650.89	6.43
651.221	6.43
651.551	6.53
651.882	6.61
652.212	6.61
652.542	6.61
652.872	6.55
653.203	6.55
653.533	6.55
653.863	6.63
654.193	6.6
654.523	6.57
654.853	6.63
655.183	6.58
655.513	6.56
655.843	6.5
656.172	6.52
656.502	6.52
656.832	6.58
657.162	6.63
657.491	6.69
657.821	6.66
658.15	6.58
658.48	6.58
658.809	6.53
659.139	6.47
659.468	6.43
659.798	6.44
660.127	6.49
660.456	6.52
660.785	6.53
661.115	6.48
661.444	6.56
661.773	6.55
662.102	6.5
662.431	6.52
662.76	6.55
663.089	6.51
663.418	6.54
663.747	6.49
664.076	6.49
664.404	6.45
664.733	6.49
665.062	6.54
665.39	6.49
665.719	6.52
666.048	6.6
666.376	6.59
666.705	6.6
667.033	6.56
667.362	6.58
667.69	6.59
668.018	6.67
668.347	6.66
668.675	6.68
669.003	6.79
669.331	6.82
669.659	6.84
669.987	6.87
670.315	6.83
670.643	6.86
670.971	6.8
671.299	6.8
671.627	6.78
671.955	6.83
672.283	6.84
672.61	6.77
672.938	6.77
673.266	6.87
673.593	6.88
673.921	6.86
674.249	6.76
674.576	6.76
674.904	6.69
675.231	6.72
675.558	6.71
675.886	6.69
676.213	6.65
676.54	6.65
676.867	6.73
