Data from BA57663_Reflection_00001.txt Node
Date: Mon Nov 18 15:43:41 EST 2019
User: vgr7
Spectrometer: USB2G7710
Scans to average: 3
Trigger mode: 4
Integration Time (sec): 2.000000E-2
Electric dark correction enabled: true
Boxcar width: 10
XAxis mode: Wavelengths
Number of Pixels in Spectrum: 2048
>>>>>Begin Spectral Data<<<<<
177.721	-219.49
178.105	175.14
178.488	249.01
178.871	198.21
179.254	144.57
179.636	82.3
180.019	-10.8
180.402	89.29
180.785	37.84
181.168	-2.01
181.55	-32.5
181.933	27.48
182.316	49.91
182.698	41.31
183.081	53.68
183.463	90.02
183.846	84.94
184.228	98.69
184.611	116.33
184.993	95.7
185.376	65.28
185.758	35.82
186.14	47.72
186.522	42.63
186.904	39.59
187.287	44.04
187.669	11.96
188.051	36.6
188.433	32.1
188.815	18.37
189.197	13.04
189.579	64.37
189.961	98.72
190.342	180.83
190.724	3283.1
191.106	1503.73
191.488	400.24
191.869	2326.42
192.251	863.36
192.633	-707.34
193.014	-225.73
193.396	569.21
193.777	343.61
194.159	663.93
194.54	605.12
194.922	-704.73
195.303	-514.42
195.684	-201900
196.065	-222.9
196.447	-139.6
196.828	-141.42
197.209	-144.27
197.59	-243.09
197.971	-136.58
198.352	-97.55
198.733	-571.38
199.114	-1266.91
199.495	-605.29
199.876	-650.53
200.257	-470.19
200.638	-340.27
201.018	-324.54
201.399	-220.44
201.78	-150.4
202.16	-181.47
202.541	-262.17
202.922	-250.04
203.302	-235.01
203.683	-409.57
204.063	-436.08
204.444	-940.87
204.824	-1596.68
205.204	-690.36
205.585	-430.48
205.965	-400.76
206.345	-556.59
206.725	-228.14
207.106	-216.04
207.486	-394.53
207.866	461.23
208.246	167.59
208.626	80.37
209.006	23.93
209.386	27.8
209.766	46.91
210.145	40.17
210.525	54.21
210.905	16.62
211.285	89.4
211.664	-44.8
212.044	-158.82
212.424	-604.23
212.803	-973.17
213.183	-155.87
213.562	-165.65
213.942	-1552.17
214.321	226.83
214.701	-13.27
215.08	-116.95
215.459	-377.73
215.838	-178.48
216.218	-204.39
216.597	-135.23
216.976	-199.28
217.355	-362.43
217.734	-236.73
218.113	-134.16
218.492	-219.87
218.871	-243.33
219.25	-249.37
219.629	-324.49
220.008	-332.89
220.387	-250.92
220.766	-281.62
221.144	-947.29
221.523	-747.85
221.902	-1082
222.28	-1384.78
222.659	-3065.78
223.037	-1142.49
223.416	-905.74
223.794	-659.12
224.173	-271.24
224.551	-122.15
224.929	-86.45
225.308	-55.26
225.686	-50.44
226.064	-41.26
226.442	-33.07
226.821	-25.01
227.199	-27.94
227.577	-23.25
227.955	-17.09
228.333	-12.47
228.711	-7.46
229.089	-1.08
229.467	-1.26
229.845	-1.56
230.222	0.89
230.6	0.98
230.978	1.42
231.356	3.9
231.733	5.46
232.111	6.62
232.488	5.62
232.866	7.3
233.243	6.53
233.621	7.52
233.998	6.25
234.376	6.27
234.753	5.74
235.13	9.37
235.508	8.57
235.885	6.83
236.262	3.74
236.639	2.17
237.016	0.99
237.393	1.95
237.77	2.55
238.147	2.81
238.524	2.66
238.901	2.93
239.278	2.34
239.655	3.06
240.032	3.12
240.409	3.09
240.785	3.04
241.162	3.7
241.539	3.81
241.915	3.77
242.292	3.72
242.668	3.69
243.045	3.45
243.421	3.56
243.798	3.72
244.174	3.99
244.551	4.2
244.927	4.27
245.303	4.54
245.679	4.52
246.056	4.68
246.432	4.78
246.808	4.48
247.184	4.58
247.56	4.24
247.936	4.14
248.312	4.11
248.688	3.88
249.064	3.54
249.44	3.41
249.815	3.58
250.191	3.46
250.567	3.63
250.943	3.49
251.318	3.48
251.694	3.6
252.069	3.5
252.445	3.48
252.82	3.61
253.196	3.15
253.571	3.11
253.947	2.62
254.322	2.64
254.697	2.53
255.073	2.22
255.448	2.19
255.823	2.29
256.198	2.31
256.573	2.9
256.948	3.36
257.323	3.71
257.698	3.65
258.073	3.9
258.448	3.69
258.823	3.8
259.198	3.81
259.573	3.69
259.948	3.72
260.322	3.73
260.697	3.59
261.072	3.54
261.446	3.69
261.821	3.8
262.195	3.82
262.57	3.76
262.944	3.84
263.319	3.97
263.693	3.94
264.067	4.11
264.442	4
264.816	3.84
265.19	3.64
265.564	3.51
265.938	3.26
266.313	3.32
266.687	3.22
267.061	3.34
267.435	3.26
267.809	3.17
268.183	3.13
268.556	3.09
268.93	3.28
269.304	3.25
269.678	3.16
270.051	3.16
270.425	3.43
270.799	3.66
271.172	3.65
271.546	3.64
271.919	3.52
272.293	3.44
272.666	3.52
273.04	3.58
273.413	3.61
273.787	3.83
274.16	3.78
274.533	3.71
274.906	3.47
275.279	3.69
275.653	3.76
276.026	3.67
276.399	3.78
276.772	3.71
277.145	3.52
277.518	3.6
277.891	3.6
278.263	3.52
278.636	3.29
279.009	3.38
279.382	3.51
279.755	3.55
280.127	3.82
280.5	4.05
280.872	4.09
281.245	4.11
281.617	4.11
281.99	4.23
282.362	4.34
282.735	4.41
283.107	4.31
283.479	4.45
283.852	4.5
284.224	4.53
284.596	4.66
284.968	4.86
285.34	4.83
285.713	4.85
286.085	4.81
286.457	4.92
286.829	4.86
287.201	4.85
287.572	4.83
287.944	4.59
288.316	4.46
288.688	4.43
289.06	4.43
289.431	4.4
289.803	4.42
290.175	4.39
290.546	4.52
290.918	4.55
291.289	4.46
291.661	4.55
292.032	4.58
292.403	4.58
292.775	4.65
293.146	4.76
293.517	4.72
293.889	4.91
294.26	4.96
294.631	5.03
295.002	5
295.373	5.04
295.744	5.14
296.115	5.07
296.486	4.96
296.857	5.07
297.228	5.15
297.599	5.07
297.97	5.17
298.34	5.24
298.711	5.29
299.082	5.23
299.452	5.22
299.823	5.24
300.194	5.09
300.564	4.95
300.935	4.97
301.305	5.05
301.676	5
302.046	4.98
302.416	5.05
302.787	5.08
303.157	5.17
303.527	5.16
303.897	5.15
304.267	5.28
304.637	5.24
305.008	5.1
305.378	5.37
305.748	5.42
306.117	5.32
306.487	5.19
306.857	5.36
307.227	5.42
307.597	5.41
307.967	5.59
308.336	5.69
308.706	5.62
309.076	5.63
309.445	5.57
309.815	5.56
310.184	5.47
310.554	5.49
310.923	5.5
311.293	5.57
311.662	5.58
312.031	5.54
312.401	5.52
312.77	5.6
313.139	5.56
313.508	5.5
313.877	5.55
314.246	5.71
314.616	5.65
314.985	5.56
315.353	5.51
315.722	5.65
316.091	5.55
316.46	5.65
316.829	5.69
317.198	5.63
317.567	5.56
317.935	5.48
318.304	5.53
318.672	5.34
319.041	5.45
319.41	5.57
319.778	5.61
320.147	5.57
320.515	5.53
320.883	5.35
321.252	5.3
321.62	5.24
321.988	5.23
322.357	5.3
322.725	5.42
323.093	5.59
323.461	5.52
323.829	5.68
324.197	5.68
324.565	5.73
324.933	5.89
325.301	6.03
325.669	6.11
326.037	6.12
326.405	6.29
326.772	6.23
327.14	6.29
327.508	6.29
327.875	6.31
328.243	6.36
328.61	6.43
328.978	6.42
329.346	6.5
329.713	6.4
330.08	6.37
330.448	6.35
330.815	6.17
331.182	6.18
331.55	6.1
331.917	6.08
332.284	6.02
332.651	5.94
333.018	5.89
333.385	5.96
333.752	5.87
334.119	5.79
334.486	5.73
334.853	5.64
335.22	5.48
335.587	5.49
335.954	5.47
336.32	5.54
336.687	5.68
337.054	5.69
337.42	5.73
337.787	5.81
338.153	5.76
338.52	5.79
338.886	5.76
339.253	5.65
339.619	5.6
339.986	5.57
340.352	5.55
340.718	5.49
341.084	5.31
341.451	5.39
341.817	5.49
342.183	5.52
342.549	5.53
342.915	5.65
343.281	5.65
343.647	5.63
344.013	5.54
344.379	5.46
344.745	5.44
345.11	5.5
345.476	5.42
345.842	5.38
346.208	5.38
346.573	5.37
346.939	5.45
347.304	5.49
347.67	5.5
348.035	5.57
348.401	5.58
348.766	5.64
349.132	5.61
349.497	5.56
349.862	5.6
350.228	5.6
350.593	5.58
350.958	5.64
351.323	5.7
351.688	5.76
352.053	5.75
352.418	5.8
352.783	5.81
353.148	5.76
353.513	5.78
353.878	5.82
354.243	5.85
354.608	5.81
354.972	5.84
355.337	5.85
355.702	5.83
356.066	5.93
356.431	5.99
356.795	6.03
357.16	5.96
357.524	5.91
357.889	5.89
358.253	5.9
358.618	5.97
358.982	5.83
359.346	5.78
359.71	5.76
360.075	5.7
360.439	5.7
360.803	5.76
361.167	5.76
361.531	5.75
361.895	5.68
362.259	5.67
362.623	5.62
362.987	5.56
363.351	5.54
363.714	5.54
364.078	5.48
364.442	5.45
364.806	5.44
365.169	5.44
365.533	5.39
365.896	5.43
366.26	5.37
366.623	5.45
366.987	5.43
367.35	5.45
367.714	5.47
368.077	5.37
368.44	5.25
368.803	5.27
369.167	5.17
369.53	5.18
369.893	5.3
370.256	5.34
370.619	5.41
370.982	5.36
371.345	5.31
371.708	5.36
372.071	5.36
372.434	5.41
372.797	5.4
373.159	5.46
373.522	5.46
373.885	5.5
374.247	5.5
374.61	5.52
374.973	5.51
375.335	5.53
375.698	5.53
376.06	5.64
376.423	5.63
376.785	5.73
377.147	5.79
377.51	5.73
377.872	5.75
378.234	5.72
378.596	5.83
378.958	5.83
379.321	5.84
379.683	5.84
380.045	5.85
380.407	5.83
380.769	5.84
381.13	5.82
381.492	5.78
381.854	5.82
382.216	5.83
382.578	5.84
382.939	5.82
383.301	5.88
383.663	5.87
384.024	5.87
384.386	5.87
384.747	5.85
385.109	5.83
385.47	5.8
385.832	5.8
386.193	5.77
386.554	5.81
386.916	5.81
387.277	5.81
387.638	5.81
387.999	5.82
388.36	5.79
388.721	5.84
389.082	5.87
389.443	5.85
389.804	5.86
390.165	5.83
390.526	5.86
390.887	5.87
391.248	5.93
391.609	5.93
391.969	5.94
392.33	5.94
392.691	5.94
393.051	5.98
393.412	5.99
393.772	5.98
394.133	5.94
394.493	5.93
394.854	5.97
395.214	5.99
395.574	5.99
395.935	6.02
396.295	5.99
396.655	5.97
397.015	6
397.376	6
397.736	6.01
398.096	6.05
398.456	6.04
398.816	6.03
399.176	6.04
399.535	6.05
399.895	6.05
400.255	6.09
400.615	6.09
400.975	6.09
401.334	6.09
401.694	6.09
402.054	6.09
402.413	6.07
402.773	6.03
403.132	6.05
403.492	6.04
403.851	6.03
404.211	6.03
404.57	6
404.929	6.02
405.288	6.05
405.648	6
406.007	6.02
406.366	6.02
406.725	6.03
407.084	6.01
407.443	6.01
407.802	6
408.161	5.95
408.52	5.96
408.879	5.98
409.238	5.98
409.596	6
409.955	6.01
410.314	6.04
410.673	6.04
411.031	6.04
411.39	6.08
411.748	6.06
412.107	6.07
412.465	6.05
412.824	6.06
413.182	6.04
413.54	6.04
413.899	6.02
414.257	6.02
414.615	6.01
414.974	6.03
415.332	6.06
415.69	6.11
416.048	6.09
416.406	6.1
416.764	6.12
417.122	6.14
417.48	6.13
417.838	6.14
418.195	6.16
418.553	6.17
418.911	6.17
419.269	6.18
419.626	6.17
419.984	6.17
420.342	6.17
420.699	6.2
421.057	6.2
421.414	6.2
421.772	6.19
422.129	6.21
422.486	6.21
422.844	6.2
423.201	6.18
423.558	6.18
423.915	6.18
424.273	6.18
424.63	6.16
424.987	6.18
425.344	6.16
425.701	6.17
426.058	6.16
426.415	6.15
426.772	6.16
427.128	6.18
427.485	6.19
427.842	6.18
428.199	6.16
428.555	6.15
428.912	6.15
429.269	6.17
429.625	6.17
429.982	6.17
430.338	6.18
430.695	6.2
431.051	6.18
431.407	6.19
431.764	6.17
432.12	6.19
432.476	6.19
432.832	6.19
433.189	6.17
433.545	6.17
433.901	6.17
434.257	6.17
434.613	6.16
434.969	6.16
435.325	6.16
435.681	6.17
436.036	6.18
436.392	6.19
436.748	6.17
437.104	6.17
437.459	6.17
437.815	6.16
438.171	6.15
438.526	6.18
438.882	6.19
439.237	6.21
439.593	6.2
439.948	6.21
440.304	6.21
440.659	6.21
441.014	6.23
441.369	6.21
441.725	6.21
442.08	6.22
442.435	6.22
442.79	6.23
443.145	6.21
443.5	6.22
443.855	6.21
444.21	6.21
444.565	6.23
444.92	6.25
445.275	6.24
445.629	6.23
445.984	6.23
446.339	6.23
446.693	6.22
447.048	6.23
447.403	6.22
447.757	6.23
448.112	6.24
448.466	6.24
448.82	6.27
449.175	6.26
449.529	6.26
449.883	6.25
450.238	6.23
450.592	6.27
450.946	6.24
451.3	6.26
451.654	6.26
452.008	6.26
452.362	6.25
452.716	6.27
453.07	6.28
453.424	6.26
453.778	6.26
454.132	6.25
454.486	6.24
454.839	6.24
455.193	6.21
455.547	6.21
455.9	6.18
456.254	6.17
456.607	6.18
456.961	6.18
457.314	6.19
457.668	6.2
458.021	6.2
458.375	6.22
458.728	6.22
459.081	6.22
459.434	6.19
459.787	6.18
460.141	6.18
460.494	6.17
460.847	6.2
461.2	6.19
461.553	6.2
461.906	6.2
462.259	6.2
462.611	6.23
462.964	6.23
463.317	6.24
463.67	6.24
464.022	6.23
464.375	6.24
464.728	6.26
465.08	6.27
465.433	6.25
465.785	6.25
466.138	6.24
466.49	6.25
466.843	6.25
467.195	6.28
467.547	6.3
467.899	6.33
468.252	6.3
468.604	6.32
468.956	6.31
469.308	6.3
469.66	6.27
470.012	6.26
470.364	6.28
470.716	6.28
471.068	6.29
471.42	6.29
471.772	6.3
472.123	6.3
472.475	6.32
472.827	6.33
473.178	6.31
473.53	6.33
473.882	6.32
474.233	6.31
474.585	6.28
474.936	6.28
475.288	6.28
475.639	6.29
475.99	6.26
476.342	6.28
476.693	6.3
477.044	6.33
477.395	6.35
477.746	6.32
478.097	6.33
478.448	6.34
478.8	6.34
479.15	6.33
479.501	6.33
479.852	6.33
480.203	6.34
480.554	6.36
480.905	6.37
481.255	6.38
481.606	6.42
481.957	6.43
482.307	6.44
482.658	6.44
483.009	6.45
483.359	6.47
483.709	6.48
484.06	6.49
484.41	6.49
484.761	6.49
485.111	6.5
485.461	6.51
485.811	6.5
486.162	6.51
486.512	6.52
486.862	6.53
487.212	6.53
487.562	6.54
487.912	6.54
488.262	6.53
488.612	6.53
488.961	6.51
489.311	6.52
489.661	6.52
490.011	6.51
490.36	6.51
490.71	6.51
491.06	6.5
491.409	6.49
491.759	6.5
492.108	6.49
492.458	6.47
492.807	6.47
493.157	6.48
493.506	6.49
493.855	6.49
494.204	6.48
494.554	6.48
494.903	6.46
495.252	6.46
495.601	6.48
495.95	6.49
496.299	6.48
496.648	6.46
496.997	6.45
497.346	6.47
497.695	6.47
498.043	6.46
498.392	6.45
498.741	6.45
499.09	6.46
499.438	6.49
499.787	6.51
500.135	6.53
500.484	6.54
500.832	6.51
501.181	6.52
501.529	6.53
501.878	6.56
502.226	6.59
502.574	6.56
502.923	6.55
503.271	6.56
503.619	6.59
503.967	6.6
504.315	6.61
504.663	6.6
505.011	6.6
505.359	6.61
505.707	6.66
506.055	6.67
506.403	6.65
506.751	6.66
507.098	6.68
507.446	6.69
507.794	6.67
508.141	6.67
508.489	6.67
508.837	6.69
509.184	6.66
509.531	6.64
509.879	6.68
510.226	6.71
510.574	6.7
510.921	6.71
511.268	6.71
511.616	6.71
511.963	6.7
512.31	6.71
512.657	6.72
513.004	6.7
513.351	6.7
513.698	6.71
514.045	6.68
514.392	6.67
514.739	6.64
515.086	6.67
515.432	6.69
515.779	6.67
516.126	6.67
516.473	6.69
516.819	6.71
517.166	6.7
517.512	6.68
517.859	6.66
518.205	6.64
518.552	6.66
518.898	6.65
519.245	6.65
519.591	6.65
519.937	6.64
520.283	6.62
520.629	6.62
520.976	6.63
521.322	6.64
521.668	6.63
522.014	6.64
522.36	6.62
522.706	6.61
523.052	6.62
523.398	6.64
523.743	6.64
524.089	6.64
524.435	6.65
524.781	6.67
525.126	6.69
525.472	6.73
525.817	6.75
526.163	6.76
526.509	6.77
526.854	6.78
527.199	6.79
527.545	6.81
527.89	6.82
528.235	6.81
528.581	6.82
528.926	6.82
529.271	6.83
529.616	6.84
529.961	6.85
530.306	6.84
530.651	6.84
530.996	6.86
531.341	6.85
531.686	6.87
532.031	6.87
532.376	6.87
532.721	6.86
533.065	6.85
533.41	6.85
533.755	6.84
534.099	6.83
534.444	6.83
534.788	6.84
535.133	6.83
535.477	6.84
535.822	6.82
536.166	6.83
536.51	6.82
536.855	6.81
537.199	6.82
537.543	6.85
537.887	6.85
538.231	6.85
538.576	6.84
538.92	6.83
539.264	6.83
539.608	6.84
539.951	6.83
540.295	6.82
540.639	6.84
540.983	6.84
541.327	6.85
541.671	6.87
542.014	6.85
542.358	6.86
542.701	6.87
543.045	6.88
543.389	6.89
543.732	6.91
544.075	6.93
544.419	6.93
544.762	6.9
545.105	6.9
545.449	6.89
545.792	6.9
546.135	6.92
546.478	6.91
546.821	6.91
547.165	6.93
547.508	6.95
547.851	6.95
548.194	6.96
548.536	6.97
548.879	6.95
549.222	6.97
549.565	6.97
549.908	6.97
550.25	6.98
550.593	6.97
550.936	6.94
551.278	6.91
551.621	6.94
551.963	6.98
552.306	6.96
552.648	6.99
552.991	7.01
553.333	7.02
553.675	7.03
554.017	7.06
554.36	7.09
554.702	7.11
555.044	7.1
555.386	7.1
555.728	7.11
556.07	7.18
556.412	7.16
556.754	7.16
557.096	7.17
557.438	7.16
557.78	7.21
558.121	7.26
558.463	7.29
558.805	7.27
559.147	7.24
559.488	7.25
559.83	7.21
560.171	7.16
560.513	7.17
560.854	7.18
561.196	7.13
561.537	7.15
561.878	7.12
562.22	7.13
562.561	7.13
562.902	7.11
563.243	7.09
563.584	7.11
563.925	7.13
564.266	7.12
564.607	7.12
564.948	7.09
565.289	7.06
565.63	7.04
565.971	7.04
566.312	7.04
566.653	7.05
566.993	7.07
567.334	7.1
567.675	7.09
568.015	7.08
568.356	7.1
568.696	7.08
569.037	7.09
569.377	7.1
569.718	7.11
570.058	7.1
570.398	7.09
570.739	7.1
571.079	7.1
571.419	7.12
571.759	7.12
572.099	7.11
572.439	7.12
572.779	7.14
573.119	7.16
573.459	7.19
573.799	7.19
574.139	7.17
574.479	7.18
574.819	7.2
575.158	7.2
575.498	7.22
575.838	7.2
576.177	7.19
576.517	7.16
576.856	7.14
577.196	7.14
577.535	7.14
577.875	7.15
578.214	7.1
578.553	7.11
578.893	7.15
579.232	7.14
579.571	7.16
579.91	7.16
580.25	7.16
580.589	7.11
580.928	7.08
581.267	7.1
581.606	7.11
581.945	7.08
582.283	7.06
582.622	7.01
582.961	7.05
583.3	7.09
583.639	7.11
583.977	7.13
584.316	7.16
584.654	7.19
584.993	7.2
585.332	7.25
585.67	7.25
586.008	7.26
586.347	7.26
586.685	7.27
587.024	7.26
587.362	7.24
587.7	7.29
588.038	7.35
588.376	7.38
588.715	7.38
589.053	7.41
589.391	7.46
589.729	7.47
590.067	7.46
590.404	7.41
590.742	7.42
591.08	7.39
591.418	7.38
591.756	7.4
592.093	7.4
592.431	7.41
592.769	7.4
593.106	7.39
593.444	7.36
593.781	7.34
594.119	7.33
594.456	7.3
594.793	7.29
595.131	7.23
595.468	7.21
595.805	7.18
596.143	7.16
596.48	7.16
596.817	7.16
597.154	7.17
597.491	7.16
597.828	7.15
598.165	7.18
598.502	7.16
598.839	7.15
599.176	7.13
599.512	7.07
599.849	7.05
600.186	7.03
600.523	7.1
600.859	7.14
601.196	7.14
601.532	7.19
601.869	7.18
602.205	7.21
602.542	7.22
602.878	7.24
603.215	7.27
603.551	7.27
603.887	7.29
604.223	7.27
604.56	7.3
604.896	7.33
605.232	7.34
605.568	7.33
605.904	7.34
606.24	7.39
606.576	7.44
606.912	7.46
607.248	7.48
607.583	7.47
607.919	7.42
608.255	7.42
608.591	7.42
608.926	7.44
609.262	7.47
609.597	7.45
609.933	7.46
610.268	7.49
610.604	7.51
610.939	7.49
611.275	7.5
611.61	7.52
611.945	7.48
612.281	7.49
612.616	7.53
612.951	7.52
613.286	7.46
613.621	7.45
613.956	7.45
614.291	7.44
614.626	7.44
614.961	7.45
615.296	7.45
615.631	7.46
615.966	7.42
616.3	7.44
616.635	7.48
616.97	7.45
617.304	7.4
617.639	7.44
617.973	7.47
618.308	7.5
618.642	7.5
618.977	7.54
619.311	7.53
619.646	7.54
619.98	7.58
620.314	7.61
620.648	7.6
620.983	7.66
621.317	7.68
621.651	7.7
621.985	7.79
622.319	7.79
622.653	7.81
622.987	7.83
623.321	7.8
623.655	7.81
623.988	7.84
624.322	7.82
624.656	7.8
624.99	7.79
625.323	7.78
625.657	7.78
625.99	7.77
626.324	7.79
626.657	7.76
626.991	7.74
627.324	7.75
627.658	7.81
627.991	7.8
628.324	7.75
628.657	7.7
628.991	7.69
629.324	7.73
629.657	7.75
629.99	7.77
630.323	7.73
630.656	7.74
630.989	7.76
631.322	7.77
631.655	7.72
631.987	7.76
632.32	7.75
632.653	7.73
632.986	7.73
633.318	7.71
633.651	7.77
633.984	7.74
634.316	7.68
634.649	7.65
634.981	7.59
635.313	7.62
635.646	7.67
635.978	7.66
636.31	7.62
636.643	7.59
636.975	7.6
637.307	7.67
637.639	7.62
637.971	7.57
638.303	7.59
638.635	7.62
638.967	7.61
639.299	7.59
639.631	7.59
639.963	7.59
640.295	7.56
640.626	7.51
640.958	7.61
641.29	7.69
641.621	7.7
641.953	7.73
642.285	7.73
642.616	7.73
642.948	7.72
643.279	7.77
643.61	7.76
643.942	7.75
644.273	7.76
644.604	7.79
644.936	7.78
645.267	7.75
645.598	7.74
645.929	7.76
646.26	7.81
646.591	7.89
646.922	7.87
647.253	7.86
647.584	7.84
647.915	7.78
648.245	7.78
648.576	7.77
648.907	7.71
649.238	7.68
649.568	7.61
649.899	7.65
650.229	7.6
650.56	7.63
650.89	7.65
651.221	7.68
651.551	7.63
651.882	7.72
652.212	7.78
652.542	7.85
652.872	7.85
653.203	7.81
653.533	7.74
653.863	7.78
654.193	7.84
654.523	7.88
654.853	7.81
655.183	7.78
655.513	7.74
655.843	7.79
656.172	7.81
656.502	7.91
656.832	7.83
657.162	7.84
657.491	7.83
657.821	7.82
658.15	7.78
658.48	7.87
658.809	7.86
659.139	7.84
659.468	7.81
659.798	7.84
660.127	7.87
660.456	7.92
660.785	7.98
661.115	7.95
661.444	7.91
661.773	7.99
662.102	7.98
662.431	8.02
662.76	8.07
663.089	8.1
663.418	8.12
663.747	8.14
664.076	8.2
664.404	8.13
664.733	8.14
665.062	8.19
665.39	8.16
665.719	8.11
666.048	8.08
666.376	8.04
666.705	7.92
667.033	7.9
667.362	7.88
667.69	7.81
668.018	7.88
668.347	7.94
668.675	7.94
669.003	7.99
669.331	8.04
669.659	7.92
669.987	7.95
670.315	7.89
670.643	7.91
670.971	7.94
671.299	8.03
671.627	8.06
671.955	7.96
672.283	7.88
672.61	7.87
672.938	7.97
673.266	7.98
673.593	8.06
673.921	8.05
674.249	8.07
674.576	8.05
674.904	8.04
675.231	8.06
675.558	8.04
675.886	8.03
676.213	7.99
