Data from BA57758_Reflection_00005.txt Node
Date: Mon Nov 18 15:11:25 EST 2019
User: vgr7
Spectrometer: USB2G7710
Scans to average: 3
Trigger mode: 4
Integration Time (sec): 2.000000E-2
Electric dark correction enabled: true
Boxcar width: 10
XAxis mode: Wavelengths
Number of Pixels in Spectrum: 2048
>>>>>Begin Spectral Data<<<<<
177.721	-786.64
178.105	-61.43
178.488	52.73
178.871	160.91
179.254	155.41
179.636	303.39
180.019	-48.51
180.402	-320
180.785	166.94
181.168	218.21
181.55	208.99
181.933	125.1
182.316	109.65
182.698	162.78
183.081	127.62
183.463	271.22
183.846	388.06
184.228	126.76
184.611	190.5
184.993	152.09
185.376	109.86
185.758	36.17
186.14	63.55
186.522	91.23
186.904	92.34
187.287	89.65
187.669	65.33
188.051	84.59
188.433	84.86
188.815	87.38
189.197	26.14
189.579	70.63
189.961	37.98
190.342	68.2
190.724	-198.58
191.106	-380.66
191.488	-1420.55
191.869	549.48
192.251	127.3
192.633	181.9
193.014	244.72
193.396	150.06
193.777	94.56
194.159	126.09
194.54	150.65
194.922	74.4
195.303	122.01
195.684	132.13
196.065	84.63
196.447	79.36
196.828	77.98
197.209	58.85
197.59	77.53
197.971	55.89
198.352	46.01
198.733	23.69
199.114	20.75
199.495	15.33
199.876	8.22
200.257	7.2
200.638	11.15
201.018	2.63
201.399	2.11
201.78	9.39
202.16	9
202.541	-4.71
202.922	1.5
203.302	-56.37
203.683	-110.4
204.063	-169.26
204.444	-147.79
204.824	-127.65
205.204	-188.19
205.585	-141.31
205.965	-163.31
206.345	-65.91
206.725	-82.61
207.106	-324.16
207.486	-271.63
207.866	-208.6
208.246	-401.95
208.626	-510.86
209.006	-127.59
209.386	1900
209.766	-73.45
210.145	1.89
210.525	185.17
210.905	4.43
211.285	43.54
211.664	39.81
212.044	38.74
212.424	23.34
212.803	20.93
213.183	16.12
213.562	14.25
213.942	17.75
214.321	22.38
214.701	11.82
215.08	27.89
215.459	34.58
215.838	19.9
216.218	11.29
216.597	12.63
216.976	23.75
217.355	18.11
217.734	22.92
218.113	21.61
218.492	14.25
218.871	26.6
219.25	36.82
219.629	21.3
220.008	14.47
220.387	40.29
220.766	46.77
221.144	35.95
221.523	37.87
221.902	40.51
222.28	38.59
222.659	62.08
223.037	63.13
223.416	56.55
223.794	56.48
224.173	70.05
224.551	66.54
224.929	47.82
225.308	42.84
225.686	37.45
226.064	27.55
226.442	19.62
226.821	16.26
227.199	11.87
227.577	12.83
227.955	11.98
228.333	9.4
228.711	11.83
229.089	14.94
229.467	12.62
229.845	11.42
230.222	9.78
230.6	9.12
230.978	7.19
231.356	8.7
231.733	8.52
232.111	9.9
232.488	9.42
232.866	10
233.243	10.41
233.621	10.39
233.998	12.3
234.376	13.11
234.753	13.67
235.13	13.07
235.508	13.94
235.885	15.15
236.262	14.61
236.639	14.24
237.016	13.71
237.393	15.24
237.77	13.97
238.147	13.27
238.524	11.85
238.901	12.04
239.278	10.85
239.655	11.32
240.032	9.93
240.409	9.66
240.785	9.21
241.162	9.03
241.539	8.89
241.915	8.33
242.292	8.22
242.668	8.42
243.045	8.23
243.421	7.95
243.798	7.75
244.174	7.53
244.551	7.38
244.927	7.32
245.303	7.2
245.679	7.27
246.056	7.32
246.432	7.21
246.808	6.91
247.184	6.91
247.56	6.5
247.936	6.72
248.312	6.54
248.688	6.68
249.064	6.62
249.44	6.74
249.815	6.93
250.191	6.99
250.567	6.95
250.943	7.01
251.318	7.12
251.694	7.03
252.069	6.97
252.445	7.09
252.82	7.1
253.196	6.99
253.571	6.8
253.947	6.49
254.322	6.78
254.697	7.22
255.073	7.02
255.448	7.23
255.823	6.77
256.198	6.81
256.573	6.44
256.948	6.62
257.323	6.63
257.698	6.45
258.073	6.36
258.448	6.12
258.823	6.26
259.198	6.12
259.573	6.22
259.948	6.29
260.322	6.25
260.697	6.17
261.072	6.14
261.446	6.17
261.821	6.27
262.195	6.27
262.57	6.14
262.944	6.18
263.319	6.16
263.693	6.25
264.067	6.5
264.442	6.74
264.816	6.59
265.19	6.41
265.564	6.4
265.938	6.21
266.313	6.28
266.687	6.32
267.061	6.55
267.435	6.48
267.809	6.49
268.183	6.37
268.556	6.46
268.93	6.62
269.304	6.65
269.678	6.61
270.051	6.5
270.425	6.5
270.799	6.56
271.172	6.66
271.546	6.62
271.919	6.36
272.293	6.18
272.666	6.23
273.04	6.4
273.413	6.42
273.787	6.59
274.16	6.62
274.533	6.48
274.906	6.51
275.279	6.48
275.653	6.55
276.026	6.67
276.399	6.63
276.772	6.57
277.145	6.43
277.518	6.45
277.891	6.58
278.263	6.53
278.636	6.55
279.009	6.62
279.382	6.95
279.755	7
280.127	7.21
280.5	7.31
280.872	7.19
281.245	7.22
281.617	7.32
281.99	7.54
282.362	7.67
282.735	7.66
283.107	7.47
283.479	7.53
283.852	7.35
284.224	7.23
284.596	7.14
284.968	7.39
285.34	7.61
285.713	7.61
286.085	7.72
286.457	7.76
286.829	7.59
287.201	7.33
287.572	7.27
287.944	7.15
288.316	6.96
288.688	6.87
289.06	6.9
289.431	6.85
289.803	6.86
290.175	6.84
290.546	6.94
290.918	7.23
291.289	7.18
291.661	7.4
292.032	7.51
292.403	7.68
292.775	7.62
293.146	7.4
293.517	7.32
293.889	7.45
294.26	7.48
294.631	7.63
295.002	7.71
295.373	7.86
295.744	7.97
296.115	8.14
296.486	8.1
296.857	8.07
297.228	8.22
297.599	8.07
297.97	8.05
298.34	7.93
298.711	7.93
299.082	8
299.452	7.94
299.823	8.05
300.194	8.05
300.564	8.1
300.935	8.19
301.305	8.29
301.676	8.31
302.046	8.27
302.416	8.39
302.787	8.55
303.157	8.45
303.527	8.54
303.897	8.52
304.267	8.85
304.637	8.84
305.008	8.73
305.378	8.9
305.748	8.95
306.117	8.91
306.487	8.97
306.857	8.93
307.227	9.05
307.597	8.96
307.967	8.97
308.336	8.92
308.706	9.01
309.076	8.97
309.445	8.8
309.815	8.95
310.184	8.9
310.554	8.8
310.923	8.86
311.293	8.72
311.662	8.72
312.031	8.55
312.401	8.7
312.77	8.77
313.139	8.76
313.508	8.77
313.877	8.81
314.246	8.68
314.616	8.58
314.985	8.54
315.353	8.52
315.722	8.56
316.091	8.51
316.46	8.51
316.829	8.51
317.198	8.64
317.567	8.52
317.935	8.46
318.304	8.67
318.672	8.75
319.041	8.89
319.41	8.79
319.778	8.83
320.147	8.9
320.515	8.85
320.883	8.69
321.252	8.89
321.62	8.88
321.988	8.93
322.357	9
322.725	8.88
323.093	8.89
323.461	8.79
323.829	8.83
324.197	8.63
324.565	8.67
324.933	8.68
325.301	8.61
325.669	8.63
326.037	8.46
326.405	8.41
326.772	8.47
327.14	8.45
327.508	8.48
327.875	8.19
328.243	8.23
328.61	8.24
328.978	8.11
329.346	8.2
329.713	8.21
330.08	8.21
330.448	8.15
330.815	8.06
331.182	8.08
331.55	8.14
331.917	8.22
332.284	8.16
332.651	8.03
333.018	8.12
333.385	8.15
333.752	8.21
334.119	8.27
334.486	8.17
334.853	8.48
335.22	8.45
335.587	8.58
335.954	8.53
336.32	8.57
336.687	8.55
337.054	8.5
337.42	8.45
337.787	8.39
338.153	8.51
338.52	8.57
338.886	8.47
339.253	8.36
339.619	8.3
339.986	8.38
340.352	8.45
340.718	8.36
341.084	8.39
341.451	8.27
341.817	8.26
342.183	8.26
342.549	8.11
342.915	8.14
343.281	8.21
343.647	8.13
344.013	8.11
344.379	8.05
344.745	8.07
345.11	8.04
345.476	8.11
345.842	8.08
346.208	8.12
346.573	8.21
346.939	8.28
347.304	8.21
347.67	8.19
348.035	8.26
348.401	8.29
348.766	8.35
349.132	8.41
349.497	8.34
349.862	8.31
350.228	8.33
350.593	8.29
350.958	8.32
351.323	8.38
351.688	8.37
352.053	8.4
352.418	8.36
352.783	8.43
353.148	8.38
353.513	8.37
353.878	8.34
354.243	8.34
354.608	8.28
354.972	8.34
355.337	8.35
355.702	8.33
356.066	8.3
356.431	8.16
356.795	8.26
357.16	8.25
357.524	8.24
357.889	8.18
358.253	8.16
358.618	8.12
358.982	8.04
359.346	8.13
359.71	8.14
360.075	8.2
360.439	8.25
360.803	8.26
361.167	8.22
361.531	8.17
361.895	8.15
362.259	8.23
362.623	8.25
362.987	8.26
363.351	8.23
363.714	8.26
364.078	8.26
364.442	8.18
364.806	8.18
365.169	8.25
365.533	8.32
365.896	8.32
366.26	8.29
366.623	8.33
366.987	8.26
367.35	8.25
367.714	8.22
368.077	8.21
368.44	8.21
368.803	8.28
369.167	8.29
369.53	8.28
369.893	8.23
370.256	8.29
370.619	8.27
370.982	8.3
371.345	8.24
371.708	8.24
372.071	8.28
372.434	8.3
372.797	8.23
373.159	8.18
373.522	8.14
373.885	8.18
374.247	8.15
374.61	8.21
374.973	8.19
375.335	8.12
375.698	8.02
376.06	8.02
376.423	7.98
376.785	8
377.147	8.01
377.51	8.03
377.872	7.98
378.234	7.91
378.596	7.95
378.958	7.95
379.321	7.99
379.683	7.96
380.045	7.92
380.407	7.95
380.769	7.93
381.13	7.95
381.492	7.93
381.854	7.96
382.216	7.92
382.578	7.91
382.939	7.9
383.301	7.91
383.663	7.87
384.024	7.85
384.386	7.9
384.747	7.9
385.109	7.91
385.47	7.89
385.832	7.93
386.193	7.89
386.554	7.87
386.916	7.85
387.277	7.81
387.638	7.84
387.999	7.82
388.36	7.83
388.721	7.87
389.082	7.87
389.443	7.85
389.804	7.82
390.165	7.82
390.526	7.81
390.887	7.84
391.248	7.89
391.609	7.88
391.969	7.81
392.33	7.8
392.691	7.75
393.051	7.75
393.412	7.75
393.772	7.72
394.133	7.72
394.493	7.71
394.854	7.75
395.214	7.74
395.574	7.74
395.935	7.72
396.295	7.71
396.655	7.68
397.015	7.67
397.376	7.68
397.736	7.68
398.096	7.7
398.456	7.66
398.816	7.64
399.176	7.62
399.535	7.66
399.895	7.64
400.255	7.67
400.615	7.66
400.975	7.63
401.334	7.63
401.694	7.63
402.054	7.62
402.413	7.61
402.773	7.56
403.132	7.53
403.492	7.54
403.851	7.51
404.211	7.51
404.57	7.47
404.929	7.45
405.288	7.44
405.648	7.42
406.007	7.4
406.366	7.38
406.725	7.41
407.084	7.38
407.443	7.38
407.802	7.37
408.161	7.35
408.52	7.32
408.879	7.32
409.238	7.34
409.596	7.31
409.955	7.31
410.314	7.33
410.673	7.32
411.031	7.31
411.39	7.3
411.748	7.32
412.107	7.36
412.465	7.37
412.824	7.37
413.182	7.34
413.54	7.36
413.899	7.34
414.257	7.31
414.615	7.3
414.974	7.3
415.332	7.28
415.69	7.29
416.048	7.33
416.406	7.3
416.764	7.3
417.122	7.3
417.48	7.27
417.838	7.24
418.195	7.25
418.553	7.23
418.911	7.22
419.269	7.2
419.626	7.19
419.984	7.17
420.342	7.18
420.699	7.19
421.057	7.18
421.414	7.17
421.772	7.18
422.129	7.18
422.486	7.16
422.844	7.15
423.201	7.13
423.558	7.12
423.915	7.11
424.273	7.08
424.63	7.07
424.987	7.07
425.344	7.08
425.701	7.08
426.058	7.07
426.415	7.07
426.772	7.05
427.128	7.05
427.485	7.06
427.842	7.03
428.199	7.04
428.555	7.01
428.912	7.02
429.269	7.02
429.625	7
429.982	6.98
430.338	7.01
430.695	7
431.051	6.99
431.407	6.98
431.764	6.98
432.12	6.98
432.476	6.96
432.832	6.95
433.189	6.94
433.545	6.94
433.901	6.93
434.257	6.93
434.613	6.91
434.969	6.91
435.325	6.92
435.681	6.91
436.036	6.93
436.392	6.91
436.748	6.89
437.104	6.91
437.459	6.92
437.815	6.91
438.171	6.91
438.526	6.91
438.882	6.91
439.237	6.92
439.593	6.93
439.948	6.93
440.304	6.93
440.659	6.93
441.014	6.94
441.369	6.94
441.725	6.93
442.08	6.93
442.435	6.92
442.79	6.89
443.145	6.87
443.5	6.86
443.855	6.85
444.21	6.85
444.565	6.83
444.92	6.81
445.275	6.81
445.629	6.81
445.984	6.8
446.339	6.79
446.693	6.79
447.048	6.78
447.403	6.78
447.757	6.78
448.112	6.76
448.466	6.74
448.82	6.72
449.175	6.72
449.529	6.7
449.883	6.69
450.238	6.69
450.592	6.68
450.946	6.66
451.3	6.66
451.654	6.65
452.008	6.65
452.362	6.66
452.716	6.65
453.07	6.63
453.424	6.62
453.778	6.62
454.132	6.59
454.486	6.57
454.839	6.56
455.193	6.53
455.547	6.51
455.9	6.51
456.254	6.53
456.607	6.53
456.961	6.55
457.314	6.57
457.668	6.57
458.021	6.57
458.375	6.59
458.728	6.61
459.081	6.62
459.434	6.62
459.787	6.62
460.141	6.61
460.494	6.61
460.847	6.63
461.2	6.63
461.553	6.63
461.906	6.64
462.259	6.65
462.611	6.66
462.964	6.7
463.317	6.72
463.67	6.72
464.022	6.75
464.375	6.74
464.728	6.76
465.08	6.74
465.433	6.76
465.785	6.74
466.138	6.72
466.49	6.74
466.843	6.73
467.195	6.75
467.547	6.75
467.899	6.75
468.252	6.73
468.604	6.75
468.956	6.76
469.308	6.76
469.66	6.76
470.012	6.76
470.364	6.76
470.716	6.76
471.068	6.77
471.42	6.75
471.772	6.77
472.123	6.76
472.475	6.79
472.827	6.79
473.178	6.82
473.53	6.83
473.882	6.82
474.233	6.85
474.585	6.84
474.936	6.85
475.288	6.85
475.639	6.87
475.99	6.87
476.342	6.9
476.693	6.89
477.044	6.91
477.395	6.92
477.746	6.91
478.097	6.9
478.448	6.9
478.8	6.9
479.15	6.89
479.501	6.89
479.852	6.9
480.203	6.9
480.554	6.91
480.905	6.92
481.255	6.92
481.606	6.92
481.957	6.94
482.307	6.94
482.658	6.94
483.009	6.94
483.359	6.95
483.709	6.94
484.06	6.94
484.41	6.93
484.761	6.93
485.111	6.94
485.461	6.95
485.811	6.94
486.162	6.94
486.512	6.95
486.862	6.94
487.212	6.93
487.562	6.94
487.912	6.94
488.262	6.93
488.612	6.93
488.961	6.94
489.311	6.92
489.661	6.92
490.011	6.93
490.36	6.92
490.71	6.92
491.06	6.92
491.409	6.91
491.759	6.91
492.108	6.91
492.458	6.91
492.807	6.9
493.157	6.91
493.506	6.93
493.855	6.93
494.204	6.94
494.554	6.95
494.903	6.93
495.252	6.92
495.601	6.93
495.95	6.93
496.299	6.91
496.648	6.92
496.997	6.93
497.346	6.94
497.695	6.97
498.043	6.99
498.392	7
498.741	7
499.09	7.01
499.438	7.02
499.787	7.04
500.135	7.07
500.484	7.08
500.832	7.09
501.181	7.1
501.529	7.12
501.878	7.14
502.226	7.17
502.574	7.18
502.923	7.19
503.271	7.24
503.619	7.27
503.967	7.27
504.315	7.29
504.663	7.29
505.011	7.29
505.359	7.32
505.707	7.36
506.055	7.38
506.403	7.43
506.751	7.46
507.098	7.45
507.446	7.45
507.794	7.45
508.141	7.45
508.489	7.49
508.837	7.53
509.184	7.53
509.531	7.56
509.879	7.62
510.226	7.63
510.574	7.64
510.921	7.67
511.268	7.69
511.616	7.71
511.963	7.73
512.31	7.74
512.657	7.75
513.004	7.77
513.351	7.8
513.698	7.8
514.045	7.82
514.392	7.88
514.739	7.91
515.086	7.94
515.432	7.94
515.779	7.93
516.126	7.91
516.473	7.96
516.819	7.95
517.166	7.93
517.512	7.94
517.859	7.95
518.205	7.95
518.552	7.98
518.898	7.99
519.245	8
519.591	8
519.937	8
520.283	7.99
520.629	7.98
520.976	7.99
521.322	7.99
521.668	7.98
522.014	7.98
522.36	8
522.706	8.02
523.052	8.04
523.398	8.06
523.743	8.06
524.089	8.06
524.435	8.06
524.781	8.08
525.126	8.08
525.472	8.1
525.817	8.09
526.163	8.08
526.509	8.09
526.854	8.11
527.199	8.13
527.545	8.14
527.89	8.13
528.235	8.14
528.581	8.15
528.926	8.15
529.271	8.15
529.616	8.15
529.961	8.14
530.306	8.14
530.651	8.14
530.996	8.12
531.341	8.14
531.686	8.16
532.031	8.16
532.376	8.16
532.721	8.14
533.065	8.14
533.41	8.15
533.755	8.15
534.099	8.15
534.444	8.13
534.788	8.14
535.133	8.13
535.477	8.13
535.822	8.11
536.166	8.13
536.51	8.12
536.855	8.13
537.199	8.14
537.543	8.15
537.887	8.16
538.231	8.17
538.576	8.16
538.92	8.16
539.264	8.15
539.608	8.15
539.951	8.17
540.295	8.18
540.639	8.18
540.983	8.18
541.327	8.18
541.671	8.17
542.014	8.18
542.358	8.19
542.701	8.2
543.045	8.2
543.389	8.2
543.732	8.2
544.075	8.21
544.419	8.21
544.762	8.21
545.105	8.21
545.449	8.22
545.792	8.23
546.135	8.23
546.478	8.23
546.821	8.22
547.165	8.24
547.508	8.23
547.851	8.25
548.194	8.25
548.536	8.26
548.879	8.28
549.222	8.27
549.565	8.28
549.908	8.28
550.25	8.3
550.593	8.28
550.936	8.3
551.278	8.27
551.621	8.27
551.963	8.27
552.306	8.29
552.648	8.28
552.991	8.28
553.333	8.29
553.675	8.28
554.017	8.29
554.36	8.27
554.702	8.29
555.044	8.29
555.386	8.29
555.728	8.29
556.07	8.29
556.412	8.32
556.754	8.29
557.096	8.27
557.438	8.26
557.78	8.27
558.121	8.28
558.463	8.29
558.805	8.26
559.147	8.24
559.488	8.22
559.83	8.21
560.171	8.24
560.513	8.24
560.854	8.26
561.196	8.29
561.537	8.31
561.878	8.29
562.22	8.24
562.561	8.23
562.902	8.26
563.243	8.26
563.584	8.24
563.925	8.25
564.266	8.27
564.607	8.27
564.948	8.28
565.289	8.29
565.63	8.31
565.971	8.32
566.312	8.34
566.653	8.34
566.993	8.35
567.334	8.32
567.675	8.31
568.015	8.3
568.356	8.29
568.696	8.31
569.037	8.31
569.377	8.37
569.718	8.4
570.058	8.41
570.398	8.4
570.739	8.41
571.079	8.41
571.419	8.43
571.759	8.44
572.099	8.44
572.439	8.41
572.779	8.41
573.119	8.42
573.459	8.42
573.799	8.43
574.139	8.43
574.479	8.47
574.819	8.47
575.158	8.46
575.498	8.47
575.838	8.45
576.177	8.45
576.517	8.41
576.856	8.38
577.196	8.37
577.535	8.37
577.875	8.37
578.214	8.36
578.553	8.39
578.893	8.38
579.232	8.37
579.571	8.39
579.91	8.35
580.25	8.34
580.589	8.36
580.928	8.39
581.267	8.37
581.606	8.37
581.945	8.38
582.283	8.38
582.622	8.39
582.961	8.42
583.3	8.43
583.639	8.48
583.977	8.5
584.316	8.51
584.654	8.52
584.993	8.53
585.332	8.57
585.67	8.53
586.008	8.52
586.347	8.5
586.685	8.51
587.024	8.56
587.362	8.59
587.7	8.56
588.038	8.54
588.376	8.56
588.715	8.53
589.053	8.55
589.391	8.59
589.729	8.58
590.067	8.56
590.404	8.51
590.742	8.51
591.08	8.48
591.418	8.51
591.756	8.54
592.093	8.54
592.431	8.55
592.769	8.57
593.106	8.58
593.444	8.61
593.781	8.61
594.119	8.64
594.456	8.62
594.793	8.62
595.131	8.61
595.468	8.6
595.805	8.61
596.143	8.62
596.48	8.6
596.817	8.62
597.154	8.64
597.491	8.72
597.828	8.71
598.165	8.74
598.502	8.71
598.839	8.69
599.176	8.69
599.512	8.64
599.849	8.64
600.186	8.66
600.523	8.69
600.859	8.7
601.196	8.68
601.532	8.68
601.869	8.69
602.205	8.71
602.542	8.71
602.878	8.71
603.215	8.68
603.551	8.68
603.887	8.67
604.223	8.64
604.56	8.62
604.896	8.58
605.232	8.55
605.568	8.51
605.904	8.5
606.24	8.51
606.576	8.5
606.912	8.5
607.248	8.49
607.583	8.49
607.919	8.48
608.255	8.44
608.591	8.48
608.926	8.5
609.262	8.49
609.597	8.51
609.933	8.57
610.268	8.59
610.604	8.59
610.939	8.61
611.275	8.65
611.61	8.63
611.945	8.67
612.281	8.68
612.616	8.74
612.951	8.78
613.286	8.79
613.621	8.83
613.956	8.82
614.291	8.87
614.626	8.85
614.961	8.85
615.296	8.86
615.631	8.86
615.966	8.88
616.3	8.89
616.635	8.89
616.97	8.83
617.304	8.8
617.639	8.85
617.973	8.83
618.308	8.8
618.642	8.84
618.977	8.82
619.311	8.85
619.646	8.82
619.98	8.83
620.314	8.86
620.648	8.91
620.983	8.95
621.317	8.89
621.651	8.9
621.985	8.9
622.319	8.94
622.653	8.87
622.987	8.81
623.321	8.79
623.655	8.78
623.988	8.83
624.322	8.84
624.656	8.83
624.99	8.87
625.323	8.9
625.657	8.9
625.99	8.9
626.324	8.88
626.657	8.87
626.991	8.88
627.324	8.81
627.658	8.8
627.991	8.8
628.324	8.83
628.657	8.81
628.991	8.79
629.324	8.81
629.657	8.86
629.99	8.94
630.323	8.94
630.656	8.97
630.989	8.94
631.322	8.99
631.655	8.94
631.987	8.98
632.32	8.94
632.653	8.93
632.986	8.92
633.318	8.94
633.651	8.94
633.984	8.89
634.316	8.94
634.649	8.94
634.981	8.93
635.313	8.92
635.646	8.94
635.978	8.93
636.31	8.9
636.643	8.86
636.975	8.84
637.307	8.85
637.639	8.78
637.971	8.79
638.303	8.73
638.635	8.7
638.967	8.66
639.299	8.67
639.631	8.67
639.963	8.71
640.295	8.71
640.626	8.68
640.958	8.76
641.29	8.75
641.621	8.79
641.953	8.76
642.285	8.75
642.616	8.78
642.948	8.8
643.279	8.81
643.61	8.84
643.942	8.81
644.273	8.88
644.604	8.91
644.936	8.85
645.267	8.89
645.598	8.9
645.929	8.9
646.26	8.92
646.591	8.92
646.922	8.94
647.253	8.92
647.584	8.96
647.915	8.91
648.245	8.87
648.576	8.84
648.907	8.88
649.238	8.92
649.568	8.91
649.899	9.01
650.229	9.03
650.56	9.03
650.89	9.07
651.221	9.03
651.551	9.04
651.882	9.06
652.212	9.08
652.542	9.12
652.872	9.05
653.203	9.06
653.533	9.1
653.863	9.16
654.193	9.21
654.523	9.16
654.853	9.17
655.183	9.23
655.513	9.2
655.843	9.16
656.172	9.19
656.502	9.2
656.832	9.05
657.162	9.03
657.491	9.01
657.821	8.97
658.15	8.98
658.48	9
658.809	8.99
659.139	9.01
659.468	8.98
659.798	9.03
660.127	8.98
660.456	9
660.785	8.98
661.115	8.97
661.444	9.04
661.773	9.04
662.102	9
662.431	9.01
662.76	9.04
663.089	8.96
663.418	8.92
663.747	8.94
664.076	9.02
664.404	9
664.733	9.01
665.062	9.03
665.39	9.01
665.719	8.99
666.048	8.99
666.376	9.04
666.705	8.99
667.033	9.03
667.362	9.01
667.69	8.95
668.018	8.92
668.347	8.93
668.675	8.93
669.003	8.92
669.331	8.96
669.659	8.96
669.987	8.99
670.315	9
670.643	9.09
670.971	9.06
671.299	9.19
671.627	9.24
671.955	9.19
672.283	9.22
672.61	9.3
672.938	9.31
673.266	9.29
673.593	9.37
673.921	9.37
674.249	9.35
674.576	9.35
674.904	9.36
675.231	9.34
675.558	9.25
675.886	9.31
676.213	9.29
676.54	9.22
676.867	9.29
677.195	9.3
677.522	9.3
677.849	9.36
678.176	9.37
678.503	9.31
678.83	9.3
