Data from BA57750_Reflection_00002.txt Node
Date: Mon Nov 18 15:46:26 EST 2019
User: vgr7
Spectrometer: USB2G7710
Scans to average: 3
Trigger mode: 4
Integration Time (sec): 2.000000E-2
Electric dark correction enabled: true
Boxcar width: 10
XAxis mode: Wavelengths
Number of Pixels in Spectrum: 2048
>>>>>Begin Spectral Data<<<<<
177.721	80.57
178.105	125.24
178.488	903.28
178.871	-45.6
179.254	3.38
179.636	-30.51
180.019	101.16
180.402	175
180.785	61.66
181.168	19.91
181.55	-1
181.933	88.7
182.316	144.01
182.698	106.31
183.081	128.24
183.463	244.57
183.846	380.36
184.228	296.62
184.611	361.54
184.993	289.76
185.376	385.48
185.758	328.44
186.14	445.26
186.522	383.58
186.904	233.38
187.287	174.42
187.669	335.01
188.051	232.86
188.433	378.94
188.815	680.34
189.197	28792.31
189.579	3395.65
189.961	20047.37
190.342	8495.35
190.724	-571.99
191.106	-374.97
191.488	-585.01
191.869	-493.15
192.251	-439.54
192.633	-194.03
193.014	-174.15
193.396	-307.26
193.777	-257.56
194.159	-240.89
194.54	-288.28
194.922	-235.92
195.303	-137.69
195.684	-155.2
196.065	-106.45
196.447	-124.86
196.828	-108.14
197.209	-84.32
197.59	-86.31
197.971	-89.84
198.352	-61.05
198.733	-62.77
199.114	-76.5
199.495	-58.52
199.876	-53.7
200.257	-43.63
200.638	-45.13
201.018	-40.1
201.399	-28.98
201.78	-36.07
202.16	-32.18
202.541	-42.3
202.922	-62.62
203.302	-62.66
203.683	-57.54
204.063	-64.52
204.444	-53.91
204.824	-77.03
205.204	-83.51
205.585	-72.19
205.965	-75.23
206.345	-112.22
206.725	-101.65
207.106	-117.44
207.486	-184.19
207.866	-208.82
208.246	-189.66
208.626	-182.81
209.006	-192.45
209.386	-231.73
209.766	-252.21
210.145	-306.82
210.525	-249.17
210.905	-187.4
211.285	-246.88
211.664	-198.09
212.044	-314.98
212.424	-281.08
212.803	-215.55
213.183	-194.07
213.562	-226.37
213.942	-171.06
214.321	-132.21
214.701	-134.33
215.08	-142.42
215.459	-116.88
215.838	-99.43
216.218	-90.93
216.597	-86.15
216.976	-80.07
217.355	-69.35
217.734	-63.49
218.113	-57.15
218.492	-57.2
218.871	-65.26
219.25	-57.28
219.629	-70.29
220.008	-61.24
220.387	-67.79
220.766	-75.57
221.144	-95.29
221.523	-87.38
221.902	-104.8
222.28	-134.4
222.659	-146.73
223.037	-123.65
223.416	-133.76
223.794	-155.85
224.173	-130.39
224.551	-99.74
224.929	-90.03
225.308	-66.38
225.686	-54.72
226.064	-45.14
226.442	-37.66
226.821	-29.65
227.199	-29.91
227.577	-32.89
227.955	-34.88
228.333	-27.88
228.711	-23.7
229.089	-17.52
229.467	-21.89
229.845	-20.46
230.222	-18.68
230.6	-17.78
230.978	-17.74
231.356	-14.78
231.733	-14.97
232.111	-13.1
232.488	-14.33
232.866	-11.94
233.243	-10.27
233.621	-12.01
233.998	-12.36
234.376	-14.19
234.753	-12.99
235.13	-11.16
235.508	-7.41
235.885	-5.85
236.262	-6.04
236.639	-4.76
237.016	-4.63
237.393	-2.99
237.77	-1.26
238.147	0.2
238.524	0.49
238.901	1.11
239.278	1.79
239.655	2.77
240.032	2.54
240.409	2.73
240.785	2.52
241.162	1.98
241.539	2.58
241.915	2.77
242.292	3.31
242.668	3.2
243.045	2.88
243.421	2.68
243.798	2.7
244.174	2.79
244.551	2.95
244.927	2.9
245.303	3.16
245.679	2.92
246.056	2.95
246.432	2.91
246.808	2.83
247.184	2.57
247.56	2.35
247.936	2.29
248.312	2.41
248.688	2.31
249.064	2.25
249.44	2.29
249.815	2.39
250.191	2.45
250.567	2.4
250.943	2.48
251.318	2.67
251.694	2.64
252.069	2.72
252.445	2.87
252.82	2.76
253.196	2.59
253.571	2.81
253.947	2.41
254.322	2.55
254.697	2.62
255.073	2.53
255.448	2.62
255.823	2.78
256.198	2.87
256.573	3.21
256.948	3.36
257.323	3.27
257.698	3.31
258.073	3.3
258.448	3.44
258.823	3.46
259.198	3.2
259.573	3.26
259.948	3.2
260.322	3.09
260.697	3.22
261.072	3.22
261.446	3.2
261.821	3.28
262.195	3.31
262.57	3.28
262.944	3.21
263.319	3.24
263.693	3.14
264.067	3.15
264.442	3.21
264.816	3.18
265.19	3.16
265.564	3.15
265.938	2.96
266.313	2.85
266.687	2.88
267.061	2.97
267.435	3.12
267.809	3.15
268.183	2.99
268.556	3.05
268.93	3.03
269.304	3.08
269.678	3.1
270.051	3.15
270.425	3.19
270.799	3.4
271.172	3.4
271.546	3.36
271.919	3.33
272.293	3.17
272.666	3.17
273.04	3.2
273.413	3.13
273.787	3.27
274.16	3.24
274.533	3.08
274.906	3.11
275.279	2.98
275.653	2.96
276.026	3.07
276.399	2.99
276.772	3.22
277.145	3.19
277.518	3.2
277.891	3.1
278.263	2.94
278.636	2.92
279.009	2.91
279.382	3.04
279.755	3.08
280.127	3.19
280.5	3.24
280.872	3.11
281.245	3.13
281.617	3.1
281.99	3.19
282.362	3.31
282.735	3.22
283.107	3.29
283.479	3.18
283.852	3.23
284.224	3.26
284.596	3.18
284.968	3.31
285.34	3.44
285.713	3.41
286.085	3.51
286.457	3.65
286.829	3.77
287.201	3.77
287.572	3.77
287.944	3.79
288.316	3.77
288.688	3.82
289.06	3.87
289.431	3.89
289.803	3.91
290.175	4.02
290.546	4.19
290.918	4.28
291.289	4.48
291.661	4.54
292.032	4.53
292.403	4.45
292.775	4.38
293.146	4.36
293.517	4.48
293.889	4.73
294.26	4.7
294.631	4.62
295.002	4.62
295.373	4.72
295.744	4.75
296.115	4.79
296.486	4.8
296.857	4.75
297.228	4.8
297.599	4.71
297.97	4.67
298.34	4.64
298.711	4.65
299.082	4.61
299.452	4.65
299.823	4.74
300.194	4.81
300.564	4.69
300.935	4.69
301.305	4.69
301.676	4.59
302.046	4.62
302.416	4.66
302.787	4.76
303.157	4.62
303.527	4.55
303.897	4.57
304.267	4.8
304.637	4.92
305.008	4.86
305.378	5.02
305.748	5.13
306.117	5.07
306.487	5.02
306.857	5.09
307.227	5.09
307.597	5.18
307.967	5.22
308.336	5.3
308.706	5.28
309.076	5.44
309.445	5.29
309.815	5.13
310.184	5.13
310.554	5.12
310.923	5.2
311.293	5.25
311.662	5.31
312.031	5.17
312.401	5.08
312.77	5.09
313.139	4.96
313.508	4.85
313.877	4.91
314.246	4.92
314.616	4.82
314.985	4.62
315.353	4.56
315.722	4.6
316.091	4.52
316.46	4.4
316.829	4.2
317.198	4.3
317.567	4.42
317.935	4.43
318.304	4.41
318.672	4.47
319.041	4.49
319.41	4.51
319.778	4.5
320.147	4.6
320.515	4.63
320.883	4.63
321.252	4.75
321.62	4.62
321.988	4.67
322.357	4.66
322.725	4.71
323.093	4.66
323.461	4.59
323.829	4.79
324.197	4.88
324.565	4.99
324.933	4.95
325.301	4.98
325.669	5.09
326.037	5.06
326.405	5.14
326.772	5.25
327.14	5.24
327.508	5.33
327.875	5.18
328.243	5.18
328.61	5.35
328.978	5.34
329.346	5.52
329.713	5.52
330.08	5.66
330.448	5.67
330.815	5.57
331.182	5.67
331.55	5.62
331.917	5.65
332.284	5.64
332.651	5.7
333.018	5.74
333.385	5.7
333.752	5.8
334.119	5.59
334.486	5.46
334.853	5.39
335.22	5.33
335.587	5.46
335.954	5.44
336.32	5.28
336.687	5.3
337.054	5.24
337.42	5.18
337.787	5.22
338.153	5.21
338.52	5.41
338.886	5.22
339.253	5.24
339.619	5.26
339.986	5.22
340.352	5.29
340.718	5.19
341.084	5.15
341.451	5.11
341.817	5.08
342.183	5.05
342.549	5.06
342.915	5.18
343.281	5.2
343.647	5.27
344.013	5.38
344.379	5.27
344.745	5.28
345.11	5.3
345.476	5.26
345.842	5.35
346.208	5.27
346.573	5.45
346.939	5.47
347.304	5.41
347.67	5.36
348.035	5.27
348.401	5.31
348.766	5.28
349.132	5.25
349.497	5.3
349.862	5.37
350.228	5.35
350.593	5.2
350.958	5.18
351.323	5.15
351.688	5.14
352.053	5.28
352.418	5.3
352.783	5.34
353.148	5.25
353.513	5.28
353.878	5.3
354.243	5.24
354.608	5.19
354.972	5.22
355.337	5.29
355.702	5.38
356.066	5.4
356.431	5.51
356.795	5.54
357.16	5.51
357.524	5.42
357.889	5.47
358.253	5.51
358.618	5.55
358.982	5.52
359.346	5.44
359.71	5.35
360.075	5.4
360.439	5.38
360.803	5.42
361.167	5.3
361.531	5.29
361.895	5.28
362.259	5.3
362.623	5.33
362.987	5.33
363.351	5.35
363.714	5.41
364.078	5.35
364.442	5.32
364.806	5.34
365.169	5.36
365.533	5.31
365.896	5.28
366.26	5.22
366.623	5.15
366.987	5.2
367.35	5.24
367.714	5.23
368.077	5.25
368.44	5.29
368.803	5.3
369.167	5.25
369.53	5.3
369.893	5.3
370.256	5.28
370.619	5.26
370.982	5.22
371.345	5.12
371.708	5.15
372.071	5.13
372.434	5.14
372.797	5.16
373.159	5.16
373.522	5.18
373.885	5.2
374.247	5.25
374.61	5.26
374.973	5.24
375.335	5.13
375.698	5.19
376.06	5.19
376.423	5.24
376.785	5.26
377.147	5.25
377.51	5.24
377.872	5.26
378.234	5.24
378.596	5.26
378.958	5.24
379.321	5.18
379.683	5.24
380.045	5.22
380.407	5.28
380.769	5.28
381.13	5.33
381.492	5.31
381.854	5.34
382.216	5.32
382.578	5.35
382.939	5.34
383.301	5.31
383.663	5.28
384.024	5.28
384.386	5.34
384.747	5.3
385.109	5.36
385.47	5.35
385.832	5.39
386.193	5.39
386.554	5.43
386.916	5.43
387.277	5.4
387.638	5.45
387.999	5.4
388.36	5.41
388.721	5.42
389.082	5.42
389.443	5.44
389.804	5.48
390.165	5.49
390.526	5.56
390.887	5.54
391.248	5.57
391.609	5.58
391.969	5.55
392.33	5.57
392.691	5.54
393.051	5.51
393.412	5.5
393.772	5.47
394.133	5.46
394.493	5.47
394.854	5.46
395.214	5.43
395.574	5.46
395.935	5.48
396.295	5.47
396.655	5.47
397.015	5.44
397.376	5.44
397.736	5.44
398.096	5.44
398.456	5.47
398.816	5.47
399.176	5.46
399.535	5.46
399.895	5.44
400.255	5.42
400.615	5.43
400.975	5.43
401.334	5.43
401.694	5.47
402.054	5.47
402.413	5.48
402.773	5.46
403.132	5.45
403.492	5.47
403.851	5.47
404.211	5.5
404.57	5.49
404.929	5.51
405.288	5.46
405.648	5.44
406.007	5.43
406.366	5.42
406.725	5.45
407.084	5.46
407.443	5.46
407.802	5.49
408.161	5.49
408.52	5.49
408.879	5.5
409.238	5.51
409.596	5.51
409.955	5.51
410.314	5.52
410.673	5.51
411.031	5.48
411.39	5.47
411.748	5.46
412.107	5.47
412.465	5.43
412.824	5.46
413.182	5.45
413.54	5.44
413.899	5.47
414.257	5.45
414.615	5.44
414.974	5.47
415.332	5.47
415.69	5.46
416.048	5.44
416.406	5.42
416.764	5.41
417.122	5.42
417.48	5.43
417.838	5.44
418.195	5.45
418.553	5.46
418.911	5.46
419.269	5.45
419.626	5.46
419.984	5.46
420.342	5.47
420.699	5.45
421.057	5.45
421.414	5.43
421.772	5.42
422.129	5.43
422.486	5.4
422.844	5.41
423.201	5.41
423.558	5.42
423.915	5.43
424.273	5.44
424.63	5.43
424.987	5.42
425.344	5.4
425.701	5.4
426.058	5.4
426.415	5.41
426.772	5.42
427.128	5.42
427.485	5.43
427.842	5.4
428.199	5.44
428.555	5.43
428.912	5.45
429.269	5.48
429.625	5.47
429.982	5.48
430.338	5.48
430.695	5.48
431.051	5.46
431.407	5.46
431.764	5.46
432.12	5.45
432.476	5.44
432.832	5.45
433.189	5.45
433.545	5.44
433.901	5.42
434.257	5.42
434.613	5.43
434.969	5.43
435.325	5.44
435.681	5.44
436.036	5.45
436.392	5.45
436.748	5.43
437.104	5.44
437.459	5.44
437.815	5.44
438.171	5.45
438.526	5.46
438.882	5.46
439.237	5.48
439.593	5.5
439.948	5.51
440.304	5.51
440.659	5.5
441.014	5.5
441.369	5.49
441.725	5.47
442.08	5.47
442.435	5.46
442.79	5.48
443.145	5.48
443.5	5.48
443.855	5.47
444.21	5.47
444.565	5.48
444.92	5.48
445.275	5.48
445.629	5.48
445.984	5.47
446.339	5.45
446.693	5.43
447.048	5.41
447.403	5.42
447.757	5.43
448.112	5.44
448.466	5.43
448.82	5.43
449.175	5.45
449.529	5.43
449.883	5.44
450.238	5.41
450.592	5.39
450.946	5.38
451.3	5.36
451.654	5.38
452.008	5.37
452.362	5.38
452.716	5.38
453.07	5.38
453.424	5.4
453.778	5.41
454.132	5.4
454.486	5.4
454.839	5.4
455.193	5.4
455.547	5.4
455.9	5.42
456.254	5.43
456.607	5.42
456.961	5.42
457.314	5.43
457.668	5.43
458.021	5.43
458.375	5.44
458.728	5.46
459.081	5.44
459.434	5.42
459.787	5.42
460.141	5.42
460.494	5.41
460.847	5.41
461.2	5.41
461.553	5.43
461.906	5.44
462.259	5.45
462.611	5.45
462.964	5.44
463.317	5.44
463.67	5.44
464.022	5.47
464.375	5.46
464.728	5.47
465.08	5.48
465.433	5.51
465.785	5.5
466.138	5.5
466.49	5.52
466.843	5.51
467.195	5.53
467.547	5.52
467.899	5.51
468.252	5.49
468.604	5.52
468.956	5.51
469.308	5.52
469.66	5.49
470.012	5.52
470.364	5.55
470.716	5.55
471.068	5.54
471.42	5.51
471.772	5.53
472.123	5.52
472.475	5.52
472.827	5.53
473.178	5.54
473.53	5.53
473.882	5.51
474.233	5.55
474.585	5.53
474.936	5.54
475.288	5.55
475.639	5.55
475.99	5.55
476.342	5.56
476.693	5.56
477.044	5.57
477.395	5.56
477.746	5.55
478.097	5.55
478.448	5.54
478.8	5.56
479.15	5.55
479.501	5.57
479.852	5.58
480.203	5.58
480.554	5.6
480.905	5.62
481.255	5.65
481.606	5.65
481.957	5.67
482.307	5.69
482.658	5.69
483.009	5.69
483.359	5.69
483.709	5.7
484.06	5.69
484.41	5.7
484.761	5.7
485.111	5.7
485.461	5.71
485.811	5.72
486.162	5.73
486.512	5.74
486.862	5.75
487.212	5.75
487.562	5.76
487.912	5.74
488.262	5.74
488.612	5.73
488.961	5.73
489.311	5.73
489.661	5.72
490.011	5.71
490.36	5.7
490.71	5.7
491.06	5.7
491.409	5.71
491.759	5.7
492.108	5.7
492.458	5.7
492.807	5.69
493.157	5.69
493.506	5.7
493.855	5.7
494.204	5.67
494.554	5.67
494.903	5.66
495.252	5.67
495.601	5.69
495.95	5.68
496.299	5.67
496.648	5.66
496.997	5.65
497.346	5.66
497.695	5.67
498.043	5.67
498.392	5.67
498.741	5.66
499.09	5.66
499.438	5.67
499.787	5.68
500.135	5.7
500.484	5.7
500.832	5.69
501.181	5.7
501.529	5.7
501.878	5.72
502.226	5.74
502.574	5.76
502.923	5.75
503.271	5.75
503.619	5.77
503.967	5.79
504.315	5.8
504.663	5.8
505.011	5.81
505.359	5.82
505.707	5.84
506.055	5.81
506.403	5.82
506.751	5.83
507.098	5.82
507.446	5.83
507.794	5.82
508.141	5.82
508.489	5.81
508.837	5.82
509.184	5.81
509.531	5.81
509.879	5.83
510.226	5.84
510.574	5.85
510.921	5.85
511.268	5.84
511.616	5.84
511.963	5.87
512.31	5.9
512.657	5.91
513.004	5.91
513.351	5.94
513.698	5.95
514.045	5.97
514.392	5.96
514.739	5.94
515.086	5.96
515.432	5.96
515.779	5.97
516.126	5.98
516.473	6.01
516.819	6.03
517.166	5.99
517.512	6
517.859	6
518.205	6.01
518.552	6.03
518.898	6.04
519.245	6.04
519.591	6
519.937	6
520.283	6
520.629	6.01
520.976	6.01
521.322	6
521.668	6.02
522.014	6.05
522.36	6.05
522.706	6.06
523.052	6.05
523.398	6.05
523.743	6.05
524.089	6.06
524.435	6.06
524.781	6.07
525.126	6.07
525.472	6.08
525.817	6.09
526.163	6.09
526.509	6.09
526.854	6.11
527.199	6.12
527.545	6.12
527.89	6.13
528.235	6.13
528.581	6.13
528.926	6.13
529.271	6.13
529.616	6.12
529.961	6.12
530.306	6.13
530.651	6.14
530.996	6.14
531.341	6.14
531.686	6.15
532.031	6.16
532.376	6.16
532.721	6.16
533.065	6.15
533.41	6.15
533.755	6.16
534.099	6.16
534.444	6.15
534.788	6.16
535.133	6.15
535.477	6.15
535.822	6.15
536.166	6.14
536.51	6.15
536.855	6.15
537.199	6.15
537.543	6.16
537.887	6.17
538.231	6.17
538.576	6.19
538.92	6.19
539.264	6.19
539.608	6.2
539.951	6.21
540.295	6.23
540.639	6.24
540.983	6.23
541.327	6.23
541.671	6.24
542.014	6.25
542.358	6.24
542.701	6.24
543.045	6.25
543.389	6.27
543.732	6.27
544.075	6.28
544.419	6.3
544.762	6.29
545.105	6.29
545.449	6.28
545.792	6.26
546.135	6.26
546.478	6.24
546.821	6.26
547.165	6.26
547.508	6.25
547.851	6.23
548.194	6.23
548.536	6.22
548.879	6.23
549.222	6.21
549.565	6.21
549.908	6.22
550.25	6.22
550.593	6.23
550.936	6.23
551.278	6.23
551.621	6.19
551.963	6.22
552.306	6.21
552.648	6.19
552.991	6.2
553.333	6.19
553.675	6.21
554.017	6.2
554.36	6.18
554.702	6.21
555.044	6.24
555.386	6.24
555.728	6.25
556.07	6.25
556.412	6.26
556.754	6.26
557.096	6.29
557.438	6.29
557.78	6.3
558.121	6.32
558.463	6.31
558.805	6.3
559.147	6.3
559.488	6.31
559.83	6.32
560.171	6.32
560.513	6.36
560.854	6.35
561.196	6.34
561.537	6.32
561.878	6.29
562.22	6.26
562.561	6.27
562.902	6.28
563.243	6.3
563.584	6.28
563.925	6.31
564.266	6.26
564.607	6.23
564.948	6.24
565.289	6.23
565.63	6.23
565.971	6.24
566.312	6.25
566.653	6.26
566.993	6.27
567.334	6.28
567.675	6.25
568.015	6.27
568.356	6.3
568.696	6.32
569.037	6.33
569.377	6.37
569.718	6.36
570.058	6.36
570.398	6.35
570.739	6.36
571.079	6.36
571.419	6.39
571.759	6.43
572.099	6.43
572.439	6.41
572.779	6.44
573.119	6.45
573.459	6.45
573.799	6.48
574.139	6.45
574.479	6.46
574.819	6.45
575.158	6.44
575.498	6.4
575.838	6.38
576.177	6.34
576.517	6.31
576.856	6.32
577.196	6.3
577.535	6.28
577.875	6.26
578.214	6.25
578.553	6.27
578.893	6.25
579.232	6.21
579.571	6.23
579.91	6.21
580.25	6.22
580.589	6.22
580.928	6.17
581.267	6.24
581.606	6.22
581.945	6.22
582.283	6.2
582.622	6.23
582.961	6.28
583.3	6.35
583.639	6.37
583.977	6.37
584.316	6.38
584.654	6.4
584.993	6.44
585.332	6.4
585.67	6.39
586.008	6.38
586.347	6.42
586.685	6.43
587.024	6.41
587.362	6.42
587.7	6.45
588.038	6.47
588.376	6.44
588.715	6.47
589.053	6.52
589.391	6.55
589.729	6.54
590.067	6.51
590.404	6.5
590.742	6.5
591.08	6.49
591.418	6.53
591.756	6.52
592.093	6.52
592.431	6.52
592.769	6.53
593.106	6.55
593.444	6.53
593.781	6.51
594.119	6.56
594.456	6.52
594.793	6.5
595.131	6.47
595.468	6.49
595.805	6.52
596.143	6.48
596.48	6.5
596.817	6.52
597.154	6.53
597.491	6.52
597.828	6.51
598.165	6.49
598.502	6.49
598.839	6.51
599.176	6.51
599.512	6.49
599.849	6.5
600.186	6.51
600.523	6.54
600.859	6.57
601.196	6.55
601.532	6.6
601.869	6.57
602.205	6.6
602.542	6.59
602.878	6.58
603.215	6.59
603.551	6.56
603.887	6.55
604.223	6.56
604.56	6.6
604.896	6.61
605.232	6.66
605.568	6.67
605.904	6.63
606.24	6.65
606.576	6.69
606.912	6.69
607.248	6.68
607.583	6.71
607.919	6.66
608.255	6.64
608.591	6.63
608.926	6.65
609.262	6.66
609.597	6.69
609.933	6.66
610.268	6.7
610.604	6.72
610.939	6.75
611.275	6.74
611.61	6.68
611.945	6.68
612.281	6.62
612.616	6.57
612.951	6.62
613.286	6.59
613.621	6.57
613.956	6.55
614.291	6.5
614.626	6.46
614.961	6.5
615.296	6.51
615.631	6.47
615.966	6.5
616.3	6.49
616.635	6.48
616.97	6.5
617.304	6.47
617.639	6.49
617.973	6.45
618.308	6.45
618.642	6.5
618.977	6.53
619.311	6.54
619.646	6.56
619.98	6.5
620.314	6.54
620.648	6.59
620.983	6.64
621.317	6.71
621.651	6.75
621.985	6.78
622.319	6.77
622.653	6.82
622.987	6.82
623.321	6.81
623.655	6.78
623.988	6.79
624.322	6.79
624.656	6.76
624.99	6.78
625.323	6.76
625.657	6.74
625.99	6.76
626.324	6.8
626.657	6.83
626.991	6.91
627.324	6.9
627.658	6.89
627.991	6.91
628.324	6.88
628.657	6.85
628.991	6.82
629.324	6.84
629.657	6.83
629.99	6.85
630.323	6.86
630.656	6.92
630.989	6.9
631.322	6.92
631.655	6.87
631.987	6.87
632.32	6.86
632.653	6.86
632.986	6.85
633.318	6.88
633.651	6.88
633.984	6.81
634.316	6.8
634.649	6.75
634.981	6.71
635.313	6.73
635.646	6.7
635.978	6.75
636.31	6.77
636.643	6.74
636.975	6.74
637.307	6.7
637.639	6.67
637.971	6.7
638.303	6.68
638.635	6.69
638.967	6.71
639.299	6.78
639.631	6.78
639.963	6.73
640.295	6.72
640.626	6.71
640.958	6.76
641.29	6.74
641.621	6.77
641.953	6.76
642.285	6.84
642.616	6.94
642.948	6.83
643.279	6.79
643.61	6.77
643.942	6.81
644.273	6.85
644.604	6.86
644.936	6.83
645.267	6.83
645.598	6.88
645.929	6.9
646.26	6.89
646.591	6.94
646.922	6.96
647.253	6.96
647.584	6.84
647.915	6.86
648.245	6.86
648.576	6.82
648.907	6.89
649.238	6.82
649.568	6.72
649.899	6.76
650.229	6.84
650.56	6.84
650.89	6.74
651.221	6.74
651.551	6.67
651.882	6.67
652.212	6.71
652.542	6.74
652.872	6.65
653.203	6.7
653.533	6.67
653.863	6.69
654.193	6.64
654.523	6.78
654.853	6.77
655.183	6.8
655.513	6.85
655.843	6.8
656.172	6.81
656.502	6.81
656.832	6.89
657.162	6.9
657.491	6.92
657.821	6.91
658.15	6.86
658.48	6.9
658.809	6.92
659.139	6.91
659.468	6.95
659.798	6.97
660.127	6.95
660.456	6.92
660.785	6.96
661.115	7.06
661.444	7.06
661.773	7.07
662.102	7.08
662.431	7.09
662.76	7.04
663.089	7.09
663.418	7.1
663.747	7.12
664.076	7.15
664.404	7.15
664.733	7.32
665.062	7.34
665.39	7.37
665.719	7.37
666.048	7.41
666.376	7.33
666.705	7.36
667.033	7.31
667.362	7.36
667.69	7.32
668.018	7.27
668.347	7.22
668.675	7.22
669.003	7.21
669.331	7.26
669.659	7.35
669.987	7.31
670.315	7.31
670.643	7.2
670.971	7.17
671.299	7.14
671.627	7.13
671.955	7.14
672.283	7.13
672.61	7.03
672.938	7.02
673.266	7.02
673.593	7.04
673.921	7.01
674.249	7.02
674.576	7.03
674.904	6.98
675.231	6.97
675.558	6.99
