Data from BA57730_Reflection_00007.txt Node
Date: Mon Nov 18 15:59:42 EST 2019
User: vgr7
Spectrometer: USB2G7710
Scans to average: 3
Trigger mode: 4
Integration Time (sec): 2.000000E-2
Electric dark correction enabled: true
Boxcar width: 10
XAxis mode: Wavelengths
Number of Pixels in Spectrum: 2048
>>>>>Begin Spectral Data<<<<<
177.721	-439.68
178.105	-50.33
178.488	-201.78
178.871	-30.34
179.254	72.57
179.636	-4.38
180.019	65.33
180.402	109.3
180.785	-65.24
181.168	-81.99
181.55	-77.62
181.933	330.3
182.316	185.29
182.698	190.85
183.081	99.04
183.463	145.29
183.846	112.24
184.228	242.14
184.611	273.64
184.993	403.03
185.376	468.53
185.758	354.99
186.14	197.48
186.522	185.38
186.904	205.42
187.287	190.27
187.669	273.99
188.051	333.64
188.433	2800.85
188.815	457.65
189.197	347.14
189.579	358.2
189.961	289.22
190.342	249.15
190.724	639.68
191.106	-5262.32
191.488	-1020.45
191.869	-449.51
192.251	-1150.74
192.633	-1416.22
193.014	-1305.28
193.396	3070.76
193.777	-1008.73
194.159	-1073.33
194.54	-723.68
194.922	-296.5
195.303	-378.95
195.684	-591.9
196.065	-442.56
196.447	-423.18
196.828	-455.89
197.209	-564.42
197.59	-472.88
197.971	-606.43
198.352	-267.32
198.733	-379.11
199.114	-364.53
199.495	-525.91
199.876	-361.89
200.257	-346.94
200.638	-269.08
201.018	-151.17
201.399	-134.94
201.78	-115.29
202.16	-154.6
202.541	-394.91
202.922	858.27
203.302	704.86
203.683	-4479.71
204.063	369.78
204.444	302.97
204.824	271.33
205.204	874.6
205.585	1202.88
205.965	1382.05
206.345	847.2
206.725	541.48
207.106	415.08
207.486	361.15
207.866	465.83
208.246	389.31
208.626	381.22
209.006	599.35
209.386	474.88
209.766	1201.93
210.145	-3881.98
210.525	-435.48
210.905	-219.06
211.285	-162.88
211.664	-149.33
212.044	-129.14
212.424	-106.52
212.803	-114.9
213.183	-86.38
213.562	-110.69
213.942	-87.61
214.321	-57.53
214.701	-70.05
215.08	-81.86
215.459	-85.01
215.838	-78.53
216.218	-83.83
216.597	-67.68
216.976	-77.75
217.355	-67.81
217.734	-78.4
218.113	-78.07
218.492	-97.8
218.871	-96.51
219.25	-75.84
219.629	-105.44
220.008	-129.62
220.387	-126
220.766	-96.45
221.144	-151.46
221.523	-139.17
221.902	-152.52
222.28	-171.02
222.659	-153.2
223.037	-122.42
223.416	-96.5
223.794	-104.57
224.173	-101.16
224.551	-55.42
224.929	-52.48
225.308	-38.47
225.686	-35.38
226.064	-32.76
226.442	-27.12
226.821	-23.27
227.199	-18.63
227.577	-16.5
227.955	-12.16
228.333	-12.02
228.711	-9.92
229.089	-1.68
229.467	0.76
229.845	-2.23
230.222	-2.87
230.6	-1.15
230.978	-1.31
231.356	-0.21
231.733	2.04
232.111	1.61
232.488	-1.41
232.866	-1.78
233.243	-2.29
233.621	-3.17
233.998	-2.07
234.376	-1.1
234.753	-0.36
235.13	-1.25
235.508	0.76
235.885	-0.89
236.262	0.27
236.639	-1.07
237.016	-3.96
237.393	-4.22
237.77	-1.42
238.147	-0.28
238.524	0.92
238.901	1.07
239.278	1.8
239.655	2.33
240.032	3.16
240.409	3.29
240.785	3.34
241.162	3.43
241.539	3.09
241.915	3.24
242.292	2.84
242.668	2.67
243.045	2.8
243.421	2.54
243.798	2.95
244.174	2.59
244.551	3.21
244.927	3.43
245.303	3.81
245.679	3.66
246.056	3.75
246.432	3.48
246.808	3.53
247.184	3.27
247.56	3.04
247.936	2.97
248.312	2.9
248.688	3.19
249.064	3.22
249.44	3.53
249.815	3.7
250.191	3.78
250.567	4.13
250.943	3.9
251.318	4.11
251.694	3.68
252.069	3.95
252.445	3.78
252.82	3.76
253.196	3.5
253.571	3.14
253.947	3.12
254.322	3.74
254.697	3.53
255.073	3.32
255.448	3.01
255.823	2.84
256.198	2.88
256.573	2.82
256.948	3.07
257.323	3.07
257.698	3.02
258.073	3.28
258.448	3.07
258.823	3.14
259.198	2.89
259.573	3.13
259.948	3.18
260.322	3.19
260.697	3.18
261.072	3.07
261.446	3.25
261.821	3.04
262.195	2.94
262.57	2.96
262.944	3
263.319	3.18
263.693	2.98
264.067	3.12
264.442	3.06
264.816	3.02
265.19	3.05
265.564	2.91
265.938	2.66
266.313	2.55
266.687	2.72
267.061	3.08
267.435	3.32
267.809	3.21
268.183	3.14
268.556	3.23
268.93	3.4
269.304	3.33
269.678	3.58
270.051	3.42
270.425	3.52
270.799	3.45
271.172	3.27
271.546	3.48
271.919	3.39
272.293	3.49
272.666	3.41
273.04	3.41
273.413	3.4
273.787	3.3
274.16	3.41
274.533	3.23
274.906	3.19
275.279	3.1
275.653	2.98
276.026	2.96
276.399	3.01
276.772	3.11
277.145	3.05
277.518	2.98
277.891	3.16
278.263	3.29
278.636	3.45
279.009	3.56
279.382	3.64
279.755	3.69
280.127	3.8
280.5	3.9
280.872	3.87
281.245	4.03
281.617	4.33
281.99	4.45
282.362	4.42
282.735	4.1
283.107	3.94
283.479	4.19
283.852	4.2
284.224	4.21
284.596	4.21
284.968	4.44
285.34	4.38
285.713	4.37
286.085	4.29
286.457	4.38
286.829	4.45
287.201	4.45
287.572	4.33
287.944	4.19
288.316	4.09
288.688	3.98
289.06	3.99
289.431	3.95
289.803	3.85
290.175	3.86
290.546	4.12
290.918	4.21
291.289	4.15
291.661	4.35
292.032	4.46
292.403	4.48
292.775	4.44
293.146	4.51
293.517	4.48
293.889	4.47
294.26	4.57
294.631	4.67
295.002	4.75
295.373	4.93
295.744	5.05
296.115	5.21
296.486	5.12
296.857	5.09
297.228	5.07
297.599	5.14
297.97	5.38
298.34	5.39
298.711	5.56
299.082	5.62
299.452	5.64
299.823	5.76
300.194	5.64
300.564	5.64
300.935	5.7
301.305	5.77
301.676	5.89
302.046	5.78
302.416	5.88
302.787	5.95
303.157	5.96
303.527	6
303.897	6.01
304.267	6.4
304.637	6.36
305.008	6.6
305.378	6.63
305.748	6.66
306.117	6.72
306.487	6.79
306.857	6.89
307.227	6.99
307.597	6.82
307.967	7.08
308.336	7.24
308.706	7.33
309.076	7.41
309.445	7.39
309.815	7.48
310.184	7.46
310.554	7.53
310.923	7.51
311.293	7.57
311.662	7.68
312.031	7.62
312.401	7.78
312.77	7.9
313.139	8
313.508	8.04
313.877	8.21
314.246	8.32
314.616	8.28
314.985	8.23
315.353	8.45
315.722	8.6
316.091	8.55
316.46	8.6
316.829	8.73
317.198	8.87
317.567	9.06
317.935	9.2
318.304	9.33
318.672	9.48
319.041	9.6
319.41	9.76
319.778	9.94
320.147	9.99
320.515	9.94
320.883	10.02
321.252	10.2
321.62	10.22
321.988	10.28
322.357	10.45
322.725	10.69
323.093	10.82
323.461	10.77
323.829	10.85
324.197	11.06
324.565	11.16
324.933	11.31
325.301	11.42
325.669	11.51
326.037	11.49
326.405	11.72
326.772	11.84
327.14	11.86
327.508	11.9
327.875	12.04
328.243	12.25
328.61	12.39
328.978	12.44
329.346	12.68
329.713	12.61
330.08	12.72
330.448	12.65
330.815	12.6
331.182	12.74
331.55	12.93
331.917	12.95
332.284	13.19
332.651	13.22
333.018	13.22
333.385	13.32
333.752	13.48
334.119	13.56
334.486	13.56
334.853	13.71
335.22	13.77
335.587	13.85
335.954	13.79
336.32	13.93
336.687	14.02
337.054	14.05
337.42	14.12
337.787	14.17
338.153	14.27
338.52	14.45
338.886	14.43
339.253	14.48
339.619	14.49
339.986	14.39
340.352	14.48
340.718	14.49
341.084	14.48
341.451	14.62
341.817	14.62
342.183	14.69
342.549	14.74
342.915	14.84
343.281	14.86
343.647	14.95
344.013	14.84
344.379	14.82
344.745	14.75
345.11	14.87
345.476	14.93
345.842	14.98
346.208	14.99
346.573	15.16
346.939	15.2
347.304	15.26
347.67	15.31
348.035	15.31
348.401	15.44
348.766	15.42
349.132	15.39
349.497	15.43
349.862	15.51
350.228	15.56
350.593	15.58
350.958	15.62
351.323	15.6
351.688	15.64
352.053	15.69
352.418	15.71
352.783	15.71
353.148	15.68
353.513	15.71
353.878	15.61
354.243	15.64
354.608	15.73
354.972	15.76
355.337	15.79
355.702	15.8
356.066	15.75
356.431	15.78
356.795	15.77
357.16	15.72
357.524	15.64
357.889	15.61
358.253	15.53
358.618	15.49
358.982	15.44
359.346	15.38
359.71	15.33
360.075	15.32
360.439	15.35
360.803	15.38
361.167	15.33
361.531	15.36
361.895	15.27
362.259	15.16
362.623	15.1
362.987	15.06
363.351	15.07
363.714	15.04
364.078	15
364.442	14.92
364.806	14.85
365.169	14.89
365.533	14.83
365.896	14.81
366.26	14.77
366.623	14.76
366.987	14.73
367.35	14.67
367.714	14.62
368.077	14.55
368.44	14.49
368.803	14.44
369.167	14.32
369.53	14.24
369.893	14.21
370.256	14.21
370.619	14.12
370.982	14.09
371.345	13.96
371.708	13.9
372.071	13.84
372.434	13.71
372.797	13.57
373.159	13.46
373.522	13.43
373.885	13.37
374.247	13.25
374.61	13.25
374.973	13.21
375.335	13.11
375.698	13.04
376.06	12.89
376.423	12.83
376.785	12.81
377.147	12.75
377.51	12.63
377.872	12.5
378.234	12.46
378.596	12.27
378.958	12.25
379.321	12.15
379.683	12.08
380.045	12.09
380.407	11.99
380.769	11.93
381.13	11.83
381.492	11.75
381.854	11.71
382.216	11.58
382.578	11.5
382.939	11.38
383.301	11.25
383.663	11.17
384.024	11.07
384.386	11.08
384.747	10.99
385.109	10.96
385.47	10.88
385.832	10.8
386.193	10.82
386.554	10.7
386.916	10.66
387.277	10.54
387.638	10.49
387.999	10.42
388.36	10.34
388.721	10.29
389.082	10.21
389.443	10.09
389.804	10.02
390.165	9.93
390.526	9.92
390.887	9.87
391.248	9.85
391.609	9.76
391.969	9.61
392.33	9.54
392.691	9.45
393.051	9.38
393.412	9.31
393.772	9.2
394.133	9.16
394.493	9.06
394.854	9.02
395.214	8.94
395.574	8.89
395.935	8.87
396.295	8.78
396.655	8.71
397.015	8.66
397.376	8.59
397.736	8.51
398.096	8.41
398.456	8.35
398.816	8.25
399.176	8.2
399.535	8.14
399.895	8.08
400.255	8.04
400.615	7.97
400.975	7.91
401.334	7.86
401.694	7.83
402.054	7.81
402.413	7.72
402.773	7.64
403.132	7.58
403.492	7.5
403.851	7.45
404.211	7.38
404.57	7.34
404.929	7.31
405.288	7.26
405.648	7.2
406.007	7.2
406.366	7.17
406.725	7.18
407.084	7.15
407.443	7.13
407.802	7.1
408.161	7.1
408.52	7.04
408.879	7
409.238	6.97
409.596	6.93
409.955	6.92
410.314	6.91
410.673	6.86
411.031	6.8
411.39	6.77
411.748	6.75
412.107	6.74
412.465	6.7
412.824	6.71
413.182	6.7
413.54	6.63
413.899	6.61
414.257	6.57
414.615	6.52
414.974	6.49
415.332	6.44
415.69	6.36
416.048	6.32
416.406	6.28
416.764	6.22
417.122	6.18
417.48	6.14
417.838	6.11
418.195	6.1
418.553	6.09
418.911	6.05
419.269	6.02
419.626	5.98
419.984	5.96
420.342	5.92
420.699	5.88
421.057	5.85
421.414	5.81
421.772	5.78
422.129	5.76
422.486	5.73
422.844	5.72
423.201	5.7
423.558	5.68
423.915	5.66
424.273	5.64
424.63	5.62
424.987	5.59
425.344	5.54
425.701	5.51
426.058	5.48
426.415	5.45
426.772	5.44
427.128	5.42
427.485	5.38
427.842	5.36
428.199	5.36
428.555	5.34
428.912	5.32
429.269	5.3
429.625	5.27
429.982	5.23
430.338	5.2
430.695	5.2
431.051	5.18
431.407	5.19
431.764	5.19
432.12	5.18
432.476	5.18
432.832	5.19
433.189	5.18
433.545	5.17
433.901	5.16
434.257	5.14
434.613	5.14
434.969	5.14
435.325	5.11
435.681	5.11
436.036	5.11
436.392	5.11
436.748	5.09
437.104	5.09
437.459	5.09
437.815	5.11
438.171	5.08
438.526	5.08
438.882	5.06
439.237	5.05
439.593	5.05
439.948	5.03
440.304	5.04
440.659	5.05
441.014	5.05
441.369	5.03
441.725	5.02
442.08	5.02
442.435	5.02
442.79	5.02
443.145	5.01
443.5	5
443.855	5
444.21	4.97
444.565	4.97
444.92	4.98
445.275	4.95
445.629	4.94
445.984	4.93
446.339	4.92
446.693	4.89
447.048	4.88
447.403	4.86
447.757	4.83
448.112	4.79
448.466	4.76
448.82	4.76
449.175	4.75
449.529	4.71
449.883	4.67
450.238	4.67
450.592	4.66
450.946	4.63
451.3	4.6
451.654	4.58
452.008	4.56
452.362	4.52
452.716	4.5
453.07	4.51
453.424	4.48
453.778	4.47
454.132	4.45
454.486	4.44
454.839	4.44
455.193	4.44
455.547	4.46
455.9	4.48
456.254	4.47
456.607	4.47
456.961	4.48
457.314	4.51
457.668	4.49
458.021	4.49
458.375	4.49
458.728	4.47
459.081	4.49
459.434	4.49
459.787	4.48
460.141	4.5
460.494	4.5
460.847	4.51
461.2	4.51
461.553	4.53
461.906	4.56
462.259	4.57
462.611	4.59
462.964	4.61
463.317	4.62
463.67	4.64
464.022	4.65
464.375	4.66
464.728	4.69
465.08	4.71
465.433	4.74
465.785	4.76
466.138	4.79
466.49	4.81
466.843	4.82
467.195	4.86
467.547	4.9
467.899	4.9
468.252	4.93
468.604	4.95
468.956	4.95
469.308	4.96
469.66	4.96
470.012	4.99
470.364	5
470.716	5.03
471.068	5.04
471.42	5.07
471.772	5.09
472.123	5.08
472.475	5.1
472.827	5.1
473.178	5.12
473.53	5.11
473.882	5.11
474.233	5.14
474.585	5.13
474.936	5.1
475.288	5.1
475.639	5.11
475.99	5.11
476.342	5.11
476.693	5.1
477.044	5.12
477.395	5.09
477.746	5.06
478.097	5.03
478.448	5.04
478.8	5.02
479.15	5.01
479.501	5
479.852	5
480.203	5
480.554	4.98
480.905	5
481.255	5.01
481.606	4.99
481.957	4.99
482.307	5
482.658	5
483.009	5
483.359	5
483.709	5.01
484.06	5.01
484.41	5.01
484.761	5
485.111	5
485.461	5.01
485.811	4.99
486.162	4.99
486.512	5
486.862	5.01
487.212	5
487.562	5
487.912	5
488.262	5
488.612	4.98
488.961	4.99
489.311	4.99
489.661	4.98
490.011	4.99
490.36	4.98
490.71	4.99
491.06	4.99
491.409	4.99
491.759	4.99
492.108	5.01
492.458	5.03
492.807	5.04
493.157	5.06
493.506	5.09
493.855	5.1
494.204	5.12
494.554	5.15
494.903	5.18
495.252	5.22
495.601	5.25
495.95	5.29
496.299	5.32
496.648	5.36
496.997	5.41
497.346	5.45
497.695	5.51
498.043	5.56
498.392	5.6
498.741	5.66
499.09	5.71
499.438	5.77
499.787	5.81
500.135	5.87
500.484	5.94
500.832	6.01
501.181	6.05
501.529	6.11
501.878	6.18
502.226	6.25
502.574	6.31
502.923	6.4
503.271	6.5
503.619	6.6
503.967	6.7
504.315	6.77
504.663	6.86
505.011	6.96
505.359	7.03
505.707	7.13
506.055	7.2
506.403	7.29
506.751	7.37
507.098	7.5
507.446	7.61
507.794	7.7
508.141	7.77
508.489	7.89
508.837	7.98
509.184	8.05
509.531	8.16
509.879	8.26
510.226	8.38
510.574	8.46
510.921	8.55
511.268	8.62
511.616	8.74
511.963	8.84
512.31	8.93
512.657	9.03
513.004	9.13
513.351	9.29
513.698	9.38
514.045	9.5
514.392	9.59
514.739	9.71
515.086	9.84
515.432	10
515.779	10.13
516.126	10.24
516.473	10.36
516.819	10.44
517.166	10.54
517.512	10.62
517.859	10.74
518.205	10.8
518.552	10.93
518.898	11.03
519.245	11.13
519.591	11.25
519.937	11.36
520.283	11.49
520.629	11.6
520.976	11.77
521.322	11.92
521.668	12.07
522.014	12.24
522.36	12.4
522.706	12.54
523.052	12.73
523.398	12.96
523.743	13.16
524.089	13.37
524.435	13.57
524.781	13.78
525.126	13.98
525.472	14.18
525.817	14.34
526.163	14.49
526.509	14.66
526.854	14.78
527.199	14.91
527.545	15.04
527.89	15.17
528.235	15.32
528.581	15.47
528.926	15.63
529.271	15.77
529.616	15.91
529.961	16.08
530.306	16.22
530.651	16.38
530.996	16.57
531.341	16.77
531.686	16.98
532.031	17.19
532.376	17.38
532.721	17.63
533.065	17.88
533.41	18.11
533.755	18.36
534.099	18.65
534.444	18.93
534.788	19.2
535.133	19.46
535.477	19.71
535.822	20
536.166	20.29
536.51	20.65
536.855	21.02
537.199	21.38
537.543	21.76
537.887	22.14
538.231	22.51
538.576	22.88
538.92	23.23
539.264	23.57
539.608	23.95
539.951	24.24
540.295	24.54
540.639	24.86
540.983	25.15
541.327	25.43
541.671	25.72
542.014	26.02
542.358	26.31
542.701	26.6
543.045	26.88
543.389	27.17
543.732	27.45
544.075	27.74
544.419	28.07
544.762	28.41
545.105	28.75
545.449	29.1
545.792	29.48
546.135	29.9
546.478	30.32
546.821	30.76
547.165	31.19
547.508	31.62
547.851	32.1
548.194	32.52
548.536	32.98
548.879	33.44
549.222	33.87
549.565	34.34
549.908	34.81
550.25	35.29
550.593	35.74
550.936	36.17
551.278	36.63
551.621	37.05
551.963	37.5
552.306	37.92
552.648	38.37
552.991	38.82
553.333	39.19
553.675	39.56
554.017	39.9
554.36	40.26
554.702	40.68
555.044	40.98
555.386	41.4
555.728	41.73
556.07	42.1
556.412	42.47
556.754	42.85
557.096	43.21
557.438	43.51
557.78	43.89
558.121	44.3
558.463	44.68
558.805	45.07
559.147	45.39
559.488	45.74
559.83	46.11
560.171	46.45
560.513	46.8
560.854	47.07
561.196	47.41
561.537	47.75
561.878	48.02
562.22	48.3
562.561	48.59
562.902	48.92
563.243	49.21
563.584	49.47
563.925	49.71
564.266	49.97
564.607	50.25
564.948	50.5
565.289	50.64
565.63	50.84
565.971	51.01
566.312	51.25
566.653	51.45
566.993	51.65
567.334	51.79
567.675	52.02
568.015	52.29
568.356	52.49
568.696	52.75
569.037	52.92
569.377	53.2
569.718	53.37
570.058	53.55
570.398	53.74
570.739	53.97
571.079	54.18
571.419	54.36
571.759	54.58
572.099	54.75
572.439	54.99
572.779	55.17
573.119	55.38
573.459	55.52
573.799	55.68
574.139	55.82
574.479	55.96
574.819	56.09
575.158	56.2
575.498	56.34
575.838	56.43
576.177	56.58
576.517	56.64
576.856	56.83
577.196	57
577.535	57.17
577.875	57.32
578.214	57.45
578.553	57.55
578.893	57.67
579.232	57.76
579.571	57.91
579.91	58.06
580.25	58.13
580.589	58.33
580.928	58.53
581.267	58.67
581.606	58.87
581.945	58.98
582.283	59.15
582.622	59.26
582.961	59.38
583.3	59.58
583.639	59.87
583.977	59.94
584.316	60
584.654	60.1
584.993	60.2
585.332	60.24
585.67	60.4
586.008	60.54
586.347	60.74
586.685	60.84
587.024	60.92
587.362	61.07
587.7	61.14
588.038	61.19
588.376	61.27
588.715	61.32
589.053	61.36
589.391	61.45
589.729	61.54
590.067	61.68
590.404	61.62
590.742	61.55
591.08	61.61
591.418	61.74
591.756	61.77
592.093	61.77
592.431	61.94
592.769	62.01
593.106	61.98
593.444	62.01
593.781	62.08
594.119	62.13
594.456	62.18
594.793	62.17
595.131	62.23
595.468	62.24
595.805	62.33
596.143	62.49
596.48	62.45
596.817	62.44
597.154	62.46
597.491	62.55
597.828	62.62
598.165	62.69
598.502	62.69
598.839	62.75
599.176	62.89
599.512	62.91
599.849	62.88
600.186	62.98
600.523	62.97
600.859	62.93
601.196	62.95
601.532	63.01
601.869	63.13
602.205	63.15
602.542	63.24
602.878	63.24
603.215	63.21
603.551	63.28
603.887	63.39
604.223	63.47
604.56	63.53
604.896	63.54
605.232	63.6
605.568	63.66
605.904	63.67
606.24	63.67
606.576	63.75
606.912	63.92
607.248	63.94
607.583	64.06
607.919	64.17
608.255	64.25
608.591	64.33
608.926	64.38
609.262	64.37
609.597	64.38
609.933	64.35
610.268	64.43
610.604	64.51
610.939	64.49
611.275	64.47
611.61	64.48
611.945	64.59
612.281	64.57
612.616	64.57
612.951	64.65
613.286	64.72
613.621	64.76
613.956	64.72
614.291	64.81
614.626	64.91
614.961	64.93
615.296	64.97
615.631	64.96
615.966	64.96
616.3	65.14
616.635	65.18
616.97	65.42
617.304	65.42
617.639	65.53
617.973	65.68
618.308	65.77
618.642	65.85
618.977	65.79
619.311	65.86
619.646	65.9
619.98	65.92
620.314	65.89
620.648	65.82
620.983	65.8
621.317	65.82
621.651	65.78
621.985	65.84
622.319	65.82
622.653	65.83
622.987	65.86
623.321	65.87
623.655	65.86
623.988	65.81
624.322	65.88
624.656	65.83
624.99	65.86
625.323	65.87
625.657	65.89
625.99	65.91
626.324	65.93
626.657	65.93
626.991	65.96
627.324	66.07
627.658	66.18
627.991	66.23
628.324	66.22
628.657	66.24
628.991	66.19
629.324	66.23
629.657	66.27
629.99	66.29
630.323	66.3
630.656	66.43
630.989	66.51
631.322	66.5
631.655	66.48
631.987	66.36
632.32	66.33
632.653	66.33
632.986	66.29
633.318	66.31
633.651	66.41
633.984	66.43
634.316	66.33
634.649	66.28
634.981	66.33
635.313	66.4
635.646	66.37
635.978	66.33
636.31	66.44
636.643	66.43
636.975	66.34
637.307	66.39
637.639	66.4
637.971	66.32
638.303	66.43
638.635	66.42
638.967	66.48
639.299	66.5
639.631	66.46
639.963	66.61
640.295	66.61
640.626	66.54
640.958	66.6
641.29	66.66
641.621	66.68
641.953	66.65
642.285	66.65
642.616	66.75
642.948	66.82
643.279	66.76
643.61	66.9
643.942	66.97
644.273	66.94
644.604	66.86
644.936	66.84
645.267	66.73
645.598	66.83
645.929	66.95
646.26	66.98
646.591	67.11
646.922	67.05
647.253	67.15
647.584	67.28
647.915	67.2
648.245	67.22
648.576	67.24
648.907	67.32
649.238	67.36
649.568	67.33
649.899	67.36
650.229	67.38
650.56	67.32
650.89	67.38
651.221	67.32
651.551	67.37
651.882	67.45
652.212	67.42
652.542	67.35
652.872	67.29
653.203	67.29
653.533	67.24
653.863	67.33
654.193	67.26
654.523	67.18
654.853	67.22
655.183	67.21
655.513	67.16
655.843	67.05
656.172	67.06
656.502	67.07
656.832	67.15
657.162	67.06
657.491	67.02
657.821	67.09
658.15	67.18
658.48	67.19
658.809	67.17
659.139	67.17
659.468	67.23
659.798	67.25
660.127	67.29
660.456	67.24
660.785	67.27
661.115	67.27
661.444	67.22
661.773	67.27
