Data from BA57965_Reflection_00001.txt Node
Date: Mon Nov 18 15:15:48 EST 2019
User: vgr7
Spectrometer: USB2G7710
Scans to average: 3
Trigger mode: 4
Integration Time (sec): 2.000000E-2
Electric dark correction enabled: true
Boxcar width: 10
XAxis mode: Wavelengths
Number of Pixels in Spectrum: 2048
>>>>>Begin Spectral Data<<<<<
177.721	165.35
178.105	13.95
178.488	-43.74
178.871	-132.91
179.254	-91.27
179.636	-16.76
180.019	14.2
180.402	44.74
180.785	67.9
181.168	85.42
181.55	464.53
181.933	293.87
182.316	412.58
182.698	1238.08
183.081	1970.97
183.463	-1517.83
183.846	-478.66
184.228	-282.38
184.611	-342.24
184.993	-192.2
185.376	-112.02
185.758	-111.11
186.14	-130.92
186.522	-134.33
186.904	-141.54
187.287	-132.27
187.669	-98.08
188.051	-101.63
188.433	-110.13
188.815	-77.59
189.197	-86.46
189.579	-70.94
189.961	-53.85
190.342	-36.02
190.724	-36.29
191.106	-30.03
191.488	-29.72
191.869	-31.09
192.251	-35.12
192.633	-38.32
193.014	-44.22
193.396	-48.38
193.777	-53.05
194.159	-68.13
194.54	-79.87
194.922	-62.91
195.303	-74.63
195.684	-66.07
196.065	-32.19
196.447	-43.27
196.828	-50.43
197.209	-43.26
197.59	-45.89
197.971	-44.53
198.352	-47.25
198.733	-46.84
199.114	-42.88
199.495	-35.64
199.876	-23.33
200.257	-14.99
200.638	1
201.018	11.89
201.399	1.82
201.78	1.04
202.16	0.42
202.541	-7.31
202.922	-19.13
203.302	-14.5
203.683	-12.06
204.063	-22.41
204.444	-15.95
204.824	-20.83
205.204	-15.91
205.585	-25.44
205.965	-21.57
206.345	-22.62
206.725	-45.94
207.106	-69.62
207.486	-100.16
207.866	-110.31
208.246	-138.63
208.626	-138.91
209.006	-126.93
209.386	-111.74
209.766	-93.3
210.145	-82.05
210.525	-50.38
210.905	-40.94
211.285	-44.31
211.664	-47.39
212.044	-48.74
212.424	-45.97
212.803	-45.43
213.183	-52.74
213.562	-46.52
213.942	-46.79
214.321	-37.86
214.701	-31.5
215.08	-25.13
215.459	-21.98
215.838	-21.81
216.218	-14.17
216.597	-9.48
216.976	-9.84
217.355	-6.51
217.734	-12.13
218.113	-10.94
218.492	-22.02
218.871	-27.2
219.25	-23.95
219.629	-26.51
220.008	-26.92
220.387	-19.44
220.766	-21.08
221.144	-25.87
221.523	-19.77
221.902	-27.84
222.28	-33.5
222.659	-23.49
223.037	-21.66
223.416	-21.87
223.794	-15.11
224.173	-10.88
224.551	-9.92
224.929	-14.06
225.308	-12.86
225.686	-8.66
226.064	-11.31
226.442	-6.44
226.821	-5.68
227.199	-5.28
227.577	-3.57
227.955	-4.62
228.333	-9.66
228.711	-6.96
229.089	-1.84
229.467	-2.02
229.845	-1.78
230.222	-4.05
230.6	-5.5
230.978	-6.28
231.356	-4.09
231.733	-5.39
232.111	-5.51
232.488	-5.34
232.866	-3.49
233.243	-2.93
233.621	-2.66
233.998	-0.02
234.376	-2.06
234.753	-1.14
235.13	0.29
235.508	1.28
235.885	2.78
236.262	3.56
236.639	2.84
237.016	1.71
237.393	2.2
237.77	3.14
238.147	4.71
238.524	4.63
238.901	5.06
239.278	4.94
239.655	5.82
240.032	5.38
240.409	5.71
240.785	5.59
241.162	5.44
241.539	5.09
241.915	4.65
242.292	4.85
242.668	4.73
243.045	4.59
243.421	4.52
243.798	4.52
244.174	4.44
244.551	4.76
244.927	4.88
245.303	4.77
245.679	4.59
246.056	4.65
246.432	4.67
246.808	4.79
247.184	4.76
247.56	4.52
247.936	4.65
248.312	4.57
248.688	4.56
249.064	4.42
249.44	4.56
249.815	4.55
250.191	4.6
250.567	4.9
250.943	5.06
251.318	5.07
251.694	5.03
252.069	4.88
252.445	4.94
252.82	4.89
253.196	4.83
253.571	5.08
253.947	4.92
254.322	5.3
254.697	5.01
255.073	4.82
255.448	4.84
255.823	4.81
256.198	4.85
256.573	4.89
256.948	5.18
257.323	5.16
257.698	5.16
258.073	5.15
258.448	4.83
258.823	4.61
259.198	4.52
259.573	4.54
259.948	4.76
260.322	4.7
260.697	4.73
261.072	4.72
261.446	4.75
261.821	4.8
262.195	4.71
262.57	4.79
262.944	4.75
263.319	4.6
263.693	4.62
264.067	4.63
264.442	4.57
264.816	4.38
265.19	4.29
265.564	4.24
265.938	4.32
266.313	4.41
266.687	4.44
267.061	4.59
267.435	4.51
267.809	4.54
268.183	4.47
268.556	4.28
268.93	4.37
269.304	4.25
269.678	4.19
270.051	4.12
270.425	4.07
270.799	4.09
271.172	4.18
271.546	4.18
271.919	4.04
272.293	4.14
272.666	4.29
273.04	4.38
273.413	4.31
273.787	4.24
274.16	4.3
274.533	4.37
274.906	4.2
275.279	4.36
275.653	4.27
276.026	4.41
276.399	4.6
276.772	4.61
277.145	4.58
277.518	4.62
277.891	4.76
278.263	4.77
278.636	4.8
279.009	4.9
279.382	4.96
279.755	5.04
280.127	5.08
280.5	5.17
280.872	5.04
281.245	5.2
281.617	5.32
281.99	5.27
282.362	5.19
282.735	5.25
283.107	5.06
283.479	5.04
283.852	4.8
284.224	4.83
284.596	4.78
284.968	4.89
285.34	4.86
285.713	4.85
286.085	4.84
286.457	4.96
286.829	4.88
287.201	4.76
287.572	4.91
287.944	4.89
288.316	4.78
288.688	4.89
289.06	4.78
289.431	4.85
289.803	4.87
290.175	5.01
290.546	5.18
290.918	5.26
291.289	5.38
291.661	5.58
292.032	5.56
292.403	5.63
292.775	5.65
293.146	5.75
293.517	5.74
293.889	5.9
294.26	5.85
294.631	5.8
295.002	5.94
295.373	5.86
295.744	5.72
296.115	5.68
296.486	5.62
296.857	5.73
297.228	5.65
297.599	5.64
297.97	5.63
298.34	5.61
298.711	5.57
299.082	5.47
299.452	5.54
299.823	5.68
300.194	5.71
300.564	5.68
300.935	5.65
301.305	5.64
301.676	5.61
302.046	5.62
302.416	5.87
302.787	5.85
303.157	5.89
303.527	5.97
303.897	6.22
304.267	6.33
304.637	6.26
305.008	6.24
305.378	6.42
305.748	6.48
306.117	6.28
306.487	6.44
306.857	6.52
307.227	6.41
307.597	6.16
307.967	6.15
308.336	6.19
308.706	6.25
309.076	6.25
309.445	6.1
309.815	6.08
310.184	5.99
310.554	5.97
310.923	5.88
311.293	5.92
311.662	5.7
312.031	5.68
312.401	5.7
312.77	5.87
313.139	5.85
313.508	5.77
313.877	5.85
314.246	5.89
314.616	5.85
314.985	5.82
315.353	5.84
315.722	5.85
316.091	5.87
316.46	5.75
316.829	5.75
317.198	5.93
317.567	6.03
317.935	5.94
318.304	5.97
318.672	5.92
319.041	5.83
319.41	5.9
319.778	5.91
320.147	5.84
320.515	5.65
320.883	5.52
321.252	5.61
321.62	5.65
321.988	5.51
322.357	5.46
322.725	5.45
323.093	5.64
323.461	5.77
323.829	5.7
324.197	5.86
324.565	6
324.933	6.01
325.301	5.88
325.669	5.98
326.037	5.95
326.405	6.02
326.772	6.2
327.14	6.28
327.508	6.18
327.875	6.23
328.243	6.25
328.61	6.22
328.978	6.15
329.346	6.08
329.713	6.08
330.08	6.2
330.448	6.19
330.815	6.2
331.182	6.23
331.55	6.32
331.917	6.33
332.284	6.22
332.651	6.1
333.018	6.09
333.385	6.14
333.752	6.15
334.119	6.36
334.486	6.22
334.853	6.12
335.22	6.17
335.587	6.18
335.954	6.22
336.32	6.25
336.687	6.3
337.054	6.37
337.42	6.36
337.787	6.37
338.153	6.37
338.52	6.28
338.886	6.11
339.253	6.04
339.619	6.03
339.986	6.15
340.352	6.27
340.718	6.27
341.084	6.1
341.451	6.13
341.817	6.02
342.183	6.02
342.549	5.97
342.915	5.99
343.281	6
343.647	5.95
344.013	5.99
344.379	5.9
344.745	5.92
345.11	5.95
345.476	5.92
345.842	5.93
346.208	5.95
346.573	6.04
346.939	6.11
347.304	6.06
347.67	5.99
348.035	5.89
348.401	5.98
348.766	6.2
349.132	6.17
349.497	6.14
349.862	6.27
350.228	6.41
350.593	6.42
350.958	6.46
351.323	6.51
351.688	6.44
352.053	6.51
352.418	6.49
352.783	6.47
353.148	6.51
353.513	6.59
353.878	6.6
354.243	6.58
354.608	6.52
354.972	6.5
355.337	6.56
355.702	6.64
356.066	6.64
356.431	6.55
356.795	6.56
357.16	6.57
357.524	6.45
357.889	6.35
358.253	6.35
358.618	6.33
358.982	6.27
359.346	6.21
359.71	6.17
360.075	6.15
360.439	6.12
360.803	6.15
361.167	6.13
361.531	6.15
361.895	6.09
362.259	6.11
362.623	6.14
362.987	6.09
363.351	6.04
363.714	5.99
364.078	5.91
364.442	5.89
364.806	5.86
365.169	5.86
365.533	5.91
365.896	5.86
366.26	5.83
366.623	5.87
366.987	5.96
367.35	5.99
367.714	5.96
368.077	5.97
368.44	5.91
368.803	5.92
369.167	5.9
369.53	5.93
369.893	5.94
370.256	5.93
370.619	5.9
370.982	5.95
371.345	5.91
371.708	5.98
372.071	5.97
372.434	5.97
372.797	6.03
373.159	6.06
373.522	6.12
373.885	6.17
374.247	6.18
374.61	6.15
374.973	6.17
375.335	6.21
375.698	6.26
376.06	6.32
376.423	6.28
376.785	6.29
377.147	6.26
377.51	6.26
377.872	6.34
378.234	6.35
378.596	6.36
378.958	6.39
379.321	6.41
379.683	6.47
380.045	6.51
380.407	6.48
380.769	6.49
381.13	6.4
381.492	6.35
381.854	6.3
382.216	6.3
382.578	6.24
382.939	6.24
383.301	6.19
383.663	6.16
384.024	6.13
384.386	6.17
384.747	6.24
385.109	6.21
385.47	6.14
385.832	6.12
386.193	6.09
386.554	6.1
386.916	6.03
387.277	6
387.638	5.99
387.999	5.98
388.36	5.96
388.721	6.01
389.082	6.04
389.443	6.05
389.804	6.05
390.165	6.09
390.526	6.08
390.887	6.04
391.248	6.06
391.609	6.09
391.969	6.06
392.33	6.02
392.691	6
393.051	5.97
393.412	5.98
393.772	5.97
394.133	5.99
394.493	5.99
394.854	5.98
395.214	5.99
395.574	5.99
395.935	5.95
396.295	5.93
396.655	5.92
397.015	5.89
397.376	5.9
397.736	5.85
398.096	5.85
398.456	5.91
398.816	5.92
399.176	5.88
399.535	5.87
399.895	5.89
400.255	5.92
400.615	5.95
400.975	5.93
401.334	5.94
401.694	5.92
402.054	5.95
402.413	5.94
402.773	5.93
403.132	5.92
403.492	5.97
403.851	5.96
404.211	5.96
404.57	5.95
404.929	5.98
405.288	6
405.648	6
406.007	6
406.366	6
406.725	6.02
407.084	6.03
407.443	6.02
407.802	6.02
408.161	6
408.52	5.99
408.879	6.01
409.238	6
409.596	5.97
409.955	6
410.314	5.99
410.673	6
411.031	5.98
411.39	6
411.748	6.01
412.107	6.05
412.465	6.03
412.824	6.03
413.182	6.04
413.54	6.06
413.899	6.05
414.257	6.04
414.615	6.02
414.974	6.03
415.332	6.01
415.69	5.98
416.048	5.97
416.406	5.98
416.764	5.96
417.122	5.98
417.48	5.97
417.838	5.97
418.195	5.98
418.553	5.98
418.911	5.98
419.269	5.99
419.626	5.98
419.984	5.97
420.342	5.98
420.699	5.98
421.057	5.96
421.414	5.96
421.772	5.96
422.129	5.95
422.486	5.92
422.844	5.92
423.201	5.92
423.558	5.92
423.915	5.92
424.273	5.93
424.63	5.94
424.987	5.94
425.344	5.93
425.701	5.92
426.058	5.91
426.415	5.89
426.772	5.87
427.128	5.84
427.485	5.85
427.842	5.82
428.199	5.81
428.555	5.82
428.912	5.81
429.269	5.82
429.625	5.82
429.982	5.83
430.338	5.82
430.695	5.85
431.051	5.85
431.407	5.85
431.764	5.84
432.12	5.83
432.476	5.82
432.832	5.8
433.189	5.8
433.545	5.82
433.901	5.81
434.257	5.83
434.613	5.85
434.969	5.84
435.325	5.87
435.681	5.85
436.036	5.84
436.392	5.83
436.748	5.82
437.104	5.83
437.459	5.83
437.815	5.85
438.171	5.84
438.526	5.85
438.882	5.85
439.237	5.86
439.593	5.87
439.948	5.86
440.304	5.89
440.659	5.9
441.014	5.87
441.369	5.89
441.725	5.89
442.08	5.89
442.435	5.9
442.79	5.89
443.145	5.89
443.5	5.89
443.855	5.89
444.21	5.87
444.565	5.87
444.92	5.87
445.275	5.85
445.629	5.84
445.984	5.83
446.339	5.81
446.693	5.8
447.048	5.79
447.403	5.79
447.757	5.77
448.112	5.76
448.466	5.76
448.82	5.75
449.175	5.76
449.529	5.76
449.883	5.73
450.238	5.74
450.592	5.75
450.946	5.71
451.3	5.72
451.654	5.73
452.008	5.74
452.362	5.73
452.716	5.75
453.07	5.79
453.424	5.78
453.778	5.78
454.132	5.77
454.486	5.78
454.839	5.78
455.193	5.77
455.547	5.77
455.9	5.79
456.254	5.77
456.607	5.76
456.961	5.74
457.314	5.76
457.668	5.75
458.021	5.73
458.375	5.75
458.728	5.75
459.081	5.74
459.434	5.72
459.787	5.74
460.141	5.73
460.494	5.72
460.847	5.74
461.2	5.73
461.553	5.76
461.906	5.76
462.259	5.78
462.611	5.79
462.964	5.79
463.317	5.78
463.67	5.8
464.022	5.81
464.375	5.8
464.728	5.8
465.08	5.81
465.433	5.84
465.785	5.85
466.138	5.87
466.49	5.89
466.843	5.9
467.195	5.9
467.547	5.92
467.899	5.93
468.252	5.91
468.604	5.91
468.956	5.89
469.308	5.9
469.66	5.88
470.012	5.91
470.364	5.92
470.716	5.9
471.068	5.9
471.42	5.92
471.772	5.94
472.123	5.95
472.475	5.95
472.827	5.93
473.178	5.95
473.53	5.94
473.882	5.93
474.233	5.94
474.585	5.92
474.936	5.91
475.288	5.88
475.639	5.91
475.99	5.92
476.342	5.91
476.693	5.91
477.044	5.92
477.395	5.9
477.746	5.89
478.097	5.9
478.448	5.89
478.8	5.89
479.15	5.89
479.501	5.89
479.852	5.9
480.203	5.9
480.554	5.9
480.905	5.9
481.255	5.91
481.606	5.93
481.957	5.95
482.307	5.96
482.658	5.95
483.009	5.94
483.359	5.95
483.709	5.96
484.06	5.97
484.41	5.98
484.761	5.99
485.111	6
485.461	6.01
485.811	6.02
486.162	6.02
486.512	6.02
486.862	6.03
487.212	6.03
487.562	6.03
487.912	6.04
488.262	6.04
488.612	6.04
488.961	6.04
489.311	6.04
489.661	6.05
490.011	6.07
490.36	6.08
490.71	6.07
491.06	6.08
491.409	6.09
491.759	6.09
492.108	6.07
492.458	6.06
492.807	6.05
493.157	6.06
493.506	6.07
493.855	6.06
494.204	6.06
494.554	6.06
494.903	6.07
495.252	6.07
495.601	6.07
495.95	6.08
496.299	6.09
496.648	6.08
496.997	6.06
497.346	6.07
497.695	6.08
498.043	6.09
498.392	6.07
498.741	6.07
499.09	6.07
499.438	6.08
499.787	6.11
500.135	6.13
500.484	6.15
500.832	6.16
501.181	6.18
501.529	6.2
501.878	6.21
502.226	6.22
502.574	6.26
502.923	6.26
503.271	6.27
503.619	6.27
503.967	6.27
504.315	6.27
504.663	6.28
505.011	6.3
505.359	6.32
505.707	6.35
506.055	6.36
506.403	6.37
506.751	6.37
507.098	6.36
507.446	6.36
507.794	6.36
508.141	6.37
508.489	6.37
508.837	6.38
509.184	6.4
509.531	6.42
509.879	6.41
510.226	6.45
510.574	6.47
510.921	6.48
511.268	6.48
511.616	6.52
511.963	6.52
512.31	6.51
512.657	6.51
513.004	6.51
513.351	6.52
513.698	6.52
514.045	6.55
514.392	6.55
514.739	6.56
515.086	6.58
515.432	6.58
515.779	6.57
516.126	6.57
516.473	6.56
516.819	6.57
517.166	6.56
517.512	6.54
517.859	6.55
518.205	6.57
518.552	6.56
518.898	6.55
519.245	6.56
519.591	6.56
519.937	6.57
520.283	6.56
520.629	6.58
520.976	6.59
521.322	6.59
521.668	6.6
522.014	6.61
522.36	6.61
522.706	6.61
523.052	6.63
523.398	6.65
523.743	6.64
524.089	6.64
524.435	6.66
524.781	6.66
525.126	6.65
525.472	6.67
525.817	6.68
526.163	6.68
526.509	6.67
526.854	6.68
527.199	6.69
527.545	6.69
527.89	6.69
528.235	6.69
528.581	6.7
528.926	6.7
529.271	6.69
529.616	6.7
529.961	6.7
530.306	6.71
530.651	6.7
530.996	6.71
531.341	6.71
531.686	6.71
532.031	6.72
532.376	6.73
532.721	6.72
533.065	6.74
533.41	6.75
533.755	6.77
534.099	6.76
534.444	6.75
534.788	6.77
535.133	6.76
535.477	6.77
535.822	6.77
536.166	6.75
536.51	6.76
536.855	6.76
537.199	6.78
537.543	6.78
537.887	6.78
538.231	6.77
538.576	6.78
538.92	6.78
539.264	6.79
539.608	6.8
539.951	6.78
540.295	6.77
540.639	6.77
540.983	6.76
541.327	6.77
541.671	6.77
542.014	6.78
542.358	6.79
542.701	6.78
543.045	6.77
543.389	6.79
543.732	6.79
544.075	6.81
544.419	6.8
544.762	6.79
545.105	6.79
545.449	6.8
545.792	6.79
546.135	6.79
546.478	6.78
546.821	6.78
547.165	6.79
547.508	6.8
547.851	6.81
548.194	6.8
548.536	6.79
548.879	6.79
549.222	6.77
549.565	6.78
549.908	6.8
550.25	6.8
550.593	6.8
550.936	6.81
551.278	6.82
551.621	6.82
551.963	6.85
552.306	6.88
552.648	6.87
552.991	6.89
553.333	6.94
553.675	6.93
554.017	6.92
554.36	6.93
554.702	6.94
555.044	6.93
555.386	6.92
555.728	6.94
556.07	6.96
556.412	6.95
556.754	6.95
557.096	6.93
557.438	6.94
557.78	6.94
558.121	6.95
558.463	6.93
558.805	6.93
559.147	6.9
559.488	6.89
559.83	6.88
560.171	6.86
560.513	6.83
560.854	6.83
561.196	6.82
561.537	6.84
561.878	6.84
562.22	6.82
562.561	6.83
562.902	6.84
563.243	6.82
563.584	6.83
563.925	6.82
564.266	6.8
564.607	6.83
564.948	6.84
565.289	6.84
565.63	6.84
565.971	6.85
566.312	6.87
566.653	6.88
566.993	6.88
567.334	6.88
567.675	6.88
568.015	6.87
568.356	6.89
568.696	6.9
569.037	6.91
569.377	6.91
569.718	6.94
570.058	6.94
570.398	6.95
570.739	6.97
571.079	6.98
571.419	7.02
571.759	7.01
572.099	7.01
572.439	7.02
572.779	7.02
573.119	7.02
573.459	7.02
573.799	7.03
574.139	7.03
574.479	7.05
574.819	7.06
575.158	7.08
575.498	7.08
575.838	7.09
576.177	7.03
576.517	7.03
576.856	7.03
577.196	7.02
577.535	6.99
577.875	7
578.214	6.99
578.553	7.03
578.893	7.04
579.232	7.01
579.571	6.99
579.91	6.99
580.25	6.99
580.589	7
580.928	7.03
581.267	7.07
581.606	7.04
581.945	7.01
582.283	7.02
582.622	7.02
582.961	7.04
583.3	7.11
583.639	7.16
583.977	7.12
584.316	7.15
584.654	7.22
584.993	7.18
585.332	7.21
585.67	7.21
586.008	7.2
586.347	7.24
586.685	7.23
587.024	7.21
587.362	7.23
587.7	7.22
588.038	7.2
588.376	7.18
588.715	7.19
589.053	7.26
589.391	7.3
589.729	7.31
590.067	7.29
590.404	7.26
590.742	7.28
591.08	7.27
591.418	7.28
591.756	7.25
592.093	7.25
592.431	7.24
592.769	7.22
593.106	7.23
593.444	7.2
593.781	7.2
594.119	7.25
594.456	7.22
594.793	7.24
595.131	7.21
595.468	7.23
595.805	7.25
596.143	7.22
596.48	7.19
596.817	7.19
597.154	7.2
597.491	7.22
597.828	7.2
598.165	7.22
598.502	7.22
598.839	7.21
599.176	7.25
599.512	7.23
599.849	7.23
600.186	7.24
600.523	7.27
600.859	7.31
601.196	7.29
601.532	7.31
601.869	7.28
602.205	7.3
602.542	7.3
602.878	7.32
603.215	7.35
603.551	7.36
603.887	7.34
604.223	7.32
604.56	7.35
604.896	7.35
605.232	7.35
605.568	7.35
605.904	7.34
606.24	7.38
606.576	7.38
606.912	7.4
607.248	7.39
607.583	7.39
607.919	7.34
608.255	7.35
608.591	7.38
608.926	7.41
609.262	7.44
609.597	7.44
609.933	7.46
610.268	7.48
610.604	7.48
610.939	7.45
611.275	7.48
611.61	7.43
611.945	7.45
612.281	7.5
612.616	7.51
612.951	7.56
613.286	7.52
613.621	7.52
613.956	7.5
614.291	7.49
614.626	7.46
614.961	7.48
615.296	7.49
615.631	7.46
615.966	7.46
616.3	7.44
616.635	7.41
616.97	7.38
617.304	7.32
617.639	7.31
617.973	7.37
618.308	7.36
618.642	7.46
618.977	7.43
619.311	7.35
619.646	7.35
619.98	7.29
620.314	7.25
620.648	7.3
620.983	7.34
621.317	7.41
621.651	7.48
621.985	7.52
622.319	7.5
622.653	7.52
622.987	7.5
623.321	7.55
623.655	7.57
623.988	7.61
624.322	7.61
624.656	7.6
624.99	7.66
625.323	7.64
625.657	7.6
625.99	7.66
626.324	7.64
626.657	7.64
626.991	7.67
627.324	7.73
627.658	7.75
627.991	7.79
628.324	7.76
628.657	7.72
628.991	7.74
629.324	7.73
629.657	7.76
629.99	7.77
630.323	7.75
630.656	7.77
630.989	7.77
631.322	7.8
631.655	7.78
631.987	7.76
632.32	7.76
632.653	7.73
632.986	7.76
633.318	7.83
633.651	7.87
633.984	7.87
634.316	7.84
634.649	7.83
634.981	7.78
635.313	7.76
635.646	7.77
635.978	7.75
636.31	7.77
636.643	7.72
636.975	7.7
637.307	7.72
637.639	7.7
637.971	7.67
638.303	7.63
638.635	7.65
638.967	7.61
639.299	7.72
639.631	7.74
639.963	7.63
640.295	7.65
640.626	7.58
640.958	7.66
641.29	7.63
641.621	7.62
641.953	7.63
642.285	7.6
642.616	7.63
642.948	7.65
643.279	7.66
643.61	7.73
643.942	7.74
644.273	7.72
644.604	7.72
644.936	7.68
645.267	7.68
645.598	7.74
645.929	7.77
646.26	7.71
646.591	7.7
646.922	7.69
647.253	7.68
647.584	7.72
647.915	7.61
648.245	7.69
648.576	7.72
648.907	7.71
649.238	7.74
649.568	7.7
649.899	7.7
650.229	7.69
650.56	7.61
650.89	7.68
651.221	7.67
651.551	7.61
651.882	7.59
652.212	7.63
652.542	7.62
652.872	7.67
653.203	7.64
653.533	7.67
653.863	7.76
654.193	7.72
654.523	7.76
654.853	7.79
655.183	7.75
655.513	7.72
655.843	7.71
656.172	7.69
656.502	7.69
656.832	7.67
657.162	7.68
657.491	7.69
657.821	7.67
658.15	7.71
658.48	7.79
658.809	7.88
659.139	7.85
659.468	7.8
659.798	7.76
660.127	7.78
660.456	7.77
660.785	7.74
661.115	7.8
661.444	7.78
661.773	7.81
662.102	7.86
662.431	7.87
662.76	7.92
663.089	7.96
663.418	8.05
663.747	8
664.076	8.01
664.404	8.04
664.733	8.09
665.062	8.05
665.39	8.06
665.719	7.97
666.048	8.02
666.376	8.02
666.705	8.01
667.033	8.05
667.362	8.02
667.69	8.1
668.018	8.05
668.347	8.1
668.675	8.03
669.003	8.02
669.331	8.06
669.659	8.05
669.987	8.03
670.315	8.03
670.643	8.14
670.971	8.15
671.299	8.21
671.627	8.12
671.955	8.16
672.283	8.11
672.61	8.19
672.938	8.19
673.266	8.3
673.593	8.32
673.921	8.35
674.249	8.37
674.576	8.3
674.904	8.33
675.231	8.29
675.558	8.41
675.886	8.37
676.213	8.4
676.54	8.34
676.867	8.42
677.195	8.38
677.522	8.33
