Data from BA57662_Reflection_00005.txt Node
Date: Mon Nov 18 15:34:26 EST 2019
User: vgr7
Spectrometer: USB2G7710
Scans to average: 3
Trigger mode: 4
Integration Time (sec): 2.000000E-2
Electric dark correction enabled: true
Boxcar width: 10
XAxis mode: Wavelengths
Number of Pixels in Spectrum: 2048
>>>>>Begin Spectral Data<<<<<
177.721	-196.51
178.105	-86.61
178.488	-84.33
178.871	-102.64
179.254	-13.9
179.636	73.68
180.019	-48.3
180.402	258.82
180.785	-62.42
181.168	-94.05
181.55	-55.48
181.933	81.56
182.316	80.14
182.698	49.62
183.081	36.79
183.463	18.75
183.846	19.2
184.228	17.14
184.611	-7.82
184.993	-9.46
185.376	-16.02
185.758	-86.94
186.14	-123.86
186.522	-117.29
186.904	172.23
187.287	179.68
187.669	38.16
188.051	47.41
188.433	55.09
188.815	39.65
189.197	35.99
189.579	55.93
189.961	53.75
190.342	49
190.724	23.71
191.106	18.43
191.488	33.08
191.869	24.08
192.251	24.91
192.633	31.44
193.014	29.12
193.396	36.14
193.777	32.04
194.159	5.88
194.54	27.81
194.922	-3.76
195.303	-51.92
195.684	-43.74
196.065	-5.79
196.447	-48.11
196.828	-24.49
197.209	-22.37
197.59	-18.78
197.971	-1.16
198.352	7.8
198.733	18.2
199.114	47.78
199.495	36.31
199.876	47.79
200.257	55.18
200.638	50.55
201.018	56.62
201.399	37.81
201.78	37.51
202.16	41.71
202.541	31.66
202.922	15.87
203.302	29.22
203.683	21.14
204.063	9.19
204.444	22.7
204.824	19.14
205.204	18.04
205.585	26.02
205.965	24.31
206.345	9.82
206.725	-1.79
207.106	-29.38
207.486	-65
207.866	-86.71
208.246	-79.91
208.626	-62.36
209.006	-46.97
209.386	-40.97
209.766	-60.45
210.145	-56.19
210.525	-42.8
210.905	0.03
211.285	2.57
211.664	-6.04
212.044	-20.28
212.424	-29.17
212.803	-50.39
213.183	-56.05
213.562	-45.84
213.942	-31.21
214.321	-10.72
214.701	2.95
215.08	12.67
215.459	26.84
215.838	29.97
216.218	15.88
216.597	31.79
216.976	20.8
217.355	23.51
217.734	33.05
218.113	25.62
218.492	30.62
218.871	21.62
219.25	29.46
219.629	23.87
220.008	29.79
220.387	40.23
220.766	39.58
221.144	28.46
221.523	18.79
221.902	4.44
222.28	6.49
222.659	1.14
223.037	3.13
223.416	-11.24
223.794	-13.37
224.173	-7.98
224.551	-21.03
224.929	-11.54
225.308	-8.65
225.686	-7.29
226.064	-7.37
226.442	-4.58
226.821	-1.99
227.199	-4.28
227.577	-1.79
227.955	-3.76
228.333	-4.43
228.711	-1.01
229.089	2.68
229.467	1.08
229.845	1.61
230.222	0.05
230.6	-0.27
230.978	0
231.356	3.33
231.733	6.01
232.111	7.02
232.488	6.68
232.866	5.88
233.243	5.62
233.621	5.26
233.998	6.97
234.376	6.45
234.753	7.58
235.13	6.73
235.508	7.66
235.885	9.16
236.262	8.15
236.639	6.57
237.016	5.7
237.393	8.39
237.77	9.53
238.147	9.85
238.524	9.75
238.901	10.08
239.278	10.06
239.655	10.38
240.032	9.42
240.409	9.56
240.785	9.48
241.162	9.38
241.539	9.38
241.915	8.9
242.292	8.19
242.668	8.07
243.045	8.22
243.421	8.02
243.798	7.94
244.174	8.02
244.551	7.94
244.927	8.03
245.303	7.83
245.679	7.86
246.056	7.78
246.432	7.97
246.808	7.89
247.184	7.62
247.56	7.29
247.936	7.14
248.312	7.2
248.688	7.29
249.064	7.1
249.44	7.01
249.815	7
250.191	7.04
250.567	7.15
250.943	6.99
251.318	7.19
251.694	7.08
252.069	6.93
252.445	6.85
252.82	6.82
253.196	6.59
253.571	6.24
253.947	6.21
254.322	6.05
254.697	5.77
255.073	5.85
255.448	5.76
255.823	6.23
256.198	6.36
256.573	6.09
256.948	6.35
257.323	6.54
257.698	6.69
258.073	6.85
258.448	6.82
258.823	6.97
259.198	6.85
259.573	6.9
259.948	6.9
260.322	7.07
260.697	7.01
261.072	6.97
261.446	6.99
261.821	7
262.195	7.06
262.57	7.12
262.944	7.06
263.319	7.19
263.693	7.2
264.067	7.19
264.442	7.46
264.816	7.38
265.19	7.35
265.564	7.29
265.938	7.31
266.313	7.27
266.687	7.19
267.061	7.23
267.435	7.23
267.809	7.3
268.183	7.2
268.556	7.33
268.93	7.48
269.304	7.63
269.678	7.63
270.051	7.53
270.425	7.48
270.799	7.42
271.172	7.48
271.546	7.28
271.919	7.08
272.293	6.86
272.666	6.99
273.04	6.93
273.413	6.9
273.787	6.74
274.16	6.61
274.533	6.65
274.906	6.62
275.279	6.62
275.653	6.6
276.026	6.42
276.399	6.3
276.772	6.3
277.145	5.94
277.518	5.98
277.891	6.06
278.263	6.09
278.636	6.24
279.009	6.08
279.382	6.26
279.755	6.39
280.127	6.4
280.5	6.27
280.872	6.49
281.245	6.37
281.617	6.5
281.99	6.6
282.362	6.66
282.735	6.65
283.107	6.71
283.479	6.71
283.852	6.72
284.224	6.76
284.596	6.69
284.968	6.87
285.34	7
285.713	6.9
286.085	6.9
286.457	6.83
286.829	6.92
287.201	6.81
287.572	6.69
287.944	6.69
288.316	6.82
288.688	6.66
289.06	6.86
289.431	6.93
289.803	6.99
290.175	6.92
290.546	7.02
290.918	6.96
291.289	7.03
291.661	7.19
292.032	7.3
292.403	7.34
292.775	7.53
293.146	7.35
293.517	7.44
293.889	7.51
294.26	7.66
294.631	7.68
295.002	7.71
295.373	7.83
295.744	7.86
296.115	7.82
296.486	7.92
296.857	7.85
297.228	7.87
297.599	7.79
297.97	7.71
298.34	7.69
298.711	7.68
299.082	7.64
299.452	7.64
299.823	7.64
300.194	7.8
300.564	7.67
300.935	7.76
301.305	7.73
301.676	7.78
302.046	7.79
302.416	7.83
302.787	7.96
303.157	7.91
303.527	7.98
303.897	7.87
304.267	7.88
304.637	7.98
305.008	8.13
305.378	8.28
305.748	8.49
306.117	8.37
306.487	8.51
306.857	8.52
307.227	8.52
307.597	8.41
307.967	8.3
308.336	8.35
308.706	8.36
309.076	8.45
309.445	8.38
309.815	8.25
310.184	8.27
310.554	8.29
310.923	8.39
311.293	8.41
311.662	8.52
312.031	8.62
312.401	8.55
312.77	8.38
313.139	8.36
313.508	8.39
313.877	8.5
314.246	8.59
314.616	8.64
314.985	8.7
315.353	8.69
315.722	8.78
316.091	8.66
316.46	8.52
316.829	8.35
317.198	8.36
317.567	8.68
317.935	8.63
318.304	8.67
318.672	8.64
319.041	8.67
319.41	8.53
319.778	8.35
320.147	8.44
320.515	8.34
320.883	8.37
321.252	8.25
321.62	8.24
321.988	8.14
322.357	8.2
322.725	8.13
323.093	8.23
323.461	8.17
323.829	8.3
324.197	8.43
324.565	8.51
324.933	8.5
325.301	8.42
325.669	8.43
326.037	8.36
326.405	8.4
326.772	8.39
327.14	8.51
327.508	8.67
327.875	8.5
328.243	8.71
328.61	8.62
328.978	8.63
329.346	8.71
329.713	8.72
330.08	8.89
330.448	8.86
330.815	8.83
331.182	8.88
331.55	8.85
331.917	8.91
332.284	9.07
332.651	9.1
333.018	9.08
333.385	9.06
333.752	9.14
334.119	9.14
334.486	9.15
334.853	9.14
335.22	8.98
335.587	9.01
335.954	8.93
336.32	8.98
336.687	8.95
337.054	8.84
337.42	8.72
337.787	8.64
338.153	8.67
338.52	8.75
338.886	8.69
339.253	8.58
339.619	8.64
339.986	8.58
340.352	8.64
340.718	8.5
341.084	8.45
341.451	8.45
341.817	8.51
342.183	8.53
342.549	8.61
342.915	8.71
343.281	8.79
343.647	8.65
344.013	8.66
344.379	8.78
344.745	8.82
345.11	9
345.476	8.91
345.842	8.93
346.208	8.87
346.573	8.91
346.939	9.01
347.304	8.93
347.67	8.93
348.035	8.87
348.401	8.97
348.766	9.02
349.132	9.01
349.497	8.96
349.862	9.01
350.228	8.93
350.593	8.88
350.958	8.83
351.323	8.93
351.688	8.97
352.053	8.92
352.418	8.94
352.783	8.9
353.148	8.92
353.513	8.97
353.878	8.95
354.243	8.94
354.608	8.97
354.972	9
355.337	8.98
355.702	9
356.066	9.04
356.431	9.09
356.795	9.07
357.16	9.06
357.524	8.92
357.889	8.9
358.253	8.94
358.618	8.96
358.982	8.98
359.346	8.95
359.71	8.91
360.075	8.9
360.439	8.83
360.803	8.81
361.167	8.7
361.531	8.7
361.895	8.64
362.259	8.58
362.623	8.6
362.987	8.64
363.351	8.69
363.714	8.65
364.078	8.59
364.442	8.62
364.806	8.64
365.169	8.71
365.533	8.74
365.896	8.76
366.26	8.78
366.623	8.8
366.987	8.75
367.35	8.76
367.714	8.8
368.077	8.81
368.44	8.82
368.803	8.93
369.167	8.92
369.53	8.92
369.893	8.94
370.256	8.94
370.619	8.91
370.982	8.84
371.345	8.76
371.708	8.81
372.071	8.76
372.434	8.76
372.797	8.76
373.159	8.77
373.522	8.73
373.885	8.71
374.247	8.73
374.61	8.79
374.973	8.78
375.335	8.78
375.698	8.79
376.06	8.81
376.423	8.75
376.785	8.78
377.147	8.84
377.51	8.89
377.872	8.83
378.234	8.87
378.596	8.91
378.958	8.93
379.321	8.88
379.683	8.9
380.045	8.89
380.407	8.87
380.769	8.83
381.13	8.79
381.492	8.84
381.854	8.83
382.216	8.83
382.578	8.85
382.939	8.77
383.301	8.78
383.663	8.75
384.024	8.76
384.386	8.77
384.747	8.75
385.109	8.75
385.47	8.77
385.832	8.73
386.193	8.71
386.554	8.73
386.916	8.76
387.277	8.75
387.638	8.76
387.999	8.76
388.36	8.81
388.721	8.79
389.082	8.77
389.443	8.7
389.804	8.64
390.165	8.63
390.526	8.7
390.887	8.68
391.248	8.71
391.609	8.71
391.969	8.73
392.33	8.72
392.691	8.69
393.051	8.71
393.412	8.71
393.772	8.66
394.133	8.65
394.493	8.63
394.854	8.63
395.214	8.61
395.574	8.6
395.935	8.57
396.295	8.64
396.655	8.6
397.015	8.66
397.376	8.71
397.736	8.68
398.096	8.67
398.456	8.67
398.816	8.61
399.176	8.59
399.535	8.52
399.895	8.55
400.255	8.58
400.615	8.54
400.975	8.53
401.334	8.55
401.694	8.54
402.054	8.53
402.413	8.52
402.773	8.53
403.132	8.54
403.492	8.53
403.851	8.51
404.211	8.5
404.57	8.48
404.929	8.48
405.288	8.52
405.648	8.51
406.007	8.54
406.366	8.58
406.725	8.61
407.084	8.63
407.443	8.59
407.802	8.57
408.161	8.58
408.52	8.54
408.879	8.53
409.238	8.53
409.596	8.57
409.955	8.54
410.314	8.5
410.673	8.49
411.031	8.49
411.39	8.48
411.748	8.5
412.107	8.52
412.465	8.51
412.824	8.49
413.182	8.47
413.54	8.46
413.899	8.45
414.257	8.44
414.615	8.44
414.974	8.46
415.332	8.46
415.69	8.45
416.048	8.48
416.406	8.51
416.764	8.53
417.122	8.51
417.48	8.51
417.838	8.51
418.195	8.5
418.553	8.5
418.911	8.49
419.269	8.49
419.626	8.48
419.984	8.46
420.342	8.48
420.699	8.47
421.057	8.46
421.414	8.45
421.772	8.45
422.129	8.46
422.486	8.44
422.844	8.44
423.201	8.45
423.558	8.45
423.915	8.43
424.273	8.44
424.63	8.44
424.987	8.44
425.344	8.44
425.701	8.44
426.058	8.44
426.415	8.44
426.772	8.42
427.128	8.42
427.485	8.43
427.842	8.41
428.199	8.42
428.555	8.39
428.912	8.4
429.269	8.41
429.625	8.37
429.982	8.39
430.338	8.38
430.695	8.36
431.051	8.35
431.407	8.35
431.764	8.34
432.12	8.31
432.476	8.32
432.832	8.34
433.189	8.35
433.545	8.35
433.901	8.35
434.257	8.34
434.613	8.35
434.969	8.34
435.325	8.35
435.681	8.33
436.036	8.34
436.392	8.33
436.748	8.34
437.104	8.33
437.459	8.31
437.815	8.29
438.171	8.29
438.526	8.31
438.882	8.31
439.237	8.32
439.593	8.33
439.948	8.32
440.304	8.31
440.659	8.32
441.014	8.32
441.369	8.31
441.725	8.3
442.08	8.28
442.435	8.29
442.79	8.3
443.145	8.29
443.5	8.29
443.855	8.28
444.21	8.27
444.565	8.28
444.92	8.3
445.275	8.29
445.629	8.29
445.984	8.29
446.339	8.27
446.693	8.25
447.048	8.26
447.403	8.25
447.757	8.24
448.112	8.22
448.466	8.22
448.82	8.21
449.175	8.22
449.529	8.23
449.883	8.23
450.238	8.2
450.592	8.22
450.946	8.22
451.3	8.21
451.654	8.21
452.008	8.22
452.362	8.2
452.716	8.21
453.07	8.23
453.424	8.2
453.778	8.24
454.132	8.24
454.486	8.23
454.839	8.25
455.193	8.22
455.547	8.24
455.9	8.23
456.254	8.24
456.607	8.24
456.961	8.24
457.314	8.25
457.668	8.25
458.021	8.22
458.375	8.21
458.728	8.22
459.081	8.22
459.434	8.22
459.787	8.23
460.141	8.21
460.494	8.2
460.847	8.22
461.2	8.18
461.553	8.2
461.906	8.18
462.259	8.19
462.611	8.23
462.964	8.21
463.317	8.21
463.67	8.21
464.022	8.22
464.375	8.21
464.728	8.2
465.08	8.21
465.433	8.23
465.785	8.26
466.138	8.24
466.49	8.23
466.843	8.22
467.195	8.19
467.547	8.23
467.899	8.26
468.252	8.25
468.604	8.28
468.956	8.27
469.308	8.29
469.66	8.29
470.012	8.27
470.364	8.31
470.716	8.32
471.068	8.32
471.42	8.31
471.772	8.31
472.123	8.34
472.475	8.34
472.827	8.33
473.178	8.34
473.53	8.35
473.882	8.38
474.233	8.39
474.585	8.41
474.936	8.42
475.288	8.39
475.639	8.39
475.99	8.41
476.342	8.39
476.693	8.39
477.044	8.38
477.395	8.38
477.746	8.36
478.097	8.34
478.448	8.33
478.8	8.34
479.15	8.33
479.501	8.33
479.852	8.36
480.203	8.36
480.554	8.38
480.905	8.39
481.255	8.4
481.606	8.39
481.957	8.39
482.307	8.4
482.658	8.4
483.009	8.4
483.359	8.39
483.709	8.39
484.06	8.4
484.41	8.4
484.761	8.41
485.111	8.42
485.461	8.43
485.811	8.44
486.162	8.45
486.512	8.46
486.862	8.46
487.212	8.45
487.562	8.46
487.912	8.45
488.262	8.44
488.612	8.45
488.961	8.46
489.311	8.47
489.661	8.48
490.011	8.49
490.36	8.49
490.71	8.49
491.06	8.52
491.409	8.52
491.759	8.52
492.108	8.52
492.458	8.54
492.807	8.54
493.157	8.54
493.506	8.53
493.855	8.52
494.204	8.52
494.554	8.52
494.903	8.53
495.252	8.54
495.601	8.55
495.95	8.55
496.299	8.54
496.648	8.54
496.997	8.53
497.346	8.53
497.695	8.54
498.043	8.56
498.392	8.55
498.741	8.56
499.09	8.55
499.438	8.58
499.787	8.56
500.135	8.58
500.484	8.59
500.832	8.59
501.181	8.62
501.529	8.62
501.878	8.66
502.226	8.68
502.574	8.67
502.923	8.67
503.271	8.68
503.619	8.69
503.967	8.69
504.315	8.67
504.663	8.67
505.011	8.7
505.359	8.71
505.707	8.72
506.055	8.73
506.403	8.72
506.751	8.72
507.098	8.72
507.446	8.72
507.794	8.69
508.141	8.73
508.489	8.73
508.837	8.76
509.184	8.76
509.531	8.78
509.879	8.81
510.226	8.84
510.574	8.86
510.921	8.86
511.268	8.86
511.616	8.91
511.963	8.93
512.31	8.92
512.657	8.94
513.004	8.97
513.351	8.99
513.698	9.02
514.045	9.02
514.392	9.04
514.739	9.03
515.086	9.06
515.432	9.05
515.779	9.07
516.126	9.07
516.473	9.09
516.819	9.09
517.166	9.07
517.512	9.06
517.859	9.07
518.205	9.07
518.552	9.09
518.898	9.08
519.245	9.08
519.591	9.08
519.937	9.07
520.283	9.06
520.629	9.07
520.976	9.09
521.322	9.07
521.668	9.08
522.014	9.12
522.36	9.12
522.706	9.15
523.052	9.16
523.398	9.18
523.743	9.16
524.089	9.17
524.435	9.19
524.781	9.21
525.126	9.22
525.472	9.24
525.817	9.24
526.163	9.25
526.509	9.25
526.854	9.25
527.199	9.26
527.545	9.26
527.89	9.27
528.235	9.25
528.581	9.28
528.926	9.28
529.271	9.28
529.616	9.29
529.961	9.29
530.306	9.29
530.651	9.29
530.996	9.29
531.341	9.3
531.686	9.31
532.031	9.3
532.376	9.31
532.721	9.31
533.065	9.32
533.41	9.31
533.755	9.32
534.099	9.33
534.444	9.34
534.788	9.34
535.133	9.32
535.477	9.34
535.822	9.33
536.166	9.36
536.51	9.35
536.855	9.38
537.199	9.4
537.543	9.39
537.887	9.4
538.231	9.4
538.576	9.4
538.92	9.39
539.264	9.38
539.608	9.39
539.951	9.38
540.295	9.38
540.639	9.41
540.983	9.42
541.327	9.43
541.671	9.45
542.014	9.47
542.358	9.48
542.701	9.49
543.045	9.5
543.389	9.48
543.732	9.49
544.075	9.48
544.419	9.47
544.762	9.46
545.105	9.47
545.449	9.49
545.792	9.5
546.135	9.51
546.478	9.51
546.821	9.51
547.165	9.53
547.508	9.55
547.851	9.55
548.194	9.55
548.536	9.53
548.879	9.51
549.222	9.48
549.565	9.48
549.908	9.5
550.25	9.49
550.593	9.51
550.936	9.51
551.278	9.53
551.621	9.5
551.963	9.54
552.306	9.55
552.648	9.55
552.991	9.56
553.333	9.57
553.675	9.57
554.017	9.58
554.36	9.59
554.702	9.57
555.044	9.55
555.386	9.55
555.728	9.57
556.07	9.61
556.412	9.61
556.754	9.62
557.096	9.61
557.438	9.6
557.78	9.59
558.121	9.62
558.463	9.62
558.805	9.69
559.147	9.69
559.488	9.68
559.83	9.71
560.171	9.72
560.513	9.74
560.854	9.76
561.196	9.77
561.537	9.75
561.878	9.8
562.22	9.8
562.561	9.77
562.902	9.79
563.243	9.78
563.584	9.79
563.925	9.78
564.266	9.77
564.607	9.78
564.948	9.78
565.289	9.77
565.63	9.75
565.971	9.7
566.312	9.71
566.653	9.72
566.993	9.69
567.334	9.7
567.675	9.69
568.015	9.68
568.356	9.69
568.696	9.68
569.037	9.69
569.377	9.7
569.718	9.73
570.058	9.72
570.398	9.69
570.739	9.67
571.079	9.66
571.419	9.67
571.759	9.7
572.099	9.72
572.439	9.73
572.779	9.71
573.119	9.75
573.459	9.77
573.799	9.78
574.139	9.81
574.479	9.82
574.819	9.81
575.158	9.83
575.498	9.83
575.838	9.83
576.177	9.77
576.517	9.76
576.856	9.75
577.196	9.75
577.535	9.77
577.875	9.79
578.214	9.81
578.553	9.81
578.893	9.8
579.232	9.79
579.571	9.76
579.91	9.83
580.25	9.81
580.589	9.77
580.928	9.8
581.267	9.8
581.606	9.75
581.945	9.78
582.283	9.74
582.622	9.73
582.961	9.76
583.3	9.8
583.639	9.83
583.977	9.88
584.316	9.87
584.654	9.87
584.993	9.86
585.332	9.91
585.67	9.91
586.008	9.88
586.347	9.87
586.685	9.88
587.024	9.88
587.362	9.89
587.7	9.89
588.038	9.86
588.376	9.88
588.715	9.91
589.053	9.89
589.391	9.92
589.729	9.93
590.067	9.91
590.404	9.92
590.742	9.96
591.08	9.9
591.418	9.9
591.756	9.92
592.093	9.95
592.431	9.92
592.769	9.94
593.106	9.96
593.444	9.99
593.781	10.02
594.119	10.03
594.456	10.04
594.793	10.06
595.131	10.04
595.468	10.05
595.805	10.07
596.143	10.08
596.48	10.07
596.817	10.06
597.154	10.1
597.491	10.1
597.828	10.08
598.165	10.11
598.502	10.09
598.839	10.08
599.176	10.11
599.512	10.12
599.849	10.1
600.186	10.1
600.523	10.1
600.859	10.13
601.196	10.13
601.532	10.09
601.869	10.05
602.205	10.05
602.542	10.03
602.878	10.04
603.215	10.04
603.551	10.05
603.887	10.07
604.223	10.06
604.56	10.06
604.896	10.07
605.232	10.1
605.568	10.11
605.904	10.12
606.24	10.12
606.576	10.11
606.912	10.11
607.248	10.1
607.583	10.1
607.919	10.06
608.255	10.06
608.591	10.09
608.926	10.14
609.262	10.18
609.597	10.18
609.933	10.19
610.268	10.2
610.604	10.2
610.939	10.2
611.275	10.2
611.61	10.18
611.945	10.18
612.281	10.16
612.616	10.2
612.951	10.25
613.286	10.23
613.621	10.23
613.956	10.22
614.291	10.26
614.626	10.25
614.961	10.29
615.296	10.31
615.631	10.32
615.966	10.35
616.3	10.36
616.635	10.35
616.97	10.35
617.304	10.37
617.639	10.39
617.973	10.37
618.308	10.35
618.642	10.33
618.977	10.38
619.311	10.37
619.646	10.37
619.98	10.35
620.314	10.35
620.648	10.36
620.983	10.42
621.317	10.4
621.651	10.47
621.985	10.51
622.319	10.46
622.653	10.48
622.987	10.44
623.321	10.45
623.655	10.47
623.988	10.48
624.322	10.45
624.656	10.43
624.99	10.43
625.323	10.46
625.657	10.54
625.99	10.54
626.324	10.56
626.657	10.59
626.991	10.59
627.324	10.62
627.658	10.7
627.991	10.72
628.324	10.72
628.657	10.66
628.991	10.65
629.324	10.65
629.657	10.63
629.99	10.66
630.323	10.64
630.656	10.62
630.989	10.64
631.322	10.68
631.655	10.69
631.987	10.72
632.32	10.76
632.653	10.73
632.986	10.72
633.318	10.72
633.651	10.71
633.984	10.66
634.316	10.62
634.649	10.61
634.981	10.54
635.313	10.59
635.646	10.58
635.978	10.56
636.31	10.6
636.643	10.59
636.975	10.61
637.307	10.64
637.639	10.66
637.971	10.64
638.303	10.63
638.635	10.65
638.967	10.67
639.299	10.67
639.631	10.69
639.963	10.64
640.295	10.72
640.626	10.7
640.958	10.77
641.29	10.83
641.621	10.77
641.953	10.87
642.285	10.84
642.616	10.92
642.948	10.92
643.279	10.92
643.61	10.9
643.942	10.84
644.273	10.87
644.604	10.88
644.936	10.83
645.267	10.87
645.598	10.84
645.929	10.85
646.26	10.81
646.591	10.83
646.922	10.82
647.253	10.75
647.584	10.81
647.915	10.76
648.245	10.73
648.576	10.78
648.907	10.75
649.238	10.76
649.568	10.76
649.899	10.76
650.229	10.79
650.56	10.83
650.89	10.88
651.221	10.84
651.551	10.83
651.882	10.93
652.212	10.92
652.542	10.99
652.872	10.91
653.203	10.9
653.533	10.89
653.863	11.01
654.193	11
654.523	10.96
654.853	10.94
655.183	10.95
655.513	10.93
655.843	11
656.172	11
656.502	10.97
656.832	10.95
657.162	10.91
657.491	10.9
657.821	10.86
658.15	10.87
658.48	10.92
658.809	10.78
659.139	10.73
659.468	10.67
659.798	10.73
660.127	10.75
660.456	10.78
660.785	10.74
661.115	10.74
661.444	10.77
661.773	10.82
662.102	10.83
662.431	10.86
662.76	10.8
663.089	10.82
663.418	10.89
663.747	10.87
664.076	10.89
664.404	10.93
664.733	11.04
665.062	11.02
665.39	10.99
665.719	11.06
666.048	11.09
666.376	11.2
666.705	11.19
667.033	11.15
667.362	11.08
667.69	10.96
668.018	11.02
668.347	11.01
668.675	11.03
669.003	11.01
669.331	11.05
669.659	11.05
669.987	11.04
670.315	10.97
670.643	11.03
670.971	11.07
671.299	11.06
671.627	11.01
671.955	11.04
672.283	11.04
672.61	11.09
672.938	11.1
673.266	11.07
673.593	11.17
673.921	11.27
