Data from BA57712_Reflection_00011.txt Node
Date: Mon Nov 18 15:19:38 EST 2019
User: vgr7
Spectrometer: USB2G7710
Scans to average: 3
Trigger mode: 4
Integration Time (sec): 2.000000E-2
Electric dark correction enabled: true
Boxcar width: 10
XAxis mode: Wavelengths
Number of Pixels in Spectrum: 2048
>>>>>Begin Spectral Data<<<<<
177.721	-266.01
178.105	-196.7
178.488	-104.99
178.871	-185.71
179.254	-136.45
179.636	-242.11
180.019	-78.22
180.402	59.09
180.785	-94.69
181.168	-150
181.55	-125.17
181.933	25.23
182.316	14.47
182.698	18.01
183.081	-6.67
183.463	-11.25
183.846	22.75
184.228	17.85
184.611	-3.82
184.993	-51.3
185.376	-84.84
185.758	-93.42
186.14	-66.96
186.522	-70.56
186.904	-107.94
187.287	-127.18
187.669	-290.24
188.051	-194.37
188.433	-191.46
188.815	-141.76
189.197	-177.23
189.579	4
189.961	13.36
190.342	27.71
190.724	92.09
191.106	50.46
191.488	21.52
191.869	44.37
192.251	47.64
192.633	7.04
193.014	-34.87
193.396	-67.04
193.777	-52.33
194.159	-57.75
194.54	-50.29
194.922	-19.45
195.303	-58.82
195.684	-121.11
196.065	-97.09
196.447	-46.16
196.828	-39.53
197.209	-41.57
197.59	-47.26
197.971	-40.93
198.352	-58.19
198.733	-87.66
199.114	-71.02
199.495	-90.66
199.876	-57.12
200.257	-32.46
200.638	-24.63
201.018	-27.85
201.399	-16.74
201.78	-18.69
202.16	-25.5
202.541	-39.44
202.922	-64.93
203.302	-78.54
203.683	-47.89
204.063	-65.63
204.444	-84.49
204.824	-89.64
205.204	-71.07
205.585	-66.17
205.965	-65.16
206.345	-44.12
206.725	-40.46
207.106	-110.21
207.486	-86.05
207.866	29.2
208.246	32.2
208.626	72.91
209.006	68.25
209.386	163.16
209.766	191.95
210.145	83.44
210.525	54.42
210.905	70.44
211.285	-60
211.664	-7.74
212.044	-166.67
212.424	-49.53
212.803	100
213.183	-196.3
213.562	-147.93
213.942	-100.96
214.321	4.76
214.701	10.2
215.08	21.5
215.459	2.11
215.838	-16.79
216.218	-45.73
216.597	-12.49
216.976	-12.49
217.355	-6.55
217.734	-3.59
218.113	-5.73
218.492	-4.04
218.871	-10.08
219.25	-7.7
219.629	-21.16
220.008	-30.86
220.387	-6.43
220.766	-1.31
221.144	-8.78
221.523	-13.21
221.902	-20.29
222.28	-47.08
222.659	-38.13
223.037	-35.04
223.416	-53.48
223.794	-41.52
224.173	-32.45
224.551	-40.37
224.929	-24.92
225.308	-16.71
225.686	-11.65
226.064	-9.74
226.442	-12.37
226.821	-4.76
227.199	-11.46
227.577	-10.24
227.955	-10.72
228.333	-14.58
228.711	-11.33
229.089	-6.42
229.467	-3.59
229.845	-2.62
230.222	0.48
230.6	-0.3
230.978	1.47
231.356	2.99
231.733	4.44
232.111	5.41
232.488	5.32
232.866	3.64
233.243	4.31
233.621	2.96
233.998	3.96
234.376	4.4
234.753	3.44
235.13	4.1
235.508	6.01
235.885	6.49
236.262	5.77
236.639	5.81
237.016	5.51
237.393	4.17
237.77	4.55
238.147	4.33
238.524	4.15
238.901	4.06
239.278	4.58
239.655	4.58
240.032	4.77
240.409	4.84
240.785	5.5
241.162	5.2
241.539	4.95
241.915	4.82
242.292	4.21
242.668	4.17
243.045	4.57
243.421	4.13
243.798	4.3
244.174	4.37
244.551	4.38
244.927	4.41
245.303	4.36
245.679	4.58
246.056	4.59
246.432	4.53
246.808	4.6
247.184	4.16
247.56	3.95
247.936	3.73
248.312	3.62
248.688	3.67
249.064	3.62
249.44	3.71
249.815	3.75
250.191	4.03
250.567	4.19
250.943	3.85
251.318	4.28
251.694	4.26
252.069	4.28
252.445	4.23
252.82	3.94
253.196	4
253.571	3.76
253.947	3.9
254.322	4.23
254.697	4.06
255.073	4.41
255.448	4.47
255.823	4.59
256.198	4.62
256.573	4.22
256.948	4.42
257.323	4.63
257.698	4.73
258.073	4.81
258.448	4.65
258.823	4.87
259.198	4.61
259.573	4.58
259.948	4.51
260.322	4.56
260.697	4.65
261.072	4.56
261.446	4.54
261.821	4.57
262.195	4.44
262.57	4.4
262.944	4.32
263.319	4.24
263.693	4.17
264.067	4.19
264.442	4.26
264.816	4.2
265.19	4.16
265.564	4.07
265.938	3.89
266.313	3.72
266.687	3.74
267.061	3.74
267.435	3.88
267.809	3.97
268.183	3.84
268.556	3.81
268.93	3.78
269.304	3.79
269.678	3.66
270.051	3.68
270.425	3.8
270.799	3.85
271.172	3.91
271.546	4.07
271.919	4.04
272.293	4.1
272.666	4.12
273.04	4.06
273.413	4.14
273.787	4.36
274.16	4.53
274.533	4.56
274.906	4.59
275.279	4.56
275.653	4.65
276.026	4.57
276.399	4.7
276.772	4.76
277.145	4.68
277.518	4.58
277.891	4.86
278.263	4.73
278.636	4.65
279.009	4.54
279.382	4.51
279.755	4.52
280.127	4.51
280.5	4.41
280.872	4.43
281.245	4.25
281.617	4.09
281.99	4.18
282.362	3.96
282.735	3.87
283.107	3.78
283.479	3.8
283.852	3.86
284.224	3.78
284.596	3.86
284.968	3.88
285.34	3.97
285.713	3.9
286.085	3.97
286.457	4.14
286.829	4.18
287.201	4.16
287.572	4.1
287.944	4.03
288.316	4.17
288.688	4.17
289.06	4.26
289.431	4.19
289.803	4.11
290.175	4.27
290.546	4.38
290.918	4.43
291.289	4.42
291.661	4.58
292.032	4.64
292.403	4.59
292.775	4.63
293.146	4.63
293.517	4.52
293.889	4.55
294.26	4.44
294.631	4.6
295.002	4.65
295.373	4.8
295.744	4.97
296.115	4.92
296.486	4.87
296.857	4.86
297.228	5.1
297.599	5.1
297.97	5.02
298.34	5.11
298.711	5.23
299.082	5.23
299.452	5.23
299.823	5.36
300.194	5.47
300.564	5.55
300.935	5.78
301.305	5.89
301.676	5.89
302.046	6.12
302.416	6.27
302.787	6.25
303.157	6.29
303.527	6.29
303.897	6.39
304.267	6.62
304.637	6.74
305.008	6.76
305.378	7.03
305.748	7.17
306.117	7.17
306.487	7.28
306.857	7.37
307.227	7.42
307.597	7.42
307.967	7.43
308.336	7.52
308.706	7.45
309.076	7.57
309.445	7.62
309.815	7.58
310.184	7.45
310.554	7.57
310.923	7.64
311.293	7.68
311.662	7.72
312.031	7.71
312.401	7.81
312.77	7.93
313.139	7.99
313.508	8.09
313.877	8.14
314.246	8.14
314.616	8.25
314.985	8.26
315.353	8.47
315.722	8.64
316.091	8.83
316.46	8.98
316.829	8.99
317.198	9.12
317.567	9.17
317.935	9.31
318.304	9.43
318.672	9.56
319.041	9.66
319.41	9.69
319.778	9.8
320.147	9.95
320.515	9.94
320.883	9.93
321.252	10.03
321.62	10.23
321.988	10.22
322.357	10.25
322.725	10.5
323.093	10.42
323.461	10.45
323.829	10.43
324.197	10.48
324.565	10.54
324.933	10.62
325.301	10.73
325.669	10.77
326.037	10.85
326.405	10.89
326.772	10.89
327.14	11.06
327.508	11.1
327.875	11.07
328.243	11.13
328.61	11.06
328.978	11.04
329.346	10.99
329.713	11.16
330.08	11.25
330.448	11.08
330.815	11.07
331.182	11.02
331.55	10.99
331.917	10.96
332.284	11.02
332.651	10.95
333.018	11
333.385	10.99
333.752	11.09
334.119	11.06
334.486	11.18
334.853	11.11
335.22	11.1
335.587	11.05
335.954	10.98
336.32	11.15
336.687	11.31
337.054	11.38
337.42	11.35
337.787	11.31
338.153	11.43
338.52	11.59
338.886	11.71
339.253	11.67
339.619	11.62
339.986	11.66
340.352	11.76
340.718	11.73
341.084	11.79
341.451	11.75
341.817	11.85
342.183	11.75
342.549	11.74
342.915	11.89
343.281	12
343.647	12.02
344.013	11.97
344.379	11.82
344.745	11.83
345.11	11.78
345.476	11.84
345.842	11.91
346.208	11.88
346.573	11.86
346.939	12.08
347.304	12.17
347.67	12.13
348.035	12.11
348.401	12.09
348.766	12.12
349.132	12.14
349.497	12.07
349.862	12.23
350.228	12.27
350.593	12.11
350.958	12.13
351.323	12.21
351.688	12.13
352.053	12.22
352.418	12.27
352.783	12.3
353.148	12.29
353.513	12.27
353.878	12.27
354.243	12.27
354.608	12.22
354.972	12.22
355.337	12.3
355.702	12.38
356.066	12.4
356.431	12.36
356.795	12.31
357.16	12.29
357.524	12.2
357.889	12.11
358.253	12.2
358.618	12.1
358.982	12.04
359.346	12
359.71	11.98
360.075	11.93
360.439	11.91
360.803	11.88
361.167	11.82
361.531	11.71
361.895	11.64
362.259	11.53
362.623	11.47
362.987	11.37
363.351	11.27
363.714	11.28
364.078	11.2
364.442	11.11
364.806	11.06
365.169	11.05
365.533	11.05
365.896	10.95
366.26	10.9
366.623	10.85
366.987	10.8
367.35	10.74
367.714	10.65
368.077	10.58
368.44	10.51
368.803	10.45
369.167	10.37
369.53	10.34
369.893	10.33
370.256	10.25
370.619	10.16
370.982	10.09
371.345	9.97
371.708	9.98
372.071	9.98
372.434	9.87
372.797	9.8
373.159	9.7
373.522	9.65
373.885	9.62
374.247	9.56
374.61	9.57
374.973	9.48
375.335	9.45
375.698	9.4
376.06	9.34
376.423	9.3
376.785	9.32
377.147	9.29
377.51	9.13
377.872	9.11
378.234	9.06
378.596	9.03
378.958	8.97
379.321	8.94
379.683	8.87
380.045	8.79
380.407	8.65
380.769	8.59
381.13	8.53
381.492	8.43
381.854	8.36
382.216	8.25
382.578	8.21
382.939	8.14
383.301	8.03
383.663	7.94
384.024	7.85
384.386	7.78
384.747	7.69
385.109	7.68
385.47	7.59
385.832	7.58
386.193	7.51
386.554	7.45
386.916	7.33
387.277	7.24
387.638	7.23
387.999	7.19
388.36	7.17
388.721	7.14
389.082	7.09
389.443	7.07
389.804	7.01
390.165	6.95
390.526	6.85
390.887	6.82
391.248	6.81
391.609	6.81
391.969	6.76
392.33	6.73
392.691	6.66
393.051	6.64
393.412	6.6
393.772	6.55
394.133	6.51
394.493	6.5
394.854	6.46
395.214	6.39
395.574	6.41
395.935	6.36
396.295	6.32
396.655	6.28
397.015	6.23
397.376	6.21
397.736	6.16
398.096	6.14
398.456	6.12
398.816	6.06
399.176	5.97
399.535	5.91
399.895	5.87
400.255	5.89
400.615	5.83
400.975	5.74
401.334	5.7
401.694	5.67
402.054	5.63
402.413	5.62
402.773	5.59
403.132	5.48
403.492	5.45
403.851	5.39
404.211	5.38
404.57	5.35
404.929	5.29
405.288	5.28
405.648	5.24
406.007	5.23
406.366	5.21
406.725	5.23
407.084	5.24
407.443	5.21
407.802	5.21
408.161	5.18
408.52	5.17
408.879	5.15
409.238	5.14
409.596	5.13
409.955	5.09
410.314	5.1
410.673	5.11
411.031	5.11
411.39	5.07
411.748	5.04
412.107	5.02
412.465	5.01
412.824	4.99
413.182	4.98
413.54	4.95
413.899	4.94
414.257	4.88
414.615	4.81
414.974	4.8
415.332	4.73
415.69	4.69
416.048	4.66
416.406	4.63
416.764	4.61
417.122	4.58
417.48	4.56
417.838	4.54
418.195	4.51
418.553	4.46
418.911	4.47
419.269	4.46
419.626	4.43
419.984	4.43
420.342	4.41
420.699	4.39
421.057	4.38
421.414	4.35
421.772	4.34
422.129	4.35
422.486	4.32
422.844	4.31
423.201	4.31
423.558	4.3
423.915	4.28
424.273	4.25
424.63	4.24
424.987	4.22
425.344	4.22
425.701	4.22
426.058	4.24
426.415	4.22
426.772	4.21
427.128	4.2
427.485	4.18
427.842	4.16
428.199	4.16
428.555	4.15
428.912	4.16
429.269	4.16
429.625	4.14
429.982	4.13
430.338	4.14
430.695	4.13
431.051	4.11
431.407	4.11
431.764	4.11
432.12	4.1
432.476	4.1
432.832	4.07
433.189	4.06
433.545	4.03
433.901	4.03
434.257	4.03
434.613	4.02
434.969	4.03
435.325	4.05
435.681	4.04
436.036	4.03
436.392	4.02
436.748	4.02
437.104	4.02
437.459	4.02
437.815	4.01
438.171	4.01
438.526	4.03
438.882	4.03
439.237	4.05
439.593	4.05
439.948	4.05
440.304	4.06
440.659	4.06
441.014	4.07
441.369	4.04
441.725	4.03
442.08	4.02
442.435	4.01
442.79	4.01
443.145	3.99
443.5	3.99
443.855	3.97
444.21	3.97
444.565	3.96
444.92	3.96
445.275	3.93
445.629	3.92
445.984	3.9
446.339	3.89
446.693	3.87
447.048	3.85
447.403	3.83
447.757	3.8
448.112	3.79
448.466	3.78
448.82	3.79
449.175	3.78
449.529	3.77
449.883	3.77
450.238	3.74
450.592	3.74
450.946	3.74
451.3	3.73
451.654	3.72
452.008	3.71
452.362	3.7
452.716	3.71
453.07	3.72
453.424	3.73
453.778	3.74
454.132	3.72
454.486	3.71
454.839	3.7
455.193	3.71
455.547	3.72
455.9	3.72
456.254	3.71
456.607	3.71
456.961	3.71
457.314	3.7
457.668	3.7
458.021	3.7
458.375	3.69
458.728	3.69
459.081	3.7
459.434	3.69
459.787	3.68
460.141	3.68
460.494	3.66
460.847	3.67
461.2	3.67
461.553	3.67
461.906	3.71
462.259	3.74
462.611	3.75
462.964	3.76
463.317	3.76
463.67	3.77
464.022	3.78
464.375	3.78
464.728	3.8
465.08	3.81
465.433	3.84
465.785	3.85
466.138	3.87
466.49	3.88
466.843	3.9
467.195	3.92
467.547	3.94
467.899	3.97
468.252	3.97
468.604	3.98
468.956	4
469.308	3.97
469.66	3.98
470.012	3.98
470.364	3.97
470.716	3.98
471.068	3.99
471.42	4.01
471.772	4.04
472.123	4.06
472.475	4.06
472.827	4.05
473.178	4.06
473.53	4.05
473.882	4.04
474.233	4.05
474.585	4.04
474.936	4.02
475.288	4
475.639	4
475.99	3.99
476.342	3.99
476.693	4.01
477.044	4.02
477.395	4.03
477.746	4.03
478.097	4.02
478.448	4.01
478.8	3.99
479.15	3.97
479.501	3.95
479.852	3.96
480.203	3.97
480.554	3.98
480.905	3.98
481.255	3.98
481.606	3.98
481.957	3.99
482.307	4
482.658	4.02
483.009	4.01
483.359	4
483.709	4.01
484.06	4.01
484.41	4.01
484.761	4.01
485.111	4
485.461	4.01
485.811	4.01
486.162	4.02
486.512	4.02
486.862	4.02
487.212	4.01
487.562	4.02
487.912	4.01
488.262	4.02
488.612	4.04
488.961	4.04
489.311	4.05
489.661	4.06
490.011	4.06
490.36	4.07
490.71	4.09
491.06	4.1
491.409	4.11
491.759	4.12
492.108	4.14
492.458	4.16
492.807	4.17
493.157	4.19
493.506	4.22
493.855	4.25
494.204	4.27
494.554	4.3
494.903	4.33
495.252	4.34
495.601	4.35
495.95	4.37
496.299	4.38
496.648	4.4
496.997	4.4
497.346	4.44
497.695	4.5
498.043	4.5
498.392	4.52
498.741	4.54
499.09	4.56
499.438	4.6
499.787	4.66
500.135	4.7
500.484	4.74
500.832	4.76
501.181	4.79
501.529	4.85
501.878	4.9
502.226	4.96
502.574	5.03
502.923	5.1
503.271	5.16
503.619	5.24
503.967	5.31
504.315	5.38
504.663	5.44
505.011	5.49
505.359	5.58
505.707	5.66
506.055	5.72
506.403	5.8
506.751	5.89
507.098	5.93
507.446	6.01
507.794	6.08
508.141	6.19
508.489	6.28
508.837	6.36
509.184	6.43
509.531	6.5
509.879	6.59
510.226	6.67
510.574	6.76
510.921	6.83
511.268	6.93
511.616	7.01
511.963	7.11
512.31	7.19
512.657	7.29
513.004	7.4
513.351	7.54
513.698	7.67
514.045	7.75
514.392	7.87
514.739	7.97
515.086	8.12
515.432	8.22
515.779	8.31
516.126	8.41
516.473	8.52
516.819	8.63
517.166	8.74
517.512	8.85
517.859	8.95
518.205	9.06
518.552	9.17
518.898	9.29
519.245	9.39
519.591	9.48
519.937	9.59
520.283	9.69
520.629	9.8
520.976	9.91
521.322	10.04
521.668	10.17
522.014	10.33
522.36	10.47
522.706	10.64
523.052	10.84
523.398	11.02
523.743	11.22
524.089	11.44
524.435	11.61
524.781	11.78
525.126	11.95
525.472	12.09
525.817	12.23
526.163	12.37
526.509	12.5
526.854	12.62
527.199	12.75
527.545	12.86
527.89	13
528.235	13.13
528.581	13.27
528.926	13.41
529.271	13.55
529.616	13.67
529.961	13.82
530.306	13.96
530.651	14.11
530.996	14.27
531.341	14.4
531.686	14.58
532.031	14.77
532.376	14.97
532.721	15.17
533.065	15.37
533.41	15.56
533.755	15.79
534.099	16.01
534.444	16.24
534.788	16.46
535.133	16.66
535.477	16.88
535.822	17.11
536.166	17.36
536.51	17.63
536.855	17.9
537.199	18.19
537.543	18.49
537.887	18.8
538.231	19.08
538.576	19.41
538.92	19.73
539.264	20.01
539.608	20.26
539.951	20.51
540.295	20.77
540.639	21.03
540.983	21.27
541.327	21.52
541.671	21.75
542.014	21.99
542.358	22.22
542.701	22.46
543.045	22.69
543.389	22.91
543.732	23.14
544.075	23.39
544.419	23.6
544.762	23.85
545.105	24.13
545.449	24.41
545.792	24.67
546.135	24.94
546.478	25.23
546.821	25.56
547.165	25.9
547.508	26.21
547.851	26.52
548.194	26.87
548.536	27.19
548.879	27.52
549.222	27.86
549.565	28.2
549.908	28.54
550.25	28.86
550.593	29.23
550.936	29.56
551.278	29.87
551.621	30.23
551.963	30.61
552.306	30.93
552.648	31.27
552.991	31.59
553.333	31.89
553.675	32.2
554.017	32.51
554.36	32.76
554.702	33.05
555.044	33.36
555.386	33.61
555.728	33.9
556.07	34.19
556.412	34.49
556.754	34.75
557.096	35.03
557.438	35.37
557.78	35.67
558.121	36
558.463	36.37
558.805	36.66
559.147	36.94
559.488	37.18
559.83	37.46
560.171	37.72
560.513	38.04
560.854	38.31
561.196	38.55
561.537	38.86
561.878	39.14
562.22	39.4
562.561	39.69
562.902	39.95
563.243	40.22
563.584	40.47
563.925	40.72
564.266	40.97
564.607	41.22
564.948	41.46
565.289	41.65
565.63	41.83
565.971	42.04
566.312	42.24
566.653	42.46
566.993	42.64
567.334	42.9
567.675	43.09
568.015	43.33
568.356	43.53
568.696	43.73
569.037	43.93
569.377	44.13
569.718	44.27
570.058	44.43
570.398	44.57
570.739	44.77
571.079	44.97
571.419	45.13
571.759	45.29
572.099	45.39
572.439	45.54
572.779	45.71
573.119	45.84
573.459	46.01
573.799	46.2
574.139	46.34
574.479	46.45
574.819	46.57
575.158	46.67
575.498	46.82
575.838	46.95
576.177	47.08
576.517	47.22
576.856	47.44
577.196	47.63
577.535	47.8
577.875	47.9
578.214	48.05
578.553	48.24
578.893	48.4
579.232	48.63
579.571	48.84
579.91	48.96
580.25	49.18
580.589	49.29
580.928	49.44
581.267	49.61
581.606	49.79
581.945	49.95
582.283	50.1
582.622	50.22
582.961	50.36
583.3	50.51
583.639	50.64
583.977	50.74
584.316	50.8
584.654	50.97
584.993	51.08
585.332	51.2
585.67	51.28
586.008	51.36
586.347	51.38
586.685	51.44
587.024	51.54
587.362	51.64
587.7	51.82
588.038	51.87
588.376	51.98
588.715	52
589.053	52.16
589.391	52.26
589.729	52.4
590.067	52.52
590.404	52.6
590.742	52.6
591.08	52.61
591.418	52.76
591.756	52.85
592.093	52.95
592.431	53.04
592.769	53.09
593.106	53.12
593.444	53.21
593.781	53.27
594.119	53.36
594.456	53.36
594.793	53.35
595.131	53.41
595.468	53.47
595.805	53.61
596.143	53.59
596.48	53.57
596.817	53.61
597.154	53.66
597.491	53.76
597.828	53.91
598.165	54.02
598.502	54.06
598.839	54.11
599.176	54.26
599.512	54.31
599.849	54.38
600.186	54.45
600.523	54.53
600.859	54.64
601.196	54.71
601.532	54.81
601.869	54.88
602.205	54.93
602.542	54.98
602.878	55
603.215	55.02
603.551	55.15
603.887	55.19
604.223	55.26
604.56	55.31
604.896	55.32
605.232	55.36
605.568	55.44
605.904	55.42
606.24	55.37
606.576	55.4
606.912	55.46
607.248	55.49
607.583	55.51
607.919	55.51
608.255	55.59
608.591	55.7
608.926	55.73
609.262	55.77
609.597	55.79
609.933	55.81
610.268	55.92
610.604	55.95
610.939	56.01
611.275	56.01
611.61	56.06
611.945	56.13
612.281	56.14
612.616	56.14
612.951	56.3
613.286	56.46
613.621	56.55
613.956	56.65
614.291	56.82
614.626	56.98
614.961	57.01
615.296	57.03
615.631	56.99
615.966	57.03
616.3	57.17
616.635	57.29
616.97	57.42
617.304	57.44
617.639	57.5
617.973	57.48
618.308	57.58
618.642	57.6
618.977	57.63
619.311	57.66
619.646	57.76
619.98	57.76
620.314	57.75
620.648	57.73
620.983	57.62
621.317	57.58
621.651	57.45
621.985	57.64
622.319	57.72
622.653	57.77
622.987	57.86
623.321	57.8
623.655	57.83
623.988	57.77
624.322	57.76
624.656	57.79
624.99	57.83
625.323	57.88
625.657	57.95
625.99	57.96
626.324	58.02
626.657	58.03
626.991	57.94
627.324	57.91
627.658	57.94
627.991	58.11
628.324	58.19
628.657	58.26
628.991	58.23
629.324	58.19
629.657	58.2
629.99	58.23
630.323	58.28
630.656	58.33
630.989	58.41
631.322	58.52
631.655	58.55
631.987	58.56
632.32	58.42
632.653	58.43
632.986	58.43
633.318	58.34
633.651	58.35
633.984	58.49
634.316	58.53
634.649	58.56
634.981	58.52
635.313	58.49
635.646	58.55
635.978	58.53
636.31	58.56
636.643	58.56
636.975	58.61
637.307	58.61
637.639	58.52
637.971	58.54
638.303	58.53
638.635	58.54
638.967	58.59
639.299	58.64
639.631	58.61
639.963	58.6
640.295	58.68
640.626	58.65
640.958	58.68
641.29	58.62
641.621	58.67
641.953	58.68
642.285	58.76
642.616	58.86
642.948	58.92
643.279	58.96
643.61	59.06
643.942	59.04
644.273	59.08
644.604	59.19
644.936	59.08
645.267	59.11
645.598	59.11
645.929	59.16
646.26	59.17
646.591	59.03
646.922	59.12
647.253	59.14
647.584	59.19
647.915	59.18
648.245	59.31
648.576	59.35
648.907	59.36
649.238	59.37
649.568	59.29
649.899	59.22
650.229	59.22
650.56	59.29
650.89	59.23
651.221	59.2
651.551	59.1
651.882	59.22
652.212	59.16
652.542	59.12
652.872	59.23
653.203	59.28
653.533	59.43
653.863	59.5
654.193	59.51
654.523	59.53
654.853	59.52
655.183	59.51
655.513	59.41
655.843	59.41
656.172	59.37
656.502	59.41
656.832	59.45
657.162	59.51
657.491	59.49
657.821	59.64
658.15	59.65
658.48	59.73
658.809	59.81
659.139	59.92
659.468	60.02
659.798	59.97
660.127	60.01
660.456	60.05
660.785	59.98
661.115	60.06
661.444	59.99
661.773	60.02
662.102	60.07
662.431	60.11
662.76	60.18
663.089	60.15
663.418	60.27
663.747	60.34
664.076	60.33
664.404	60.3
664.733	60.27
