Data from BA57758_Reflection_00004.txt Node
Date: Mon Nov 18 15:11:22 EST 2019
User: vgr7
Spectrometer: USB2G7710
Scans to average: 3
Trigger mode: 4
Integration Time (sec): 2.000000E-2
Electric dark correction enabled: true
Boxcar width: 10
XAxis mode: Wavelengths
Number of Pixels in Spectrum: 2048
>>>>>Begin Spectral Data<<<<<
177.721	-478.95
178.105	37.22
178.488	126.88
178.871	87.31
179.254	118.47
179.636	121.19
180.019	-919.8
180.402	-780
180.785	-92.7
181.168	-77.99
181.55	-116.06
181.933	-4.18
182.316	11.9
182.698	24.48
183.081	-64.85
183.463	-403.72
183.846	-192.74
184.228	-142.81
184.611	-113.41
184.993	-180.9
185.376	-201.2
185.758	-237.65
186.14	-152.32
186.522	-130.86
186.904	-92.64
187.287	-76.93
187.669	-180.76
188.051	-145.78
188.433	-210.74
188.815	-282.67
189.197	-398.24
189.579	-477.62
189.961	-297.17
190.342	-892.93
190.724	-1288.63
191.106	-1386.19
191.488	-3584.93
191.869	1141.81
192.251	341.66
192.633	432.66
193.014	497.65
193.396	445.31
193.777	620.87
194.159	609.57
194.54	361.17
194.922	341.27
195.303	323.48
195.684	240.23
196.065	179.6
196.447	156.67
196.828	126.91
197.209	105.18
197.59	121.17
197.971	113.04
198.352	124.31
198.733	99.69
199.114	75.12
199.495	84
199.876	109.97
200.257	107.49
200.638	89.68
201.018	95.56
201.399	78.34
201.78	62.66
202.16	56.13
202.541	36.78
202.922	13.61
203.302	2.31
203.683	-24.08
204.063	-34.23
204.444	-25.9
204.824	9.09
205.204	-14.96
205.585	-38.03
205.965	-39.57
206.345	33.82
206.725	160.87
207.106	112.85
207.486	12.03
207.866	-33.22
208.246	-370.82
208.626	-257.47
209.006	-83.45
209.386	4700
209.766	-82.01
210.145	-139.24
210.525	2.21
210.905	46.91
211.285	28.67
211.664	40.38
212.044	42.66
212.424	34.05
212.803	32.19
213.183	22.85
213.562	22.18
213.942	33.76
214.321	28.23
214.701	28.26
215.08	27.01
215.459	25.21
215.838	20.34
216.218	18.83
216.597	12.99
216.976	22.95
217.355	28.76
217.734	19.74
218.113	25.66
218.492	20.39
218.871	24.61
219.25	34.6
219.629	18.48
220.008	1.98
220.387	9.72
220.766	13.29
221.144	28.5
221.523	6.98
221.902	-38.81
222.28	-43.28
222.659	-47.93
223.037	-17.55
223.416	-10.26
223.794	-4.4
224.173	5.04
224.551	29.37
224.929	23.2
225.308	26.18
225.686	23.7
226.064	25.91
226.442	20.86
226.821	17.86
227.199	18.45
227.577	17.1
227.955	15.65
228.333	17.49
228.711	17.45
229.089	20.77
229.467	21.91
229.845	23.21
230.222	25.25
230.6	23.47
230.978	20.89
231.356	21.99
231.733	23.75
232.111	22.05
232.488	19.19
232.866	18.04
233.243	17.49
233.621	15.15
233.998	16.86
234.376	16.06
234.753	16.03
235.13	13.65
235.508	14.16
235.885	15.37
236.262	11.6
236.639	11.51
237.016	10.99
237.393	10.51
237.77	10.01
238.147	8.83
238.524	8.64
238.901	9.4
239.278	9.08
239.655	8.96
240.032	8.84
240.409	8.12
240.785	8.02
241.162	8.13
241.539	8.37
241.915	7.48
242.292	7.24
242.668	7.6
243.045	7.63
243.421	7.55
243.798	7.38
244.174	7.64
244.551	7.61
244.927	7.39
245.303	7.64
245.679	7.76
246.056	7.82
246.432	7.69
246.808	7.74
247.184	7.68
247.56	7.39
247.936	7.39
248.312	7.54
248.688	7.78
249.064	7.55
249.44	7.76
249.815	8.15
250.191	8.4
250.567	8.18
250.943	8.21
251.318	8.41
251.694	8.23
252.069	8.27
252.445	8.23
252.82	8.13
253.196	8.28
253.571	8.14
253.947	8.16
254.322	8.47
254.697	8.05
255.073	7.69
255.448	7.51
255.823	7.45
256.198	7.52
256.573	7.2
256.948	7.02
257.323	7.01
257.698	6.77
258.073	6.75
258.448	6.72
258.823	6.8
259.198	6.64
259.573	6.74
259.948	6.64
260.322	6.67
260.697	6.66
261.072	6.51
261.446	6.57
261.821	6.57
262.195	6.54
262.57	6.52
262.944	6.6
263.319	6.67
263.693	6.64
264.067	6.68
264.442	6.73
264.816	7.03
265.19	6.99
265.564	7.02
265.938	6.8
266.313	6.78
266.687	6.69
267.061	6.82
267.435	6.94
267.809	7.01
268.183	6.93
268.556	6.94
268.93	6.9
269.304	6.7
269.678	6.6
270.051	6.6
270.425	6.67
270.799	6.67
271.172	6.68
271.546	6.8
271.919	6.66
272.293	6.59
272.666	6.47
273.04	6.45
273.413	6.41
273.787	6.52
274.16	6.59
274.533	6.71
274.906	6.7
275.279	6.53
275.653	6.47
276.026	6.49
276.399	6.47
276.772	6.49
277.145	6.5
277.518	6.65
277.891	6.52
278.263	6.34
278.636	6.33
279.009	6.23
279.382	6.02
279.755	5.95
280.127	6.2
280.5	6.21
280.872	6.14
281.245	6.18
281.617	6.4
281.99	6.43
282.362	6.46
282.735	6.31
283.107	6.44
283.479	6.49
283.852	6.46
284.224	6.57
284.596	6.57
284.968	6.78
285.34	6.74
285.713	6.7
286.085	6.97
286.457	7.09
286.829	7.19
287.201	7.3
287.572	7.34
287.944	7.09
288.316	7.1
288.688	7.17
289.06	7.26
289.431	7.07
289.803	7.11
290.175	7.09
290.546	7.39
290.918	7.42
291.289	7.44
291.661	7.5
292.032	7.42
292.403	7.39
292.775	7.34
293.146	7.38
293.517	7.5
293.889	7.48
294.26	7.52
294.631	7.49
295.002	7.5
295.373	7.51
295.744	7.65
296.115	7.68
296.486	7.69
296.857	7.62
297.228	7.69
297.599	7.7
297.97	7.72
298.34	7.53
298.711	7.51
299.082	7.48
299.452	7.53
299.823	7.6
300.194	7.73
300.564	7.68
300.935	7.58
301.305	7.51
301.676	7.48
302.046	7.42
302.416	7.51
302.787	7.48
303.157	7.37
303.527	7.46
303.897	7.55
304.267	7.69
304.637	7.82
305.008	8
305.378	8.12
305.748	8.27
306.117	8.3
306.487	8.44
306.857	8.62
307.227	8.65
307.597	8.58
307.967	8.61
308.336	8.58
308.706	8.68
309.076	8.73
309.445	8.57
309.815	8.49
310.184	8.39
310.554	8.41
310.923	8.47
311.293	8.31
311.662	8.27
312.031	8.16
312.401	8.03
312.77	8.07
313.139	7.99
313.508	7.76
313.877	7.75
314.246	7.77
314.616	7.62
314.985	7.56
315.353	7.55
315.722	7.54
316.091	7.52
316.46	7.51
316.829	7.52
317.198	7.78
317.567	7.75
317.935	7.85
318.304	7.86
318.672	7.95
319.041	7.95
319.41	7.92
319.778	7.99
320.147	7.98
320.515	7.73
320.883	7.76
321.252	8.02
321.62	8.1
321.988	8
322.357	8.11
322.725	8.17
323.093	8.3
323.461	8.19
323.829	8.32
324.197	8.36
324.565	8.45
324.933	8.2
325.301	8.28
325.669	8.27
326.037	8.28
326.405	8.38
326.772	8.54
327.14	8.6
327.508	8.53
327.875	8.5
328.243	8.55
328.61	8.5
328.978	8.33
329.346	8.32
329.713	8.33
330.08	8.2
330.448	8.17
330.815	7.99
331.182	8.12
331.55	8.04
331.917	8.01
332.284	7.98
332.651	8.11
333.018	8.12
333.385	8.12
333.752	8.07
334.119	8
334.486	7.85
334.853	7.82
335.22	7.8
335.587	7.88
335.954	7.94
336.32	7.81
336.687	7.81
337.054	7.73
337.42	7.8
337.787	7.92
338.153	8
338.52	8.16
338.886	8
339.253	8
339.619	7.95
339.986	7.92
340.352	8
340.718	7.87
341.084	7.95
341.451	8.01
341.817	8.11
342.183	8.16
342.549	8.19
342.915	8.24
343.281	8.24
343.647	8.14
344.013	8.26
344.379	8.26
344.745	8.29
345.11	8.27
345.476	8.19
345.842	8.11
346.208	8.1
346.573	8.17
346.939	8.18
347.304	8.16
347.67	8.2
348.035	8.12
348.401	8.21
348.766	8.18
349.132	8.25
349.497	8.19
349.862	8.18
350.228	8.19
350.593	8.13
350.958	8.1
351.323	8.18
351.688	8.2
352.053	8.26
352.418	8.34
352.783	8.23
353.148	8.25
353.513	8.34
353.878	8.35
354.243	8.4
354.608	8.39
354.972	8.47
355.337	8.42
355.702	8.47
356.066	8.48
356.431	8.44
356.795	8.34
357.16	8.26
357.524	8.21
357.889	8.2
358.253	8.27
358.618	8.26
358.982	8.25
359.346	8.15
359.71	8.13
360.075	8.07
360.439	8.11
360.803	8.14
361.167	8.05
361.531	7.92
361.895	7.87
362.259	7.83
362.623	7.81
362.987	7.8
363.351	7.81
363.714	7.82
364.078	7.77
364.442	7.75
364.806	7.73
365.169	7.77
365.533	7.68
365.896	7.66
366.26	7.6
366.623	7.57
366.987	7.57
367.35	7.61
367.714	7.58
368.077	7.62
368.44	7.55
368.803	7.57
369.167	7.63
369.53	7.55
369.893	7.6
370.256	7.62
370.619	7.58
370.982	7.53
371.345	7.48
371.708	7.53
372.071	7.53
372.434	7.55
372.797	7.57
373.159	7.63
373.522	7.63
373.885	7.66
374.247	7.65
374.61	7.69
374.973	7.58
375.335	7.61
375.698	7.56
376.06	7.61
376.423	7.6
376.785	7.63
377.147	7.69
377.51	7.64
377.872	7.62
378.234	7.65
378.596	7.63
378.958	7.62
379.321	7.62
379.683	7.65
380.045	7.67
380.407	7.72
380.769	7.72
381.13	7.67
381.492	7.65
381.854	7.64
382.216	7.59
382.578	7.6
382.939	7.54
383.301	7.52
383.663	7.47
384.024	7.43
384.386	7.42
384.747	7.43
385.109	7.45
385.47	7.44
385.832	7.41
386.193	7.39
386.554	7.41
386.916	7.39
387.277	7.36
387.638	7.35
387.999	7.28
388.36	7.26
388.721	7.25
389.082	7.28
389.443	7.26
389.804	7.29
390.165	7.32
390.526	7.39
390.887	7.4
391.248	7.44
391.609	7.46
391.969	7.47
392.33	7.45
392.691	7.43
393.051	7.44
393.412	7.42
393.772	7.42
394.133	7.43
394.493	7.45
394.854	7.46
395.214	7.44
395.574	7.44
395.935	7.4
396.295	7.4
396.655	7.33
397.015	7.35
397.376	7.35
397.736	7.32
398.096	7.32
398.456	7.3
398.816	7.27
399.176	7.25
399.535	7.22
399.895	7.2
400.255	7.2
400.615	7.2
400.975	7.21
401.334	7.22
401.694	7.18
402.054	7.13
402.413	7.14
402.773	7.13
403.132	7.1
403.492	7.11
403.851	7.13
404.211	7.15
404.57	7.13
404.929	7.14
405.288	7.12
405.648	7.06
406.007	7.04
406.366	7.01
406.725	7.01
407.084	7
407.443	7.03
407.802	7.03
408.161	6.97
408.52	6.95
408.879	6.96
409.238	6.95
409.596	6.95
409.955	6.94
410.314	6.93
410.673	6.92
411.031	6.93
411.39	6.92
411.748	6.93
412.107	6.93
412.465	6.89
412.824	6.9
413.182	6.89
413.54	6.93
413.899	6.95
414.257	6.94
414.615	6.92
414.974	6.87
415.332	6.84
415.69	6.83
416.048	6.84
416.406	6.8
416.764	6.79
417.122	6.76
417.48	6.74
417.838	6.73
418.195	6.72
418.553	6.7
418.911	6.67
419.269	6.65
419.626	6.63
419.984	6.62
420.342	6.63
420.699	6.63
421.057	6.63
421.414	6.6
421.772	6.59
422.129	6.59
422.486	6.59
422.844	6.58
423.201	6.58
423.558	6.58
423.915	6.57
424.273	6.58
424.63	6.58
424.987	6.57
425.344	6.56
425.701	6.56
426.058	6.57
426.415	6.58
426.772	6.57
427.128	6.55
427.485	6.58
427.842	6.55
428.199	6.54
428.555	6.51
428.912	6.53
429.269	6.54
429.625	6.54
429.982	6.52
430.338	6.54
430.695	6.53
431.051	6.51
431.407	6.52
431.764	6.49
432.12	6.48
432.476	6.48
432.832	6.48
433.189	6.48
433.545	6.49
433.901	6.48
434.257	6.49
434.613	6.51
434.969	6.5
435.325	6.5
435.681	6.51
436.036	6.51
436.392	6.48
436.748	6.47
437.104	6.45
437.459	6.46
437.815	6.44
438.171	6.45
438.526	6.48
438.882	6.47
439.237	6.48
439.593	6.5
439.948	6.51
440.304	6.51
440.659	6.51
441.014	6.49
441.369	6.47
441.725	6.44
442.08	6.44
442.435	6.44
442.79	6.44
443.145	6.44
443.5	6.44
443.855	6.42
444.21	6.42
444.565	6.43
444.92	6.42
445.275	6.41
445.629	6.42
445.984	6.39
446.339	6.36
446.693	6.36
447.048	6.34
447.403	6.33
447.757	6.32
448.112	6.29
448.466	6.26
448.82	6.27
449.175	6.28
449.529	6.26
449.883	6.23
450.238	6.21
450.592	6.21
450.946	6.18
451.3	6.17
451.654	6.14
452.008	6.13
452.362	6.12
452.716	6.12
453.07	6.09
453.424	6.08
453.778	6.1
454.132	6.07
454.486	6.05
454.839	6.06
455.193	6.04
455.547	6.05
455.9	6.08
456.254	6.08
456.607	6.09
456.961	6.1
457.314	6.11
457.668	6.12
458.021	6.11
458.375	6.13
458.728	6.14
459.081	6.16
459.434	6.15
459.787	6.16
460.141	6.17
460.494	6.18
460.847	6.19
461.2	6.21
461.553	6.22
461.906	6.24
462.259	6.24
462.611	6.27
462.964	6.28
463.317	6.31
463.67	6.31
464.022	6.33
464.375	6.33
464.728	6.33
465.08	6.36
465.433	6.36
465.785	6.38
466.138	6.37
466.49	6.37
466.843	6.38
467.195	6.39
467.547	6.39
467.899	6.4
468.252	6.41
468.604	6.42
468.956	6.43
469.308	6.42
469.66	6.43
470.012	6.41
470.364	6.44
470.716	6.42
471.068	6.43
471.42	6.43
471.772	6.45
472.123	6.45
472.475	6.46
472.827	6.46
473.178	6.48
473.53	6.51
473.882	6.53
474.233	6.56
474.585	6.54
474.936	6.57
475.288	6.58
475.639	6.58
475.99	6.56
476.342	6.53
476.693	6.54
477.044	6.54
477.395	6.55
477.746	6.52
478.097	6.52
478.448	6.52
478.8	6.52
479.15	6.5
479.501	6.51
479.852	6.51
480.203	6.52
480.554	6.52
480.905	6.52
481.255	6.52
481.606	6.51
481.957	6.52
482.307	6.52
482.658	6.51
483.009	6.5
483.359	6.5
483.709	6.51
484.06	6.51
484.41	6.52
484.761	6.51
485.111	6.51
485.461	6.5
485.811	6.49
486.162	6.49
486.512	6.5
486.862	6.49
487.212	6.49
487.562	6.48
487.912	6.47
488.262	6.46
488.612	6.46
488.961	6.45
489.311	6.45
489.661	6.44
490.011	6.45
490.36	6.46
490.71	6.44
491.06	6.43
491.409	6.44
491.759	6.43
492.108	6.45
492.458	6.46
492.807	6.47
493.157	6.48
493.506	6.5
493.855	6.49
494.204	6.5
494.554	6.5
494.903	6.5
495.252	6.5
495.601	6.52
495.95	6.53
496.299	6.56
496.648	6.57
496.997	6.58
497.346	6.59
497.695	6.6
498.043	6.64
498.392	6.67
498.741	6.69
499.09	6.71
499.438	6.72
499.787	6.73
500.135	6.77
500.484	6.79
500.832	6.8
501.181	6.83
501.529	6.85
501.878	6.86
502.226	6.88
502.574	6.9
502.923	6.92
503.271	6.93
503.619	6.94
503.967	6.96
504.315	6.97
504.663	7
505.011	7.02
505.359	7.04
505.707	7.07
506.055	7.08
506.403	7.09
506.751	7.11
507.098	7.12
507.446	7.12
507.794	7.13
508.141	7.16
508.489	7.19
508.837	7.2
509.184	7.21
509.531	7.23
509.879	7.23
510.226	7.26
510.574	7.27
510.921	7.29
511.268	7.27
511.616	7.28
511.963	7.29
512.31	7.3
512.657	7.32
513.004	7.33
513.351	7.35
513.698	7.36
514.045	7.38
514.392	7.4
514.739	7.39
515.086	7.41
515.432	7.39
515.779	7.38
516.126	7.39
516.473	7.41
516.819	7.42
517.166	7.44
517.512	7.44
517.859	7.45
518.205	7.45
518.552	7.48
518.898	7.49
519.245	7.51
519.591	7.53
519.937	7.53
520.283	7.51
520.629	7.52
520.976	7.52
521.322	7.52
521.668	7.52
522.014	7.54
522.36	7.55
522.706	7.56
523.052	7.57
523.398	7.57
523.743	7.58
524.089	7.59
524.435	7.58
524.781	7.59
525.126	7.61
525.472	7.62
525.817	7.63
526.163	7.63
526.509	7.62
526.854	7.62
527.199	7.63
527.545	7.64
527.89	7.64
528.235	7.65
528.581	7.66
528.926	7.66
529.271	7.67
529.616	7.66
529.961	7.66
530.306	7.67
530.651	7.66
530.996	7.68
531.341	7.69
531.686	7.7
532.031	7.7
532.376	7.69
532.721	7.69
533.065	7.71
533.41	7.71
533.755	7.72
534.099	7.72
534.444	7.71
534.788	7.71
535.133	7.72
535.477	7.71
535.822	7.71
536.166	7.7
536.51	7.69
536.855	7.71
537.199	7.72
537.543	7.73
537.887	7.75
538.231	7.73
538.576	7.73
538.92	7.73
539.264	7.73
539.608	7.74
539.951	7.74
540.295	7.71
540.639	7.71
540.983	7.71
541.327	7.71
541.671	7.7
542.014	7.71
542.358	7.72
542.701	7.71
543.045	7.72
543.389	7.73
543.732	7.74
544.075	7.74
544.419	7.74
544.762	7.73
545.105	7.72
545.449	7.73
545.792	7.74
546.135	7.74
546.478	7.75
546.821	7.73
547.165	7.75
547.508	7.76
547.851	7.77
548.194	7.78
548.536	7.79
548.879	7.82
549.222	7.83
549.565	7.81
549.908	7.82
550.25	7.82
550.593	7.81
550.936	7.8
551.278	7.8
551.621	7.81
551.963	7.8
552.306	7.82
552.648	7.8
552.991	7.8
553.333	7.8
553.675	7.78
554.017	7.78
554.36	7.77
554.702	7.81
555.044	7.79
555.386	7.79
555.728	7.79
556.07	7.83
556.412	7.81
556.754	7.83
557.096	7.85
557.438	7.85
557.78	7.87
558.121	7.91
558.463	7.92
558.805	7.91
559.147	7.89
559.488	7.9
559.83	7.93
560.171	7.91
560.513	7.92
560.854	7.93
561.196	7.96
561.537	7.99
561.878	7.95
562.22	7.96
562.561	7.95
562.902	7.97
563.243	7.92
563.584	7.94
563.925	7.95
564.266	7.93
564.607	7.92
564.948	7.92
565.289	7.9
565.63	7.88
565.971	7.89
566.312	7.94
566.653	7.91
566.993	7.91
567.334	7.93
567.675	7.95
568.015	7.93
568.356	7.93
568.696	7.93
569.037	7.95
569.377	7.95
569.718	7.97
570.058	7.97
570.398	7.98
570.739	7.97
571.079	7.96
571.419	7.97
571.759	7.98
572.099	7.97
572.439	7.97
572.779	7.98
573.119	7.97
573.459	7.98
573.799	7.99
574.139	7.98
574.479	7.97
574.819	7.96
575.158	7.98
575.498	7.98
575.838	7.94
576.177	7.92
576.517	7.93
576.856	7.94
577.196	7.92
577.535	7.92
577.875	7.95
578.214	7.93
578.553	7.98
578.893	7.99
579.232	7.98
579.571	8.01
579.91	7.99
580.25	8
580.589	7.99
580.928	7.99
581.267	7.99
581.606	8.02
581.945	8
582.283	7.98
582.622	7.97
582.961	8
583.3	8.01
583.639	8.03
583.977	8.01
584.316	8.03
584.654	8.04
584.993	8.06
585.332	8.08
585.67	8.06
586.008	8.05
586.347	8.05
586.685	8.03
587.024	8.04
587.362	8.04
587.7	8.01
588.038	8.02
588.376	8.01
588.715	8.02
589.053	8.07
589.391	8.07
589.729	8.1
590.067	8.09
590.404	8.1
590.742	8.07
591.08	8.07
591.418	8.11
591.756	8.13
592.093	8.15
592.431	8.15
592.769	8.16
593.106	8.14
593.444	8.16
593.781	8.14
594.119	8.14
594.456	8.14
594.793	8.09
595.131	8.08
595.468	8.09
595.805	8.06
596.143	8.02
596.48	8.04
596.817	8.03
597.154	8.06
597.491	8.06
597.828	8.07
598.165	8.08
598.502	8.06
598.839	8.07
599.176	7.99
599.512	8
599.849	7.98
600.186	7.98
600.523	7.99
600.859	8.05
601.196	8.08
601.532	8.11
601.869	8.15
602.205	8.17
602.542	8.15
602.878	8.18
603.215	8.21
603.551	8.21
603.887	8.22
604.223	8.2
604.56	8.19
604.896	8.2
605.232	8.2
605.568	8.22
605.904	8.2
606.24	8.24
606.576	8.23
606.912	8.24
607.248	8.29
607.583	8.29
607.919	8.3
608.255	8.28
608.591	8.27
608.926	8.26
609.262	8.29
609.597	8.33
609.933	8.34
610.268	8.36
610.604	8.36
610.939	8.39
611.275	8.4
611.61	8.38
611.945	8.4
612.281	8.4
612.616	8.36
612.951	8.35
613.286	8.33
613.621	8.38
613.956	8.37
614.291	8.34
614.626	8.36
614.961	8.33
615.296	8.34
615.631	8.33
615.966	8.39
616.3	8.36
616.635	8.35
616.97	8.29
617.304	8.23
617.639	8.28
617.973	8.25
618.308	8.3
618.642	8.36
618.977	8.32
619.311	8.32
619.646	8.37
619.98	8.37
620.314	8.42
620.648	8.36
620.983	8.41
621.317	8.46
621.651	8.43
621.985	8.44
622.319	8.46
622.653	8.45
622.987	8.44
623.321	8.46
623.655	8.47
623.988	8.52
624.322	8.51
624.656	8.52
624.99	8.53
625.323	8.48
625.657	8.47
625.99	8.49
626.324	8.47
626.657	8.48
626.991	8.52
627.324	8.52
627.658	8.56
627.991	8.55
628.324	8.52
628.657	8.54
628.991	8.55
629.324	8.55
629.657	8.58
629.99	8.64
630.323	8.64
630.656	8.64
630.989	8.65
631.322	8.71
631.655	8.66
631.987	8.65
632.32	8.67
632.653	8.65
632.986	8.65
633.318	8.69
633.651	8.63
633.984	8.62
634.316	8.58
634.649	8.55
634.981	8.54
635.313	8.57
635.646	8.61
635.978	8.62
636.31	8.62
636.643	8.59
636.975	8.54
637.307	8.5
637.639	8.54
637.971	8.57
638.303	8.53
638.635	8.53
638.967	8.54
639.299	8.58
639.631	8.55
639.963	8.54
640.295	8.54
640.626	8.57
640.958	8.58
641.29	8.64
641.621	8.7
641.953	8.71
642.285	8.69
642.616	8.66
642.948	8.6
643.279	8.61
643.61	8.62
643.942	8.58
644.273	8.63
644.604	8.58
644.936	8.51
645.267	8.53
645.598	8.56
645.929	8.54
646.26	8.57
646.591	8.62
646.922	8.63
647.253	8.69
647.584	8.74
647.915	8.64
648.245	8.62
648.576	8.55
648.907	8.59
649.238	8.59
649.568	8.59
649.899	8.61
650.229	8.55
650.56	8.62
650.89	8.58
651.221	8.65
651.551	8.65
651.882	8.67
652.212	8.63
652.542	8.62
652.872	8.65
653.203	8.56
653.533	8.56
653.863	8.57
654.193	8.47
654.523	8.45
654.853	8.46
655.183	8.42
655.513	8.4
655.843	8.32
656.172	8.33
656.502	8.28
656.832	8.27
657.162	8.37
657.491	8.33
657.821	8.37
658.15	8.22
658.48	8.21
658.809	8.2
659.139	8.28
659.468	8.33
659.798	8.33
660.127	8.37
660.456	8.36
660.785	8.34
661.115	8.36
661.444	8.39
661.773	8.44
662.102	8.51
662.431	8.56
662.76	8.6
663.089	8.61
663.418	8.68
663.747	8.72
664.076	8.69
664.404	8.67
664.733	8.73
665.062	8.84
665.39	8.88
665.719	8.91
666.048	8.88
666.376	8.85
666.705	8.9
667.033	8.82
667.362	8.89
667.69	8.94
668.018	8.93
668.347	8.9
668.675	9
669.003	8.94
669.331	9
669.659	9
669.987	8.94
670.315	8.92
670.643	8.96
670.971	8.97
671.299	9.05
671.627	8.99
671.955	9
672.283	9.05
672.61	9.07
672.938	8.97
673.266	8.97
673.593	9
673.921	9.1
674.249	9.06
674.576	9.02
674.904	9.12
675.231	9.12
675.558	8.98
675.886	8.95
676.213	8.91
676.54	8.93
676.867	8.99
677.195	9.03
677.522	9
677.849	8.97
678.176	8.98
678.503	8.99
