Data from BA57712_Reflection_00001.txt Node
Date: Mon Nov 18 15:19:09 EST 2019
User: vgr7
Spectrometer: USB2G7710
Scans to average: 3
Trigger mode: 4
Integration Time (sec): 2.000000E-2
Electric dark correction enabled: true
Boxcar width: 10
XAxis mode: Wavelengths
Number of Pixels in Spectrum: 2048
>>>>>Begin Spectral Data<<<<<
177.721	-155.63
178.105	-123.44
178.488	-22.5
178.871	-95.44
179.254	-54.35
179.636	-155.85
180.019	-161.83
180.402	2.27
180.785	-2.26
181.168	-261.11
181.55	157.4
181.933	93.77
182.316	60.59
182.698	83.41
183.081	98.02
183.463	50.27
183.846	49.45
184.228	25.22
184.611	6.36
184.993	-30.81
185.376	23.6
185.758	8.45
186.14	23.03
186.522	29.39
186.904	25.65
187.287	40.5
187.669	-37.05
188.051	-9.67
188.433	43.05
188.815	-22.1
189.197	146.2
189.579	62.67
189.961	54.27
190.342	-7.1
190.724	49.93
191.106	66.98
191.488	12.49
191.869	35.1
192.251	11.58
192.633	16.78
193.014	25.5
193.396	35.29
193.777	14.82
194.159	30.52
194.54	67.89
194.922	77.54
195.303	66.8
195.684	41.93
196.065	79.54
196.447	52.9
196.828	50.22
197.209	75.98
197.59	85.72
197.971	53.71
198.352	52.65
198.733	55.98
199.114	29.8
199.495	68.86
199.876	39.04
200.257	41.62
200.638	52.13
201.018	48.49
201.399	46
201.78	46.19
202.16	34.59
202.541	-1.14
202.922	-23.83
203.302	-25.04
203.683	-26.11
204.063	-50.19
204.444	-53.75
204.824	-77.14
205.204	-71.91
205.585	-62.83
205.965	-68.6
206.345	-65.19
206.725	-75.06
207.106	-124.22
207.486	-556.33
207.866	219.96
208.246	153.99
208.626	173.74
209.006	210.05
209.386	270.76
209.766	332.44
210.145	155.21
210.525	90.5
210.905	73.73
211.285	58.79
211.664	68.57
212.044	30.16
212.424	50.16
212.803	37.32
213.183	-72.84
213.562	11.85
213.942	-8.45
214.321	-115.87
214.701	-65.99
215.08	-39.56
215.459	-3.08
215.838	3.37
216.218	-13.77
216.597	-18.84
216.976	-39.82
217.355	-24.6
217.734	-24.2
218.113	-16.22
218.492	-25.03
218.871	-30.57
219.25	-21.79
219.629	-6.78
220.008	-1.39
220.387	-0.61
220.766	-2.98
221.144	-1.53
221.523	-20.99
221.902	-25.63
222.28	-15.74
222.659	-28.73
223.037	-8.49
223.416	-14.04
223.794	-14.56
224.173	-3.51
224.551	-9.58
224.929	-3.5
225.308	6.51
225.686	11.77
226.064	15.97
226.442	14.01
226.821	12.85
227.199	9.95
227.577	7.04
227.955	4.41
228.333	5.89
228.711	5.98
229.089	7.26
229.467	7.58
229.845	9.09
230.222	7.44
230.6	6.16
230.978	3.55
231.356	5.34
231.733	5.15
232.111	4.99
232.488	7.02
232.866	7.23
233.243	5.88
233.621	5.85
233.998	5.18
234.376	4.2
234.753	4.81
235.13	4.51
235.508	5.96
235.885	6.44
236.262	5.18
236.639	6.03
237.016	6.84
237.393	7.66
237.77	7.24
238.147	7.74
238.524	9.02
238.901	9.68
239.278	8.29
239.655	8.71
240.032	7.86
240.409	6.8
240.785	6.68
241.162	6.97
241.539	6.89
241.915	7.2
242.292	7.21
242.668	7.03
243.045	6.91
243.421	6.59
243.798	6.3
244.174	6.66
244.551	6.57
244.927	5.99
245.303	6.17
245.679	6.39
246.056	6.34
246.432	6.3
246.808	6.11
247.184	6.15
247.56	5.97
247.936	5.85
248.312	6.05
248.688	6.06
249.064	5.86
249.44	5.66
249.815	5.57
250.191	5.65
250.567	5.8
250.943	5.61
251.318	5.63
251.694	5.5
252.069	5.16
252.445	5.21
252.82	5.55
253.196	5.26
253.571	5.14
253.947	5.23
254.322	5.18
254.697	5.11
255.073	5.09
255.448	4.88
255.823	5.22
256.198	5.39
256.573	5.27
256.948	5.5
257.323	5.67
257.698	5.54
258.073	5.46
258.448	5.11
258.823	5.1
259.198	5.07
259.573	5.12
259.948	5.17
260.322	5.08
260.697	4.82
261.072	4.82
261.446	4.83
261.821	4.63
262.195	4.69
262.57	4.73
262.944	4.78
263.319	4.98
263.693	4.88
264.067	4.74
264.442	4.78
264.816	4.75
265.19	4.62
265.564	4.57
265.938	4.54
266.313	4.75
266.687	4.94
267.061	4.98
267.435	5.03
267.809	5.23
268.183	5.33
268.556	5.49
268.93	5.38
269.304	5.14
269.678	5.26
270.051	5.24
270.425	5.18
270.799	5.25
271.172	5.2
271.546	5.43
271.919	5.43
272.293	5.42
272.666	5.41
273.04	5.59
273.413	5.5
273.787	5.55
274.16	5.47
274.533	5.45
274.906	5.31
275.279	5.45
275.653	5.31
276.026	5.28
276.399	5.19
276.772	5.31
277.145	5.44
277.518	5.5
277.891	5.35
278.263	5.37
278.636	5.21
279.009	4.91
279.382	4.96
279.755	5.02
280.127	5.07
280.5	5.2
280.872	5.05
281.245	5.09
281.617	5.04
281.99	5.12
282.362	4.98
282.735	4.92
283.107	4.7
283.479	4.74
283.852	4.71
284.224	4.88
284.596	4.83
284.968	4.79
285.34	4.78
285.713	4.82
286.085	4.8
286.457	4.95
286.829	5.21
287.201	5.08
287.572	5
287.944	4.95
288.316	4.78
288.688	4.78
289.06	4.82
289.431	4.83
289.803	4.94
290.175	5.12
290.546	5.28
290.918	5.38
291.289	5.39
291.661	5.48
292.032	5.41
292.403	5.41
292.775	5.54
293.146	5.45
293.517	5.49
293.889	5.65
294.26	5.51
294.631	5.45
295.002	5.48
295.373	5.58
295.744	5.64
296.115	5.68
296.486	5.57
296.857	5.69
297.228	5.78
297.599	5.7
297.97	5.61
298.34	5.64
298.711	5.76
299.082	5.67
299.452	5.68
299.823	5.76
300.194	5.89
300.564	5.81
300.935	5.9
301.305	5.94
301.676	5.91
302.046	5.95
302.416	6.07
302.787	6.06
303.157	6.03
303.527	6.1
303.897	6.06
304.267	6.42
304.637	6.32
305.008	6.34
305.378	6.39
305.748	6.48
306.117	6.43
306.487	6.36
306.857	6.46
307.227	6.48
307.597	6.49
307.967	6.49
308.336	6.67
308.706	6.75
309.076	6.82
309.445	6.84
309.815	6.76
310.184	6.6
310.554	6.59
310.923	6.49
311.293	6.42
311.662	6.45
312.031	6.2
312.401	6.19
312.77	6.13
313.139	6.19
313.508	6.22
313.877	6.26
314.246	6.22
314.616	6.12
314.985	6.06
315.353	5.84
315.722	5.79
316.091	5.54
316.46	5.3
316.829	5.1
317.198	5.03
317.567	5.09
317.935	5.23
318.304	5.27
318.672	5.24
319.041	5.28
319.41	5.25
319.778	5.35
320.147	5.48
320.515	5.5
320.883	5.35
321.252	5.36
321.62	5.36
321.988	5.39
322.357	5.48
322.725	5.45
323.093	5.57
323.461	5.51
323.829	5.53
324.197	5.58
324.565	5.7
324.933	5.67
325.301	5.76
325.669	5.78
326.037	5.71
326.405	5.91
326.772	5.93
327.14	6.1
327.508	6.08
327.875	5.95
328.243	5.93
328.61	5.87
328.978	5.88
329.346	5.95
329.713	6
330.08	6.13
330.448	6.12
330.815	6.17
331.182	6.07
331.55	6.08
331.917	6.21
332.284	6.22
332.651	6.2
333.018	6.14
333.385	6.03
333.752	5.99
334.119	6.02
334.486	5.95
334.853	5.86
335.22	5.84
335.587	5.95
335.954	5.95
336.32	6.03
336.687	6.06
337.054	5.98
337.42	5.87
337.787	5.72
338.153	5.71
338.52	5.68
338.886	5.69
339.253	5.68
339.619	5.68
339.986	5.59
340.352	5.66
340.718	5.7
341.084	5.7
341.451	5.93
341.817	5.86
342.183	5.84
342.549	5.88
342.915	5.9
343.281	5.82
343.647	5.78
344.013	5.77
344.379	5.63
344.745	5.67
345.11	5.72
345.476	5.73
345.842	5.86
346.208	5.81
346.573	5.95
346.939	6.05
347.304	6.02
347.67	6.08
348.035	6.1
348.401	6.15
348.766	6.21
349.132	6.02
349.497	6.04
349.862	6.18
350.228	6.07
350.593	6.09
350.958	6.15
351.323	6.21
351.688	6.23
352.053	6.33
352.418	6.33
352.783	6.31
353.148	6.24
353.513	6.12
353.878	6.13
354.243	6.18
354.608	6.11
354.972	6.05
355.337	6.06
355.702	6.02
356.066	6.02
356.431	5.98
356.795	6.06
357.16	5.95
357.524	5.86
357.889	5.93
358.253	5.98
358.618	5.95
358.982	5.92
359.346	5.91
359.71	5.84
360.075	5.79
360.439	5.8
360.803	5.84
361.167	5.84
361.531	5.82
361.895	5.71
362.259	5.69
362.623	5.7
362.987	5.63
363.351	5.64
363.714	5.61
364.078	5.62
364.442	5.51
364.806	5.55
365.169	5.54
365.533	5.49
365.896	5.46
366.26	5.5
366.623	5.51
366.987	5.51
367.35	5.58
367.714	5.67
368.077	5.62
368.44	5.65
368.803	5.69
369.167	5.68
369.53	5.68
369.893	5.76
370.256	5.8
370.619	5.86
370.982	5.81
371.345	5.8
371.708	5.82
372.071	5.85
372.434	5.91
372.797	5.96
373.159	5.98
373.522	6.02
373.885	6.03
374.247	6.08
374.61	6.04
374.973	6
375.335	5.95
375.698	5.96
376.06	5.92
376.423	5.92
376.785	5.96
377.147	6.03
377.51	6.02
377.872	6.05
378.234	6.01
378.596	6.06
378.958	5.99
379.321	6.04
379.683	6.1
380.045	6.06
380.407	6
380.769	5.99
381.13	5.97
381.492	5.94
381.854	5.92
382.216	5.92
382.578	5.92
382.939	5.91
383.301	5.9
383.663	5.93
384.024	5.9
384.386	5.93
384.747	5.9
385.109	5.88
385.47	5.86
385.832	5.91
386.193	5.9
386.554	5.94
386.916	5.85
387.277	5.84
387.638	5.83
387.999	5.86
388.36	5.86
388.721	5.83
389.082	5.84
389.443	5.8
389.804	5.81
390.165	5.83
390.526	5.85
390.887	5.88
391.248	5.89
391.609	5.94
391.969	5.93
392.33	5.93
392.691	5.92
393.051	5.91
393.412	5.92
393.772	5.87
394.133	5.89
394.493	5.92
394.854	5.93
395.214	5.93
395.574	5.95
395.935	5.97
396.295	6.01
396.655	5.99
397.015	6.02
397.376	6.06
397.736	6.05
398.096	6.02
398.456	6.03
398.816	6.04
399.176	6
399.535	5.99
399.895	5.99
400.255	5.97
400.615	5.96
400.975	5.97
401.334	5.99
401.694	5.98
402.054	5.95
402.413	5.91
402.773	5.89
403.132	5.86
403.492	5.83
403.851	5.82
404.211	5.83
404.57	5.81
404.929	5.8
405.288	5.8
405.648	5.81
406.007	5.79
406.366	5.79
406.725	5.83
407.084	5.82
407.443	5.84
407.802	5.87
408.161	5.9
408.52	5.88
408.879	5.88
409.238	5.87
409.596	5.9
409.955	5.94
410.314	5.95
410.673	5.96
411.031	5.96
411.39	5.95
411.748	5.99
412.107	6.02
412.465	6.01
412.824	6.05
413.182	6.05
413.54	6.04
413.899	6.04
414.257	6.03
414.615	6.02
414.974	6
415.332	5.99
415.69	5.97
416.048	5.97
416.406	5.99
416.764	5.99
417.122	5.99
417.48	5.97
417.838	5.98
418.195	5.98
418.553	5.97
418.911	5.98
419.269	5.97
419.626	5.96
419.984	5.95
420.342	5.94
420.699	5.93
421.057	5.95
421.414	5.94
421.772	5.94
422.129	5.96
422.486	5.95
422.844	5.95
423.201	5.95
423.558	5.93
423.915	5.92
424.273	5.92
424.63	5.91
424.987	5.92
425.344	5.92
425.701	5.93
426.058	5.94
426.415	5.93
426.772	5.91
427.128	5.9
427.485	5.9
427.842	5.89
428.199	5.9
428.555	5.89
428.912	5.89
429.269	5.9
429.625	5.88
429.982	5.89
430.338	5.9
430.695	5.89
431.051	5.91
431.407	5.92
431.764	5.91
432.12	5.91
432.476	5.92
432.832	5.9
433.189	5.88
433.545	5.87
433.901	5.88
434.257	5.88
434.613	5.9
434.969	5.89
435.325	5.9
435.681	5.89
436.036	5.89
436.392	5.88
436.748	5.88
437.104	5.89
437.459	5.87
437.815	5.87
438.171	5.88
438.526	5.89
438.882	5.89
439.237	5.9
439.593	5.9
439.948	5.91
440.304	5.93
440.659	5.94
441.014	5.95
441.369	5.92
441.725	5.91
442.08	5.9
442.435	5.9
442.79	5.92
443.145	5.91
443.5	5.9
443.855	5.91
444.21	5.89
444.565	5.89
444.92	5.89
445.275	5.88
445.629	5.88
445.984	5.89
446.339	5.88
446.693	5.86
447.048	5.86
447.403	5.84
447.757	5.83
448.112	5.82
448.466	5.81
448.82	5.84
449.175	5.87
449.529	5.86
449.883	5.86
450.238	5.83
450.592	5.84
450.946	5.84
451.3	5.83
451.654	5.83
452.008	5.82
452.362	5.82
452.716	5.82
453.07	5.83
453.424	5.81
453.778	5.81
454.132	5.82
454.486	5.8
454.839	5.8
455.193	5.8
455.547	5.8
455.9	5.82
456.254	5.81
456.607	5.81
456.961	5.81
457.314	5.83
457.668	5.86
458.021	5.85
458.375	5.85
458.728	5.87
459.081	5.87
459.434	5.88
459.787	5.88
460.141	5.9
460.494	5.9
460.847	5.91
461.2	5.91
461.553	5.92
461.906	5.94
462.259	5.97
462.611	5.96
462.964	5.98
463.317	5.99
463.67	6
464.022	5.98
464.375	5.96
464.728	5.96
465.08	5.95
465.433	5.96
465.785	5.96
466.138	5.96
466.49	5.97
466.843	5.98
467.195	5.99
467.547	5.98
467.899	5.98
468.252	5.98
468.604	5.99
468.956	5.97
469.308	5.97
469.66	5.94
470.012	5.96
470.364	5.96
470.716	5.95
471.068	5.95
471.42	5.98
471.772	6.01
472.123	6.01
472.475	6.02
472.827	6.01
473.178	6.02
473.53	6
473.882	5.99
474.233	5.99
474.585	5.98
474.936	5.99
475.288	5.98
475.639	5.98
475.99	5.97
476.342	5.99
476.693	5.97
477.044	5.99
477.395	5.96
477.746	5.95
478.097	5.94
478.448	5.94
478.8	5.95
479.15	5.91
479.501	5.93
479.852	5.93
480.203	5.95
480.554	5.97
480.905	5.99
481.255	6
481.606	6
481.957	6.01
482.307	6.01
482.658	6.02
483.009	6.03
483.359	6.03
483.709	6.03
484.06	6.03
484.41	6.04
484.761	6.05
485.111	6.07
485.461	6.08
485.811	6.1
486.162	6.09
486.512	6.11
486.862	6.11
487.212	6.11
487.562	6.11
487.912	6.1
488.262	6.1
488.612	6.09
488.961	6.09
489.311	6.09
489.661	6.09
490.011	6.08
490.36	6.07
490.71	6.07
491.06	6.06
491.409	6.08
491.759	6.08
492.108	6.07
492.458	6.05
492.807	6.03
493.157	6.01
493.506	6.02
493.855	6
494.204	6
494.554	5.99
494.903	5.98
495.252	5.99
495.601	5.98
495.95	6
496.299	5.99
496.648	5.98
496.997	5.97
497.346	5.98
497.695	6.01
498.043	6.01
498.392	6.02
498.741	6.03
499.09	6.01
499.438	6.02
499.787	6.03
500.135	6.06
500.484	6.06
500.832	6.04
501.181	6.05
501.529	6.06
501.878	6.09
502.226	6.08
502.574	6.1
502.923	6.12
503.271	6.11
503.619	6.12
503.967	6.14
504.315	6.15
504.663	6.13
505.011	6.11
505.359	6.11
505.707	6.1
506.055	6.09
506.403	6.09
506.751	6.09
507.098	6.08
507.446	6.1
507.794	6.1
508.141	6.13
508.489	6.14
508.837	6.14
509.184	6.14
509.531	6.14
509.879	6.15
510.226	6.15
510.574	6.16
510.921	6.17
511.268	6.16
511.616	6.17
511.963	6.2
512.31	6.2
512.657	6.24
513.004	6.28
513.351	6.28
513.698	6.31
514.045	6.31
514.392	6.31
514.739	6.31
515.086	6.33
515.432	6.31
515.779	6.31
516.126	6.33
516.473	6.35
516.819	6.36
517.166	6.35
517.512	6.35
517.859	6.36
518.205	6.36
518.552	6.38
518.898	6.4
519.245	6.4
519.591	6.41
519.937	6.4
520.283	6.37
520.629	6.39
520.976	6.37
521.322	6.38
521.668	6.38
522.014	6.38
522.36	6.38
522.706	6.4
523.052	6.4
523.398	6.41
523.743	6.42
524.089	6.43
524.435	6.44
524.781	6.44
525.126	6.44
525.472	6.44
525.817	6.45
526.163	6.46
526.509	6.46
526.854	6.49
527.199	6.49
527.545	6.5
527.89	6.5
528.235	6.51
528.581	6.51
528.926	6.52
529.271	6.53
529.616	6.52
529.961	6.52
530.306	6.53
530.651	6.52
530.996	6.53
531.341	6.53
531.686	6.53
532.031	6.56
532.376	6.57
532.721	6.58
533.065	6.57
533.41	6.58
533.755	6.59
534.099	6.58
534.444	6.59
534.788	6.6
535.133	6.61
535.477	6.61
535.822	6.61
536.166	6.61
536.51	6.61
536.855	6.62
537.199	6.63
537.543	6.65
537.887	6.65
538.231	6.63
538.576	6.63
538.92	6.61
539.264	6.62
539.608	6.61
539.951	6.61
540.295	6.63
540.639	6.63
540.983	6.64
541.327	6.63
541.671	6.62
542.014	6.62
542.358	6.62
542.701	6.62
543.045	6.62
543.389	6.62
543.732	6.63
544.075	6.64
544.419	6.63
544.762	6.63
545.105	6.63
545.449	6.64
545.792	6.65
546.135	6.67
546.478	6.65
546.821	6.64
547.165	6.63
547.508	6.62
547.851	6.61
548.194	6.59
548.536	6.6
548.879	6.6
549.222	6.56
549.565	6.56
549.908	6.58
550.25	6.59
550.593	6.6
550.936	6.61
551.278	6.62
551.621	6.6
551.963	6.62
552.306	6.62
552.648	6.62
552.991	6.63
553.333	6.64
553.675	6.64
554.017	6.67
554.36	6.67
554.702	6.68
555.044	6.69
555.386	6.71
555.728	6.73
556.07	6.74
556.412	6.74
556.754	6.73
557.096	6.76
557.438	6.74
557.78	6.75
558.121	6.76
558.463	6.76
558.805	6.78
559.147	6.76
559.488	6.78
559.83	6.8
560.171	6.78
560.513	6.78
560.854	6.79
561.196	6.77
561.537	6.79
561.878	6.76
562.22	6.73
562.561	6.72
562.902	6.72
563.243	6.74
563.584	6.8
563.925	6.87
564.266	6.83
564.607	6.83
564.948	6.82
565.289	6.83
565.63	6.81
565.971	6.81
566.312	6.81
566.653	6.79
566.993	6.78
567.334	6.81
567.675	6.8
568.015	6.79
568.356	6.79
568.696	6.79
569.037	6.82
569.377	6.84
569.718	6.87
570.058	6.87
570.398	6.88
570.739	6.85
571.079	6.84
571.419	6.86
571.759	6.89
572.099	6.89
572.439	6.88
572.779	6.86
573.119	6.88
573.459	6.89
573.799	6.92
574.139	6.89
574.479	6.89
574.819	6.9
575.158	6.92
575.498	6.91
575.838	6.9
576.177	6.85
576.517	6.84
576.856	6.84
577.196	6.85
577.535	6.8
577.875	6.8
578.214	6.76
578.553	6.75
578.893	6.74
579.232	6.77
579.571	6.74
579.91	6.75
580.25	6.71
580.589	6.72
580.928	6.7
581.267	6.68
581.606	6.65
581.945	6.66
582.283	6.66
582.622	6.65
582.961	6.67
583.3	6.74
583.639	6.8
583.977	6.8
584.316	6.78
584.654	6.8
584.993	6.85
585.332	6.9
585.67	6.9
586.008	6.88
586.347	6.84
586.685	6.84
587.024	6.88
587.362	6.92
587.7	6.94
588.038	6.93
588.376	7
588.715	7.03
589.053	7.07
589.391	7.1
589.729	7.12
590.067	7.1
590.404	7.07
590.742	7.08
591.08	7.05
591.418	7.06
591.756	7.05
592.093	7.03
592.431	7.02
592.769	7.04
593.106	7.08
593.444	7.04
593.781	7.07
594.119	7.05
594.456	7.04
594.793	6.99
595.131	6.97
595.468	6.95
595.805	6.96
596.143	6.91
596.48	6.9
596.817	6.92
597.154	6.97
597.491	6.97
597.828	6.94
598.165	6.95
598.502	6.95
598.839	6.97
599.176	6.99
599.512	6.96
599.849	6.97
600.186	6.91
600.523	6.99
600.859	7.02
601.196	7.05
601.532	7.06
601.869	7.1
602.205	7.1
602.542	7.13
602.878	7.09
603.215	7.1
603.551	7.11
603.887	7.09
604.223	7.07
604.56	7.07
604.896	7.09
605.232	7.1
605.568	7.1
605.904	7.09
606.24	7.1
606.576	7.11
606.912	7.11
607.248	7.14
607.583	7.12
607.919	7.1
608.255	7.07
608.591	7.07
608.926	7.06
609.262	7.09
609.597	7.09
609.933	7.11
610.268	7.14
610.604	7.15
610.939	7.16
611.275	7.18
611.61	7.19
611.945	7.19
612.281	7.21
612.616	7.22
612.951	7.23
613.286	7.2
613.621	7.21
613.956	7.19
614.291	7.19
614.626	7.23
614.961	7.17
615.296	7.16
615.631	7.15
615.966	7.15
616.3	7.13
616.635	7.15
616.97	7.12
617.304	7.06
617.639	7.02
617.973	6.98
618.308	6.94
618.642	6.94
618.977	6.93
619.311	6.89
619.646	6.87
619.98	6.91
620.314	6.98
620.648	6.99
620.983	7.01
621.317	7.03
621.651	7.01
621.985	7.11
622.319	7.17
622.653	7.17
622.987	7.19
623.321	7.23
623.655	7.22
623.988	7.31
624.322	7.36
624.656	7.41
624.99	7.45
625.323	7.49
625.657	7.49
625.99	7.54
626.324	7.55
626.657	7.53
626.991	7.55
627.324	7.51
627.658	7.51
627.991	7.5
628.324	7.51
628.657	7.54
628.991	7.49
629.324	7.46
629.657	7.47
629.99	7.47
630.323	7.42
630.656	7.46
630.989	7.44
631.322	7.43
631.655	7.38
631.987	7.36
632.32	7.34
632.653	7.37
632.986	7.3
633.318	7.31
633.651	7.39
633.984	7.34
634.316	7.34
634.649	7.36
634.981	7.41
635.313	7.43
635.646	7.41
635.978	7.44
636.31	7.43
636.643	7.43
636.975	7.42
637.307	7.43
637.639	7.35
637.971	7.3
638.303	7.29
638.635	7.33
638.967	7.33
639.299	7.36
639.631	7.32
639.963	7.34
640.295	7.33
640.626	7.28
640.958	7.31
641.29	7.29
641.621	7.25
641.953	7.17
642.285	7.1
642.616	7.07
642.948	7.11
643.279	7.12
643.61	7.13
643.942	7.16
644.273	7.17
644.604	7.24
644.936	7.3
645.267	7.31
645.598	7.25
645.929	7.27
646.26	7.28
646.591	7.3
646.922	7.3
647.253	7.38
647.584	7.34
647.915	7.3
648.245	7.39
648.576	7.4
648.907	7.51
649.238	7.54
649.568	7.52
649.899	7.44
650.229	7.49
650.56	7.49
650.89	7.52
651.221	7.57
651.551	7.53
651.882	7.56
652.212	7.58
652.542	7.6
652.872	7.6
653.203	7.59
653.533	7.57
653.863	7.57
654.193	7.54
654.523	7.59
654.853	7.62
655.183	7.57
655.513	7.52
655.843	7.54
656.172	7.54
656.502	7.61
656.832	7.7
657.162	7.69
657.491	7.67
657.821	7.67
658.15	7.66
658.48	7.67
658.809	7.64
659.139	7.64
659.468	7.64
659.798	7.63
660.127	7.61
660.456	7.63
660.785	7.68
661.115	7.69
661.444	7.64
661.773	7.63
662.102	7.65
662.431	7.69
662.76	7.68
663.089	7.67
663.418	7.66
663.747	7.63
664.076	7.62
664.404	7.71
664.733	7.76
665.062	7.78
665.39	7.76
665.719	7.77
666.048	7.82
666.376	7.85
666.705	7.92
667.033	7.96
667.362	8.04
667.69	7.95
668.018	7.97
668.347	7.97
668.675	8.01
669.003	7.96
669.331	8.06
669.659	8
669.987	8
670.315	7.98
670.643	8
670.971	7.95
671.299	7.91
671.627	7.82
671.955	7.86
672.283	7.89
672.61	7.87
672.938	7.9
673.266	7.98
673.593	7.99
673.921	7.97
674.249	7.92
674.576	7.96
674.904	7.92
675.231	7.93
675.558	7.84
675.886	7.91
676.213	7.86
676.54	7.87
676.867	7.95
677.195	7.97
677.522	7.96
677.849	8.04
678.176	7.99
678.503	8.02
678.83	7.94
679.157	7.84
679.484	7.88
679.81	7.88
680.137	7.82
