Data from BA57663_Reflection_00006.txt Node
Date: Mon Nov 18 15:43:53 EST 2019
User: vgr7
Spectrometer: USB2G7710
Scans to average: 3
Trigger mode: 4
Integration Time (sec): 2.000000E-2
Electric dark correction enabled: true
Boxcar width: 10
XAxis mode: Wavelengths
Number of Pixels in Spectrum: 2048
>>>>>Begin Spectral Data<<<<<
177.721	45.69
178.105	-9.83
178.488	-80.44
178.871	1.79
179.254	130.64
179.636	157.52
180.019	136.01
180.402	60.71
180.785	16.92
181.168	36.45
181.55	38.43
181.933	92.9
182.316	119.81
182.698	89.66
183.081	124.84
183.463	197.65
183.846	179.33
184.228	217.07
184.611	176.38
184.993	186.61
185.376	218.41
185.758	187.85
186.14	175.26
186.522	172.16
186.904	174.06
187.287	198.51
187.669	242.41
188.051	193.36
188.433	194.97
188.815	221.95
189.197	228.52
189.579	346.96
189.961	241.76
190.342	279.71
190.724	3888.73
191.106	1882.61
191.488	780.39
191.869	5515.09
192.251	1970.23
192.633	-2477.98
193.014	-932.57
193.396	783.28
193.777	569.55
194.159	942.62
194.54	1018.09
194.922	-1988.76
195.303	-1100.63
195.684	-328900
196.065	-432.13
196.447	-345.15
196.828	-267.33
197.209	-132.48
197.59	-238.04
197.971	-202.72
198.352	-180.46
198.733	-1020.14
199.114	-1662.59
199.495	-396.22
199.876	-320.04
200.257	-237.19
200.638	-148.32
201.018	-97.66
201.399	-46.01
201.78	1.86
202.16	-15.56
202.541	-25.3
202.922	8.25
203.302	46.84
203.683	13.11
204.063	-216.64
204.444	-387.74
204.824	-890.52
205.204	-475.9
205.585	-254.2
205.965	-219.08
206.345	-364.36
206.725	-164.67
207.106	-217.25
207.486	-488.62
207.866	1020.7
208.246	527.44
208.626	346.32
209.006	474.23
209.386	450.24
209.766	269.07
210.145	205.44
210.525	295.42
210.905	206.61
211.285	432.45
211.664	1208.6
212.044	492.94
212.424	2874.65
212.803	5197.56
213.183	551.7
213.562	599.05
213.942	12056.52
214.321	-1300
214.701	-630.97
215.08	-1442.37
215.459	-1717.81
215.838	-378.09
216.218	-346.37
216.597	-149.3
216.976	-176.51
217.355	-294.22
217.734	-276.5
218.113	-170.97
218.492	-260.26
218.871	-194.19
219.25	-258.99
219.629	-300.82
220.008	-270.34
220.387	-233.73
220.766	-224.82
221.144	-717.86
221.523	-468.27
221.902	-766.93
222.28	-895.32
222.659	-1274.33
223.037	-451.96
223.416	-471.7
223.794	-467.88
224.173	-220.22
224.551	-131.99
224.929	-88.1
225.308	-51.62
225.686	-42.47
226.064	-47.88
226.442	-39.32
226.821	-33.45
227.199	-21.67
227.577	-20.68
227.955	-18.74
228.333	-17.73
228.711	-16.56
229.089	-8.05
229.467	-8.76
229.845	-9.99
230.222	-10.95
230.6	-12.48
230.978	-12.07
231.356	-8.67
231.733	-6.04
232.111	-3.93
232.488	-0.86
232.866	-1.25
233.243	-2.63
233.621	-1.92
233.998	0.77
234.376	-1.12
234.753	-2.64
235.13	-3.52
235.508	-3.07
235.885	-2.73
236.262	-2.09
236.639	-1.2
237.016	-3.41
237.393	-1.69
237.77	-1.14
238.147	0.67
238.524	0.62
238.901	1.6
239.278	1.8
239.655	2.37
240.032	2.54
240.409	2.24
240.785	2.14
241.162	2.69
241.539	2.86
241.915	2.69
242.292	2.75
242.668	3.03
243.045	3
243.421	3.25
243.798	3.24
244.174	3.25
244.551	3.31
244.927	3.51
245.303	3.79
245.679	4.21
246.056	4.02
246.432	3.94
246.808	4.02
247.184	4
247.56	3.76
247.936	3.74
248.312	3.69
248.688	3.84
249.064	3.6
249.44	3.3
249.815	3.48
250.191	3.64
250.567	3.48
250.943	3.38
251.318	3.39
251.694	3.57
252.069	3.43
252.445	3.2
252.82	3.28
253.196	2.94
253.571	2.68
253.947	2.73
254.322	2.91
254.697	2.88
255.073	2.7
255.448	2.9
255.823	2.88
256.198	2.96
256.573	3.05
256.948	3.37
257.323	3.72
257.698	3.71
258.073	3.88
258.448	4.16
258.823	4.3
259.198	4.17
259.573	4.04
259.948	4.03
260.322	4.02
260.697	4
261.072	3.96
261.446	3.95
261.821	3.86
262.195	3.92
262.57	3.8
262.944	3.86
263.319	3.78
263.693	3.72
264.067	3.78
264.442	3.95
264.816	3.72
265.19	3.64
265.564	3.65
265.938	3.51
266.313	3.37
266.687	3.27
267.061	3.25
267.435	3.34
267.809	3.36
268.183	3.43
268.556	3.43
268.93	3.63
269.304	3.72
269.678	3.97
270.051	3.95
270.425	4.13
270.799	4.13
271.172	4.24
271.546	4.36
271.919	4.32
272.293	4.12
272.666	4.2
273.04	4.24
273.413	4.2
273.787	4.17
274.16	4.11
274.533	4.09
274.906	4.06
275.279	3.93
275.653	3.98
276.026	3.93
276.399	4.01
276.772	3.93
277.145	3.84
277.518	3.73
277.891	3.74
278.263	3.47
278.636	3.56
279.009	3.53
279.382	3.64
279.755	3.83
280.127	3.96
280.5	4.05
280.872	4.1
281.245	4.15
281.617	4.17
281.99	4.28
282.362	4.33
282.735	4.33
283.107	4.46
283.479	4.48
283.852	4.42
284.224	4.33
284.596	4.36
284.968	4.47
285.34	4.52
285.713	4.49
286.085	4.74
286.457	4.63
286.829	4.68
287.201	4.6
287.572	4.44
287.944	4.35
288.316	4.31
288.688	4.22
289.06	4.18
289.431	4.26
289.803	4.29
290.175	4.34
290.546	4.45
290.918	4.45
291.289	4.54
291.661	4.67
292.032	4.64
292.403	4.55
292.775	4.58
293.146	4.43
293.517	4.39
293.889	4.35
294.26	4.41
294.631	4.44
295.002	4.52
295.373	4.54
295.744	4.53
296.115	4.55
296.486	4.49
296.857	4.48
297.228	4.47
297.599	4.34
297.97	4.39
298.34	4.4
298.711	4.4
299.082	4.35
299.452	4.41
299.823	4.48
300.194	4.51
300.564	4.41
300.935	4.47
301.305	4.5
301.676	4.47
302.046	4.48
302.416	4.44
302.787	4.38
303.157	4.2
303.527	4.32
303.897	4.39
304.267	4.52
304.637	4.57
305.008	4.64
305.378	4.68
305.748	4.64
306.117	4.52
306.487	4.5
306.857	4.59
307.227	4.57
307.597	4.62
307.967	4.63
308.336	4.55
308.706	4.54
309.076	4.68
309.445	4.69
309.815	4.63
310.184	4.51
310.554	4.6
310.923	4.66
311.293	4.55
311.662	4.49
312.031	4.44
312.401	4.4
312.77	4.35
313.139	4.42
313.508	4.49
313.877	4.6
314.246	4.69
314.616	4.69
314.985	4.6
315.353	4.63
315.722	4.58
316.091	4.68
316.46	4.69
316.829	4.55
317.198	4.49
317.567	4.52
317.935	4.52
318.304	4.46
318.672	4.48
319.041	4.58
319.41	4.58
319.778	4.57
320.147	4.58
320.515	4.4
320.883	4.22
321.252	4.25
321.62	4.17
321.988	4.14
322.357	3.99
322.725	3.98
323.093	3.92
323.461	3.94
323.829	3.85
324.197	4.01
324.565	3.92
324.933	3.92
325.301	4.04
325.669	4.08
326.037	4.02
326.405	4.04
326.772	4.03
327.14	4.09
327.508	4.08
327.875	4.05
328.243	4.21
328.61	4.31
328.978	4.23
329.346	4.27
329.713	4.25
330.08	4.17
330.448	4.26
330.815	4.13
331.182	4.1
331.55	4.17
331.917	4.02
332.284	4.13
332.651	4.13
333.018	4
333.385	3.96
333.752	4.05
334.119	4.11
334.486	4
334.853	3.89
335.22	3.96
335.587	3.97
335.954	3.89
336.32	3.88
336.687	3.78
337.054	3.67
337.42	3.65
337.787	3.73
338.153	3.72
338.52	3.81
338.886	3.85
339.253	3.87
339.619	3.86
339.986	3.84
340.352	3.87
340.718	3.88
341.084	3.9
341.451	3.89
341.817	3.88
342.183	3.85
342.549	3.85
342.915	3.88
343.281	3.86
343.647	3.8
344.013	3.83
344.379	3.9
344.745	4.02
345.11	3.98
345.476	4.06
345.842	4.05
346.208	4.06
346.573	4.13
346.939	4.16
347.304	4.2
347.67	4.15
348.035	4.13
348.401	4.13
348.766	4.17
349.132	4.08
349.497	4.02
349.862	4.14
350.228	4.12
350.593	4.16
350.958	4.16
351.323	4.2
351.688	4.15
352.053	4.12
352.418	4.15
352.783	4.2
353.148	4.11
353.513	4.15
353.878	4.12
354.243	4.14
354.608	4.14
354.972	4.16
355.337	4.15
355.702	4.2
356.066	4.28
356.431	4.28
356.795	4.35
357.16	4.43
357.524	4.33
357.889	4.38
358.253	4.28
358.618	4.33
358.982	4.32
359.346	4.32
359.71	4.33
360.075	4.32
360.439	4.33
360.803	4.33
361.167	4.23
361.531	4.21
361.895	4.09
362.259	4.06
362.623	4.04
362.987	4.04
363.351	4.02
363.714	3.94
364.078	3.91
364.442	3.82
364.806	3.81
365.169	3.87
365.533	3.85
365.896	3.85
366.26	3.79
366.623	3.79
366.987	3.8
367.35	3.84
367.714	3.76
368.077	3.71
368.44	3.67
368.803	3.66
369.167	3.67
369.53	3.69
369.893	3.71
370.256	3.71
370.619	3.75
370.982	3.75
371.345	3.75
371.708	3.84
372.071	3.83
372.434	3.8
372.797	3.8
373.159	3.83
373.522	3.87
373.885	3.9
374.247	3.92
374.61	3.95
374.973	3.86
375.335	3.9
375.698	3.94
376.06	3.96
376.423	3.98
376.785	3.98
377.147	4.04
377.51	3.99
377.872	3.96
378.234	3.93
378.596	3.92
378.958	3.91
379.321	3.85
379.683	3.89
380.045	3.89
380.407	3.92
380.769	3.85
381.13	3.86
381.492	3.89
381.854	3.94
382.216	3.91
382.578	3.96
382.939	3.91
383.301	3.87
383.663	3.87
384.024	3.88
384.386	3.91
384.747	3.91
385.109	3.91
385.47	3.93
385.832	3.94
386.193	3.95
386.554	3.98
386.916	3.97
387.277	3.97
387.638	4.01
387.999	3.93
388.36	3.95
388.721	3.94
389.082	3.91
389.443	3.86
389.804	3.87
390.165	3.85
390.526	3.92
390.887	3.94
391.248	3.99
391.609	4.01
391.969	3.97
392.33	4.01
392.691	4.05
393.051	4.01
393.412	4.04
393.772	4.01
394.133	4.01
394.493	4.01
394.854	4
395.214	3.98
395.574	4.03
395.935	4.03
396.295	4.05
396.655	4.04
397.015	4.05
397.376	4.04
397.736	4.05
398.096	4.02
398.456	4.03
398.816	3.98
399.176	3.93
399.535	3.93
399.895	3.87
400.255	3.87
400.615	3.91
400.975	3.87
401.334	3.87
401.694	3.89
402.054	3.89
402.413	3.89
402.773	3.88
403.132	3.89
403.492	3.87
403.851	3.86
404.211	3.85
404.57	3.89
404.929	3.92
405.288	3.93
405.648	3.93
406.007	3.94
406.366	3.95
406.725	4.01
407.084	4.02
407.443	4.01
407.802	4.04
408.161	3.99
408.52	4.01
408.879	4.02
409.238	4.03
409.596	4.06
409.955	4.05
410.314	4.09
410.673	4.05
411.031	4.06
411.39	4.04
411.748	4.05
412.107	4.04
412.465	4.01
412.824	4.01
413.182	3.98
413.54	3.96
413.899	4.01
414.257	3.97
414.615	3.95
414.974	3.97
415.332	3.93
415.69	3.96
416.048	3.94
416.406	3.95
416.764	3.92
417.122	3.91
417.48	3.91
417.838	3.91
418.195	3.93
418.553	3.94
418.911	3.94
419.269	3.93
419.626	3.94
419.984	3.96
420.342	3.96
420.699	3.98
421.057	3.99
421.414	3.98
421.772	3.98
422.129	3.99
422.486	3.99
422.844	4
423.201	4
423.558	4
423.915	4
424.273	4
424.63	3.99
424.987	3.99
425.344	3.99
425.701	3.98
426.058	3.96
426.415	3.97
426.772	3.97
427.128	3.95
427.485	3.94
427.842	3.95
428.199	3.95
428.555	3.94
428.912	3.93
429.269	3.95
429.625	3.95
429.982	3.96
430.338	3.97
430.695	3.98
431.051	3.98
431.407	3.99
431.764	4.02
432.12	4.03
432.476	4.04
432.832	4.05
433.189	4.08
433.545	4.07
433.901	4.09
434.257	4.1
434.613	4.1
434.969	4.12
435.325	4.11
435.681	4.1
436.036	4.11
436.392	4.1
436.748	4.07
437.104	4.06
437.459	4.05
437.815	4.06
438.171	4.06
438.526	4.06
438.882	4.04
439.237	4.04
439.593	4.03
439.948	4.01
440.304	3.99
440.659	3.99
441.014	4.01
441.369	3.97
441.725	3.96
442.08	3.96
442.435	3.96
442.79	3.97
443.145	3.97
443.5	3.97
443.855	3.97
444.21	3.99
444.565	3.99
444.92	3.99
445.275	3.99
445.629	3.98
445.984	3.98
446.339	3.98
446.693	3.97
447.048	3.97
447.403	3.97
447.757	3.97
448.112	3.97
448.466	3.94
448.82	3.95
449.175	3.96
449.529	3.96
449.883	3.94
450.238	3.92
450.592	3.94
450.946	3.91
451.3	3.93
451.654	3.9
452.008	3.9
452.362	3.9
452.716	3.88
453.07	3.86
453.424	3.88
453.778	3.88
454.132	3.88
454.486	3.89
454.839	3.89
455.193	3.89
455.547	3.88
455.9	3.91
456.254	3.92
456.607	3.92
456.961	3.91
457.314	3.92
457.668	3.91
458.021	3.89
458.375	3.9
458.728	3.91
459.081	3.93
459.434	3.92
459.787	3.93
460.141	3.94
460.494	3.95
460.847	3.94
461.2	3.94
461.553	3.95
461.906	3.95
462.259	3.97
462.611	4
462.964	4.02
463.317	4.01
463.67	4.03
464.022	4.03
464.375	4.03
464.728	4.04
465.08	4.05
465.433	4.05
465.785	4.04
466.138	4.03
466.49	4.03
466.843	4.05
467.195	4.05
467.547	4.05
467.899	4.05
468.252	4.06
468.604	4.06
468.956	4.07
469.308	4.06
469.66	4.04
470.012	4.02
470.364	4.02
470.716	4.02
471.068	4.01
471.42	4.01
471.772	4.04
472.123	4.03
472.475	4.02
472.827	4.03
473.178	4.05
473.53	4.03
473.882	4.03
474.233	4.03
474.585	4.01
474.936	4.01
475.288	4
475.639	4.01
475.99	4.01
476.342	4
476.693	4
477.044	4.01
477.395	4.01
477.746	4.01
478.097	4
478.448	3.99
478.8	4.01
479.15	3.99
479.501	4.02
479.852	4.03
480.203	4.04
480.554	4.06
480.905	4.08
481.255	4.09
481.606	4.11
481.957	4.11
482.307	4.12
482.658	4.12
483.009	4.12
483.359	4.14
483.709	4.14
484.06	4.14
484.41	4.14
484.761	4.14
485.111	4.14
485.461	4.15
485.811	4.16
486.162	4.16
486.512	4.16
486.862	4.17
487.212	4.16
487.562	4.17
487.912	4.17
488.262	4.16
488.612	4.16
488.961	4.16
489.311	4.16
489.661	4.16
490.011	4.17
490.36	4.16
490.71	4.15
491.06	4.16
491.409	4.18
491.759	4.17
492.108	4.17
492.458	4.17
492.807	4.17
493.157	4.17
493.506	4.17
493.855	4.18
494.204	4.16
494.554	4.16
494.903	4.14
495.252	4.14
495.601	4.15
495.95	4.16
496.299	4.15
496.648	4.15
496.997	4.15
497.346	4.15
497.695	4.16
498.043	4.14
498.392	4.14
498.741	4.13
499.09	4.13
499.438	4.15
499.787	4.15
500.135	4.16
500.484	4.18
500.832	4.18
501.181	4.18
501.529	4.19
501.878	4.21
502.226	4.21
502.574	4.21
502.923	4.22
503.271	4.2
503.619	4.19
503.967	4.2
504.315	4.17
504.663	4.16
505.011	4.15
505.359	4.16
505.707	4.16
506.055	4.17
506.403	4.18
506.751	4.17
507.098	4.16
507.446	4.19
507.794	4.19
508.141	4.2
508.489	4.19
508.837	4.21
509.184	4.2
509.531	4.2
509.879	4.22
510.226	4.23
510.574	4.23
510.921	4.25
511.268	4.24
511.616	4.27
511.963	4.27
512.31	4.26
512.657	4.27
513.004	4.29
513.351	4.33
513.698	4.35
514.045	4.34
514.392	4.36
514.739	4.36
515.086	4.38
515.432	4.36
515.779	4.36
516.126	4.37
516.473	4.37
516.819	4.38
517.166	4.37
517.512	4.37
517.859	4.39
518.205	4.37
518.552	4.4
518.898	4.38
519.245	4.39
519.591	4.38
519.937	4.37
520.283	4.37
520.629	4.36
520.976	4.36
521.322	4.38
521.668	4.37
522.014	4.36
522.36	4.35
522.706	4.35
523.052	4.37
523.398	4.38
523.743	4.4
524.089	4.43
524.435	4.43
524.781	4.41
525.126	4.42
525.472	4.45
525.817	4.45
526.163	4.46
526.509	4.48
526.854	4.49
527.199	4.52
527.545	4.52
527.89	4.53
528.235	4.53
528.581	4.52
528.926	4.53
529.271	4.53
529.616	4.53
529.961	4.52
530.306	4.52
530.651	4.53
530.996	4.54
531.341	4.52
531.686	4.53
532.031	4.54
532.376	4.54
532.721	4.54
533.065	4.53
533.41	4.53
533.755	4.53
534.099	4.54
534.444	4.52
534.788	4.52
535.133	4.51
535.477	4.5
535.822	4.5
536.166	4.5
536.51	4.5
536.855	4.5
537.199	4.51
537.543	4.52
537.887	4.52
538.231	4.52
538.576	4.53
538.92	4.54
539.264	4.55
539.608	4.55
539.951	4.56
540.295	4.58
540.639	4.59
540.983	4.58
541.327	4.58
541.671	4.58
542.014	4.59
542.358	4.6
542.701	4.61
543.045	4.63
543.389	4.64
543.732	4.64
544.075	4.64
544.419	4.66
544.762	4.65
545.105	4.64
545.449	4.65
545.792	4.65
546.135	4.63
546.478	4.64
546.821	4.65
547.165	4.62
547.508	4.62
547.851	4.61
548.194	4.61
548.536	4.6
548.879	4.59
549.222	4.58
549.565	4.59
549.908	4.58
550.25	4.54
550.593	4.53
550.936	4.5
551.278	4.51
551.621	4.5
551.963	4.51
552.306	4.5
552.648	4.49
552.991	4.5
553.333	4.51
553.675	4.49
554.017	4.48
554.36	4.49
554.702	4.48
555.044	4.45
555.386	4.46
555.728	4.48
556.07	4.49
556.412	4.43
556.754	4.43
557.096	4.46
557.438	4.49
557.78	4.52
558.121	4.57
558.463	4.58
558.805	4.57
559.147	4.53
559.488	4.51
559.83	4.49
560.171	4.49
560.513	4.51
560.854	4.51
561.196	4.53
561.537	4.55
561.878	4.55
562.22	4.59
562.561	4.56
562.902	4.56
563.243	4.58
563.584	4.62
563.925	4.59
564.266	4.57
564.607	4.56
564.948	4.55
565.289	4.55
565.63	4.53
565.971	4.53
566.312	4.55
566.653	4.57
566.993	4.61
567.334	4.6
567.675	4.59
568.015	4.61
568.356	4.61
568.696	4.6
569.037	4.6
569.377	4.6
569.718	4.65
570.058	4.66
570.398	4.64
570.739	4.62
571.079	4.66
571.419	4.67
571.759	4.68
572.099	4.65
572.439	4.65
572.779	4.65
573.119	4.65
573.459	4.68
573.799	4.69
574.139	4.69
574.479	4.68
574.819	4.67
575.158	4.66
575.498	4.65
575.838	4.66
576.177	4.67
576.517	4.68
576.856	4.66
577.196	4.65
577.535	4.64
577.875	4.67
578.214	4.62
578.553	4.63
578.893	4.65
579.232	4.65
579.571	4.64
579.91	4.64
580.25	4.65
580.589	4.62
580.928	4.64
581.267	4.61
581.606	4.62
581.945	4.62
582.283	4.61
582.622	4.59
582.961	4.56
583.3	4.55
583.639	4.59
583.977	4.57
584.316	4.57
584.654	4.59
584.993	4.54
585.332	4.59
585.67	4.56
586.008	4.53
586.347	4.53
586.685	4.53
587.024	4.57
587.362	4.56
587.7	4.57
588.038	4.53
588.376	4.53
588.715	4.52
589.053	4.56
589.391	4.59
589.729	4.6
590.067	4.56
590.404	4.57
590.742	4.56
591.08	4.57
591.418	4.61
591.756	4.6
592.093	4.63
592.431	4.61
592.769	4.62
593.106	4.64
593.444	4.63
593.781	4.62
594.119	4.6
594.456	4.6
594.793	4.59
595.131	4.59
595.468	4.64
595.805	4.63
596.143	4.57
596.48	4.56
596.817	4.55
597.154	4.59
597.491	4.59
597.828	4.56
598.165	4.53
598.502	4.48
598.839	4.46
599.176	4.48
599.512	4.46
599.849	4.47
600.186	4.46
600.523	4.52
600.859	4.56
601.196	4.59
601.532	4.6
601.869	4.63
602.205	4.64
602.542	4.61
602.878	4.62
603.215	4.68
603.551	4.68
603.887	4.72
604.223	4.71
604.56	4.73
604.896	4.75
605.232	4.79
605.568	4.8
605.904	4.81
606.24	4.83
606.576	4.85
606.912	4.84
607.248	4.82
607.583	4.81
607.919	4.77
608.255	4.77
608.591	4.77
608.926	4.76
609.262	4.82
609.597	4.81
609.933	4.81
610.268	4.77
610.604	4.79
610.939	4.79
611.275	4.82
611.61	4.8
611.945	4.8
612.281	4.85
612.616	4.82
612.951	4.85
613.286	4.84
613.621	4.84
613.956	4.85
614.291	4.88
614.626	4.88
614.961	4.91
615.296	4.86
615.631	4.9
615.966	4.89
616.3	4.84
616.635	4.87
616.97	4.85
617.304	4.88
617.639	4.85
617.973	4.8
618.308	4.79
618.642	4.81
618.977	4.77
619.311	4.72
619.646	4.78
619.98	4.74
620.314	4.74
620.648	4.77
620.983	4.81
621.317	4.83
621.651	4.82
621.985	4.84
622.319	4.85
622.653	4.8
622.987	4.79
623.321	4.79
623.655	4.79
623.988	4.84
624.322	4.81
624.656	4.87
624.99	4.91
625.323	4.87
625.657	4.89
625.99	4.9
626.324	4.87
626.657	4.91
626.991	4.9
627.324	4.92
627.658	4.9
627.991	4.91
628.324	4.88
628.657	4.89
628.991	4.84
629.324	4.9
629.657	4.92
629.99	4.96
630.323	4.94
630.656	4.95
630.989	4.94
631.322	4.99
631.655	4.94
631.987	4.97
632.32	5.03
632.653	5.02
632.986	5.01
633.318	5.09
633.651	5.03
633.984	5.07
634.316	5.05
634.649	5.04
634.981	5.01
635.313	4.99
635.646	4.98
635.978	4.95
636.31	4.9
636.643	4.88
636.975	4.85
637.307	4.83
637.639	4.83
637.971	4.79
638.303	4.73
638.635	4.71
638.967	4.7
639.299	4.7
639.631	4.66
639.963	4.67
640.295	4.66
640.626	4.65
640.958	4.68
641.29	4.63
641.621	4.63
641.953	4.59
642.285	4.59
642.616	4.61
642.948	4.69
643.279	4.71
643.61	4.73
643.942	4.75
644.273	4.78
644.604	4.77
644.936	4.8
645.267	4.83
645.598	4.79
645.929	4.73
646.26	4.74
646.591	4.75
646.922	4.72
647.253	4.73
647.584	4.71
647.915	4.67
648.245	4.72
648.576	4.76
648.907	4.77
649.238	4.76
649.568	4.77
649.899	4.79
650.229	4.8
650.56	4.81
650.89	4.82
651.221	4.84
651.551	4.83
651.882	4.84
652.212	4.82
652.542	4.91
652.872	4.91
653.203	4.83
653.533	4.91
653.863	4.92
654.193	4.87
654.523	4.89
654.853	4.91
655.183	4.88
655.513	4.84
655.843	4.87
656.172	4.93
656.502	4.92
656.832	4.86
657.162	4.89
657.491	4.89
657.821	4.87
658.15	4.8
658.48	4.83
658.809	4.81
659.139	4.84
659.468	4.86
659.798	4.87
660.127	4.93
660.456	4.93
660.785	4.97
661.115	4.95
661.444	4.99
661.773	5.04
662.102	5.03
662.431	5.09
662.76	5.1
663.089	5.04
663.418	5.03
663.747	5
664.076	4.98
664.404	4.91
664.733	4.98
665.062	5.05
665.39	5.02
665.719	5.01
666.048	5.05
666.376	4.96
666.705	4.98
667.033	4.93
667.362	4.89
667.69	4.89
668.018	5.02
668.347	4.97
668.675	4.9
669.003	4.94
669.331	4.9
669.659	4.9
669.987	4.92
670.315	4.96
670.643	5.05
670.971	5.02
671.299	5.1
671.627	5.05
671.955	5.07
672.283	5.05
672.61	5.07
672.938	5.06
673.266	5.13
673.593	5.16
673.921	5.17
674.249	5.14
674.576	5.12
674.904	5.02
675.231	4.95
