Data from BA57663_Reflection_00009.txt Node
Date: Mon Nov 18 15:44:04 EST 2019
User: vgr7
Spectrometer: USB2G7710
Scans to average: 3
Trigger mode: 4
Integration Time (sec): 2.000000E-2
Electric dark correction enabled: true
Boxcar width: 10
XAxis mode: Wavelengths
Number of Pixels in Spectrum: 2048
>>>>>Begin Spectral Data<<<<<
177.721	-273.8
178.105	65.32
178.488	215.25
178.871	300.89
179.254	91.64
179.636	179.65
180.019	-174.24
180.402	110.71
180.785	51.58
181.168	24.75
181.55	18.16
181.933	62.99
182.316	51.78
182.698	34.98
183.081	40.63
183.463	63.65
183.846	60.05
184.228	50.95
184.611	45.77
184.993	24.15
185.376	20.02
185.758	54.23
186.14	39.16
186.522	47.56
186.904	71.45
187.287	52.86
187.669	17.66
188.051	28.35
188.433	3.31
188.815	-26.93
189.197	-13.23
189.579	-33.6
189.961	-25.08
190.342	14.88
190.724	987.32
191.106	416.77
191.488	20.1
191.869	43.4
192.251	214.5
192.633	-863.3
193.014	-457
193.396	566.28
193.777	294.5
194.159	542.62
194.54	622.18
194.922	-627.81
195.303	-172.73
195.684	-158900
196.065	-231.14
196.447	-221.56
196.828	-227.78
197.209	-131.09
197.59	-205.75
197.971	-168.48
198.352	-118.46
198.733	-589.05
199.114	-1346.04
199.495	-512.09
199.876	-392.54
200.257	-251.66
200.638	-177.85
201.018	-113.24
201.399	-63.38
201.78	-32.1
202.16	-56.88
202.541	-120.7
202.922	-156.75
203.302	-282.15
203.683	-310.9
204.063	-363.92
204.444	-496.73
204.824	-909.48
205.204	-557.83
205.585	-399.18
205.965	-289.31
206.345	-411.88
206.725	-248.5
207.106	-243.79
207.486	-431.73
207.866	853.3
208.246	463.82
208.626	161.83
209.006	236.2
209.386	243.41
209.766	164.05
210.145	133.84
210.525	166.23
210.905	101.79
211.285	119.87
211.664	385.07
212.044	135.29
212.424	564.79
212.803	173.17
213.183	-17.49
213.562	3.23
213.942	-2117.39
214.321	348.78
214.701	126.55
215.08	150.85
215.459	160.73
215.838	15.29
216.218	66.29
216.597	17.28
216.976	43.4
217.355	138.15
217.734	86.12
218.113	94.57
218.492	102.47
218.871	71.28
219.25	40.04
219.629	38.78
220.008	34.65
220.387	-26.26
220.766	-24.44
221.144	-188.97
221.523	-176.98
221.902	-399.02
222.28	-497.19
222.659	-750.27
223.037	-322.63
223.416	-181.07
223.794	-114.6
224.173	-49.35
224.551	-20.91
224.929	-25.32
225.308	-16.21
225.686	-16.27
226.064	-18.04
226.442	-11.48
226.821	-7.11
227.199	-6.84
227.577	-9.51
227.955	-9.5
228.333	-6.46
228.711	-3.04
229.089	2.43
229.467	2.93
229.845	0.06
230.222	1.69
230.6	-0.4
230.978	0.12
231.356	-0.31
231.733	0.37
232.111	1.49
232.488	2.53
232.866	2.79
233.243	1.9
233.621	2.67
233.998	2.23
234.376	1.51
234.753	-0.08
235.13	0.77
235.508	1.32
235.885	0.5
236.262	-0.3
236.639	-1.44
237.016	-2.44
237.393	-0.81
237.77	0.57
238.147	-0.31
238.524	-0.82
238.901	-0.11
239.278	-0.57
239.655	-0.4
240.032	-0.36
240.409	-1.07
240.785	-0.08
241.162	0.34
241.539	0.95
241.915	1.31
242.292	1.29
242.668	1.44
243.045	1.78
243.421	1.67
243.798	1.65
244.174	1.69
244.551	1.61
244.927	1.7
245.303	1.39
245.679	1.44
246.056	1.32
246.432	1.62
246.808	1.68
247.184	1.4
247.56	1.27
247.936	1.11
248.312	1.17
248.688	1.13
249.064	1.08
249.44	0.96
249.815	1
250.191	1.18
250.567	1.18
250.943	0.91
251.318	1.11
251.694	1.11
252.069	1.15
252.445	1.18
252.82	1.11
253.196	1.31
253.571	1.21
253.947	1.42
254.322	1.48
254.697	1.29
255.073	1.56
255.448	1.39
255.823	1.58
256.198	1.76
256.573	1.44
256.948	1.42
257.323	1.49
257.698	1.23
258.073	1.14
258.448	1.13
258.823	1.23
259.198	1.18
259.573	1.3
259.948	1.26
260.322	1.29
260.697	1.29
261.072	1.21
261.446	1.3
261.821	1.35
262.195	1.24
262.57	1.3
262.944	1.3
263.319	1.54
263.693	1.44
264.067	1.41
264.442	1.52
264.816	1.56
265.19	1.53
265.564	1.72
265.938	1.65
266.313	1.59
266.687	1.55
267.061	1.68
267.435	1.61
267.809	1.51
268.183	1.55
268.556	1.5
268.93	1.53
269.304	1.53
269.678	1.62
270.051	1.5
270.425	1.61
270.799	1.69
271.172	1.75
271.546	1.86
271.919	1.79
272.293	1.86
272.666	1.85
273.04	2.03
273.413	1.97
273.787	1.88
274.16	1.95
274.533	2.01
274.906	1.74
275.279	1.69
275.653	1.71
276.026	1.71
276.399	1.81
276.772	1.94
277.145	1.9
277.518	1.81
277.891	2.06
278.263	1.94
278.636	1.86
279.009	1.81
279.382	1.91
279.755	1.93
280.127	2.08
280.5	2.14
280.872	2.07
281.245	2.13
281.617	2.22
281.99	2.42
282.362	2.35
282.735	2.42
283.107	2.47
283.479	2.54
283.852	2.53
284.224	2.51
284.596	2.46
284.968	2.47
285.34	2.6
285.713	2.5
286.085	2.54
286.457	2.59
286.829	2.49
287.201	2.43
287.572	2.41
287.944	2.28
288.316	2.29
288.688	2.21
289.06	2.18
289.431	2.26
289.803	2.06
290.175	2.15
290.546	2.31
290.918	2.37
291.289	2.43
291.661	2.41
292.032	2.57
292.403	2.68
292.775	2.72
293.146	2.59
293.517	2.61
293.889	2.64
294.26	2.74
294.631	2.89
295.002	2.86
295.373	2.95
295.744	2.98
296.115	3.03
296.486	3.13
296.857	3.15
297.228	3.24
297.599	3.33
297.97	3.28
298.34	3.25
298.711	3.14
299.082	3.14
299.452	3.2
299.823	3.11
300.194	3.01
300.564	3.03
300.935	3.12
301.305	3.23
301.676	3.22
302.046	3.28
302.416	3.36
302.787	3.39
303.157	3.41
303.527	3.51
303.897	3.43
304.267	3.47
304.637	3.62
305.008	3.63
305.378	3.74
305.748	3.84
306.117	3.83
306.487	3.99
306.857	4.09
307.227	4.2
307.597	4.28
307.967	4.43
308.336	4.5
308.706	4.57
309.076	4.55
309.445	4.72
309.815	4.71
310.184	4.69
310.554	4.79
310.923	4.87
311.293	4.91
311.662	5
312.031	5.02
312.401	4.95
312.77	4.91
313.139	4.95
313.508	5.03
313.877	5.13
314.246	5.23
314.616	5.33
314.985	5.25
315.353	5.35
315.722	5.46
316.091	5.49
316.46	5.52
316.829	5.62
317.198	5.58
317.567	5.57
317.935	5.6
318.304	5.68
318.672	5.69
319.041	5.77
319.41	5.73
319.778	5.77
320.147	5.84
320.515	5.85
320.883	5.96
321.252	6.09
321.62	6.11
321.988	6.12
322.357	6.06
322.725	6.12
323.093	6.14
323.461	6.09
323.829	6.19
324.197	6.32
324.565	6.42
324.933	6.53
325.301	6.58
325.669	6.59
326.037	6.64
326.405	6.73
326.772	6.82
327.14	7.06
327.508	7.05
327.875	7.01
328.243	7.12
328.61	7.05
328.978	6.92
329.346	7.07
329.713	7.04
330.08	7.13
330.448	7.2
330.815	7.23
331.182	7.41
331.55	7.33
331.917	7.27
332.284	7.37
332.651	7.31
333.018	7.37
333.385	7.39
333.752	7.46
334.119	7.56
334.486	7.5
334.853	7.42
335.22	7.41
335.587	7.6
335.954	7.65
336.32	7.7
336.687	7.86
337.054	7.86
337.42	7.95
337.787	7.91
338.153	8.01
338.52	8.07
338.886	7.93
339.253	7.9
339.619	7.97
339.986	7.94
340.352	7.98
340.718	7.93
341.084	8.03
341.451	8.09
341.817	8.03
342.183	8
342.549	8.02
342.915	8.19
343.281	8.21
343.647	8.15
344.013	8.16
344.379	8.14
344.745	8.16
345.11	8.19
345.476	8.19
345.842	8.15
346.208	8.15
346.573	8.21
346.939	8.36
347.304	8.33
347.67	8.26
348.035	8.3
348.401	8.47
348.766	8.45
349.132	8.39
349.497	8.36
349.862	8.5
350.228	8.58
350.593	8.6
350.958	8.54
351.323	8.57
351.688	8.56
352.053	8.57
352.418	8.58
352.783	8.61
353.148	8.66
353.513	8.61
353.878	8.57
354.243	8.6
354.608	8.57
354.972	8.62
355.337	8.7
355.702	8.79
356.066	8.72
356.431	8.66
356.795	8.67
357.16	8.65
357.524	8.45
357.889	8.37
358.253	8.3
358.618	8.32
358.982	8.33
359.346	8.29
359.71	8.28
360.075	8.34
360.439	8.26
360.803	8.22
361.167	8.24
361.531	8.24
361.895	8.2
362.259	8.14
362.623	8.11
362.987	8.07
363.351	7.96
363.714	8
364.078	7.94
364.442	7.9
364.806	7.89
365.169	7.95
365.533	7.96
365.896	7.94
366.26	7.91
366.623	7.87
366.987	7.82
367.35	7.8
367.714	7.72
368.077	7.69
368.44	7.69
368.803	7.62
369.167	7.55
369.53	7.5
369.893	7.51
370.256	7.41
370.619	7.33
370.982	7.21
371.345	7.08
371.708	7.08
372.071	7.01
372.434	6.95
372.797	6.9
373.159	6.76
373.522	6.71
373.885	6.68
374.247	6.65
374.61	6.66
374.973	6.49
375.335	6.4
375.698	6.36
376.06	6.29
376.423	6.22
376.785	6.25
377.147	6.23
377.51	6.21
377.872	6.19
378.234	6.13
378.596	6.15
378.958	6.09
379.321	6.07
379.683	6.08
380.045	6.01
380.407	5.95
380.769	5.95
381.13	5.86
381.492	5.78
381.854	5.7
382.216	5.67
382.578	5.66
382.939	5.6
383.301	5.56
383.663	5.53
384.024	5.5
384.386	5.48
384.747	5.43
385.109	5.36
385.47	5.34
385.832	5.3
386.193	5.25
386.554	5.18
386.916	5.08
387.277	5.01
387.638	4.99
387.999	4.95
388.36	4.93
388.721	4.91
389.082	4.88
389.443	4.82
389.804	4.77
390.165	4.75
390.526	4.73
390.887	4.69
391.248	4.68
391.609	4.63
391.969	4.57
392.33	4.51
392.691	4.43
393.051	4.37
393.412	4.37
393.772	4.32
394.133	4.33
394.493	4.36
394.854	4.29
395.214	4.28
395.574	4.24
395.935	4.23
396.295	4.17
396.655	4.16
397.015	4.14
397.376	4.11
397.736	4.08
398.096	4.07
398.456	4.02
398.816	3.95
399.176	3.9
399.535	3.83
399.895	3.79
400.255	3.81
400.615	3.78
400.975	3.77
401.334	3.76
401.694	3.73
402.054	3.66
402.413	3.66
402.773	3.58
403.132	3.56
403.492	3.5
403.851	3.52
404.211	3.48
404.57	3.44
404.929	3.43
405.288	3.43
405.648	3.37
406.007	3.37
406.366	3.35
406.725	3.35
407.084	3.33
407.443	3.34
407.802	3.32
408.161	3.29
408.52	3.26
408.879	3.24
409.238	3.25
409.596	3.24
409.955	3.24
410.314	3.22
410.673	3.2
411.031	3.22
411.39	3.18
411.748	3.19
412.107	3.23
412.465	3.2
412.824	3.14
413.182	3.1
413.54	3.1
413.899	3.09
414.257	3.07
414.615	3.06
414.974	3.02
415.332	3
415.69	2.98
416.048	2.95
416.406	2.94
416.764	2.9
417.122	2.9
417.48	2.87
417.838	2.88
418.195	2.85
418.553	2.82
418.911	2.8
419.269	2.77
419.626	2.75
419.984	2.74
420.342	2.73
420.699	2.73
421.057	2.72
421.414	2.7
421.772	2.7
422.129	2.7
422.486	2.7
422.844	2.69
423.201	2.67
423.558	2.66
423.915	2.64
424.273	2.63
424.63	2.6
424.987	2.59
425.344	2.57
425.701	2.57
426.058	2.56
426.415	2.55
426.772	2.53
427.128	2.52
427.485	2.5
427.842	2.49
428.199	2.49
428.555	2.48
428.912	2.49
429.269	2.5
429.625	2.49
429.982	2.46
430.338	2.43
430.695	2.45
431.051	2.43
431.407	2.43
431.764	2.43
432.12	2.42
432.476	2.43
432.832	2.43
433.189	2.42
433.545	2.42
433.901	2.42
434.257	2.43
434.613	2.46
434.969	2.47
435.325	2.47
435.681	2.47
436.036	2.46
436.392	2.45
436.748	2.42
437.104	2.4
437.459	2.4
437.815	2.4
438.171	2.39
438.526	2.4
438.882	2.4
439.237	2.41
439.593	2.42
439.948	2.42
440.304	2.42
440.659	2.42
441.014	2.42
441.369	2.41
441.725	2.4
442.08	2.38
442.435	2.37
442.79	2.37
443.145	2.35
443.5	2.34
443.855	2.32
444.21	2.3
444.565	2.31
444.92	2.31
445.275	2.32
445.629	2.31
445.984	2.3
446.339	2.27
446.693	2.25
447.048	2.22
447.403	2.21
447.757	2.2
448.112	2.19
448.466	2.17
448.82	2.16
449.175	2.15
449.529	2.13
449.883	2.12
450.238	2.09
450.592	2.07
450.946	2.07
451.3	2.07
451.654	2.08
452.008	2.07
452.362	2.07
452.716	2.06
453.07	2.07
453.424	2.08
453.778	2.08
454.132	2.07
454.486	2.09
454.839	2.08
455.193	2.07
455.547	2.1
455.9	2.12
456.254	2.14
456.607	2.15
456.961	2.17
457.314	2.16
457.668	2.17
458.021	2.18
458.375	2.16
458.728	2.16
459.081	2.15
459.434	2.14
459.787	2.13
460.141	2.12
460.494	2.11
460.847	2.11
461.2	2.12
461.553	2.14
461.906	2.16
462.259	2.17
462.611	2.17
462.964	2.15
463.317	2.15
463.67	2.14
464.022	2.16
464.375	2.14
464.728	2.15
465.08	2.16
465.433	2.18
465.785	2.2
466.138	2.21
466.49	2.22
466.843	2.25
467.195	2.28
467.547	2.3
467.899	2.31
468.252	2.31
468.604	2.31
468.956	2.32
469.308	2.31
469.66	2.31
470.012	2.34
470.364	2.35
470.716	2.35
471.068	2.35
471.42	2.34
471.772	2.36
472.123	2.37
472.475	2.39
472.827	2.39
473.178	2.4
473.53	2.4
473.882	2.38
474.233	2.39
474.585	2.38
474.936	2.36
475.288	2.38
475.639	2.38
475.99	2.4
476.342	2.37
476.693	2.38
477.044	2.38
477.395	2.36
477.746	2.34
478.097	2.34
478.448	2.33
478.8	2.34
479.15	2.34
479.501	2.33
479.852	2.33
480.203	2.33
480.554	2.33
480.905	2.34
481.255	2.35
481.606	2.35
481.957	2.35
482.307	2.36
482.658	2.36
483.009	2.35
483.359	2.35
483.709	2.36
484.06	2.35
484.41	2.35
484.761	2.35
485.111	2.36
485.461	2.37
485.811	2.37
486.162	2.36
486.512	2.37
486.862	2.37
487.212	2.37
487.562	2.38
487.912	2.38
488.262	2.38
488.612	2.39
488.961	2.38
489.311	2.39
489.661	2.4
490.011	2.4
490.36	2.41
490.71	2.41
491.06	2.42
491.409	2.43
491.759	2.43
492.108	2.44
492.458	2.45
492.807	2.45
493.157	2.47
493.506	2.51
493.855	2.52
494.204	2.55
494.554	2.56
494.903	2.57
495.252	2.62
495.601	2.65
495.95	2.68
496.299	2.71
496.648	2.73
496.997	2.76
497.346	2.79
497.695	2.83
498.043	2.85
498.392	2.89
498.741	2.92
499.09	2.96
499.438	3.02
499.787	3.06
500.135	3.11
500.484	3.15
500.832	3.17
501.181	3.2
501.529	3.24
501.878	3.29
502.226	3.33
502.574	3.33
502.923	3.36
503.271	3.38
503.619	3.44
503.967	3.47
504.315	3.52
504.663	3.57
505.011	3.63
505.359	3.7
505.707	3.75
506.055	3.79
506.403	3.85
506.751	3.89
507.098	3.96
507.446	4.03
507.794	4.09
508.141	4.16
508.489	4.23
508.837	4.29
509.184	4.35
509.531	4.41
509.879	4.49
510.226	4.56
510.574	4.62
510.921	4.67
511.268	4.72
511.616	4.8
511.963	4.88
512.31	4.98
512.657	5.03
513.004	5.1
513.351	5.21
513.698	5.31
514.045	5.37
514.392	5.46
514.739	5.55
515.086	5.63
515.432	5.71
515.779	5.8
516.126	5.88
516.473	6
516.819	6.09
517.166	6.17
517.512	6.26
517.859	6.35
518.205	6.43
518.552	6.54
518.898	6.61
519.245	6.7
519.591	6.77
519.937	6.87
520.283	6.97
520.629	7.07
520.976	7.18
521.322	7.31
521.668	7.43
522.014	7.55
522.36	7.7
522.706	7.83
523.052	7.99
523.398	8.17
523.743	8.34
524.089	8.5
524.435	8.65
524.781	8.82
525.126	8.98
525.472	9.15
525.817	9.28
526.163	9.4
526.509	9.52
526.854	9.64
527.199	9.75
527.545	9.86
527.89	9.97
528.235	10.08
528.581	10.21
528.926	10.34
529.271	10.46
529.616	10.58
529.961	10.71
530.306	10.84
530.651	10.96
530.996	11.11
531.341	11.26
531.686	11.44
532.031	11.61
532.376	11.78
532.721	11.95
533.065	12.13
533.41	12.33
533.755	12.53
534.099	12.75
534.444	12.95
534.788	13.15
535.133	13.35
535.477	13.57
535.822	13.77
536.166	14
536.51	14.24
536.855	14.52
537.199	14.81
537.543	15.06
537.887	15.36
538.231	15.63
538.576	15.91
538.92	16.18
539.264	16.44
539.608	16.69
539.951	16.94
540.295	17.16
540.639	17.38
540.983	17.58
541.327	17.77
541.671	18
542.014	18.22
542.358	18.42
542.701	18.63
543.045	18.84
543.389	19.05
543.732	19.26
544.075	19.45
544.419	19.65
544.762	19.87
545.105	20.11
545.449	20.38
545.792	20.64
546.135	20.91
546.478	21.18
546.821	21.48
547.165	21.75
547.508	22.1
547.851	22.43
548.194	22.73
548.536	23.02
548.879	23.29
549.222	23.58
549.565	23.89
549.908	24.19
550.25	24.48
550.593	24.76
550.936	25.07
551.278	25.36
551.621	25.69
551.963	26.01
552.306	26.26
552.648	26.5
552.991	26.77
553.333	27.02
553.675	27.25
554.017	27.44
554.36	27.66
554.702	27.89
555.044	28.09
555.386	28.31
555.728	28.53
556.07	28.81
556.412	29
556.754	29.21
557.096	29.43
557.438	29.65
557.78	29.92
558.121	30.17
558.463	30.42
558.805	30.64
559.147	30.91
559.488	31.14
559.83	31.33
560.171	31.54
560.513	31.81
560.854	32.02
561.196	32.28
561.537	32.55
561.878	32.67
562.22	32.86
562.561	33.07
562.902	33.29
563.243	33.46
563.584	33.66
563.925	33.82
564.266	34.02
564.607	34.18
564.948	34.34
565.289	34.45
565.63	34.64
565.971	34.76
566.312	34.88
566.653	35.05
566.993	35.26
567.334	35.41
567.675	35.53
568.015	35.71
568.356	35.79
568.696	35.89
569.037	36.05
569.377	36.24
569.718	36.39
570.058	36.56
570.398	36.69
570.739	36.87
571.079	37.06
571.419	37.14
571.759	37.32
572.099	37.41
572.439	37.54
572.779	37.56
573.119	37.69
573.459	37.8
573.799	37.9
574.139	37.97
574.479	38.05
574.819	38.13
575.158	38.21
575.498	38.36
575.838	38.51
576.177	38.65
576.517	38.71
576.856	38.82
577.196	38.88
577.535	39
577.875	39.07
578.214	39.1
578.553	39.27
578.893	39.33
579.232	39.46
579.571	39.59
579.91	39.79
580.25	39.86
580.589	40.01
580.928	40.09
581.267	40.16
581.606	40.24
581.945	40.24
582.283	40.31
582.622	40.42
582.961	40.41
583.3	40.48
583.639	40.56
583.977	40.57
584.316	40.66
584.654	40.71
584.993	40.77
585.332	40.87
585.67	40.96
586.008	41.03
586.347	41.11
586.685	41.15
587.024	41.19
587.362	41.34
587.7	41.32
588.038	41.45
588.376	41.55
588.715	41.64
589.053	41.8
589.391	41.89
589.729	41.98
590.067	42.1
590.404	42.12
590.742	42.19
591.08	42.27
591.418	42.29
591.756	42.37
592.093	42.44
592.431	42.44
592.769	42.41
593.106	42.47
593.444	42.55
593.781	42.6
594.119	42.63
594.456	42.62
594.793	42.63
595.131	42.61
595.468	42.62
595.805	42.67
596.143	42.66
596.48	42.69
596.817	42.67
597.154	42.71
597.491	42.76
597.828	42.8
598.165	42.85
598.502	42.9
598.839	42.96
599.176	43.02
599.512	43.11
599.849	43.19
600.186	43.23
600.523	43.26
600.859	43.26
601.196	43.29
601.532	43.32
601.869	43.39
602.205	43.42
602.542	43.49
602.878	43.55
603.215	43.62
603.551	43.68
603.887	43.71
604.223	43.67
604.56	43.73
604.896	43.77
605.232	43.79
605.568	43.81
605.904	43.81
606.24	43.79
606.576	43.86
606.912	43.92
607.248	43.95
607.583	43.95
607.919	43.99
608.255	44.05
608.591	44.14
608.926	44.15
609.262	44.17
609.597	44.22
609.933	44.16
610.268	44.2
610.604	44.15
610.939	44.19
611.275	44.24
611.61	44.24
611.945	44.28
612.281	44.27
612.616	44.29
612.951	44.33
613.286	44.39
613.621	44.35
613.956	44.26
614.291	44.29
614.626	44.28
614.961	44.39
615.296	44.38
615.631	44.34
615.966	44.37
616.3	44.41
616.635	44.43
616.97	44.47
617.304	44.49
617.639	44.57
617.973	44.53
618.308	44.62
618.642	44.71
618.977	44.72
619.311	44.77
619.646	44.83
619.98	44.8
620.314	44.83
620.648	44.87
620.983	44.95
621.317	44.91
621.651	44.91
621.985	44.91
622.319	44.93
622.653	45.06
622.987	45.17
623.321	45.24
623.655	45.18
623.988	45.15
624.322	45.1
624.656	45.06
624.99	45.13
625.323	45.08
625.657	44.92
625.99	44.93
626.324	45.02
626.657	45.05
626.991	45.07
627.324	45.07
627.658	45.09
627.991	45.13
628.324	45.23
628.657	45.3
628.991	45.32
629.324	45.34
629.657	45.29
629.99	45.23
630.323	45.19
630.656	45.25
630.989	45.37
631.322	45.48
631.655	45.5
631.987	45.51
632.32	45.58
632.653	45.72
632.986	45.78
633.318	45.81
633.651	45.86
633.984	45.92
634.316	45.9
634.649	45.87
634.981	45.89
635.313	45.86
635.646	45.81
635.978	45.87
636.31	45.89
636.643	45.82
636.975	45.9
637.307	45.96
637.639	45.91
637.971	45.83
638.303	45.74
638.635	45.82
638.967	45.92
639.299	45.87
639.631	45.9
639.963	45.88
640.295	45.75
640.626	45.67
640.958	45.61
641.29	45.57
641.621	45.65
641.953	45.69
642.285	45.77
642.616	45.84
642.948	45.8
643.279	45.79
643.61	45.74
643.942	45.74
644.273	45.64
644.604	45.61
644.936	45.66
645.267	45.63
645.598	45.58
645.929	45.55
646.26	45.67
646.591	45.62
646.922	45.48
647.253	45.58
647.584	45.56
647.915	45.62
648.245	45.71
648.576	45.75
648.907	45.71
649.238	45.58
649.568	45.56
649.899	45.62
650.229	45.62
650.56	45.69
650.89	45.71
651.221	45.75
651.551	45.87
651.882	45.97
652.212	46.05
652.542	46.03
652.872	46.07
653.203	45.97
653.533	46.05
653.863	46.25
654.193	46.15
654.523	46.23
654.853	46.25
655.183	46.23
655.513	46.19
655.843	46.22
656.172	46.29
656.502	46.29
656.832	46.19
657.162	46.28
657.491	46.25
657.821	46.23
658.15	46.23
658.48	46.2
658.809	46.17
659.139	46.23
659.468	46.3
659.798	46.27
660.127	46.27
660.456	46.3
660.785	46.34
661.115	46.34
661.444	46.29
661.773	46.3
662.102	46.24
662.431	46.17
662.76	46.04
663.089	46.11
663.418	46.22
663.747	46.25
664.076	46.15
664.404	46.24
664.733	46.31
665.062	46.38
665.39	46.34
665.719	46.37
666.048	46.36
666.376	46.38
666.705	46.32
667.033	46.39
