Data from BA57748_Reflection_00002.txt Node
Date: Mon Nov 18 15:55:13 EST 2019
User: vgr7
Spectrometer: USB2G7710
Scans to average: 3
Trigger mode: 4
Integration Time (sec): 2.000000E-2
Electric dark correction enabled: true
Boxcar width: 10
XAxis mode: Wavelengths
Number of Pixels in Spectrum: 2048
>>>>>Begin Spectral Data<<<<<
177.721	130.76
178.105	-262.83
178.488	-103.86
178.871	-32.27
179.254	49.2
179.636	151.18
180.019	-1.63
180.402	95.45
180.785	26.53
181.168	222.7
181.55	-487.04
181.933	204.15
182.316	172.21
182.698	178.78
183.081	217.48
183.463	170.83
183.846	349.69
184.228	295.55
184.611	263.32
184.993	673.26
185.376	883.28
185.758	-1681.07
186.14	341.66
186.522	631.67
186.904	348.15
187.287	254.26
187.669	379.21
188.051	292.69
188.433	483.99
188.815	437.31
189.197	387.89
189.579	273.8
189.961	272.55
190.342	296.45
190.724	539.54
191.106	485.99
191.488	-10791.89
191.869	-2505.1
192.251	9636.59
192.633	1158.65
193.014	426.11
193.396	421.05
193.777	390.61
194.159	422.55
194.54	569.72
194.922	2004.98
195.303	-4037.61
195.684	1531.23
196.065	-1238.28
196.447	22394.12
196.828	-10383.87
197.209	-8448.39
197.59	5303.39
197.971	1824.32
198.352	-8359.46
198.733	671.16
199.114	2947.33
199.495	370.69
199.876	544.69
200.257	1312.29
200.638	-417.76
201.018	-718.64
201.399	-297.95
201.78	-202.33
202.16	-259
202.541	-46328.57
202.922	653.47
203.302	302.52
203.683	1801.57
204.063	557.53
204.444	1347.68
204.824	2012.13
205.204	2309.3
205.585	1261.88
205.965	-2246.34
206.345	-2423.32
206.725	-2927.59
207.106	-21426.32
207.486	-2504.28
207.866	3435.77
208.246	-2600.53
208.626	-2926.49
209.006	-1044.58
209.386	1958.18
209.766	1830.65
210.145	1821.19
210.525	3878.76
210.905	-1114.83
211.285	-639.86
211.664	-686.08
212.044	-575.91
212.424	-445.98
212.803	-527.64
213.183	-209.35
213.562	-236.48
213.942	-157.17
214.321	-98.37
214.701	-127.99
215.08	-150.44
215.459	-125.72
215.838	-125.08
216.218	-121.03
216.597	-86.25
216.976	-76.1
217.355	-53.41
217.734	-27.8
218.113	-10.63
218.492	-25.67
218.871	-43.28
219.25	-27.39
219.629	-27.99
220.008	-11.19
220.387	-20.84
220.766	-36.46
221.144	-72.89
221.523	-63.38
221.902	-96.54
222.28	-211.24
222.659	-205.82
223.037	-151.15
223.416	-197.82
223.794	-197.83
224.173	-117.14
224.551	-118.76
224.929	-95.79
225.308	-57.94
225.686	-48.61
226.064	-54.69
226.442	-47.94
226.821	-33.72
227.199	-37.76
227.577	-39.38
227.955	-40.74
228.333	-37.4
228.711	-35.88
229.089	-31.17
229.467	-30.91
229.845	-28.17
230.222	-21.84
230.6	-20.75
230.978	-18.27
231.356	-14.33
231.733	-13.34
232.111	-14.88
232.488	-14.03
232.866	-9.75
233.243	-10.78
233.621	-13.29
233.998	-13.76
234.376	-13.46
234.753	-12.57
235.13	-11.1
235.508	-9.88
235.885	-9.63
236.262	-8.22
236.639	-5.09
237.016	-2.78
237.393	-0.91
237.77	-1.41
238.147	-1.18
238.524	-0.12
238.901	0.47
239.278	0.68
239.655	1.72
240.032	1.85
240.409	2.24
240.785	1.42
241.162	1.98
241.539	2.02
241.915	2.41
242.292	2.38
242.668	2.59
243.045	2.92
243.421	2.86
243.798	3.2
244.174	3.06
244.551	3.06
244.927	2.57
245.303	2.7
245.679	2.9
246.056	2.91
246.432	2.86
246.808	2.69
247.184	2.49
247.56	2.19
247.936	2.33
248.312	2.06
248.688	1.98
249.064	1.6
249.44	1.7
249.815	1.79
250.191	1.93
250.567	1.81
250.943	1.55
251.318	1.45
251.694	1.17
252.069	0.84
252.445	0.68
252.82	0.93
253.196	0.46
253.571	0.36
253.947	0.08
254.322	0.24
254.697	0.32
255.073	0.15
255.448	0.27
255.823	0.41
256.198	0.5
256.573	0.67
256.948	1.3
257.323	1.53
257.698	1.5
258.073	1.41
258.448	1.5
258.823	1.37
259.198	1.26
259.573	1.32
259.948	1.53
260.322	1.54
260.697	1.29
261.072	1.2
261.446	1.35
261.821	1.4
262.195	1.41
262.57	1.53
262.944	1.59
263.319	1.87
263.693	1.78
264.067	1.84
264.442	1.91
264.816	1.86
265.19	1.72
265.564	1.68
265.938	1.8
266.313	1.47
266.687	1.74
267.061	2.04
267.435	1.92
267.809	1.83
268.183	1.86
268.556	2.01
268.93	2.12
269.304	2.07
269.678	2.14
270.051	2.14
270.425	2.02
270.799	2.05
271.172	1.78
271.546	1.8
271.919	1.79
272.293	1.72
272.666	1.66
273.04	1.74
273.413	1.88
273.787	1.82
274.16	2.01
274.533	1.99
274.906	1.98
275.279	2.23
275.653	2.3
276.026	2.19
276.399	2.26
276.772	2.4
277.145	2.29
277.518	2.4
277.891	2.39
278.263	2.33
278.636	2.38
279.009	2.41
279.382	2.63
279.755	2.51
280.127	2.49
280.5	2.59
280.872	2.69
281.245	2.41
281.617	2.58
281.99	2.75
282.362	2.86
282.735	2.81
283.107	2.69
283.479	2.68
283.852	2.63
284.224	2.59
284.596	2.51
284.968	2.61
285.34	2.55
285.713	2.59
286.085	2.75
286.457	2.87
286.829	2.96
287.201	2.75
287.572	2.74
287.944	2.76
288.316	2.63
288.688	2.51
289.06	2.61
289.431	2.48
289.803	2.4
290.175	2.39
290.546	2.54
290.918	2.55
291.289	2.56
291.661	2.74
292.032	2.88
292.403	2.99
292.775	3.05
293.146	3.03
293.517	3.03
293.889	2.97
294.26	2.74
294.631	2.72
295.002	2.88
295.373	3.02
295.744	3.06
296.115	3.21
296.486	3.13
296.857	3.07
297.228	3.06
297.599	3.01
297.97	3.04
298.34	3.05
298.711	3.24
299.082	3.31
299.452	3.19
299.823	3.16
300.194	3.25
300.564	3.14
300.935	3.2
301.305	3.13
301.676	3.2
302.046	3.39
302.416	3.45
302.787	3.32
303.157	3.35
303.527	3.37
303.897	3.34
304.267	3.41
304.637	3.51
305.008	3.56
305.378	3.69
305.748	3.61
306.117	3.31
306.487	3.08
306.857	2.93
307.227	3.12
307.597	3.15
307.967	3.11
308.336	3.06
308.706	3
309.076	3.06
309.445	2.91
309.815	2.91
310.184	2.9
310.554	2.96
310.923	2.89
311.293	2.85
311.662	2.8
312.031	2.73
312.401	2.72
312.77	2.73
313.139	2.61
313.508	2.48
313.877	2.52
314.246	2.52
314.616	2.49
314.985	2.5
315.353	2.48
315.722	2.41
316.091	2.52
316.46	2.45
316.829	2.51
317.198	2.63
317.567	2.47
317.935	2.36
318.304	2.4
318.672	2.45
319.041	2.48
319.41	2.41
319.778	2.49
320.147	2.38
320.515	2.36
320.883	2.39
321.252	2.53
321.62	2.69
321.988	2.76
322.357	2.86
322.725	2.66
323.093	2.58
323.461	2.69
323.829	2.7
324.197	2.82
324.565	2.7
324.933	2.63
325.301	2.71
325.669	2.7
326.037	2.72
326.405	2.78
326.772	2.86
327.14	3.08
327.508	3.14
327.875	3.33
328.243	3.35
328.61	3.45
328.978	3.46
329.346	3.46
329.713	3.29
330.08	3.35
330.448	3.22
330.815	3.15
331.182	3.08
331.55	2.97
331.917	2.83
332.284	2.99
332.651	3.1
333.018	3.19
333.385	3.26
333.752	3.2
334.119	3.08
334.486	3
334.853	2.8
335.22	2.72
335.587	2.56
335.954	2.45
336.32	2.37
336.687	2.5
337.054	2.55
337.42	2.64
337.787	2.5
338.153	2.71
338.52	2.81
338.886	2.74
339.253	2.67
339.619	2.86
339.986	2.84
340.352	2.84
340.718	2.75
341.084	2.73
341.451	2.7
341.817	2.79
342.183	2.77
342.549	2.84
342.915	2.89
343.281	2.87
343.647	2.9
344.013	2.94
344.379	2.79
344.745	2.71
345.11	2.71
345.476	2.78
345.842	2.74
346.208	2.75
346.573	2.75
346.939	2.81
347.304	2.66
347.67	2.55
348.035	2.46
348.401	2.4
348.766	2.39
349.132	2.49
349.497	2.45
349.862	2.52
350.228	2.56
350.593	2.52
350.958	2.53
351.323	2.56
351.688	2.45
352.053	2.49
352.418	2.5
352.783	2.57
353.148	2.53
353.513	2.59
353.878	2.57
354.243	2.67
354.608	2.68
354.972	2.75
355.337	2.79
355.702	2.83
356.066	2.96
356.431	2.94
356.795	2.95
357.16	2.87
357.524	2.83
357.889	2.79
358.253	2.83
358.618	2.87
358.982	2.94
359.346	2.94
359.71	2.93
360.075	2.97
360.439	2.99
360.803	2.96
361.167	2.92
361.531	2.91
361.895	2.87
362.259	2.82
362.623	2.77
362.987	2.72
363.351	2.74
363.714	2.65
364.078	2.62
364.442	2.55
364.806	2.59
365.169	2.59
365.533	2.59
365.896	2.53
366.26	2.51
366.623	2.4
366.987	2.44
367.35	2.47
367.714	2.46
368.077	2.38
368.44	2.45
368.803	2.43
369.167	2.37
369.53	2.38
369.893	2.47
370.256	2.45
370.619	2.57
370.982	2.51
371.345	2.52
371.708	2.58
372.071	2.6
372.434	2.61
372.797	2.62
373.159	2.63
373.522	2.73
373.885	2.76
374.247	2.8
374.61	2.78
374.973	2.83
375.335	2.83
375.698	2.87
376.06	2.85
376.423	2.87
376.785	2.98
377.147	2.97
377.51	2.96
377.872	3.04
378.234	2.97
378.596	2.98
378.958	2.99
379.321	2.99
379.683	3.05
380.045	3.03
380.407	3.03
380.769	3
381.13	2.96
381.492	2.93
381.854	2.95
382.216	3
382.578	2.91
382.939	2.88
383.301	2.88
383.663	2.91
384.024	2.9
384.386	2.91
384.747	2.91
385.109	2.86
385.47	2.84
385.832	2.85
386.193	2.89
386.554	2.9
386.916	2.9
387.277	2.86
387.638	2.88
387.999	2.86
388.36	2.87
388.721	2.85
389.082	2.87
389.443	2.85
389.804	2.8
390.165	2.8
390.526	2.79
390.887	2.75
391.248	2.76
391.609	2.75
391.969	2.72
392.33	2.68
392.691	2.69
393.051	2.67
393.412	2.67
393.772	2.63
394.133	2.64
394.493	2.63
394.854	2.62
395.214	2.59
395.574	2.59
395.935	2.62
396.295	2.67
396.655	2.66
397.015	2.64
397.376	2.67
397.736	2.67
398.096	2.71
398.456	2.75
398.816	2.74
399.176	2.75
399.535	2.72
399.895	2.75
400.255	2.77
400.615	2.81
400.975	2.83
401.334	2.86
401.694	2.85
402.054	2.82
402.413	2.84
402.773	2.85
403.132	2.85
403.492	2.82
403.851	2.8
404.211	2.81
404.57	2.83
404.929	2.82
405.288	2.83
405.648	2.82
406.007	2.83
406.366	2.82
406.725	2.84
407.084	2.86
407.443	2.84
407.802	2.86
408.161	2.83
408.52	2.84
408.879	2.84
409.238	2.84
409.596	2.87
409.955	2.85
410.314	2.86
410.673	2.88
411.031	2.91
411.39	2.9
411.748	2.92
412.107	2.93
412.465	2.92
412.824	2.95
413.182	2.91
413.54	2.89
413.899	2.89
414.257	2.9
414.615	2.89
414.974	2.93
415.332	2.93
415.69	2.92
416.048	2.89
416.406	2.9
416.764	2.86
417.122	2.85
417.48	2.85
417.838	2.86
418.195	2.86
418.553	2.83
418.911	2.82
419.269	2.8
419.626	2.79
419.984	2.81
420.342	2.83
420.699	2.83
421.057	2.84
421.414	2.84
421.772	2.84
422.129	2.83
422.486	2.82
422.844	2.81
423.201	2.8
423.558	2.81
423.915	2.8
424.273	2.83
424.63	2.84
424.987	2.83
425.344	2.83
425.701	2.82
426.058	2.82
426.415	2.84
426.772	2.85
427.128	2.85
427.485	2.83
427.842	2.8
428.199	2.83
428.555	2.82
428.912	2.83
429.269	2.84
429.625	2.85
429.982	2.84
430.338	2.85
430.695	2.86
431.051	2.85
431.407	2.85
431.764	2.83
432.12	2.82
432.476	2.81
432.832	2.8
433.189	2.82
433.545	2.83
433.901	2.82
434.257	2.82
434.613	2.82
434.969	2.81
435.325	2.82
435.681	2.8
436.036	2.79
436.392	2.79
436.748	2.79
437.104	2.77
437.459	2.78
437.815	2.8
438.171	2.81
438.526	2.81
438.882	2.81
439.237	2.82
439.593	2.83
439.948	2.84
440.304	2.85
440.659	2.85
441.014	2.86
441.369	2.86
441.725	2.86
442.08	2.88
442.435	2.88
442.79	2.87
443.145	2.88
443.5	2.87
443.855	2.86
444.21	2.85
444.565	2.86
444.92	2.86
445.275	2.84
445.629	2.84
445.984	2.84
446.339	2.84
446.693	2.81
447.048	2.8
447.403	2.8
447.757	2.8
448.112	2.78
448.466	2.77
448.82	2.75
449.175	2.74
449.529	2.72
449.883	2.73
450.238	2.72
450.592	2.72
450.946	2.71
451.3	2.71
451.654	2.73
452.008	2.72
452.362	2.7
452.716	2.71
453.07	2.72
453.424	2.7
453.778	2.72
454.132	2.74
454.486	2.74
454.839	2.74
455.193	2.71
455.547	2.72
455.9	2.72
456.254	2.74
456.607	2.75
456.961	2.78
457.314	2.8
457.668	2.79
458.021	2.79
458.375	2.79
458.728	2.79
459.081	2.78
459.434	2.76
459.787	2.77
460.141	2.78
460.494	2.77
460.847	2.79
461.2	2.78
461.553	2.78
461.906	2.8
462.259	2.82
462.611	2.85
462.964	2.85
463.317	2.85
463.67	2.85
464.022	2.84
464.375	2.83
464.728	2.83
465.08	2.84
465.433	2.84
465.785	2.84
466.138	2.87
466.49	2.88
466.843	2.9
467.195	2.9
467.547	2.89
467.899	2.89
468.252	2.88
468.604	2.86
468.956	2.85
469.308	2.86
469.66	2.84
470.012	2.84
470.364	2.83
470.716	2.84
471.068	2.85
471.42	2.86
471.772	2.86
472.123	2.85
472.475	2.86
472.827	2.87
473.178	2.86
473.53	2.85
473.882	2.86
474.233	2.85
474.585	2.85
474.936	2.85
475.288	2.86
475.639	2.88
475.99	2.89
476.342	2.88
476.693	2.88
477.044	2.89
477.395	2.91
477.746	2.89
478.097	2.9
478.448	2.89
478.8	2.87
479.15	2.89
479.501	2.9
479.852	2.9
480.203	2.89
480.554	2.91
480.905	2.92
481.255	2.91
481.606	2.93
481.957	2.94
482.307	2.94
482.658	2.95
483.009	2.94
483.359	2.96
483.709	2.96
484.06	2.95
484.41	2.96
484.761	2.95
485.111	2.96
485.461	2.96
485.811	2.96
486.162	2.97
486.512	2.98
486.862	2.98
487.212	2.98
487.562	2.99
487.912	2.98
488.262	2.99
488.612	3
488.961	2.99
489.311	2.99
489.661	2.99
490.011	2.98
490.36	2.98
490.71	2.97
491.06	2.98
491.409	3
491.759	2.99
492.108	2.99
492.458	3
492.807	2.99
493.157	2.99
493.506	2.99
493.855	2.96
494.204	2.96
494.554	2.96
494.903	2.95
495.252	2.95
495.601	2.95
495.95	2.96
496.299	2.95
496.648	2.95
496.997	2.96
497.346	2.97
497.695	2.98
498.043	2.99
498.392	2.99
498.741	2.96
499.09	2.97
499.438	2.98
499.787	2.98
500.135	3.01
500.484	3.02
500.832	3.01
501.181	3.01
501.529	3
501.878	3.01
502.226	3.02
502.574	3.03
502.923	3.01
503.271	2.99
503.619	3
503.967	3
504.315	3
504.663	3
505.011	3.01
505.359	3.01
505.707	3.04
506.055	3.05
506.403	3.04
506.751	3.03
507.098	3.03
507.446	3.04
507.794	3.02
508.141	3.05
508.489	3.05
508.837	3.06
509.184	3.05
509.531	3.05
509.879	3.07
510.226	3.08
510.574	3.09
510.921	3.09
511.268	3.09
511.616	3.09
511.963	3.1
512.31	3.1
512.657	3.1
513.004	3.1
513.351	3.12
513.698	3.12
514.045	3.13
514.392	3.14
514.739	3.14
515.086	3.16
515.432	3.15
515.779	3.14
516.126	3.15
516.473	3.17
516.819	3.18
517.166	3.17
517.512	3.17
517.859	3.18
518.205	3.16
518.552	3.19
518.898	3.18
519.245	3.18
519.591	3.17
519.937	3.16
520.283	3.13
520.629	3.14
520.976	3.15
521.322	3.14
521.668	3.14
522.014	3.13
522.36	3.15
522.706	3.16
523.052	3.17
523.398	3.18
523.743	3.17
524.089	3.17
524.435	3.18
524.781	3.18
525.126	3.18
525.472	3.21
525.817	3.2
526.163	3.2
526.509	3.21
526.854	3.21
527.199	3.23
527.545	3.24
527.89	3.24
528.235	3.23
528.581	3.24
528.926	3.24
529.271	3.24
529.616	3.24
529.961	3.23
530.306	3.24
530.651	3.23
530.996	3.25
531.341	3.24
531.686	3.25
532.031	3.24
532.376	3.25
532.721	3.23
533.065	3.23
533.41	3.24
533.755	3.24
534.099	3.26
534.444	3.25
534.788	3.26
535.133	3.27
535.477	3.28
535.822	3.28
536.166	3.28
536.51	3.28
536.855	3.28
537.199	3.29
537.543	3.3
537.887	3.3
538.231	3.29
538.576	3.29
538.92	3.29
539.264	3.3
539.608	3.3
539.951	3.31
540.295	3.32
540.639	3.33
540.983	3.33
541.327	3.33
541.671	3.32
542.014	3.31
542.358	3.3
542.701	3.3
543.045	3.3
543.389	3.3
543.732	3.31
544.075	3.31
544.419	3.31
544.762	3.3
545.105	3.32
545.449	3.32
545.792	3.32
546.135	3.32
546.478	3.32
546.821	3.31
547.165	3.31
547.508	3.31
547.851	3.3
548.194	3.31
548.536	3.31
548.879	3.34
549.222	3.33
549.565	3.33
549.908	3.34
550.25	3.34
550.593	3.34
550.936	3.31
551.278	3.32
551.621	3.34
551.963	3.35
552.306	3.33
552.648	3.33
552.991	3.34
553.333	3.34
553.675	3.35
554.017	3.36
554.36	3.36
554.702	3.35
555.044	3.35
555.386	3.32
555.728	3.31
556.07	3.3
556.412	3.31
556.754	3.3
557.096	3.29
557.438	3.31
557.78	3.31
558.121	3.33
558.463	3.31
558.805	3.29
559.147	3.29
559.488	3.3
559.83	3.28
560.171	3.28
560.513	3.31
560.854	3.28
561.196	3.31
561.537	3.31
561.878	3.31
562.22	3.31
562.561	3.3
562.902	3.31
563.243	3.28
563.584	3.29
563.925	3.33
564.266	3.34
564.607	3.34
564.948	3.36
565.289	3.36
565.63	3.4
565.971	3.4
566.312	3.39
566.653	3.38
566.993	3.38
567.334	3.38
567.675	3.36
568.015	3.35
568.356	3.32
568.696	3.34
569.037	3.34
569.377	3.35
569.718	3.34
570.058	3.33
570.398	3.35
570.739	3.33
571.079	3.33
571.419	3.34
571.759	3.32
572.099	3.33
572.439	3.33
572.779	3.3
573.119	3.34
573.459	3.37
573.799	3.38
574.139	3.37
574.479	3.39
574.819	3.39
575.158	3.41
575.498	3.43
575.838	3.41
576.177	3.38
576.517	3.37
576.856	3.4
577.196	3.4
577.535	3.37
577.875	3.4
578.214	3.37
578.553	3.37
578.893	3.4
579.232	3.39
579.571	3.38
579.91	3.4
580.25	3.36
580.589	3.32
580.928	3.3
581.267	3.32
581.606	3.33
581.945	3.34
582.283	3.32
582.622	3.3
582.961	3.31
583.3	3.35
583.639	3.39
583.977	3.41
584.316	3.43
584.654	3.43
584.993	3.4
585.332	3.4
585.67	3.35
586.008	3.32
586.347	3.32
586.685	3.31
587.024	3.3
587.362	3.3
587.7	3.31
588.038	3.38
588.376	3.41
588.715	3.38
589.053	3.42
589.391	3.45
589.729	3.46
590.067	3.45
590.404	3.46
590.742	3.44
591.08	3.46
591.418	3.5
591.756	3.53
592.093	3.59
592.431	3.57
592.769	3.61
593.106	3.59
593.444	3.58
593.781	3.59
594.119	3.62
594.456	3.63
594.793	3.64
595.131	3.57
595.468	3.57
595.805	3.59
596.143	3.55
596.48	3.53
596.817	3.53
597.154	3.57
597.491	3.57
597.828	3.58
598.165	3.54
598.502	3.5
598.839	3.5
599.176	3.48
599.512	3.52
599.849	3.54
600.186	3.56
600.523	3.56
600.859	3.58
601.196	3.55
601.532	3.54
601.869	3.52
602.205	3.53
602.542	3.5
602.878	3.49
603.215	3.49
603.551	3.52
603.887	3.52
604.223	3.53
604.56	3.52
604.896	3.51
605.232	3.55
605.568	3.56
605.904	3.55
606.24	3.56
606.576	3.56
606.912	3.52
607.248	3.53
607.583	3.53
607.919	3.5
608.255	3.5
608.591	3.53
608.926	3.54
609.262	3.57
609.597	3.57
609.933	3.58
610.268	3.61
610.604	3.59
610.939	3.56
611.275	3.5
611.61	3.5
611.945	3.48
612.281	3.42
612.616	3.4
612.951	3.39
613.286	3.39
613.621	3.37
613.956	3.4
614.291	3.35
614.626	3.37
614.961	3.4
615.296	3.42
615.631	3.42
615.966	3.42
616.3	3.4
616.635	3.39
616.97	3.42
617.304	3.39
617.639	3.39
617.973	3.43
618.308	3.45
618.642	3.47
618.977	3.46
619.311	3.5
619.646	3.55
619.98	3.56
620.314	3.59
620.648	3.6
620.983	3.61
621.317	3.68
621.651	3.71
621.985	3.7
622.319	3.67
622.653	3.66
622.987	3.68
623.321	3.72
623.655	3.75
623.988	3.74
624.322	3.75
624.656	3.74
624.99	3.75
625.323	3.75
625.657	3.74
625.99	3.78
626.324	3.77
626.657	3.78
626.991	3.77
627.324	3.78
627.658	3.82
627.991	3.83
628.324	3.82
628.657	3.76
628.991	3.77
629.324	3.79
629.657	3.78
629.99	3.77
630.323	3.71
630.656	3.74
630.989	3.76
631.322	3.76
631.655	3.76
631.987	3.73
632.32	3.79
632.653	3.77
632.986	3.75
633.318	3.75
633.651	3.76
633.984	3.77
634.316	3.71
634.649	3.67
634.981	3.64
635.313	3.61
635.646	3.66
635.978	3.66
636.31	3.67
636.643	3.69
636.975	3.69
637.307	3.7
637.639	3.66
637.971	3.61
638.303	3.62
638.635	3.64
638.967	3.63
639.299	3.63
639.631	3.62
639.963	3.58
640.295	3.56
640.626	3.53
640.958	3.53
641.29	3.48
641.621	3.49
641.953	3.5
642.285	3.51
642.616	3.51
642.948	3.52
643.279	3.52
643.61	3.47
643.942	3.46
644.273	3.49
644.604	3.5
644.936	3.43
645.267	3.42
645.598	3.36
645.929	3.41
646.26	3.41
646.591	3.49
646.922	3.47
647.253	3.45
647.584	3.45
647.915	3.48
648.245	3.5
648.576	3.51
648.907	3.53
649.238	3.55
649.568	3.56
649.899	3.59
650.229	3.57
650.56	3.6
650.89	3.63
651.221	3.67
651.551	3.71
651.882	3.8
652.212	3.83
652.542	3.84
652.872	3.82
653.203	3.76
653.533	3.76
653.863	3.83
654.193	3.88
654.523	3.89
654.853	3.88
655.183	3.93
655.513	3.89
655.843	3.84
656.172	3.83
656.502	3.78
656.832	3.76
657.162	3.77
657.491	3.78
657.821	3.72
658.15	3.64
658.48	3.58
658.809	3.56
659.139	3.59
659.468	3.59
659.798	3.61
660.127	3.69
660.456	3.7
660.785	3.71
661.115	3.65
661.444	3.65
661.773	3.68
662.102	3.65
662.431	3.71
662.76	3.78
663.089	3.77
663.418	3.75
663.747	3.69
664.076	3.67
664.404	3.67
664.733	3.71
665.062	3.79
665.39	3.85
665.719	3.82
666.048	3.73
666.376	3.74
666.705	3.7
667.033	3.64
667.362	3.6
667.69	3.59
668.018	3.66
668.347	3.7
668.675	3.66
669.003	3.62
669.331	3.64
669.659	3.62
669.987	3.56
670.315	3.62
670.643	3.7
670.971	3.74
671.299	3.75
671.627	3.82
671.955	3.77
672.283	3.79
672.61	3.76
672.938	3.81
673.266	3.84
673.593	3.95
673.921	3.9
674.249	3.83
674.576	3.76
674.904	3.76
