Data from BA57662_Reflection_00002.txt Node
Date: Mon Nov 18 15:34:12 EST 2019
User: vgr7
Spectrometer: USB2G7710
Scans to average: 3
Trigger mode: 4
Integration Time (sec): 2.000000E-2
Electric dark correction enabled: true
Boxcar width: 10
XAxis mode: Wavelengths
Number of Pixels in Spectrum: 2048
>>>>>Begin Spectral Data<<<<<
177.721	30.74
178.105	0.61
178.488	-12.93
178.871	-14.54
179.254	43.05
179.636	227.82
180.019	-202.61
180.402	188.24
180.785	58.02
181.168	102.83
181.55	266.08
181.933	123.63
182.316	104.97
182.698	91
183.081	123.93
183.463	134.24
183.846	139.29
184.228	112.78
184.611	147.98
184.993	216.5
185.376	348.42
185.758	344.56
186.14	390.13
186.522	563.41
186.904	-669.75
187.287	-1497.61
187.669	-231.16
188.051	-259.08
188.433	-206.26
188.815	-162.17
189.197	-154.19
189.579	-181.5
189.961	-145.8
190.342	-119.64
190.724	-94.99
191.106	-94.4
191.488	-102.19
191.869	-94.05
192.251	-91.91
192.633	-118.45
193.014	-108.96
193.396	-115.03
193.777	-160.37
194.159	-212.53
194.54	-177.07
194.922	-175.81
195.303	-152.43
195.684	-219.48
196.065	-112.59
196.447	-134.59
196.828	-106.72
197.209	-120.92
197.59	-98.82
197.971	-93.34
198.352	-72.09
198.733	-68.28
199.114	-71.44
199.495	-55.47
199.876	-48.62
200.257	-61.42
200.638	-52.51
201.018	-64.36
201.399	-65.93
201.78	-55.76
202.16	-77.43
202.541	-116.5
202.922	-152.07
203.302	-133.62
203.683	-122.02
204.063	-176.34
204.444	-138.53
204.824	-137.33
205.204	-110.71
205.585	-109.53
205.965	-123.95
206.345	-135.19
206.725	-157.22
207.106	-168.17
207.486	-210.32
207.866	-235.27
208.246	-197.94
208.626	-199.56
209.006	-207.45
209.386	-228.09
209.766	-224.03
210.145	-213.55
210.525	-177.88
210.905	-134.4
211.285	-128.44
211.664	-124.38
212.044	-119.58
212.424	-114.18
212.803	-144.64
213.183	-142.55
213.562	-130.97
213.942	-118.8
214.321	-120.48
214.701	-128.42
215.08	-117.71
215.459	-100.42
215.838	-101.99
216.218	-104.41
216.597	-89.59
216.976	-83.31
217.355	-73.9
217.734	-58.34
218.113	-51.6
218.492	-48.32
218.871	-65.71
219.25	-50.56
219.629	-43.59
220.008	-53.38
220.387	-70.22
220.766	-61.9
221.144	-80.11
221.523	-71.91
221.902	-79.12
222.28	-82.57
222.659	-63.46
223.037	-61.19
223.416	-63.21
223.794	-50.19
224.173	-48.51
224.551	-41.84
224.929	-41.15
225.308	-35.96
225.686	-33.36
226.064	-30.28
226.442	-28.02
226.821	-16.37
227.199	-17.77
227.577	-19.41
227.955	-16.92
228.333	-15.2
228.711	-12.6
229.089	-7.35
229.467	-9.18
229.845	-8.47
230.222	-7.52
230.6	-9.57
230.978	-8.08
231.356	-5.02
231.733	-4.89
232.111	-3.84
232.488	-2.48
232.866	-1.12
233.243	0.67
233.621	-0.92
233.998	0.72
234.376	0.89
234.753	0.33
235.13	2.07
235.508	4.47
235.885	4.06
236.262	3.24
236.639	2.77
237.016	2.7
237.393	3.97
237.77	5.01
238.147	5.98
238.524	6.82
238.901	7.44
239.278	6.43
239.655	7.15
240.032	7.51
240.409	7.46
240.785	6.85
241.162	6.53
241.539	6.82
241.915	6.49
242.292	6.06
242.668	5.52
243.045	5.71
243.421	5.7
243.798	5.95
244.174	6.24
244.551	6.02
244.927	5.68
245.303	5.72
245.679	5.86
246.056	5.8
246.432	5.78
246.808	5.57
247.184	5.52
247.56	5.15
247.936	4.94
248.312	4.94
248.688	5.26
249.064	5.11
249.44	5.21
249.815	5.22
250.191	5.51
250.567	5.76
250.943	5.51
251.318	5.47
251.694	5.36
252.069	5.42
252.445	5.65
252.82	5.88
253.196	5.8
253.571	5.36
253.947	5.04
254.322	5.18
254.697	5.01
255.073	5.14
255.448	5.21
255.823	5.54
256.198	5.61
256.573	5.49
256.948	5.44
257.323	5.39
257.698	5.35
258.073	5.3
258.448	5.26
258.823	5.17
259.198	4.92
259.573	5.05
259.948	4.97
260.322	4.97
260.697	4.88
261.072	4.8
261.446	4.92
261.821	5.05
262.195	5.15
262.57	5.22
262.944	5.12
263.319	5.12
263.693	4.85
264.067	4.73
264.442	4.72
264.816	4.82
265.19	4.63
265.564	4.61
265.938	4.43
266.313	4.25
266.687	4.38
267.061	4.61
267.435	4.46
267.809	4.42
268.183	4.34
268.556	4.28
268.93	4.23
269.304	4.12
269.678	4.16
270.051	3.92
270.425	3.92
270.799	4.21
271.172	4.26
271.546	4.28
271.919	4.26
272.293	4.3
272.666	4.17
273.04	4.41
273.413	4.39
273.787	4.44
274.16	4.57
274.533	4.57
274.906	4.53
275.279	4.41
275.653	4.33
276.026	4.27
276.399	4.28
276.772	4.25
277.145	4.41
277.518	4.28
277.891	4.5
278.263	4.42
278.636	4.16
279.009	4.3
279.382	4.47
279.755	4.39
280.127	4.44
280.5	4.6
280.872	4.48
281.245	4.47
281.617	4.67
281.99	4.69
282.362	4.72
282.735	4.7
283.107	4.8
283.479	4.84
283.852	4.97
284.224	5.05
284.596	5.09
284.968	5.08
285.34	5.35
285.713	5.16
286.085	5.23
286.457	5.41
286.829	5.27
287.201	5.32
287.572	5.36
287.944	5.36
288.316	5.31
288.688	5.28
289.06	5.33
289.431	5.23
289.803	5.18
290.175	5.1
290.546	5.17
290.918	5.19
291.289	5.37
291.661	5.37
292.032	5.44
292.403	5.5
292.775	5.54
293.146	5.31
293.517	5.41
293.889	5.37
294.26	5.3
294.631	5.41
295.002	5.32
295.373	5.39
295.744	5.48
296.115	5.55
296.486	5.49
296.857	5.51
297.228	5.59
297.599	5.55
297.97	5.69
298.34	5.73
298.711	5.79
299.082	5.77
299.452	5.84
299.823	5.93
300.194	6.05
300.564	5.92
300.935	6.05
301.305	6.05
301.676	6.18
302.046	6.24
302.416	6.3
302.787	6.35
303.157	6.42
303.527	6.32
303.897	6.29
304.267	6.46
304.637	6.44
305.008	6.47
305.378	6.68
305.748	6.66
306.117	6.57
306.487	6.5
306.857	6.42
307.227	6.36
307.597	6.3
307.967	6.19
308.336	6.34
308.706	6.33
309.076	6.32
309.445	6.26
309.815	6.14
310.184	6.08
310.554	6.04
310.923	6.02
311.293	6.01
311.662	6.02
312.031	5.97
312.401	5.99
312.77	5.87
313.139	5.83
313.508	5.89
313.877	5.96
314.246	6.06
314.616	6.06
314.985	6.1
315.353	6.05
315.722	6.16
316.091	6.1
316.46	5.99
316.829	6.03
317.198	6.12
317.567	6.34
317.935	6.36
318.304	6.47
318.672	6.31
319.041	6.31
319.41	6.42
319.778	6.44
320.147	6.5
320.515	6.56
320.883	6.52
321.252	6.63
321.62	6.65
321.988	6.57
322.357	6.55
322.725	6.5
323.093	6.57
323.461	6.5
323.829	6.65
324.197	6.84
324.565	6.84
324.933	6.78
325.301	6.59
325.669	6.52
326.037	6.69
326.405	6.85
326.772	6.89
327.14	6.97
327.508	6.98
327.875	6.9
328.243	6.93
328.61	6.93
328.978	6.68
329.346	6.62
329.713	6.66
330.08	6.68
330.448	6.6
330.815	6.43
331.182	6.46
331.55	6.38
331.917	6.27
332.284	6.36
332.651	6.37
333.018	6.5
333.385	6.46
333.752	6.43
334.119	6.36
334.486	6.33
334.853	6.21
335.22	6.23
335.587	6.32
335.954	6.33
336.32	6.35
336.687	6.41
337.054	6.4
337.42	6.25
337.787	6.34
338.153	6.38
338.52	6.6
338.886	6.49
339.253	6.4
339.619	6.38
339.986	6.33
340.352	6.33
340.718	6.26
341.084	6.29
341.451	6.16
341.817	6.23
342.183	6.16
342.549	6.12
342.915	6.11
343.281	6.06
343.647	5.97
344.013	5.92
344.379	5.95
344.745	5.9
345.11	6.04
345.476	6.08
345.842	6.1
346.208	5.95
346.573	5.95
346.939	6.01
347.304	5.95
347.67	5.95
348.035	5.88
348.401	5.94
348.766	5.97
349.132	5.96
349.497	5.91
349.862	5.93
350.228	6
350.593	5.94
350.958	5.9
351.323	5.93
351.688	5.94
352.053	5.97
352.418	6.07
352.783	6.11
353.148	5.98
353.513	5.99
353.878	6.04
354.243	6.2
354.608	6.24
354.972	6.27
355.337	6.26
355.702	6.3
356.066	6.3
356.431	6.33
356.795	6.39
357.16	6.41
357.524	6.39
357.889	6.35
358.253	6.41
358.618	6.47
358.982	6.47
359.346	6.42
359.71	6.32
360.075	6.26
360.439	6.19
360.803	6.22
361.167	6.16
361.531	6.11
361.895	6.02
362.259	5.97
362.623	6.01
362.987	6.02
363.351	6.01
363.714	5.96
364.078	5.96
364.442	5.9
364.806	5.87
365.169	5.9
365.533	5.92
365.896	5.9
366.26	5.85
366.623	5.83
366.987	5.88
367.35	5.93
367.714	5.91
368.077	5.92
368.44	5.9
368.803	5.91
369.167	5.94
369.53	5.92
369.893	5.95
370.256	5.97
370.619	5.91
370.982	5.87
371.345	5.88
371.708	5.88
372.071	5.89
372.434	5.86
372.797	5.86
373.159	5.89
373.522	5.93
373.885	5.94
374.247	6
374.61	6.01
374.973	5.97
375.335	5.99
375.698	6.03
376.06	6.04
376.423	6.09
376.785	6.13
377.147	6.16
377.51	6.14
377.872	6.11
378.234	6.15
378.596	6.26
378.958	6.22
379.321	6.24
379.683	6.22
380.045	6.22
380.407	6.2
380.769	6.14
381.13	6.11
381.492	6.16
381.854	6.17
382.216	6.12
382.578	6.13
382.939	6.15
383.301	6.09
383.663	6.04
384.024	6.02
384.386	6.01
384.747	6
385.109	6.03
385.47	6
385.832	6.01
386.193	5.97
386.554	5.99
386.916	5.94
387.277	5.96
387.638	5.99
387.999	5.99
388.36	6.05
388.721	6.05
389.082	6.01
389.443	5.96
389.804	6.02
390.165	6.01
390.526	6.01
390.887	6.08
391.248	6.12
391.609	6.11
391.969	6.12
392.33	6.09
392.691	6.08
393.051	6.09
393.412	6.08
393.772	6.04
394.133	6.07
394.493	6.11
394.854	6.12
395.214	6.11
395.574	6.12
395.935	6.1
396.295	6.13
396.655	6.09
397.015	6.08
397.376	6.07
397.736	6.06
398.096	6.03
398.456	6
398.816	6
399.176	5.97
399.535	5.96
399.895	5.96
400.255	5.95
400.615	5.92
400.975	5.92
401.334	5.95
401.694	5.89
402.054	5.89
402.413	5.87
402.773	5.82
403.132	5.77
403.492	5.75
403.851	5.76
404.211	5.79
404.57	5.82
404.929	5.83
405.288	5.85
405.648	5.88
406.007	5.87
406.366	5.86
406.725	5.91
407.084	5.91
407.443	5.94
407.802	5.97
408.161	5.99
408.52	6.01
408.879	6.03
409.238	6.06
409.596	6.04
409.955	6.04
410.314	6.09
410.673	6.12
411.031	6.13
411.39	6.12
411.748	6.13
412.107	6.13
412.465	6.1
412.824	6.09
413.182	6.09
413.54	6.09
413.899	6.09
414.257	6.1
414.615	6.09
414.974	6.08
415.332	6.08
415.69	6.07
416.048	6.06
416.406	6.05
416.764	6.04
417.122	6.06
417.48	6.05
417.838	6.06
418.195	6.08
418.553	6.07
418.911	6.06
419.269	6.06
419.626	6.05
419.984	6.05
420.342	6.08
420.699	6.06
421.057	6.07
421.414	6.07
421.772	6.06
422.129	6.07
422.486	6.07
422.844	6.08
423.201	6.09
423.558	6.09
423.915	6.07
424.273	6.08
424.63	6.07
424.987	6.07
425.344	6.08
425.701	6.06
426.058	6.06
426.415	6.06
426.772	6.06
427.128	6.06
427.485	6.08
427.842	6.04
428.199	6.05
428.555	6.05
428.912	6.06
429.269	6.05
429.625	6.04
429.982	6.01
430.338	5.99
430.695	5.97
431.051	5.96
431.407	5.97
431.764	5.95
432.12	5.95
432.476	5.95
432.832	5.93
433.189	5.95
433.545	5.92
433.901	5.94
434.257	5.95
434.613	5.97
434.969	5.98
435.325	5.99
435.681	6
436.036	5.97
436.392	5.97
436.748	6
437.104	5.97
437.459	6
437.815	6.01
438.171	6.02
438.526	6.04
438.882	6.04
439.237	6.08
439.593	6.09
439.948	6.09
440.304	6.09
440.659	6.08
441.014	6.1
441.369	6.08
441.725	6.08
442.08	6.05
442.435	6.04
442.79	6.04
443.145	6.03
443.5	6.04
443.855	6.05
444.21	6.03
444.565	6.04
444.92	6.04
445.275	6.03
445.629	6.04
445.984	6.02
446.339	6
446.693	5.97
447.048	5.96
447.403	5.96
447.757	5.93
448.112	5.92
448.466	5.91
448.82	5.91
449.175	5.91
449.529	5.93
449.883	5.91
450.238	5.9
450.592	5.89
450.946	5.89
451.3	5.86
451.654	5.85
452.008	5.86
452.362	5.86
452.716	5.84
453.07	5.82
453.424	5.83
453.778	5.84
454.132	5.83
454.486	5.82
454.839	5.83
455.193	5.84
455.547	5.84
455.9	5.85
456.254	5.83
456.607	5.82
456.961	5.82
457.314	5.83
457.668	5.82
458.021	5.83
458.375	5.83
458.728	5.86
459.081	5.87
459.434	5.86
459.787	5.87
460.141	5.88
460.494	5.89
460.847	5.89
461.2	5.9
461.553	5.94
461.906	5.95
462.259	5.96
462.611	5.98
462.964	5.99
463.317	5.99
463.67	6
464.022	6
464.375	6
464.728	6
465.08	6
465.433	6
465.785	6
466.138	5.99
466.49	5.98
466.843	6.01
467.195	5.98
467.547	5.97
467.899	5.96
468.252	5.96
468.604	5.95
468.956	5.92
469.308	5.91
469.66	5.91
470.012	5.9
470.364	5.89
470.716	5.89
471.068	5.88
471.42	5.89
471.772	5.9
472.123	5.92
472.475	5.95
472.827	5.97
473.178	5.98
473.53	5.97
473.882	5.97
474.233	5.95
474.585	5.97
474.936	5.97
475.288	5.99
475.639	6
475.99	6
476.342	6.01
476.693	6.03
477.044	6.03
477.395	6.03
477.746	6.04
478.097	6.04
478.448	6.04
478.8	6.04
479.15	6.05
479.501	6.06
479.852	6.05
480.203	6.04
480.554	6.04
480.905	6.06
481.255	6.08
481.606	6.11
481.957	6.12
482.307	6.14
482.658	6.14
483.009	6.15
483.359	6.15
483.709	6.17
484.06	6.16
484.41	6.16
484.761	6.17
485.111	6.17
485.461	6.17
485.811	6.19
486.162	6.18
486.512	6.19
486.862	6.18
487.212	6.18
487.562	6.19
487.912	6.2
488.262	6.19
488.612	6.18
488.961	6.17
489.311	6.16
489.661	6.16
490.011	6.14
490.36	6.13
490.71	6.14
491.06	6.14
491.409	6.14
491.759	6.14
492.108	6.14
492.458	6.14
492.807	6.14
493.157	6.13
493.506	6.14
493.855	6.14
494.204	6.14
494.554	6.15
494.903	6.14
495.252	6.14
495.601	6.14
495.95	6.15
496.299	6.16
496.648	6.15
496.997	6.14
497.346	6.17
497.695	6.17
498.043	6.15
498.392	6.16
498.741	6.18
499.09	6.17
499.438	6.17
499.787	6.17
500.135	6.18
500.484	6.19
500.832	6.19
501.181	6.18
501.529	6.18
501.878	6.17
502.226	6.21
502.574	6.22
502.923	6.21
503.271	6.22
503.619	6.22
503.967	6.24
504.315	6.24
504.663	6.25
505.011	6.26
505.359	6.25
505.707	6.27
506.055	6.25
506.403	6.27
506.751	6.28
507.098	6.3
507.446	6.3
507.794	6.3
508.141	6.33
508.489	6.33
508.837	6.33
509.184	6.35
509.531	6.36
509.879	6.37
510.226	6.4
510.574	6.41
510.921	6.42
511.268	6.43
511.616	6.45
511.963	6.44
512.31	6.43
512.657	6.47
513.004	6.46
513.351	6.49
513.698	6.5
514.045	6.49
514.392	6.52
514.739	6.54
515.086	6.54
515.432	6.53
515.779	6.55
516.126	6.56
516.473	6.57
516.819	6.56
517.166	6.56
517.512	6.53
517.859	6.55
518.205	6.56
518.552	6.59
518.898	6.56
519.245	6.59
519.591	6.6
519.937	6.6
520.283	6.61
520.629	6.61
520.976	6.62
521.322	6.64
521.668	6.62
522.014	6.62
522.36	6.62
522.706	6.63
523.052	6.66
523.398	6.68
523.743	6.68
524.089	6.68
524.435	6.7
524.781	6.71
525.126	6.72
525.472	6.71
525.817	6.71
526.163	6.72
526.509	6.72
526.854	6.74
527.199	6.74
527.545	6.74
527.89	6.76
528.235	6.76
528.581	6.76
528.926	6.77
529.271	6.77
529.616	6.79
529.961	6.79
530.306	6.8
530.651	6.8
530.996	6.81
531.341	6.82
531.686	6.81
532.031	6.82
532.376	6.82
532.721	6.83
533.065	6.83
533.41	6.86
533.755	6.84
534.099	6.84
534.444	6.84
534.788	6.84
535.133	6.83
535.477	6.81
535.822	6.81
536.166	6.81
536.51	6.81
536.855	6.8
537.199	6.81
537.543	6.79
537.887	6.77
538.231	6.76
538.576	6.76
538.92	6.77
539.264	6.77
539.608	6.77
539.951	6.78
540.295	6.77
540.639	6.77
540.983	6.78
541.327	6.77
541.671	6.79
542.014	6.81
542.358	6.8
542.701	6.82
543.045	6.82
543.389	6.83
543.732	6.81
544.075	6.83
544.419	6.83
544.762	6.83
545.105	6.83
545.449	6.86
545.792	6.85
546.135	6.85
546.478	6.85
546.821	6.85
547.165	6.84
547.508	6.85
547.851	6.85
548.194	6.86
548.536	6.86
548.879	6.85
549.222	6.82
549.565	6.83
549.908	6.83
550.25	6.87
550.593	6.85
550.936	6.88
551.278	6.86
551.621	6.87
551.963	6.89
552.306	6.89
552.648	6.89
552.991	6.92
553.333	6.92
553.675	6.92
554.017	6.93
554.36	6.96
554.702	6.95
555.044	6.92
555.386	6.88
555.728	6.9
556.07	6.91
556.412	6.88
556.754	6.88
557.096	6.88
557.438	6.85
557.78	6.86
558.121	6.88
558.463	6.9
558.805	6.91
559.147	6.89
559.488	6.9
559.83	6.89
560.171	6.87
560.513	6.91
560.854	6.91
561.196	6.94
561.537	6.92
561.878	6.93
562.22	6.96
562.561	6.98
562.902	6.98
563.243	6.96
563.584	6.99
563.925	7
564.266	6.98
564.607	6.98
564.948	6.98
565.289	6.94
565.63	6.91
565.971	6.9
566.312	6.89
566.653	6.89
566.993	6.87
567.334	6.86
567.675	6.84
568.015	6.82
568.356	6.79
568.696	6.79
569.037	6.83
569.377	6.83
569.718	6.86
570.058	6.88
570.398	6.88
570.739	6.86
571.079	6.84
571.419	6.84
571.759	6.86
572.099	6.86
572.439	6.88
572.779	6.9
573.119	6.92
573.459	6.95
573.799	6.96
574.139	6.97
574.479	6.96
574.819	6.98
575.158	7.01
575.498	7.01
575.838	7.01
576.177	6.94
576.517	6.95
576.856	6.96
577.196	6.96
577.535	6.95
577.875	6.99
578.214	6.99
578.553	7.01
578.893	6.98
579.232	6.98
579.571	6.97
579.91	6.97
580.25	6.95
580.589	6.93
580.928	6.94
581.267	6.94
581.606	6.96
581.945	6.91
582.283	6.89
582.622	6.91
582.961	6.92
583.3	6.96
583.639	6.97
583.977	6.98
584.316	6.91
584.654	6.93
584.993	6.93
585.332	6.95
585.67	6.96
586.008	6.98
586.347	6.98
586.685	6.95
587.024	6.93
587.362	6.94
587.7	6.9
588.038	6.95
588.376	6.97
588.715	6.98
589.053	7.02
589.391	7.04
589.729	7.04
590.067	7.02
590.404	7.02
590.742	7.03
591.08	7.01
591.418	7.04
591.756	7.07
592.093	7.04
592.431	7.08
592.769	7.11
593.106	7.12
593.444	7.11
593.781	7.1
594.119	7.14
594.456	7.14
594.793	7.17
595.131	7.11
595.468	7.11
595.805	7.13
596.143	7.13
596.48	7.13
596.817	7.13
597.154	7.12
597.491	7.12
597.828	7.12
598.165	7.13
598.502	7.11
598.839	7.07
599.176	7.09
599.512	7.06
599.849	7.06
600.186	7.1
600.523	7.16
600.859	7.24
601.196	7.24
601.532	7.26
601.869	7.26
602.205	7.28
602.542	7.28
602.878	7.28
603.215	7.26
603.551	7.28
603.887	7.3
604.223	7.31
604.56	7.34
604.896	7.35
605.232	7.36
605.568	7.37
605.904	7.39
606.24	7.39
606.576	7.38
606.912	7.39
607.248	7.36
607.583	7.34
607.919	7.3
608.255	7.25
608.591	7.24
608.926	7.24
609.262	7.27
609.597	7.27
609.933	7.25
610.268	7.28
610.604	7.26
610.939	7.22
611.275	7.22
611.61	7.19
611.945	7.15
612.281	7.09
612.616	7.11
612.951	7.15
613.286	7.13
613.621	7.15
613.956	7.14
614.291	7.12
614.626	7.1
614.961	7.13
615.296	7.18
615.631	7.19
615.966	7.17
616.3	7.1
616.635	7.13
616.97	7.14
617.304	7.1
617.639	7.16
617.973	7.18
618.308	7.2
618.642	7.26
618.977	7.26
619.311	7.29
619.646	7.3
619.98	7.28
620.314	7.31
620.648	7.31
620.983	7.28
621.317	7.34
621.651	7.38
621.985	7.41
622.319	7.35
622.653	7.38
622.987	7.43
623.321	7.48
623.655	7.47
623.988	7.49
624.322	7.53
624.656	7.51
624.99	7.49
625.323	7.5
625.657	7.46
625.99	7.47
626.324	7.5
626.657	7.5
626.991	7.49
627.324	7.49
627.658	7.51
627.991	7.57
628.324	7.54
628.657	7.54
628.991	7.48
629.324	7.51
629.657	7.55
629.99	7.52
630.323	7.5
630.656	7.53
630.989	7.55
631.322	7.54
631.655	7.54
631.987	7.6
632.32	7.61
632.653	7.61
632.986	7.63
633.318	7.6
633.651	7.64
633.984	7.66
634.316	7.69
634.649	7.69
634.981	7.66
635.313	7.64
635.646	7.61
635.978	7.66
636.31	7.66
636.643	7.64
636.975	7.64
637.307	7.65
637.639	7.6
637.971	7.6
638.303	7.59
638.635	7.5
638.967	7.51
639.299	7.51
639.631	7.5
639.963	7.43
640.295	7.51
640.626	7.5
640.958	7.55
641.29	7.54
641.621	7.5
641.953	7.48
642.285	7.53
642.616	7.57
642.948	7.47
643.279	7.49
643.61	7.47
643.942	7.54
644.273	7.57
644.604	7.54
644.936	7.49
645.267	7.51
645.598	7.57
645.929	7.59
646.26	7.5
646.591	7.59
646.922	7.62
647.253	7.5
647.584	7.46
647.915	7.39
648.245	7.39
648.576	7.47
648.907	7.48
649.238	7.45
649.568	7.47
649.899	7.57
650.229	7.57
650.56	7.58
650.89	7.52
651.221	7.49
651.551	7.47
651.882	7.57
652.212	7.59
652.542	7.58
652.872	7.5
653.203	7.57
653.533	7.56
653.863	7.55
654.193	7.65
654.523	7.63
654.853	7.68
655.183	7.74
655.513	7.7
655.843	7.74
656.172	7.73
656.502	7.67
656.832	7.67
657.162	7.69
657.491	7.67
657.821	7.7
658.15	7.77
658.48	7.91
658.809	7.86
659.139	7.84
659.468	7.82
659.798	7.81
660.127	7.86
660.456	7.78
660.785	7.8
661.115	7.78
661.444	7.8
661.773	7.78
662.102	7.71
662.431	7.68
662.76	7.63
663.089	7.66
663.418	7.64
663.747	7.59
664.076	7.57
664.404	7.58
664.733	7.56
665.062	7.51
665.39	7.42
665.719	7.39
666.048	7.37
666.376	7.39
666.705	7.29
667.033	7.26
667.362	7.41
667.69	7.39
668.018	7.37
668.347	7.37
668.675	7.34
669.003	7.36
669.331	7.5
669.659	7.47
669.987	7.4
670.315	7.44
670.643	7.37
670.971	7.39
671.299	7.45
671.627	7.47
671.955	7.44
672.283	7.42
672.61	7.45
672.938	7.52
673.266	7.57
673.593	7.77
673.921	7.72
674.249	7.64
674.576	7.65
674.904	7.69
675.231	7.72
675.558	7.71
675.886	7.72
