Data from BA57750_Reflection_00012.txt Node
Date: Mon Nov 18 15:47:28 EST 2019
User: vgr7
Spectrometer: USB2G7710
Scans to average: 3
Trigger mode: 4
Integration Time (sec): 2.000000E-2
Electric dark correction enabled: true
Boxcar width: 10
XAxis mode: Wavelengths
Number of Pixels in Spectrum: 2048
>>>>>Begin Spectral Data<<<<<
177.721	24.08
178.105	52.68
178.488	198.36
178.871	-19.51
179.254	-74.62
179.636	-352.21
180.019	-354.02
180.402	268.75
180.785	244.58
181.168	117.96
181.55	236.56
181.933	173.71
182.316	213.65
182.698	178.68
183.081	210.66
183.463	363.21
183.846	522.79
184.228	432.93
184.611	578.32
184.993	379.39
185.376	520.88
185.758	526.63
186.14	625.94
186.522	444.43
186.904	312.23
187.287	212.37
187.669	334.06
188.051	271.1
188.433	556.45
188.815	825.9
189.197	30100
189.579	2865.22
189.961	17152.63
190.342	6518.6
190.724	-361.54
191.106	-320.47
191.488	-640.04
191.869	-825.05
192.251	-806.85
192.633	-356.17
193.014	-331.91
193.396	-594.8
193.777	-489.6
194.159	-487.85
194.54	-549.45
194.922	-388.75
195.303	-186.16
195.684	-202.52
196.065	-104.36
196.447	-122.52
196.828	-157.05
197.209	-140.27
197.59	-127.74
197.971	-131.88
198.352	-118.34
198.733	-138.23
199.114	-123.87
199.495	-95.13
199.876	-93.75
200.257	-70.86
200.638	-74.44
201.018	-66.71
201.399	-53.15
201.78	-42.51
202.16	-56.07
202.541	-85.99
202.922	-100.66
203.302	-133.34
203.683	-151.11
204.063	-179.33
204.444	-149.28
204.824	-135.71
205.204	-140
205.585	-131.73
205.965	-119.87
206.345	-148.17
206.725	-114.58
207.106	-139.38
207.486	-228.73
207.866	-230.97
208.246	-218
208.626	-201.84
209.006	-186.59
209.386	-225.21
209.766	-266.17
210.145	-306.35
210.525	-258.93
210.905	-208.46
211.285	-271.36
211.664	-229.4
212.044	-310.42
212.424	-247.73
212.803	-162.61
213.183	-162.79
213.562	-178.31
213.942	-122.07
214.321	-90.07
214.701	-102.86
215.08	-108.54
215.459	-86.36
215.838	-76.26
216.218	-82.71
216.597	-67.71
216.976	-83.74
217.355	-63.48
217.734	-55.84
218.113	-41.19
218.492	-33.17
218.871	-37.43
219.25	-27.68
219.629	-38.63
220.008	-41.17
220.387	-50.77
220.766	-76.44
221.144	-79.41
221.523	-97.9
221.902	-122.27
222.28	-154.84
222.659	-159.2
223.037	-134.88
223.416	-141.39
223.794	-157.26
224.173	-131.62
224.551	-103.37
224.929	-75
225.308	-57.82
225.686	-57.71
226.064	-53.23
226.442	-49.54
226.821	-43.34
227.199	-44.78
227.577	-39.9
227.955	-38.25
228.333	-31.19
228.711	-20.81
229.089	-18.43
229.467	-16.97
229.845	-15.81
230.222	-16.09
230.6	-15.57
230.978	-16.68
231.356	-12.38
231.733	-9.28
232.111	-8.08
232.488	-10.45
232.866	-10.65
233.243	-13.07
233.621	-11.98
233.998	-10.02
234.376	-10.19
234.753	-9.09
235.13	-7.43
235.508	-5.68
235.885	-5.49
236.262	-6.99
236.639	-8.68
237.016	-8.32
237.393	-6.26
237.77	-5.3
238.147	-3.68
238.524	-2.67
238.901	-1.84
239.278	-1.39
239.655	-0.63
240.032	0.31
240.409	0.46
240.785	0.99
241.162	1.77
241.539	2.22
241.915	1.79
242.292	1.61
242.668	2.22
243.045	2.18
243.421	2.14
243.798	2.47
244.174	2.6
244.551	2.81
244.927	3.15
245.303	3.22
245.679	3.3
246.056	3.03
246.432	2.89
246.808	2.97
247.184	2.85
247.56	2.65
247.936	2.36
248.312	2.65
248.688	2.67
249.064	2.73
249.44	2.66
249.815	3.02
250.191	3.01
250.567	2.62
250.943	2.77
251.318	2.92
251.694	3.01
252.069	3.08
252.445	3.3
252.82	3.07
253.196	3.13
253.571	3.04
253.947	3.47
254.322	3.45
254.697	3.45
255.073	3.47
255.448	3.26
255.823	3.14
256.198	2.94
256.573	2.88
256.948	2.77
257.323	2.98
257.698	2.81
258.073	2.9
258.448	3.01
258.823	2.9
259.198	2.82
259.573	2.79
259.948	2.77
260.322	2.68
260.697	2.73
261.072	2.57
261.446	2.48
261.821	2.49
262.195	2.59
262.57	2.54
262.944	2.47
263.319	2.49
263.693	2.62
264.067	2.68
264.442	2.78
264.816	2.57
265.19	2.53
265.564	2.44
265.938	2.41
266.313	2.33
266.687	2.28
267.061	2.4
267.435	2.28
267.809	2.24
268.183	2.16
268.556	2.04
268.93	2.26
269.304	2.53
269.678	2.54
270.051	2.55
270.425	2.61
270.799	2.7
271.172	2.87
271.546	3.01
271.919	3.01
272.293	3
272.666	3.17
273.04	3.22
273.413	3.25
273.787	3.17
274.16	3.2
274.533	3.37
274.906	3.16
275.279	3.3
275.653	3.34
276.026	3.44
276.399	3.49
276.772	3.42
277.145	3.33
277.518	3.34
277.891	3.33
278.263	3.26
278.636	3.31
279.009	3.28
279.382	3.2
279.755	3.11
280.127	3.07
280.5	3.1
280.872	3.04
281.245	3.09
281.617	3.38
281.99	3.49
282.362	3.52
282.735	3.52
283.107	3.34
283.479	3.44
283.852	3.48
284.224	3.51
284.596	3.57
284.968	3.63
285.34	3.59
285.713	3.67
286.085	3.86
286.457	4
286.829	4.06
287.201	3.98
287.572	3.93
287.944	3.88
288.316	3.83
288.688	3.79
289.06	3.71
289.431	3.5
289.803	3.36
290.175	3.27
290.546	3.47
290.918	3.61
291.289	3.65
291.661	3.69
292.032	3.59
292.403	3.53
292.775	3.57
293.146	3.56
293.517	3.37
293.889	3.35
294.26	3.3
294.631	3.24
295.002	3.19
295.373	3.22
295.744	3.34
296.115	3.42
296.486	3.35
296.857	3.36
297.228	3.43
297.599	3.51
297.97	3.67
298.34	3.75
298.711	3.72
299.082	3.6
299.452	3.57
299.823	3.82
300.194	3.85
300.564	3.69
300.935	3.68
301.305	3.81
301.676	3.77
302.046	3.75
302.416	3.92
302.787	4.03
303.157	4.18
303.527	4.08
303.897	4.12
304.267	4.26
304.637	4.37
305.008	4.46
305.378	4.45
305.748	4.34
306.117	4.18
306.487	4.2
306.857	4.32
307.227	4.37
307.597	4.25
307.967	4.29
308.336	4.36
308.706	4.41
309.076	4.41
309.445	4.46
309.815	4.49
310.184	4.46
310.554	4.53
310.923	4.47
311.293	4.59
311.662	4.5
312.031	4.47
312.401	4.55
312.77	4.67
313.139	4.83
313.508	4.81
313.877	4.74
314.246	4.78
314.616	4.94
314.985	4.96
315.353	4.9
315.722	4.93
316.091	5.09
316.46	5.01
316.829	5.06
317.198	5.13
317.567	5.19
317.935	5.17
318.304	5.1
318.672	5.22
319.041	5.21
319.41	5.33
319.778	5.34
320.147	5.31
320.515	5.16
320.883	5.03
321.252	5.27
321.62	5.39
321.988	5.41
322.357	5.15
322.725	5.18
323.093	5.36
323.461	5.29
323.829	5.25
324.197	5.43
324.565	5.39
324.933	5.36
325.301	5.33
325.669	5.27
326.037	5.31
326.405	5.29
326.772	5.32
327.14	5.28
327.508	5.28
327.875	5.27
328.243	5.38
328.61	5.37
328.978	5.22
329.346	5.28
329.713	5.22
330.08	5.31
330.448	5.25
330.815	5.21
331.182	5.37
331.55	5.39
331.917	5.4
332.284	5.68
332.651	5.62
333.018	5.63
333.385	5.75
333.752	5.88
334.119	5.91
334.486	5.79
334.853	5.86
335.22	5.86
335.587	5.9
335.954	5.74
336.32	5.8
336.687	5.88
337.054	5.86
337.42	5.98
337.787	6.13
338.153	6.14
338.52	6.16
338.886	6
339.253	5.91
339.619	5.91
339.986	5.71
340.352	5.74
340.718	5.7
341.084	5.77
341.451	5.76
341.817	5.87
342.183	5.95
342.549	5.99
342.915	6.18
343.281	6.21
343.647	6.33
344.013	6.37
344.379	6.34
344.745	6.29
345.11	6.29
345.476	6.19
345.842	6.23
346.208	6.21
346.573	6.32
346.939	6.45
347.304	6.44
347.67	6.45
348.035	6.5
348.401	6.56
348.766	6.4
349.132	6.28
349.497	6.2
349.862	6.26
350.228	6.26
350.593	6.17
350.958	6.11
351.323	6.08
351.688	6.07
352.053	6.09
352.418	6.23
352.783	6.24
353.148	6.25
353.513	6.26
353.878	6.22
354.243	6.26
354.608	6.28
354.972	6.31
355.337	6.38
355.702	6.39
356.066	6.38
356.431	6.41
356.795	6.52
357.16	6.46
357.524	6.37
357.889	6.36
358.253	6.42
358.618	6.42
358.982	6.37
359.346	6.32
359.71	6.37
360.075	6.34
360.439	6.35
360.803	6.29
361.167	6.3
361.531	6.36
361.895	6.28
362.259	6.21
362.623	6.18
362.987	6.11
363.351	6.08
363.714	6.1
364.078	6.06
364.442	6.06
364.806	6.1
365.169	6.12
365.533	6.13
365.896	6.1
366.26	6.15
366.623	6.2
366.987	6.23
367.35	6.14
367.714	6.14
368.077	6.09
368.44	6.17
368.803	6.13
369.167	6
369.53	6.01
369.893	6.04
370.256	6.05
370.619	6.09
370.982	6.06
371.345	5.99
371.708	6.02
372.071	5.95
372.434	5.93
372.797	5.93
373.159	5.87
373.522	5.84
373.885	5.83
374.247	5.83
374.61	5.81
374.973	5.85
375.335	5.83
375.698	5.81
376.06	5.78
376.423	5.76
376.785	5.85
377.147	5.92
377.51	5.89
377.872	5.93
378.234	5.89
378.596	5.89
378.958	5.88
379.321	5.88
379.683	5.84
380.045	5.81
380.407	5.8
380.769	5.78
381.13	5.69
381.492	5.64
381.854	5.63
382.216	5.63
382.578	5.61
382.939	5.6
383.301	5.56
383.663	5.5
384.024	5.49
384.386	5.45
384.747	5.42
385.109	5.41
385.47	5.35
385.832	5.34
386.193	5.31
386.554	5.32
386.916	5.3
387.277	5.32
387.638	5.31
387.999	5.29
388.36	5.28
388.721	5.3
389.082	5.28
389.443	5.23
389.804	5.15
390.165	5.1
390.526	5.07
390.887	5.09
391.248	5.14
391.609	5.12
391.969	5.1
392.33	5.04
392.691	4.99
393.051	4.96
393.412	4.94
393.772	4.91
394.133	4.87
394.493	4.85
394.854	4.84
395.214	4.8
395.574	4.8
395.935	4.78
396.295	4.77
396.655	4.75
397.015	4.75
397.376	4.78
397.736	4.78
398.096	4.74
398.456	4.71
398.816	4.69
399.176	4.65
399.535	4.63
399.895	4.59
400.255	4.59
400.615	4.55
400.975	4.53
401.334	4.52
401.694	4.49
402.054	4.45
402.413	4.46
402.773	4.43
403.132	4.39
403.492	4.37
403.851	4.34
404.211	4.32
404.57	4.29
404.929	4.27
405.288	4.22
405.648	4.24
406.007	4.23
406.366	4.18
406.725	4.21
407.084	4.17
407.443	4.18
407.802	4.2
408.161	4.19
408.52	4.16
408.879	4.16
409.238	4.18
409.596	4.19
409.955	4.16
410.314	4.17
410.673	4.14
411.031	4.14
411.39	4.14
411.748	4.14
412.107	4.13
412.465	4.14
412.824	4.13
413.182	4.09
413.54	4.06
413.899	4.07
414.257	4.02
414.615	3.99
414.974	3.98
415.332	3.92
415.69	3.91
416.048	3.89
416.406	3.86
416.764	3.83
417.122	3.8
417.48	3.77
417.838	3.73
418.195	3.75
418.553	3.73
418.911	3.73
419.269	3.73
419.626	3.7
419.984	3.66
420.342	3.66
420.699	3.65
421.057	3.64
421.414	3.62
421.772	3.61
422.129	3.62
422.486	3.6
422.844	3.59
423.201	3.57
423.558	3.57
423.915	3.56
424.273	3.55
424.63	3.52
424.987	3.52
425.344	3.53
425.701	3.5
426.058	3.49
426.415	3.47
426.772	3.43
427.128	3.44
427.485	3.45
427.842	3.44
428.199	3.43
428.555	3.43
428.912	3.41
429.269	3.41
429.625	3.4
429.982	3.4
430.338	3.39
430.695	3.39
431.051	3.37
431.407	3.37
431.764	3.36
432.12	3.38
432.476	3.37
432.832	3.35
433.189	3.36
433.545	3.35
433.901	3.36
434.257	3.36
434.613	3.35
434.969	3.34
435.325	3.34
435.681	3.34
436.036	3.32
436.392	3.32
436.748	3.31
437.104	3.29
437.459	3.29
437.815	3.28
438.171	3.28
438.526	3.3
438.882	3.3
439.237	3.3
439.593	3.32
439.948	3.31
440.304	3.31
440.659	3.31
441.014	3.3
441.369	3.29
441.725	3.28
442.08	3.29
442.435	3.28
442.79	3.26
443.145	3.26
443.5	3.27
443.855	3.26
444.21	3.26
444.565	3.26
444.92	3.25
445.275	3.24
445.629	3.23
445.984	3.22
446.339	3.21
446.693	3.19
447.048	3.17
447.403	3.15
447.757	3.15
448.112	3.14
448.466	3.13
448.82	3.12
449.175	3.12
449.529	3.1
449.883	3.08
450.238	3.06
450.592	3.07
450.946	3.05
451.3	3.04
451.654	3.05
452.008	3.04
452.362	3.03
452.716	3.03
453.07	3.03
453.424	3.03
453.778	3.04
454.132	3.04
454.486	3.04
454.839	3.05
455.193	3.04
455.547	3.03
455.9	3.04
456.254	3.04
456.607	3.03
456.961	3.04
457.314	3.05
457.668	3.04
458.021	3.04
458.375	3.05
458.728	3.07
459.081	3.06
459.434	3.06
459.787	3.07
460.141	3.07
460.494	3.07
460.847	3.06
461.2	3.05
461.553	3.07
461.906	3.09
462.259	3.1
462.611	3.11
462.964	3.11
463.317	3.11
463.67	3.13
464.022	3.15
464.375	3.14
464.728	3.16
465.08	3.2
465.433	3.19
465.785	3.19
466.138	3.18
466.49	3.19
466.843	3.18
467.195	3.19
467.547	3.2
467.899	3.21
468.252	3.21
468.604	3.26
468.956	3.24
469.308	3.23
469.66	3.24
470.012	3.25
470.364	3.27
470.716	3.28
471.068	3.26
471.42	3.24
471.772	3.28
472.123	3.29
472.475	3.29
472.827	3.29
473.178	3.3
473.53	3.31
473.882	3.31
474.233	3.33
474.585	3.33
474.936	3.33
475.288	3.33
475.639	3.35
475.99	3.32
476.342	3.34
476.693	3.32
477.044	3.33
477.395	3.32
477.746	3.33
478.097	3.33
478.448	3.35
478.8	3.37
479.15	3.34
479.501	3.35
479.852	3.34
480.203	3.35
480.554	3.36
480.905	3.37
481.255	3.37
481.606	3.36
481.957	3.37
482.307	3.38
482.658	3.38
483.009	3.37
483.359	3.37
483.709	3.38
484.06	3.38
484.41	3.38
484.761	3.38
485.111	3.38
485.461	3.37
485.811	3.37
486.162	3.37
486.512	3.38
486.862	3.38
487.212	3.38
487.562	3.38
487.912	3.38
488.262	3.37
488.612	3.37
488.961	3.37
489.311	3.37
489.661	3.37
490.011	3.37
490.36	3.37
490.71	3.37
491.06	3.37
491.409	3.36
491.759	3.35
492.108	3.35
492.458	3.34
492.807	3.35
493.157	3.35
493.506	3.35
493.855	3.35
494.204	3.35
494.554	3.36
494.903	3.34
495.252	3.35
495.601	3.37
495.95	3.37
496.299	3.37
496.648	3.38
496.997	3.39
497.346	3.43
497.695	3.46
498.043	3.47
498.392	3.47
498.741	3.51
499.09	3.54
499.438	3.58
499.787	3.61
500.135	3.65
500.484	3.68
500.832	3.73
501.181	3.78
501.529	3.8
501.878	3.84
502.226	3.89
502.574	3.93
502.923	3.95
503.271	3.97
503.619	4.04
503.967	4.09
504.315	4.13
504.663	4.15
505.011	4.18
505.359	4.23
505.707	4.3
506.055	4.35
506.403	4.41
506.751	4.44
507.098	4.5
507.446	4.54
507.794	4.58
508.141	4.62
508.489	4.68
508.837	4.74
509.184	4.8
509.531	4.87
509.879	4.92
510.226	5.02
510.574	5.08
510.921	5.12
511.268	5.17
511.616	5.25
511.963	5.31
512.31	5.39
512.657	5.48
513.004	5.56
513.351	5.64
513.698	5.73
514.045	5.82
514.392	5.93
514.739	6.03
515.086	6.16
515.432	6.24
515.779	6.3
516.126	6.39
516.473	6.48
516.819	6.58
517.166	6.67
517.512	6.76
517.859	6.87
518.205	7
518.552	7.09
518.898	7.18
519.245	7.27
519.591	7.33
519.937	7.42
520.283	7.55
520.629	7.66
520.976	7.79
521.322	7.92
521.668	8.05
522.014	8.19
522.36	8.33
522.706	8.51
523.052	8.72
523.398	8.95
523.743	9.16
524.089	9.36
524.435	9.57
524.781	9.76
525.126	9.94
525.472	10.12
525.817	10.31
526.163	10.48
526.509	10.64
526.854	10.8
527.199	10.95
527.545	11.07
527.89	11.21
528.235	11.35
528.581	11.5
528.926	11.64
529.271	11.8
529.616	11.94
529.961	12.1
530.306	12.26
530.651	12.41
530.996	12.59
531.341	12.77
531.686	12.96
532.031	13.16
532.376	13.36
532.721	13.57
533.065	13.78
533.41	14.01
533.755	14.24
534.099	14.48
534.444	14.72
534.788	14.96
535.133	15.21
535.477	15.47
535.822	15.73
536.166	16.02
536.51	16.34
536.855	16.68
537.199	17.02
537.543	17.37
537.887	17.73
538.231	18.07
538.576	18.4
538.92	18.76
539.264	19.08
539.608	19.4
539.951	19.69
540.295	19.99
540.639	20.28
540.983	20.56
541.327	20.85
541.671	21.12
542.014	21.4
542.358	21.66
542.701	21.91
543.045	22.18
543.389	22.44
543.732	22.68
544.075	22.94
544.419	23.2
544.762	23.47
545.105	23.75
545.449	24.04
545.792	24.38
546.135	24.71
546.478	25.06
546.821	25.43
547.165	25.81
547.508	26.18
547.851	26.52
548.194	26.87
548.536	27.21
548.879	27.57
549.222	27.92
549.565	28.28
549.908	28.69
550.25	29.02
550.593	29.41
550.936	29.8
551.278	30.19
551.621	30.56
551.963	30.92
552.306	31.31
552.648	31.68
552.991	32.02
553.333	32.39
553.675	32.74
554.017	33.03
554.36	33.25
554.702	33.58
555.044	33.85
555.386	34.2
555.728	34.53
556.07	34.89
556.412	35.16
556.754	35.49
557.096	35.78
557.438	36.14
557.78	36.46
558.121	36.79
558.463	37.09
558.805	37.38
559.147	37.66
559.488	37.96
559.83	38.27
560.171	38.54
560.513	38.84
560.854	39.09
561.196	39.41
561.537	39.73
561.878	40
562.22	40.31
562.561	40.55
562.902	40.81
563.243	40.97
563.584	41.25
563.925	41.48
564.266	41.69
564.607	41.95
564.948	42.19
565.289	42.39
565.63	42.64
565.971	42.91
566.312	43.12
566.653	43.38
566.993	43.6
567.334	43.84
567.675	44
568.015	44.26
568.356	44.53
568.696	44.72
569.037	44.9
569.377	45.14
569.718	45.37
570.058	45.59
570.398	45.87
570.739	46.08
571.079	46.27
571.419	46.54
571.759	46.71
572.099	46.88
572.439	47.03
572.779	47.19
573.119	47.32
573.459	47.52
573.799	47.63
574.139	47.73
574.479	47.86
574.819	47.97
575.158	48.07
575.498	48.16
575.838	48.3
576.177	48.47
576.517	48.57
576.856	48.63
577.196	48.74
577.535	48.89
577.875	49.08
578.214	49.27
578.553	49.4
578.893	49.54
579.232	49.68
579.571	49.89
579.91	50
580.25	50.2
580.589	50.32
580.928	50.44
581.267	50.65
581.606	50.81
581.945	51
582.283	51.21
582.622	51.38
582.961	51.59
583.3	51.7
583.639	51.87
583.977	52.07
584.316	52.21
584.654	52.28
584.993	52.39
585.332	52.46
585.67	52.51
586.008	52.64
586.347	52.81
586.685	52.82
587.024	52.95
587.362	52.96
587.7	53.14
588.038	53.31
588.376	53.45
588.715	53.55
589.053	53.66
589.391	53.7
589.729	53.79
590.067	53.82
590.404	53.95
590.742	54.07
591.08	54.13
591.418	54.15
591.756	54.21
592.093	54.22
592.431	54.36
592.769	54.43
593.106	54.52
593.444	54.56
593.781	54.71
594.119	54.78
594.456	54.82
594.793	54.91
595.131	54.95
595.468	55.03
595.805	55.11
596.143	55.19
596.48	55.25
596.817	55.32
597.154	55.39
597.491	55.46
597.828	55.47
598.165	55.54
598.502	55.73
598.839	55.86
599.176	55.99
599.512	56.11
599.849	56.3
600.186	56.39
600.523	56.5
600.859	56.56
601.196	56.66
601.532	56.78
601.869	56.82
602.205	56.84
602.542	56.82
602.878	56.86
603.215	56.95
603.551	57.03
603.887	57.08
604.223	57.13
604.56	57.2
604.896	57.28
605.232	57.4
605.568	57.4
605.904	57.4
606.24	57.46
606.576	57.46
606.912	57.41
607.248	57.4
607.583	57.44
607.919	57.45
608.255	57.48
608.591	57.55
608.926	57.58
609.262	57.64
609.597	57.7
609.933	57.75
610.268	57.74
610.604	57.8
610.939	57.8
611.275	57.89
611.61	57.91
611.945	57.93
612.281	57.84
612.616	57.91
612.951	58.01
613.286	58.02
613.621	58.02
613.956	58.13
614.291	58.25
614.626	58.25
614.961	58.38
615.296	58.44
615.631	58.5
615.966	58.62
616.3	58.8
616.635	58.98
616.97	59.1
617.304	59.18
617.639	59.23
617.973	59.34
618.308	59.43
618.642	59.47
618.977	59.51
619.311	59.7
619.646	59.76
619.98	59.76
620.314	59.77
620.648	59.82
620.983	59.72
621.317	59.73
621.651	59.88
621.985	59.91
622.319	60.02
622.653	60.07
622.987	59.99
623.321	60.01
623.655	59.95
623.988	59.96
624.322	59.96
624.656	59.96
624.99	59.89
625.323	59.89
625.657	59.92
625.99	60.01
626.324	59.92
626.657	59.9
626.991	60.01
627.324	60.15
627.658	60.21
627.991	60.38
628.324	60.48
628.657	60.49
628.991	60.55
629.324	60.41
629.657	60.37
629.99	60.43
630.323	60.49
630.656	60.52
630.989	60.5
631.322	60.57
631.655	60.69
631.987	60.8
632.32	60.83
632.653	60.84
632.986	60.8
633.318	60.9
633.651	60.96
633.984	60.93
634.316	60.77
634.649	60.73
634.981	60.65
635.313	60.57
635.646	60.43
635.978	60.36
636.31	60.44
636.643	60.51
636.975	60.51
637.307	60.42
637.639	60.49
637.971	60.5
638.303	60.46
638.635	60.44
638.967	60.51
639.299	60.51
639.631	60.54
639.963	60.56
640.295	60.63
640.626	60.67
640.958	60.65
641.29	60.68
641.621	60.77
641.953	60.78
642.285	60.83
642.616	60.95
642.948	61.02
643.279	61.13
643.61	61.11
643.942	61.26
644.273	61.38
644.604	61.37
644.936	61.48
645.267	61.5
645.598	61.43
645.929	61.39
646.26	61.44
646.591	61.48
646.922	61.6
647.253	61.53
647.584	61.53
647.915	61.56
648.245	61.7
648.576	61.72
648.907	61.77
649.238	61.78
649.568	61.74
649.899	61.69
650.229	61.67
650.56	61.73
650.89	61.7
651.221	61.67
651.551	61.61
651.882	61.53
652.212	61.59
652.542	61.61
652.872	61.58
653.203	61.55
653.533	61.55
653.863	61.47
654.193	61.48
654.523	61.59
654.853	61.69
655.183	61.67
655.513	61.63
655.843	61.69
656.172	61.83
656.502	61.91
656.832	62.07
657.162	62.09
657.491	62.16
657.821	62.13
658.15	62.17
658.48	62.3
658.809	62.43
659.139	62.43
659.468	62.49
659.798	62.44
660.127	62.47
660.456	62.53
660.785	62.48
661.115	62.57
661.444	62.56
661.773	62.52
662.102	62.58
662.431	62.69
662.76	62.74
663.089	62.66
663.418	62.66
663.747	62.65
664.076	62.78
664.404	62.78
664.733	62.87
