Data from BA57758_Reflection_00003.txt Node
Date: Mon Nov 18 15:11:20 EST 2019
User: vgr7
Spectrometer: USB2G7710
Scans to average: 3
Trigger mode: 4
Integration Time (sec): 2.000000E-2
Electric dark correction enabled: true
Boxcar width: 10
XAxis mode: Wavelengths
Number of Pixels in Spectrum: 2048
>>>>>Begin Spectral Data<<<<<
177.721	-397.98
178.105	-7.62
178.488	80.54
178.871	39.09
179.254	12.93
179.636	201.69
180.019	-107.92
180.402	-860
180.785	215.62
181.168	116.3
181.55	266.35
181.933	161.6
182.316	167.52
182.698	250.14
183.081	233.05
183.463	702.98
183.846	570.73
184.228	263.53
184.611	337.99
184.993	299.18
185.376	254.44
185.758	241.54
186.14	239.39
186.522	203.45
186.904	168.98
187.287	172.45
187.669	187.7
188.051	190.24
188.433	197.33
188.815	173.17
189.197	279.37
189.579	297.2
189.961	214.25
190.342	683.04
190.724	540.76
191.106	613.81
191.488	1045.21
191.869	-98.61
192.251	-151.77
192.633	-127.5
193.014	-279.4
193.396	-296.66
193.777	-362.79
194.159	-280.87
194.54	-147.27
194.922	-111.79
195.303	-74.12
195.684	-69.81
196.065	-46.57
196.447	-46.41
196.828	-66.72
197.209	-39.9
197.59	-27.97
197.971	-22.33
198.352	2.43
198.733	-18.6
199.114	-25.42
199.495	-33.55
199.876	-68.1
200.257	-18.2
200.638	-20.8
201.018	-17.87
201.399	-11.05
201.78	-2.02
202.16	-3.03
202.541	-17.89
202.922	-57.79
203.302	-91.58
203.683	-142.77
204.063	-288.4
204.444	-282.52
204.824	-262.89
205.204	-471.65
205.585	-296.23
205.965	-474.1
206.345	-310.7
206.725	-583.48
207.106	-894.86
207.486	-702.51
207.866	-593.09
208.246	-1452.53
208.626	-1678.28
209.006	-375.86
209.386	11500
209.766	-703
210.145	-555.77
210.525	-817.98
210.905	-119.24
211.285	-48.36
211.664	-36.48
212.044	-35.1
212.424	-30.69
212.803	-29.08
213.183	-31.81
213.562	-18.3
213.942	-9.87
214.321	-24.86
214.701	-33.81
215.08	-47.52
215.459	-30.22
215.838	-38.7
216.218	-47.05
216.597	-28.1
216.976	-47.09
217.355	-48.84
217.734	-44
218.113	-51.31
218.492	-59.41
218.871	-59.34
219.25	-72.25
219.629	-83.64
220.008	-80.02
220.387	-77.39
220.766	-95.85
221.144	-126.7
221.523	-166.41
221.902	-207.16
222.28	-189.17
222.659	-155.21
223.037	-107.06
223.416	-119.04
223.794	-84.78
224.173	-60.9
224.551	-69.63
224.929	-46.38
225.308	-32.53
225.686	-30.34
226.064	-18.69
226.442	-16.46
226.821	-12.05
227.199	-11.29
227.577	-10.51
227.955	-9.36
228.333	-10.54
228.711	-4.11
229.089	-1.41
229.467	-2.15
229.845	-1.59
230.222	-0.65
230.6	-1.17
230.978	-2.86
231.356	0.47
231.733	-0.53
232.111	-1.98
232.488	-1.07
232.866	-2.07
233.243	-2.11
233.621	-0.3
233.998	-0.29
234.376	-1.36
234.753	-3.51
235.13	-2.53
235.508	-2.68
235.885	-2.17
236.262	-1.52
236.639	-4.41
237.016	-3.01
237.393	-0.13
237.77	1.03
238.147	0.28
238.524	0.17
238.901	0.3
239.278	0.74
239.655	1.48
240.032	1.8
240.409	1.73
240.785	2.13
241.162	2.24
241.539	2.14
241.915	2.74
242.292	3.4
242.668	3.78
243.045	4.04
243.421	4.34
243.798	4.48
244.174	5.04
244.551	5.61
244.927	5.52
245.303	5.37
245.679	5.39
246.056	5.7
246.432	5.87
246.808	6.07
247.184	5.82
247.56	5.52
247.936	5.63
248.312	5.8
248.688	5.82
249.064	5.73
249.44	5.75
249.815	5.57
250.191	5.65
250.567	5.84
250.943	6
251.318	6.02
251.694	5.81
252.069	5.52
252.445	5.48
252.82	5.67
253.196	5.76
253.571	5.63
253.947	5.64
254.322	5.84
254.697	5.9
255.073	5.71
255.448	5.93
255.823	5.89
256.198	5.89
256.573	5.85
256.948	5.91
257.323	5.72
257.698	5.64
258.073	5.45
258.448	5.36
258.823	5.37
259.198	5.32
259.573	5.53
259.948	5.51
260.322	5.31
260.697	5.16
261.072	5.13
261.446	5.03
261.821	4.94
262.195	5.06
262.57	4.87
262.944	4.97
263.319	4.94
263.693	4.78
264.067	4.76
264.442	4.85
264.816	4.91
265.19	5.19
265.564	5.23
265.938	5.33
266.313	5.36
266.687	5.34
267.061	5.47
267.435	5.4
267.809	5.44
268.183	5.52
268.556	5.46
268.93	5.49
269.304	5.61
269.678	5.65
270.051	5.64
270.425	5.76
270.799	5.95
271.172	6.08
271.546	6.08
271.919	6.01
272.293	6.04
272.666	6.13
273.04	6.03
273.413	5.9
273.787	5.84
274.16	5.78
274.533	5.75
274.906	5.53
275.279	5.52
275.653	5.52
276.026	5.56
276.399	5.66
276.772	5.67
277.145	5.48
277.518	5.47
277.891	5.26
278.263	5.07
278.636	4.81
279.009	4.65
279.382	4.86
279.755	4.85
280.127	4.95
280.5	4.81
280.872	4.78
281.245	4.84
281.617	4.98
281.99	5.23
282.362	5.15
282.735	5.3
283.107	5.28
283.479	5.26
283.852	5.22
284.224	5.17
284.596	5.1
284.968	5.36
285.34	5.53
285.713	5.55
286.085	5.73
286.457	5.93
286.829	6.14
287.201	6.07
287.572	6.21
287.944	6.06
288.316	6.12
288.688	6.09
289.06	6.14
289.431	6.17
289.803	6.09
290.175	6.15
290.546	6.18
290.918	6.21
291.289	6.21
291.661	6.33
292.032	6.46
292.403	6.57
292.775	6.48
293.146	6.41
293.517	6.51
293.889	6.63
294.26	6.65
294.631	6.65
295.002	6.61
295.373	6.53
295.744	6.71
296.115	6.76
296.486	6.65
296.857	6.66
297.228	6.58
297.599	6.56
297.97	6.56
298.34	6.61
298.711	6.63
299.082	6.7
299.452	6.62
299.823	6.58
300.194	6.55
300.564	6.58
300.935	6.45
301.305	6.47
301.676	6.34
302.046	6.33
302.416	6.38
302.787	6.35
303.157	6.31
303.527	6.14
303.897	6.16
304.267	6.31
304.637	6.48
305.008	6.68
305.378	6.78
305.748	6.75
306.117	6.63
306.487	6.59
306.857	6.63
307.227	6.72
307.597	6.79
307.967	6.8
308.336	6.86
308.706	7.03
309.076	6.97
309.445	7.03
309.815	6.88
310.184	6.82
310.554	6.93
310.923	6.99
311.293	6.98
311.662	6.86
312.031	6.81
312.401	6.73
312.77	6.74
313.139	6.61
313.508	6.62
313.877	6.68
314.246	6.6
314.616	6.44
314.985	6.35
315.353	6.47
315.722	6.55
316.091	6.44
316.46	6.35
316.829	6.36
317.198	6.24
317.567	6.3
317.935	6.14
318.304	6.23
318.672	6.08
319.041	6.14
319.41	6.15
319.778	6.33
320.147	6.29
320.515	6.14
320.883	6.29
321.252	6.4
321.62	6.3
321.988	6.44
322.357	6.42
322.725	6.55
323.093	6.42
323.461	6.44
323.829	6.41
324.197	6.38
324.565	6.46
324.933	6.52
325.301	6.51
325.669	6.56
326.037	6.39
326.405	6.5
326.772	6.35
327.14	6.48
327.508	6.31
327.875	6.26
328.243	6.25
328.61	6.13
328.978	6.05
329.346	6.22
329.713	6.1
330.08	6.12
330.448	5.97
330.815	5.92
331.182	5.77
331.55	5.78
331.917	5.78
332.284	5.77
332.651	5.81
333.018	5.86
333.385	5.86
333.752	5.86
334.119	5.96
334.486	5.97
334.853	5.94
335.22	5.96
335.587	6.02
335.954	6.06
336.32	6.08
336.687	6.13
337.054	5.99
337.42	6.12
337.787	6.21
338.153	6.17
338.52	6.18
338.886	6.16
339.253	6.09
339.619	6.15
339.986	6.15
340.352	6.16
340.718	6.13
341.084	6.18
341.451	6.27
341.817	6.24
342.183	6.32
342.549	6.21
342.915	6.21
343.281	6.16
343.647	6.02
344.013	5.99
344.379	5.89
344.745	5.98
345.11	5.95
345.476	5.93
345.842	6.08
346.208	6.07
346.573	6.2
346.939	6.41
347.304	6.32
347.67	6.25
348.035	6.23
348.401	6.18
348.766	6.13
349.132	6.07
349.497	6.06
349.862	6.05
350.228	6.09
350.593	6.05
350.958	6.07
351.323	6.17
351.688	6.2
352.053	6.24
352.418	6.26
352.783	6.31
353.148	6.24
353.513	6.18
353.878	6.18
354.243	6.11
354.608	6.03
354.972	6.05
355.337	6.11
355.702	6.11
356.066	6.2
356.431	6.19
356.795	6.26
357.16	6.16
357.524	6.14
357.889	6.14
358.253	6.17
358.618	6.2
358.982	6.1
359.346	6.01
359.71	5.99
360.075	5.91
360.439	5.98
360.803	5.97
361.167	5.91
361.531	5.88
361.895	5.84
362.259	5.82
362.623	5.85
362.987	5.78
363.351	5.74
363.714	5.72
364.078	5.65
364.442	5.55
364.806	5.64
365.169	5.64
365.533	5.65
365.896	5.6
366.26	5.59
366.623	5.64
366.987	5.7
367.35	5.75
367.714	5.81
368.077	5.73
368.44	5.75
368.803	5.79
369.167	5.78
369.53	5.79
369.893	5.82
370.256	5.76
370.619	5.79
370.982	5.75
371.345	5.73
371.708	5.8
372.071	5.84
372.434	5.8
372.797	5.79
373.159	5.77
373.522	5.83
373.885	5.83
374.247	5.85
374.61	5.88
374.973	5.88
375.335	5.89
375.698	5.86
376.06	5.84
376.423	5.85
376.785	5.87
377.147	5.91
377.51	5.92
377.872	6.01
378.234	6.03
378.596	6.11
378.958	6.09
379.321	6.09
379.683	6.08
380.045	6.11
380.407	6.11
380.769	6.13
381.13	6.05
381.492	6
381.854	5.97
382.216	6
382.578	5.97
382.939	5.93
383.301	6
383.663	6
384.024	5.97
384.386	6
384.747	5.99
385.109	5.94
385.47	5.86
385.832	5.84
386.193	5.85
386.554	5.88
386.916	5.87
387.277	5.88
387.638	5.85
387.999	5.84
388.36	5.82
388.721	5.87
389.082	5.9
389.443	5.89
389.804	5.86
390.165	5.89
390.526	5.9
390.887	5.82
391.248	5.86
391.609	5.88
391.969	5.85
392.33	5.85
392.691	5.91
393.051	5.96
393.412	5.97
393.772	5.94
394.133	5.9
394.493	5.9
394.854	5.9
395.214	5.91
395.574	5.91
395.935	5.91
396.295	5.92
396.655	5.9
397.015	5.9
397.376	5.87
397.736	5.83
398.096	5.82
398.456	5.79
398.816	5.78
399.176	5.77
399.535	5.79
399.895	5.75
400.255	5.7
400.615	5.64
400.975	5.67
401.334	5.64
401.694	5.63
402.054	5.62
402.413	5.61
402.773	5.55
403.132	5.56
403.492	5.57
403.851	5.57
404.211	5.57
404.57	5.58
404.929	5.61
405.288	5.62
405.648	5.6
406.007	5.66
406.366	5.64
406.725	5.65
407.084	5.66
407.443	5.66
407.802	5.66
408.161	5.68
408.52	5.65
408.879	5.65
409.238	5.68
409.596	5.69
409.955	5.69
410.314	5.72
410.673	5.72
411.031	5.7
411.39	5.7
411.748	5.68
412.107	5.69
412.465	5.67
412.824	5.67
413.182	5.67
413.54	5.66
413.899	5.66
414.257	5.65
414.615	5.61
414.974	5.63
415.332	5.63
415.69	5.62
416.048	5.6
416.406	5.61
416.764	5.6
417.122	5.59
417.48	5.6
417.838	5.62
418.195	5.62
418.553	5.62
418.911	5.62
419.269	5.62
419.626	5.61
419.984	5.61
420.342	5.62
420.699	5.6
421.057	5.59
421.414	5.6
421.772	5.61
422.129	5.63
422.486	5.62
422.844	5.61
423.201	5.61
423.558	5.6
423.915	5.6
424.273	5.6
424.63	5.59
424.987	5.59
425.344	5.57
425.701	5.56
426.058	5.55
426.415	5.56
426.772	5.56
427.128	5.56
427.485	5.57
427.842	5.56
428.199	5.57
428.555	5.56
428.912	5.56
429.269	5.54
429.625	5.52
429.982	5.53
430.338	5.54
430.695	5.54
431.051	5.53
431.407	5.51
431.764	5.52
432.12	5.51
432.476	5.53
432.832	5.53
433.189	5.56
433.545	5.55
433.901	5.53
434.257	5.54
434.613	5.53
434.969	5.52
435.325	5.51
435.681	5.52
436.036	5.54
436.392	5.52
436.748	5.51
437.104	5.5
437.459	5.49
437.815	5.48
438.171	5.48
438.526	5.51
438.882	5.51
439.237	5.52
439.593	5.54
439.948	5.52
440.304	5.52
440.659	5.5
441.014	5.5
441.369	5.49
441.725	5.46
442.08	5.46
442.435	5.45
442.79	5.46
443.145	5.46
443.5	5.46
443.855	5.46
444.21	5.46
444.565	5.46
444.92	5.49
445.275	5.49
445.629	5.48
445.984	5.46
446.339	5.46
446.693	5.43
447.048	5.41
447.403	5.4
447.757	5.4
448.112	5.39
448.466	5.38
448.82	5.37
449.175	5.39
449.529	5.39
449.883	5.39
450.238	5.39
450.592	5.38
450.946	5.36
451.3	5.34
451.654	5.34
452.008	5.36
452.362	5.33
452.716	5.34
453.07	5.35
453.424	5.35
453.778	5.36
454.132	5.35
454.486	5.35
454.839	5.36
455.193	5.35
455.547	5.36
455.9	5.39
456.254	5.4
456.607	5.4
456.961	5.41
457.314	5.4
457.668	5.42
458.021	5.41
458.375	5.42
458.728	5.43
459.081	5.44
459.434	5.42
459.787	5.41
460.141	5.41
460.494	5.4
460.847	5.4
461.2	5.39
461.553	5.42
461.906	5.44
462.259	5.43
462.611	5.45
462.964	5.46
463.317	5.46
463.67	5.47
464.022	5.46
464.375	5.44
464.728	5.45
465.08	5.44
465.433	5.45
465.785	5.45
466.138	5.47
466.49	5.46
466.843	5.47
467.195	5.47
467.547	5.47
467.899	5.47
468.252	5.47
468.604	5.49
468.956	5.47
469.308	5.48
469.66	5.47
470.012	5.45
470.364	5.44
470.716	5.43
471.068	5.41
471.42	5.43
471.772	5.45
472.123	5.46
472.475	5.45
472.827	5.46
473.178	5.45
473.53	5.42
473.882	5.43
474.233	5.43
474.585	5.42
474.936	5.43
475.288	5.45
475.639	5.45
475.99	5.44
476.342	5.44
476.693	5.42
477.044	5.44
477.395	5.45
477.746	5.46
478.097	5.46
478.448	5.47
478.8	5.46
479.15	5.44
479.501	5.46
479.852	5.48
480.203	5.49
480.554	5.51
480.905	5.51
481.255	5.54
481.606	5.56
481.957	5.57
482.307	5.57
482.658	5.57
483.009	5.56
483.359	5.57
483.709	5.58
484.06	5.59
484.41	5.6
484.761	5.61
485.111	5.61
485.461	5.61
485.811	5.61
486.162	5.62
486.512	5.63
486.862	5.63
487.212	5.62
487.562	5.63
487.912	5.62
488.262	5.63
488.612	5.62
488.961	5.61
489.311	5.61
489.661	5.62
490.011	5.62
490.36	5.62
490.71	5.62
491.06	5.61
491.409	5.62
491.759	5.61
492.108	5.6
492.458	5.6
492.807	5.6
493.157	5.6
493.506	5.61
493.855	5.61
494.204	5.6
494.554	5.59
494.903	5.58
495.252	5.59
495.601	5.61
495.95	5.6
496.299	5.6
496.648	5.61
496.997	5.62
497.346	5.63
497.695	5.63
498.043	5.66
498.392	5.66
498.741	5.66
499.09	5.66
499.438	5.66
499.787	5.66
500.135	5.68
500.484	5.69
500.832	5.69
501.181	5.69
501.529	5.7
501.878	5.74
502.226	5.73
502.574	5.73
502.923	5.71
503.271	5.73
503.619	5.76
503.967	5.75
504.315	5.75
504.663	5.77
505.011	5.8
505.359	5.8
505.707	5.82
506.055	5.83
506.403	5.86
506.751	5.88
507.098	5.91
507.446	5.93
507.794	5.91
508.141	5.94
508.489	5.94
508.837	5.96
509.184	5.97
509.531	6
509.879	6.02
510.226	6.05
510.574	6.02
510.921	6.02
511.268	6.03
511.616	6.03
511.963	6.02
512.31	6.02
512.657	6.02
513.004	6.02
513.351	6.04
513.698	6.04
514.045	6.02
514.392	6.01
514.739	6.01
515.086	6.03
515.432	6.04
515.779	6.06
516.126	6.07
516.473	6.07
516.819	6.06
517.166	6.05
517.512	6.03
517.859	6.06
518.205	6.05
518.552	6.06
518.898	6.07
519.245	6.08
519.591	6.06
519.937	6.04
520.283	6.06
520.629	6.06
520.976	6.05
521.322	6.06
521.668	6.06
522.014	6.06
522.36	6.07
522.706	6.06
523.052	6.04
523.398	6.06
523.743	6.06
524.089	6.08
524.435	6.07
524.781	6.11
525.126	6.12
525.472	6.14
525.817	6.17
526.163	6.16
526.509	6.18
526.854	6.2
527.199	6.21
527.545	6.2
527.89	6.21
528.235	6.21
528.581	6.21
528.926	6.23
529.271	6.23
529.616	6.23
529.961	6.23
530.306	6.25
530.651	6.25
530.996	6.25
531.341	6.25
531.686	6.25
532.031	6.26
532.376	6.26
532.721	6.27
533.065	6.26
533.41	6.26
533.755	6.26
534.099	6.26
534.444	6.27
534.788	6.29
535.133	6.29
535.477	6.31
535.822	6.3
536.166	6.3
536.51	6.31
536.855	6.31
537.199	6.32
537.543	6.32
537.887	6.32
538.231	6.32
538.576	6.34
538.92	6.34
539.264	6.33
539.608	6.33
539.951	6.32
540.295	6.33
540.639	6.34
540.983	6.33
541.327	6.32
541.671	6.31
542.014	6.3
542.358	6.3
542.701	6.3
543.045	6.3
543.389	6.31
543.732	6.32
544.075	6.32
544.419	6.31
544.762	6.31
545.105	6.32
545.449	6.32
545.792	6.32
546.135	6.33
546.478	6.33
546.821	6.33
547.165	6.31
547.508	6.3
547.851	6.29
548.194	6.3
548.536	6.3
548.879	6.31
549.222	6.31
549.565	6.3
549.908	6.28
550.25	6.29
550.593	6.29
550.936	6.27
551.278	6.26
551.621	6.24
551.963	6.26
552.306	6.24
552.648	6.22
552.991	6.24
553.333	6.23
553.675	6.24
554.017	6.25
554.36	6.26
554.702	6.28
555.044	6.24
555.386	6.25
555.728	6.24
556.07	6.25
556.412	6.24
556.754	6.25
557.096	6.24
557.438	6.25
557.78	6.21
558.121	6.2
558.463	6.23
558.805	6.24
559.147	6.23
559.488	6.26
559.83	6.27
560.171	6.24
560.513	6.26
560.854	6.24
561.196	6.24
561.537	6.26
561.878	6.24
562.22	6.28
562.561	6.27
562.902	6.28
563.243	6.28
563.584	6.28
563.925	6.26
564.266	6.3
564.607	6.3
564.948	6.35
565.289	6.36
565.63	6.35
565.971	6.37
566.312	6.35
566.653	6.33
566.993	6.31
567.334	6.32
567.675	6.33
568.015	6.32
568.356	6.33
568.696	6.31
569.037	6.31
569.377	6.3
569.718	6.36
570.058	6.34
570.398	6.34
570.739	6.32
571.079	6.32
571.419	6.3
571.759	6.3
572.099	6.27
572.439	6.26
572.779	6.27
573.119	6.29
573.459	6.3
573.799	6.33
574.139	6.36
574.479	6.38
574.819	6.36
575.158	6.38
575.498	6.37
575.838	6.38
576.177	6.35
576.517	6.35
576.856	6.32
577.196	6.37
577.535	6.35
577.875	6.34
578.214	6.37
578.553	6.4
578.893	6.42
579.232	6.43
579.571	6.44
579.91	6.44
580.25	6.43
580.589	6.43
580.928	6.41
581.267	6.35
581.606	6.32
581.945	6.33
582.283	6.31
582.622	6.31
582.961	6.3
583.3	6.33
583.639	6.31
583.977	6.31
584.316	6.26
584.654	6.28
584.993	6.29
585.332	6.28
585.67	6.24
586.008	6.24
586.347	6.23
586.685	6.2
587.024	6.2
587.362	6.2
587.7	6.18
588.038	6.19
588.376	6.23
588.715	6.24
589.053	6.25
589.391	6.26
589.729	6.28
590.067	6.29
590.404	6.28
590.742	6.31
591.08	6.31
591.418	6.31
591.756	6.34
592.093	6.38
592.431	6.39
592.769	6.4
593.106	6.38
593.444	6.35
593.781	6.37
594.119	6.36
594.456	6.36
594.793	6.38
595.131	6.37
595.468	6.39
595.805	6.41
596.143	6.42
596.48	6.41
596.817	6.43
597.154	6.43
597.491	6.44
597.828	6.45
598.165	6.46
598.502	6.43
598.839	6.4
599.176	6.38
599.512	6.39
599.849	6.41
600.186	6.42
600.523	6.47
600.859	6.5
601.196	6.52
601.532	6.51
601.869	6.49
602.205	6.5
602.542	6.48
602.878	6.46
603.215	6.47
603.551	6.49
603.887	6.46
604.223	6.5
604.56	6.52
604.896	6.54
605.232	6.55
605.568	6.58
605.904	6.6
606.24	6.62
606.576	6.59
606.912	6.6
607.248	6.63
607.583	6.63
607.919	6.62
608.255	6.56
608.591	6.58
608.926	6.6
609.262	6.62
609.597	6.63
609.933	6.63
610.268	6.63
610.604	6.63
610.939	6.65
611.275	6.61
611.61	6.58
611.945	6.54
612.281	6.49
612.616	6.49
612.951	6.49
613.286	6.5
613.621	6.54
613.956	6.51
614.291	6.5
614.626	6.48
614.961	6.47
615.296	6.5
615.631	6.52
615.966	6.55
616.3	6.56
616.635	6.6
616.97	6.64
617.304	6.63
617.639	6.63
617.973	6.63
618.308	6.59
618.642	6.65
618.977	6.67
619.311	6.71
619.646	6.73
619.98	6.75
620.314	6.76
620.648	6.77
620.983	6.77
621.317	6.74
621.651	6.75
621.985	6.76
622.319	6.8
622.653	6.79
622.987	6.79
623.321	6.75
623.655	6.73
623.988	6.74
624.322	6.73
624.656	6.7
624.99	6.7
625.323	6.74
625.657	6.72
625.99	6.69
626.324	6.68
626.657	6.68
626.991	6.64
627.324	6.63
627.658	6.65
627.991	6.66
628.324	6.69
628.657	6.73
628.991	6.74
629.324	6.72
629.657	6.71
629.99	6.71
630.323	6.71
630.656	6.72
630.989	6.79
631.322	6.8
631.655	6.83
631.987	6.82
632.32	6.86
632.653	6.79
632.986	6.84
633.318	6.83
633.651	6.84
633.984	6.86
634.316	6.86
634.649	6.78
634.981	6.82
635.313	6.8
635.646	6.78
635.978	6.75
636.31	6.74
636.643	6.72
636.975	6.73
637.307	6.75
637.639	6.7
637.971	6.62
638.303	6.58
638.635	6.58
638.967	6.58
639.299	6.6
639.631	6.64
639.963	6.59
640.295	6.62
640.626	6.61
640.958	6.66
641.29	6.66
641.621	6.71
641.953	6.59
642.285	6.55
642.616	6.55
642.948	6.52
643.279	6.55
643.61	6.56
643.942	6.5
644.273	6.5
644.604	6.55
644.936	6.44
645.267	6.45
645.598	6.47
645.929	6.51
646.26	6.48
646.591	6.47
646.922	6.51
647.253	6.52
647.584	6.5
647.915	6.46
648.245	6.44
648.576	6.41
648.907	6.5
649.238	6.47
649.568	6.5
649.899	6.56
650.229	6.55
650.56	6.57
650.89	6.61
651.221	6.6
651.551	6.58
651.882	6.67
652.212	6.7
652.542	6.66
652.872	6.65
653.203	6.62
653.533	6.71
653.863	6.69
654.193	6.67
654.523	6.69
654.853	6.68
655.183	6.71
655.513	6.76
655.843	6.76
656.172	6.81
656.502	6.77
656.832	6.74
657.162	6.78
657.491	6.73
657.821	6.8
658.15	6.84
658.48	6.84
658.809	6.87
659.139	6.84
659.468	6.85
659.798	6.82
660.127	6.86
660.456	6.8
660.785	6.82
661.115	6.82
661.444	6.82
661.773	6.86
662.102	6.87
662.431	6.89
662.76	6.86
663.089	6.86
663.418	6.89
663.747	6.85
664.076	6.85
664.404	6.83
664.733	6.78
665.062	6.83
665.39	6.8
665.719	6.68
666.048	6.79
666.376	6.77
666.705	6.78
667.033	6.71
667.362	6.72
667.69	6.73
668.018	6.76
668.347	6.73
668.675	6.66
669.003	6.65
669.331	6.64
669.659	6.66
669.987	6.62
670.315	6.64
670.643	6.63
670.971	6.65
671.299	6.77
671.627	6.7
671.955	6.57
672.283	6.53
672.61	6.59
672.938	6.49
673.266	6.54
673.593	6.61
673.921	6.62
674.249	6.6
674.576	6.58
674.904	6.58
675.231	6.58
675.558	6.57
675.886	6.56
676.213	6.52
676.54	6.54
