Data from BA57662_Reflection_00012.txt Node
Date: Mon Nov 18 15:34:48 EST 2019
User: vgr7
Spectrometer: USB2G7710
Scans to average: 3
Trigger mode: 4
Integration Time (sec): 2.000000E-2
Electric dark correction enabled: true
Boxcar width: 10
XAxis mode: Wavelengths
Number of Pixels in Spectrum: 2048
>>>>>Begin Spectral Data<<<<<
177.721	32.46
178.105	31.03
178.488	48.41
178.871	130.84
179.254	200.23
179.636	-20.3
180.019	91.98
180.402	94.12
180.785	60.08
181.168	43.34
181.55	170.67
181.933	118.44
182.316	106.32
182.698	55.38
183.081	87.36
183.463	69.82
183.846	84.5
184.228	61.22
184.611	101.08
184.993	82.8
185.376	87.39
185.758	-35.72
186.14	14.58
186.522	37.92
186.904	-175.4
187.287	-266.53
187.669	-18.8
188.051	-19.97
188.433	4.44
188.815	31.35
189.197	23.33
189.579	49.27
189.961	72.4
190.342	70.67
190.724	51.45
191.106	54.75
191.488	44.04
191.869	45.31
192.251	34.89
192.633	54.5
193.014	60.31
193.396	53.66
193.777	51.8
194.159	74.42
194.54	59.33
194.922	73.53
195.303	49.05
195.684	92.14
196.065	77.23
196.447	107.64
196.828	80.01
197.209	87.86
197.59	66.06
197.971	59.4
198.352	53.9
198.733	43.18
199.114	48.41
199.495	32.03
199.876	29.7
200.257	16.39
200.638	4.04
201.018	-19.68
201.399	-10.27
201.78	-7.18
202.16	-10.98
202.541	-4.47
202.922	-7.46
203.302	-19.99
203.683	-13.26
204.063	-39.06
204.444	-32.1
204.824	-40.13
205.204	-33.18
205.585	-38.84
205.965	-37.01
206.345	-33.56
206.725	-52.41
207.106	-76.69
207.486	-95.37
207.866	-83.8
208.246	-42.71
208.626	-29.49
209.006	-31.72
209.386	-50.98
209.766	-32.54
210.145	-10.89
210.525	-35.44
210.905	-21.7
211.285	-4.08
211.664	-21.89
212.044	-18.04
212.424	-23.16
212.803	-25.21
213.183	-22.19
213.562	-31.71
213.942	-22.42
214.321	-15.84
214.701	9.88
215.08	7.79
215.459	2.27
215.838	-5.57
216.218	-28.24
216.597	-16.22
216.976	-4.34
217.355	-11.14
217.734	-18.04
218.113	-14.78
218.492	-3.88
218.871	-9.01
219.25	-9.13
219.629	-10.45
220.008	-11.36
220.387	-5.07
220.766	-6.98
221.144	-21.62
221.523	-17.71
221.902	-36.81
222.28	-41.32
222.659	-19.99
223.037	-18.9
223.416	-17.88
223.794	-11.23
224.173	-2.06
224.551	-3.67
224.929	-8.82
225.308	3.19
225.686	9.37
226.064	8.02
226.442	4.11
226.821	7.18
227.199	8.52
227.577	8.52
227.955	6.18
228.333	4.6
228.711	6.41
229.089	9.78
229.467	7.45
229.845	8.62
230.222	9.49
230.6	7.94
230.978	8.34
231.356	9.64
231.733	8.54
232.111	9.09
232.488	9.46
232.866	10.65
233.243	8.34
233.621	5.69
233.998	4.72
234.376	6.68
234.753	5.52
235.13	5.76
235.508	5.72
235.885	5.88
236.262	5.61
236.639	5.02
237.016	4.26
237.393	6.92
237.77	6.57
238.147	5.3
238.524	4.42
238.901	6.3
239.278	6.17
239.655	6.07
240.032	5.57
240.409	5.34
240.785	4.96
241.162	5.09
241.539	5.16
241.915	5.16
242.292	4.32
242.668	4.45
243.045	4.61
243.421	4.79
243.798	4.67
244.174	4.45
244.551	4.32
244.927	4.51
245.303	4.43
245.679	4.64
246.056	4.64
246.432	4.53
246.808	4.4
247.184	4.25
247.56	4.13
247.936	4.2
248.312	3.95
248.688	4.13
249.064	4.14
249.44	3.99
249.815	3.88
250.191	4.27
250.567	4.2
250.943	3.9
251.318	4.09
251.694	4.08
252.069	4.07
252.445	4.57
252.82	4.53
253.196	4.44
253.571	4.18
253.947	4.38
254.322	4.52
254.697	4.21
255.073	3.96
255.448	4.05
255.823	3.91
256.198	4.13
256.573	4.17
256.948	4.08
257.323	4.3
257.698	4.5
258.073	4.51
258.448	4.44
258.823	4.58
259.198	4.4
259.573	4.33
259.948	4.46
260.322	4.25
260.697	4.12
261.072	4.07
261.446	4.1
261.821	4.05
262.195	4.03
262.57	4
262.944	4.01
263.319	3.98
263.693	3.96
264.067	3.98
264.442	3.93
264.816	3.93
265.19	3.78
265.564	3.69
265.938	3.49
266.313	3.5
266.687	3.39
267.061	3.38
267.435	3.64
267.809	3.5
268.183	3.56
268.556	3.58
268.93	3.56
269.304	3.55
269.678	3.66
270.051	3.65
270.425	3.6
270.799	3.56
271.172	3.59
271.546	3.58
271.919	3.48
272.293	3.47
272.666	3.39
273.04	3.56
273.413	3.51
273.787	3.7
274.16	3.72
274.533	3.79
274.906	3.85
275.279	3.76
275.653	3.78
276.026	3.81
276.399	3.89
276.772	3.95
277.145	3.88
277.518	3.76
277.891	3.82
278.263	3.78
278.636	4.07
279.009	4.11
279.382	4.27
279.755	4.22
280.127	4.42
280.5	4.54
280.872	4.44
281.245	4.39
281.617	4.31
281.99	4.23
282.362	4.31
282.735	4.14
283.107	4.08
283.479	4.1
283.852	4
284.224	4.01
284.596	3.93
284.968	3.98
285.34	4.05
285.713	3.97
286.085	4.04
286.457	4.1
286.829	4.1
287.201	4.08
287.572	4.05
287.944	3.97
288.316	4.02
288.688	3.98
289.06	4.06
289.431	3.99
289.803	4.04
290.175	4.04
290.546	4.25
290.918	4.36
291.289	4.38
291.661	4.52
292.032	4.57
292.403	4.63
292.775	4.65
293.146	4.62
293.517	4.74
293.889	4.75
294.26	4.62
294.631	4.64
295.002	4.61
295.373	4.75
295.744	4.68
296.115	4.71
296.486	4.7
296.857	4.72
297.228	4.85
297.599	4.97
297.97	4.82
298.34	4.81
298.711	4.85
299.082	4.88
299.452	4.87
299.823	4.94
300.194	4.89
300.564	4.93
300.935	4.93
301.305	4.85
301.676	4.88
302.046	5.01
302.416	5.18
302.787	5.08
303.157	5.12
303.527	5.22
303.897	5.22
304.267	5.4
304.637	5.5
305.008	5.51
305.378	5.51
305.748	5.69
306.117	5.76
306.487	5.78
306.857	5.92
307.227	5.94
307.597	5.97
307.967	6.16
308.336	6.22
308.706	6.31
309.076	6.48
309.445	6.5
309.815	6.43
310.184	6.29
310.554	6.36
310.923	6.36
311.293	6.34
311.662	6.43
312.031	6.47
312.401	6.43
312.77	6.56
313.139	6.52
313.508	6.54
313.877	6.49
314.246	6.51
314.616	6.46
314.985	6.55
315.353	6.45
315.722	6.49
316.091	6.58
316.46	6.55
316.829	6.57
317.198	6.77
317.567	6.83
317.935	6.89
318.304	7.04
318.672	7.06
319.041	7.2
319.41	7.13
319.778	7.06
320.147	7.19
320.515	6.98
320.883	7.14
321.252	7.38
321.62	7.39
321.988	7.39
322.357	7.5
322.725	7.5
323.093	7.7
323.461	7.65
323.829	7.56
324.197	7.57
324.565	7.53
324.933	7.47
325.301	7.54
325.669	7.54
326.037	7.6
326.405	7.67
326.772	7.65
327.14	7.83
327.508	7.93
327.875	7.77
328.243	7.94
328.61	7.89
328.978	7.89
329.346	8.07
329.713	8.22
330.08	8.34
330.448	8.31
330.815	8.14
331.182	8.28
331.55	8.47
331.917	8.6
332.284	8.73
332.651	8.83
333.018	8.93
333.385	9.02
333.752	9.2
334.119	9.23
334.486	9.23
334.853	9.21
335.22	9.23
335.587	9.39
335.954	9.4
336.32	9.49
336.687	9.5
337.054	9.47
337.42	9.32
337.787	9.33
338.153	9.39
338.52	9.59
338.886	9.52
339.253	9.49
339.619	9.59
339.986	9.63
340.352	9.66
340.718	9.59
341.084	9.59
341.451	9.6
341.817	9.78
342.183	9.88
342.549	9.83
342.915	9.91
343.281	9.93
343.647	9.98
344.013	10.06
344.379	10
344.745	10.02
345.11	10.11
345.476	9.94
345.842	9.99
346.208	10.04
346.573	10.12
346.939	10.24
347.304	10.25
347.67	10.22
348.035	10.22
348.401	10.28
348.766	10.38
349.132	10.29
349.497	10.17
349.862	10.16
350.228	10.2
350.593	10.09
350.958	10.17
351.323	10.17
351.688	10.13
352.053	10.18
352.418	10.15
352.783	10.17
353.148	10.35
353.513	10.36
353.878	10.37
354.243	10.44
354.608	10.32
354.972	10.35
355.337	10.37
355.702	10.42
356.066	10.51
356.431	10.49
356.795	10.65
357.16	10.68
357.524	10.65
357.889	10.65
358.253	10.81
358.618	10.81
358.982	10.8
359.346	10.69
359.71	10.69
360.075	10.71
360.439	10.71
360.803	10.64
361.167	10.66
361.531	10.63
361.895	10.53
362.259	10.54
362.623	10.47
362.987	10.49
363.351	10.46
363.714	10.4
364.078	10.35
364.442	10.25
364.806	10.24
365.169	10.2
365.533	10.17
365.896	10.03
366.26	9.95
366.623	9.88
366.987	10
367.35	9.99
367.714	9.98
368.077	9.93
368.44	9.92
368.803	9.84
369.167	9.79
369.53	9.74
369.893	9.7
370.256	9.7
370.619	9.62
370.982	9.52
371.345	9.33
371.708	9.27
372.071	9.12
372.434	9.04
372.797	9.05
373.159	9.02
373.522	9.02
373.885	9.05
374.247	9.05
374.61	8.97
374.973	8.84
375.335	8.72
375.698	8.69
376.06	8.63
376.423	8.62
376.785	8.57
377.147	8.57
377.51	8.53
377.872	8.46
378.234	8.41
378.596	8.4
378.958	8.41
379.321	8.4
379.683	8.43
380.045	8.38
380.407	8.38
380.769	8.36
381.13	8.28
381.492	8.17
381.854	8.12
382.216	8.05
382.578	8.04
382.939	8.01
383.301	7.9
383.663	7.82
384.024	7.75
384.386	7.72
384.747	7.68
385.109	7.64
385.47	7.57
385.832	7.5
386.193	7.46
386.554	7.43
386.916	7.38
387.277	7.33
387.638	7.29
387.999	7.2
388.36	7.11
388.721	7.07
389.082	7.02
389.443	6.97
389.804	6.94
390.165	6.91
390.526	6.88
390.887	6.86
391.248	6.89
391.609	6.84
391.969	6.82
392.33	6.77
392.691	6.7
393.051	6.68
393.412	6.68
393.772	6.61
394.133	6.58
394.493	6.54
394.854	6.51
395.214	6.45
395.574	6.42
395.935	6.37
396.295	6.31
396.655	6.23
397.015	6.16
397.376	6.1
397.736	6.04
398.096	5.99
398.456	5.95
398.816	5.87
399.176	5.8
399.535	5.73
399.895	5.67
400.255	5.65
400.615	5.61
400.975	5.52
401.334	5.49
401.694	5.42
402.054	5.36
402.413	5.3
402.773	5.28
403.132	5.22
403.492	5.22
403.851	5.19
404.211	5.21
404.57	5.15
404.929	5.13
405.288	5.12
405.648	5.07
406.007	5.05
406.366	5
406.725	5
407.084	4.98
407.443	4.95
407.802	4.93
408.161	4.91
408.52	4.92
408.879	4.9
409.238	4.92
409.596	4.91
409.955	4.9
410.314	4.89
410.673	4.85
411.031	4.84
411.39	4.82
411.748	4.78
412.107	4.82
412.465	4.8
412.824	4.78
413.182	4.77
413.54	4.77
413.899	4.75
414.257	4.75
414.615	4.74
414.974	4.72
415.332	4.69
415.69	4.65
416.048	4.59
416.406	4.56
416.764	4.52
417.122	4.5
417.48	4.46
417.838	4.43
418.195	4.43
418.553	4.41
418.911	4.37
419.269	4.35
419.626	4.31
419.984	4.28
420.342	4.26
420.699	4.23
421.057	4.19
421.414	4.18
421.772	4.14
422.129	4.13
422.486	4.11
422.844	4.1
423.201	4.07
423.558	4.07
423.915	4.05
424.273	4.04
424.63	4.03
424.987	4.02
425.344	4.01
425.701	3.99
426.058	3.95
426.415	3.96
426.772	3.95
427.128	3.94
427.485	3.94
427.842	3.91
428.199	3.92
428.555	3.91
428.912	3.92
429.269	3.93
429.625	3.9
429.982	3.88
430.338	3.87
430.695	3.89
431.051	3.88
431.407	3.89
431.764	3.88
432.12	3.86
432.476	3.86
432.832	3.85
433.189	3.85
433.545	3.87
433.901	3.87
434.257	3.84
434.613	3.84
434.969	3.84
435.325	3.86
435.681	3.86
436.036	3.85
436.392	3.84
436.748	3.83
437.104	3.84
437.459	3.83
437.815	3.82
438.171	3.81
438.526	3.83
438.882	3.81
439.237	3.82
439.593	3.83
439.948	3.8
440.304	3.79
440.659	3.81
441.014	3.8
441.369	3.78
441.725	3.76
442.08	3.73
442.435	3.72
442.79	3.72
443.145	3.7
443.5	3.7
443.855	3.7
444.21	3.69
444.565	3.68
444.92	3.69
445.275	3.67
445.629	3.66
445.984	3.65
446.339	3.64
446.693	3.61
447.048	3.58
447.403	3.59
447.757	3.58
448.112	3.55
448.466	3.53
448.82	3.54
449.175	3.54
449.529	3.56
449.883	3.54
450.238	3.52
450.592	3.52
450.946	3.5
451.3	3.47
451.654	3.45
452.008	3.44
452.362	3.4
452.716	3.4
453.07	3.41
453.424	3.39
453.778	3.39
454.132	3.39
454.486	3.41
454.839	3.4
455.193	3.39
455.547	3.39
455.9	3.41
456.254	3.41
456.607	3.42
456.961	3.42
457.314	3.43
457.668	3.44
458.021	3.43
458.375	3.43
458.728	3.45
459.081	3.47
459.434	3.46
459.787	3.48
460.141	3.5
460.494	3.48
460.847	3.49
461.2	3.49
461.553	3.51
461.906	3.51
462.259	3.52
462.611	3.55
462.964	3.58
463.317	3.58
463.67	3.6
464.022	3.59
464.375	3.58
464.728	3.58
465.08	3.59
465.433	3.61
465.785	3.61
466.138	3.62
466.49	3.64
466.843	3.66
467.195	3.66
467.547	3.66
467.899	3.67
468.252	3.66
468.604	3.67
468.956	3.68
469.308	3.68
469.66	3.68
470.012	3.69
470.364	3.7
470.716	3.68
471.068	3.67
471.42	3.68
471.772	3.7
472.123	3.72
472.475	3.71
472.827	3.7
473.178	3.72
473.53	3.71
473.882	3.7
474.233	3.68
474.585	3.67
474.936	3.65
475.288	3.64
475.639	3.65
475.99	3.67
476.342	3.67
476.693	3.68
477.044	3.69
477.395	3.67
477.746	3.66
478.097	3.66
478.448	3.65
478.8	3.66
479.15	3.64
479.501	3.64
479.852	3.64
480.203	3.64
480.554	3.65
480.905	3.64
481.255	3.65
481.606	3.65
481.957	3.67
482.307	3.67
482.658	3.69
483.009	3.68
483.359	3.68
483.709	3.68
484.06	3.68
484.41	3.69
484.761	3.69
485.111	3.69
485.461	3.69
485.811	3.69
486.162	3.69
486.512	3.7
486.862	3.7
487.212	3.7
487.562	3.7
487.912	3.7
488.262	3.7
488.612	3.71
488.961	3.71
489.311	3.71
489.661	3.72
490.011	3.73
490.36	3.72
490.71	3.73
491.06	3.73
491.409	3.73
491.759	3.74
492.108	3.75
492.458	3.76
492.807	3.76
493.157	3.76
493.506	3.78
493.855	3.77
494.204	3.79
494.554	3.8
494.903	3.82
495.252	3.83
495.601	3.87
495.95	3.89
496.299	3.91
496.648	3.92
496.997	3.92
497.346	3.94
497.695	3.98
498.043	3.99
498.392	4.01
498.741	4.03
499.09	4.03
499.438	4.05
499.787	4.09
500.135	4.12
500.484	4.16
500.832	4.18
501.181	4.22
501.529	4.27
501.878	4.33
502.226	4.37
502.574	4.41
502.923	4.44
503.271	4.46
503.619	4.5
503.967	4.56
504.315	4.61
504.663	4.63
505.011	4.67
505.359	4.71
505.707	4.78
506.055	4.81
506.403	4.87
506.751	4.92
507.098	4.94
507.446	5.01
507.794	5.04
508.141	5.11
508.489	5.15
508.837	5.2
509.184	5.22
509.531	5.26
509.879	5.32
510.226	5.38
510.574	5.41
510.921	5.46
511.268	5.5
511.616	5.56
511.963	5.63
512.31	5.7
512.657	5.76
513.004	5.81
513.351	5.88
513.698	5.95
514.045	6
514.392	6.09
514.739	6.1
515.086	6.18
515.432	6.23
515.779	6.29
516.126	6.36
516.473	6.43
516.819	6.49
517.166	6.53
517.512	6.57
517.859	6.64
518.205	6.7
518.552	6.77
518.898	6.81
519.245	6.86
519.591	6.9
519.937	6.96
520.283	7.01
520.629	7.08
520.976	7.12
521.322	7.21
521.668	7.28
522.014	7.4
522.36	7.49
522.706	7.59
523.052	7.69
523.398	7.82
523.743	7.93
524.089	8.07
524.435	8.17
524.781	8.29
525.126	8.4
525.472	8.51
525.817	8.61
526.163	8.71
526.509	8.81
526.854	8.9
527.199	8.99
527.545	9.08
527.89	9.17
528.235	9.27
528.581	9.36
528.926	9.45
529.271	9.55
529.616	9.65
529.961	9.75
530.306	9.86
530.651	9.96
530.996	10.07
531.341	10.18
531.686	10.33
532.031	10.48
532.376	10.62
532.721	10.78
533.065	10.94
533.41	11.1
533.755	11.28
534.099	11.45
534.444	11.63
534.788	11.83
535.133	12.02
535.477	12.21
535.822	12.42
536.166	12.66
536.51	12.9
536.855	13.15
537.199	13.41
537.543	13.7
537.887	13.98
538.231	14.28
538.576	14.6
538.92	14.9
539.264	15.14
539.608	15.43
539.951	15.7
540.295	15.94
540.639	16.19
540.983	16.43
541.327	16.68
541.671	16.92
542.014	17.17
542.358	17.4
542.701	17.66
543.045	17.93
543.389	18.17
543.732	18.43
544.075	18.71
544.419	18.98
544.762	19.27
545.105	19.56
545.449	19.83
545.792	20.14
546.135	20.49
546.478	20.88
546.821	21.25
547.165	21.61
547.508	22.02
547.851	22.42
548.194	22.82
548.536	23.21
548.879	23.66
549.222	24.03
549.565	24.43
549.908	24.83
550.25	25.22
550.593	25.65
550.936	26.06
551.278	26.5
551.621	26.95
551.963	27.42
552.306	27.83
552.648	28.32
552.991	28.74
553.333	29.14
553.675	29.56
554.017	29.9
554.36	30.28
554.702	30.65
555.044	31.03
555.386	31.38
555.728	31.77
556.07	32.1
556.412	32.51
556.754	32.94
557.096	33.3
557.438	33.69
557.78	34.11
558.121	34.52
558.463	34.86
558.805	35.25
559.147	35.62
559.488	35.99
559.83	36.34
560.171	36.64
560.513	36.95
560.854	37.36
561.196	37.68
561.537	38.04
561.878	38.38
562.22	38.73
562.561	39.06
562.902	39.37
563.243	39.66
563.584	40
563.925	40.29
564.266	40.55
564.607	40.8
564.948	41.1
565.289	41.42
565.63	41.71
565.971	41.93
566.312	42.22
566.653	42.54
566.993	42.77
567.334	43.08
567.675	43.3
568.015	43.52
568.356	43.76
568.696	44.04
569.037	44.28
569.377	44.55
569.718	44.79
570.058	45.01
570.398	45.29
570.739	45.46
571.079	45.7
571.419	45.95
571.759	46.24
572.099	46.37
572.439	46.53
572.779	46.74
573.119	46.98
573.459	47.13
573.799	47.3
574.139	47.5
574.479	47.68
574.819	47.92
575.158	48.02
575.498	48.29
575.838	48.45
576.177	48.61
576.517	48.73
576.856	48.92
577.196	49.12
577.535	49.31
577.875	49.53
578.214	49.66
578.553	49.85
578.893	50.05
579.232	50.31
579.571	50.5
579.91	50.63
580.25	50.74
580.589	50.84
580.928	50.93
581.267	51.11
581.606	51.28
581.945	51.41
582.283	51.54
582.622	51.63
582.961	51.75
583.3	51.9
583.639	52
583.977	52.12
584.316	52.19
584.654	52.29
584.993	52.42
585.332	52.58
585.67	52.7
586.008	52.79
586.347	52.82
586.685	52.93
587.024	53.01
587.362	53.09
587.7	53.22
588.038	53.41
588.376	53.49
588.715	53.53
589.053	53.62
589.391	53.66
589.729	53.71
590.067	53.8
590.404	53.82
590.742	53.96
591.08	53.97
591.418	54.1
591.756	54.22
592.093	54.28
592.431	54.38
592.769	54.39
593.106	54.43
593.444	54.53
593.781	54.59
594.119	54.8
594.456	55.02
594.793	55.1
595.131	55.15
595.468	55.23
595.805	55.37
596.143	55.47
596.48	55.62
596.817	55.69
597.154	55.76
597.491	55.86
597.828	55.91
598.165	56.08
598.502	56.18
598.839	56.16
599.176	56.3
599.512	56.36
599.849	56.45
600.186	56.67
600.523	56.73
600.859	56.83
601.196	56.82
601.532	56.8
601.869	56.87
602.205	56.9
602.542	56.93
602.878	56.9
603.215	56.87
603.551	56.95
603.887	57.08
604.223	57.1
604.56	57.11
604.896	57.14
605.232	57.17
605.568	57.19
605.904	57.3
606.24	57.28
606.576	57.32
606.912	57.4
607.248	57.31
607.583	57.34
607.919	57.36
608.255	57.41
608.591	57.45
608.926	57.49
609.262	57.55
609.597	57.64
609.933	57.71
610.268	57.83
610.604	57.84
610.939	57.79
611.275	57.88
611.61	57.98
611.945	58.07
612.281	58.15
612.616	58.3
612.951	58.37
613.286	58.47
613.621	58.5
613.956	58.55
614.291	58.65
614.626	58.75
614.961	58.76
615.296	58.87
615.631	58.95
615.966	59.01
616.3	59.01
616.635	59.04
616.97	59.12
617.304	59.17
617.639	59.29
617.973	59.41
618.308	59.35
618.642	59.34
618.977	59.41
619.311	59.44
619.646	59.35
619.98	59.42
620.314	59.5
620.648	59.49
620.983	59.48
621.317	59.5
621.651	59.64
621.985	59.7
622.319	59.7
622.653	59.76
622.987	59.81
623.321	59.89
623.655	59.91
623.988	59.96
624.322	59.99
624.656	59.97
624.99	59.95
625.323	60.03
625.657	60.12
625.99	60.13
626.324	60.08
626.657	60.11
626.991	60.13
627.324	60.13
627.658	60.27
627.991	60.37
628.324	60.38
628.657	60.38
628.991	60.48
629.324	60.48
629.657	60.46
629.99	60.51
630.323	60.52
630.656	60.63
630.989	60.53
631.322	60.49
631.655	60.56
631.987	60.67
632.32	60.72
632.653	60.76
632.986	60.79
633.318	60.83
633.651	60.82
633.984	60.78
634.316	60.76
634.649	60.75
634.981	60.78
635.313	60.75
635.646	60.63
635.978	60.61
636.31	60.66
636.643	60.72
636.975	60.62
637.307	60.58
637.639	60.48
637.971	60.59
638.303	60.65
638.635	60.54
638.967	60.49
639.299	60.47
639.631	60.43
639.963	60.42
640.295	60.45
640.626	60.47
640.958	60.58
641.29	60.61
641.621	60.47
641.953	60.41
642.285	60.53
642.616	60.58
642.948	60.57
643.279	60.57
643.61	60.49
643.942	60.63
644.273	60.65
644.604	60.71
644.936	60.63
645.267	60.74
645.598	60.84
645.929	60.79
646.26	60.79
646.591	60.9
646.922	60.94
647.253	60.98
647.584	61.06
647.915	61.03
648.245	61.13
648.576	61.36
648.907	61.45
649.238	61.41
649.568	61.46
649.899	61.45
650.229	61.39
650.56	61.47
650.89	61.39
651.221	61.42
651.551	61.46
651.882	61.52
652.212	61.49
652.542	61.51
652.872	61.52
653.203	61.58
653.533	61.48
653.863	61.52
654.193	61.6
654.523	61.62
654.853	61.59
655.183	61.62
655.513	61.59
655.843	61.62
656.172	61.66
656.502	61.68
656.832	61.71
657.162	61.91
657.491	61.92
657.821	61.94
658.15	61.93
658.48	61.95
658.809	61.97
659.139	61.88
659.468	61.83
659.798	61.84
660.127	61.91
660.456	61.96
660.785	61.89
661.115	61.79
661.444	61.77
661.773	61.79
662.102	61.75
662.431	61.72
662.76	61.82
663.089	61.8
663.418	61.82
663.747	61.8
664.076	61.71
664.404	61.59
664.733	61.64
665.062	61.66
665.39	61.5
665.719	61.52
666.048	61.57
666.376	61.61
666.705	61.55
667.033	61.47
667.362	61.44
667.69	61.52
668.018	61.57
668.347	61.57
668.675	61.67
