Data from BA57758_Reflection_00007.txt Node
Date: Mon Nov 18 15:11:35 EST 2019
User: vgr7
Spectrometer: USB2G7710
Scans to average: 3
Trigger mode: 4
Integration Time (sec): 2.000000E-2
Electric dark correction enabled: true
Boxcar width: 10
XAxis mode: Wavelengths
Number of Pixels in Spectrum: 2048
>>>>>Begin Spectral Data<<<<<
177.721	132.39
178.105	82.06
178.488	98.15
178.871	124.11
179.254	121.11
179.636	383.9
180.019	139.6
180.402	-740
180.785	-127.18
181.168	-15.49
181.55	-33.84
181.933	55.89
182.316	112.86
182.698	140.04
183.081	86.61
183.463	238.96
183.846	273.3
184.228	113.88
184.611	82.12
184.993	59.14
185.376	-35.82
185.758	-20.26
186.14	-57.26
186.522	-42.61
186.904	-33.88
187.287	-64.61
187.669	-151.53
188.051	-87.82
188.433	-88.9
188.815	-100.17
189.197	-136.81
189.579	-157.34
189.961	-119.8
190.342	-698.59
190.724	-1198.58
191.106	-1413.81
191.488	-2256.16
191.869	720.21
192.251	201.11
192.633	195.05
193.014	253.85
193.396	112.84
193.777	205.26
194.159	54.78
194.54	92.06
194.922	65.87
195.303	42.63
195.684	46.97
196.065	80.87
196.447	69.87
196.828	65.75
197.209	75.62
197.59	77.86
197.971	69.49
198.352	76.63
198.733	55.26
199.114	30.24
199.495	59.27
199.876	53.94
200.257	66.13
200.638	71.38
201.018	48.07
201.399	36.93
201.78	31.03
202.16	27.3
202.541	14.57
202.922	17.12
203.302	4.04
203.683	1.91
204.063	-58.86
204.444	-31.52
204.824	-9.69
205.204	-44.88
205.585	-50.94
205.965	-58.27
206.345	-54.13
206.725	-143.48
207.106	-259.9
207.486	-194.43
207.866	-55.14
208.246	-234.63
208.626	-316.29
209.006	-10.34
209.386	-1500
209.766	44.33
210.145	3.61
210.525	-38.8
210.905	-24.92
211.285	-5.91
211.664	-5.68
212.044	-1.26
212.424	-2.7
212.803	-9.93
213.183	-12.68
213.562	-8.07
213.942	3.54
214.321	18.56
214.701	20.66
215.08	45.31
215.459	32.34
215.838	25.33
216.218	28.16
216.597	29.96
216.976	40.76
217.355	28.58
217.734	38.66
218.113	37.61
218.492	30.56
218.871	29.18
219.25	31.72
219.629	50.35
220.008	45.7
220.387	49.24
220.766	63.17
221.144	56.62
221.523	65.6
221.902	50.63
222.28	1
222.659	9.12
223.037	-19.76
223.416	-8.78
223.794	-4.64
224.173	-23.06
224.551	-21.31
224.929	-27.75
225.308	-15.46
225.686	-16.25
226.064	-8.72
226.442	-4.16
226.821	-0.46
227.199	-0.92
227.577	-5.18
227.955	-7.17
228.333	-6.83
228.711	-6.21
229.089	-4.52
229.467	-9.63
229.845	-10.39
230.222	-7.81
230.6	-6.51
230.978	-5.73
231.356	-3.17
231.733	-1.97
232.111	-0.53
232.488	-0.84
232.866	1.47
233.243	1.72
233.621	1.6
233.998	2.08
234.376	2.47
234.753	3.07
235.13	2.35
235.508	4.47
235.885	5.69
236.262	5.44
236.639	6.4
237.016	7.48
237.393	10.36
237.77	11.05
238.147	11.26
238.524	10.1
238.901	9.83
239.278	8.42
239.655	8.35
240.032	7.86
240.409	8.11
240.785	7.41
241.162	7.15
241.539	7.29
241.915	6.81
242.292	6.61
242.668	6.39
243.045	6.57
243.421	6.19
243.798	5.81
244.174	5.75
244.551	5.59
244.927	5.08
245.303	4.9
245.679	4.96
246.056	4.8
246.432	5.02
246.808	4.97
247.184	4.87
247.56	4.55
247.936	4.47
248.312	4.27
248.688	4.15
249.064	4.05
249.44	3.88
249.815	4.1
250.191	3.94
250.567	3.96
250.943	3.61
251.318	3.57
251.694	3.49
252.069	3.36
252.445	3.12
252.82	3.29
253.196	3.16
253.571	2.82
253.947	2.9
254.322	2.66
254.697	2.51
255.073	2.7
255.448	2.64
255.823	2.56
256.198	2.49
256.573	2.79
256.948	2.69
257.323	2.93
257.698	2.76
258.073	2.84
258.448	2.83
258.823	3.07
259.198	2.95
259.573	2.93
259.948	3.01
260.322	3.2
260.697	3.26
261.072	3.25
261.446	3.32
261.821	3.27
262.195	3.42
262.57	3.48
262.944	3.31
263.319	3.31
263.693	3.32
264.067	3.42
264.442	3.43
264.816	3.52
265.19	3.4
265.564	3.56
265.938	3.41
266.313	3.52
266.687	3.46
267.061	3.59
267.435	3.78
267.809	3.56
268.183	3.43
268.556	3.16
268.93	3.13
269.304	3.09
269.678	3.14
270.051	2.99
270.425	2.99
270.799	3.3
271.172	3.34
271.546	3.5
271.919	3.5
272.293	3.47
272.666	3.59
273.04	3.77
273.413	3.66
273.787	3.76
274.16	3.62
274.533	3.54
274.906	3.51
275.279	3.41
275.653	3.59
276.026	3.6
276.399	3.82
276.772	3.98
277.145	3.89
277.518	3.83
277.891	3.95
278.263	3.92
278.636	3.83
279.009	3.81
279.382	3.9
279.755	3.8
280.127	3.77
280.5	3.72
280.872	3.53
281.245	3.47
281.617	3.6
281.99	3.66
282.362	3.73
282.735	3.64
283.107	3.72
283.479	3.64
283.852	3.65
284.224	3.6
284.596	3.52
284.968	3.58
285.34	3.58
285.713	3.51
286.085	3.54
286.457	3.51
286.829	3.62
287.201	3.47
287.572	3.49
287.944	3.53
288.316	3.52
288.688	3.55
289.06	3.73
289.431	3.66
289.803	3.66
290.175	3.79
290.546	4
290.918	4.06
291.289	4.16
291.661	4.22
292.032	4.14
292.403	4.19
292.775	4.21
293.146	4.19
293.517	4.14
293.889	4.24
294.26	4.3
294.631	4.35
295.002	4.41
295.373	4.52
295.744	4.57
296.115	4.5
296.486	4.48
296.857	4.33
297.228	4.48
297.599	4.38
297.97	4.32
298.34	4.34
298.711	4.23
299.082	4.16
299.452	4.12
299.823	4.22
300.194	4.1
300.564	4.16
300.935	4.26
301.305	4.34
301.676	4.26
302.046	4.27
302.416	4.28
302.787	4.38
303.157	4.38
303.527	4.38
303.897	4.45
304.267	4.48
304.637	4.55
305.008	4.64
305.378	4.83
305.748	4.91
306.117	4.89
306.487	5.1
306.857	5.36
307.227	5.49
307.597	5.49
307.967	5.72
308.336	5.76
308.706	5.78
309.076	5.91
309.445	5.96
309.815	5.97
310.184	5.94
310.554	5.93
310.923	6.06
311.293	6.11
311.662	6.26
312.031	6.33
312.401	6.38
312.77	6.4
313.139	6.62
313.508	6.59
313.877	6.55
314.246	6.58
314.616	6.49
314.985	6.44
315.353	6.54
315.722	6.68
316.091	6.66
316.46	6.7
316.829	6.7
317.198	6.96
317.567	7.1
317.935	7.19
318.304	7.37
318.672	7.36
319.041	7.49
319.41	7.56
319.778	7.75
320.147	7.89
320.515	7.89
320.883	7.77
321.252	7.97
321.62	8.1
321.988	7.96
322.357	8.09
322.725	8.28
323.093	8.42
323.461	8.32
323.829	8.54
324.197	8.68
324.565	8.79
324.933	8.73
325.301	8.74
325.669	8.84
326.037	8.77
326.405	8.74
326.772	8.9
327.14	8.92
327.508	8.92
327.875	8.95
328.243	9.13
328.61	9.18
328.978	9.21
329.346	9.35
329.713	9.6
330.08	9.6
330.448	9.68
330.815	9.62
331.182	9.73
331.55	9.75
331.917	9.73
332.284	9.66
332.651	9.68
333.018	9.76
333.385	9.8
333.752	9.79
334.119	9.92
334.486	9.74
334.853	9.66
335.22	9.7
335.587	9.8
335.954	9.65
336.32	9.74
336.687	9.82
337.054	9.82
337.42	9.79
337.787	9.86
338.153	9.73
338.52	9.85
338.886	9.68
339.253	9.55
339.619	9.57
339.986	9.59
340.352	9.69
340.718	9.62
341.084	9.63
341.451	9.77
341.817	9.84
342.183	9.87
342.549	9.94
342.915	10.05
343.281	10.08
343.647	10.08
344.013	10.1
344.379	10.03
344.745	10.13
345.11	10.21
345.476	10.2
345.842	10.28
346.208	10.25
346.573	10.52
346.939	10.69
347.304	10.73
347.67	10.69
348.035	10.58
348.401	10.63
348.766	10.62
349.132	10.62
349.497	10.44
349.862	10.54
350.228	10.58
350.593	10.49
350.958	10.39
351.323	10.4
351.688	10.36
352.053	10.41
352.418	10.36
352.783	10.27
353.148	10.29
353.513	10.25
353.878	10.2
354.243	10.11
354.608	10.04
354.972	10
355.337	10.03
355.702	10.15
356.066	10.16
356.431	10.14
356.795	10.19
357.16	10.19
357.524	10.07
357.889	10
358.253	9.99
358.618	10.01
358.982	9.95
359.346	9.89
359.71	9.83
360.075	9.77
360.439	9.73
360.803	9.65
361.167	9.6
361.531	9.64
361.895	9.59
362.259	9.55
362.623	9.51
362.987	9.46
363.351	9.36
363.714	9.28
364.078	9.23
364.442	9.12
364.806	9.11
365.169	9.06
365.533	9.04
365.896	8.98
366.26	8.91
366.623	8.88
366.987	8.86
367.35	8.79
367.714	8.7
368.077	8.69
368.44	8.63
368.803	8.54
369.167	8.4
369.53	8.37
369.893	8.3
370.256	8.23
370.619	8.22
370.982	8.16
371.345	8.06
371.708	8
372.071	7.91
372.434	7.83
372.797	7.75
373.159	7.6
373.522	7.55
373.885	7.5
374.247	7.46
374.61	7.35
374.973	7.23
375.335	7.19
375.698	7.09
376.06	7.06
376.423	7.02
376.785	6.97
377.147	6.88
377.51	6.81
377.872	6.75
378.234	6.66
378.596	6.56
378.958	6.49
379.321	6.42
379.683	6.34
380.045	6.32
380.407	6.32
380.769	6.3
381.13	6.28
381.492	6.18
381.854	6.13
382.216	6.08
382.578	6.02
382.939	5.91
383.301	5.82
383.663	5.7
384.024	5.66
384.386	5.69
384.747	5.68
385.109	5.64
385.47	5.56
385.832	5.53
386.193	5.54
386.554	5.5
386.916	5.44
387.277	5.42
387.638	5.41
387.999	5.33
388.36	5.29
388.721	5.26
389.082	5.23
389.443	5.17
389.804	5.15
390.165	5.13
390.526	5.12
390.887	5.1
391.248	5.14
391.609	5.11
391.969	5.04
392.33	4.94
392.691	4.88
393.051	4.85
393.412	4.84
393.772	4.74
394.133	4.74
394.493	4.69
394.854	4.66
395.214	4.6
395.574	4.56
395.935	4.48
396.295	4.38
396.655	4.33
397.015	4.28
397.376	4.23
397.736	4.21
398.096	4.17
398.456	4.13
398.816	4.06
399.176	3.96
399.535	3.88
399.895	3.88
400.255	3.9
400.615	3.88
400.975	3.82
401.334	3.81
401.694	3.73
402.054	3.72
402.413	3.69
402.773	3.65
403.132	3.62
403.492	3.62
403.851	3.63
404.211	3.61
404.57	3.6
404.929	3.59
405.288	3.59
405.648	3.57
406.007	3.56
406.366	3.57
406.725	3.62
407.084	3.64
407.443	3.62
407.802	3.58
408.161	3.55
408.52	3.51
408.879	3.53
409.238	3.55
409.596	3.55
409.955	3.53
410.314	3.51
410.673	3.5
411.031	3.48
411.39	3.44
411.748	3.46
412.107	3.45
412.465	3.41
412.824	3.36
413.182	3.36
413.54	3.35
413.899	3.34
414.257	3.31
414.615	3.27
414.974	3.27
415.332	3.26
415.69	3.26
416.048	3.24
416.406	3.2
416.764	3.18
417.122	3.16
417.48	3.13
417.838	3.1
418.195	3.09
418.553	3.07
418.911	3.06
419.269	3.05
419.626	3.04
419.984	3.02
420.342	3.02
420.699	2.99
421.057	2.97
421.414	2.94
421.772	2.91
422.129	2.9
422.486	2.88
422.844	2.87
423.201	2.85
423.558	2.85
423.915	2.83
424.273	2.82
424.63	2.83
424.987	2.83
425.344	2.83
425.701	2.82
426.058	2.83
426.415	2.82
426.772	2.78
427.128	2.78
427.485	2.79
427.842	2.77
428.199	2.79
428.555	2.78
428.912	2.78
429.269	2.78
429.625	2.75
429.982	2.73
430.338	2.73
430.695	2.72
431.051	2.72
431.407	2.73
431.764	2.73
432.12	2.71
432.476	2.7
432.832	2.69
433.189	2.71
433.545	2.71
433.901	2.7
434.257	2.69
434.613	2.69
434.969	2.7
435.325	2.7
435.681	2.68
436.036	2.7
436.392	2.7
436.748	2.69
437.104	2.71
437.459	2.73
437.815	2.72
438.171	2.74
438.526	2.72
438.882	2.71
439.237	2.7
439.593	2.7
439.948	2.69
440.304	2.7
440.659	2.71
441.014	2.68
441.369	2.68
441.725	2.69
442.08	2.68
442.435	2.68
442.79	2.68
443.145	2.67
443.5	2.65
443.855	2.65
444.21	2.65
444.565	2.63
444.92	2.62
445.275	2.6
445.629	2.59
445.984	2.59
446.339	2.59
446.693	2.58
447.048	2.57
447.403	2.56
447.757	2.54
448.112	2.52
448.466	2.51
448.82	2.51
449.175	2.52
449.529	2.51
449.883	2.5
450.238	2.47
450.592	2.47
450.946	2.46
451.3	2.45
451.654	2.44
452.008	2.45
452.362	2.45
452.716	2.46
453.07	2.46
453.424	2.47
453.778	2.47
454.132	2.47
454.486	2.45
454.839	2.46
455.193	2.46
455.547	2.44
455.9	2.47
456.254	2.49
456.607	2.47
456.961	2.46
457.314	2.47
457.668	2.5
458.021	2.5
458.375	2.5
458.728	2.5
459.081	2.51
459.434	2.51
459.787	2.52
460.141	2.53
460.494	2.53
460.847	2.53
461.2	2.53
461.553	2.54
461.906	2.55
462.259	2.56
462.611	2.58
462.964	2.6
463.317	2.59
463.67	2.6
464.022	2.61
464.375	2.61
464.728	2.62
465.08	2.62
465.433	2.63
465.785	2.65
466.138	2.68
466.49	2.69
466.843	2.7
467.195	2.72
467.547	2.72
467.899	2.72
468.252	2.72
468.604	2.73
468.956	2.74
469.308	2.74
469.66	2.73
470.012	2.73
470.364	2.74
470.716	2.75
471.068	2.76
471.42	2.78
471.772	2.8
472.123	2.8
472.475	2.79
472.827	2.8
473.178	2.79
473.53	2.78
473.882	2.76
474.233	2.75
474.585	2.71
474.936	2.73
475.288	2.73
475.639	2.72
475.99	2.73
476.342	2.72
476.693	2.72
477.044	2.74
477.395	2.73
477.746	2.72
478.097	2.71
478.448	2.69
478.8	2.66
479.15	2.65
479.501	2.64
479.852	2.64
480.203	2.64
480.554	2.64
480.905	2.65
481.255	2.64
481.606	2.65
481.957	2.66
482.307	2.64
482.658	2.64
483.009	2.64
483.359	2.63
483.709	2.63
484.06	2.63
484.41	2.63
484.761	2.63
485.111	2.63
485.461	2.64
485.811	2.64
486.162	2.65
486.512	2.66
486.862	2.66
487.212	2.66
487.562	2.67
487.912	2.67
488.262	2.68
488.612	2.68
488.961	2.69
489.311	2.69
489.661	2.7
490.011	2.71
490.36	2.71
490.71	2.73
491.06	2.74
491.409	2.76
491.759	2.76
492.108	2.76
492.458	2.78
492.807	2.77
493.157	2.79
493.506	2.8
493.855	2.81
494.204	2.82
494.554	2.84
494.903	2.84
495.252	2.86
495.601	2.88
495.95	2.91
496.299	2.94
496.648	2.96
496.997	2.99
497.346	3.02
497.695	3.05
498.043	3.07
498.392	3.1
498.741	3.13
499.09	3.15
499.438	3.22
499.787	3.26
500.135	3.32
500.484	3.36
500.832	3.41
501.181	3.47
501.529	3.51
501.878	3.58
502.226	3.66
502.574	3.72
502.923	3.76
503.271	3.82
503.619	3.89
503.967	3.97
504.315	4.02
504.663	4.11
505.011	4.19
505.359	4.27
505.707	4.35
506.055	4.44
506.403	4.53
506.751	4.62
507.098	4.69
507.446	4.76
507.794	4.83
508.141	4.92
508.489	5
508.837	5.1
509.184	5.19
509.531	5.26
509.879	5.37
510.226	5.47
510.574	5.56
510.921	5.64
511.268	5.75
511.616	5.86
511.963	5.97
512.31	6.07
512.657	6.2
513.004	6.33
513.351	6.48
513.698	6.62
514.045	6.74
514.392	6.88
514.739	7.02
515.086	7.18
515.432	7.33
515.779	7.48
516.126	7.64
516.473	7.77
516.819	7.92
517.166	8.06
517.512	8.18
517.859	8.32
518.205	8.45
518.552	8.58
518.898	8.71
519.245	8.81
519.591	8.94
519.937	9.07
520.283	9.2
520.629	9.32
520.976	9.45
521.322	9.64
521.668	9.81
522.014	9.99
522.36	10.18
522.706	10.37
523.052	10.6
523.398	10.82
523.743	11.05
524.089	11.29
524.435	11.52
524.781	11.76
525.126	11.98
525.472	12.18
525.817	12.36
526.163	12.54
526.509	12.71
526.854	12.87
527.199	13.02
527.545	13.15
527.89	13.29
528.235	13.46
528.581	13.61
528.926	13.77
529.271	13.95
529.616	14.11
529.961	14.27
530.306	14.43
530.651	14.61
530.996	14.81
531.341	15
531.686	15.19
532.031	15.39
532.376	15.6
532.721	15.82
533.065	16.03
533.41	16.28
533.755	16.5
534.099	16.74
534.444	17.01
534.788	17.27
535.133	17.51
535.477	17.77
535.822	18.05
536.166	18.32
536.51	18.6
536.855	18.92
537.199	19.23
537.543	19.57
537.887	19.9
538.231	20.22
538.576	20.56
538.92	20.88
539.264	21.18
539.608	21.46
539.951	21.75
540.295	22.03
540.639	22.29
540.983	22.55
541.327	22.8
541.671	23.05
542.014	23.29
542.358	23.54
542.701	23.79
543.045	24.01
543.389	24.26
543.732	24.51
544.075	24.78
544.419	25.05
544.762	25.33
545.105	25.6
545.449	25.89
545.792	26.19
546.135	26.52
546.478	26.85
546.821	27.18
547.165	27.52
547.508	27.87
547.851	28.2
548.194	28.55
548.536	28.92
548.879	29.24
549.222	29.61
549.565	29.98
549.908	30.3
550.25	30.66
550.593	31
550.936	31.33
551.278	31.62
551.621	31.99
551.963	32.28
552.306	32.57
552.648	32.83
552.991	33.09
553.333	33.37
553.675	33.68
554.017	33.99
554.36	34.28
554.702	34.59
555.044	34.83
555.386	35.07
555.728	35.32
556.07	35.6
556.412	35.85
556.754	36.13
557.096	36.41
557.438	36.65
557.78	36.93
558.121	37.23
558.463	37.49
558.805	37.71
559.147	37.99
559.488	38.26
559.83	38.56
560.171	38.8
560.513	39.08
560.854	39.31
561.196	39.53
561.537	39.76
561.878	39.94
562.22	40.17
562.561	40.38
562.902	40.66
563.243	40.86
563.584	41.06
563.925	41.25
564.266	41.44
564.607	41.65
564.948	41.82
565.289	41.96
565.63	42.16
565.971	42.29
566.312	42.47
566.653	42.65
566.993	42.79
567.334	42.98
567.675	43.14
568.015	43.32
568.356	43.46
568.696	43.62
569.037	43.77
569.377	43.96
569.718	44.16
570.058	44.25
570.398	44.45
570.739	44.54
571.079	44.67
571.419	44.78
571.759	44.91
572.099	45
572.439	45.08
572.779	45.19
573.119	45.36
573.459	45.45
573.799	45.54
574.139	45.66
574.479	45.77
574.819	45.8
575.158	45.85
575.498	45.97
575.838	46.04
576.177	46.12
576.517	46.21
576.856	46.28
577.196	46.4
577.535	46.43
577.875	46.57
578.214	46.69
578.553	46.86
578.893	46.96
579.232	47.11
579.571	47.31
579.91	47.43
580.25	47.55
580.589	47.66
580.928	47.8
581.267	47.89
581.606	47.97
581.945	48.09
582.283	48.32
582.622	48.44
582.961	48.58
583.3	48.71
583.639	48.76
583.977	48.92
584.316	49.04
584.654	49.2
584.993	49.36
585.332	49.36
585.67	49.41
586.008	49.47
586.347	49.51
586.685	49.61
587.024	49.64
587.362	49.67
587.7	49.71
588.038	49.74
588.376	49.89
588.715	50.05
589.053	50.15
589.391	50.13
589.729	50.14
590.067	50.18
590.404	50.19
590.742	50.2
591.08	50.24
591.418	50.29
591.756	50.35
592.093	50.34
592.431	50.44
592.769	50.5
593.106	50.55
593.444	50.56
593.781	50.58
594.119	50.63
594.456	50.68
594.793	50.73
595.131	50.77
595.468	50.74
595.805	50.73
596.143	50.73
596.48	50.8
596.817	50.84
597.154	50.9
597.491	50.99
597.828	51.17
598.165	51.22
598.502	51.24
598.839	51.2
599.176	51.21
599.512	51.23
599.849	51.25
600.186	51.27
600.523	51.36
600.859	51.32
601.196	51.35
601.532	51.4
601.869	51.49
602.205	51.56
602.542	51.58
602.878	51.58
603.215	51.58
603.551	51.61
603.887	51.65
604.223	51.7
604.56	51.67
604.896	51.62
605.232	51.59
605.568	51.64
605.904	51.65
606.24	51.72
606.576	51.72
606.912	51.82
607.248	51.89
607.583	51.98
607.919	52.07
608.255	52.1
608.591	52.17
608.926	52.19
609.262	52.21
609.597	52.26
609.933	52.29
610.268	52.43
610.604	52.43
610.939	52.5
611.275	52.55
611.61	52.61
611.945	52.65
612.281	52.7
612.616	52.67
612.951	52.84
613.286	52.88
613.621	53.09
613.956	53.1
614.291	53.18
614.626	53.14
614.961	53.19
615.296	53.12
615.631	53.22
615.966	53.26
616.3	53.29
616.635	53.34
616.97	53.37
617.304	53.36
617.639	53.43
617.973	53.41
618.308	53.42
618.642	53.51
618.977	53.52
619.311	53.6
619.646	53.69
619.98	53.7
620.314	53.62
620.648	53.57
620.983	53.53
621.317	53.46
621.651	53.51
621.985	53.51
622.319	53.63
622.653	53.5
622.987	53.47
623.321	53.46
623.655	53.43
623.988	53.47
624.322	53.42
624.656	53.37
624.99	53.45
625.323	53.35
625.657	53.36
625.99	53.39
626.324	53.35
626.657	53.37
626.991	53.33
627.324	53.38
627.658	53.4
627.991	53.45
628.324	53.53
628.657	53.53
628.991	53.62
629.324	53.6
629.657	53.66
629.99	53.72
630.323	53.71
630.656	53.78
630.989	53.84
631.322	53.85
631.655	53.89
631.987	53.81
632.32	53.92
632.653	53.9
632.986	53.93
633.318	54
633.651	54.09
633.984	54.1
634.316	54.2
634.649	54.1
634.981	54.19
635.313	54.18
635.646	54.23
635.978	54.13
636.31	54.21
636.643	54.24
636.975	54.28
637.307	54.39
637.639	54.35
637.971	54.35
638.303	54.4
638.635	54.44
638.967	54.37
639.299	54.39
639.631	54.38
639.963	54.36
640.295	54.35
640.626	54.17
640.958	54.21
641.29	54.12
641.621	54.24
641.953	54.14
642.285	54.12
642.616	54.19
642.948	54.23
643.279	54.14
643.61	54.14
643.942	54.09
644.273	54.04
644.604	54.02
644.936	53.98
645.267	54.02
645.598	54.02
645.929	54.12
646.26	54.03
646.591	54.12
646.922	54.15
647.253	54.13
647.584	54.14
647.915	54.09
648.245	54.1
648.576	54.16
648.907	54.18
649.238	54.25
649.568	54.19
649.899	54.17
650.229	54.27
650.56	54.31
650.89	54.38
651.221	54.56
651.551	54.66
651.882	54.77
652.212	54.76
652.542	54.72
652.872	54.74
653.203	54.8
653.533	54.84
653.863	54.87
654.193	54.97
654.523	55.03
654.853	55.1
655.183	55.09
655.513	55.02
655.843	54.95
656.172	54.88
656.502	54.91
656.832	55.02
657.162	55.01
657.491	54.99
657.821	54.94
658.15	54.77
658.48	54.73
658.809	54.64
659.139	54.72
659.468	54.84
659.798	54.93
660.127	55.01
660.456	55
660.785	55.01
661.115	54.94
661.444	55.02
661.773	55.06
662.102	55.13
662.431	55.19
662.76	55.22
663.089	55.31
663.418	55.28
663.747	55.26
664.076	55.3
664.404	55.28
664.733	55.36
665.062	55.47
665.39	55.46
665.719	55.51
666.048	55.4
666.376	55.36
666.705	55.29
667.033	55.23
667.362	55.1
667.69	55.08
