Data from BA57748_Reflection_00009.txt Node
Date: Mon Nov 18 15:55:34 EST 2019
User: vgr7
Spectrometer: USB2G7710
Scans to average: 3
Trigger mode: 4
Integration Time (sec): 2.000000E-2
Electric dark correction enabled: true
Boxcar width: 10
XAxis mode: Wavelengths
Number of Pixels in Spectrum: 2048
>>>>>Begin Spectral Data<<<<<
177.721	-39.29
178.105	46.9
178.488	-37.52
178.871	-0.29
179.254	21.63
179.636	-53.54
180.019	20.87
180.402	127.27
180.785	40.22
181.168	-19.63
181.55	245.75
181.933	92.33
182.316	78.18
182.698	85.5
183.081	65.62
183.463	76.58
183.846	235.51
184.228	222.34
184.611	283.41
184.993	809.51
185.376	1028.79
185.758	-1888.17
186.14	404.41
186.522	641.27
186.904	423.13
187.287	267.96
187.669	351.56
188.051	328.48
188.433	580.33
188.815	464.72
189.197	417.4
189.579	430.13
189.961	426.02
190.342	425.77
190.724	733.4
191.106	538.15
191.488	-9305.41
191.869	-1696.18
192.251	7563.41
192.633	627.86
193.014	243.01
193.396	228.03
193.777	258.03
194.159	248.09
194.54	334.19
194.922	670.14
195.303	-1606.42
195.684	858.36
196.065	-540.95
196.447	11394.12
196.828	-8609.68
197.209	-8609.68
197.59	4777.97
197.971	1527.03
198.352	-7521.62
198.733	521.25
199.114	2252.67
199.495	436.61
199.876	776.79
200.257	1775.98
200.638	-707.48
201.018	-867.25
201.399	-303.65
201.78	-201.4
202.16	-286.91
202.541	-53042.86
202.922	887.99
203.302	496.64
203.683	2236.13
204.063	645.45
204.444	1307.43
204.824	1530.96
205.204	1690.7
205.585	945.95
205.965	-1685.37
206.345	-1982.9
206.725	-2672.41
207.106	-20426.32
207.486	-2306.42
207.866	2552.55
208.246	-1793.05
208.626	-2244.37
209.006	-810.84
209.386	1801.82
209.766	1493.19
210.145	1639.03
210.525	2861.06
210.905	-759.34
211.285	-361.54
211.664	-531.58
212.044	-504.38
212.424	-347.03
212.803	-450.07
213.183	-158.99
213.562	-138.71
213.942	-105.33
214.321	-78.41
214.701	-100.45
215.08	-192.08
215.459	-122.7
215.838	-161.11
216.218	-154.07
216.597	-94.94
216.976	-101.82
217.355	-79.34
217.734	-132.59
218.113	-102.01
218.492	-125.95
218.871	-143.93
219.25	-95.77
219.629	-96.4
220.008	-123.9
220.387	-121.27
220.766	-114.49
221.144	-230.84
221.523	-254.44
221.902	-359.69
222.28	-448.1
222.659	-399.63
223.037	-236.22
223.416	-377.12
223.794	-301.24
224.173	-261.1
224.551	-255.11
224.929	-187.07
225.308	-111.2
225.686	-79.48
226.064	-57.55
226.442	-46.02
226.821	-36.41
227.199	-35.05
227.577	-30.16
227.955	-28.01
228.333	-32.54
228.711	-25.65
229.089	-22.96
229.467	-18.95
229.845	-15.98
230.222	-14.78
230.6	-15.34
230.978	-13.01
231.356	-8.8
231.733	-8.43
232.111	-5.29
232.488	-6.01
232.866	-7.06
233.243	-10.27
233.621	-10.98
233.998	-11.26
234.376	-11.45
234.753	-10.79
235.13	-11.06
235.508	-10.26
235.885	-7.82
236.262	-6.29
236.639	-6.14
237.016	-3.09
237.393	-1.19
237.77	0.16
238.147	1.01
238.524	2.31
238.901	2.12
239.278	2.75
239.655	3.89
240.032	4.19
240.409	4.65
240.785	5.05
241.162	5.76
241.539	5.45
241.915	5.28
242.292	4.84
242.668	4.37
243.045	4.6
243.421	4.53
243.798	4.52
244.174	4.85
244.551	4.99
244.927	4.42
245.303	4.48
245.679	4.66
246.056	4.82
246.432	4.57
246.808	4.53
247.184	4.03
247.56	3.76
247.936	3.78
248.312	3.8
248.688	3.63
249.064	3.31
249.44	3.3
249.815	3.51
250.191	3.48
250.567	3.69
250.943	3.72
251.318	3.9
251.694	3.83
252.069	3.57
252.445	3.34
252.82	3.4
253.196	3.07
253.571	2.99
253.947	2.78
254.322	3.08
254.697	3.11
255.073	3.69
255.448	3.76
255.823	3.47
256.198	3.37
256.573	3.37
256.948	3.57
257.323	3.75
257.698	3.71
258.073	3.76
258.448	3.83
258.823	3.75
259.198	3.72
259.573	3.7
259.948	3.64
260.322	3.72
260.697	3.55
261.072	3.61
261.446	3.53
261.821	3.36
262.195	3.4
262.57	3.45
262.944	3.26
263.319	3.09
263.693	3.11
264.067	3.17
264.442	3.41
264.816	3.4
265.19	3.3
265.564	3.04
265.938	3.29
266.313	3.03
266.687	3.12
267.061	3.25
267.435	3.31
267.809	3.27
268.183	3.1
268.556	3.22
268.93	3.19
269.304	3.21
269.678	3.48
270.051	3.25
270.425	3.23
270.799	3.29
271.172	3.41
271.546	3.44
271.919	3.41
272.293	3.22
272.666	3.32
273.04	3.27
273.413	3.37
273.787	3.26
274.16	3.17
274.533	3.1
274.906	2.88
275.279	2.79
275.653	3.02
276.026	3
276.399	3.04
276.772	3.13
277.145	3.02
277.518	2.97
277.891	3.05
278.263	2.77
278.636	2.76
279.009	2.76
279.382	2.77
279.755	2.63
280.127	2.98
280.5	2.99
280.872	3.06
281.245	3.01
281.617	3.07
281.99	3.32
282.362	3.43
282.735	3.54
283.107	3.58
283.479	3.49
283.852	3.49
284.224	3.49
284.596	3.37
284.968	3.53
285.34	3.57
285.713	3.73
286.085	3.86
286.457	3.94
286.829	4.09
287.201	4.1
287.572	4.12
287.944	3.79
288.316	3.86
288.688	3.87
289.06	3.8
289.431	3.86
289.803	3.99
290.175	4.06
290.546	4.08
290.918	4.13
291.289	4.15
291.661	4.13
292.032	4.33
292.403	4.3
292.775	4.19
293.146	4.18
293.517	4.19
293.889	4.38
294.26	4.41
294.631	4.44
295.002	4.37
295.373	4.47
295.744	4.62
296.115	4.47
296.486	4.35
296.857	4.5
297.228	4.49
297.599	4.35
297.97	4.23
298.34	4.29
298.711	4.46
299.082	4.32
299.452	4.42
299.823	4.52
300.194	4.78
300.564	4.89
300.935	4.88
301.305	4.82
301.676	4.85
302.046	4.86
302.416	4.84
302.787	5.05
303.157	5.08
303.527	5.34
303.897	5.41
304.267	5.7
304.637	5.69
305.008	5.71
305.378	5.95
305.748	6.12
306.117	5.99
306.487	5.9
306.857	6.31
307.227	6.39
307.597	6.26
307.967	6.21
308.336	6.24
308.706	6.47
309.076	6.61
309.445	6.56
309.815	6.6
310.184	6.61
310.554	6.63
310.923	6.8
311.293	6.71
311.662	6.85
312.031	6.91
312.401	7.04
312.77	7.24
313.139	7.26
313.508	7.29
313.877	7.44
314.246	7.46
314.616	7.37
314.985	7.46
315.353	7.59
315.722	7.71
316.091	7.86
316.46	7.74
316.829	7.79
317.198	7.95
317.567	8.07
317.935	8.08
318.304	8.22
318.672	8.09
319.041	8.35
319.41	8.37
319.778	8.34
320.147	8.46
320.515	8.41
320.883	8.5
321.252	8.64
321.62	8.72
321.988	8.88
322.357	9.12
322.725	9.18
323.093	9.35
323.461	9.4
323.829	9.45
324.197	9.59
324.565	9.63
324.933	9.63
325.301	9.66
325.669	9.83
326.037	9.89
326.405	10.05
326.772	9.99
327.14	10.18
327.508	10.28
327.875	10.24
328.243	10.34
328.61	10.33
328.978	10.3
329.346	10.43
329.713	10.53
330.08	10.49
330.448	10.43
330.815	10.3
331.182	10.33
331.55	10.4
331.917	10.4
332.284	10.41
332.651	10.4
333.018	10.48
333.385	10.5
333.752	10.54
334.119	10.6
334.486	10.62
334.853	10.6
335.22	10.68
335.587	10.83
335.954	10.77
336.32	10.82
336.687	10.84
337.054	10.86
337.42	10.86
337.787	10.94
338.153	11.02
338.52	11.06
338.886	11.04
339.253	10.95
339.619	11.05
339.986	11.17
340.352	11.28
340.718	11.26
341.084	11.35
341.451	11.46
341.817	11.51
342.183	11.42
342.549	11.34
342.915	11.36
343.281	11.32
343.647	11.36
344.013	11.38
344.379	11.37
344.745	11.47
345.11	11.58
345.476	11.58
345.842	11.58
346.208	11.77
346.573	11.8
346.939	11.8
347.304	11.83
347.67	11.71
348.035	11.69
348.401	11.72
348.766	11.61
349.132	11.52
349.497	11.4
349.862	11.6
350.228	11.65
350.593	11.65
350.958	11.63
351.323	11.71
351.688	11.82
352.053	11.91
352.418	11.82
352.783	11.89
353.148	11.79
353.513	11.84
353.878	11.73
354.243	11.84
354.608	11.86
354.972	11.84
355.337	11.91
355.702	11.88
356.066	11.91
356.431	11.97
356.795	11.97
357.16	12
357.524	11.79
357.889	11.78
358.253	11.77
358.618	11.76
358.982	11.68
359.346	11.58
359.71	11.51
360.075	11.46
360.439	11.4
360.803	11.41
361.167	11.36
361.531	11.34
361.895	11.16
362.259	11.11
362.623	11.01
362.987	11.01
363.351	10.94
363.714	10.89
364.078	10.75
364.442	10.69
364.806	10.63
365.169	10.63
365.533	10.6
365.896	10.46
366.26	10.38
366.623	10.29
366.987	10.19
367.35	10.15
367.714	10.13
368.077	9.93
368.44	9.81
368.803	9.68
369.167	9.58
369.53	9.53
369.893	9.53
370.256	9.53
370.619	9.4
370.982	9.38
371.345	9.24
371.708	9.21
372.071	9.14
372.434	9.08
372.797	9.09
373.159	8.98
373.522	8.91
373.885	8.88
374.247	8.85
374.61	8.84
374.973	8.74
375.335	8.7
375.698	8.75
376.06	8.77
376.423	8.73
376.785	8.73
377.147	8.7
377.51	8.59
377.872	8.53
378.234	8.42
378.596	8.37
378.958	8.34
379.321	8.28
379.683	8.24
380.045	8.2
380.407	8.11
380.769	8
381.13	8.01
381.492	7.89
381.854	7.76
382.216	7.74
382.578	7.74
382.939	7.59
383.301	7.5
383.663	7.36
384.024	7.28
384.386	7.14
384.747	7.14
385.109	7.12
385.47	7.05
385.832	7.04
386.193	7.01
386.554	6.94
386.916	6.91
387.277	6.82
387.638	6.79
387.999	6.74
388.36	6.7
388.721	6.61
389.082	6.54
389.443	6.51
389.804	6.43
390.165	6.32
390.526	6.34
390.887	6.27
391.248	6.26
391.609	6.25
391.969	6.22
392.33	6.14
392.691	6.08
393.051	6.01
393.412	5.96
393.772	5.86
394.133	5.83
394.493	5.8
394.854	5.77
395.214	5.72
395.574	5.66
395.935	5.64
396.295	5.62
396.655	5.62
397.015	5.57
397.376	5.49
397.736	5.48
398.096	5.4
398.456	5.36
398.816	5.31
399.176	5.23
399.535	5.16
399.895	5.13
400.255	5.09
400.615	5.08
400.975	5.04
401.334	5.02
401.694	4.96
402.054	4.89
402.413	4.83
402.773	4.77
403.132	4.75
403.492	4.72
403.851	4.67
404.211	4.64
404.57	4.64
404.929	4.63
405.288	4.57
405.648	4.56
406.007	4.52
406.366	4.5
406.725	4.51
407.084	4.55
407.443	4.51
407.802	4.49
408.161	4.45
408.52	4.4
408.879	4.39
409.238	4.4
409.596	4.42
409.955	4.44
410.314	4.46
410.673	4.42
411.031	4.39
411.39	4.39
411.748	4.39
412.107	4.41
412.465	4.37
412.824	4.33
413.182	4.3
413.54	4.28
413.899	4.26
414.257	4.21
414.615	4.16
414.974	4.16
415.332	4.12
415.69	4.12
416.048	4.11
416.406	4.09
416.764	4.06
417.122	4.04
417.48	3.98
417.838	3.97
418.195	3.96
418.553	3.94
418.911	3.92
419.269	3.9
419.626	3.87
419.984	3.86
420.342	3.88
420.699	3.85
421.057	3.83
421.414	3.8
421.772	3.81
422.129	3.81
422.486	3.79
422.844	3.79
423.201	3.77
423.558	3.75
423.915	3.73
424.273	3.72
424.63	3.69
424.987	3.69
425.344	3.66
425.701	3.64
426.058	3.64
426.415	3.61
426.772	3.59
427.128	3.58
427.485	3.58
427.842	3.55
428.199	3.55
428.555	3.54
428.912	3.53
429.269	3.52
429.625	3.48
429.982	3.45
430.338	3.43
430.695	3.41
431.051	3.39
431.407	3.37
431.764	3.34
432.12	3.36
432.476	3.37
432.832	3.35
433.189	3.35
433.545	3.36
433.901	3.37
434.257	3.35
434.613	3.33
434.969	3.33
435.325	3.32
435.681	3.33
436.036	3.34
436.392	3.33
436.748	3.31
437.104	3.3
437.459	3.31
437.815	3.32
438.171	3.34
438.526	3.36
438.882	3.36
439.237	3.37
439.593	3.37
439.948	3.34
440.304	3.34
440.659	3.33
441.014	3.32
441.369	3.32
441.725	3.33
442.08	3.34
442.435	3.33
442.79	3.33
443.145	3.31
443.5	3.3
443.855	3.3
444.21	3.3
444.565	3.3
444.92	3.3
445.275	3.26
445.629	3.25
445.984	3.24
446.339	3.23
446.693	3.23
447.048	3.21
447.403	3.21
447.757	3.21
448.112	3.19
448.466	3.18
448.82	3.16
449.175	3.14
449.529	3.11
449.883	3.09
450.238	3.09
450.592	3.09
450.946	3.08
451.3	3.08
451.654	3.09
452.008	3.09
452.362	3.07
452.716	3.1
453.07	3.1
453.424	3.1
453.778	3.08
454.132	3.07
454.486	3.07
454.839	3.08
455.193	3.07
455.547	3.05
455.9	3.06
456.254	3.06
456.607	3.08
456.961	3.08
457.314	3.08
457.668	3.08
458.021	3.07
458.375	3.09
458.728	3.08
459.081	3.07
459.434	3.06
459.787	3.07
460.141	3.07
460.494	3.06
460.847	3.07
461.2	3.07
461.553	3.09
461.906	3.12
462.259	3.12
462.611	3.12
462.964	3.15
463.317	3.17
463.67	3.18
464.022	3.19
464.375	3.2
464.728	3.24
465.08	3.25
465.433	3.27
465.785	3.27
466.138	3.28
466.49	3.31
466.843	3.33
467.195	3.34
467.547	3.37
467.899	3.36
468.252	3.36
468.604	3.39
468.956	3.38
469.308	3.37
469.66	3.35
470.012	3.38
470.364	3.4
470.716	3.39
471.068	3.41
471.42	3.41
471.772	3.44
472.123	3.44
472.475	3.44
472.827	3.46
473.178	3.45
473.53	3.45
473.882	3.44
474.233	3.44
474.585	3.44
474.936	3.43
475.288	3.46
475.639	3.48
475.99	3.47
476.342	3.47
476.693	3.47
477.044	3.49
477.395	3.47
477.746	3.44
478.097	3.45
478.448	3.44
478.8	3.44
479.15	3.41
479.501	3.4
479.852	3.4
480.203	3.37
480.554	3.36
480.905	3.37
481.255	3.38
481.606	3.38
481.957	3.38
482.307	3.38
482.658	3.37
483.009	3.36
483.359	3.36
483.709	3.37
484.06	3.37
484.41	3.37
484.761	3.38
485.111	3.38
485.461	3.37
485.811	3.37
486.162	3.37
486.512	3.37
486.862	3.37
487.212	3.37
487.562	3.37
487.912	3.38
488.262	3.37
488.612	3.37
488.961	3.38
489.311	3.38
489.661	3.38
490.011	3.38
490.36	3.38
490.71	3.38
491.06	3.39
491.409	3.38
491.759	3.38
492.108	3.38
492.458	3.4
492.807	3.41
493.157	3.42
493.506	3.44
493.855	3.45
494.204	3.47
494.554	3.49
494.903	3.5
495.252	3.52
495.601	3.52
495.95	3.55
496.299	3.56
496.648	3.56
496.997	3.58
497.346	3.59
497.695	3.63
498.043	3.65
498.392	3.67
498.741	3.7
499.09	3.71
499.438	3.77
499.787	3.78
500.135	3.82
500.484	3.86
500.832	3.91
501.181	3.97
501.529	4
501.878	4.05
502.226	4.1
502.574	4.15
502.923	4.21
503.271	4.25
503.619	4.31
503.967	4.41
504.315	4.46
504.663	4.51
505.011	4.55
505.359	4.63
505.707	4.71
506.055	4.8
506.403	4.87
506.751	4.93
507.098	5.01
507.446	5.09
507.794	5.15
508.141	5.23
508.489	5.29
508.837	5.39
509.184	5.47
509.531	5.54
509.879	5.62
510.226	5.72
510.574	5.82
510.921	5.9
511.268	5.97
511.616	6.09
511.963	6.21
512.31	6.31
512.657	6.41
513.004	6.52
513.351	6.62
513.698	6.74
514.045	6.85
514.392	6.98
514.739	7.1
515.086	7.26
515.432	7.36
515.779	7.47
516.126	7.58
516.473	7.7
516.819	7.83
517.166	7.95
517.512	8.04
517.859	8.16
518.205	8.27
518.552	8.4
518.898	8.5
519.245	8.62
519.591	8.74
519.937	8.87
520.283	8.99
520.629	9.14
520.976	9.29
521.322	9.44
521.668	9.59
522.014	9.77
522.36	9.93
522.706	10.14
523.052	10.36
523.398	10.59
523.743	10.82
524.089	11.05
524.435	11.27
524.781	11.54
525.126	11.75
525.472	11.95
525.817	12.11
526.163	12.28
526.509	12.45
526.854	12.61
527.199	12.76
527.545	12.9
527.89	13.05
528.235	13.2
528.581	13.36
528.926	13.53
529.271	13.7
529.616	13.86
529.961	14.01
530.306	14.19
530.651	14.36
530.996	14.55
531.341	14.74
531.686	14.94
532.031	15.13
532.376	15.34
532.721	15.56
533.065	15.8
533.41	16.01
533.755	16.23
534.099	16.47
534.444	16.7
534.788	16.96
535.133	17.2
535.477	17.45
535.822	17.7
536.166	17.97
536.51	18.25
536.855	18.56
537.199	18.93
537.543	19.27
537.887	19.61
538.231	19.92
538.576	20.26
538.92	20.62
539.264	20.92
539.608	21.24
539.951	21.55
540.295	21.81
540.639	22.11
540.983	22.39
541.327	22.67
541.671	22.9
542.014	23.18
542.358	23.39
542.701	23.63
543.045	23.88
543.389	24.1
543.732	24.36
544.075	24.6
544.419	24.81
544.762	25.07
545.105	25.32
545.449	25.62
545.792	25.91
546.135	26.19
546.478	26.51
546.821	26.82
547.165	27.12
547.508	27.45
547.851	27.78
548.194	28.09
548.536	28.37
548.879	28.7
549.222	28.98
549.565	29.36
549.908	29.7
550.25	29.99
550.593	30.35
550.936	30.64
551.278	30.98
551.621	31.3
551.963	31.56
552.306	31.92
552.648	32.2
552.991	32.48
553.333	32.78
553.675	33.02
554.017	33.26
554.36	33.52
554.702	33.78
555.044	33.95
555.386	34.14
555.728	34.38
556.07	34.65
556.412	34.9
556.754	35.14
557.096	35.38
557.438	35.66
557.78	35.87
558.121	36.17
558.463	36.38
558.805	36.64
559.147	36.85
559.488	37.01
559.83	37.27
560.171	37.5
560.513	37.67
560.854	37.87
561.196	38.09
561.537	38.25
561.878	38.45
562.22	38.64
562.561	38.92
562.902	39.12
563.243	39.27
563.584	39.42
563.925	39.58
564.266	39.79
564.607	40
564.948	40.16
565.289	40.27
565.63	40.41
565.971	40.52
566.312	40.67
566.653	40.86
566.993	40.99
567.334	41.13
567.675	41.28
568.015	41.42
568.356	41.56
568.696	41.68
569.037	41.81
569.377	41.97
569.718	42.09
570.058	42.23
570.398	42.39
570.739	42.53
571.079	42.63
571.419	42.67
571.759	42.72
572.099	42.83
572.439	42.95
572.779	43.14
573.119	43.27
573.459	43.43
573.799	43.53
574.139	43.62
574.479	43.72
574.819	43.82
575.158	43.9
575.498	44
575.838	44.13
576.177	44.25
576.517	44.34
576.856	44.44
577.196	44.54
577.535	44.67
577.875	44.75
578.214	44.87
578.553	45.05
578.893	45.12
579.232	45.22
579.571	45.34
579.91	45.37
580.25	45.44
580.589	45.52
580.928	45.61
581.267	45.73
581.606	45.78
581.945	45.85
582.283	45.95
582.622	46.03
582.961	46.11
583.3	46.25
583.639	46.38
583.977	46.49
584.316	46.59
584.654	46.67
584.993	46.83
585.332	46.86
585.67	46.95
586.008	47.1
586.347	47.15
586.685	47.2
587.024	47.26
587.362	47.39
587.7	47.43
588.038	47.56
588.376	47.63
588.715	47.71
589.053	47.8
589.391	47.95
589.729	47.99
590.067	48.01
590.404	48
590.742	48
591.08	48.05
591.418	48.11
591.756	48.08
592.093	48.21
592.431	48.26
592.769	48.26
593.106	48.2
593.444	48.26
593.781	48.31
594.119	48.34
594.456	48.33
594.793	48.37
595.131	48.3
595.468	48.3
595.805	48.36
596.143	48.38
596.48	48.33
596.817	48.38
597.154	48.46
597.491	48.52
597.828	48.54
598.165	48.53
598.502	48.55
598.839	48.65
599.176	48.58
599.512	48.71
599.849	48.8
600.186	48.9
600.523	48.93
600.859	48.92
601.196	48.9
601.532	48.97
601.869	48.95
602.205	49.02
602.542	49.06
602.878	49.1
603.215	49.15
603.551	49.17
603.887	49.19
604.223	49.21
604.56	49.24
604.896	49.26
605.232	49.3
605.568	49.29
605.904	49.3
606.24	49.31
606.576	49.3
606.912	49.3
607.248	49.37
607.583	49.44
607.919	49.57
608.255	49.65
608.591	49.67
608.926	49.7
609.262	49.77
609.597	49.79
609.933	49.87
610.268	49.87
610.604	49.93
610.939	49.92
611.275	49.95
611.61	49.97
611.945	49.97
612.281	50.02
612.616	50.07
612.951	50.08
613.286	50.13
613.621	50.09
613.956	50.11
614.291	50.16
614.626	50.19
614.961	50.18
615.296	50.23
615.631	50.22
615.966	50.36
616.3	50.32
616.635	50.36
616.97	50.35
617.304	50.33
617.639	50.36
617.973	50.41
618.308	50.42
618.642	50.43
618.977	50.52
619.311	50.58
619.646	50.62
619.98	50.68
620.314	50.73
620.648	50.85
620.983	50.87
621.317	50.8
621.651	50.84
621.985	50.83
622.319	50.75
622.653	50.76
622.987	50.79
623.321	50.7
623.655	50.71
623.988	50.65
624.322	50.69
624.656	50.77
624.99	50.8
625.323	50.81
625.657	50.86
625.99	50.97
626.324	50.89
626.657	50.92
626.991	50.93
627.324	50.85
627.658	50.88
627.991	50.87
628.324	50.89
628.657	50.83
628.991	50.79
629.324	50.94
629.657	50.95
629.99	51.02
630.323	51.18
630.656	51.21
630.989	51.32
631.322	51.39
631.655	51.34
631.987	51.42
632.32	51.41
632.653	51.51
632.986	51.46
633.318	51.58
633.651	51.58
633.984	51.63
634.316	51.78
634.649	51.75
634.981	51.73
635.313	51.82
635.646	51.94
635.978	52.03
636.31	52.02
636.643	52.14
636.975	52.1
637.307	52.07
637.639	52.07
637.971	52.11
638.303	52.1
638.635	52.12
638.967	52.11
639.299	52.13
639.631	52.01
639.963	51.87
640.295	51.81
640.626	51.9
640.958	51.8
641.29	51.87
641.621	51.83
641.953	51.91
642.285	51.94
642.616	51.9
642.948	51.91
643.279	51.99
643.61	51.94
643.942	51.97
644.273	51.9
644.604	51.87
644.936	51.77
645.267	51.75
645.598	51.79
645.929	51.77
646.26	51.96
646.591	51.98
646.922	52.17
647.253	52.12
647.584	52.13
647.915	52.13
648.245	51.99
648.576	52.07
648.907	52.06
649.238	52
649.568	52.09
649.899	52.07
650.229	51.98
650.56	51.99
650.89	51.95
651.221	52.12
651.551	52.14
651.882	52.16
652.212	52.24
652.542	52.18
652.872	52.26
653.203	52.13
653.533	52.09
653.863	51.96
654.193	52.07
654.523	51.98
654.853	51.95
655.183	51.98
655.513	51.9
655.843	51.91
656.172	51.98
656.502	51.89
656.832	51.87
657.162	51.85
657.491	51.87
657.821	51.9
658.15	51.87
658.48	51.93
658.809	51.95
659.139	51.91
659.468	51.99
659.798	51.85
660.127	51.9
660.456	51.91
660.785	51.91
661.115	51.88
661.444	51.87
661.773	51.98
662.102	51.99
