Data from BA57730_Reflection_00003.txt Node
Date: Mon Nov 18 15:59:28 EST 2019
User: vgr7
Spectrometer: USB2G7710
Scans to average: 3
Trigger mode: 4
Integration Time (sec): 2.000000E-2
Electric dark correction enabled: true
Boxcar width: 10
XAxis mode: Wavelengths
Number of Pixels in Spectrum: 2048
>>>>>Begin Spectral Data<<<<<
177.721	4449.21
178.105	-181.05
178.488	-256.65
178.871	-102.99
179.254	-12.48
179.636	-78.45
180.019	30.65
180.402	62.79
180.785	25.93
181.168	-5.36
181.55	0.81
181.933	204.24
182.316	119.22
182.698	123.33
183.081	83.69
183.463	75.94
183.846	84.42
184.228	120.02
184.611	47.29
184.993	6.76
185.376	-32.51
185.758	56.99
186.14	70.41
186.522	52.77
186.904	70.3
187.287	91.3
187.669	153.4
188.051	204.73
188.433	1501.71
188.815	223.03
189.197	201.77
189.579	229.1
189.961	227.61
190.342	204.22
190.724	499.09
191.106	-3755.07
191.488	-779.55
191.869	-296.09
192.251	-773.16
192.633	-666.96
193.014	-581.06
193.396	1760.82
193.777	-427.63
194.159	-498.1
194.54	-358.17
194.922	-148.91
195.303	-137.41
195.684	-198.63
196.065	-116.39
196.447	-153.72
196.828	-246.19
197.209	-185.07
197.59	-177.27
197.971	-204.09
198.352	-115.86
198.733	-137
199.114	-152.67
199.495	-199.85
199.876	-182.14
200.257	-157.18
200.638	-145.41
201.018	-125.78
201.399	-83.66
201.78	-106.73
202.16	-144.3
202.541	-383.26
202.922	868.45
203.302	713.69
203.683	-4363.77
204.063	460.57
204.444	290.73
204.824	223.83
205.204	1001.59
205.585	1244.03
205.965	1771.79
206.345	762.19
206.725	556.3
207.106	361.29
207.486	344.93
207.866	419.41
208.246	419.86
208.626	404.38
209.006	533.99
209.386	391.79
209.766	1047.66
210.145	-2999.1
210.525	-336.41
210.905	-132.15
211.285	-113.71
211.664	-116.16
212.044	-80.44
212.424	-72.96
212.803	-75.13
213.183	-47.78
213.562	-52.42
213.942	-14.87
214.321	-12.93
214.701	-23.72
215.08	-27.62
215.459	-24.53
215.838	-21.68
216.218	-19.43
216.597	6.76
216.976	4.02
217.355	1.14
217.734	-9.49
218.113	-11.35
218.492	-12.73
218.871	-14.67
219.25	9.07
219.629	17.02
220.008	25.15
220.387	37.05
220.766	13.69
221.144	-11.01
221.523	-38.03
221.902	-54.5
222.28	-55.94
222.659	-18.56
223.037	-16.56
223.416	-27.01
223.794	-20.34
224.173	-15.74
224.551	-17.01
224.929	-19.74
225.308	-20.03
225.686	-17.58
226.064	-11.55
226.442	-12.19
226.821	-3.58
227.199	-11.97
227.577	-16.35
227.955	-17.64
228.333	-16.44
228.711	-10.55
229.089	-9.42
229.467	-9.4
229.845	-14.06
230.222	-11.43
230.6	-13.68
230.978	-14.31
231.356	-11.33
231.733	-11.37
232.111	-9.75
232.488	-8.35
232.866	-8.74
233.243	-8
233.621	-7.76
233.998	-7.67
234.376	-8.03
234.753	-9.15
235.13	-7.99
235.508	-6.62
235.885	-6.3
236.262	-6.62
236.639	-7.03
237.016	-4.07
237.393	-0.52
237.77	1.67
238.147	0.8
238.524	1.27
238.901	3.46
239.278	4.47
239.655	5.17
240.032	5.17
240.409	4.28
240.785	4.6
241.162	4.97
241.539	5.45
241.915	5.2
242.292	5.08
242.668	5.61
243.045	5.94
243.421	5.75
243.798	5.49
244.174	5.71
244.551	5.63
244.927	5.38
245.303	5.45
245.679	5.53
246.056	5.66
246.432	5.8
246.808	5.61
247.184	5.11
247.56	5.05
247.936	5.03
248.312	4.95
248.688	5.05
249.064	4.96
249.44	4.56
249.815	4.72
250.191	4.87
250.567	4.62
250.943	4.42
251.318	4.66
251.694	4.97
252.069	4.94
252.445	5.16
252.82	5.17
253.196	4.82
253.571	4.84
253.947	5.14
254.322	5.13
254.697	5.28
255.073	5.47
255.448	5.04
255.823	4.95
256.198	5.11
256.573	5.16
256.948	5.2
257.323	5.6
257.698	5.63
258.073	5.64
258.448	5.61
258.823	5.51
259.198	5.39
259.573	5.39
259.948	5.27
260.322	5.25
260.697	5.24
261.072	5.31
261.446	5.19
261.821	5.12
262.195	5.09
262.57	4.85
262.944	4.78
263.319	4.89
263.693	4.82
264.067	4.82
264.442	4.78
264.816	4.74
265.19	4.61
265.564	4.59
265.938	4.55
266.313	4.49
266.687	4.51
267.061	4.81
267.435	4.76
267.809	4.83
268.183	4.77
268.556	4.8
268.93	4.91
269.304	4.98
269.678	5.04
270.051	4.94
270.425	4.88
270.799	5.13
271.172	5.13
271.546	5.29
271.919	5.19
272.293	5.14
272.666	5.15
273.04	5.35
273.413	5.36
273.787	5.21
274.16	5.22
274.533	5.42
274.906	5.13
275.279	5.17
275.653	5.17
276.026	5.05
276.399	5.08
276.772	4.97
277.145	5.1
277.518	5.03
277.891	5.25
278.263	5.51
278.636	5.25
279.009	5.28
279.382	5.29
279.755	5.42
280.127	5.52
280.5	5.6
280.872	5.53
281.245	5.35
281.617	5.54
281.99	5.54
282.362	5.33
282.735	5.3
283.107	5.36
283.479	5.38
283.852	5.49
284.224	5.44
284.596	5.56
284.968	5.55
285.34	5.48
285.713	5.41
286.085	5.45
286.457	5.78
286.829	6
287.201	6.02
287.572	5.9
287.944	5.89
288.316	5.8
288.688	5.71
289.06	5.81
289.431	5.85
289.803	5.91
290.175	6.03
290.546	6.19
290.918	6.08
291.289	6.13
291.661	6.17
292.032	6.11
292.403	6.09
292.775	6.1
293.146	6.21
293.517	6.15
293.889	6.26
294.26	6.18
294.631	6.11
295.002	6.13
295.373	6.21
295.744	6.27
296.115	6.45
296.486	6.39
296.857	6.34
297.228	6.41
297.599	6.29
297.97	6.34
298.34	6.24
298.711	6.43
299.082	6.35
299.452	6.35
299.823	6.39
300.194	6.41
300.564	6.32
300.935	6.45
301.305	6.51
301.676	6.45
302.046	6.35
302.416	6.39
302.787	6.29
303.157	6.28
303.527	6.25
303.897	6.32
304.267	6.39
304.637	6.49
305.008	6.5
305.378	6.74
305.748	6.73
306.117	6.79
306.487	6.59
306.857	6.7
307.227	6.66
307.597	6.73
307.967	6.69
308.336	6.77
308.706	6.58
309.076	6.57
309.445	6.5
309.815	6.56
310.184	6.47
310.554	6.49
310.923	6.47
311.293	6.49
311.662	6.35
312.031	6.39
312.401	6.37
312.77	6.25
313.139	6.26
313.508	6.31
313.877	6.26
314.246	6.28
314.616	6.18
314.985	6.2
315.353	6.11
315.722	6.29
316.091	6.14
316.46	6.07
316.829	6.17
317.198	6.12
317.567	5.97
317.935	5.97
318.304	6.09
318.672	6.29
319.041	6.41
319.41	6.53
319.778	6.55
320.147	6.56
320.515	6.5
320.883	6.29
321.252	6.15
321.62	6.15
321.988	6.19
322.357	6.17
322.725	6.12
323.093	6.17
323.461	6.02
323.829	6.21
324.197	6.33
324.565	6.14
324.933	6.27
325.301	6.39
325.669	6.38
326.037	6.29
326.405	6.15
326.772	5.99
327.14	6.04
327.508	6.03
327.875	5.99
328.243	6.14
328.61	6.19
328.978	6.25
329.346	6.37
329.713	6.23
330.08	6.32
330.448	6.29
330.815	6.21
331.182	6.35
331.55	6.18
331.917	6.12
332.284	6.31
332.651	6.31
333.018	6.26
333.385	6.22
333.752	6.31
334.119	6.4
334.486	6.39
334.853	6.19
335.22	6.18
335.587	6.14
335.954	6.01
336.32	6.02
336.687	6
337.054	5.93
337.42	6.12
337.787	6.12
338.153	6.21
338.52	6.16
338.886	5.99
339.253	5.97
339.619	5.94
339.986	5.81
340.352	5.8
340.718	5.9
341.084	5.92
341.451	5.88
341.817	5.86
342.183	5.94
342.549	6.09
342.915	6.07
343.281	6.15
343.647	6.16
344.013	6.15
344.379	6.13
344.745	6.16
345.11	6.02
345.476	6.08
345.842	6.08
346.208	6.19
346.573	6.18
346.939	6.33
347.304	6.37
347.67	6.41
348.035	6.33
348.401	6.28
348.766	6.27
349.132	6.31
349.497	6.3
349.862	6.38
350.228	6.29
350.593	6.29
350.958	6.27
351.323	6.37
351.688	6.34
352.053	6.4
352.418	6.48
352.783	6.53
353.148	6.43
353.513	6.42
353.878	6.31
354.243	6.43
354.608	6.4
354.972	6.38
355.337	6.43
355.702	6.55
356.066	6.61
356.431	6.62
356.795	6.58
357.16	6.6
357.524	6.46
357.889	6.43
358.253	6.47
358.618	6.52
358.982	6.47
359.346	6.45
359.71	6.43
360.075	6.37
360.439	6.35
360.803	6.36
361.167	6.35
361.531	6.45
361.895	6.42
362.259	6.42
362.623	6.45
362.987	6.41
363.351	6.4
363.714	6.35
364.078	6.35
364.442	6.33
364.806	6.25
365.169	6.29
365.533	6.31
365.896	6.23
366.26	6.21
366.623	6.2
366.987	6.22
367.35	6.12
367.714	6.13
368.077	6.2
368.44	6.22
368.803	6.2
369.167	6.12
369.53	6.09
369.893	6.08
370.256	6.12
370.619	6.17
370.982	6.12
371.345	6.12
371.708	6.09
372.071	6.06
372.434	6.08
372.797	6.11
373.159	6.08
373.522	6.14
373.885	6.15
374.247	6.18
374.61	6.18
374.973	6.22
375.335	6.23
375.698	6.22
376.06	6.19
376.423	6.25
376.785	6.3
377.147	6.32
377.51	6.28
377.872	6.27
378.234	6.22
378.596	6.25
378.958	6.22
379.321	6.25
379.683	6.27
380.045	6.31
380.407	6.22
380.769	6.25
381.13	6.27
381.492	6.28
381.854	6.27
382.216	6.27
382.578	6.26
382.939	6.23
383.301	6.2
383.663	6.15
384.024	6.1
384.386	6.12
384.747	6.14
385.109	6.18
385.47	6.15
385.832	6.14
386.193	6.15
386.554	6.18
386.916	6.16
387.277	6.18
387.638	6.19
387.999	6.21
388.36	6.21
388.721	6.2
389.082	6.17
389.443	6.17
389.804	6.16
390.165	6.17
390.526	6.17
390.887	6.17
391.248	6.24
391.609	6.24
391.969	6.26
392.33	6.24
392.691	6.25
393.051	6.27
393.412	6.32
393.772	6.28
394.133	6.3
394.493	6.31
394.854	6.3
395.214	6.27
395.574	6.27
395.935	6.26
396.295	6.26
396.655	6.23
397.015	6.25
397.376	6.26
397.736	6.23
398.096	6.23
398.456	6.22
398.816	6.23
399.176	6.2
399.535	6.16
399.895	6.11
400.255	6.07
400.615	6.04
400.975	5.99
401.334	5.98
401.694	5.98
402.054	5.98
402.413	6
402.773	6
403.132	6
403.492	6.04
403.851	6.05
404.211	6.07
404.57	6.03
404.929	6.03
405.288	6.05
405.648	6.06
406.007	6.05
406.366	6.05
406.725	6.08
407.084	6.08
407.443	6.11
407.802	6.14
408.161	6.13
408.52	6.14
408.879	6.16
409.238	6.17
409.596	6.17
409.955	6.14
410.314	6.16
410.673	6.15
411.031	6.13
411.39	6.14
411.748	6.14
412.107	6.19
412.465	6.19
412.824	6.19
413.182	6.19
413.54	6.21
413.899	6.17
414.257	6.16
414.615	6.14
414.974	6.14
415.332	6.14
415.69	6.11
416.048	6.08
416.406	6.1
416.764	6.08
417.122	6.08
417.48	6.07
417.838	6.07
418.195	6.08
418.553	6.07
418.911	6.06
419.269	6.06
419.626	6.05
419.984	6.05
420.342	6.05
420.699	6.03
421.057	6.03
421.414	6.04
421.772	6.04
422.129	6.05
422.486	6.05
422.844	6.04
423.201	6.05
423.558	6.07
423.915	6.05
424.273	6.06
424.63	6.05
424.987	6.05
425.344	6.05
425.701	6.05
426.058	6.04
426.415	6.04
426.772	6.04
427.128	6.03
427.485	6
427.842	6.01
428.199	6.04
428.555	6.01
428.912	5.99
429.269	5.99
429.625	5.99
429.982	6
430.338	5.99
430.695	6
431.051	5.99
431.407	5.98
431.764	5.98
432.12	5.98
432.476	5.96
432.832	5.95
433.189	5.97
433.545	5.97
433.901	5.95
434.257	5.95
434.613	5.97
434.969	6
435.325	5.99
435.681	5.97
436.036	5.99
436.392	5.99
436.748	5.98
437.104	5.98
437.459	5.96
437.815	5.99
438.171	5.97
438.526	6
438.882	6.01
439.237	6
439.593	6.01
439.948	6.01
440.304	6.01
440.659	5.99
441.014	5.99
441.369	5.99
441.725	5.99
442.08	5.97
442.435	5.98
442.79	5.99
443.145	5.99
443.5	5.98
443.855	5.99
444.21	5.99
444.565	6.01
444.92	6.02
445.275	5.99
445.629	6
445.984	5.99
446.339	5.97
446.693	5.96
447.048	5.95
447.403	5.95
447.757	5.96
448.112	5.95
448.466	5.96
448.82	5.94
449.175	5.95
449.529	5.94
449.883	5.91
450.238	5.88
450.592	5.89
450.946	5.88
451.3	5.86
451.654	5.86
452.008	5.84
452.362	5.83
452.716	5.82
453.07	5.83
453.424	5.81
453.778	5.81
454.132	5.82
454.486	5.8
454.839	5.79
455.193	5.77
455.547	5.77
455.9	5.77
456.254	5.78
456.607	5.77
456.961	5.79
457.314	5.8
457.668	5.82
458.021	5.79
458.375	5.79
458.728	5.82
459.081	5.81
459.434	5.8
459.787	5.81
460.141	5.82
460.494	5.83
460.847	5.84
461.2	5.83
461.553	5.85
461.906	5.87
462.259	5.88
462.611	5.89
462.964	5.91
463.317	5.91
463.67	5.91
464.022	5.91
464.375	5.92
464.728	5.91
465.08	5.92
465.433	5.94
465.785	5.95
466.138	5.92
466.49	5.92
466.843	5.92
467.195	5.92
467.547	5.93
467.899	5.93
468.252	5.94
468.604	5.95
468.956	5.93
469.308	5.94
469.66	5.94
470.012	5.94
470.364	5.94
470.716	5.94
471.068	5.94
471.42	5.95
471.772	5.95
472.123	5.98
472.475	5.96
472.827	5.97
473.178	5.98
473.53	5.98
473.882	6
474.233	6.02
474.585	6
474.936	5.99
475.288	5.96
475.639	5.95
475.99	5.94
476.342	5.96
476.693	5.95
477.044	5.95
477.395	5.96
477.746	5.95
478.097	5.96
478.448	5.95
478.8	5.95
479.15	5.94
479.501	5.94
479.852	5.94
480.203	5.94
480.554	5.95
480.905	5.98
481.255	5.99
481.606	5.99
481.957	6.02
482.307	6.04
482.658	6.06
483.009	6.07
483.359	6.07
483.709	6.08
484.06	6.08
484.41	6.09
484.761	6.09
485.111	6.09
485.461	6.09
485.811	6.1
486.162	6.11
486.512	6.12
486.862	6.12
487.212	6.13
487.562	6.13
487.912	6.13
488.262	6.12
488.612	6.12
488.961	6.12
489.311	6.11
489.661	6.11
490.011	6.1
490.36	6.09
490.71	6.1
491.06	6.09
491.409	6.08
491.759	6.08
492.108	6.09
492.458	6.09
492.807	6.09
493.157	6.08
493.506	6.08
493.855	6.08
494.204	6.07
494.554	6.06
494.903	6.06
495.252	6.06
495.601	6.09
495.95	6.08
496.299	6.09
496.648	6.09
496.997	6.09
497.346	6.11
497.695	6.11
498.043	6.11
498.392	6.11
498.741	6.12
499.09	6.09
499.438	6.1
499.787	6.11
500.135	6.14
500.484	6.14
500.832	6.17
501.181	6.18
501.529	6.19
501.878	6.19
502.226	6.21
502.574	6.23
502.923	6.2
503.271	6.21
503.619	6.2
503.967	6.21
504.315	6.19
504.663	6.18
505.011	6.18
505.359	6.19
505.707	6.21
506.055	6.22
506.403	6.25
506.751	6.25
507.098	6.25
507.446	6.26
507.794	6.28
508.141	6.28
508.489	6.27
508.837	6.26
509.184	6.28
509.531	6.28
509.879	6.29
510.226	6.31
510.574	6.32
510.921	6.33
511.268	6.33
511.616	6.35
511.963	6.37
512.31	6.39
512.657	6.42
513.004	6.42
513.351	6.41
513.698	6.42
514.045	6.42
514.392	6.44
514.739	6.44
515.086	6.44
515.432	6.44
515.779	6.44
516.126	6.47
516.473	6.47
516.819	6.47
517.166	6.45
517.512	6.47
517.859	6.49
518.205	6.48
518.552	6.52
518.898	6.51
519.245	6.49
519.591	6.51
519.937	6.49
520.283	6.5
520.629	6.51
520.976	6.55
521.322	6.54
521.668	6.54
522.014	6.55
522.36	6.56
522.706	6.57
523.052	6.59
523.398	6.58
523.743	6.59
524.089	6.59
524.435	6.61
524.781	6.62
525.126	6.61
525.472	6.62
525.817	6.61
526.163	6.62
526.509	6.64
526.854	6.65
527.199	6.66
527.545	6.67
527.89	6.67
528.235	6.66
528.581	6.67
528.926	6.67
529.271	6.68
529.616	6.68
529.961	6.68
530.306	6.69
530.651	6.7
530.996	6.71
531.341	6.72
531.686	6.73
532.031	6.72
532.376	6.72
532.721	6.73
533.065	6.74
533.41	6.73
533.755	6.71
534.099	6.7
534.444	6.7
534.788	6.7
535.133	6.7
535.477	6.71
535.822	6.7
536.166	6.7
536.51	6.69
536.855	6.69
537.199	6.69
537.543	6.69
537.887	6.69
538.231	6.67
538.576	6.68
538.92	6.69
539.264	6.69
539.608	6.69
539.951	6.69
540.295	6.7
540.639	6.72
540.983	6.72
541.327	6.73
541.671	6.74
542.014	6.74
542.358	6.75
542.701	6.75
543.045	6.76
543.389	6.76
543.732	6.77
544.075	6.78
544.419	6.8
544.762	6.8
545.105	6.79
545.449	6.79
545.792	6.79
546.135	6.79
546.478	6.79
546.821	6.79
547.165	6.8
547.508	6.8
547.851	6.8
548.194	6.82
548.536	6.81
548.879	6.84
549.222	6.84
549.565	6.83
549.908	6.82
550.25	6.85
550.593	6.85
550.936	6.83
551.278	6.82
551.621	6.78
551.963	6.8
552.306	6.82
552.648	6.85
552.991	6.88
553.333	6.89
553.675	6.89
554.017	6.91
554.36	6.93
554.702	6.9
555.044	6.88
555.386	6.86
555.728	6.88
556.07	6.88
556.412	6.86
556.754	6.86
557.096	6.87
557.438	6.83
557.78	6.84
558.121	6.87
558.463	6.89
558.805	6.9
559.147	6.9
559.488	6.92
559.83	6.89
560.171	6.89
560.513	6.89
560.854	6.89
561.196	6.88
561.537	6.91
561.878	6.91
562.22	6.92
562.561	6.92
562.902	6.91
563.243	6.87
563.584	6.88
563.925	6.88
564.266	6.87
564.607	6.91
564.948	6.92
565.289	6.91
565.63	6.92
565.971	6.92
566.312	6.93
566.653	6.92
566.993	6.94
567.334	6.92
567.675	6.91
568.015	6.9
568.356	6.91
568.696	6.9
569.037	6.94
569.377	6.97
569.718	7
570.058	6.99
570.398	7.01
570.739	7.03
571.079	7.03
571.419	7.04
571.759	7.04
572.099	7.01
572.439	7.04
572.779	7.01
573.119	7.02
573.459	7.01
573.799	7
574.139	6.99
574.479	7
574.819	6.99
575.158	7.01
575.498	7
575.838	6.99
576.177	6.95
576.517	6.93
576.856	6.96
577.196	6.96
577.535	6.95
577.875	6.96
578.214	6.92
578.553	6.95
578.893	6.94
579.232	6.96
579.571	6.94
579.91	6.93
580.25	6.92
580.589	6.94
580.928	6.94
581.267	6.97
581.606	6.97
581.945	7.01
582.283	6.97
582.622	6.99
582.961	6.97
583.3	7.02
583.639	7.06
583.977	7.03
584.316	7.05
584.654	7.03
584.993	7.03
585.332	7.12
585.67	7.08
586.008	7.08
586.347	7.05
586.685	7.04
587.024	7.07
587.362	7.09
587.7	7.11
588.038	7.15
588.376	7.09
588.715	7.08
589.053	7.05
589.391	7.09
589.729	7.11
590.067	7.11
590.404	7.07
590.742	7.06
591.08	7.01
591.418	7.01
591.756	7.08
592.093	7.06
592.431	7.04
592.769	7.08
593.106	7.08
593.444	7.08
593.781	7.06
594.119	7.06
594.456	7.07
594.793	7.05
595.131	7.03
595.468	7.06
595.805	7.08
596.143	7.1
596.48	7.1
596.817	7.08
597.154	7.12
597.491	7.14
597.828	7.11
598.165	7.11
598.502	7.1
598.839	7.06
599.176	7.05
599.512	7.05
599.849	7.04
600.186	7.06
600.523	7.08
600.859	7.11
601.196	7.13
601.532	7.09
601.869	7.09
602.205	7.09
602.542	7.09
602.878	7.05
603.215	7.04
603.551	7.04
603.887	7.06
604.223	7.05
604.56	7.07
604.896	7.1
605.232	7.15
605.568	7.15
605.904	7.16
606.24	7.21
606.576	7.19
606.912	7.18
607.248	7.2
607.583	7.19
607.919	7.19
608.255	7.18
608.591	7.22
608.926	7.25
609.262	7.27
609.597	7.29
609.933	7.3
610.268	7.32
610.604	7.32
610.939	7.3
611.275	7.29
611.61	7.27
611.945	7.29
612.281	7.24
612.616	7.23
612.951	7.22
613.286	7.19
613.621	7.22
613.956	7.23
614.291	7.19
614.626	7.21
614.961	7.18
615.296	7.13
615.631	7.11
615.966	7.09
616.3	7.08
616.635	7.08
616.97	7.18
617.304	7.16
617.639	7.19
617.973	7.19
618.308	7.14
618.642	7.16
618.977	7.07
619.311	7.12
619.646	7.15
619.98	7.15
620.314	7.12
620.648	7.1
620.983	7.13
621.317	7.13
621.651	7.19
621.985	7.22
622.319	7.26
622.653	7.27
622.987	7.28
623.321	7.26
623.655	7.26
623.988	7.25
624.322	7.25
624.656	7.27
624.99	7.28
625.323	7.37
625.657	7.36
625.99	7.45
626.324	7.43
626.657	7.43
626.991	7.43
627.324	7.46
627.658	7.47
627.991	7.49
628.324	7.47
628.657	7.43
628.991	7.43
629.324	7.45
629.657	7.45
629.99	7.47
630.323	7.48
630.656	7.49
630.989	7.5
631.322	7.55
631.655	7.5
631.987	7.49
632.32	7.4
632.653	7.41
632.986	7.34
633.318	7.36
633.651	7.36
633.984	7.36
634.316	7.36
634.649	7.36
634.981	7.29
635.313	7.32
635.646	7.32
635.978	7.35
636.31	7.35
636.643	7.37
636.975	7.33
637.307	7.28
637.639	7.28
637.971	7.27
638.303	7.18
638.635	7.23
638.967	7.23
639.299	7.33
639.631	7.29
639.963	7.29
640.295	7.28
640.626	7.29
640.958	7.38
641.29	7.33
641.621	7.31
641.953	7.33
642.285	7.29
642.616	7.35
642.948	7.31
643.279	7.33
643.61	7.29
643.942	7.33
644.273	7.4
644.604	7.41
644.936	7.3
645.267	7.31
645.598	7.3
645.929	7.31
646.26	7.27
646.591	7.32
646.922	7.35
647.253	7.37
647.584	7.34
647.915	7.26
648.245	7.3
648.576	7.41
648.907	7.44
649.238	7.47
649.568	7.48
649.899	7.47
650.229	7.49
650.56	7.55
650.89	7.5
651.221	7.51
651.551	7.43
651.882	7.55
652.212	7.6
652.542	7.58
652.872	7.55
653.203	7.57
653.533	7.6
653.863	7.67
654.193	7.65
654.523	7.66
654.853	7.66
655.183	7.63
655.513	7.53
655.843	7.53
656.172	7.59
656.502	7.55
656.832	7.59
657.162	7.6
657.491	7.56
657.821	7.67
658.15	7.65
658.48	7.73
658.809	7.68
659.139	7.69
659.468	7.69
659.798	7.72
660.127	7.73
660.456	7.74
660.785	7.69
661.115	7.67
661.444	7.7
661.773	7.75
662.102	7.76
662.431	7.83
662.76	7.84
663.089	7.82
663.418	7.76
663.747	7.76
664.076	7.72
664.404	7.7
664.733	7.63
665.062	7.65
665.39	7.6
665.719	7.57
666.048	7.54
666.376	7.59
666.705	7.64
667.033	7.63
667.362	7.67
667.69	7.68
668.018	7.74
668.347	7.75
668.675	7.75
669.003	7.81
669.331	7.84
669.659	7.84
669.987	7.76
670.315	7.83
670.643	7.8
670.971	7.85
671.299	7.85
671.627	7.92
671.955	7.9
672.283	7.95
672.61	7.97
672.938	7.97
673.266	8.01
673.593	8.11
673.921	8.08
674.249	8.08
674.576	8.07
674.904	8.06
675.231	7.99
675.558	7.98
675.886	7.89
676.213	7.83
