Data from BA57890_Reflection_00002.txt Node
Date: Mon Nov 18 15:05:47 EST 2019
User: vgr7
Spectrometer: USB2G7710
Scans to average: 3
Trigger mode: 4
Integration Time (sec): 2.000000E-2
Electric dark correction enabled: true
Boxcar width: 10
XAxis mode: Wavelengths
Number of Pixels in Spectrum: 2048
>>>>>Begin Spectral Data<<<<<
177.721	-272.9
178.105	-220.2
178.488	-183.13
178.871	-44.39
179.254	36.56
179.636	142.78
180.019	337.06
180.402	257.14
180.785	-676.12
181.168	45.9
181.55	36.38
181.933	107.72
182.316	132.6
182.698	156.45
183.081	200.39
183.463	276.84
183.846	147.29
184.228	145
184.611	133.95
184.993	197.36
185.376	60.08
185.758	177.29
186.14	311.35
186.522	242.75
186.904	378.31
187.287	366.86
187.669	681.54
188.051	982.83
188.433	1890.94
188.815	-17448.39
189.197	-546.54
189.579	-1869.23
189.961	-1523.27
190.342	-16386.49
190.724	-5661.47
191.106	1818.48
191.488	1388.14
191.869	3140.46
192.251	1043.74
192.633	7001.41
193.014	679.56
193.396	522.24
193.777	295.44
194.159	313.42
194.54	425.29
194.922	316.35
195.303	391.18
195.684	220.31
196.065	206.89
196.447	182.82
196.828	154.41
197.209	114.82
197.59	125.15
197.971	169.06
198.352	151.33
198.733	349.5
199.114	633.94
199.495	-804.46
199.876	-129.19
200.257	-84.75
200.638	-78.03
201.018	-47.7
201.399	-14.17
201.78	-39.59
202.16	-94.57
202.541	-235.95
202.922	-343.67
203.302	-544.84
203.683	-268.19
204.063	-246.41
204.444	-118.38
204.824	-117.47
205.204	-144.38
205.585	-168.88
205.965	-143.34
206.345	-175.64
206.725	-195.98
207.106	-317.16
207.486	-1050.98
207.866	-2563.21
208.246	3484.62
208.626	-2207.05
209.006	-1998.11
209.386	1230.28
209.766	1275.48
210.145	-837.59
210.525	-541.93
210.905	-354.74
211.285	-267.12
211.664	-210.52
212.044	-205.34
212.424	-252.62
212.803	-189.11
213.183	-142.92
213.562	-132.01
213.942	-117.04
214.321	-111.13
214.701	-96.71
215.08	-99.55
215.459	-68.31
215.838	-57.24
216.218	-52.12
216.597	-47.05
216.976	-34.12
217.355	-4.98
217.734	-7.65
218.113	2.06
218.492	-3.38
218.871	-12.92
219.25	-9.21
219.629	-21.06
220.008	-25.83
220.387	-16.33
220.766	-22.32
221.144	-51.89
221.523	-67.05
221.902	-84.33
222.28	-87.59
222.659	-81.71
223.037	-72.94
223.416	-84.12
223.794	-85.91
224.173	-73.52
224.551	-68.38
224.929	-72.37
225.308	-57.27
225.686	-51.14
226.064	-48.26
226.442	-41.2
226.821	-25.26
227.199	-26.41
227.577	-26.22
227.955	-21.9
228.333	-20.38
228.711	-18.47
229.089	-12.18
229.467	-9.68
229.845	-5.62
230.222	-3.51
230.6	-4.59
230.978	-3.89
231.356	0.48
231.733	2.32
232.111	2.76
232.488	3.64
232.866	4.56
233.243	2.13
233.621	2.83
233.998	4.44
234.376	2.43
234.753	1.57
235.13	2.88
235.508	2.85
235.885	1.24
236.262	0.86
236.639	1.47
237.016	0.98
237.393	2.89
237.77	3.84
238.147	4.79
238.524	4.47
238.901	5.41
239.278	4.62
239.655	4.3
240.032	4.39
240.409	3.79
240.785	3.74
241.162	3.65
241.539	3.88
241.915	3.71
242.292	3.9
242.668	3.97
243.045	4.48
243.421	4.65
243.798	4.96
244.174	4.99
244.551	5.36
244.927	5.17
245.303	4.91
245.679	4.64
246.056	4.49
246.432	4.69
246.808	4.57
247.184	4.51
247.56	4.43
247.936	4.29
248.312	4.38
248.688	4.21
249.064	4.52
249.44	4.47
249.815	4.26
250.191	4.26
250.567	4.32
250.943	3.99
251.318	4.12
251.694	3.93
252.069	3.79
252.445	3.54
252.82	3.81
253.196	3.75
253.571	3.67
253.947	3.53
254.322	3.33
254.697	3.3
255.073	3.01
255.448	2.97
255.823	3.17
256.198	3.39
256.573	3.54
256.948	3.54
257.323	3.59
257.698	3.83
258.073	3.92
258.448	3.83
258.823	3.91
259.198	3.75
259.573	3.81
259.948	3.82
260.322	3.9
260.697	3.69
261.072	3.55
261.446	3.58
261.821	3.75
262.195	3.88
262.57	3.89
262.944	4.1
263.319	4.24
263.693	4.16
264.067	4.09
264.442	4.22
264.816	4.06
265.19	3.97
265.564	3.77
265.938	3.8
266.313	3.86
266.687	3.95
267.061	3.99
267.435	3.93
267.809	3.95
268.183	3.88
268.556	4.04
268.93	4.31
269.304	4.36
269.678	4.3
270.051	4.19
270.425	4.27
270.799	4.26
271.172	4.16
271.546	4.15
271.919	4.1
272.293	4.08
272.666	4.19
273.04	4.31
273.413	4.22
273.787	4.15
274.16	4.12
274.533	3.99
274.906	3.97
275.279	4.08
275.653	4.17
276.026	4.13
276.399	4.03
276.772	4.06
277.145	3.89
277.518	3.87
277.891	3.82
278.263	3.66
278.636	3.75
279.009	3.96
279.382	4.15
279.755	4.26
280.127	4.4
280.5	4.43
280.872	4.39
281.245	4.62
281.617	4.77
281.99	4.8
282.362	5.02
282.735	4.88
283.107	4.83
283.479	4.86
283.852	4.99
284.224	5.04
284.596	4.94
284.968	4.98
285.34	4.99
285.713	5.11
286.085	5.29
286.457	5.28
286.829	5.21
287.201	5.08
287.572	4.88
287.944	4.84
288.316	4.82
288.688	4.78
289.06	4.74
289.431	4.74
289.803	4.74
290.175	4.66
290.546	4.97
290.918	5.05
291.289	5.09
291.661	5.1
292.032	5.22
292.403	5.29
292.775	5.41
293.146	5.49
293.517	5.5
293.889	5.59
294.26	5.57
294.631	5.65
295.002	5.69
295.373	5.81
295.744	5.79
296.115	5.84
296.486	5.92
296.857	5.97
297.228	6.01
297.599	6.03
297.97	6.09
298.34	5.95
298.711	5.96
299.082	5.81
299.452	5.86
299.823	5.9
300.194	6.01
300.564	5.95
300.935	5.92
301.305	5.97
301.676	6
302.046	6.06
302.416	6.11
302.787	6.3
303.157	6.48
303.527	6.52
303.897	6.66
304.267	6.7
304.637	6.76
305.008	6.73
305.378	6.82
305.748	6.84
306.117	6.9
306.487	6.91
306.857	7.07
307.227	7.05
307.597	6.99
307.967	6.95
308.336	6.97
308.706	7.1
309.076	7.13
309.445	7.06
309.815	7.01
310.184	7.03
310.554	6.9
310.923	6.86
311.293	6.81
311.662	6.72
312.031	6.65
312.401	6.73
312.77	6.81
313.139	6.89
313.508	6.87
313.877	6.88
314.246	6.9
314.616	6.85
314.985	6.76
315.353	6.78
315.722	6.87
316.091	6.91
316.46	6.8
316.829	6.75
317.198	6.76
317.567	6.82
317.935	6.7
318.304	6.84
318.672	6.8
319.041	6.85
319.41	6.86
319.778	6.93
320.147	6.84
320.515	6.74
320.883	6.51
321.252	6.65
321.62	6.77
321.988	6.87
322.357	6.91
322.725	6.93
323.093	6.96
323.461	6.92
323.829	7.06
324.197	7.13
324.565	7.14
324.933	7.05
325.301	7.14
325.669	7.22
326.037	7.17
326.405	7.2
326.772	7.3
327.14	7.34
327.508	7.36
327.875	7.33
328.243	7.43
328.61	7.61
328.978	7.58
329.346	7.46
329.713	7.33
330.08	7.26
330.448	7.29
330.815	7.16
331.182	7.15
331.55	7.16
331.917	7.15
332.284	7.14
332.651	7.23
333.018	7.2
333.385	7.18
333.752	7.21
334.119	7.25
334.486	7.11
334.853	7.04
335.22	7.02
335.587	7.05
335.954	6.87
336.32	6.77
336.687	6.65
337.054	6.71
337.42	6.79
337.787	6.88
338.153	6.85
338.52	7.04
338.886	7.03
339.253	6.91
339.619	6.84
339.986	6.94
340.352	7.03
340.718	6.92
341.084	6.86
341.451	6.83
341.817	6.82
342.183	6.9
342.549	6.94
342.915	6.98
343.281	6.95
343.647	7.05
344.013	7.1
344.379	7.18
344.745	7.18
345.11	7.09
345.476	7.09
345.842	7.15
346.208	7.09
346.573	7.13
346.939	7.13
347.304	7.11
347.67	7.09
348.035	7.03
348.401	7.14
348.766	7.17
349.132	7.2
349.497	7.19
349.862	7.26
350.228	7.2
350.593	7.16
350.958	7.28
351.323	7.17
351.688	7.12
352.053	7.09
352.418	7.14
352.783	7.2
353.148	7.15
353.513	7.1
353.878	7.07
354.243	7.09
354.608	7.19
354.972	7.32
355.337	7.28
355.702	7.3
356.066	7.34
356.431	7.37
356.795	7.41
357.16	7.39
357.524	7.27
357.889	7.35
358.253	7.4
358.618	7.33
358.982	7.39
359.346	7.44
359.71	7.41
360.075	7.33
360.439	7.4
360.803	7.39
361.167	7.43
361.531	7.45
361.895	7.44
362.259	7.36
362.623	7.35
362.987	7.35
363.351	7.33
363.714	7.28
364.078	7.21
364.442	7.21
364.806	7.18
365.169	7.17
365.533	7.16
365.896	7.15
366.26	7.17
366.623	7.11
366.987	7.1
367.35	7.22
367.714	7.27
368.077	7.22
368.44	7.25
368.803	7.29
369.167	7.22
369.53	7.18
369.893	7.2
370.256	7.2
370.619	7.21
370.982	7.22
371.345	7.2
371.708	7.23
372.071	7.17
372.434	7.19
372.797	7.25
373.159	7.27
373.522	7.28
373.885	7.37
374.247	7.49
374.61	7.5
374.973	7.46
375.335	7.46
375.698	7.46
376.06	7.45
376.423	7.39
376.785	7.5
377.147	7.47
377.51	7.47
377.872	7.5
378.234	7.47
378.596	7.43
378.958	7.52
379.321	7.54
379.683	7.57
380.045	7.58
380.407	7.61
380.769	7.57
381.13	7.57
381.492	7.52
381.854	7.49
382.216	7.48
382.578	7.45
382.939	7.44
383.301	7.45
383.663	7.46
384.024	7.51
384.386	7.48
384.747	7.55
385.109	7.54
385.47	7.46
385.832	7.48
386.193	7.51
386.554	7.42
386.916	7.41
387.277	7.46
387.638	7.52
387.999	7.5
388.36	7.53
388.721	7.55
389.082	7.51
389.443	7.5
389.804	7.51
390.165	7.52
390.526	7.51
390.887	7.56
391.248	7.59
391.609	7.59
391.969	7.59
392.33	7.56
392.691	7.57
393.051	7.58
393.412	7.6
393.772	7.57
394.133	7.62
394.493	7.63
394.854	7.6
395.214	7.55
395.574	7.58
395.935	7.58
396.295	7.57
396.655	7.58
397.015	7.56
397.376	7.55
397.736	7.57
398.096	7.59
398.456	7.54
398.816	7.52
399.176	7.51
399.535	7.52
399.895	7.55
400.255	7.59
400.615	7.61
400.975	7.61
401.334	7.64
401.694	7.63
402.054	7.61
402.413	7.63
402.773	7.62
403.132	7.6
403.492	7.61
403.851	7.58
404.211	7.59
404.57	7.63
404.929	7.66
405.288	7.64
405.648	7.62
406.007	7.66
406.366	7.65
406.725	7.66
407.084	7.64
407.443	7.58
407.802	7.58
408.161	7.57
408.52	7.58
408.879	7.59
409.238	7.6
409.596	7.59
409.955	7.6
410.314	7.63
410.673	7.65
411.031	7.64
411.39	7.65
411.748	7.64
412.107	7.62
412.465	7.62
412.824	7.62
413.182	7.63
413.54	7.6
413.899	7.61
414.257	7.61
414.615	7.61
414.974	7.64
415.332	7.63
415.69	7.62
416.048	7.6
416.406	7.58
416.764	7.57
417.122	7.59
417.48	7.57
417.838	7.56
418.195	7.55
418.553	7.54
418.911	7.54
419.269	7.57
419.626	7.57
419.984	7.55
420.342	7.58
420.699	7.58
421.057	7.59
421.414	7.57
421.772	7.57
422.129	7.57
422.486	7.58
422.844	7.58
423.201	7.58
423.558	7.59
423.915	7.6
424.273	7.61
424.63	7.6
424.987	7.62
425.344	7.64
425.701	7.65
426.058	7.66
426.415	7.67
426.772	7.65
427.128	7.64
427.485	7.63
427.842	7.62
428.199	7.63
428.555	7.6
428.912	7.63
429.269	7.63
429.625	7.66
429.982	7.65
430.338	7.66
430.695	7.66
431.051	7.64
431.407	7.64
431.764	7.64
432.12	7.63
432.476	7.59
432.832	7.55
433.189	7.57
433.545	7.56
433.901	7.56
434.257	7.55
434.613	7.57
434.969	7.57
435.325	7.56
435.681	7.56
436.036	7.59
436.392	7.59
436.748	7.58
437.104	7.56
437.459	7.55
437.815	7.56
438.171	7.56
438.526	7.59
438.882	7.57
439.237	7.58
439.593	7.62
439.948	7.64
440.304	7.67
440.659	7.67
441.014	7.69
441.369	7.67
441.725	7.67
442.08	7.67
442.435	7.67
442.79	7.68
443.145	7.67
443.5	7.67
443.855	7.66
444.21	7.65
444.565	7.66
444.92	7.68
445.275	7.65
445.629	7.65
445.984	7.63
446.339	7.64
446.693	7.64
447.048	7.61
447.403	7.59
447.757	7.57
448.112	7.57
448.466	7.55
448.82	7.57
449.175	7.58
449.529	7.55
449.883	7.57
450.238	7.54
450.592	7.53
450.946	7.51
451.3	7.52
451.654	7.54
452.008	7.55
452.362	7.54
452.716	7.54
453.07	7.57
453.424	7.57
453.778	7.55
454.132	7.56
454.486	7.55
454.839	7.54
455.193	7.53
455.547	7.53
455.9	7.53
456.254	7.52
456.607	7.52
456.961	7.52
457.314	7.52
457.668	7.57
458.021	7.58
458.375	7.59
458.728	7.58
459.081	7.6
459.434	7.6
459.787	7.62
460.141	7.62
460.494	7.63
460.847	7.62
461.2	7.61
461.553	7.63
461.906	7.65
462.259	7.66
462.611	7.69
462.964	7.69
463.317	7.7
463.67	7.73
464.022	7.75
464.375	7.76
464.728	7.78
465.08	7.77
465.433	7.78
465.785	7.77
466.138	7.79
466.49	7.78
466.843	7.76
467.195	7.75
467.547	7.75
467.899	7.73
468.252	7.74
468.604	7.77
468.956	7.75
469.308	7.76
469.66	7.77
470.012	7.76
470.364	7.77
470.716	7.78
471.068	7.76
471.42	7.74
471.772	7.75
472.123	7.77
472.475	7.78
472.827	7.79
473.178	7.81
473.53	7.79
473.882	7.8
474.233	7.8
474.585	7.8
474.936	7.8
475.288	7.8
475.639	7.8
475.99	7.81
476.342	7.81
476.693	7.81
477.044	7.82
477.395	7.82
477.746	7.82
478.097	7.8
478.448	7.82
478.8	7.83
479.15	7.83
479.501	7.85
479.852	7.86
480.203	7.84
480.554	7.85
480.905	7.86
481.255	7.86
481.606	7.89
481.957	7.9
482.307	7.91
482.658	7.94
483.009	7.96
483.359	7.97
483.709	7.99
484.06	7.98
484.41	7.98
484.761	7.99
485.111	7.99
485.461	8
485.811	7.99
486.162	8
486.512	8
486.862	8
487.212	8.01
487.562	8.03
487.912	8.03
488.262	8.05
488.612	8.05
488.961	8.06
489.311	8.07
489.661	8.07
490.011	8.05
490.36	8.03
490.71	8.02
491.06	8.02
491.409	8.03
491.759	8.03
492.108	8.04
492.458	8.04
492.807	8.05
493.157	8.04
493.506	8.05
493.855	8.06
494.204	8.05
494.554	8.04
494.903	8.02
495.252	8.01
495.601	8
495.95	8.01
496.299	7.99
496.648	7.97
496.997	7.97
497.346	8.01
497.695	8.03
498.043	8.04
498.392	8.03
498.741	8
499.09	8.01
499.438	8.01
499.787	8.01
500.135	8.03
500.484	8.05
500.832	8.05
501.181	8.06
501.529	8.06
501.878	8.05
502.226	8.07
502.574	8.08
502.923	8.08
503.271	8.07
503.619	8.09
503.967	8.13
504.315	8.11
504.663	8.08
505.011	8.09
505.359	8.09
505.707	8.12
506.055	8.15
506.403	8.16
506.751	8.16
507.098	8.16
507.446	8.16
507.794	8.17
508.141	8.17
508.489	8.18
508.837	8.18
509.184	8.19
509.531	8.2
509.879	8.24
510.226	8.27
510.574	8.28
510.921	8.28
511.268	8.27
511.616	8.28
511.963	8.28
512.31	8.28
512.657	8.29
513.004	8.28
513.351	8.28
513.698	8.3
514.045	8.32
514.392	8.33
514.739	8.31
515.086	8.32
515.432	8.32
515.779	8.3
516.126	8.31
516.473	8.34
516.819	8.33
517.166	8.3
517.512	8.3
517.859	8.3
518.205	8.29
518.552	8.31
518.898	8.32
519.245	8.34
519.591	8.34
519.937	8.34
520.283	8.34
520.629	8.33
520.976	8.33
521.322	8.33
521.668	8.31
522.014	8.34
522.36	8.35
522.706	8.37
523.052	8.4
523.398	8.4
523.743	8.39
524.089	8.41
524.435	8.42
524.781	8.44
525.126	8.46
525.472	8.48
525.817	8.46
526.163	8.45
526.509	8.46
526.854	8.48
527.199	8.49
527.545	8.48
527.89	8.49
528.235	8.49
528.581	8.49
528.926	8.49
529.271	8.48
529.616	8.48
529.961	8.47
530.306	8.47
530.651	8.48
530.996	8.49
531.341	8.47
531.686	8.47
532.031	8.46
532.376	8.46
532.721	8.45
533.065	8.47
533.41	8.47
533.755	8.47
534.099	8.47
534.444	8.47
534.788	8.48
535.133	8.48
535.477	8.49
535.822	8.49
536.166	8.51
536.51	8.52
536.855	8.51
537.199	8.53
537.543	8.53
537.887	8.52
538.231	8.52
538.576	8.54
538.92	8.54
539.264	8.56
539.608	8.57
539.951	8.57
540.295	8.55
540.639	8.56
540.983	8.56
541.327	8.55
541.671	8.55
542.014	8.56
542.358	8.55
542.701	8.56
543.045	8.56
543.389	8.55
543.732	8.56
544.075	8.57
544.419	8.56
544.762	8.55
545.105	8.55
545.449	8.56
545.792	8.55
546.135	8.55
546.478	8.54
546.821	8.51
547.165	8.51
547.508	8.52
547.851	8.52
548.194	8.5
548.536	8.5
548.879	8.52
549.222	8.53
549.565	8.53
549.908	8.52
550.25	8.53
550.593	8.56
550.936	8.54
551.278	8.56
551.621	8.59
551.963	8.61
552.306	8.59
552.648	8.61
552.991	8.67
553.333	8.65
553.675	8.65
554.017	8.69
554.36	8.7
554.702	8.71
555.044	8.68
555.386	8.72
555.728	8.73
556.07	8.74
556.412	8.72
556.754	8.71
557.096	8.71
557.438	8.71
557.78	8.72
558.121	8.73
558.463	8.73
558.805	8.71
559.147	8.71
559.488	8.72
559.83	8.74
560.171	8.71
560.513	8.75
560.854	8.76
561.196	8.74
561.537	8.78
561.878	8.81
562.22	8.81
562.561	8.81
562.902	8.8
563.243	8.82
563.584	8.82
563.925	8.86
564.266	8.88
564.607	8.87
564.948	8.84
565.289	8.84
565.63	8.84
565.971	8.85
566.312	8.85
566.653	8.84
566.993	8.83
567.334	8.85
567.675	8.86
568.015	8.88
568.356	8.88
568.696	8.87
569.037	8.85
569.377	8.88
569.718	8.84
570.058	8.83
570.398	8.8
570.739	8.79
571.079	8.77
571.419	8.77
571.759	8.79
572.099	8.8
572.439	8.8
572.779	8.78
573.119	8.78
573.459	8.78
573.799	8.83
574.139	8.82
574.479	8.82
574.819	8.82
575.158	8.79
575.498	8.79
575.838	8.77
576.177	8.74
576.517	8.75
576.856	8.78
577.196	8.8
577.535	8.82
577.875	8.84
578.214	8.86
578.553	8.87
578.893	8.89
579.232	8.92
579.571	8.93
579.91	8.97
580.25	8.97
580.589	8.96
580.928	8.95
581.267	8.95
581.606	8.92
581.945	8.88
582.283	8.91
582.622	8.9
582.961	8.92
583.3	8.99
583.639	9.04
583.977	9.05
584.316	9.01
584.654	8.98
584.993	9.02
585.332	9
585.67	8.98
586.008	8.96
586.347	8.95
586.685	8.95
587.024	8.96
587.362	8.96
587.7	8.96
588.038	8.92
588.376	8.95
588.715	8.97
589.053	8.99
589.391	9.03
589.729	9.08
590.067	9.06
590.404	9.02
590.742	8.99
591.08	8.97
591.418	9.01
591.756	9.06
592.093	9
592.431	9.01
592.769	9.02
593.106	9
593.444	8.98
593.781	8.97
594.119	8.95
594.456	8.96
594.793	9
595.131	9.01
595.468	9.01
595.805	9.02
596.143	9.03
596.48	8.99
596.817	8.96
597.154	8.97
597.491	8.95
597.828	8.91
598.165	8.92
598.502	8.9
598.839	8.9
599.176	8.96
599.512	9.02
599.849	9.02
600.186	9.07
600.523	9.11
600.859	9.16
601.196	9.18
601.532	9.14
601.869	9.11
602.205	9.13
602.542	9.14
602.878	9.09
603.215	9.05
603.551	9.06
603.887	9.06
604.223	9.07
604.56	9.12
604.896	9.15
605.232	9.14
605.568	9.15
605.904	9.15
606.24	9.14
606.576	9.13
606.912	9.12
607.248	9.1
607.583	9.08
607.919	9.08
608.255	9.06
608.591	9.12
608.926	9.1
609.262	9.13
609.597	9.14
609.933	9.18
610.268	9.19
610.604	9.18
610.939	9.2
611.275	9.19
611.61	9.15
611.945	9.18
612.281	9.14
612.616	9.16
612.951	9.18
613.286	9.16
613.621	9.11
613.956	9.09
614.291	9.1
614.626	9.08
614.961	9.07
615.296	9.03
615.631	9
615.966	9.03
616.3	9.02
616.635	8.93
616.97	8.95
617.304	8.99
617.639	9.03
617.973	8.95
618.308	8.94
618.642	8.99
618.977	8.98
619.311	9.03
619.646	9.01
619.98	8.95
620.314	8.96
620.648	9.02
620.983	9.08
621.317	9.06
621.651	9.09
621.985	9.08
622.319	9.09
622.653	9.09
622.987	9.1
623.321	9.09
623.655	9.15
623.988	9.19
624.322	9.14
624.656	9.18
624.99	9.23
625.323	9.27
625.657	9.31
625.99	9.31
626.324	9.31
626.657	9.29
626.991	9.32
627.324	9.33
627.658	9.32
627.991	9.34
628.324	9.36
628.657	9.35
628.991	9.38
629.324	9.45
629.657	9.48
629.99	9.52
630.323	9.54
630.656	9.54
630.989	9.57
631.322	9.6
631.655	9.55
631.987	9.55
632.32	9.57
632.653	9.48
632.986	9.43
633.318	9.45
633.651	9.54
633.984	9.54
634.316	9.57
634.649	9.56
634.981	9.54
635.313	9.54
635.646	9.5
635.978	9.51
636.31	9.46
636.643	9.42
636.975	9.46
637.307	9.44
637.639	9.43
637.971	9.41
638.303	9.39
638.635	9.38
638.967	9.44
639.299	9.44
639.631	9.44
639.963	9.44
640.295	9.46
640.626	9.45
640.958	9.53
641.29	9.45
641.621	9.48
641.953	9.42
642.285	9.5
642.616	9.59
642.948	9.54
643.279	9.54
643.61	9.55
643.942	9.52
644.273	9.52
644.604	9.51
644.936	9.5
645.267	9.56
645.598	9.58
645.929	9.56
646.26	9.53
646.591	9.57
646.922	9.6
647.253	9.62
647.584	9.55
647.915	9.55
648.245	9.54
648.576	9.53
648.907	9.58
649.238	9.51
649.568	9.45
649.899	9.48
650.229	9.5
650.56	9.55
650.89	9.53
651.221	9.52
651.551	9.55
651.882	9.54
652.212	9.55
652.542	9.56
652.872	9.57
653.203	9.62
653.533	9.67
653.863	9.67
654.193	9.64
654.523	9.63
654.853	9.6
655.183	9.68
655.513	9.73
655.843	9.67
656.172	9.7
656.502	9.76
656.832	9.72
657.162	9.78
657.491	9.75
657.821	9.76
658.15	9.77
658.48	9.77
658.809	9.76
659.139	9.74
659.468	9.72
659.798	9.76
660.127	9.73
660.456	9.68
660.785	9.69
661.115	9.69
661.444	9.72
661.773	9.77
662.102	9.78
662.431	9.8
662.76	9.87
663.089	9.85
663.418	9.81
663.747	9.8
664.076	9.74
664.404	9.8
664.733	9.83
665.062	9.9
665.39	9.91
665.719	9.95
666.048	9.94
666.376	9.95
666.705	9.88
667.033	9.84
667.362	9.9
667.69	9.93
668.018	9.95
668.347	9.93
668.675	9.82
669.003	9.79
669.331	9.8
669.659	9.76
669.987	9.74
670.315	9.68
670.643	9.79
670.971	9.85
671.299	9.82
671.627	9.76
671.955	9.72
672.283	9.69
672.61	9.65
672.938	9.68
673.266	9.74
673.593	9.77
673.921	9.89
674.249	9.84
674.576	9.84
674.904	9.82
675.231	9.85
675.558	9.87
675.886	9.94
