Data from BA57662_Reflection_00011.txt Node
Date: Mon Nov 18 15:34:45 EST 2019
User: vgr7
Spectrometer: USB2G7710
Scans to average: 3
Trigger mode: 4
Integration Time (sec): 2.000000E-2
Electric dark correction enabled: true
Boxcar width: 10
XAxis mode: Wavelengths
Number of Pixels in Spectrum: 2048
>>>>>Begin Spectral Data<<<<<
177.721	-177.05
178.105	-108.92
178.488	-45.96
178.871	28.41
179.254	104.56
179.636	103.76
180.019	43.89
180.402	176.47
180.785	80.73
181.168	9.35
181.55	107.07
181.933	104.61
182.316	100.9
182.698	89.92
183.081	79.23
183.463	104.64
183.846	87.83
184.228	58.57
184.611	75.2
184.993	59.34
185.376	49.56
185.758	71.83
186.14	120.62
186.522	277.38
186.904	-486.91
187.287	-1270.52
187.669	-204.31
188.051	-212.24
188.433	-104.49
188.815	-61.45
189.197	-63.75
189.579	-50.52
189.961	-19.36
190.342	-7.75
190.724	-4.56
191.106	-13.13
191.488	2.51
191.869	10.27
192.251	6.54
192.633	11.5
193.014	5.87
193.396	16.36
193.777	39.94
194.159	83.63
194.54	92.88
194.922	127.53
195.303	126.86
195.684	146.04
196.065	89.29
196.447	107.64
196.828	93.64
197.209	85.05
197.59	43.93
197.971	33.44
198.352	50.11
198.733	54.42
199.114	35.2
199.495	33.64
199.876	31.25
200.257	25.46
200.638	21.66
201.018	21.09
201.399	2.27
201.78	-7.18
202.16	-30.57
202.541	-42.54
202.922	-59.04
203.302	-51.51
203.683	-46.6
204.063	-81.62
204.444	-51.14
204.824	-41.79
205.204	-26.19
205.585	-17.56
205.965	-21.2
206.345	-49.65
206.725	-65.61
207.106	-64.72
207.486	-93.3
207.866	-109.95
208.246	-85.32
208.626	-77.79
209.006	-81.63
209.386	-68.16
209.766	-43.01
210.145	-24.95
210.525	-8.94
210.905	-14.25
211.285	-5.9
211.664	1.07
212.044	17.2
212.424	12.89
212.803	17.66
213.183	8.72
213.562	22.26
213.942	44.54
214.321	80.16
214.701	97.23
215.08	84.73
215.459	79.1
215.838	86.93
216.218	85.64
216.597	78.01
216.976	72.49
217.355	61.75
217.734	51.99
218.113	48.65
218.492	37.75
218.871	37.54
219.25	33.79
219.629	30.33
220.008	25.99
220.387	28.35
220.766	25
221.144	14.86
221.523	3.52
221.902	-11.56
222.28	-24.81
222.659	-27.15
223.037	-26.68
223.416	-34.82
223.794	-30.48
224.173	-32.76
224.551	-33.63
224.929	-20.75
225.308	-16.8
225.686	-11.62
226.064	-10.54
226.442	-11.17
226.821	-7.52
227.199	-7.14
227.577	-4.83
227.955	-5.62
228.333	-2.84
228.711	-3.17
229.089	3.04
229.467	2.21
229.845	0.49
230.222	1.72
230.6	1.84
230.978	2.69
231.356	5.07
231.733	4.03
232.111	6.49
232.488	7.33
232.866	5.57
233.243	4.93
233.621	3.83
233.998	4.18
234.376	5.47
234.753	7.28
235.13	7.64
235.508	6.55
235.885	7.47
236.262	7.44
236.639	7.64
237.016	5.2
237.393	6.42
237.77	8.07
238.147	7.8
238.524	8.84
238.901	8.75
239.278	8.32
239.655	8.65
240.032	7.87
240.409	7.49
240.785	7.35
241.162	7.43
241.539	7.66
241.915	7.23
242.292	6.67
242.668	6.08
243.045	5.65
243.421	5.07
243.798	4.6
244.174	4.38
244.551	4.2
244.927	4.24
245.303	4.43
245.679	4.32
246.056	4.17
246.432	3.91
246.808	3.75
247.184	3.37
247.56	3.13
247.936	2.99
248.312	3.21
248.688	3.31
249.064	3.33
249.44	3.03
249.815	3.07
250.191	3.15
250.567	3.07
250.943	3.1
251.318	3.63
251.694	3.83
252.069	3.77
252.445	3.86
252.82	3.89
253.196	3.42
253.571	3.42
253.947	3.63
254.322	4.07
254.697	4.13
255.073	4.12
255.448	4.21
255.823	4.46
256.198	4.36
256.573	4.19
256.948	4.37
257.323	4.46
257.698	4.29
258.073	4.4
258.448	4.37
258.823	4.4
259.198	4.27
259.573	4.2
259.948	4.02
260.322	4.01
260.697	4.16
261.072	4.2
261.446	4.09
261.821	3.92
262.195	3.72
262.57	3.64
262.944	3.73
263.319	3.55
263.693	3.49
264.067	3.62
264.442	3.83
264.816	3.52
265.19	3.41
265.564	3.36
265.938	3.18
266.313	3.08
266.687	3.07
267.061	2.97
267.435	3.12
267.809	3.12
268.183	3.05
268.556	2.83
268.93	2.86
269.304	3.01
269.678	3.11
270.051	3.09
270.425	3.27
270.799	3.21
271.172	3.46
271.546	3.38
271.919	3.24
272.293	3.23
272.666	3.39
273.04	3.39
273.413	3.52
273.787	3.59
274.16	3.71
274.533	3.72
274.906	3.77
275.279	3.7
275.653	3.79
276.026	3.87
276.399	3.95
276.772	4.08
277.145	4.03
277.518	3.94
277.891	3.95
278.263	3.99
278.636	4.01
279.009	3.86
279.382	4.06
279.755	4.09
280.127	4.11
280.5	4.08
280.872	4.15
281.245	4.05
281.617	4.18
281.99	4.26
282.362	4.3
282.735	4.18
283.107	4.21
283.479	4.25
283.852	4.18
284.224	4.07
284.596	3.94
284.968	3.92
285.34	4.08
285.713	4.21
286.085	4.2
286.457	4.26
286.829	4.26
287.201	4.09
287.572	3.94
287.944	3.87
288.316	3.86
288.688	3.91
289.06	3.93
289.431	3.85
289.803	3.98
290.175	3.89
290.546	4.07
290.918	4.06
291.289	3.94
291.661	4.02
292.032	4.25
292.403	4.35
292.775	4.53
293.146	4.44
293.517	4.44
293.889	4.47
294.26	4.49
294.631	4.59
295.002	4.7
295.373	4.87
295.744	4.96
296.115	4.94
296.486	4.77
296.857	4.81
297.228	4.85
297.599	4.67
297.97	4.68
298.34	4.71
298.711	4.71
299.082	4.84
299.452	4.95
299.823	4.93
300.194	5
300.564	4.81
300.935	4.85
301.305	4.81
301.676	4.7
302.046	4.81
302.416	4.84
302.787	4.81
303.157	4.76
303.527	4.83
303.897	4.96
304.267	5.1
304.637	5.24
305.008	5.33
305.378	5.49
305.748	5.62
306.117	5.49
306.487	5.6
306.857	5.64
307.227	5.58
307.597	5.48
307.967	5.41
308.336	5.53
308.706	5.57
309.076	5.56
309.445	5.62
309.815	5.67
310.184	5.68
310.554	5.86
310.923	5.85
311.293	5.75
311.662	5.74
312.031	5.85
312.401	5.88
312.77	6.01
313.139	5.98
313.508	6.01
313.877	6.09
314.246	6.1
314.616	6.13
314.985	6.2
315.353	6.23
315.722	6.44
316.091	6.5
316.46	6.59
316.829	6.63
317.198	6.79
317.567	6.75
317.935	6.72
318.304	6.73
318.672	6.8
319.041	6.92
319.41	6.98
319.778	7.05
320.147	7.07
320.515	7.01
320.883	7.07
321.252	7.01
321.62	7.18
321.988	7.26
322.357	7.25
322.725	7.25
323.093	7.32
323.461	7.27
323.829	7.33
324.197	7.31
324.565	7.46
324.933	7.49
325.301	7.48
325.669	7.58
326.037	7.55
326.405	7.6
326.772	7.73
327.14	7.78
327.508	7.85
327.875	7.84
328.243	7.82
328.61	7.84
328.978	8.02
329.346	8.09
329.713	8.06
330.08	8.18
330.448	8.22
330.815	8.28
331.182	8.39
331.55	8.56
331.917	8.76
332.284	8.88
332.651	8.98
333.018	9.2
333.385	9.34
333.752	9.41
334.119	9.51
334.486	9.53
334.853	9.52
335.22	9.57
335.587	9.65
335.954	9.66
336.32	9.73
336.687	9.73
337.054	9.76
337.42	9.84
337.787	9.92
338.153	9.98
338.52	10.05
338.886	10.04
339.253	10.06
339.619	10.01
339.986	9.95
340.352	9.96
340.718	9.95
341.084	9.93
341.451	10.08
341.817	10.05
342.183	10.01
342.549	9.98
342.915	9.92
343.281	9.98
343.647	10.01
344.013	10
344.379	10.11
344.745	10.18
345.11	10.26
345.476	10.31
345.842	10.33
346.208	10.39
346.573	10.45
346.939	10.42
347.304	10.37
347.67	10.4
348.035	10.33
348.401	10.38
348.766	10.41
349.132	10.39
349.497	10.36
349.862	10.53
350.228	10.64
350.593	10.73
350.958	10.75
351.323	10.76
351.688	10.87
352.053	10.85
352.418	10.81
352.783	10.81
353.148	10.69
353.513	10.68
353.878	10.65
354.243	10.68
354.608	10.65
354.972	10.63
355.337	10.69
355.702	10.66
356.066	10.68
356.431	10.65
356.795	10.66
357.16	10.76
357.524	10.6
357.889	10.56
358.253	10.56
358.618	10.54
358.982	10.6
359.346	10.52
359.71	10.43
360.075	10.38
360.439	10.31
360.803	10.33
361.167	10.27
361.531	10.24
361.895	10.22
362.259	10.19
362.623	10.23
362.987	10.17
363.351	10.19
363.714	10.19
364.078	10.15
364.442	10.07
364.806	9.98
365.169	9.99
365.533	9.95
365.896	9.91
366.26	9.88
366.623	9.82
366.987	9.87
367.35	9.85
367.714	9.87
368.077	9.88
368.44	9.91
368.803	9.85
369.167	9.76
369.53	9.67
369.893	9.69
370.256	9.72
370.619	9.71
370.982	9.67
371.345	9.57
371.708	9.56
372.071	9.49
372.434	9.44
372.797	9.45
373.159	9.41
373.522	9.36
373.885	9.3
374.247	9.24
374.61	9.11
374.973	9.11
375.335	9.02
375.698	9
376.06	8.96
376.423	8.95
376.785	8.94
377.147	8.86
377.51	8.79
377.872	8.7
378.234	8.67
378.596	8.68
378.958	8.57
379.321	8.54
379.683	8.53
380.045	8.48
380.407	8.37
380.769	8.35
381.13	8.24
381.492	8.17
381.854	8.13
382.216	8.11
382.578	7.99
382.939	7.94
383.301	7.83
383.663	7.7
384.024	7.66
384.386	7.69
384.747	7.68
385.109	7.62
385.47	7.53
385.832	7.43
386.193	7.38
386.554	7.35
386.916	7.29
387.277	7.22
387.638	7.19
387.999	7.13
388.36	7.08
388.721	7.05
389.082	6.98
389.443	6.9
389.804	6.82
390.165	6.78
390.526	6.73
390.887	6.71
391.248	6.69
391.609	6.67
391.969	6.55
392.33	6.5
392.691	6.48
393.051	6.47
393.412	6.49
393.772	6.36
394.133	6.32
394.493	6.27
394.854	6.21
395.214	6.16
395.574	6.13
395.935	6.06
396.295	6.04
396.655	5.97
397.015	5.92
397.376	5.86
397.736	5.82
398.096	5.78
398.456	5.72
398.816	5.68
399.176	5.63
399.535	5.62
399.895	5.54
400.255	5.49
400.615	5.42
400.975	5.32
401.334	5.31
401.694	5.27
402.054	5.25
402.413	5.24
402.773	5.17
403.132	5.14
403.492	5.12
403.851	5.07
404.211	5.08
404.57	5.06
404.929	5.09
405.288	5.08
405.648	5.06
406.007	5.04
406.366	4.99
406.725	4.97
407.084	4.93
407.443	4.93
407.802	4.93
408.161	4.91
408.52	4.87
408.879	4.86
409.238	4.87
409.596	4.85
409.955	4.81
410.314	4.85
410.673	4.82
411.031	4.79
411.39	4.78
411.748	4.76
412.107	4.73
412.465	4.66
412.824	4.62
413.182	4.59
413.54	4.58
413.899	4.59
414.257	4.56
414.615	4.53
414.974	4.52
415.332	4.43
415.69	4.41
416.048	4.39
416.406	4.34
416.764	4.3
417.122	4.28
417.48	4.25
417.838	4.22
418.195	4.2
418.553	4.18
418.911	4.16
419.269	4.15
419.626	4.14
419.984	4.11
420.342	4.09
420.699	4.07
421.057	4.05
421.414	4.01
421.772	4
422.129	3.99
422.486	3.95
422.844	3.95
423.201	3.93
423.558	3.93
423.915	3.92
424.273	3.91
424.63	3.88
424.987	3.87
425.344	3.86
425.701	3.84
426.058	3.84
426.415	3.83
426.772	3.81
427.128	3.79
427.485	3.79
427.842	3.79
428.199	3.76
428.555	3.73
428.912	3.73
429.269	3.71
429.625	3.68
429.982	3.68
430.338	3.68
430.695	3.69
431.051	3.67
431.407	3.67
431.764	3.66
432.12	3.66
432.476	3.64
432.832	3.62
433.189	3.59
433.545	3.58
433.901	3.56
434.257	3.56
434.613	3.57
434.969	3.56
435.325	3.54
435.681	3.54
436.036	3.55
436.392	3.54
436.748	3.55
437.104	3.55
437.459	3.53
437.815	3.53
438.171	3.52
438.526	3.53
438.882	3.54
439.237	3.54
439.593	3.55
439.948	3.54
440.304	3.55
440.659	3.57
441.014	3.56
441.369	3.55
441.725	3.54
442.08	3.52
442.435	3.54
442.79	3.53
443.145	3.52
443.5	3.52
443.855	3.51
444.21	3.49
444.565	3.5
444.92	3.52
445.275	3.5
445.629	3.51
445.984	3.49
446.339	3.46
446.693	3.44
447.048	3.42
447.403	3.41
447.757	3.39
448.112	3.37
448.466	3.36
448.82	3.36
449.175	3.36
449.529	3.34
449.883	3.32
450.238	3.31
450.592	3.33
450.946	3.32
451.3	3.3
451.654	3.29
452.008	3.28
452.362	3.24
452.716	3.23
453.07	3.23
453.424	3.21
453.778	3.22
454.132	3.23
454.486	3.22
454.839	3.22
455.193	3.21
455.547	3.22
455.9	3.23
456.254	3.24
456.607	3.24
456.961	3.26
457.314	3.26
457.668	3.25
458.021	3.24
458.375	3.24
458.728	3.25
459.081	3.25
459.434	3.25
459.787	3.26
460.141	3.27
460.494	3.26
460.847	3.27
461.2	3.27
461.553	3.28
461.906	3.29
462.259	3.3
462.611	3.32
462.964	3.32
463.317	3.31
463.67	3.29
464.022	3.3
464.375	3.29
464.728	3.3
465.08	3.32
465.433	3.33
465.785	3.34
466.138	3.34
466.49	3.36
466.843	3.38
467.195	3.4
467.547	3.41
467.899	3.42
468.252	3.42
468.604	3.42
468.956	3.39
469.308	3.4
469.66	3.41
470.012	3.42
470.364	3.43
470.716	3.43
471.068	3.45
471.42	3.44
471.772	3.48
472.123	3.46
472.475	3.47
472.827	3.46
473.178	3.48
473.53	3.5
473.882	3.48
474.233	3.5
474.585	3.46
474.936	3.45
475.288	3.44
475.639	3.46
475.99	3.47
476.342	3.5
476.693	3.5
477.044	3.51
477.395	3.5
477.746	3.51
478.097	3.52
478.448	3.51
478.8	3.51
479.15	3.48
479.501	3.48
479.852	3.48
480.203	3.48
480.554	3.47
480.905	3.47
481.255	3.48
481.606	3.48
481.957	3.5
482.307	3.51
482.658	3.5
483.009	3.49
483.359	3.49
483.709	3.48
484.06	3.48
484.41	3.47
484.761	3.48
485.111	3.48
485.461	3.47
485.811	3.47
486.162	3.47
486.512	3.49
486.862	3.49
487.212	3.48
487.562	3.5
487.912	3.49
488.262	3.5
488.612	3.49
488.961	3.48
489.311	3.48
489.661	3.48
490.011	3.49
490.36	3.49
490.71	3.5
491.06	3.5
491.409	3.51
491.759	3.52
492.108	3.52
492.458	3.52
492.807	3.54
493.157	3.56
493.506	3.57
493.855	3.58
494.204	3.59
494.554	3.62
494.903	3.61
495.252	3.63
495.601	3.66
495.95	3.69
496.299	3.72
496.648	3.74
496.997	3.76
497.346	3.8
497.695	3.84
498.043	3.86
498.392	3.89
498.741	3.93
499.09	3.94
499.438	3.99
499.787	4.01
500.135	4.03
500.484	4.07
500.832	4.11
501.181	4.14
501.529	4.17
501.878	4.2
502.226	4.25
502.574	4.3
502.923	4.33
503.271	4.35
503.619	4.39
503.967	4.44
504.315	4.49
504.663	4.51
505.011	4.56
505.359	4.59
505.707	4.63
506.055	4.67
506.403	4.76
506.751	4.79
507.098	4.85
507.446	4.92
507.794	4.94
508.141	4.97
508.489	5.03
508.837	5.06
509.184	5.11
509.531	5.18
509.879	5.22
510.226	5.28
510.574	5.33
510.921	5.37
511.268	5.41
511.616	5.45
511.963	5.51
512.31	5.56
512.657	5.61
513.004	5.67
513.351	5.74
513.698	5.78
514.045	5.84
514.392	5.88
514.739	5.94
515.086	6
515.432	6.07
515.779	6.12
516.126	6.22
516.473	6.27
516.819	6.33
517.166	6.38
517.512	6.42
517.859	6.48
518.205	6.55
518.552	6.6
518.898	6.67
519.245	6.72
519.591	6.78
519.937	6.85
520.283	6.94
520.629	6.99
520.976	7.07
521.322	7.15
521.668	7.24
522.014	7.32
522.36	7.42
522.706	7.54
523.052	7.67
523.398	7.77
523.743	7.91
524.089	8.02
524.435	8.16
524.781	8.3
525.126	8.41
525.472	8.52
525.817	8.64
526.163	8.71
526.509	8.82
526.854	8.91
527.199	9
527.545	9.08
527.89	9.18
528.235	9.27
528.581	9.38
528.926	9.47
529.271	9.59
529.616	9.69
529.961	9.79
530.306	9.9
530.651	10.01
530.996	10.13
531.341	10.27
531.686	10.4
532.031	10.54
532.376	10.7
532.721	10.85
533.065	11
533.41	11.2
533.755	11.37
534.099	11.53
534.444	11.71
534.788	11.9
535.133	12.09
535.477	12.28
535.822	12.49
536.166	12.73
536.51	12.95
536.855	13.24
537.199	13.51
537.543	13.79
537.887	14.08
538.231	14.35
538.576	14.64
538.92	14.95
539.264	15.22
539.608	15.49
539.951	15.74
540.295	16
540.639	16.24
540.983	16.5
541.327	16.77
541.671	17.01
542.014	17.27
542.358	17.5
542.701	17.75
543.045	18.03
543.389	18.28
543.732	18.54
544.075	18.79
544.419	19.06
544.762	19.33
545.105	19.64
545.449	19.99
545.792	20.32
546.135	20.66
546.478	21.04
546.821	21.4
547.165	21.82
547.508	22.21
547.851	22.61
548.194	22.98
548.536	23.4
548.879	23.86
549.222	24.25
549.565	24.65
549.908	25.08
550.25	25.48
550.593	25.92
550.936	26.32
551.278	26.75
551.621	27.21
551.963	27.68
552.306	28.07
552.648	28.47
552.991	28.89
553.333	29.25
553.675	29.63
554.017	30.04
554.36	30.37
554.702	30.78
555.044	31.14
555.386	31.51
555.728	31.83
556.07	32.16
556.412	32.51
556.754	32.93
557.096	33.28
557.438	33.65
557.78	34
558.121	34.43
558.463	34.83
558.805	35.21
559.147	35.56
559.488	35.93
559.83	36.31
560.171	36.6
560.513	36.99
560.854	37.32
561.196	37.63
561.537	38.01
561.878	38.3
562.22	38.59
562.561	38.93
562.902	39.3
563.243	39.62
563.584	39.98
563.925	40.23
564.266	40.5
564.607	40.79
564.948	41.07
565.289	41.32
565.63	41.57
565.971	41.77
566.312	42.03
566.653	42.33
566.993	42.51
567.334	42.8
567.675	43.03
568.015	43.26
568.356	43.51
568.696	43.73
569.037	43.98
569.377	44.27
569.718	44.46
570.058	44.69
570.398	44.92
570.739	45.12
571.079	45.42
571.419	45.7
571.759	45.91
572.099	46.14
572.439	46.34
572.779	46.55
573.119	46.81
573.459	47.03
573.799	47.25
574.139	47.44
574.479	47.6
574.819	47.8
575.158	47.94
575.498	48.14
575.838	48.31
576.177	48.49
576.517	48.64
576.856	48.85
577.196	49.02
577.535	49.23
577.875	49.41
578.214	49.56
578.553	49.62
578.893	49.82
579.232	49.97
579.571	50.12
579.91	50.24
580.25	50.38
580.589	50.42
580.928	50.47
581.267	50.67
581.606	50.84
581.945	50.95
582.283	51.1
582.622	51.2
582.961	51.39
583.3	51.52
583.639	51.7
583.977	51.87
584.316	51.97
584.654	51.99
584.993	52.15
585.332	52.25
585.67	52.38
586.008	52.48
586.347	52.58
586.685	52.65
587.024	52.76
587.362	52.78
587.7	52.9
588.038	53.03
588.376	53.14
588.715	53.21
589.053	53.32
589.391	53.41
589.729	53.52
590.067	53.6
590.404	53.65
590.742	53.69
591.08	53.68
591.418	53.79
591.756	53.86
592.093	53.87
592.431	53.89
592.769	53.98
593.106	53.99
593.444	54.04
593.781	54.09
594.119	54.27
594.456	54.43
594.793	54.5
595.131	54.51
595.468	54.55
595.805	54.68
596.143	54.72
596.48	54.82
596.817	54.88
597.154	54.89
597.491	54.99
597.828	55.05
598.165	55.22
598.502	55.25
598.839	55.33
599.176	55.4
599.512	55.52
599.849	55.64
600.186	55.78
600.523	55.87
600.859	55.99
601.196	55.96
601.532	56.01
601.869	56.05
602.205	56.1
602.542	56.17
602.878	56.11
603.215	56.14
603.551	56.14
603.887	56.18
604.223	56.17
604.56	56.2
604.896	56.21
605.232	56.19
605.568	56.25
605.904	56.31
606.24	56.36
606.576	56.37
606.912	56.43
607.248	56.4
607.583	56.42
607.919	56.45
608.255	56.48
608.591	56.47
608.926	56.55
609.262	56.67
609.597	56.67
609.933	56.78
610.268	56.94
610.604	57.02
610.939	57.01
611.275	57.14
611.61	57.17
611.945	57.27
612.281	57.38
612.616	57.46
612.951	57.61
613.286	57.65
613.621	57.75
613.956	57.7
614.291	57.84
614.626	57.99
614.961	58.06
615.296	58.17
615.631	58.26
615.966	58.27
616.3	58.31
616.635	58.33
616.97	58.34
617.304	58.27
617.639	58.37
617.973	58.47
618.308	58.45
618.642	58.43
618.977	58.47
619.311	58.48
619.646	58.52
619.98	58.57
620.314	58.62
620.648	58.57
620.983	58.72
621.317	58.68
621.651	58.65
621.985	58.63
622.319	58.61
622.653	58.68
622.987	58.74
623.321	58.77
623.655	58.79
623.988	58.81
624.322	58.87
624.656	58.83
624.99	58.78
625.323	58.87
625.657	58.93
625.99	58.94
626.324	58.96
626.657	58.97
626.991	58.85
627.324	58.91
627.658	59.03
627.991	58.95
628.324	58.97
628.657	59
628.991	59.07
629.324	59.12
629.657	59.15
629.99	59.19
630.323	59.26
630.656	59.32
630.989	59.33
631.322	59.38
631.655	59.42
631.987	59.43
632.32	59.43
632.653	59.48
632.986	59.51
633.318	59.61
633.651	59.63
633.984	59.68
634.316	59.74
634.649	59.79
634.981	59.82
635.313	59.85
635.646	59.76
635.978	59.77
636.31	59.81
636.643	59.79
636.975	59.77
637.307	59.6
637.639	59.59
637.971	59.69
638.303	59.71
638.635	59.72
638.967	59.88
639.299	59.99
639.631	59.99
639.963	59.93
640.295	59.88
640.626	59.85
640.958	59.94
641.29	59.89
641.621	59.76
641.953	59.75
642.285	59.76
642.616	59.93
642.948	59.89
643.279	59.96
643.61	59.92
643.942	59.98
644.273	60.1
644.604	60.07
644.936	60
645.267	59.98
645.598	59.99
645.929	59.98
646.26	59.88
646.591	59.9
646.922	60.01
647.253	60.05
647.584	60.03
647.915	60.03
648.245	60.02
648.576	60.06
648.907	60.09
649.238	60.13
649.568	60.13
649.899	60.15
650.229	60.01
650.56	60.09
650.89	60.14
651.221	60.21
651.551	60.31
651.882	60.33
652.212	60.38
652.542	60.46
652.872	60.49
653.203	60.6
653.533	60.57
653.863	60.55
654.193	60.48
654.523	60.52
654.853	60.43
655.183	60.52
655.513	60.56
655.843	60.69
656.172	60.65
656.502	60.66
656.832	60.64
657.162	60.72
657.491	60.73
657.821	60.82
658.15	60.76
658.48	60.8
658.809	60.85
659.139	60.91
659.468	60.84
659.798	60.74
660.127	60.67
660.456	60.72
660.785	60.72
661.115	60.73
661.444	60.76
661.773	60.87
662.102	60.82
662.431	60.84
662.76	60.94
663.089	61.01
663.418	61.07
663.747	61.08
664.076	61.12
664.404	61.18
664.733	61.01
665.062	61.05
665.39	61.12
665.719	61.07
666.048	61.04
666.376	60.9
666.705	60.88
667.033	60.93
667.362	61.01
