Data from BA57663_Reflection_00005.txt Node
Date: Mon Nov 18 15:43:51 EST 2019
User: vgr7
Spectrometer: USB2G7710
Scans to average: 3
Trigger mode: 4
Integration Time (sec): 2.000000E-2
Electric dark correction enabled: true
Boxcar width: 10
XAxis mode: Wavelengths
Number of Pixels in Spectrum: 2048
>>>>>Begin Spectral Data<<<<<
177.721	-56.55
178.105	-84.97
178.488	-131.66
178.871	-109.82
179.254	136.21
179.636	-90.27
180.019	-268.42
180.402	78.57
180.785	-24.93
181.168	-44.65
181.55	-16.13
181.933	57.76
182.316	60
182.698	52.32
183.081	60
183.463	79.33
183.846	51.94
184.228	81.03
184.611	55.1
184.993	58.58
185.376	18.78
185.758	15.31
186.14	-2.3
186.522	-23.26
186.904	-18.74
187.287	29.09
187.669	16.62
188.051	24.88
188.433	12.76
188.815	10.9
189.197	63.21
189.579	81.38
189.961	42.91
190.342	75.06
190.724	1128.17
191.106	441.61
191.488	175.06
191.869	1364.15
192.251	382.44
192.633	-349.54
193.014	-215.96
193.396	349.27
193.777	314.15
194.159	536.07
194.54	328.67
194.922	-438.46
195.303	-166.46
195.684	-48900
196.065	68.7
196.447	15.51
196.828	-32.15
197.209	36.85
197.59	26.34
197.971	-3.5
198.352	25.74
198.733	11.66
199.114	-338.85
199.495	-23.43
199.876	-94.03
200.257	-135.89
200.638	-126.85
201.018	-29.5
201.399	-14.44
201.78	-21.49
202.16	-24.6
202.541	-80.27
202.922	-85.81
203.302	-99.6
203.683	-166.57
204.063	-360.97
204.444	-507.63
204.824	-843.13
205.204	-437.35
205.585	-267.38
205.965	-148.85
206.345	-200.22
206.725	-88.02
207.106	-53.2
207.486	-138.51
207.866	104.41
208.246	-76.94
208.626	-22.67
209.006	49.69
209.386	118.54
209.766	55.57
210.145	56.35
210.525	105.72
210.905	57.71
211.285	125.17
211.664	566.06
212.044	130.59
212.424	1043.66
212.803	1734.15
213.183	102.61
213.562	56.36
213.942	2491.3
214.321	-197.56
214.701	-156.64
215.08	-330.51
215.459	-535.63
215.838	-82.08
216.218	-140.04
216.597	-55.88
216.976	-48.99
217.355	-5.2
217.734	21.37
218.113	8.87
218.492	15.09
218.871	-0.19
219.25	6
219.629	-3.67
220.008	2.32
220.387	31.83
220.766	61.07
221.144	-17.34
221.523	-41.74
221.902	-101.57
222.28	-225.53
222.659	-258.29
223.037	-40.88
223.416	-39.58
223.794	-94.16
224.173	7.19
224.551	4.47
224.929	4.89
225.308	9.72
225.686	9.12
226.064	13.97
226.442	7.77
226.821	3.09
227.199	3.1
227.577	3.86
227.955	2.51
228.333	-1.13
228.711	-2.26
229.089	4.54
229.467	2.75
229.845	1.19
230.222	0.51
230.6	-0.55
230.978	-0.03
231.356	2.52
231.733	3.1
232.111	2.35
232.488	3.96
232.866	5.12
233.243	4.95
233.621	3.63
233.998	3.35
234.376	2.25
234.753	4.82
235.13	4.08
235.508	4.62
235.885	4.49
236.262	3.38
236.639	2.8
237.016	2.12
237.393	2.49
237.77	4.72
238.147	5.09
238.524	5.01
238.901	5.04
239.278	4.69
239.655	4.18
240.032	4.1
240.409	3.47
240.785	2.9
241.162	2.73
241.539	3.14
241.915	3
242.292	3.17
242.668	2.98
243.045	3.14
243.421	3.17
243.798	3.07
244.174	3.15
244.551	3.22
244.927	3.04
245.303	3.17
245.679	2.95
246.056	2.88
246.432	2.79
246.808	2.64
247.184	2.5
247.56	2.54
247.936	2.66
248.312	2.68
248.688	2.88
249.064	2.77
249.44	2.6
249.815	2.9
250.191	3.08
250.567	3.08
250.943	3.14
251.318	3.26
251.694	3.43
252.069	3.54
252.445	3.47
252.82	3.59
253.196	3.49
253.571	3.6
253.947	3.74
254.322	3.88
254.697	4.03
255.073	3.82
255.448	3.57
255.823	3.39
256.198	3.32
256.573	2.98
256.948	3.1
257.323	3.26
257.698	3.03
258.073	2.97
258.448	2.75
258.823	2.65
259.198	2.53
259.573	2.32
259.948	2.28
260.322	2.41
260.697	2.34
261.072	2.41
261.446	2.42
261.821	2.29
262.195	2.37
262.57	2.26
262.944	2.27
263.319	2.32
263.693	2.13
264.067	2.18
264.442	2.45
264.816	2.33
265.19	2.27
265.564	2.26
265.938	2.03
266.313	2.01
266.687	2.24
267.061	2.49
267.435	2.6
267.809	2.67
268.183	2.62
268.556	2.69
268.93	2.71
269.304	2.6
269.678	2.65
270.051	2.64
270.425	2.73
270.799	2.71
271.172	2.86
271.546	2.92
271.919	2.72
272.293	2.56
272.666	2.56
273.04	2.64
273.413	2.56
273.787	2.65
274.16	2.68
274.533	2.47
274.906	2.19
275.279	2.27
275.653	2.19
276.026	2.16
276.399	2.13
276.772	2.14
277.145	2.14
277.518	2.29
277.891	2.19
278.263	2.18
278.636	2.34
279.009	2.07
279.382	2.32
279.755	2.44
280.127	2.57
280.5	2.76
280.872	2.66
281.245	2.66
281.617	2.77
281.99	2.86
282.362	2.85
282.735	2.83
283.107	2.72
283.479	2.75
283.852	2.82
284.224	2.9
284.596	2.9
284.968	2.98
285.34	2.94
285.713	2.98
286.085	3
286.457	3
286.829	3.19
287.201	3.09
287.572	3.06
287.944	2.94
288.316	2.9
288.688	2.95
289.06	2.92
289.431	2.92
289.803	3
290.175	3.13
290.546	3.27
290.918	3.39
291.289	3.44
291.661	3.46
292.032	3.49
292.403	3.44
292.775	3.42
293.146	3.43
293.517	3.4
293.889	3.45
294.26	3.55
294.631	3.54
295.002	3.61
295.373	3.62
295.744	3.74
296.115	3.76
296.486	3.75
296.857	3.79
297.228	3.78
297.599	3.75
297.97	3.77
298.34	3.78
298.711	3.71
299.082	3.63
299.452	3.56
299.823	3.56
300.194	3.6
300.564	3.49
300.935	3.46
301.305	3.42
301.676	3.4
302.046	3.34
302.416	3.36
302.787	3.31
303.157	3.34
303.527	3.31
303.897	3.26
304.267	3.49
304.637	3.53
305.008	3.51
305.378	3.59
305.748	3.58
306.117	3.49
306.487	3.53
306.857	3.66
307.227	3.77
307.597	3.85
307.967	3.97
308.336	4.05
308.706	4.14
309.076	4.28
309.445	4.25
309.815	4.16
310.184	4.26
310.554	4.09
310.923	3.92
311.293	3.8
311.662	3.79
312.031	3.56
312.401	3.61
312.77	3.6
313.139	3.5
313.508	3.46
313.877	3.5
314.246	3.44
314.616	3.39
314.985	3.27
315.353	3.13
315.722	3.05
316.091	3.01
316.46	2.93
316.829	2.85
317.198	2.92
317.567	2.93
317.935	2.79
318.304	2.98
318.672	3.12
319.041	3.25
319.41	3.22
319.778	3.21
320.147	3.21
320.515	3.23
320.883	3.17
321.252	3.1
321.62	3.16
321.988	3.25
322.357	3.32
322.725	3.3
323.093	3.4
323.461	3.3
323.829	3.28
324.197	3.33
324.565	3.31
324.933	3.23
325.301	3.27
325.669	3.12
326.037	3.06
326.405	3.11
326.772	3.15
327.14	3.25
327.508	3.27
327.875	3.17
328.243	3.19
328.61	3.13
328.978	3.19
329.346	3.21
329.713	3.2
330.08	3.16
330.448	3.2
330.815	3.05
331.182	3.01
331.55	3.09
331.917	3.07
332.284	3.12
332.651	3.06
333.018	2.95
333.385	3.16
333.752	3.22
334.119	3.16
334.486	3.17
334.853	3.06
335.22	3.06
335.587	3.08
335.954	3.04
336.32	3.07
336.687	3.05
337.054	3.04
337.42	2.96
337.787	2.97
338.153	3
338.52	2.96
338.886	3.02
339.253	2.91
339.619	2.84
339.986	2.82
340.352	2.86
340.718	2.91
341.084	2.75
341.451	2.78
341.817	2.92
342.183	2.86
342.549	2.86
342.915	2.91
343.281	3.04
343.647	3.05
344.013	2.99
344.379	2.88
344.745	2.9
345.11	3.04
345.476	3.01
345.842	3.01
346.208	3.05
346.573	3.07
346.939	3.23
347.304	3.23
347.67	3.15
348.035	3.13
348.401	3.16
348.766	3.2
349.132	3.18
349.497	3.03
349.862	3.04
350.228	3.13
350.593	3.03
350.958	2.93
351.323	2.92
351.688	2.97
352.053	3.07
352.418	2.99
352.783	2.91
353.148	2.95
353.513	2.9
353.878	2.97
354.243	2.94
354.608	2.88
354.972	2.98
355.337	3.03
355.702	3.05
356.066	3.01
356.431	3.04
356.795	3.04
357.16	3.01
357.524	2.99
357.889	2.99
358.253	3.02
358.618	3.02
358.982	3.03
359.346	3.07
359.71	3.07
360.075	3.1
360.439	3.06
360.803	3.03
361.167	3.04
361.531	3.01
361.895	3.04
362.259	3.01
362.623	2.94
362.987	2.94
363.351	2.95
363.714	3.03
364.078	3.01
364.442	2.96
364.806	3
365.169	3
365.533	2.98
365.896	2.98
366.26	3.01
366.623	2.98
366.987	2.97
367.35	2.95
367.714	2.93
368.077	2.95
368.44	2.87
368.803	2.86
369.167	2.89
369.53	2.85
369.893	2.82
370.256	2.83
370.619	2.83
370.982	2.85
371.345	2.77
371.708	2.8
372.071	2.83
372.434	2.8
372.797	2.8
373.159	2.75
373.522	2.79
373.885	2.82
374.247	2.85
374.61	2.86
374.973	2.87
375.335	2.9
375.698	2.93
376.06	2.98
376.423	2.98
376.785	2.96
377.147	3.02
377.51	3.08
377.872	3.12
378.234	3.13
378.596	3.11
378.958	3.1
379.321	3.11
379.683	3.14
380.045	3.18
380.407	3.18
380.769	3.18
381.13	3.15
381.492	3.11
381.854	3.12
382.216	3.06
382.578	3.02
382.939	2.99
383.301	2.99
383.663	3.01
384.024	2.98
384.386	3.01
384.747	2.98
385.109	2.96
385.47	2.91
385.832	2.92
386.193	2.94
386.554	2.95
386.916	2.88
387.277	2.89
387.638	2.93
387.999	2.87
388.36	2.91
388.721	2.91
389.082	2.91
389.443	2.87
389.804	2.89
390.165	2.89
390.526	2.9
390.887	2.9
391.248	2.94
391.609	2.97
391.969	2.94
392.33	2.94
392.691	2.93
393.051	2.96
393.412	3
393.772	2.94
394.133	2.94
394.493	2.96
394.854	2.94
395.214	2.93
395.574	2.98
395.935	2.96
396.295	3.01
396.655	3
397.015	3.04
397.376	3.05
397.736	3.06
398.096	3.07
398.456	3.07
398.816	3.05
399.176	3.02
399.535	3.01
399.895	2.99
400.255	2.99
400.615	2.94
400.975	2.91
401.334	2.89
401.694	2.91
402.054	2.88
402.413	2.88
402.773	2.87
403.132	2.85
403.492	2.85
403.851	2.81
404.211	2.82
404.57	2.78
404.929	2.81
405.288	2.84
405.648	2.8
406.007	2.8
406.366	2.8
406.725	2.81
407.084	2.84
407.443	2.85
407.802	2.87
408.161	2.89
408.52	2.86
408.879	2.88
409.238	2.86
409.596	2.88
409.955	2.88
410.314	2.89
410.673	2.9
411.031	2.9
411.39	2.88
411.748	2.87
412.107	2.9
412.465	2.88
412.824	2.87
413.182	2.87
413.54	2.89
413.899	2.88
414.257	2.89
414.615	2.87
414.974	2.9
415.332	2.87
415.69	2.85
416.048	2.85
416.406	2.89
416.764	2.89
417.122	2.91
417.48	2.91
417.838	2.9
418.195	2.91
418.553	2.91
418.911	2.9
419.269	2.9
419.626	2.9
419.984	2.9
420.342	2.89
420.699	2.89
421.057	2.89
421.414	2.89
421.772	2.88
422.129	2.89
422.486	2.87
422.844	2.87
423.201	2.87
423.558	2.87
423.915	2.87
424.273	2.87
424.63	2.86
424.987	2.86
425.344	2.86
425.701	2.85
426.058	2.84
426.415	2.86
426.772	2.85
427.128	2.83
427.485	2.84
427.842	2.85
428.199	2.84
428.555	2.85
428.912	2.84
429.269	2.83
429.625	2.81
429.982	2.81
430.338	2.83
430.695	2.84
431.051	2.84
431.407	2.82
431.764	2.81
432.12	2.81
432.476	2.81
432.832	2.8
433.189	2.81
433.545	2.81
433.901	2.81
434.257	2.83
434.613	2.84
434.969	2.83
435.325	2.82
435.681	2.84
436.036	2.83
436.392	2.82
436.748	2.84
437.104	2.85
437.459	2.84
437.815	2.83
438.171	2.82
438.526	2.83
438.882	2.83
439.237	2.84
439.593	2.85
439.948	2.84
440.304	2.85
440.659	2.85
441.014	2.85
441.369	2.84
441.725	2.83
442.08	2.83
442.435	2.84
442.79	2.83
443.145	2.84
443.5	2.83
443.855	2.84
444.21	2.83
444.565	2.84
444.92	2.86
445.275	2.87
445.629	2.87
445.984	2.88
446.339	2.88
446.693	2.87
447.048	2.86
447.403	2.87
447.757	2.86
448.112	2.86
448.466	2.87
448.82	2.85
449.175	2.86
449.529	2.87
449.883	2.86
450.238	2.87
450.592	2.86
450.946	2.85
451.3	2.85
451.654	2.84
452.008	2.83
452.362	2.81
452.716	2.81
453.07	2.81
453.424	2.82
453.778	2.84
454.132	2.82
454.486	2.83
454.839	2.81
455.193	2.81
455.547	2.8
455.9	2.81
456.254	2.84
456.607	2.84
456.961	2.83
457.314	2.83
457.668	2.84
458.021	2.83
458.375	2.85
458.728	2.85
459.081	2.85
459.434	2.85
459.787	2.85
460.141	2.85
460.494	2.84
460.847	2.84
461.2	2.82
461.553	2.84
461.906	2.83
462.259	2.86
462.611	2.87
462.964	2.87
463.317	2.86
463.67	2.85
464.022	2.84
464.375	2.82
464.728	2.81
465.08	2.81
465.433	2.81
465.785	2.8
466.138	2.79
466.49	2.79
466.843	2.78
467.195	2.79
467.547	2.8
467.899	2.8
468.252	2.82
468.604	2.83
468.956	2.82
469.308	2.82
469.66	2.8
470.012	2.83
470.364	2.84
470.716	2.83
471.068	2.84
471.42	2.83
471.772	2.85
472.123	2.85
472.475	2.86
472.827	2.86
473.178	2.86
473.53	2.85
473.882	2.85
474.233	2.87
474.585	2.86
474.936	2.84
475.288	2.85
475.639	2.85
475.99	2.84
476.342	2.84
476.693	2.84
477.044	2.84
477.395	2.82
477.746	2.83
478.097	2.84
478.448	2.85
478.8	2.86
479.15	2.85
479.501	2.87
479.852	2.87
480.203	2.87
480.554	2.87
480.905	2.89
481.255	2.89
481.606	2.89
481.957	2.9
482.307	2.91
482.658	2.91
483.009	2.91
483.359	2.91
483.709	2.93
484.06	2.92
484.41	2.93
484.761	2.93
485.111	2.93
485.461	2.93
485.811	2.93
486.162	2.94
486.512	2.95
486.862	2.95
487.212	2.96
487.562	2.96
487.912	2.97
488.262	2.97
488.612	2.98
488.961	2.98
489.311	2.97
489.661	2.97
490.011	2.97
490.36	2.96
490.71	2.96
491.06	2.95
491.409	2.96
491.759	2.95
492.108	2.95
492.458	2.95
492.807	2.95
493.157	2.95
493.506	2.95
493.855	2.94
494.204	2.94
494.554	2.94
494.903	2.93
495.252	2.94
495.601	2.95
495.95	2.95
496.299	2.94
496.648	2.94
496.997	2.96
497.346	2.96
497.695	2.98
498.043	2.98
498.392	2.99
498.741	2.99
499.09	3.01
499.438	3.02
499.787	3.04
500.135	3.04
500.484	3.08
500.832	3.08
501.181	3.07
501.529	3.07
501.878	3.06
502.226	3.08
502.574	3.07
502.923	3.07
503.271	3.05
503.619	3.07
503.967	3.1
504.315	3.08
504.663	3.09
505.011	3.1
505.359	3.1
505.707	3.11
506.055	3.11
506.403	3.1
506.751	3.1
507.098	3.1
507.446	3.11
507.794	3.09
508.141	3.1
508.489	3.11
508.837	3.12
509.184	3.13
509.531	3.14
509.879	3.15
510.226	3.16
510.574	3.18
510.921	3.17
511.268	3.17
511.616	3.18
511.963	3.17
512.31	3.16
512.657	3.18
513.004	3.18
513.351	3.18
513.698	3.19
514.045	3.17
514.392	3.16
514.739	3.16
515.086	3.15
515.432	3.15
515.779	3.15
516.126	3.14
516.473	3.15
516.819	3.14
517.166	3.13
517.512	3.12
517.859	3.12
518.205	3.12
518.552	3.13
518.898	3.14
519.245	3.13
519.591	3.15
519.937	3.12
520.283	3.11
520.629	3.12
520.976	3.12
521.322	3.15
521.668	3.15
522.014	3.16
522.36	3.18
522.706	3.18
523.052	3.18
523.398	3.2
523.743	3.21
524.089	3.2
524.435	3.19
524.781	3.2
525.126	3.21
525.472	3.21
525.817	3.2
526.163	3.21
526.509	3.21
526.854	3.21
527.199	3.22
527.545	3.23
527.89	3.22
528.235	3.23
528.581	3.23
528.926	3.23
529.271	3.24
529.616	3.24
529.961	3.23
530.306	3.25
530.651	3.25
530.996	3.25
531.341	3.25
531.686	3.26
532.031	3.27
532.376	3.27
532.721	3.28
533.065	3.28
533.41	3.28
533.755	3.28
534.099	3.3
534.444	3.31
534.788	3.31
535.133	3.3
535.477	3.31
535.822	3.3
536.166	3.29
536.51	3.29
536.855	3.29
537.199	3.32
537.543	3.32
537.887	3.31
538.231	3.31
538.576	3.32
538.92	3.32
539.264	3.33
539.608	3.32
539.951	3.32
540.295	3.31
540.639	3.32
540.983	3.32
541.327	3.31
541.671	3.3
542.014	3.3
542.358	3.32
542.701	3.32
543.045	3.35
543.389	3.36
543.732	3.37
544.075	3.37
544.419	3.35
544.762	3.34
545.105	3.35
545.449	3.36
545.792	3.36
546.135	3.38
546.478	3.38
546.821	3.4
547.165	3.38
547.508	3.4
547.851	3.37
548.194	3.37
548.536	3.36
548.879	3.37
549.222	3.34
549.565	3.35
549.908	3.36
550.25	3.34
550.593	3.34
550.936	3.31
551.278	3.29
551.621	3.29
551.963	3.3
552.306	3.28
552.648	3.28
552.991	3.3
553.333	3.27
553.675	3.27
554.017	3.27
554.36	3.28
554.702	3.29
555.044	3.3
555.386	3.32
555.728	3.33
556.07	3.33
556.412	3.35
556.754	3.34
557.096	3.32
557.438	3.29
557.78	3.3
558.121	3.32
558.463	3.34
558.805	3.33
559.147	3.33
559.488	3.33
559.83	3.31
560.171	3.31
560.513	3.32
560.854	3.32
561.196	3.28
561.537	3.32
561.878	3.29
562.22	3.27
562.561	3.26
562.902	3.27
563.243	3.28
563.584	3.28
563.925	3.3
564.266	3.29
564.607	3.31
564.948	3.31
565.289	3.31
565.63	3.32
565.971	3.32
566.312	3.34
566.653	3.34
566.993	3.37
567.334	3.34
567.675	3.35
568.015	3.36
568.356	3.37
568.696	3.38
569.037	3.41
569.377	3.46
569.718	3.48
570.058	3.51
570.398	3.52
570.739	3.51
571.079	3.52
571.419	3.52
571.759	3.53
572.099	3.53
572.439	3.53
572.779	3.52
573.119	3.54
573.459	3.55
573.799	3.57
574.139	3.53
574.479	3.53
574.819	3.52
575.158	3.52
575.498	3.54
575.838	3.53
576.177	3.49
576.517	3.47
576.856	3.47
577.196	3.43
577.535	3.44
577.875	3.47
578.214	3.47
578.553	3.51
578.893	3.5
579.232	3.49
579.571	3.47
579.91	3.46
580.25	3.46
580.589	3.45
580.928	3.43
581.267	3.47
581.606	3.5
581.945	3.49
582.283	3.47
582.622	3.45
582.961	3.47
583.3	3.49
583.639	3.54
583.977	3.52
584.316	3.54
584.654	3.48
584.993	3.45
585.332	3.42
585.67	3.41
586.008	3.4
586.347	3.4
586.685	3.39
587.024	3.41
587.362	3.43
587.7	3.45
588.038	3.48
588.376	3.49
588.715	3.52
589.053	3.55
589.391	3.58
589.729	3.6
590.067	3.57
590.404	3.58
590.742	3.61
591.08	3.61
591.418	3.64
591.756	3.67
592.093	3.67
592.431	3.68
592.769	3.66
593.106	3.69
593.444	3.67
593.781	3.66
594.119	3.65
594.456	3.63
594.793	3.58
595.131	3.55
595.468	3.51
595.805	3.5
596.143	3.5
596.48	3.51
596.817	3.52
597.154	3.52
597.491	3.49
597.828	3.44
598.165	3.42
598.502	3.4
598.839	3.43
599.176	3.46
599.512	3.45
599.849	3.45
600.186	3.43
600.523	3.47
600.859	3.51
601.196	3.53
601.532	3.51
601.869	3.51
602.205	3.52
602.542	3.54
602.878	3.53
603.215	3.52
603.551	3.5
603.887	3.5
604.223	3.49
604.56	3.51
604.896	3.52
605.232	3.54
605.568	3.54
605.904	3.51
606.24	3.5
606.576	3.51
606.912	3.5
607.248	3.49
607.583	3.47
607.919	3.45
608.255	3.46
608.591	3.5
608.926	3.52
609.262	3.51
609.597	3.53
609.933	3.53
610.268	3.56
610.604	3.59
610.939	3.59
611.275	3.57
611.61	3.55
611.945	3.58
612.281	3.59
612.616	3.58
612.951	3.59
613.286	3.6
613.621	3.65
613.956	3.65
614.291	3.68
614.626	3.72
614.961	3.69
615.296	3.64
615.631	3.62
615.966	3.64
616.3	3.67
616.635	3.61
616.97	3.62
617.304	3.58
617.639	3.54
617.973	3.54
618.308	3.57
618.642	3.59
618.977	3.56
619.311	3.55
619.646	3.59
619.98	3.6
620.314	3.57
620.648	3.55
620.983	3.61
621.317	3.62
621.651	3.65
621.985	3.7
622.319	3.71
622.653	3.73
622.987	3.71
623.321	3.72
623.655	3.75
623.988	3.77
624.322	3.75
624.656	3.81
624.99	3.83
625.323	3.8
625.657	3.82
625.99	3.86
626.324	3.84
626.657	3.83
626.991	3.85
627.324	3.89
627.658	3.89
627.991	3.88
628.324	3.91
628.657	3.86
628.991	3.84
629.324	3.85
629.657	3.86
629.99	3.9
630.323	3.87
630.656	3.89
630.989	3.89
631.322	3.91
631.655	3.85
631.987	3.84
632.32	3.92
632.653	3.92
632.986	3.91
633.318	3.88
633.651	3.89
633.984	3.83
634.316	3.8
634.649	3.78
634.981	3.75
635.313	3.68
635.646	3.67
635.978	3.67
636.31	3.68
636.643	3.68
636.975	3.65
637.307	3.62
637.639	3.58
637.971	3.56
638.303	3.54
638.635	3.54
638.967	3.57
639.299	3.54
639.631	3.48
639.963	3.43
640.295	3.52
640.626	3.58
640.958	3.64
641.29	3.69
641.621	3.68
641.953	3.71
642.285	3.75
642.616	3.79
642.948	3.8
643.279	3.82
643.61	3.8
643.942	3.8
644.273	3.85
644.604	3.92
644.936	3.9
645.267	3.91
645.598	3.95
645.929	3.92
646.26	3.93
646.591	3.95
646.922	3.94
647.253	3.97
647.584	3.91
647.915	3.8
648.245	3.78
648.576	3.85
648.907	3.91
649.238	3.91
649.568	3.91
649.899	3.93
650.229	3.91
650.56	3.86
650.89	3.91
651.221	3.94
651.551	3.89
651.882	3.9
652.212	3.96
652.542	4.01
652.872	3.97
653.203	3.91
653.533	3.96
653.863	4
654.193	3.96
654.523	3.94
654.853	4.06
655.183	4.03
655.513	3.93
655.843	3.86
656.172	3.82
656.502	3.87
656.832	3.86
657.162	3.88
657.491	3.92
657.821	3.89
658.15	3.9
658.48	3.89
658.809	3.94
659.139	3.92
659.468	3.84
659.798	3.91
660.127	3.9
660.456	3.92
660.785	3.94
661.115	3.91
661.444	3.89
661.773	3.82
662.102	3.82
662.431	3.82
662.76	3.9
663.089	3.93
663.418	3.9
663.747	3.86
664.076	3.87
664.404	3.88
664.733	3.87
665.062	3.85
665.39	3.91
665.719	3.89
666.048	3.83
666.376	3.9
666.705	3.85
667.033	3.93
667.362	3.88
667.69	3.97
668.018	4.04
668.347	4.12
668.675	4.24
669.003	4.29
669.331	4.38
669.659	4.28
669.987	4.23
670.315	4.26
670.643	4.36
670.971	4.34
671.299	4.41
671.627	4.47
671.955	4.57
672.283	4.58
672.61	4.56
672.938	4.64
673.266	4.59
673.593	4.66
673.921	4.61
674.249	4.62
674.576	4.49
674.904	4.39
675.231	4.33
675.558	4.26
675.886	4.25
676.213	4.17
676.54	4.25
676.867	4.34
677.195	4.28
677.522	4.27
677.849	4.28
678.176	4.24
