Data from BA57758_Reflection_00001.txt Node
Date: Mon Nov 18 15:11:15 EST 2019
User: vgr7
Spectrometer: USB2G7710
Scans to average: 3
Trigger mode: 4
Integration Time (sec): 2.000000E-2
Electric dark correction enabled: true
Boxcar width: 10
XAxis mode: Wavelengths
Number of Pixels in Spectrum: 2048
>>>>>Begin Spectral Data<<<<<
177.721	-855.47
178.105	-70.4
178.488	-37.16
178.871	-45.94
179.254	-47.76
179.636	95.76
180.019	-355.45
180.402	-820
180.785	229.82
181.168	-20.92
181.55	4.4
181.933	93.92
182.316	106.43
182.698	152.78
183.081	53.14
183.463	65.26
183.846	-45.2
184.228	-50.64
184.611	-69.83
184.993	-165.58
185.376	-191.35
185.758	-151.62
186.14	-47.25
186.522	-62.48
186.904	-48.19
187.287	-54.76
187.669	-56.36
188.051	-2.71
188.433	-18.24
188.815	-27.84
189.197	62.49
189.579	46.85
189.961	12.95
190.342	-161.48
190.724	-108.53
191.106	155.25
191.488	730.14
191.869	-436.59
192.251	-164.91
192.633	-177.05
193.014	-304.17
193.396	-359.56
193.777	-484.39
194.159	-376.52
194.54	-237.64
194.922	-140.5
195.303	-126.82
195.684	-76.44
196.065	-22.31
196.447	-40.85
196.828	-52.39
197.209	-40.2
197.59	-36.11
197.971	-29.26
198.352	-43.35
198.733	-11.55
199.114	-14.9
199.495	-14.63
199.876	-10.69
200.257	-4.85
200.638	18.8
201.018	35.09
201.399	33.1
201.78	27.71
202.16	14.77
202.541	2.37
202.922	-2.65
203.302	-2.87
203.683	-4.95
204.063	11.04
204.444	91.98
204.824	137.57
205.204	311.02
205.585	161.57
205.965	232.37
206.345	139.89
206.725	82.61
207.106	28.02
207.486	-25.67
207.866	32.55
208.246	177.82
208.626	-271.04
209.006	-128.97
209.386	4340
209.766	-204.07
210.145	-144.41
210.525	-45.11
210.905	-11.18
211.285	-9.41
211.664	-2.85
212.044	-23.64
212.424	-28.01
212.803	-36.07
213.183	-35.8
213.562	-28.52
213.942	-14.87
214.321	-6.19
214.701	-14.29
215.08	-5.4
215.459	-13.31
215.838	-11.57
216.218	-9.15
216.597	0.66
216.976	1.94
217.355	12.79
217.734	23.92
218.113	28.7
218.492	22.12
218.871	18.04
219.25	13.99
219.629	9.17
220.008	14.2
220.387	20.97
220.766	48.44
221.144	45.78
221.523	31.2
221.902	40.11
222.28	-1.97
222.659	35.09
223.037	21.21
223.416	31.42
223.794	19.14
224.173	14.09
224.551	12.35
224.929	16.27
225.308	13.06
225.686	5.88
226.064	10.18
226.442	4.15
226.821	7.06
227.199	6.65
227.577	6.37
227.955	6.94
228.333	7.35
228.711	4.73
229.089	7.72
229.467	9.23
229.845	7.73
230.222	9.49
230.6	7.91
230.978	7.6
231.356	8.23
231.733	7.44
232.111	9.47
232.488	9.98
232.866	10.16
233.243	8.29
233.621	8.49
233.998	8.31
234.376	8.92
234.753	7.97
235.13	8.7
235.508	10.01
235.885	9.96
236.262	7.97
236.639	8.51
237.016	7.58
237.393	8.19
237.77	7.36
238.147	7.39
238.524	5.46
238.901	6.33
239.278	6.76
239.655	7.43
240.032	6.37
240.409	6.27
240.785	5.99
241.162	5.93
241.539	5.83
241.915	5.83
242.292	5.49
242.668	5.27
243.045	5.34
243.421	5.31
243.798	5.27
244.174	5.58
244.551	5.28
244.927	5.32
245.303	5.29
245.679	5.23
246.056	5.5
246.432	5.99
246.808	5.95
247.184	5.77
247.56	5.58
247.936	5.65
248.312	5.5
248.688	5.49
249.064	5.64
249.44	5.44
249.815	5.46
250.191	5.71
250.567	6.02
250.943	5.93
251.318	5.74
251.694	5.87
252.069	5.8
252.445	5.88
252.82	5.98
253.196	5.81
253.571	6.14
253.947	5.93
254.322	5.75
254.697	5.6
255.073	5.62
255.448	5.62
255.823	5.79
256.198	5.64
256.573	5.39
256.948	5.54
257.323	5.75
257.698	5.62
258.073	5.63
258.448	5.5
258.823	5.48
259.198	5.47
259.573	5.45
259.948	5.31
260.322	5.45
260.697	5.4
261.072	5.35
261.446	5.29
261.821	5.27
262.195	5.47
262.57	5.57
262.944	5.51
263.319	5.53
263.693	5.41
264.067	5.59
264.442	5.94
264.816	5.79
265.19	5.72
265.564	5.66
265.938	5.38
266.313	5.27
266.687	5.33
267.061	5.34
267.435	5.16
267.809	5.38
268.183	5.29
268.556	5.32
268.93	5.52
269.304	5.57
269.678	5.63
270.051	5.45
270.425	5.3
270.799	5.34
271.172	5.36
271.546	5.4
271.919	5.25
272.293	5.04
272.666	4.99
273.04	5.17
273.413	5.28
273.787	5.46
274.16	5.62
274.533	5.72
274.906	5.65
275.279	5.62
275.653	5.56
276.026	5.47
276.399	5.47
276.772	5.43
277.145	5.37
277.518	5.33
277.891	5.38
278.263	5.51
278.636	5.3
279.009	5.26
279.382	5.4
279.755	5.46
280.127	5.71
280.5	5.79
280.872	5.7
281.245	5.59
281.617	5.56
281.99	5.48
282.362	5.39
282.735	5.37
283.107	5.44
283.479	5.51
283.852	5.49
284.224	5.49
284.596	5.52
284.968	5.47
285.34	5.51
285.713	5.49
286.085	5.49
286.457	5.67
286.829	5.64
287.201	5.67
287.572	5.7
287.944	5.54
288.316	5.6
288.688	5.68
289.06	5.73
289.431	5.81
289.803	5.85
290.175	5.96
290.546	6.26
290.918	6.3
291.289	6.24
291.661	6.46
292.032	6.47
292.403	6.33
292.775	6.5
293.146	6.47
293.517	6.5
293.889	6.58
294.26	6.69
294.631	6.8
295.002	6.68
295.373	6.76
295.744	6.85
296.115	6.91
296.486	6.7
296.857	6.84
297.228	6.96
297.599	6.83
297.97	6.88
298.34	6.87
298.711	6.99
299.082	7.04
299.452	7.07
299.823	7.15
300.194	7.3
300.564	7.13
300.935	7.18
301.305	7.14
301.676	7.11
302.046	6.99
302.416	7.18
302.787	7.15
303.157	7.13
303.527	7.05
303.897	6.97
304.267	7.2
304.637	7.07
305.008	6.97
305.378	7.18
305.748	7.11
306.117	6.87
306.487	6.86
306.857	6.87
307.227	6.7
307.597	6.59
307.967	6.53
308.336	6.71
308.706	6.69
309.076	6.72
309.445	6.73
309.815	6.71
310.184	6.4
310.554	6.41
310.923	6.36
311.293	6.42
311.662	6.36
312.031	6.2
312.401	6.31
312.77	6.2
313.139	6.18
313.508	6.13
313.877	6.17
314.246	6.01
314.616	5.82
314.985	5.88
315.353	5.85
315.722	5.9
316.091	5.81
316.46	5.84
316.829	5.76
317.198	5.77
317.567	5.74
317.935	5.98
318.304	6.11
318.672	6.08
319.041	6.11
319.41	6.15
319.778	6.3
320.147	6.28
320.515	6.46
320.883	6.48
321.252	6.47
321.62	6.57
321.988	6.71
322.357	6.89
322.725	6.86
323.093	6.91
323.461	6.81
323.829	6.96
324.197	7.04
324.565	7.09
324.933	7.05
325.301	7.16
325.669	7.09
326.037	7
326.405	7.17
326.772	7.18
327.14	7.29
327.508	7.2
327.875	7.12
328.243	7
328.61	6.92
328.978	6.97
329.346	6.91
329.713	6.79
330.08	6.83
330.448	6.79
330.815	6.68
331.182	6.63
331.55	6.31
331.917	6.24
332.284	6.16
332.651	6.12
333.018	5.88
333.385	5.94
333.752	5.94
334.119	5.84
334.486	5.76
334.853	5.75
335.22	5.74
335.587	5.72
335.954	5.78
336.32	5.85
336.687	5.89
337.054	5.91
337.42	5.86
337.787	5.82
338.153	5.81
338.52	6
338.886	6.06
339.253	6.22
339.619	6.2
339.986	6.16
340.352	6.17
340.718	6.38
341.084	6.27
341.451	6.32
341.817	6.31
342.183	6.29
342.549	6.22
342.915	6.3
343.281	6.37
343.647	6.33
344.013	6.3
344.379	6.12
344.745	6.1
345.11	6.12
345.476	6.06
345.842	6.18
346.208	6.06
346.573	6.07
346.939	6.14
347.304	6.09
347.67	6.15
348.035	6.17
348.401	6.09
348.766	6.13
349.132	6.1
349.497	6.11
349.862	6.13
350.228	6.17
350.593	6.11
350.958	5.97
351.323	5.9
351.688	5.89
352.053	5.96
352.418	5.99
352.783	6.09
353.148	6.06
353.513	5.97
353.878	5.91
354.243	6.05
354.608	5.95
354.972	5.97
355.337	6.04
355.702	6.08
356.066	6.12
356.431	6.1
356.795	6.15
357.16	6.11
357.524	6.07
357.889	6.05
358.253	6.13
358.618	6.27
358.982	6.33
359.346	6.29
359.71	6.28
360.075	6.29
360.439	6.29
360.803	6.35
361.167	6.37
361.531	6.38
361.895	6.29
362.259	6.28
362.623	6.25
362.987	6.2
363.351	6.2
363.714	6.23
364.078	6.22
364.442	6.14
364.806	6.17
365.169	6.21
365.533	6.22
365.896	6.16
366.26	6.09
366.623	6.09
366.987	6.09
367.35	6.12
367.714	6.06
368.077	5.99
368.44	5.93
368.803	5.92
369.167	5.95
369.53	5.92
369.893	5.94
370.256	5.95
370.619	5.96
370.982	5.83
371.345	5.77
371.708	5.79
372.071	5.77
372.434	5.72
372.797	5.71
373.159	5.67
373.522	5.75
373.885	5.8
374.247	5.82
374.61	5.89
374.973	5.88
375.335	5.9
375.698	5.89
376.06	5.95
376.423	5.93
376.785	5.93
377.147	5.88
377.51	5.93
377.872	5.98
378.234	5.98
378.596	6.03
378.958	6.03
379.321	6.01
379.683	6.06
380.045	6.08
380.407	6.09
380.769	6.06
381.13	5.98
381.492	5.94
381.854	5.95
382.216	5.89
382.578	5.89
382.939	5.88
383.301	5.87
383.663	5.79
384.024	5.79
384.386	5.76
384.747	5.81
385.109	5.77
385.47	5.77
385.832	5.75
386.193	5.76
386.554	5.74
386.916	5.7
387.277	5.67
387.638	5.68
387.999	5.69
388.36	5.72
388.721	5.75
389.082	5.76
389.443	5.72
389.804	5.71
390.165	5.69
390.526	5.68
390.887	5.71
391.248	5.78
391.609	5.78
391.969	5.81
392.33	5.78
392.691	5.74
393.051	5.72
393.412	5.77
393.772	5.76
394.133	5.79
394.493	5.82
394.854	5.83
395.214	5.82
395.574	5.79
395.935	5.79
396.295	5.75
396.655	5.7
397.015	5.69
397.376	5.7
397.736	5.72
398.096	5.76
398.456	5.76
398.816	5.74
399.176	5.71
399.535	5.71
399.895	5.71
400.255	5.75
400.615	5.75
400.975	5.7
401.334	5.72
401.694	5.69
402.054	5.66
402.413	5.68
402.773	5.66
403.132	5.67
403.492	5.63
403.851	5.65
404.211	5.66
404.57	5.67
404.929	5.66
405.288	5.65
405.648	5.63
406.007	5.62
406.366	5.58
406.725	5.62
407.084	5.62
407.443	5.62
407.802	5.61
408.161	5.6
408.52	5.59
408.879	5.56
409.238	5.55
409.596	5.57
409.955	5.54
410.314	5.55
410.673	5.52
411.031	5.55
411.39	5.57
411.748	5.59
412.107	5.58
412.465	5.57
412.824	5.56
413.182	5.57
413.54	5.58
413.899	5.59
414.257	5.56
414.615	5.56
414.974	5.57
415.332	5.55
415.69	5.56
416.048	5.57
416.406	5.58
416.764	5.58
417.122	5.56
417.48	5.56
417.838	5.58
418.195	5.59
418.553	5.61
418.911	5.59
419.269	5.56
419.626	5.55
419.984	5.55
420.342	5.55
420.699	5.53
421.057	5.52
421.414	5.53
421.772	5.55
422.129	5.55
422.486	5.54
422.844	5.54
423.201	5.51
423.558	5.51
423.915	5.51
424.273	5.52
424.63	5.52
424.987	5.52
425.344	5.5
425.701	5.5
426.058	5.48
426.415	5.48
426.772	5.48
427.128	5.5
427.485	5.5
427.842	5.5
428.199	5.52
428.555	5.51
428.912	5.5
429.269	5.49
429.625	5.46
429.982	5.46
430.338	5.44
430.695	5.47
431.051	5.45
431.407	5.45
431.764	5.44
432.12	5.44
432.476	5.43
432.832	5.43
433.189	5.42
433.545	5.38
433.901	5.36
434.257	5.38
434.613	5.41
434.969	5.43
435.325	5.44
435.681	5.43
436.036	5.44
436.392	5.44
436.748	5.43
437.104	5.42
437.459	5.41
437.815	5.41
438.171	5.43
438.526	5.44
438.882	5.45
439.237	5.44
439.593	5.44
439.948	5.45
440.304	5.44
440.659	5.44
441.014	5.49
441.369	5.49
441.725	5.47
442.08	5.43
442.435	5.4
442.79	5.38
443.145	5.36
443.5	5.34
443.855	5.34
444.21	5.33
444.565	5.35
444.92	5.36
445.275	5.35
445.629	5.34
445.984	5.33
446.339	5.31
446.693	5.31
447.048	5.3
447.403	5.29
447.757	5.29
448.112	5.27
448.466	5.24
448.82	5.24
449.175	5.26
449.529	5.27
449.883	5.26
450.238	5.26
450.592	5.26
450.946	5.24
451.3	5.23
451.654	5.24
452.008	5.23
452.362	5.23
452.716	5.23
453.07	5.21
453.424	5.21
453.778	5.21
454.132	5.21
454.486	5.22
454.839	5.2
455.193	5.2
455.547	5.21
455.9	5.23
456.254	5.25
456.607	5.24
456.961	5.23
457.314	5.23
457.668	5.24
458.021	5.23
458.375	5.24
458.728	5.25
459.081	5.26
459.434	5.24
459.787	5.25
460.141	5.26
460.494	5.26
460.847	5.26
461.2	5.26
461.553	5.26
461.906	5.25
462.259	5.27
462.611	5.29
462.964	5.31
463.317	5.29
463.67	5.28
464.022	5.26
464.375	5.24
464.728	5.26
465.08	5.29
465.433	5.3
465.785	5.29
466.138	5.29
466.49	5.29
466.843	5.29
467.195	5.3
467.547	5.31
467.899	5.32
468.252	5.34
468.604	5.32
468.956	5.33
469.308	5.33
469.66	5.33
470.012	5.32
470.364	5.3
470.716	5.3
471.068	5.32
471.42	5.34
471.772	5.37
472.123	5.37
472.475	5.36
472.827	5.37
473.178	5.4
473.53	5.38
473.882	5.38
474.233	5.4
474.585	5.38
474.936	5.37
475.288	5.36
475.639	5.35
475.99	5.37
476.342	5.36
476.693	5.37
477.044	5.36
477.395	5.36
477.746	5.38
478.097	5.39
478.448	5.39
478.8	5.39
479.15	5.38
479.501	5.39
479.852	5.39
480.203	5.38
480.554	5.39
480.905	5.41
481.255	5.43
481.606	5.43
481.957	5.44
482.307	5.43
482.658	5.44
483.009	5.44
483.359	5.44
483.709	5.45
484.06	5.45
484.41	5.45
484.761	5.45
485.111	5.45
485.461	5.45
485.811	5.45
486.162	5.45
486.512	5.45
486.862	5.45
487.212	5.46
487.562	5.46
487.912	5.46
488.262	5.46
488.612	5.45
488.961	5.45
489.311	5.44
489.661	5.44
490.011	5.44
490.36	5.43
490.71	5.44
491.06	5.45
491.409	5.45
491.759	5.44
492.108	5.47
492.458	5.47
492.807	5.46
493.157	5.46
493.506	5.47
493.855	5.46
494.204	5.45
494.554	5.45
494.903	5.46
495.252	5.44
495.601	5.45
495.95	5.44
496.299	5.44
496.648	5.46
496.997	5.48
497.346	5.49
497.695	5.51
498.043	5.5
498.392	5.51
498.741	5.52
499.09	5.53
499.438	5.52
499.787	5.52
500.135	5.56
500.484	5.58
500.832	5.57
501.181	5.59
501.529	5.59
501.878	5.6
502.226	5.61
502.574	5.64
502.923	5.64
503.271	5.63
503.619	5.64
503.967	5.64
504.315	5.63
504.663	5.64
505.011	5.64
505.359	5.64
505.707	5.66
506.055	5.64
506.403	5.65
506.751	5.66
507.098	5.66
507.446	5.64
507.794	5.62
508.141	5.64
508.489	5.65
508.837	5.67
509.184	5.67
509.531	5.69
509.879	5.69
510.226	5.71
510.574	5.75
510.921	5.77
511.268	5.76
511.616	5.77
511.963	5.77
512.31	5.78
512.657	5.81
513.004	5.81
513.351	5.84
513.698	5.85
514.045	5.86
514.392	5.88
514.739	5.87
515.086	5.89
515.432	5.9
515.779	5.87
516.126	5.88
516.473	5.89
516.819	5.87
517.166	5.88
517.512	5.88
517.859	5.88
518.205	5.88
518.552	5.9
518.898	5.9
519.245	5.91
519.591	5.9
519.937	5.89
520.283	5.88
520.629	5.9
520.976	5.9
521.322	5.89
521.668	5.88
522.014	5.9
522.36	5.9
522.706	5.9
523.052	5.91
523.398	5.93
523.743	5.93
524.089	5.94
524.435	5.95
524.781	5.96
525.126	5.95
525.472	5.97
525.817	5.97
526.163	5.97
526.509	5.99
526.854	6.01
527.199	6.02
527.545	6.02
527.89	6.02
528.235	6.02
528.581	6.03
528.926	6.03
529.271	6.03
529.616	6.03
529.961	6.05
530.306	6.05
530.651	6.04
530.996	6.05
531.341	6.07
531.686	6.05
532.031	6.05
532.376	6.07
532.721	6.06
533.065	6.06
533.41	6.08
533.755	6.08
534.099	6.09
534.444	6.09
534.788	6.1
535.133	6.09
535.477	6.1
535.822	6.1
536.166	6.12
536.51	6.13
536.855	6.13
537.199	6.12
537.543	6.11
537.887	6.13
538.231	6.11
538.576	6.11
538.92	6.14
539.264	6.13
539.608	6.13
539.951	6.13
540.295	6.12
540.639	6.14
540.983	6.12
541.327	6.11
541.671	6.1
542.014	6.1
542.358	6.09
542.701	6.1
543.045	6.1
543.389	6.1
543.732	6.09
544.075	6.11
544.419	6.13
544.762	6.13
545.105	6.13
545.449	6.15
545.792	6.15
546.135	6.14
546.478	6.14
546.821	6.13
547.165	6.15
547.508	6.16
547.851	6.12
548.194	6.12
548.536	6.12
548.879	6.13
549.222	6.13
549.565	6.16
549.908	6.15
550.25	6.15
550.593	6.15
550.936	6.16
551.278	6.13
551.621	6.12
551.963	6.13
552.306	6.11
552.648	6.06
552.991	6.08
553.333	6.06
553.675	6.07
554.017	6.07
554.36	6.07
554.702	6.06
555.044	6.05
555.386	6.07
555.728	6.07
556.07	6.06
556.412	6.05
556.754	6.01
557.096	6.01
557.438	6.05
557.78	6.06
558.121	6.04
558.463	6.09
558.805	6.07
559.147	6.06
559.488	6.1
559.83	6.13
560.171	6.11
560.513	6.16
560.854	6.18
561.196	6.18
561.537	6.2
561.878	6.19
562.22	6.21
562.561	6.21
562.902	6.2
563.243	6.22
563.584	6.24
563.925	6.27
564.266	6.26
564.607	6.21
564.948	6.21
565.289	6.21
565.63	6.2
565.971	6.19
566.312	6.2
566.653	6.19
566.993	6.18
567.334	6.17
567.675	6.16
568.015	6.14
568.356	6.12
568.696	6.11
569.037	6.12
569.377	6.13
569.718	6.13
570.058	6.12
570.398	6.13
570.739	6.15
571.079	6.14
571.419	6.13
571.759	6.16
572.099	6.16
572.439	6.16
572.779	6.15
573.119	6.19
573.459	6.18
573.799	6.2
574.139	6.19
574.479	6.19
574.819	6.2
575.158	6.2
575.498	6.23
575.838	6.24
576.177	6.21
576.517	6.21
576.856	6.21
577.196	6.25
577.535	6.23
577.875	6.22
578.214	6.22
578.553	6.27
578.893	6.26
579.232	6.22
579.571	6.21
579.91	6.21
580.25	6.15
580.589	6.15
580.928	6.17
581.267	6.2
581.606	6.17
581.945	6.16
582.283	6.19
582.622	6.17
582.961	6.17
583.3	6.22
583.639	6.21
583.977	6.21
584.316	6.19
584.654	6.18
584.993	6.14
585.332	6.15
585.67	6.09
586.008	6.1
586.347	6.1
586.685	6.13
587.024	6.12
587.362	6.14
587.7	6.12
588.038	6.12
588.376	6.09
588.715	6.14
589.053	6.18
589.391	6.18
589.729	6.2
590.067	6.21
590.404	6.21
590.742	6.24
591.08	6.22
591.418	6.24
591.756	6.29
592.093	6.3
592.431	6.3
592.769	6.31
593.106	6.27
593.444	6.28
593.781	6.29
594.119	6.33
594.456	6.35
594.793	6.36
595.131	6.36
595.468	6.38
595.805	6.39
596.143	6.35
596.48	6.32
596.817	6.3
597.154	6.3
597.491	6.31
597.828	6.29
598.165	6.33
598.502	6.31
598.839	6.3
599.176	6.32
599.512	6.29
599.849	6.31
600.186	6.38
600.523	6.41
600.859	6.4
601.196	6.39
601.532	6.37
601.869	6.38
602.205	6.34
602.542	6.35
602.878	6.32
603.215	6.34
603.551	6.34
603.887	6.36
604.223	6.36
604.56	6.38
604.896	6.4
605.232	6.39
605.568	6.43
605.904	6.44
606.24	6.46
606.576	6.51
606.912	6.52
607.248	6.53
607.583	6.53
607.919	6.51
608.255	6.48
608.591	6.52
608.926	6.56
609.262	6.61
609.597	6.61
609.933	6.62
610.268	6.61
610.604	6.63
610.939	6.62
611.275	6.64
611.61	6.6
611.945	6.63
612.281	6.61
612.616	6.55
612.951	6.57
613.286	6.56
613.621	6.55
613.956	6.56
614.291	6.51
614.626	6.53
614.961	6.57
615.296	6.57
615.631	6.56
615.966	6.56
616.3	6.51
616.635	6.47
616.97	6.48
617.304	6.47
617.639	6.49
617.973	6.51
618.308	6.51
618.642	6.47
618.977	6.45
619.311	6.49
619.646	6.54
619.98	6.49
620.314	6.5
620.648	6.51
620.983	6.47
621.317	6.51
621.651	6.49
621.985	6.48
622.319	6.51
622.653	6.52
622.987	6.54
623.321	6.57
623.655	6.63
623.988	6.67
624.322	6.67
624.656	6.68
624.99	6.66
625.323	6.61
625.657	6.63
625.99	6.63
626.324	6.63
626.657	6.61
626.991	6.59
627.324	6.6
627.658	6.59
627.991	6.62
628.324	6.57
628.657	6.56
628.991	6.59
629.324	6.57
629.657	6.58
629.99	6.58
630.323	6.54
630.656	6.56
630.989	6.57
631.322	6.57
631.655	6.53
631.987	6.54
632.32	6.61
632.653	6.63
632.986	6.59
633.318	6.57
633.651	6.61
633.984	6.66
634.316	6.62
634.649	6.63
634.981	6.62
635.313	6.64
635.646	6.68
635.978	6.67
636.31	6.73
636.643	6.73
636.975	6.7
637.307	6.69
637.639	6.65
637.971	6.64
638.303	6.67
638.635	6.67
638.967	6.69
639.299	6.67
639.631	6.68
639.963	6.71
640.295	6.79
640.626	6.76
640.958	6.77
641.29	6.77
641.621	6.77
641.953	6.76
642.285	6.76
642.616	6.77
642.948	6.73
643.279	6.63
643.61	6.68
643.942	6.66
644.273	6.74
644.604	6.74
644.936	6.73
645.267	6.7
645.598	6.73
645.929	6.77
646.26	6.71
646.591	6.7
646.922	6.66
647.253	6.63
647.584	6.55
647.915	6.54
648.245	6.63
648.576	6.63
648.907	6.67
649.238	6.68
649.568	6.66
649.899	6.69
650.229	6.76
650.56	6.7
650.89	6.73
651.221	6.74
651.551	6.75
651.882	6.74
652.212	6.76
652.542	6.74
652.872	6.68
653.203	6.73
653.533	6.73
653.863	6.71
654.193	6.71
654.523	6.78
654.853	6.74
655.183	6.68
655.513	6.63
655.843	6.59
656.172	6.58
656.502	6.61
656.832	6.6
657.162	6.6
657.491	6.55
657.821	6.5
658.15	6.52
658.48	6.5
658.809	6.5
659.139	6.55
659.468	6.53
659.798	6.54
660.127	6.59
660.456	6.65
660.785	6.72
661.115	6.7
661.444	6.69
661.773	6.75
662.102	6.72
662.431	6.76
662.76	6.84
663.089	6.87
663.418	6.85
663.747	6.85
664.076	6.86
664.404	6.93
664.733	6.99
665.062	6.95
665.39	6.96
665.719	6.89
666.048	6.9
666.376	6.92
666.705	6.96
667.033	6.85
667.362	6.79
667.69	6.71
668.018	6.72
668.347	6.72
668.675	6.66
669.003	6.75
669.331	6.74
669.659	6.66
669.987	6.61
670.315	6.62
670.643	6.53
670.971	6.55
671.299	6.62
671.627	6.64
671.955	6.59
672.283	6.57
672.61	6.59
672.938	6.52
673.266	6.53
673.593	6.61
673.921	6.62
674.249	6.64
674.576	6.65
674.904	6.61
675.231	6.6
675.558	6.63
675.886	6.6
676.213	6.61
676.54	6.55
676.867	6.63
677.195	6.63
677.522	6.73
677.849	6.69
678.176	6.64
