Data from BA57663_Reflection_00003.txt Node
Date: Mon Nov 18 15:43:46 EST 2019
User: vgr7
Spectrometer: USB2G7710
Scans to average: 3
Trigger mode: 4
Integration Time (sec): 2.000000E-2
Electric dark correction enabled: true
Boxcar width: 10
XAxis mode: Wavelengths
Number of Pixels in Spectrum: 2048
>>>>>Begin Spectral Data<<<<<
177.721	1199.04
178.105	-258.38
178.488	53.43
178.871	64.29
179.254	77.72
179.636	-23.89
180.019	-177.01
180.402	110.71
180.785	-1.61
181.168	-4.52
181.55	9.59
181.933	63.36
182.316	65.61
182.698	49.32
183.081	51.16
183.463	30.15
183.846	25.88
184.228	8.44
184.611	-16.62
184.993	-49.54
185.376	-113.27
185.758	-52.55
186.14	-44.21
186.522	-40.74
186.904	-44.81
187.287	-27.25
187.669	-34.65
188.051	-25.92
188.433	-50.41
188.815	-56.3
189.197	-29.96
189.579	-76.52
189.961	-86.02
190.342	-128.72
190.724	-3139.44
191.106	-1365.84
191.488	-529.54
191.869	-2994.34
192.251	-831.3
192.633	558.72
193.014	47.88
193.396	182.11
193.777	-151.47
194.159	-4.92
194.54	297.95
194.922	-456.21
195.303	-288.71
195.684	-9900
196.065	73.64
196.447	49.56
196.828	64.62
197.209	76.41
197.59	132.29
197.971	82.88
198.352	101.44
198.733	319.08
199.114	243.88
199.495	135.26
199.876	206.61
200.257	172.36
200.638	199.33
201.018	137
201.399	163.14
201.78	88.33
202.16	136.15
202.541	159.82
202.922	92.29
203.302	108.02
203.683	76.44
204.063	-20.77
204.444	-90.74
204.824	-373.93
205.204	-271.08
205.585	-232.78
205.965	-226.72
206.345	-310.37
206.725	-271.26
207.106	-288.42
207.486	-604.6
207.866	1359.91
208.246	597.02
208.626	262.9
209.006	303.68
209.386	343.9
209.766	195.79
210.145	175.53
210.525	255.36
210.905	166.71
211.285	335.76
211.664	1176.92
212.044	518.82
212.424	2607.04
212.803	3124.39
213.183	141.78
213.562	96.2
213.942	1317.39
214.321	-241.46
214.701	18.58
215.08	147.46
215.459	326.72
215.838	119.47
216.218	126.56
216.597	70.74
216.976	109.11
217.355	261.85
217.734	157.35
218.113	126.55
218.492	116.49
218.871	85.96
219.25	123.69
219.629	121.22
220.008	88.76
220.387	44.28
220.766	24.7
221.144	-96.15
221.523	-123.67
221.902	-248.34
222.28	-429.27
222.659	-563.1
223.037	-214.09
223.416	-286.23
223.794	-291.24
224.173	-120.04
224.551	-70.74
224.929	-69.46
225.308	-41.03
225.686	-23.7
226.064	-19.6
226.442	-12.19
226.821	-3.87
227.199	-7.41
227.577	-4.74
227.955	-6
228.333	-6.89
228.711	-4.1
229.089	0.65
229.467	-0.98
229.845	-2.87
230.222	-2.37
230.6	-5.14
230.978	-4.41
231.356	-2.05
231.733	-1.1
232.111	0.66
232.488	-0.44
232.866	0.29
233.243	-0.36
233.621	-1.35
233.998	0.1
234.376	0.28
234.753	-0.11
235.13	0.42
235.508	0.83
235.885	3.05
236.262	2.29
236.639	1.89
237.016	2.32
237.393	4.73
237.77	7.34
238.147	8.08
238.524	7.53
238.901	7.06
239.278	6.9
239.655	7.21
240.032	7.49
240.409	7.37
240.785	7.35
241.162	7.64
241.539	7.46
241.915	6.89
242.292	6.41
242.668	6.06
243.045	6.32
243.421	6.49
243.798	6.3
244.174	6.45
244.551	6.3
244.927	6.25
245.303	6.26
245.679	6.11
246.056	5.87
246.432	5.97
246.808	6.1
247.184	5.85
247.56	5.69
247.936	5.36
248.312	5.51
248.688	5.68
249.064	5.49
249.44	5.55
249.815	5.43
250.191	5.44
250.567	5.65
250.943	5.42
251.318	5.26
251.694	5.03
252.069	5.04
252.445	5.13
252.82	4.93
253.196	4.6
253.571	4.29
253.947	4.55
254.322	4.53
254.697	4.24
255.073	4.35
255.448	4.46
255.823	4.42
256.198	4.57
256.573	4.41
256.948	4.7
257.323	4.73
257.698	4.87
258.073	5.06
258.448	5
258.823	5.17
259.198	5.21
259.573	5.25
259.948	5.19
260.322	5.25
260.697	5.24
261.072	5.15
261.446	5.16
261.821	5.05
262.195	5.25
262.57	5.28
262.944	5.37
263.319	5.33
263.693	5.35
264.067	5.33
264.442	5.47
264.816	5.24
265.19	5.18
265.564	5.23
265.938	5.32
266.313	5.17
266.687	5.05
267.061	4.9
267.435	4.76
267.809	4.89
268.183	4.7
268.556	4.8
268.93	4.88
269.304	5.02
269.678	5.17
270.051	4.84
270.425	4.84
270.799	4.77
271.172	4.74
271.546	4.76
271.919	4.69
272.293	4.69
272.666	4.78
273.04	4.89
273.413	4.76
273.787	4.55
274.16	4.6
274.533	4.52
274.906	4.49
275.279	4.66
275.653	4.61
276.026	4.57
276.399	4.54
276.772	4.67
277.145	4.62
277.518	4.5
277.891	4.53
278.263	4.55
278.636	4.58
279.009	4.82
279.382	5
279.755	4.9
280.127	4.91
280.5	4.93
280.872	4.84
281.245	4.9
281.617	5.02
281.99	5.26
282.362	5.41
282.735	5.39
283.107	5.31
283.479	5.26
283.852	5.37
284.224	5.31
284.596	5.38
284.968	5.31
285.34	5.32
285.713	5.45
286.085	5.51
286.457	5.47
286.829	5.28
287.201	5.24
287.572	5.35
287.944	5.29
288.316	5.33
288.688	5.3
289.06	5.25
289.431	5.27
289.803	5.24
290.175	5.26
290.546	5.47
290.918	5.46
291.289	5.57
291.661	5.55
292.032	5.68
292.403	5.65
292.775	5.87
293.146	5.85
293.517	5.82
293.889	5.93
294.26	6.16
294.631	6.24
295.002	6.2
295.373	6.24
295.744	6.31
296.115	6.42
296.486	6.47
296.857	6.64
297.228	6.61
297.599	6.37
297.97	6.4
298.34	6.33
298.711	6.5
299.082	6.51
299.452	6.56
299.823	6.62
300.194	6.56
300.564	6.45
300.935	6.65
301.305	6.6
301.676	6.58
302.046	6.53
302.416	6.51
302.787	6.59
303.157	6.56
303.527	6.53
303.897	6.46
304.267	6.48
304.637	6.36
305.008	6.48
305.378	6.7
305.748	6.69
306.117	6.59
306.487	6.5
306.857	6.53
307.227	6.6
307.597	6.52
307.967	6.52
308.336	6.56
308.706	6.49
309.076	6.67
309.445	6.53
309.815	6.5
310.184	6.51
310.554	6.49
310.923	6.45
311.293	6.5
311.662	6.44
312.031	6.51
312.401	6.56
312.77	6.52
313.139	6.48
313.508	6.57
313.877	6.68
314.246	6.64
314.616	6.47
314.985	6.49
315.353	6.44
315.722	6.56
316.091	6.59
316.46	6.45
316.829	6.3
317.198	6.42
317.567	6.3
317.935	6.38
318.304	6.36
318.672	6.45
319.041	6.49
319.41	6.56
319.778	6.45
320.147	6.53
320.515	6.64
320.883	6.64
321.252	6.7
321.62	6.72
321.988	6.79
322.357	6.92
322.725	6.76
323.093	6.95
323.461	6.95
323.829	6.96
324.197	7.11
324.565	7.05
324.933	7.18
325.301	7.25
325.669	7.31
326.037	7.24
326.405	7.13
326.772	7.1
327.14	7.11
327.508	7.25
327.875	7.22
328.243	7.13
328.61	7.04
328.978	6.96
329.346	6.93
329.713	6.88
330.08	6.91
330.448	7.08
330.815	6.83
331.182	6.67
331.55	6.67
331.917	6.7
332.284	6.85
332.651	6.73
333.018	6.74
333.385	6.69
333.752	6.81
334.119	6.94
334.486	6.94
334.853	6.9
335.22	6.9
335.587	6.87
335.954	6.83
336.32	6.95
336.687	6.94
337.054	7.02
337.42	7.18
337.787	7.16
338.153	7.02
338.52	7.11
338.886	7.2
339.253	7.08
339.619	6.97
339.986	6.87
340.352	6.88
340.718	6.81
341.084	6.81
341.451	6.94
341.817	6.95
342.183	6.89
342.549	6.93
342.915	7.01
343.281	7.06
343.647	7.07
344.013	7.06
344.379	6.96
344.745	6.9
345.11	6.81
345.476	6.76
345.842	6.82
346.208	6.88
346.573	6.94
346.939	6.99
347.304	6.99
347.67	6.95
348.035	6.99
348.401	7
348.766	6.97
349.132	6.81
349.497	6.8
349.862	6.95
350.228	6.97
350.593	6.86
350.958	6.71
351.323	6.8
351.688	6.83
352.053	6.94
352.418	7
352.783	7.03
353.148	7.04
353.513	7.03
353.878	6.97
354.243	6.99
354.608	7
354.972	6.99
355.337	7.05
355.702	7.06
356.066	7.21
356.431	7.2
356.795	7.3
357.16	7.26
357.524	7.18
357.889	7.17
358.253	7.12
358.618	7.26
358.982	7.22
359.346	7.14
359.71	7.11
360.075	7.07
360.439	7.1
360.803	7.11
361.167	7.08
361.531	7.07
361.895	7
362.259	7.01
362.623	7.02
362.987	7.03
363.351	7.04
363.714	6.97
364.078	6.95
364.442	6.88
364.806	6.82
365.169	6.75
365.533	6.71
365.896	6.68
366.26	6.59
366.623	6.6
366.987	6.6
367.35	6.63
367.714	6.66
368.077	6.58
368.44	6.58
368.803	6.55
369.167	6.56
369.53	6.5
369.893	6.52
370.256	6.5
370.619	6.51
370.982	6.43
371.345	6.37
371.708	6.39
372.071	6.42
372.434	6.53
372.797	6.63
373.159	6.6
373.522	6.61
373.885	6.66
374.247	6.64
374.61	6.68
374.973	6.64
375.335	6.64
375.698	6.67
376.06	6.67
376.423	6.74
376.785	6.73
377.147	6.81
377.51	6.78
377.872	6.84
378.234	6.87
378.596	6.91
378.958	6.91
379.321	6.89
379.683	6.85
380.045	6.81
380.407	6.75
380.769	6.78
381.13	6.82
381.492	6.79
381.854	6.8
382.216	6.8
382.578	6.83
382.939	6.77
383.301	6.76
383.663	6.73
384.024	6.73
384.386	6.75
384.747	6.7
385.109	6.7
385.47	6.68
385.832	6.66
386.193	6.67
386.554	6.65
386.916	6.65
387.277	6.68
387.638	6.68
387.999	6.69
388.36	6.67
388.721	6.69
389.082	6.69
389.443	6.71
389.804	6.7
390.165	6.7
390.526	6.74
390.887	6.76
391.248	6.78
391.609	6.76
391.969	6.77
392.33	6.83
392.691	6.85
393.051	6.86
393.412	6.87
393.772	6.84
394.133	6.89
394.493	6.92
394.854	6.9
395.214	6.92
395.574	6.95
395.935	6.98
396.295	7.01
396.655	6.99
397.015	7
397.376	7
397.736	7
398.096	7.01
398.456	7.04
398.816	7.08
399.176	7.1
399.535	7.1
399.895	7.07
400.255	7.08
400.615	7.12
400.975	7.14
401.334	7.17
401.694	7.13
402.054	7.12
402.413	7.16
402.773	7.13
403.132	7.13
403.492	7.14
403.851	7.1
404.211	7.12
404.57	7.11
404.929	7.13
405.288	7.15
405.648	7.16
406.007	7.15
406.366	7.11
406.725	7.13
407.084	7.15
407.443	7.17
407.802	7.16
408.161	7.13
408.52	7.11
408.879	7.13
409.238	7.15
409.596	7.14
409.955	7.15
410.314	7.14
410.673	7.13
411.031	7.1
411.39	7.11
411.748	7.13
412.107	7.11
412.465	7.11
412.824	7.12
413.182	7.09
413.54	7.07
413.899	7.08
414.257	7.08
414.615	7.05
414.974	7.04
415.332	7.05
415.69	7.07
416.048	7.03
416.406	7.04
416.764	7.03
417.122	7.05
417.48	7.03
417.838	7.06
418.195	7.07
418.553	7.07
418.911	7.07
419.269	7.07
419.626	7.09
419.984	7.09
420.342	7.07
420.699	7.07
421.057	7.08
421.414	7.1
421.772	7.1
422.129	7.11
422.486	7.12
422.844	7.12
423.201	7.12
423.558	7.12
423.915	7.11
424.273	7.12
424.63	7.12
424.987	7.13
425.344	7.13
425.701	7.15
426.058	7.17
426.415	7.19
426.772	7.16
427.128	7.13
427.485	7.13
427.842	7.13
428.199	7.13
428.555	7.13
428.912	7.12
429.269	7.11
429.625	7.1
429.982	7.08
430.338	7.08
430.695	7.06
431.051	7.07
431.407	7.08
431.764	7.07
432.12	7.07
432.476	7.06
432.832	7.03
433.189	7.02
433.545	6.99
433.901	6.97
434.257	6.99
434.613	7.02
434.969	7.05
435.325	7.04
435.681	7.04
436.036	7.05
436.392	7.06
436.748	7.06
437.104	7.07
437.459	7.08
437.815	7.08
438.171	7.09
438.526	7.11
438.882	7.11
439.237	7.13
439.593	7.16
439.948	7.17
440.304	7.19
440.659	7.17
441.014	7.18
441.369	7.19
441.725	7.19
442.08	7.21
442.435	7.2
442.79	7.22
443.145	7.23
443.5	7.23
443.855	7.22
444.21	7.21
444.565	7.22
444.92	7.21
445.275	7.22
445.629	7.23
445.984	7.23
446.339	7.23
446.693	7.21
447.048	7.19
447.403	7.19
447.757	7.2
448.112	7.2
448.466	7.21
448.82	7.22
449.175	7.21
449.529	7.17
449.883	7.17
450.238	7.16
450.592	7.16
450.946	7.15
451.3	7.15
451.654	7.17
452.008	7.18
452.362	7.18
452.716	7.16
453.07	7.15
453.424	7.14
453.778	7.13
454.132	7.13
454.486	7.12
454.839	7.12
455.193	7.1
455.547	7.13
455.9	7.14
456.254	7.15
456.607	7.14
456.961	7.17
457.314	7.17
457.668	7.16
458.021	7.15
458.375	7.15
458.728	7.15
459.081	7.15
459.434	7.14
459.787	7.14
460.141	7.17
460.494	7.16
460.847	7.17
461.2	7.15
461.553	7.15
461.906	7.16
462.259	7.18
462.611	7.21
462.964	7.21
463.317	7.19
463.67	7.18
464.022	7.18
464.375	7.18
464.728	7.18
465.08	7.21
465.433	7.24
465.785	7.25
466.138	7.26
466.49	7.26
466.843	7.28
467.195	7.29
467.547	7.27
467.899	7.29
468.252	7.27
468.604	7.29
468.956	7.31
469.308	7.3
469.66	7.28
470.012	7.28
470.364	7.27
470.716	7.28
471.068	7.28
471.42	7.31
471.772	7.34
472.123	7.35
472.475	7.37
472.827	7.36
473.178	7.37
473.53	7.37
473.882	7.35
474.233	7.36
474.585	7.34
474.936	7.34
475.288	7.35
475.639	7.36
475.99	7.38
476.342	7.39
476.693	7.4
477.044	7.42
477.395	7.42
477.746	7.41
478.097	7.41
478.448	7.42
478.8	7.41
479.15	7.4
479.501	7.42
479.852	7.43
480.203	7.43
480.554	7.44
480.905	7.46
481.255	7.47
481.606	7.47
481.957	7.5
482.307	7.51
482.658	7.53
483.009	7.54
483.359	7.54
483.709	7.55
484.06	7.55
484.41	7.56
484.761	7.55
485.111	7.56
485.461	7.55
485.811	7.56
486.162	7.57
486.512	7.57
486.862	7.56
487.212	7.55
487.562	7.56
487.912	7.56
488.262	7.55
488.612	7.55
488.961	7.55
489.311	7.55
489.661	7.55
490.011	7.54
490.36	7.52
490.71	7.53
491.06	7.53
491.409	7.53
491.759	7.5
492.108	7.49
492.458	7.48
492.807	7.49
493.157	7.49
493.506	7.49
493.855	7.5
494.204	7.49
494.554	7.51
494.903	7.49
495.252	7.49
495.601	7.49
495.95	7.51
496.299	7.5
496.648	7.48
496.997	7.48
497.346	7.5
497.695	7.52
498.043	7.5
498.392	7.51
498.741	7.5
499.09	7.52
499.438	7.53
499.787	7.54
500.135	7.56
500.484	7.56
500.832	7.54
501.181	7.54
501.529	7.54
501.878	7.53
502.226	7.55
502.574	7.54
502.923	7.53
503.271	7.53
503.619	7.55
503.967	7.55
504.315	7.56
504.663	7.54
505.011	7.56
505.359	7.57
505.707	7.57
506.055	7.61
506.403	7.62
506.751	7.63
507.098	7.64
507.446	7.65
507.794	7.64
508.141	7.67
508.489	7.66
508.837	7.7
509.184	7.69
509.531	7.68
509.879	7.71
510.226	7.75
510.574	7.75
510.921	7.75
511.268	7.74
511.616	7.76
511.963	7.75
512.31	7.75
512.657	7.74
513.004	7.74
513.351	7.74
513.698	7.74
514.045	7.75
514.392	7.77
514.739	7.77
515.086	7.79
515.432	7.78
515.779	7.8
516.126	7.78
516.473	7.81
516.819	7.82
517.166	7.8
517.512	7.78
517.859	7.8
518.205	7.77
518.552	7.79
518.898	7.78
519.245	7.8
519.591	7.8
519.937	7.8
520.283	7.8
520.629	7.79
520.976	7.8
521.322	7.81
521.668	7.82
522.014	7.82
522.36	7.81
522.706	7.81
523.052	7.82
523.398	7.83
523.743	7.82
524.089	7.83
524.435	7.83
524.781	7.83
525.126	7.82
525.472	7.84
525.817	7.84
526.163	7.84
526.509	7.84
526.854	7.86
527.199	7.86
527.545	7.87
527.89	7.87
528.235	7.87
528.581	7.87
528.926	7.88
529.271	7.88
529.616	7.89
529.961	7.91
530.306	7.9
530.651	7.9
530.996	7.92
531.341	7.92
531.686	7.93
532.031	7.93
532.376	7.95
532.721	7.96
533.065	7.97
533.41	7.97
533.755	7.97
534.099	7.96
534.444	7.96
534.788	7.98
535.133	7.97
535.477	7.98
535.822	7.97
536.166	7.96
536.51	7.96
536.855	7.96
537.199	7.96
537.543	7.96
537.887	7.97
538.231	7.97
538.576	7.97
538.92	7.98
539.264	7.99
539.608	7.99
539.951	7.99
540.295	7.99
540.639	8.01
540.983	8
541.327	8.01
541.671	8.01
542.014	8.01
542.358	8.03
542.701	8.02
543.045	8.03
543.389	8.04
543.732	8.05
544.075	8.05
544.419	8.04
544.762	8.04
545.105	8.05
545.449	8.05
545.792	8.03
546.135	8.03
546.478	8.06
546.821	8.07
547.165	8.06
547.508	8.1
547.851	8.11
548.194	8.12
548.536	8.13
548.879	8.14
549.222	8.11
549.565	8.11
549.908	8.11
550.25	8.1
550.593	8.1
550.936	8.08
551.278	8.09
551.621	8.1
551.963	8.11
552.306	8.11
552.648	8.11
552.991	8.13
553.333	8.12
553.675	8.12
554.017	8.1
554.36	8.12
554.702	8.1
555.044	8.08
555.386	8.09
555.728	8.08
556.07	8.1
556.412	8.13
556.754	8.11
557.096	8.13
557.438	8.15
557.78	8.14
558.121	8.2
558.463	8.2
558.805	8.2
559.147	8.19
559.488	8.21
559.83	8.21
560.171	8.21
560.513	8.23
560.854	8.23
561.196	8.25
561.537	8.26
561.878	8.25
562.22	8.29
562.561	8.29
562.902	8.32
563.243	8.33
563.584	8.34
563.925	8.36
564.266	8.34
564.607	8.34
564.948	8.37
565.289	8.37
565.63	8.4
565.971	8.41
566.312	8.43
566.653	8.44
566.993	8.44
567.334	8.43
567.675	8.44
568.015	8.44
568.356	8.42
568.696	8.39
569.037	8.4
569.377	8.39
569.718	8.42
570.058	8.4
570.398	8.37
570.739	8.38
571.079	8.4
571.419	8.41
571.759	8.42
572.099	8.41
572.439	8.37
572.779	8.34
573.119	8.32
573.459	8.34
573.799	8.35
574.139	8.37
574.479	8.38
574.819	8.39
575.158	8.38
575.498	8.4
575.838	8.4
576.177	8.39
576.517	8.37
576.856	8.33
577.196	8.34
577.535	8.36
577.875	8.34
578.214	8.33
578.553	8.37
578.893	8.35
579.232	8.4
579.571	8.39
579.91	8.37
580.25	8.43
580.589	8.41
580.928	8.39
581.267	8.39
581.606	8.38
581.945	8.36
582.283	8.37
582.622	8.35
582.961	8.39
583.3	8.4
583.639	8.44
583.977	8.47
584.316	8.45
584.654	8.46
584.993	8.5
585.332	8.5
585.67	8.53
586.008	8.54
586.347	8.5
586.685	8.52
587.024	8.53
587.362	8.52
587.7	8.52
588.038	8.57
588.376	8.58
588.715	8.59
589.053	8.61
589.391	8.62
589.729	8.69
590.067	8.67
590.404	8.69
590.742	8.68
591.08	8.65
591.418	8.68
591.756	8.7
592.093	8.73
592.431	8.73
592.769	8.71
593.106	8.68
593.444	8.66
593.781	8.65
594.119	8.71
594.456	8.68
594.793	8.68
595.131	8.65
595.468	8.64
595.805	8.62
596.143	8.59
596.48	8.6
596.817	8.57
597.154	8.58
597.491	8.57
597.828	8.56
598.165	8.57
598.502	8.56
598.839	8.53
599.176	8.46
599.512	8.45
599.849	8.41
600.186	8.47
600.523	8.52
600.859	8.57
601.196	8.54
601.532	8.55
601.869	8.54
602.205	8.57
602.542	8.58
602.878	8.56
603.215	8.57
603.551	8.55
603.887	8.55
604.223	8.55
604.56	8.61
604.896	8.6
605.232	8.64
605.568	8.67
605.904	8.65
606.24	8.7
606.576	8.74
606.912	8.76
607.248	8.72
607.583	8.69
607.919	8.67
608.255	8.65
608.591	8.7
608.926	8.71
609.262	8.72
609.597	8.72
609.933	8.74
610.268	8.75
610.604	8.8
610.939	8.78
611.275	8.81
611.61	8.79
611.945	8.79
612.281	8.74
612.616	8.72
612.951	8.76
613.286	8.77
613.621	8.72
613.956	8.71
614.291	8.77
614.626	8.81
614.961	8.83
615.296	8.84
615.631	8.77
615.966	8.74
616.3	8.68
616.635	8.71
616.97	8.73
617.304	8.73
617.639	8.76
617.973	8.76
618.308	8.76
618.642	8.8
618.977	8.81
619.311	8.82
619.646	8.83
619.98	8.83
620.314	8.84
620.648	8.89
620.983	8.93
621.317	8.94
621.651	8.91
621.985	8.93
622.319	8.99
622.653	9.08
622.987	9.13
623.321	9.12
623.655	9.13
623.988	9.14
624.322	9.17
624.656	9.11
624.99	9.13
625.323	9.12
625.657	9.07
625.99	9.08
626.324	9.13
626.657	9.13
626.991	9.11
627.324	9.09
627.658	9.08
627.991	9.11
628.324	9.09
628.657	9.09
628.991	9.07
629.324	9.03
629.657	8.99
629.99	8.97
630.323	8.99
630.656	9
630.989	9
631.322	9.02
631.655	9.05
631.987	9.05
632.32	9.08
632.653	9.1
632.986	9.11
633.318	9.11
633.651	9.13
633.984	9.17
634.316	9.14
634.649	9.15
634.981	9.16
635.313	9.15
635.646	9.16
635.978	9.18
636.31	9.22
636.643	9.25
636.975	9.3
637.307	9.31
637.639	9.27
637.971	9.27
638.303	9.26
638.635	9.24
638.967	9.24
639.299	9.24
639.631	9.21
639.963	9.23
640.295	9.24
640.626	9.24
640.958	9.24
641.29	9.33
641.621	9.26
641.953	9.18
642.285	9.24
642.616	9.23
642.948	9.25
643.279	9.19
643.61	9.16
643.942	9.09
644.273	9.12
644.604	9.14
644.936	9.1
645.267	9.17
645.598	9.23
645.929	9.26
646.26	9.24
646.591	9.27
646.922	9.21
647.253	9.25
647.584	9.19
647.915	9.12
648.245	9.13
648.576	9.22
648.907	9.28
649.238	9.2
649.568	9.22
649.899	9.18
650.229	9.24
650.56	9.26
650.89	9.28
651.221	9.29
651.551	9.26
651.882	9.38
652.212	9.35
652.542	9.27
652.872	9.24
653.203	9.26
653.533	9.24
653.863	9.27
654.193	9.19
654.523	9.31
654.853	9.36
655.183	9.26
655.513	9.32
655.843	9.3
656.172	9.33
656.502	9.38
656.832	9.41
657.162	9.42
657.491	9.39
657.821	9.41
658.15	9.35
658.48	9.45
658.809	9.35
659.139	9.27
659.468	9.3
659.798	9.32
660.127	9.32
660.456	9.32
660.785	9.37
661.115	9.41
661.444	9.38
661.773	9.39
662.102	9.45
662.431	9.39
662.76	9.41
663.089	9.42
663.418	9.42
663.747	9.39
664.076	9.39
664.404	9.44
664.733	9.45
665.062	9.54
665.39	9.55
665.719	9.57
666.048	9.67
666.376	9.67
666.705	9.71
667.033	9.71
667.362	9.86
667.69	9.82
668.018	9.87
668.347	9.87
668.675	9.85
669.003	9.89
669.331	9.98
669.659	10.01
669.987	9.98
670.315	9.92
670.643	9.95
670.971	9.94
671.299	9.94
671.627	9.97
671.955	9.9
672.283	9.85
672.61	9.9
672.938	9.91
673.266	10
673.593	10.01
673.921	10.05
674.249	9.97
674.576	9.99
674.904	9.97
675.231	9.93
675.558	9.96
675.886	10.01
676.213	9.93
676.54	9.96
676.867	9.98
677.195	10.07
