Data from BA57750_Reflection_00011.txt Node
Date: Mon Nov 18 15:47:25 EST 2019
User: vgr7
Spectrometer: USB2G7710
Scans to average: 3
Trigger mode: 4
Integration Time (sec): 2.000000E-2
Electric dark correction enabled: true
Boxcar width: 10
XAxis mode: Wavelengths
Number of Pixels in Spectrum: 2048
>>>>>Begin Spectral Data<<<<<
177.721	106.33
178.105	87.38
178.488	3214.75
178.871	-90.93
179.254	-35.04
179.636	-118.75
180.019	13.85
180.402	75
180.785	97.81
181.168	24.4
181.55	54.48
181.933	75.43
182.316	85.52
182.698	61.15
183.081	67.72
183.463	38.19
183.846	52.02
184.228	-25.45
184.611	-37.06
184.993	-153.78
185.376	-128.38
185.758	-48.26
186.14	-21.65
186.522	-12.51
186.904	-3.17
187.287	22.13
187.669	46.72
188.051	83.15
188.433	124.26
188.815	186.96
189.197	14715.38
189.579	1439.13
189.961	10731.58
190.342	4937.21
190.724	-262.84
191.106	-198.11
191.488	-442.69
191.869	-473.88
192.251	-486.99
192.633	-219.63
193.014	-233.53
193.396	-451.52
193.777	-373.99
194.159	-398.79
194.54	-446.18
194.922	-396.51
195.303	-187.71
195.684	-222.87
196.065	-116.31
196.447	-141.9
196.828	-152.05
197.209	-105.62
197.59	-97.47
197.971	-114.39
198.352	-103.1
198.733	-101.42
199.114	-109.05
199.495	-85.13
199.876	-83.27
200.257	-70.44
200.638	-75.38
201.018	-67.65
201.399	-48.63
201.78	-22.09
202.16	-21.54
202.541	-37.17
202.922	-38.88
203.302	-63.68
203.683	-56.52
204.063	-88.11
204.444	-53.12
204.824	-56.64
205.204	-62.44
205.585	-77.02
205.965	-63.61
206.345	-103.63
206.725	-109.08
207.106	-126.85
207.486	-173.55
207.866	-172.46
208.246	-155.43
208.626	-141.21
209.006	-130.51
209.386	-156.6
209.766	-198.36
210.145	-226.95
210.525	-209.72
210.905	-160.62
211.285	-226.1
211.664	-209.07
212.044	-305.21
212.424	-289.28
212.803	-219.3
213.183	-197.39
213.562	-220.1
213.942	-174.23
214.321	-110.47
214.701	-91.42
215.08	-95.58
215.459	-85.82
215.838	-74.35
216.218	-74.26
216.597	-66.09
216.976	-72.96
217.355	-61.97
217.734	-56.56
218.113	-49.74
218.492	-40.21
218.871	-40.93
219.25	-21.68
219.629	-23.93
220.008	-16.97
220.387	-13.94
220.766	-18.67
221.144	-11.75
221.523	-18.38
221.902	-28.39
222.28	-50.78
222.659	-50.9
223.037	-45.63
223.416	-38.31
223.794	-44.99
224.173	-26.38
224.551	-10.85
224.929	-13.13
225.308	0.39
225.686	-5.14
226.064	-11.96
226.442	-7.69
226.821	-4.57
227.199	-8.27
227.577	-9.96
227.955	-11.84
228.333	-8.2
228.711	-7.27
229.089	-7.09
229.467	-4.51
229.845	-1.93
230.222	1.47
230.6	-0.86
230.978	0.77
231.356	0.71
231.733	1.66
232.111	1.95
232.488	2.65
232.866	4.21
233.243	1.36
233.621	1.24
233.998	4.47
234.376	2.7
234.753	1.48
235.13	1.8
235.508	3.92
235.885	3.34
236.262	0.88
236.639	2.01
237.016	2.45
237.393	3.64
237.77	4.13
238.147	4.26
238.524	4
238.901	3.58
239.278	3.82
239.655	5.13
240.032	4.21
240.409	3.08
240.785	3.27
241.162	3.51
241.539	3.97
241.915	3.59
242.292	3.38
242.668	3.69
243.045	4.09
243.421	3.97
243.798	4
244.174	4.12
244.551	4.05
244.927	4.18
245.303	4.3
245.679	4.25
246.056	4.09
246.432	4.01
246.808	4.03
247.184	3.74
247.56	3.31
247.936	3.51
248.312	3.72
248.688	3.83
249.064	3.85
249.44	3.79
249.815	3.78
250.191	4.03
250.567	4.08
250.943	3.88
251.318	4.08
251.694	4.01
252.069	4.14
252.445	4.1
252.82	3.95
253.196	3.62
253.571	3.66
253.947	3.82
254.322	4.24
254.697	4
255.073	3.78
255.448	3.8
255.823	3.78
256.198	3.86
256.573	3.53
256.948	3.87
257.323	3.9
257.698	3.82
258.073	3.87
258.448	3.82
258.823	3.69
259.198	3.57
259.573	3.61
259.948	3.47
260.322	3.57
260.697	3.43
261.072	3.51
261.446	3.46
261.821	3.23
262.195	3.33
262.57	3.36
262.944	3.56
263.319	3.51
263.693	3.4
264.067	3.32
264.442	3.37
264.816	3.07
265.19	3.02
265.564	3.13
265.938	2.86
266.313	2.74
266.687	2.94
267.061	3.02
267.435	3.2
267.809	3.21
268.183	3.24
268.556	3.49
268.93	3.5
269.304	3.57
269.678	3.65
270.051	3.52
270.425	3.67
270.799	3.56
271.172	3.51
271.546	3.54
271.919	3.49
272.293	3.48
272.666	3.56
273.04	3.54
273.413	3.45
273.787	3.53
274.16	3.56
274.533	3.54
274.906	3.52
275.279	3.44
275.653	3.54
276.026	3.43
276.399	3.36
276.772	3.31
277.145	3.09
277.518	3.41
277.891	3.41
278.263	3.4
278.636	3.46
279.009	3.55
279.382	3.68
279.755	3.73
280.127	3.86
280.5	3.8
280.872	3.73
281.245	3.77
281.617	3.88
281.99	3.96
282.362	3.95
282.735	3.89
283.107	3.7
283.479	3.64
283.852	3.72
284.224	3.69
284.596	3.7
284.968	3.85
285.34	3.76
285.713	3.7
286.085	3.74
286.457	3.8
286.829	3.77
287.201	3.73
287.572	3.67
287.944	3.64
288.316	3.63
288.688	3.64
289.06	3.6
289.431	3.5
289.803	3.46
290.175	3.47
290.546	3.6
290.918	3.8
291.289	3.81
291.661	3.87
292.032	3.91
292.403	3.97
292.775	3.99
293.146	3.89
293.517	3.92
293.889	3.9
294.26	3.9
294.631	3.86
295.002	3.79
295.373	3.85
295.744	3.89
296.115	3.84
296.486	3.8
296.857	3.88
297.228	3.99
297.599	3.92
297.97	3.97
298.34	3.93
298.711	3.88
299.082	3.84
299.452	3.81
299.823	3.89
300.194	3.91
300.564	3.74
300.935	3.79
301.305	3.71
301.676	3.77
302.046	3.77
302.416	3.98
302.787	3.98
303.157	3.98
303.527	3.9
303.897	4
304.267	4.18
304.637	4.31
305.008	4.16
305.378	4.33
305.748	4.37
306.117	4.37
306.487	4.41
306.857	4.51
307.227	4.55
307.597	4.38
307.967	4.36
308.336	4.46
308.706	4.41
309.076	4.54
309.445	4.47
309.815	4.41
310.184	4.33
310.554	4.43
310.923	4.4
311.293	4.39
311.662	4.37
312.031	4.34
312.401	4.28
312.77	4.38
313.139	4.4
313.508	4.4
313.877	4.23
314.246	4.36
314.616	4.27
314.985	4.17
315.353	4.2
315.722	4.24
316.091	4.16
316.46	4.15
316.829	4.08
317.198	4.2
317.567	4.17
317.935	4.08
318.304	4.12
318.672	4.31
319.041	4.51
319.41	4.5
319.778	4.51
320.147	4.52
320.515	4.63
320.883	4.47
321.252	4.51
321.62	4.68
321.988	4.67
322.357	4.74
322.725	4.79
323.093	4.97
323.461	5.04
323.829	5.17
324.197	5.2
324.565	5.2
324.933	5.1
325.301	5.12
325.669	5.16
326.037	5.17
326.405	5.17
326.772	5.17
327.14	5.24
327.508	5.29
327.875	5.27
328.243	5.24
328.61	5.34
328.978	5.24
329.346	5.31
329.713	5.24
330.08	5.35
330.448	5.37
330.815	5.17
331.182	5.04
331.55	4.98
331.917	5.13
332.284	5.15
332.651	5.15
333.018	5.38
333.385	5.4
333.752	5.49
334.119	5.47
334.486	5.37
334.853	5.27
335.22	5.21
335.587	5.32
335.954	5.3
336.32	5.26
336.687	5.28
337.054	5.24
337.42	5.2
337.787	5.15
338.153	5.18
338.52	5.29
338.886	5.33
339.253	5.41
339.619	5.31
339.986	5.34
340.352	5.29
340.718	5.1
341.084	5.05
341.451	5.1
341.817	5.11
342.183	5.14
342.549	5.32
342.915	5.45
343.281	5.33
343.647	5.25
344.013	5.27
344.379	5.42
344.745	5.48
345.11	5.47
345.476	5.5
345.842	5.51
346.208	5.57
346.573	5.64
346.939	5.67
347.304	5.71
347.67	5.72
348.035	5.77
348.401	5.81
348.766	5.88
349.132	5.85
349.497	5.82
349.862	5.86
350.228	5.74
350.593	5.67
350.958	5.71
351.323	5.78
351.688	5.79
352.053	5.7
352.418	5.72
352.783	5.76
353.148	5.8
353.513	5.84
353.878	5.85
354.243	5.88
354.608	5.87
354.972	5.88
355.337	5.9
355.702	5.95
356.066	6.02
356.431	5.99
356.795	6.03
357.16	6.04
357.524	6.03
357.889	6
358.253	5.97
358.618	5.99
358.982	5.97
359.346	5.94
359.71	5.93
360.075	5.92
360.439	5.94
360.803	5.9
361.167	5.86
361.531	5.73
361.895	5.67
362.259	5.7
362.623	5.71
362.987	5.74
363.351	5.7
363.714	5.67
364.078	5.75
364.442	5.64
364.806	5.61
365.169	5.59
365.533	5.63
365.896	5.69
366.26	5.66
366.623	5.74
366.987	5.71
367.35	5.75
367.714	5.82
368.077	5.75
368.44	5.76
368.803	5.85
369.167	5.96
369.53	5.89
369.893	5.92
370.256	5.93
370.619	5.87
370.982	5.85
371.345	5.82
371.708	5.72
372.071	5.77
372.434	5.72
372.797	5.7
373.159	5.66
373.522	5.6
373.885	5.66
374.247	5.61
374.61	5.62
374.973	5.58
375.335	5.42
375.698	5.44
376.06	5.41
376.423	5.31
376.785	5.24
377.147	5.33
377.51	5.27
377.872	5.25
378.234	5.27
378.596	5.23
378.958	5.21
379.321	5.2
379.683	5.19
380.045	5.19
380.407	5.22
380.769	5.21
381.13	5.19
381.492	5.12
381.854	5.11
382.216	5.08
382.578	5.08
382.939	5.07
383.301	5.06
383.663	5.03
384.024	5.05
384.386	5.09
384.747	5.04
385.109	4.97
385.47	4.94
385.832	4.93
386.193	4.97
386.554	4.95
386.916	4.92
387.277	4.87
387.638	4.88
387.999	4.85
388.36	4.83
388.721	4.79
389.082	4.78
389.443	4.75
389.804	4.75
390.165	4.68
390.526	4.72
390.887	4.67
391.248	4.69
391.609	4.65
391.969	4.61
392.33	4.6
392.691	4.62
393.051	4.58
393.412	4.55
393.772	4.52
394.133	4.51
394.493	4.5
394.854	4.49
395.214	4.46
395.574	4.43
395.935	4.4
396.295	4.4
396.655	4.36
397.015	4.32
397.376	4.3
397.736	4.29
398.096	4.29
398.456	4.28
398.816	4.25
399.176	4.25
399.535	4.19
399.895	4.17
400.255	4.13
400.615	4.12
400.975	4.09
401.334	4.05
401.694	4.05
402.054	4.01
402.413	4.01
402.773	3.99
403.132	3.95
403.492	3.95
403.851	3.95
404.211	3.97
404.57	3.95
404.929	3.94
405.288	3.94
405.648	3.86
406.007	3.85
406.366	3.81
406.725	3.81
407.084	3.82
407.443	3.82
407.802	3.83
408.161	3.79
408.52	3.77
408.879	3.74
409.238	3.75
409.596	3.75
409.955	3.73
410.314	3.71
410.673	3.72
411.031	3.69
411.39	3.67
411.748	3.65
412.107	3.65
412.465	3.62
412.824	3.6
413.182	3.6
413.54	3.63
413.899	3.65
414.257	3.63
414.615	3.6
414.974	3.59
415.332	3.57
415.69	3.59
416.048	3.6
416.406	3.59
416.764	3.54
417.122	3.54
417.48	3.53
417.838	3.54
418.195	3.54
418.553	3.54
418.911	3.53
419.269	3.52
419.626	3.52
419.984	3.51
420.342	3.51
420.699	3.51
421.057	3.49
421.414	3.47
421.772	3.45
422.129	3.46
422.486	3.44
422.844	3.43
423.201	3.41
423.558	3.41
423.915	3.4
424.273	3.41
424.63	3.39
424.987	3.39
425.344	3.38
425.701	3.36
426.058	3.36
426.415	3.34
426.772	3.34
427.128	3.34
427.485	3.35
427.842	3.32
428.199	3.31
428.555	3.29
428.912	3.29
429.269	3.3
429.625	3.28
429.982	3.27
430.338	3.27
430.695	3.25
431.051	3.25
431.407	3.24
431.764	3.23
432.12	3.22
432.476	3.22
432.832	3.2
433.189	3.2
433.545	3.18
433.901	3.18
434.257	3.16
434.613	3.16
434.969	3.16
435.325	3.17
435.681	3.16
436.036	3.17
436.392	3.17
436.748	3.16
437.104	3.16
437.459	3.16
437.815	3.16
438.171	3.17
438.526	3.16
438.882	3.17
439.237	3.17
439.593	3.19
439.948	3.2
440.304	3.19
440.659	3.2
441.014	3.21
441.369	3.21
441.725	3.2
442.08	3.19
442.435	3.16
442.79	3.15
443.145	3.17
443.5	3.16
443.855	3.14
444.21	3.14
444.565	3.15
444.92	3.15
445.275	3.13
445.629	3.12
445.984	3.12
446.339	3.12
446.693	3.11
447.048	3.11
447.403	3.08
447.757	3.08
448.112	3.06
448.466	3.03
448.82	3.03
449.175	3.03
449.529	3.03
449.883	3.03
450.238	3.03
450.592	3.02
450.946	2.99
451.3	2.99
451.654	2.99
452.008	2.96
452.362	2.96
452.716	2.98
453.07	2.98
453.424	2.95
453.778	2.97
454.132	2.96
454.486	2.94
454.839	2.95
455.193	2.94
455.547	2.94
455.9	2.95
456.254	2.95
456.607	2.96
456.961	2.97
457.314	2.97
457.668	2.97
458.021	2.95
458.375	2.97
458.728	2.97
459.081	2.96
459.434	2.98
459.787	2.97
460.141	2.96
460.494	2.96
460.847	2.97
461.2	2.94
461.553	2.94
461.906	2.95
462.259	2.95
462.611	2.97
462.964	2.98
463.317	2.98
463.67	2.99
464.022	2.99
464.375	2.98
464.728	2.99
465.08	2.98
465.433	3.01
465.785	3.02
466.138	3.02
466.49	3.03
466.843	3.03
467.195	3.05
467.547	3.07
467.899	3.08
468.252	3.1
468.604	3.11
468.956	3.12
469.308	3.13
469.66	3.13
470.012	3.13
470.364	3.14
470.716	3.14
471.068	3.15
471.42	3.14
471.772	3.17
472.123	3.17
472.475	3.17
472.827	3.17
473.178	3.15
473.53	3.15
473.882	3.13
474.233	3.14
474.585	3.13
474.936	3.13
475.288	3.12
475.639	3.13
475.99	3.13
476.342	3.15
476.693	3.17
477.044	3.2
477.395	3.2
477.746	3.18
478.097	3.16
478.448	3.16
478.8	3.15
479.15	3.13
479.501	3.16
479.852	3.17
480.203	3.16
480.554	3.19
480.905	3.2
481.255	3.23
481.606	3.23
481.957	3.24
482.307	3.24
482.658	3.23
483.009	3.22
483.359	3.22
483.709	3.22
484.06	3.21
484.41	3.21
484.761	3.21
485.111	3.22
485.461	3.22
485.811	3.22
486.162	3.23
486.512	3.24
486.862	3.24
487.212	3.24
487.562	3.25
487.912	3.25
488.262	3.24
488.612	3.23
488.961	3.24
489.311	3.23
489.661	3.24
490.011	3.25
490.36	3.26
490.71	3.26
491.06	3.26
491.409	3.26
491.759	3.26
492.108	3.26
492.458	3.26
492.807	3.27
493.157	3.28
493.506	3.29
493.855	3.3
494.204	3.3
494.554	3.3
494.903	3.28
495.252	3.27
495.601	3.3
495.95	3.32
496.299	3.31
496.648	3.32
496.997	3.32
497.346	3.35
497.695	3.37
498.043	3.4
498.392	3.42
498.741	3.44
499.09	3.46
499.438	3.5
499.787	3.53
500.135	3.56
500.484	3.56
500.832	3.59
501.181	3.6
501.529	3.64
501.878	3.66
502.226	3.71
502.574	3.72
502.923	3.74
503.271	3.76
503.619	3.8
503.967	3.84
504.315	3.85
504.663	3.87
505.011	3.9
505.359	3.91
505.707	3.94
506.055	3.98
506.403	4.04
506.751	4.06
507.098	4.06
507.446	4.11
507.794	4.17
508.141	4.2
508.489	4.26
508.837	4.32
509.184	4.38
509.531	4.42
509.879	4.49
510.226	4.56
510.574	4.62
510.921	4.68
511.268	4.73
511.616	4.8
511.963	4.88
512.31	4.93
512.657	5
513.004	5.06
513.351	5.14
513.698	5.22
514.045	5.3
514.392	5.41
514.739	5.48
515.086	5.55
515.432	5.62
515.779	5.69
516.126	5.77
516.473	5.87
516.819	5.98
517.166	6.06
517.512	6.15
517.859	6.24
518.205	6.32
518.552	6.42
518.898	6.51
519.245	6.59
519.591	6.69
519.937	6.79
520.283	6.9
520.629	7.04
520.976	7.15
521.322	7.28
521.668	7.41
522.014	7.57
522.36	7.7
522.706	7.88
523.052	8.05
523.398	8.23
523.743	8.4
524.089	8.59
524.435	8.78
524.781	8.94
525.126	9.11
525.472	9.27
525.817	9.43
526.163	9.56
526.509	9.7
526.854	9.84
527.199	9.97
527.545	10.09
527.89	10.21
528.235	10.35
528.581	10.49
528.926	10.63
529.271	10.76
529.616	10.92
529.961	11.06
530.306	11.21
530.651	11.39
530.996	11.56
531.341	11.73
531.686	11.89
532.031	12.09
532.376	12.3
532.721	12.51
533.065	12.7
533.41	12.93
533.755	13.14
534.099	13.38
534.444	13.63
534.788	13.86
535.133	14.1
535.477	14.34
535.822	14.59
536.166	14.89
536.51	15.2
536.855	15.51
537.199	15.83
537.543	16.17
537.887	16.51
538.231	16.87
538.576	17.21
538.92	17.57
539.264	17.91
539.608	18.22
539.951	18.47
540.295	18.8
540.639	19.11
540.983	19.39
541.327	19.66
541.671	19.91
542.014	20.18
542.358	20.46
542.701	20.71
543.045	20.99
543.389	21.22
543.732	21.48
544.075	21.75
544.419	22.05
544.762	22.34
545.105	22.62
545.449	22.94
545.792	23.28
546.135	23.61
546.478	23.96
546.821	24.32
547.165	24.74
547.508	25.1
547.851	25.42
548.194	25.8
548.536	26.16
548.879	26.59
549.222	26.95
549.565	27.28
549.908	27.74
550.25	28.08
550.593	28.5
550.936	28.91
551.278	29.28
551.621	29.63
551.963	30.03
552.306	30.4
552.648	30.71
552.991	31.09
553.333	31.4
553.675	31.74
554.017	32.04
554.36	32.38
554.702	32.73
555.044	33.1
555.386	33.42
555.728	33.76
556.07	34.09
556.412	34.43
556.754	34.8
557.096	35.07
557.438	35.38
557.78	35.68
558.121	36.04
558.463	36.39
558.805	36.73
559.147	36.99
559.488	37.3
559.83	37.62
560.171	37.87
560.513	38.24
560.854	38.56
561.196	38.84
561.537	39.13
561.878	39.37
562.22	39.59
562.561	39.87
562.902	40.12
563.243	40.36
563.584	40.64
563.925	40.89
564.266	41.13
564.607	41.39
564.948	41.66
565.289	41.84
565.63	42.05
565.971	42.3
566.312	42.52
566.653	42.76
566.993	43.04
567.334	43.31
567.675	43.49
568.015	43.68
568.356	43.93
568.696	44.14
569.037	44.36
569.377	44.64
569.718	44.9
570.058	45.14
570.398	45.32
570.739	45.51
571.079	45.7
571.419	45.93
571.759	46.13
572.099	46.3
572.439	46.49
572.779	46.74
573.119	46.92
573.459	47.13
573.799	47.3
574.139	47.39
574.479	47.55
574.819	47.7
575.158	47.88
575.498	48.03
575.838	48.14
576.177	48.32
576.517	48.41
576.856	48.49
577.196	48.64
577.535	48.87
577.875	49
578.214	49.19
578.553	49.34
578.893	49.53
579.232	49.7
579.571	49.85
579.91	49.92
580.25	50.1
580.589	50.19
580.928	50.27
581.267	50.48
581.606	50.53
581.945	50.72
582.283	50.85
582.622	51.05
582.961	51.31
583.3	51.41
583.639	51.6
583.977	51.82
584.316	51.93
584.654	52.04
584.993	52.2
585.332	52.34
585.67	52.43
586.008	52.51
586.347	52.61
586.685	52.7
587.024	52.87
587.362	52.94
587.7	53.11
588.038	53.29
588.376	53.39
588.715	53.59
589.053	53.75
589.391	53.82
589.729	53.95
590.067	53.97
590.404	54.05
590.742	54.16
591.08	54.2
591.418	54.31
591.756	54.46
592.093	54.51
592.431	54.6
592.769	54.66
593.106	54.81
593.444	54.89
593.781	55.03
594.119	55.17
594.456	55.2
594.793	55.26
595.131	55.32
595.468	55.42
595.805	55.55
596.143	55.56
596.48	55.65
596.817	55.7
597.154	55.77
597.491	55.86
597.828	55.88
598.165	55.9
598.502	56
598.839	56.04
599.176	56.18
599.512	56.3
599.849	56.49
600.186	56.6
600.523	56.69
600.859	56.82
601.196	56.83
601.532	56.9
601.869	56.98
602.205	57.06
602.542	57.12
602.878	57.16
603.215	57.22
603.551	57.32
603.887	57.42
604.223	57.49
604.56	57.55
604.896	57.64
605.232	57.77
605.568	57.77
605.904	57.77
606.24	57.83
606.576	57.82
606.912	57.84
607.248	57.85
607.583	57.89
607.919	57.85
608.255	57.86
608.591	57.98
608.926	58.02
609.262	58.02
609.597	58.04
609.933	57.96
610.268	58.03
610.604	58.11
610.939	58.07
611.275	58.14
611.61	58.16
611.945	58.26
612.281	58.28
612.616	58.38
612.951	58.48
613.286	58.53
613.621	58.54
613.956	58.52
614.291	58.57
614.626	58.63
614.961	58.73
615.296	58.8
615.631	58.86
615.966	58.92
616.3	59.05
616.635	59.11
616.97	59.26
617.304	59.27
617.639	59.29
617.973	59.36
618.308	59.38
618.642	59.47
618.977	59.51
619.311	59.6
619.646	59.62
619.98	59.64
620.314	59.61
620.648	59.69
620.983	59.8
621.317	59.78
621.651	59.86
621.985	59.96
622.319	60.01
622.653	60.08
622.987	60.12
623.321	60.15
623.655	60.22
623.988	60.32
624.322	60.25
624.656	60.17
624.99	60.18
625.323	60.15
625.657	60.21
625.99	60.24
626.324	60.22
626.657	60.27
626.991	60.39
627.324	60.42
627.658	60.47
627.991	60.51
628.324	60.57
628.657	60.51
628.991	60.52
629.324	60.52
629.657	60.53
629.99	60.48
630.323	60.51
630.656	60.54
630.989	60.48
631.322	60.65
631.655	60.76
631.987	60.75
632.32	60.81
632.653	60.8
632.986	60.69
633.318	60.77
633.651	60.66
633.984	60.56
634.316	60.54
634.649	60.48
634.981	60.44
635.313	60.49
635.646	60.6
635.978	60.59
636.31	60.73
636.643	60.71
636.975	60.76
637.307	60.8
637.639	60.82
637.971	60.88
638.303	60.8
638.635	60.77
638.967	60.82
639.299	60.91
639.631	60.92
639.963	61.06
640.295	61.14
640.626	61.32
640.958	61.33
641.29	61.42
641.621	61.53
641.953	61.56
642.285	61.5
642.616	61.43
642.948	61.41
643.279	61.43
643.61	61.51
643.942	61.57
644.273	61.52
644.604	61.48
644.936	61.42
645.267	61.55
645.598	61.43
645.929	61.52
646.26	61.56
646.591	61.55
646.922	61.54
647.253	61.45
647.584	61.5
647.915	61.57
648.245	61.57
648.576	61.56
648.907	61.65
649.238	61.7
649.568	61.75
649.899	61.73
650.229	61.64
650.56	61.69
650.89	61.86
651.221	61.86
651.551	61.87
651.882	61.91
652.212	61.94
652.542	62.17
652.872	62.13
653.203	62.15
653.533	62.22
653.863	62.21
654.193	62.39
654.523	62.53
654.853	62.61
655.183	62.68
655.513	62.6
655.843	62.77
656.172	62.84
656.502	62.87
656.832	63.03
657.162	63.01
657.491	62.96
657.821	62.81
658.15	62.92
658.48	62.87
658.809	62.99
659.139	62.98
659.468	62.98
659.798	62.89
660.127	62.93
660.456	63.03
660.785	63.03
661.115	62.94
661.444	62.75
661.773	62.73
662.102	62.7
662.431	62.88
662.76	62.79
663.089	62.78
663.418	62.77
663.747	62.72
664.076	62.8
664.404	62.9
664.733	62.98
665.062	62.81
665.39	62.91
665.719	62.88
666.048	63
666.376	63
666.705	63.29
667.033	63.23
