Data from BA57758_Reflection_00014.txt Node
Date: Mon Nov 18 15:12:02 EST 2019
User: vgr7
Spectrometer: USB2G7710
Scans to average: 3
Trigger mode: 4
Integration Time (sec): 2.000000E-2
Electric dark correction enabled: true
Boxcar width: 10
XAxis mode: Wavelengths
Number of Pixels in Spectrum: 2048
>>>>>Begin Spectral Data<<<<<
177.721	-53.85
178.105	23.77
178.488	-37.16
178.871	-125.89
179.254	-63.59
179.636	591.53
180.019	713.86
180.402	-680
180.785	-208.32
181.168	-69.84
181.55	-30.02
181.933	57.41
182.316	63.99
182.698	98.18
183.081	73.22
183.463	243.92
183.846	306.09
184.228	139.64
184.611	198.32
184.993	153.12
185.376	176.67
185.758	186.96
186.14	171.48
186.522	144.42
186.904	95.91
187.287	125.63
187.669	172.06
188.051	265.81
188.433	293.22
188.815	370.82
189.197	533.76
189.579	533.57
189.961	417.74
190.342	1131.8
190.724	1370.14
191.106	1912.15
191.488	4593.15
191.869	-1042.86
192.251	-334.78
192.633	-328.72
193.014	-452.8
193.396	-444.29
193.777	-582.4
194.159	-616.52
194.54	-332.97
194.922	-261.52
195.303	-214.88
195.684	-140.69
196.065	-79.71
196.447	-66.39
196.828	-79.66
197.209	-67.63
197.59	-108.4
197.971	-97.5
198.352	-90.72
198.733	-96.14
199.114	-57.99
199.495	-56.53
199.876	-68.44
200.257	-55.65
200.638	-51.08
201.018	-67.41
201.399	-60.68
201.78	-53.63
202.16	-48.41
202.541	-62.07
202.922	-90.63
203.302	-110.56
203.683	-131.49
204.063	-251.07
204.444	-259.26
204.824	-250.11
205.204	-444.88
205.585	-249.55
205.965	-268.35
206.345	-278.97
206.725	-710.43
207.106	-1221.34
207.486	-887.43
207.866	-888.2
208.246	-2016.73
208.626	-2361.54
209.006	-608.97
209.386	19460
209.766	-1129.12
210.145	-929.26
210.525	-1559.31
210.905	-284.76
211.285	-174.84
211.664	-111.36
212.044	-95.8
212.424	-84.96
212.803	-68.51
213.183	-77.42
213.562	-79.85
213.942	-74.9
214.321	-95.28
214.701	-64.85
215.08	-75.52
215.459	-68.33
215.838	-66.27
216.218	-63.92
216.597	-55.08
216.976	-70.1
217.355	-53.13
217.734	-45.39
218.113	-43
218.492	-31.98
218.871	-35.67
219.25	-41.88
219.629	-80.54
220.008	-77.03
220.387	-89.79
220.766	-108.24
221.144	-133.14
221.523	-124.64
221.902	-171.15
222.28	-131.48
222.659	-126.85
223.037	-118.72
223.416	-101.6
223.794	-83.59
224.173	-76.46
224.551	-67.48
224.929	-40.99
225.308	-29.29
225.686	-36.05
226.064	-30.51
226.442	-27.69
226.821	-20.29
227.199	-20.36
227.577	-15.47
227.955	-17.95
228.333	-14.92
228.711	-13.67
229.089	-6.05
229.467	-10
229.845	-7.36
230.222	-5.66
230.6	-7.29
230.978	-6.92
231.356	-7.36
231.733	-8.14
232.111	-7.45
232.488	-5.26
232.866	-7.16
233.243	-7.26
233.621	-5.59
233.998	-6.26
234.376	-9.35
234.753	-10.62
235.13	-10.36
235.508	-9.49
235.885	-7.86
236.262	-7.67
236.639	-6.75
237.016	-8.27
237.393	-5.33
237.77	-5.57
238.147	-4.53
238.524	-3.28
238.901	-1.67
239.278	-1.07
239.655	0.57
240.032	1.17
240.409	0.75
240.785	1.33
241.162	1.31
241.539	1.7
241.915	1.92
242.292	2.59
242.668	2.44
243.045	2.74
243.421	3.16
243.798	3.32
244.174	3.06
244.551	3.17
244.927	3.24
245.303	3.24
245.679	3.71
246.056	3.77
246.432	3.57
246.808	3.54
247.184	3.61
247.56	3.47
247.936	3.19
248.312	3.23
248.688	3.22
249.064	3.26
249.44	3.34
249.815	3.55
250.191	3.63
250.567	4
250.943	4.01
251.318	3.79
251.694	3.67
252.069	3.69
252.445	3.71
252.82	3.86
253.196	3.88
253.571	3.58
253.947	3.39
254.322	3.92
254.697	3.73
255.073	3.37
255.448	3.2
255.823	3.3
256.198	3.26
256.573	2.87
256.948	2.96
257.323	2.9
257.698	2.75
258.073	2.8
258.448	2.65
258.823	2.46
259.198	2.46
259.573	2.42
259.948	2.68
260.322	2.56
260.697	2.53
261.072	2.35
261.446	2.46
261.821	2.46
262.195	2.44
262.57	2.59
262.944	2.76
263.319	2.79
263.693	2.78
264.067	2.82
264.442	3.01
264.816	2.82
265.19	2.68
265.564	2.8
265.938	2.7
266.313	2.65
266.687	2.86
267.061	2.87
267.435	2.99
267.809	2.96
268.183	3.15
268.556	3.07
268.93	3.19
269.304	3.32
269.678	3.29
270.051	3.07
270.425	2.87
270.799	2.72
271.172	2.72
271.546	2.83
271.919	2.84
272.293	2.92
272.666	3.08
273.04	3.13
273.413	3.14
273.787	3.29
274.16	3.22
274.533	3.25
274.906	3.25
275.279	3.34
275.653	3.31
276.026	3.24
276.399	3.25
276.772	3.31
277.145	3.08
277.518	3.19
277.891	3.33
278.263	3.49
278.636	3.57
279.009	3.41
279.382	3.36
279.755	3.25
280.127	3.28
280.5	3.41
280.872	3.45
281.245	3.35
281.617	3.29
281.99	3.42
282.362	3.29
282.735	3.29
283.107	3.22
283.479	3.16
283.852	3.14
284.224	3.18
284.596	3.23
284.968	3.36
285.34	3.32
285.713	3.24
286.085	3.3
286.457	3.23
286.829	3.48
287.201	3.43
287.572	3.45
287.944	3.27
288.316	3.15
288.688	3.12
289.06	3.07
289.431	3.05
289.803	2.97
290.175	3.14
290.546	3.23
290.918	3.16
291.289	3.17
291.661	3.1
292.032	3.22
292.403	3.15
292.775	3.17
293.146	3.18
293.517	3.09
293.889	2.98
294.26	3.13
294.631	2.99
295.002	3.01
295.373	2.95
295.744	3.06
296.115	2.95
296.486	2.86
296.857	2.93
297.228	2.94
297.599	2.99
297.97	2.91
298.34	2.9
298.711	3.06
299.082	3.09
299.452	3.14
299.823	3.19
300.194	3.23
300.564	3.17
300.935	3.18
301.305	3.28
301.676	3.38
302.046	3.39
302.416	3.42
302.787	3.41
303.157	3.49
303.527	3.53
303.897	3.8
304.267	4.09
304.637	4.2
305.008	4.28
305.378	4.26
305.748	4.26
306.117	4.13
306.487	4.08
306.857	4.14
307.227	4.17
307.597	4.08
307.967	4.26
308.336	4.34
308.706	4.3
309.076	4.47
309.445	4.45
309.815	4.42
310.184	4.49
310.554	4.6
310.923	4.67
311.293	4.59
311.662	4.45
312.031	4.38
312.401	4.4
312.77	4.5
313.139	4.56
313.508	4.71
313.877	4.88
314.246	4.8
314.616	4.88
314.985	4.86
315.353	4.87
315.722	4.85
316.091	4.76
316.46	4.74
316.829	4.66
317.198	4.68
317.567	4.63
317.935	4.72
318.304	4.76
318.672	4.86
319.041	5.11
319.41	5.38
319.778	5.44
320.147	5.54
320.515	5.55
320.883	5.4
321.252	5.4
321.62	5.44
321.988	5.55
322.357	5.5
322.725	5.67
323.093	5.76
323.461	5.84
323.829	6.04
324.197	6.24
324.565	6.32
324.933	6.31
325.301	6.38
325.669	6.31
326.037	6.31
326.405	6.33
326.772	6.34
327.14	6.3
327.508	6.42
327.875	6.36
328.243	6.48
328.61	6.71
328.978	6.77
329.346	6.77
329.713	6.73
330.08	6.71
330.448	6.61
330.815	6.59
331.182	6.42
331.55	6.41
331.917	6.46
332.284	6.61
332.651	6.69
333.018	6.63
333.385	6.72
333.752	6.79
334.119	6.84
334.486	6.84
334.853	6.8
335.22	6.68
335.587	6.62
335.954	6.46
336.32	6.35
336.687	6.29
337.054	6.23
337.42	6.43
337.787	6.53
338.153	6.58
338.52	6.54
338.886	6.62
339.253	6.52
339.619	6.49
339.986	6.44
340.352	6.52
340.718	6.59
341.084	6.57
341.451	6.54
341.817	6.46
342.183	6.32
342.549	6.35
342.915	6.44
343.281	6.56
343.647	6.57
344.013	6.71
344.379	6.75
344.745	6.76
345.11	6.73
345.476	6.82
345.842	6.76
346.208	6.96
346.573	7.07
346.939	7.17
347.304	7.11
347.67	7.05
348.035	6.97
348.401	7.07
348.766	7.09
349.132	7.1
349.497	7.14
349.862	7.29
350.228	7.31
350.593	7.29
350.958	7.28
351.323	7.33
351.688	7.32
352.053	7.27
352.418	7.4
352.783	7.5
353.148	7.33
353.513	7.41
353.878	7.29
354.243	7.3
354.608	7.31
354.972	7.38
355.337	7.46
355.702	7.48
356.066	7.48
356.431	7.48
356.795	7.46
357.16	7.44
357.524	7.31
357.889	7.23
358.253	7.18
358.618	7.17
358.982	7.12
359.346	7.06
359.71	7.11
360.075	7.02
360.439	6.88
360.803	6.88
361.167	6.84
361.531	6.83
361.895	6.74
362.259	6.65
362.623	6.64
362.987	6.59
363.351	6.58
363.714	6.52
364.078	6.46
364.442	6.39
364.806	6.36
365.169	6.37
365.533	6.36
365.896	6.33
366.26	6.23
366.623	6.2
366.987	6.19
367.35	6.1
367.714	6.09
368.077	6.06
368.44	6.02
368.803	6.03
369.167	5.97
369.53	5.93
369.893	5.92
370.256	5.82
370.619	5.72
370.982	5.65
371.345	5.59
371.708	5.57
372.071	5.51
372.434	5.43
372.797	5.37
373.159	5.31
373.522	5.29
373.885	5.32
374.247	5.26
374.61	5.2
374.973	5.2
375.335	5.17
375.698	5.19
376.06	5.18
376.423	5.13
376.785	5.1
377.147	5.09
377.51	5.04
377.872	5.09
378.234	5.07
378.596	4.99
378.958	4.86
379.321	4.82
379.683	4.82
380.045	4.78
380.407	4.78
380.769	4.76
381.13	4.7
381.492	4.63
381.854	4.65
382.216	4.6
382.578	4.52
382.939	4.47
383.301	4.39
383.663	4.34
384.024	4.23
384.386	4.23
384.747	4.21
385.109	4.22
385.47	4.1
385.832	4.06
386.193	4.08
386.554	4.1
386.916	4.06
387.277	4.04
387.638	4.03
387.999	3.93
388.36	3.94
388.721	3.9
389.082	3.9
389.443	3.83
389.804	3.82
390.165	3.78
390.526	3.76
390.887	3.74
391.248	3.74
391.609	3.79
391.969	3.75
392.33	3.67
392.691	3.63
393.051	3.61
393.412	3.6
393.772	3.58
394.133	3.56
394.493	3.56
394.854	3.52
395.214	3.5
395.574	3.53
395.935	3.5
396.295	3.53
396.655	3.48
397.015	3.46
397.376	3.43
397.736	3.43
398.096	3.4
398.456	3.36
398.816	3.34
399.176	3.27
399.535	3.22
399.895	3.23
400.255	3.21
400.615	3.22
400.975	3.19
401.334	3.21
401.694	3.16
402.054	3.15
402.413	3.14
402.773	3.12
403.132	3.09
403.492	3.09
403.851	3.04
404.211	3.04
404.57	3.01
404.929	3
405.288	2.98
405.648	2.92
406.007	2.91
406.366	2.86
406.725	2.89
407.084	2.88
407.443	2.85
407.802	2.84
408.161	2.81
408.52	2.78
408.879	2.74
409.238	2.74
409.596	2.73
409.955	2.71
410.314	2.69
410.673	2.66
411.031	2.64
411.39	2.63
411.748	2.62
412.107	2.6
412.465	2.57
412.824	2.57
413.182	2.58
413.54	2.59
413.899	2.62
414.257	2.6
414.615	2.59
414.974	2.6
415.332	2.57
415.69	2.56
416.048	2.57
416.406	2.59
416.764	2.57
417.122	2.55
417.48	2.53
417.838	2.56
418.195	2.56
418.553	2.52
418.911	2.53
419.269	2.52
419.626	2.52
419.984	2.5
420.342	2.49
420.699	2.5
421.057	2.48
421.414	2.46
421.772	2.44
422.129	2.44
422.486	2.43
422.844	2.44
423.201	2.42
423.558	2.42
423.915	2.41
424.273	2.41
424.63	2.4
424.987	2.39
425.344	2.37
425.701	2.37
426.058	2.37
426.415	2.36
426.772	2.35
427.128	2.35
427.485	2.35
427.842	2.35
428.199	2.33
428.555	2.34
428.912	2.35
429.269	2.36
429.625	2.37
429.982	2.38
430.338	2.36
430.695	2.38
431.051	2.35
431.407	2.32
431.764	2.33
432.12	2.3
432.476	2.32
432.832	2.31
433.189	2.31
433.545	2.3
433.901	2.28
434.257	2.29
434.613	2.3
434.969	2.31
435.325	2.31
435.681	2.32
436.036	2.3
436.392	2.28
436.748	2.27
437.104	2.26
437.459	2.25
437.815	2.26
438.171	2.25
438.526	2.28
438.882	2.29
439.237	2.27
439.593	2.3
439.948	2.29
440.304	2.29
440.659	2.28
441.014	2.28
441.369	2.27
441.725	2.27
442.08	2.26
442.435	2.25
442.79	2.26
443.145	2.27
443.5	2.27
443.855	2.27
444.21	2.27
444.565	2.28
444.92	2.27
445.275	2.26
445.629	2.25
445.984	2.23
446.339	2.2
446.693	2.2
447.048	2.19
447.403	2.18
447.757	2.17
448.112	2.17
448.466	2.17
448.82	2.18
449.175	2.19
449.529	2.19
449.883	2.15
450.238	2.14
450.592	2.14
450.946	2.14
451.3	2.13
451.654	2.11
452.008	2.1
452.362	2.1
452.716	2.09
453.07	2.1
453.424	2.1
453.778	2.12
454.132	2.11
454.486	2.12
454.839	2.1
455.193	2.09
455.547	2.08
455.9	2.1
456.254	2.1
456.607	2.09
456.961	2.09
457.314	2.11
457.668	2.1
458.021	2.07
458.375	2.09
458.728	2.11
459.081	2.12
459.434	2.11
459.787	2.13
460.141	2.13
460.494	2.15
460.847	2.15
461.2	2.14
461.553	2.15
461.906	2.16
462.259	2.2
462.611	2.2
462.964	2.22
463.317	2.22
463.67	2.24
464.022	2.25
464.375	2.25
464.728	2.27
465.08	2.28
465.433	2.3
465.785	2.29
466.138	2.28
466.49	2.27
466.843	2.28
467.195	2.28
467.547	2.27
467.899	2.29
468.252	2.27
468.604	2.29
468.956	2.29
469.308	2.3
469.66	2.27
470.012	2.29
470.364	2.3
470.716	2.29
471.068	2.26
471.42	2.27
471.772	2.29
472.123	2.31
472.475	2.31
472.827	2.3
473.178	2.3
473.53	2.3
473.882	2.31
474.233	2.31
474.585	2.29
474.936	2.32
475.288	2.28
475.639	2.29
475.99	2.29
476.342	2.29
476.693	2.29
477.044	2.3
477.395	2.3
477.746	2.3
478.097	2.31
478.448	2.31
478.8	2.3
479.15	2.29
479.501	2.28
479.852	2.29
480.203	2.29
480.554	2.3
480.905	2.3
481.255	2.31
481.606	2.32
481.957	2.34
482.307	2.33
482.658	2.34
483.009	2.34
483.359	2.34
483.709	2.34
484.06	2.34
484.41	2.34
484.761	2.34
485.111	2.34
485.461	2.34
485.811	2.34
486.162	2.34
486.512	2.34
486.862	2.34
487.212	2.35
487.562	2.36
487.912	2.36
488.262	2.36
488.612	2.36
488.961	2.36
489.311	2.36
489.661	2.35
490.011	2.36
490.36	2.36
490.71	2.38
491.06	2.38
491.409	2.38
491.759	2.4
492.108	2.41
492.458	2.42
492.807	2.41
493.157	2.42
493.506	2.44
493.855	2.45
494.204	2.45
494.554	2.46
494.903	2.46
495.252	2.48
495.601	2.51
495.95	2.51
496.299	2.51
496.648	2.54
496.997	2.57
497.346	2.6
497.695	2.62
498.043	2.65
498.392	2.65
498.741	2.69
499.09	2.68
499.438	2.71
499.787	2.75
500.135	2.78
500.484	2.82
500.832	2.85
501.181	2.88
501.529	2.92
501.878	2.96
502.226	3
502.574	3.04
502.923	3.07
503.271	3.12
503.619	3.18
503.967	3.19
504.315	3.23
504.663	3.28
505.011	3.33
505.359	3.37
505.707	3.43
506.055	3.48
506.403	3.55
506.751	3.59
507.098	3.65
507.446	3.7
507.794	3.75
508.141	3.81
508.489	3.88
508.837	3.96
509.184	4.02
509.531	4.09
509.879	4.18
510.226	4.24
510.574	4.3
510.921	4.38
511.268	4.47
511.616	4.56
511.963	4.63
512.31	4.71
512.657	4.8
513.004	4.9
513.351	5.01
513.698	5.11
514.045	5.21
514.392	5.32
514.739	5.41
515.086	5.52
515.432	5.62
515.779	5.74
516.126	5.84
516.473	5.97
516.819	6.09
517.166	6.17
517.512	6.28
517.859	6.4
518.205	6.49
518.552	6.59
518.898	6.69
519.245	6.79
519.591	6.87
519.937	6.97
520.283	7.09
520.629	7.21
520.976	7.35
521.322	7.49
521.668	7.62
522.014	7.78
522.36	7.95
522.706	8.1
523.052	8.29
523.398	8.47
523.743	8.68
524.089	8.86
524.435	9.04
524.781	9.23
525.126	9.4
525.472	9.57
525.817	9.75
526.163	9.9
526.509	10.05
526.854	10.21
527.199	10.35
527.545	10.45
527.89	10.59
528.235	10.73
528.581	10.86
528.926	10.99
529.271	11.12
529.616	11.25
529.961	11.41
530.306	11.55
530.651	11.71
530.996	11.86
531.341	12.02
531.686	12.2
532.031	12.38
532.376	12.56
532.721	12.76
533.065	12.93
533.41	13.13
533.755	13.33
534.099	13.54
534.444	13.74
534.788	13.97
535.133	14.15
535.477	14.37
535.822	14.61
536.166	14.87
536.51	15.15
536.855	15.43
537.199	15.72
537.543	16.01
537.887	16.3
538.231	16.6
538.576	16.91
538.92	17.24
539.264	17.49
539.608	17.78
539.951	18.02
540.295	18.25
540.639	18.51
540.983	18.74
541.327	18.96
541.671	19.19
542.014	19.43
542.358	19.67
542.701	19.9
543.045	20.11
543.389	20.32
543.732	20.55
544.075	20.77
544.419	20.97
544.762	21.21
545.105	21.45
545.449	21.7
545.792	21.98
546.135	22.24
546.478	22.57
546.821	22.84
547.165	23.19
547.508	23.54
547.851	23.84
548.194	24.15
548.536	24.51
548.879	24.85
549.222	25.16
549.565	25.45
549.908	25.78
550.25	26.12
550.593	26.47
550.936	26.8
551.278	27.14
551.621	27.52
551.963	27.87
552.306	28.18
552.648	28.45
552.991	28.77
553.333	29.05
553.675	29.33
554.017	29.61
554.36	29.84
554.702	30.13
555.044	30.38
555.386	30.65
555.728	30.88
556.07	31.17
556.412	31.51
556.754	31.86
557.096	32.08
557.438	32.34
557.78	32.6
558.121	32.88
558.463	33.2
558.805	33.43
559.147	33.69
559.488	34.04
559.83	34.32
560.171	34.53
560.513	34.79
560.854	35.05
561.196	35.32
561.537	35.58
561.878	35.73
562.22	36
562.561	36.25
562.902	36.5
563.243	36.63
563.584	36.79
563.925	36.95
564.266	37.19
564.607	37.39
564.948	37.59
565.289	37.75
565.63	37.92
565.971	38.11
566.312	38.27
566.653	38.43
566.993	38.59
567.334	38.8
567.675	39.01
568.015	39.11
568.356	39.34
568.696	39.49
569.037	39.69
569.377	39.85
569.718	40
570.058	40.16
570.398	40.35
570.739	40.51
571.079	40.69
571.419	40.85
571.759	41.04
572.099	41.17
572.439	41.29
572.779	41.42
573.119	41.57
573.459	41.7
573.799	41.8
574.139	41.96
574.479	42.08
574.819	42.17
575.158	42.37
575.498	42.47
575.838	42.6
576.177	42.73
576.517	42.86
576.856	42.96
577.196	43.1
577.535	43.25
577.875	43.36
578.214	43.47
578.553	43.58
578.893	43.72
579.232	43.87
579.571	44.01
579.91	44.16
580.25	44.25
580.589	44.43
580.928	44.57
581.267	44.67
581.606	44.77
581.945	44.85
582.283	44.89
582.622	44.98
582.961	45.14
583.3	45.2
583.639	45.28
583.977	45.44
584.316	45.52
584.654	45.59
584.993	45.71
585.332	45.79
585.67	45.85
586.008	45.85
586.347	45.91
586.685	45.99
587.024	46.01
587.362	46.1
587.7	46.13
588.038	46.21
588.376	46.32
588.715	46.37
589.053	46.49
589.391	46.56
589.729	46.64
590.067	46.65
590.404	46.75
590.742	46.82
591.08	46.9
591.418	46.95
591.756	47.05
592.093	47.09
592.431	47.19
592.769	47.29
593.106	47.34
593.444	47.46
593.781	47.55
594.119	47.62
594.456	47.71
594.793	47.75
595.131	47.78
595.468	47.84
595.805	47.96
596.143	48.08
596.48	48.17
596.817	48.16
597.154	48.27
597.491	48.35
597.828	48.46
598.165	48.54
598.502	48.57
598.839	48.66
599.176	48.68
599.512	48.75
599.849	48.81
600.186	48.9
600.523	48.94
600.859	49
601.196	49.09
601.532	49.19
601.869	49.24
602.205	49.33
602.542	49.3
602.878	49.3
603.215	49.24
603.551	49.29
603.887	49.4
604.223	49.4
604.56	49.38
604.896	49.41
605.232	49.4
605.568	49.42
605.904	49.39
606.24	49.52
606.576	49.52
606.912	49.62
607.248	49.67
607.583	49.7
607.919	49.73
608.255	49.74
608.591	49.74
608.926	49.78
609.262	49.79
609.597	49.88
609.933	49.9
610.268	49.99
610.604	49.99
610.939	49.96
611.275	50
611.61	50.07
611.945	50.07
612.281	50.1
612.616	50.18
612.951	50.27
613.286	50.25
613.621	50.36
613.956	50.26
614.291	50.33
614.626	50.42
614.961	50.46
615.296	50.44
615.631	50.51
615.966	50.6
616.3	50.69
616.635	50.68
616.97	50.73
617.304	50.77
617.639	50.86
617.973	50.96
618.308	51.01
618.642	51.05
618.977	51.05
619.311	51.09
619.646	51.16
619.98	51.16
620.314	51.14
620.648	51.1
620.983	51.15
621.317	51.13
621.651	51.11
621.985	51.08
622.319	51.13
622.653	51.11
622.987	51.09
623.321	51.06
623.655	51.13
623.988	51.16
624.322	51.2
624.656	51.19
624.99	51.23
625.323	51.21
625.657	51.21
625.99	51.24
626.324	51.26
626.657	51.3
626.991	51.32
627.324	51.42
627.658	51.49
627.991	51.61
628.324	51.67
628.657	51.59
628.991	51.7
629.324	51.71
629.657	51.7
629.99	51.77
630.323	51.75
630.656	51.82
630.989	51.91
631.322	51.92
631.655	51.89
631.987	51.89
632.32	51.96
632.653	52
632.986	51.97
633.318	51.99
633.651	52
633.984	51.98
634.316	51.94
634.649	51.87
634.981	51.85
635.313	51.78
635.646	51.9
635.978	51.89
636.31	51.97
636.643	51.98
636.975	51.97
637.307	52.12
637.639	52.15
637.971	52.11
638.303	52.2
638.635	52.3
638.967	52.3
639.299	52.3
639.631	52.31
639.963	52.36
640.295	52.41
640.626	52.37
640.958	52.43
641.29	52.55
641.621	52.66
641.953	52.7
642.285	52.75
642.616	52.87
642.948	52.91
643.279	52.88
643.61	52.96
643.942	52.89
644.273	52.82
644.604	52.78
644.936	52.68
645.267	52.61
645.598	52.52
645.929	52.54
646.26	52.49
646.591	52.49
646.922	52.42
647.253	52.45
647.584	52.45
647.915	52.41
648.245	52.34
648.576	52.28
648.907	52.18
649.238	52.21
649.568	52.18
649.899	52.12
650.229	52.11
650.56	52.12
650.89	52.16
651.221	52.18
651.551	52.13
651.882	52.25
652.212	52.3
652.542	52.31
652.872	52.29
653.203	52.28
653.533	52.36
653.863	52.48
654.193	52.45
654.523	52.49
654.853	52.55
655.183	52.5
655.513	52.48
655.843	52.44
656.172	52.44
656.502	52.48
656.832	52.52
657.162	52.58
657.491	52.63
657.821	52.64
658.15	52.48
658.48	52.6
658.809	52.54
659.139	52.55
659.468	52.6
659.798	52.61
660.127	52.67
660.456	52.71
660.785	52.75
661.115	52.74
661.444	52.74
661.773	52.78
662.102	52.85
662.431	52.87
662.76	52.94
663.089	52.96
663.418	52.95
663.747	53
664.076	53.08
664.404	53.03
664.733	53.15
665.062	53.47
665.39	53.39
665.719	53.48
666.048	53.42
