Data from BA57712_Reflection_00006.txt Node
Date: Mon Nov 18 15:19:21 EST 2019
User: vgr7
Spectrometer: USB2G7710
Scans to average: 3
Trigger mode: 4
Integration Time (sec): 2.000000E-2
Electric dark correction enabled: true
Boxcar width: 10
XAxis mode: Wavelengths
Number of Pixels in Spectrum: 2048
>>>>>Begin Spectral Data<<<<<
177.721	-380.03
178.105	-255.31
178.488	-99.14
178.871	-65.67
179.254	-19.87
179.636	-68.13
180.019	-6.71
180.402	43.18
180.785	0.69
181.168	-344.44
181.55	31.57
181.933	65.73
182.316	49.27
182.698	35.09
183.081	49.14
183.463	33.84
183.846	50.88
184.228	64.72
184.611	41.48
184.993	-0.08
185.376	-0.43
185.758	-12.83
186.14	28.36
186.522	30.77
186.904	80.47
187.287	99.32
187.669	196.4
188.051	271.72
188.433	239.03
188.815	223.32
189.197	670.96
189.579	-441.33
189.961	-72.08
190.342	-99.46
190.724	-96.31
191.106	-59.96
191.488	-29.45
191.869	-13.58
192.251	-21.58
192.633	-29.7
193.014	-34.23
193.396	-106.92
193.777	-130.14
194.159	-107.51
194.54	-61.21
194.922	-28.13
195.303	-20.68
195.684	10.11
196.065	-2.85
196.447	-18.96
196.828	-17.1
197.209	-17.98
197.59	-44.13
197.971	-53.02
198.352	-24.02
198.733	-36.98
199.114	-31.17
199.495	-23.61
199.876	-15.69
200.257	-6
200.638	-1.88
201.018	-13.21
201.399	-11.77
201.78	-7.81
202.16	-13.9
202.541	-36.65
202.922	-67.87
203.302	-81.85
203.683	-97.48
204.063	-109.85
204.444	-119.5
204.824	-111.32
205.204	-115.93
205.585	-81.85
205.965	-121.51
206.345	-144.84
206.725	-183.46
207.106	-403.5
207.486	-1091.21
207.866	394
208.246	242.5
208.626	257.26
209.006	352.91
209.386	330.41
209.766	328.61
210.145	173.84
210.525	218.71
210.905	334.81
211.285	346.06
211.664	206.62
212.044	268.25
212.424	358.57
212.803	387.75
213.183	-152.2
213.562	-161.71
213.942	-32.38
214.321	103.17
214.701	36.05
215.08	22.12
215.459	15.83
215.838	10.67
216.218	2.52
216.597	-14.08
216.976	-0.73
217.355	-2.77
217.734	-15.01
218.113	-0.48
218.492	-5.18
218.871	-11.27
219.25	-0.66
219.629	-20.89
220.008	-34.1
220.387	-18.88
220.766	-18.62
221.144	-53.59
221.523	-82.99
221.902	-88.99
222.28	-101.42
222.659	-81.58
223.037	-76.68
223.416	-89.98
223.794	-68.71
224.173	-85.19
224.551	-71.37
224.929	-75.66
225.308	-59.84
225.686	-41.84
226.064	-40.89
226.442	-28.89
226.821	-20.63
227.199	-15.95
227.577	-15.62
227.955	-12.69
228.333	-11.36
228.711	-8.58
229.089	-3.46
229.467	-3.3
229.845	-2.33
230.222	0.05
230.6	-2.97
230.978	-2.14
231.356	-2.41
231.733	-4.74
232.111	-2.53
232.488	-0.81
232.866	-1.62
233.243	-0.7
233.621	-1.44
233.998	-0.6
234.376	-0.11
234.753	-0.15
235.13	-0.12
235.508	2.06
235.885	-0.59
236.262	-0.22
236.639	-0.24
237.016	-0.24
237.393	1.46
237.77	3.63
238.147	3.1
238.524	3.99
238.901	4.55
239.278	4.74
239.655	5.8
240.032	5.28
240.409	4.91
240.785	5.46
241.162	5.15
241.539	4.86
241.915	4.6
242.292	3.96
242.668	4.1
243.045	4.21
243.421	4.24
243.798	4.59
244.174	4.43
244.551	4.17
244.927	4.21
245.303	4.3
245.679	4.1
246.056	4.14
246.432	4.09
246.808	4.06
247.184	4.01
247.56	3.78
247.936	3.73
248.312	3.83
248.688	3.89
249.064	3.81
249.44	3.86
249.815	3.96
250.191	4.17
250.567	4.23
250.943	4.03
251.318	3.88
251.694	3.75
252.069	3.62
252.445	3.73
252.82	3.76
253.196	3.43
253.571	3.2
253.947	3.56
254.322	3.78
254.697	3.32
255.073	3.33
255.448	3.44
255.823	3.72
256.198	3.91
256.573	3.66
256.948	3.83
257.323	3.96
257.698	3.95
258.073	4.01
258.448	3.92
258.823	4.19
259.198	4.11
259.573	4.3
259.948	4.41
260.322	4.3
260.697	4.19
261.072	4.17
261.446	4.24
261.821	4.01
262.195	3.9
262.57	4.03
262.944	4.06
263.319	3.96
263.693	3.82
264.067	3.71
264.442	3.88
264.816	3.8
265.19	3.76
265.564	3.66
265.938	3.47
266.313	3.4
266.687	3.31
267.061	3.44
267.435	3.4
267.809	3.18
268.183	3.41
268.556	3.3
268.93	3.42
269.304	3.19
269.678	3.25
270.051	3.19
270.425	3.23
270.799	3.15
271.172	3.25
271.546	3.28
271.919	3.22
272.293	3.24
272.666	3.33
273.04	3.32
273.413	3.3
273.787	3.45
274.16	3.42
274.533	3.34
274.906	3.34
275.279	3.2
275.653	3.25
276.026	3.14
276.399	3.2
276.772	3.22
277.145	3.19
277.518	3.28
277.891	3.48
278.263	3.45
278.636	3.49
279.009	3.51
279.382	3.71
279.755	3.7
280.127	3.58
280.5	3.6
280.872	3.69
281.245	3.73
281.617	3.85
281.99	4.01
282.362	3.98
282.735	3.84
283.107	3.79
283.479	3.93
283.852	3.99
284.224	3.99
284.596	3.95
284.968	4.1
285.34	4.09
285.713	4.08
286.085	4.09
286.457	4.14
286.829	4.18
287.201	4.16
287.572	4.18
287.944	4.2
288.316	4.09
288.688	4.02
289.06	4.04
289.431	3.89
289.803	3.83
290.175	3.9
290.546	4.04
290.918	4.11
291.289	4.06
291.661	4.04
292.032	4.11
292.403	4.12
292.775	4.32
293.146	4.17
293.517	4.05
293.889	4.12
294.26	4.01
294.631	4.02
295.002	3.95
295.373	3.99
295.744	3.96
296.115	4.02
296.486	3.92
296.857	3.94
297.228	3.98
297.599	3.97
297.97	3.8
298.34	3.73
298.711	3.78
299.082	3.79
299.452	3.84
299.823	3.9
300.194	3.87
300.564	3.69
300.935	3.81
301.305	3.85
301.676	3.79
302.046	3.9
302.416	3.87
302.787	3.88
303.157	3.82
303.527	3.93
303.897	3.92
304.267	4.11
304.637	4.08
305.008	4.19
305.378	4.28
305.748	4.49
306.117	4.52
306.487	4.62
306.857	4.63
307.227	4.51
307.597	4.4
307.967	4.5
308.336	4.44
308.706	4.37
309.076	4.36
309.445	4.38
309.815	4.35
310.184	4.35
310.554	4.33
310.923	4.26
311.293	4.25
311.662	4.26
312.031	4.21
312.401	4.27
312.77	4.18
313.139	4.07
313.508	4.05
313.877	3.95
314.246	3.89
314.616	3.82
314.985	3.83
315.353	3.76
315.722	3.79
316.091	3.77
316.46	3.73
316.829	3.84
317.198	3.87
317.567	3.72
317.935	3.67
318.304	3.64
318.672	3.83
319.041	3.94
319.41	3.91
319.778	3.98
320.147	3.93
320.515	4.06
320.883	4
321.252	3.96
321.62	4.06
321.988	3.99
322.357	3.99
322.725	3.92
323.093	3.97
323.461	3.89
323.829	3.88
324.197	3.87
324.565	3.79
324.933	3.79
325.301	3.83
325.669	3.8
326.037	3.75
326.405	3.62
326.772	3.53
327.14	3.72
327.508	3.63
327.875	3.43
328.243	3.41
328.61	3.48
328.978	3.49
329.346	3.59
329.713	3.5
330.08	3.44
330.448	3.58
330.815	3.5
331.182	3.61
331.55	3.74
331.917	3.83
332.284	3.83
332.651	3.78
333.018	3.86
333.385	3.9
333.752	3.97
334.119	3.97
334.486	3.89
334.853	3.64
335.22	3.57
335.587	3.68
335.954	3.61
336.32	3.55
336.687	3.57
337.054	3.46
337.42	3.53
337.787	3.63
338.153	3.5
338.52	3.58
338.886	3.36
339.253	3.28
339.619	3.22
339.986	3.25
340.352	3.21
340.718	3.18
341.084	3.1
341.451	3.15
341.817	3.27
342.183	3.26
342.549	3.33
342.915	3.44
343.281	3.44
343.647	3.4
344.013	3.48
344.379	3.34
344.745	3.44
345.11	3.43
345.476	3.39
345.842	3.44
346.208	3.51
346.573	3.59
346.939	3.68
347.304	3.71
347.67	3.64
348.035	3.68
348.401	3.69
348.766	3.72
349.132	3.73
349.497	3.69
349.862	3.81
350.228	3.82
350.593	3.74
350.958	3.82
351.323	3.88
351.688	3.8
352.053	4.01
352.418	3.89
352.783	3.91
353.148	3.94
353.513	4.01
353.878	3.97
354.243	3.98
354.608	3.9
354.972	3.95
355.337	4.08
355.702	4.19
356.066	4.27
356.431	4.21
356.795	4.24
357.16	4.22
357.524	4.18
357.889	4.17
358.253	4.25
358.618	4.29
358.982	4.26
359.346	4.31
359.71	4.23
360.075	4.27
360.439	4.34
360.803	4.26
361.167	4.26
361.531	4.24
361.895	4.25
362.259	4.3
362.623	4.29
362.987	4.19
363.351	4.17
363.714	4.14
364.078	4.18
364.442	4.12
364.806	4.15
365.169	4.09
365.533	4.09
365.896	4.07
366.26	4.04
366.623	4.02
366.987	4.02
367.35	4
367.714	4.13
368.077	4.05
368.44	4.11
368.803	4.09
369.167	3.98
369.53	3.96
369.893	3.96
370.256	3.9
370.619	3.94
370.982	3.86
371.345	3.87
371.708	3.89
372.071	3.85
372.434	3.8
372.797	3.85
373.159	3.86
373.522	3.92
373.885	3.9
374.247	3.89
374.61	3.89
374.973	3.88
375.335	3.73
375.698	3.76
376.06	3.76
376.423	3.73
376.785	3.85
377.147	3.91
377.51	3.89
377.872	3.96
378.234	3.97
378.596	4.02
378.958	3.95
379.321	3.98
379.683	4.05
380.045	4.07
380.407	4.03
380.769	4.05
381.13	4
381.492	4.02
381.854	4.07
382.216	4.09
382.578	4.13
382.939	4.12
383.301	4.14
383.663	4.11
384.024	4.13
384.386	4.1
384.747	4.09
385.109	4.09
385.47	4.05
385.832	4.06
386.193	4.07
386.554	4.12
386.916	4.11
387.277	4.11
387.638	4.14
387.999	4.13
388.36	4.13
388.721	4.14
389.082	4.13
389.443	4.08
389.804	4.09
390.165	4.04
390.526	4.08
390.887	4.08
391.248	4.11
391.609	4.1
391.969	4.09
392.33	4.1
392.691	4.08
393.051	4.09
393.412	4.08
393.772	4.03
394.133	4
394.493	4
394.854	3.98
395.214	3.97
395.574	3.95
395.935	3.98
396.295	3.98
396.655	3.98
397.015	4.02
397.376	4
397.736	4.02
398.096	4.01
398.456	4
398.816	4.02
399.176	4.01
399.535	4.02
399.895	4.01
400.255	4.05
400.615	4.02
400.975	4
401.334	4.02
401.694	4.04
402.054	4.04
402.413	4
402.773	3.97
403.132	3.98
403.492	3.96
403.851	3.99
404.211	3.98
404.57	3.96
404.929	3.96
405.288	3.96
405.648	3.94
406.007	3.92
406.366	3.91
406.725	3.96
407.084	3.97
407.443	3.97
407.802	3.98
408.161	3.97
408.52	3.94
408.879	3.92
409.238	3.94
409.596	3.93
409.955	3.92
410.314	3.94
410.673	3.95
411.031	3.93
411.39	3.9
411.748	3.89
412.107	3.93
412.465	3.92
412.824	3.95
413.182	3.96
413.54	3.96
413.899	3.98
414.257	3.93
414.615	3.93
414.974	3.94
415.332	3.9
415.69	3.91
416.048	3.95
416.406	4
416.764	3.98
417.122	4.01
417.48	4.03
417.838	4.03
418.195	4.05
418.553	4.05
418.911	4.06
419.269	4.07
419.626	4.05
419.984	4.04
420.342	4.03
420.699	4.03
421.057	4.03
421.414	4.03
421.772	4.03
422.129	4.03
422.486	4.01
422.844	4.02
423.201	4.01
423.558	4.01
423.915	3.99
424.273	3.99
424.63	3.98
424.987	3.97
425.344	3.97
425.701	3.96
426.058	3.95
426.415	3.93
426.772	3.91
427.128	3.92
427.485	3.93
427.842	3.91
428.199	3.92
428.555	3.94
428.912	3.96
429.269	3.96
429.625	3.96
429.982	3.98
430.338	3.98
430.695	4
431.051	3.98
431.407	3.97
431.764	3.97
432.12	3.95
432.476	3.96
432.832	3.96
433.189	3.96
433.545	3.95
433.901	3.95
434.257	3.97
434.613	3.96
434.969	3.95
435.325	3.97
435.681	3.95
436.036	3.93
436.392	3.9
436.748	3.89
437.104	3.89
437.459	3.9
437.815	3.9
438.171	3.89
438.526	3.92
438.882	3.93
439.237	3.93
439.593	3.94
439.948	3.93
440.304	3.92
440.659	3.93
441.014	3.95
441.369	3.93
441.725	3.93
442.08	3.93
442.435	3.94
442.79	3.95
443.145	3.96
443.5	3.96
443.855	3.96
444.21	3.96
444.565	3.97
444.92	3.97
445.275	3.96
445.629	3.96
445.984	3.96
446.339	3.96
446.693	3.95
447.048	3.95
447.403	3.95
447.757	3.96
448.112	3.95
448.466	3.94
448.82	3.96
449.175	3.95
449.529	3.96
449.883	3.95
450.238	3.94
450.592	3.95
450.946	3.94
451.3	3.94
451.654	3.94
452.008	3.95
452.362	3.92
452.716	3.92
453.07	3.92
453.424	3.92
453.778	3.91
454.132	3.91
454.486	3.9
454.839	3.91
455.193	3.9
455.547	3.9
455.9	3.9
456.254	3.9
456.607	3.9
456.961	3.88
457.314	3.9
457.668	3.89
458.021	3.87
458.375	3.88
458.728	3.89
459.081	3.89
459.434	3.88
459.787	3.88
460.141	3.87
460.494	3.85
460.847	3.86
461.2	3.85
461.553	3.86
461.906	3.87
462.259	3.87
462.611	3.87
462.964	3.87
463.317	3.88
463.67	3.89
464.022	3.89
464.375	3.9
464.728	3.9
465.08	3.91
465.433	3.93
465.785	3.94
466.138	3.93
466.49	3.92
466.843	3.91
467.195	3.92
467.547	3.95
467.899	3.98
468.252	3.96
468.604	3.98
468.956	3.97
469.308	3.97
469.66	3.96
470.012	3.99
470.364	4.02
470.716	4.01
471.068	4.01
471.42	4
471.772	4
472.123	3.99
472.475	4
472.827	4.02
473.178	4.01
473.53	3.99
473.882	4.01
474.233	4
474.585	4
474.936	3.98
475.288	3.97
475.639	3.98
475.99	4
476.342	4.02
476.693	4.02
477.044	4.05
477.395	4.03
477.746	4
478.097	3.99
478.448	4
478.8	3.99
479.15	4
479.501	4.02
479.852	4.01
480.203	4.03
480.554	4.03
480.905	4.05
481.255	4.06
481.606	4.09
481.957	4.09
482.307	4.09
482.658	4.11
483.009	4.11
483.359	4.1
483.709	4.11
484.06	4.11
484.41	4.11
484.761	4.13
485.111	4.14
485.461	4.14
485.811	4.14
486.162	4.14
486.512	4.15
486.862	4.14
487.212	4.14
487.562	4.14
487.912	4.14
488.262	4.14
488.612	4.13
488.961	4.13
489.311	4.13
489.661	4.15
490.011	4.14
490.36	4.13
490.71	4.12
491.06	4.12
491.409	4.11
491.759	4.11
492.108	4.09
492.458	4.08
492.807	4.08
493.157	4.08
493.506	4.07
493.855	4.07
494.204	4.06
494.554	4.06
494.903	4.06
495.252	4.05
495.601	4.05
495.95	4.05
496.299	4.03
496.648	4.02
496.997	4.01
497.346	4.02
497.695	4.03
498.043	4.06
498.392	4.03
498.741	4.03
499.09	4.02
499.438	4.04
499.787	4.03
500.135	4.05
500.484	4.05
500.832	4.07
501.181	4.07
501.529	4.07
501.878	4.08
502.226	4.08
502.574	4.09
502.923	4.1
503.271	4.11
503.619	4.11
503.967	4.12
504.315	4.12
504.663	4.1
505.011	4.11
505.359	4.12
505.707	4.12
506.055	4.12
506.403	4.12
506.751	4.12
507.098	4.14
507.446	4.15
507.794	4.14
508.141	4.12
508.489	4.14
508.837	4.16
509.184	4.16
509.531	4.19
509.879	4.2
510.226	4.2
510.574	4.21
510.921	4.22
511.268	4.2
511.616	4.21
511.963	4.23
512.31	4.22
512.657	4.21
513.004	4.24
513.351	4.28
513.698	4.3
514.045	4.3
514.392	4.31
514.739	4.31
515.086	4.32
515.432	4.33
515.779	4.32
516.126	4.33
516.473	4.33
516.819	4.32
517.166	4.31
517.512	4.31
517.859	4.29
518.205	4.3
518.552	4.32
518.898	4.32
519.245	4.32
519.591	4.3
519.937	4.3
520.283	4.3
520.629	4.29
520.976	4.28
521.322	4.28
521.668	4.27
522.014	4.25
522.36	4.28
522.706	4.29
523.052	4.31
523.398	4.31
523.743	4.31
524.089	4.31
524.435	4.32
524.781	4.32
525.126	4.35
525.472	4.35
525.817	4.36
526.163	4.37
526.509	4.38
526.854	4.4
527.199	4.42
527.545	4.42
527.89	4.42
528.235	4.42
528.581	4.43
528.926	4.44
529.271	4.46
529.616	4.45
529.961	4.45
530.306	4.44
530.651	4.43
530.996	4.44
531.341	4.44
531.686	4.45
532.031	4.46
532.376	4.46
532.721	4.46
533.065	4.46
533.41	4.45
533.755	4.45
534.099	4.44
534.444	4.44
534.788	4.45
535.133	4.45
535.477	4.46
535.822	4.46
536.166	4.45
536.51	4.45
536.855	4.46
537.199	4.47
537.543	4.48
537.887	4.48
538.231	4.47
538.576	4.47
538.92	4.47
539.264	4.46
539.608	4.47
539.951	4.46
540.295	4.46
540.639	4.48
540.983	4.49
541.327	4.5
541.671	4.5
542.014	4.5
542.358	4.51
542.701	4.51
543.045	4.51
543.389	4.51
543.732	4.51
544.075	4.51
544.419	4.49
544.762	4.49
545.105	4.5
545.449	4.5
545.792	4.51
546.135	4.51
546.478	4.51
546.821	4.5
547.165	4.5
547.508	4.52
547.851	4.5
548.194	4.48
548.536	4.49
548.879	4.51
549.222	4.48
549.565	4.49
549.908	4.48
550.25	4.48
550.593	4.49
550.936	4.48
551.278	4.46
551.621	4.49
551.963	4.5
552.306	4.5
552.648	4.52
552.991	4.52
553.333	4.52
553.675	4.51
554.017	4.54
554.36	4.53
554.702	4.54
555.044	4.54
555.386	4.53
555.728	4.52
556.07	4.5
556.412	4.52
556.754	4.49
557.096	4.52
557.438	4.51
557.78	4.49
558.121	4.52
558.463	4.56
558.805	4.55
559.147	4.53
559.488	4.54
559.83	4.53
560.171	4.52
560.513	4.53
560.854	4.52
561.196	4.5
561.537	4.49
561.878	4.45
562.22	4.47
562.561	4.46
562.902	4.46
563.243	4.46
563.584	4.48
563.925	4.49
564.266	4.46
564.607	4.47
564.948	4.51
565.289	4.51
565.63	4.5
565.971	4.49
566.312	4.49
566.653	4.49
566.993	4.49
567.334	4.49
567.675	4.51
568.015	4.52
568.356	4.53
568.696	4.54
569.037	4.55
569.377	4.55
569.718	4.57
570.058	4.55
570.398	4.55
570.739	4.52
571.079	4.54
571.419	4.57
571.759	4.58
572.099	4.54
572.439	4.52
572.779	4.53
573.119	4.54
573.459	4.56
573.799	4.58
574.139	4.59
574.479	4.59
574.819	4.57
575.158	4.55
575.498	4.55
575.838	4.57
576.177	4.56
576.517	4.52
576.856	4.53
577.196	4.57
577.535	4.56
577.875	4.58
578.214	4.54
578.553	4.5
578.893	4.49
579.232	4.52
579.571	4.52
579.91	4.49
580.25	4.5
580.589	4.53
580.928	4.53
581.267	4.52
581.606	4.53
581.945	4.56
582.283	4.58
582.622	4.57
582.961	4.56
583.3	4.56
583.639	4.6
583.977	4.61
584.316	4.59
584.654	4.58
584.993	4.58
585.332	4.64
585.67	4.62
586.008	4.66
586.347	4.63
586.685	4.65
587.024	4.68
587.362	4.67
587.7	4.64
588.038	4.61
588.376	4.66
588.715	4.62
589.053	4.64
589.391	4.65
589.729	4.66
590.067	4.65
590.404	4.66
590.742	4.65
591.08	4.64
591.418	4.64
591.756	4.68
592.093	4.71
592.431	4.66
592.769	4.73
593.106	4.68
593.444	4.68
593.781	4.66
594.119	4.66
594.456	4.69
594.793	4.69
595.131	4.68
595.468	4.63
595.805	4.66
596.143	4.64
596.48	4.63
596.817	4.63
597.154	4.65
597.491	4.64
597.828	4.61
598.165	4.62
598.502	4.64
598.839	4.62
599.176	4.58
599.512	4.6
599.849	4.6
600.186	4.6
600.523	4.64
600.859	4.67
601.196	4.67
601.532	4.67
601.869	4.68
602.205	4.68
602.542	4.72
602.878	4.7
603.215	4.72
603.551	4.72
603.887	4.76
604.223	4.77
604.56	4.81
604.896	4.82
605.232	4.81
605.568	4.8
605.904	4.81
606.24	4.84
606.576	4.82
606.912	4.81
607.248	4.82
607.583	4.83
607.919	4.77
608.255	4.74
608.591	4.72
608.926	4.74
609.262	4.76
609.597	4.76
609.933	4.76
610.268	4.74
610.604	4.76
610.939	4.73
611.275	4.74
611.61	4.7
611.945	4.73
612.281	4.7
612.616	4.74
612.951	4.71
613.286	4.69
613.621	4.67
613.956	4.66
614.291	4.66
614.626	4.6
614.961	4.65
615.296	4.68
615.631	4.7
615.966	4.69
616.3	4.68
616.635	4.65
616.97	4.63
617.304	4.69
617.639	4.67
617.973	4.65
618.308	4.63
618.642	4.63
618.977	4.63
619.311	4.66
619.646	4.63
619.98	4.64
620.314	4.65
620.648	4.71
620.983	4.72
621.317	4.73
621.651	4.74
621.985	4.74
622.319	4.74
622.653	4.74
622.987	4.72
623.321	4.72
623.655	4.75
623.988	4.76
624.322	4.73
624.656	4.77
624.99	4.8
625.323	4.79
625.657	4.83
625.99	4.85
626.324	4.86
626.657	4.85
626.991	4.84
627.324	4.82
627.658	4.79
627.991	4.84
628.324	4.81
628.657	4.81
628.991	4.77
629.324	4.81
629.657	4.81
629.99	4.82
630.323	4.82
630.656	4.81
630.989	4.84
631.322	4.83
631.655	4.8
631.987	4.8
632.32	4.81
632.653	4.77
632.986	4.78
633.318	4.76
633.651	4.81
633.984	4.83
634.316	4.88
634.649	4.87
634.981	4.85
635.313	4.89
635.646	4.9
635.978	4.94
636.31	4.91
636.643	4.86
636.975	4.86
637.307	4.82
637.639	4.81
637.971	4.77
638.303	4.69
638.635	4.65
638.967	4.65
639.299	4.67
639.631	4.67
639.963	4.63
640.295	4.66
640.626	4.59
640.958	4.62
641.29	4.61
641.621	4.61
641.953	4.52
642.285	4.49
642.616	4.54
642.948	4.55
643.279	4.54
643.61	4.59
643.942	4.63
644.273	4.68
644.604	4.68
644.936	4.67
645.267	4.79
645.598	4.79
645.929	4.85
646.26	4.8
646.591	4.81
646.922	4.82
647.253	4.86
647.584	4.87
647.915	4.9
648.245	4.9
648.576	4.91
648.907	4.97
649.238	4.97
649.568	4.97
649.899	4.99
650.229	5.04
650.56	5.05
650.89	5.05
651.221	5.05
651.551	5.01
651.882	5.03
652.212	5.01
652.542	5.07
652.872	4.98
653.203	5.01
653.533	5.04
653.863	4.99
654.193	4.94
654.523	4.98
654.853	4.95
655.183	4.97
655.513	4.96
655.843	4.93
656.172	4.98
656.502	4.95
656.832	4.92
657.162	4.91
657.491	4.91
657.821	4.9
658.15	4.83
658.48	4.91
658.809	4.89
659.139	4.85
659.468	4.88
659.798	4.94
660.127	4.96
660.456	4.97
660.785	5.02
661.115	5.02
661.444	5.05
661.773	5.07
662.102	5.04
662.431	5.03
662.76	5.11
663.089	5.06
663.418	5.05
663.747	5.07
664.076	5.05
664.404	5.07
664.733	5.16
665.062	5.19
665.39	5.17
665.719	5.22
666.048	5.25
666.376	5.22
666.705	5.18
667.033	5.18
667.362	5.15
667.69	5.09
668.018	5.13
668.347	5.09
668.675	5.1
669.003	5.15
669.331	5.22
669.659	5.12
669.987	5.09
670.315	5.12
670.643	5.11
670.971	5.14
671.299	5.15
671.627	5.07
671.955	5.07
672.283	5.03
672.61	5.03
672.938	5.04
673.266	5.02
673.593	5.04
673.921	4.94
674.249	4.93
674.576	4.99
674.904	4.91
675.231	4.89
675.558	4.88
675.886	4.83
676.213	4.81
676.54	4.88
676.867	4.97
677.195	4.99
677.522	4.98
677.849	5
