Data from BA57662_Reflection_00006.txt Node
Date: Mon Nov 18 15:34:29 EST 2019
User: vgr7
Spectrometer: USB2G7710
Scans to average: 3
Trigger mode: 4
Integration Time (sec): 2.000000E-2
Electric dark correction enabled: true
Boxcar width: 10
XAxis mode: Wavelengths
Number of Pixels in Spectrum: 2048
>>>>>Begin Spectral Data<<<<<
177.721	-38.52
178.105	-31.85
178.488	-18.28
178.871	-39.87
179.254	68.11
179.636	-84.21
180.019	288.38
180.402	235.29
180.785	3.65
181.168	29.18
181.55	177.74
181.933	98.85
182.316	77.43
182.698	69.05
183.081	90.97
183.463	98.84
183.846	78.97
184.228	75.32
184.611	53.64
184.993	89.05
185.376	142.88
185.758	112.8
186.14	176.58
186.522	374.94
186.904	-504.97
187.287	-1182.87
187.669	-220.59
188.051	-263.19
188.433	-134.11
188.815	-98.42
189.197	-104.69
189.579	-113.72
189.961	-93.96
190.342	-100.19
190.724	-72.31
191.106	-86.96
191.488	-72.48
191.869	-61.93
192.251	-80.62
192.633	-110.66
193.014	-108.68
193.396	-118.14
193.777	-167.09
194.159	-205.88
194.54	-179.61
194.922	-156.22
195.303	-118.62
195.684	-138.07
196.065	-60.03
196.447	-71.05
196.828	-103.54
197.209	-89.63
197.59	-69.68
197.971	-75.04
198.352	-62.3
198.733	-66.09
199.114	-46.59
199.495	-63.23
199.876	-59.21
200.257	-33.97
200.638	-17.01
201.018	-17.06
201.399	1.75
201.78	3.31
202.16	-1.66
202.541	-26.92
202.922	-67.02
203.302	-70.31
203.683	-82.06
204.063	-118.52
204.444	-105.36
204.824	-93.85
205.204	-81.14
205.585	-86.47
205.965	-80.6
206.345	-83.77
206.725	-100.83
207.106	-121.72
207.486	-156.13
207.866	-178.24
208.246	-144.84
208.626	-146.9
209.006	-134.32
209.386	-159.03
209.766	-167.18
210.145	-182.7
210.525	-131.14
210.905	-74.48
211.285	-79.12
211.664	-55.23
212.044	-65.59
212.424	-65.21
212.803	-62.64
213.183	-69.3
213.562	-49.69
213.942	-31.21
214.321	-20.32
214.701	-28.25
215.08	-9.31
215.459	-6.09
215.838	9.59
216.218	-24.13
216.597	-22.06
216.976	-30.42
217.355	-16.99
217.734	-19.8
218.113	-12.89
218.492	-18.88
218.871	-22.54
219.25	-14.46
219.629	-25.06
220.008	-28.31
220.387	-28.83
220.766	-26.53
221.144	-30.57
221.523	-32.61
221.902	-51.13
222.28	-56.97
222.659	-38.74
223.037	-50.33
223.416	-49.1
223.794	-48.2
224.173	-42.72
224.551	-39.58
224.929	-34.77
225.308	-34.2
225.686	-21.28
226.064	-16.88
226.442	-10.42
226.821	-7.64
227.199	-9.5
227.577	-10.22
227.955	-8.35
228.333	-7.71
228.711	-2.98
229.089	0.25
229.467	-2.33
229.845	-0.55
230.222	-1.09
230.6	-1.17
230.978	1.09
231.356	2.08
231.733	0.47
232.111	2.21
232.488	4.16
232.866	4.94
233.243	5.62
233.621	4.14
233.998	2.88
234.376	1.78
234.753	1.06
235.13	1.92
235.508	2.67
235.885	1.87
236.262	1.13
236.639	-2.44
237.016	-2.29
237.393	0.35
237.77	0.19
238.147	1.71
238.524	3.07
238.901	3.91
239.278	4.6
239.655	5.35
240.032	5.75
240.409	5.57
240.785	5.53
241.162	5.78
241.539	5.96
241.915	6.11
242.292	6.02
242.668	6.07
243.045	6.71
243.421	7.09
243.798	7.51
244.174	7.9
244.551	8.23
244.927	8.17
245.303	8.09
245.679	8.18
246.056	8.2
246.432	8.01
246.808	7.95
247.184	7.91
247.56	7.9
247.936	7.85
248.312	7.87
248.688	7.74
249.064	7.62
249.44	7.58
249.815	7.89
250.191	7.84
250.567	8.03
250.943	7.72
251.318	7.72
251.694	7.63
252.069	7.56
252.445	7.43
252.82	7.42
253.196	7.25
253.571	7.49
253.947	7.35
254.322	7.17
254.697	7.17
255.073	6.88
255.448	6.88
255.823	6.58
256.198	6.57
256.573	6.77
256.948	6.96
257.323	7.29
257.698	7.01
258.073	7.19
258.448	7
258.823	7.04
259.198	6.89
259.573	6.74
259.948	6.7
260.322	6.91
260.697	6.92
261.072	6.82
261.446	6.71
261.821	6.72
262.195	6.84
262.57	6.78
262.944	6.87
263.319	6.7
263.693	6.74
264.067	6.83
264.442	6.66
264.816	6.66
265.19	6.3
265.564	6.31
265.938	6.02
266.313	6
266.687	5.99
267.061	6.22
267.435	6.31
267.809	6.01
268.183	5.76
268.556	5.6
268.93	5.71
269.304	5.71
269.678	5.83
270.051	5.81
270.425	5.78
270.799	5.68
271.172	5.75
271.546	5.68
271.919	5.58
272.293	5.66
272.666	5.51
273.04	5.56
273.413	5.54
273.787	5.55
274.16	5.65
274.533	5.61
274.906	5.47
275.279	5.63
275.653	5.72
276.026	5.82
276.399	5.92
276.772	6.02
277.145	5.88
277.518	5.76
277.891	5.78
278.263	5.79
278.636	5.76
279.009	5.72
279.382	5.97
279.755	6.02
280.127	6.13
280.5	6.34
280.872	6.52
281.245	6.47
281.617	6.64
281.99	6.56
282.362	6.62
282.735	6.51
283.107	6.4
283.479	6.62
283.852	6.56
284.224	6.57
284.596	6.55
284.968	6.68
285.34	6.67
285.713	6.7
286.085	6.74
286.457	6.89
286.829	6.94
287.201	6.88
287.572	6.69
287.944	6.69
288.316	6.71
288.688	6.57
289.06	6.71
289.431	6.66
289.803	6.75
290.175	6.77
290.546	6.94
290.918	7.09
291.289	7.08
291.661	7.19
292.032	7.21
292.403	7.22
292.775	7.29
293.146	7.35
293.517	7.31
293.889	7.46
294.26	7.47
294.631	7.63
295.002	7.73
295.373	7.93
295.744	7.91
296.115	7.78
296.486	7.81
296.857	7.76
297.228	8
297.599	7.99
297.97	8
298.34	8.13
298.711	8.15
299.082	8.14
299.452	8.19
299.823	8.23
300.194	8.27
300.564	8.22
300.935	8.38
301.305	8.42
301.676	8.53
302.046	8.57
302.416	8.52
302.787	8.44
303.157	8.57
303.527	8.56
303.897	8.6
304.267	8.74
304.637	8.78
305.008	8.54
305.378	8.64
305.748	8.71
306.117	8.52
306.487	8.48
306.857	8.43
307.227	8.48
307.597	8.5
307.967	8.66
308.336	8.7
308.706	8.64
309.076	8.71
309.445	8.45
309.815	8.47
310.184	8.5
310.554	8.64
310.923	8.46
311.293	8.51
311.662	8.54
312.031	8.37
312.401	8.37
312.77	8.49
313.139	8.39
313.508	8.3
313.877	8.43
314.246	8.53
314.616	8.55
314.985	8.58
315.353	8.5
315.722	8.38
316.091	8.51
316.46	8.42
316.829	8.41
317.198	8.56
317.567	8.58
317.935	8.5
318.304	8.34
318.672	8.44
319.041	8.52
319.41	8.59
319.778	8.8
320.147	8.83
320.515	8.8
320.883	8.86
321.252	8.91
321.62	8.82
321.988	8.65
322.357	8.66
322.725	8.52
323.093	8.74
323.461	8.87
323.829	8.81
324.197	8.87
324.565	8.87
324.933	9.01
325.301	8.95
325.669	9.09
326.037	9.11
326.405	9.11
326.772	9.12
327.14	9.17
327.508	9.21
327.875	9.21
328.243	9.33
328.61	9.27
328.978	9.41
329.346	9.6
329.713	9.62
330.08	9.77
330.448	9.69
330.815	9.56
331.182	9.44
331.55	9.45
331.917	9.46
332.284	9.55
332.651	9.41
333.018	9.36
333.385	9.27
333.752	9.44
334.119	9.46
334.486	9.38
334.853	9.36
335.22	9.29
335.587	9.28
335.954	9.12
336.32	9.1
336.687	9.03
337.054	8.92
337.42	8.98
337.787	8.94
338.153	9.03
338.52	9.12
338.886	9.09
339.253	9
339.619	9.05
339.986	8.93
340.352	8.91
340.718	8.97
341.084	9.05
341.451	8.92
341.817	9.05
342.183	9.04
342.549	9.09
342.915	9.04
343.281	8.95
343.647	8.95
344.013	9.01
344.379	9.01
344.745	9.03
345.11	8.95
345.476	9.02
345.842	9.04
346.208	9.01
346.573	9.06
346.939	9.12
347.304	9.1
347.67	9.16
348.035	9.22
348.401	9.23
348.766	9.22
349.132	9.28
349.497	9.22
349.862	9.31
350.228	9.24
350.593	9.31
350.958	9.45
351.323	9.51
351.688	9.54
352.053	9.52
352.418	9.52
352.783	9.66
353.148	9.53
353.513	9.48
353.878	9.51
354.243	9.51
354.608	9.57
354.972	9.58
355.337	9.56
355.702	9.57
356.066	9.6
356.431	9.61
356.795	9.62
357.16	9.53
357.524	9.42
357.889	9.49
358.253	9.47
358.618	9.5
358.982	9.51
359.346	9.51
359.71	9.49
360.075	9.54
360.439	9.47
360.803	9.44
361.167	9.46
361.531	9.44
361.895	9.46
362.259	9.43
362.623	9.43
362.987	9.47
363.351	9.39
363.714	9.36
364.078	9.41
364.442	9.34
364.806	9.41
365.169	9.49
365.533	9.5
365.896	9.52
366.26	9.46
366.623	9.39
366.987	9.42
367.35	9.44
367.714	9.42
368.077	9.4
368.44	9.46
368.803	9.47
369.167	9.45
369.53	9.36
369.893	9.4
370.256	9.43
370.619	9.39
370.982	9.35
371.345	9.39
371.708	9.39
372.071	9.43
372.434	9.33
372.797	9.3
373.159	9.28
373.522	9.37
373.885	9.38
374.247	9.37
374.61	9.36
374.973	9.38
375.335	9.31
375.698	9.44
376.06	9.4
376.423	9.44
376.785	9.52
377.147	9.56
377.51	9.51
377.872	9.53
378.234	9.55
378.596	9.68
378.958	9.68
379.321	9.66
379.683	9.72
380.045	9.79
380.407	9.8
380.769	9.72
381.13	9.63
381.492	9.64
381.854	9.68
382.216	9.67
382.578	9.67
382.939	9.68
383.301	9.57
383.663	9.53
384.024	9.53
384.386	9.49
384.747	9.52
385.109	9.55
385.47	9.49
385.832	9.5
386.193	9.5
386.554	9.46
386.916	9.43
387.277	9.4
387.638	9.4
387.999	9.41
388.36	9.47
388.721	9.49
389.082	9.48
389.443	9.44
389.804	9.39
390.165	9.36
390.526	9.45
390.887	9.47
391.248	9.52
391.609	9.53
391.969	9.56
392.33	9.56
392.691	9.53
393.051	9.53
393.412	9.53
393.772	9.49
394.133	9.49
394.493	9.51
394.854	9.52
395.214	9.51
395.574	9.52
395.935	9.52
396.295	9.53
396.655	9.52
397.015	9.58
397.376	9.63
397.736	9.67
398.096	9.6
398.456	9.61
398.816	9.6
399.176	9.54
399.535	9.51
399.895	9.48
400.255	9.51
400.615	9.53
400.975	9.52
401.334	9.53
401.694	9.54
402.054	9.5
402.413	9.47
402.773	9.48
403.132	9.47
403.492	9.46
403.851	9.49
404.211	9.5
404.57	9.48
404.929	9.49
405.288	9.47
405.648	9.45
406.007	9.47
406.366	9.47
406.725	9.49
407.084	9.49
407.443	9.5
407.802	9.49
408.161	9.49
408.52	9.44
408.879	9.45
409.238	9.47
409.596	9.5
409.955	9.51
410.314	9.49
410.673	9.46
411.031	9.44
411.39	9.39
411.748	9.4
412.107	9.38
412.465	9.35
412.824	9.33
413.182	9.33
413.54	9.32
413.899	9.37
414.257	9.41
414.615	9.43
414.974	9.43
415.332	9.41
415.69	9.41
416.048	9.46
416.406	9.44
416.764	9.44
417.122	9.41
417.48	9.41
417.838	9.42
418.195	9.42
418.553	9.42
418.911	9.42
419.269	9.42
419.626	9.43
419.984	9.41
420.342	9.41
420.699	9.41
421.057	9.4
421.414	9.37
421.772	9.35
422.129	9.35
422.486	9.34
422.844	9.32
423.201	9.3
423.558	9.27
423.915	9.27
424.273	9.27
424.63	9.25
424.987	9.25
425.344	9.23
425.701	9.24
426.058	9.24
426.415	9.24
426.772	9.22
427.128	9.22
427.485	9.23
427.842	9.23
428.199	9.24
428.555	9.25
428.912	9.26
429.269	9.26
429.625	9.23
429.982	9.23
430.338	9.26
430.695	9.26
431.051	9.28
431.407	9.27
431.764	9.26
432.12	9.26
432.476	9.27
432.832	9.26
433.189	9.27
433.545	9.25
433.901	9.25
434.257	9.25
434.613	9.23
434.969	9.21
435.325	9.22
435.681	9.21
436.036	9.19
436.392	9.17
436.748	9.18
437.104	9.17
437.459	9.15
437.815	9.15
438.171	9.16
438.526	9.18
438.882	9.19
439.237	9.18
439.593	9.2
439.948	9.2
440.304	9.22
440.659	9.21
441.014	9.21
441.369	9.18
441.725	9.18
442.08	9.19
442.435	9.22
442.79	9.21
443.145	9.21
443.5	9.21
443.855	9.2
444.21	9.17
444.565	9.19
444.92	9.21
445.275	9.19
445.629	9.2
445.984	9.18
446.339	9.17
446.693	9.15
447.048	9.12
447.403	9.1
447.757	9.09
448.112	9.09
448.466	9.08
448.82	9.1
449.175	9.1
449.529	9.09
449.883	9.07
450.238	9.06
450.592	9.05
450.946	9.03
451.3	9.03
451.654	9.03
452.008	9.03
452.362	9.01
452.716	9.01
453.07	9
453.424	9.01
453.778	9.03
454.132	9.03
454.486	9.05
454.839	9.05
455.193	9.02
455.547	9.02
455.9	9
456.254	8.98
456.607	8.99
456.961	8.99
457.314	8.99
457.668	8.98
458.021	8.98
458.375	9
458.728	9.03
459.081	9.05
459.434	9.03
459.787	9.06
460.141	9.05
460.494	9.05
460.847	9.03
461.2	9.01
461.553	9.02
461.906	9.03
462.259	9.04
462.611	9.05
462.964	9.06
463.317	9.07
463.67	9.09
464.022	9.06
464.375	9.06
464.728	9.09
465.08	9.09
465.433	9.09
465.785	9.08
466.138	9.08
466.49	9.07
466.843	9.1
467.195	9.08
467.547	9.09
467.899	9.12
468.252	9.13
468.604	9.16
468.956	9.16
469.308	9.16
469.66	9.16
470.012	9.19
470.364	9.19
470.716	9.18
471.068	9.2
471.42	9.19
471.772	9.17
472.123	9.18
472.475	9.19
472.827	9.21
473.178	9.24
473.53	9.23
473.882	9.23
474.233	9.21
474.585	9.21
474.936	9.21
475.288	9.19
475.639	9.2
475.99	9.16
476.342	9.17
476.693	9.17
477.044	9.2
477.395	9.19
477.746	9.19
478.097	9.19
478.448	9.19
478.8	9.23
479.15	9.25
479.501	9.25
479.852	9.27
480.203	9.28
480.554	9.27
480.905	9.28
481.255	9.29
481.606	9.3
481.957	9.33
482.307	9.33
482.658	9.34
483.009	9.34
483.359	9.35
483.709	9.36
484.06	9.37
484.41	9.36
484.761	9.36
485.111	9.37
485.461	9.38
485.811	9.37
486.162	9.38
486.512	9.38
486.862	9.37
487.212	9.37
487.562	9.36
487.912	9.36
488.262	9.35
488.612	9.34
488.961	9.34
489.311	9.32
489.661	9.32
490.011	9.31
490.36	9.31
490.71	9.31
491.06	9.29
491.409	9.27
491.759	9.28
492.108	9.28
492.458	9.27
492.807	9.26
493.157	9.27
493.506	9.27
493.855	9.27
494.204	9.25
494.554	9.24
494.903	9.25
495.252	9.28
495.601	9.3
495.95	9.33
496.299	9.34
496.648	9.35
496.997	9.34
497.346	9.36
497.695	9.37
498.043	9.37
498.392	9.38
498.741	9.39
499.09	9.37
499.438	9.38
499.787	9.4
500.135	9.41
500.484	9.42
500.832	9.4
501.181	9.42
501.529	9.45
501.878	9.47
502.226	9.49
502.574	9.49
502.923	9.5
503.271	9.48
503.619	9.49
503.967	9.5
504.315	9.51
504.663	9.51
505.011	9.52
505.359	9.51
505.707	9.55
506.055	9.57
506.403	9.61
506.751	9.64
507.098	9.64
507.446	9.65
507.794	9.65
508.141	9.67
508.489	9.69
508.837	9.7
509.184	9.68
509.531	9.68
509.879	9.7
510.226	9.72
510.574	9.73
510.921	9.73
511.268	9.73
511.616	9.76
511.963	9.77
512.31	9.77
512.657	9.8
513.004	9.79
513.351	9.8
513.698	9.8
514.045	9.8
514.392	9.83
514.739	9.84
515.086	9.85
515.432	9.87
515.779	9.87
516.126	9.9
516.473	9.92
516.819	9.92
517.166	9.92
517.512	9.9
517.859	9.9
518.205	9.91
518.552	9.94
518.898	9.93
519.245	9.93
519.591	9.93
519.937	9.92
520.283	9.92
520.629	9.94
520.976	9.94
521.322	9.96
521.668	9.95
522.014	9.96
522.36	9.99
522.706	9.99
523.052	9.99
523.398	10.01
523.743	10.05
524.089	10.05
524.435	10.06
524.781	10.09
525.126	10.13
525.472	10.15
525.817	10.14
526.163	10.15
526.509	10.17
526.854	10.19
527.199	10.21
527.545	10.22
527.89	10.21
528.235	10.21
528.581	10.22
528.926	10.23
529.271	10.24
529.616	10.24
529.961	10.24
530.306	10.23
530.651	10.23
530.996	10.22
531.341	10.21
531.686	10.23
532.031	10.23
532.376	10.21
532.721	10.19
533.065	10.2
533.41	10.19
533.755	10.19
534.099	10.19
534.444	10.18
534.788	10.19
535.133	10.18
535.477	10.2
535.822	10.19
536.166	10.2
536.51	10.2
536.855	10.2
537.199	10.23
537.543	10.26
537.887	10.27
538.231	10.29
538.576	10.29
538.92	10.28
539.264	10.29
539.608	10.32
539.951	10.33
540.295	10.34
540.639	10.36
540.983	10.35
541.327	10.35
541.671	10.34
542.014	10.37
542.358	10.38
542.701	10.38
543.045	10.39
543.389	10.4
543.732	10.4
544.075	10.39
544.419	10.37
544.762	10.36
545.105	10.34
545.449	10.34
545.792	10.37
546.135	10.37
546.478	10.35
546.821	10.34
547.165	10.35
547.508	10.34
547.851	10.35
548.194	10.37
548.536	10.39
548.879	10.42
549.222	10.39
549.565	10.38
549.908	10.37
550.25	10.37
550.593	10.39
550.936	10.37
551.278	10.36
551.621	10.39
551.963	10.45
552.306	10.47
552.648	10.47
552.991	10.5
553.333	10.49
553.675	10.52
554.017	10.54
554.36	10.55
554.702	10.56
555.044	10.55
555.386	10.55
555.728	10.54
556.07	10.52
556.412	10.53
556.754	10.56
557.096	10.56
557.438	10.59
557.78	10.58
558.121	10.59
558.463	10.65
558.805	10.66
559.147	10.59
559.488	10.58
559.83	10.58
560.171	10.55
560.513	10.59
560.854	10.56
561.196	10.53
561.537	10.55
561.878	10.56
562.22	10.55
562.561	10.54
562.902	10.56
563.243	10.57
563.584	10.59
563.925	10.59
564.266	10.58
564.607	10.56
564.948	10.55
565.289	10.55
565.63	10.51
565.971	10.45
566.312	10.48
566.653	10.49
566.993	10.49
567.334	10.51
567.675	10.48
568.015	10.51
568.356	10.5
568.696	10.5
569.037	10.49
569.377	10.5
569.718	10.52
570.058	10.51
570.398	10.53
570.739	10.5
571.079	10.53
571.419	10.58
571.759	10.6
572.099	10.6
572.439	10.59
572.779	10.6
573.119	10.66
573.459	10.66
573.799	10.67
574.139	10.66
574.479	10.66
574.819	10.66
575.158	10.62
575.498	10.62
575.838	10.61
576.177	10.62
576.517	10.62
576.856	10.6
577.196	10.59
577.535	10.55
577.875	10.54
578.214	10.51
578.553	10.44
578.893	10.42
579.232	10.43
579.571	10.44
579.91	10.46
580.25	10.44
580.589	10.44
580.928	10.45
581.267	10.47
581.606	10.42
581.945	10.45
582.283	10.47
582.622	10.48
582.961	10.47
583.3	10.45
583.639	10.48
583.977	10.5
584.316	10.54
584.654	10.53
584.993	10.59
585.332	10.58
585.67	10.63
586.008	10.64
586.347	10.62
586.685	10.68
587.024	10.68
587.362	10.68
587.7	10.71
588.038	10.71
588.376	10.71
588.715	10.74
589.053	10.76
589.391	10.79
589.729	10.82
590.067	10.82
590.404	10.83
590.742	10.85
591.08	10.84
591.418	10.8
591.756	10.86
592.093	10.85
592.431	10.86
592.769	10.83
593.106	10.84
593.444	10.81
593.781	10.77
594.119	10.78
594.456	10.75
594.793	10.75
595.131	10.68
595.468	10.71
595.805	10.73
596.143	10.68
596.48	10.69
596.817	10.7
597.154	10.74
597.491	10.74
597.828	10.67
598.165	10.64
598.502	10.67
598.839	10.66
599.176	10.65
599.512	10.68
599.849	10.74
600.186	10.74
600.523	10.82
600.859	10.87
601.196	10.85
601.532	10.87
601.869	10.85
602.205	10.93
602.542	10.9
602.878	10.92
603.215	10.96
603.551	10.98
603.887	10.96
604.223	10.92
604.56	10.94
604.896	10.96
605.232	11.01
605.568	11.02
605.904	11
606.24	11.01
606.576	11.02
606.912	11
607.248	11
607.583	10.98
607.919	10.94
608.255	10.97
608.591	10.99
608.926	11
609.262	10.99
609.597	11.02
609.933	11.02
610.268	11.04
610.604	11.02
610.939	10.98
611.275	11
611.61	10.98
611.945	11
612.281	10.99
612.616	11.01
612.951	11.01
613.286	11.04
613.621	11.04
613.956	11.07
614.291	11.09
614.626	11.04
614.961	11.12
615.296	11.09
615.631	11.05
615.966	11.08
616.3	11.08
616.635	11.05
616.97	11.07
617.304	11.04
617.639	11.06
617.973	11.14
618.308	11.11
618.642	11.1
618.977	11.1
619.311	11.07
619.646	11
619.98	11.03
620.314	11.01
620.648	10.99
620.983	10.95
621.317	10.97
621.651	11.1
621.985	11.02
622.319	11.07
622.653	11.13
622.987	11.11
623.321	11.1
623.655	11.12
623.988	11.11
624.322	11.11
624.656	11.08
624.99	11.12
625.323	11.2
625.657	11.22
625.99	11.23
626.324	11.29
626.657	11.34
626.991	11.32
627.324	11.34
627.658	11.34
627.991	11.35
628.324	11.29
628.657	11.26
628.991	11.31
629.324	11.31
629.657	11.31
629.99	11.3
630.323	11.36
630.656	11.35
630.989	11.36
631.322	11.35
631.655	11.39
631.987	11.35
632.32	11.31
632.653	11.3
632.986	11.3
633.318	11.24
633.651	11.28
633.984	11.28
634.316	11.27
634.649	11.31
634.981	11.3
635.313	11.36
635.646	11.3
635.978	11.25
636.31	11.24
636.643	11.2
636.975	11.19
637.307	11.18
637.639	11.16
637.971	11.13
638.303	11.13
638.635	11.11
638.967	11.14
639.299	11.14
639.631	11.14
639.963	11.14
640.295	11.19
640.626	11.13
640.958	11.23
641.29	11.23
641.621	11.19
641.953	11.15
642.285	11.11
642.616	11.13
642.948	11.17
643.279	11.16
643.61	11.15
643.942	11.18
644.273	11.15
644.604	11.1
644.936	11.12
645.267	11.16
645.598	11.21
645.929	11.21
646.26	11.16
646.591	11.21
646.922	11.16
647.253	11.18
647.584	11.21
647.915	11.08
648.245	11.1
648.576	11.18
648.907	11.23
649.238	11.26
649.568	11.26
649.899	11.29
650.229	11.35
650.56	11.41
650.89	11.5
651.221	11.51
651.551	11.57
651.882	11.55
652.212	11.54
652.542	11.51
652.872	11.49
653.203	11.61
653.533	11.58
653.863	11.6
654.193	11.55
654.523	11.61
654.853	11.63
655.183	11.69
655.513	11.58
655.843	11.63
656.172	11.57
656.502	11.61
656.832	11.55
657.162	11.47
657.491	11.49
657.821	11.48
658.15	11.46
658.48	11.45
658.809	11.46
659.139	11.48
659.468	11.47
659.798	11.45
660.127	11.38
660.456	11.42
660.785	11.43
661.115	11.45
661.444	11.35
661.773	11.38
662.102	11.33
662.431	11.37
662.76	11.28
663.089	11.35
663.418	11.32
663.747	11.3
664.076	11.27
664.404	11.23
664.733	11.18
665.062	11.23
665.39	11.23
665.719	11.2
666.048	11.24
666.376	11.25
666.705	11.21
667.033	11.25
