Data from BA57710_Reflection_00010.txt Node
Date: Mon Nov 18 15:31:59 EST 2019
User: vgr7
Spectrometer: USB2G7710
Scans to average: 3
Trigger mode: 4
Integration Time (sec): 2.000000E-2
Electric dark correction enabled: true
Boxcar width: 10
XAxis mode: Wavelengths
Number of Pixels in Spectrum: 2048
>>>>>Begin Spectral Data<<<<<
177.721	-0.59
178.105	-49.01
178.488	-79.68
178.871	-107.8
179.254	-434.16
179.636	27.84
180.019	8.09
180.402	55.56
180.785	81.24
181.168	29.35
181.55	-36.86
181.933	44.96
182.316	75.27
182.698	118.94
183.081	58.88
183.463	-71.21
183.846	134.13
184.228	91.22
184.611	106.02
184.993	17.44
185.376	-11.53
185.758	-36.99
186.14	-90.17
186.522	-153.57
186.904	-207.69
187.287	-339.2
187.669	-84.02
188.051	-23.43
188.433	-4.13
188.815	7.07
189.197	-19.28
189.579	-7.37
189.961	5.81
190.342	-19.98
190.724	-18.08
191.106	-19.57
191.488	4.31
191.869	4.31
192.251	-6.41
192.633	-1.87
193.014	25.01
193.396	36.16
193.777	14.76
194.159	22.86
194.54	21.55
194.922	36.62
195.303	52.03
195.684	43.95
196.065	35.29
196.447	27.64
196.828	40.15
197.209	60.26
197.59	43.34
197.971	19.83
198.352	36.93
198.733	55.67
199.114	59.32
199.495	51.61
199.876	70.97
200.257	57.91
200.638	60.47
201.018	37.17
201.399	20.62
201.78	30.03
202.16	30.99
202.541	36.78
202.922	37.28
203.302	16.13
203.683	14.21
204.063	2.14
204.444	4.38
204.824	-1.47
205.204	-4.54
205.585	-4.29
205.965	-2.41
206.345	-10.47
206.725	-28.38
207.106	-46.17
207.486	-70.64
207.866	-83.41
208.246	-96.03
208.626	-142.09
209.006	-92.64
209.386	-126.51
209.766	-122.33
210.145	-87.86
210.525	-77.08
210.905	-68.47
211.285	-43.37
211.664	-42.33
212.044	-26.36
212.424	-23.28
212.803	-25.63
213.183	-22.78
213.562	-10.77
213.942	13.3
214.321	22.15
214.701	34
215.08	47.12
215.459	36.61
215.838	55.25
216.218	62.55
216.597	62.53
216.976	62.22
217.355	52.23
217.734	53.59
218.113	48.19
218.492	33.57
218.871	19.69
219.25	18.09
219.629	13.65
220.008	14.02
220.387	22.04
220.766	28.2
221.144	25.72
221.523	23.99
221.902	3.95
222.28	-7.42
222.659	-5.09
223.037	-8.39
223.416	-8.22
223.794	-14.23
224.173	-8.23
224.551	-4.99
224.929	-7.99
225.308	-0.21
225.686	-6.75
226.064	-5.03
226.442	-4.96
226.821	4.99
227.199	1.29
227.577	0.99
227.955	0.73
228.333	0.53
228.711	2.19
229.089	4.57
229.467	2.51
229.845	3.32
230.222	5.86
230.6	5.5
230.978	5.27
231.356	6.96
231.733	7.85
232.111	7.97
232.488	7.15
232.866	6.78
233.243	5.05
233.621	7.54
233.998	9.34
234.376	8.97
234.753	9.68
235.13	9.14
235.508	10.29
235.885	9.04
236.262	8.59
236.639	8.04
237.016	7.49
237.393	9.66
237.77	9.08
238.147	8.63
238.524	8.6
238.901	9.5
239.278	8.68
239.655	8.59
240.032	7.42
240.409	7.47
240.785	7.61
241.162	7.74
241.539	7.52
241.915	7.06
242.292	7.03
242.668	6.43
243.045	6.83
243.421	6.47
243.798	6.4
244.174	6.28
244.551	6.13
244.927	5.98
245.303	5.64
245.679	5.67
246.056	5.41
246.432	5.14
246.808	4.84
247.184	4.8
247.56	4.73
247.936	4.95
248.312	4.59
248.688	4.53
249.064	4.38
249.44	4.06
249.815	4.22
250.191	4.23
250.567	4.33
250.943	4.06
251.318	4.24
251.694	4.17
252.069	4.03
252.445	4.13
252.82	4.11
253.196	4.22
253.571	4.31
253.947	4.29
254.322	4.58
254.697	4.39
255.073	3.98
255.448	3.76
255.823	3.76
256.198	3.92
256.573	3.91
256.948	4.03
257.323	4.34
257.698	4.28
258.073	4.25
258.448	4.1
258.823	4.18
259.198	3.88
259.573	4.11
259.948	4.11
260.322	4.04
260.697	3.98
261.072	3.86
261.446	3.69
261.821	3.74
262.195	3.7
262.57	3.72
262.944	3.82
263.319	3.9
263.693	3.84
264.067	3.82
264.442	3.93
264.816	3.93
265.19	3.92
265.564	3.91
265.938	3.72
266.313	3.96
266.687	3.77
267.061	4.08
267.435	4.05
267.809	3.95
268.183	3.89
268.556	4.08
268.93	4.4
269.304	4.62
269.678	4.64
270.051	4.6
270.425	4.58
270.799	4.8
271.172	4.73
271.546	4.67
271.919	4.74
272.293	4.74
272.666	4.67
273.04	4.65
273.413	4.61
273.787	4.64
274.16	4.56
274.533	4.85
274.906	4.85
275.279	4.82
275.653	5.01
276.026	5.16
276.399	5
276.772	4.66
277.145	4.41
277.518	4.4
277.891	4.48
278.263	4.44
278.636	4.31
279.009	4.33
279.382	4.37
279.755	4.2
280.127	4.3
280.5	4.3
280.872	4.25
281.245	4.29
281.617	4.35
281.99	4.35
282.362	4.13
282.735	3.9
283.107	3.82
283.479	3.7
283.852	3.62
284.224	3.63
284.596	3.75
284.968	3.96
285.34	4.09
285.713	4.08
286.085	4.17
286.457	4.25
286.829	4.41
287.201	4.46
287.572	4.41
287.944	4.25
288.316	4.3
288.688	4.32
289.06	4.3
289.431	4.33
289.803	4.28
290.175	4.31
290.546	4.59
290.918	4.55
291.289	4.74
291.661	4.77
292.032	4.89
292.403	4.91
292.775	4.85
293.146	4.72
293.517	4.75
293.889	4.89
294.26	4.84
294.631	4.74
295.002	4.71
295.373	4.87
295.744	4.93
296.115	4.96
296.486	4.83
296.857	4.84
297.228	4.81
297.599	4.75
297.97	4.78
298.34	4.65
298.711	4.8
299.082	4.74
299.452	4.75
299.823	4.88
300.194	4.88
300.564	4.85
300.935	4.98
301.305	4.98
301.676	4.92
302.046	5.01
302.416	5.11
302.787	5.16
303.157	5.25
303.527	5.26
303.897	5.23
304.267	5.52
304.637	5.62
305.008	5.69
305.378	5.88
305.748	5.92
306.117	5.92
306.487	6.06
306.857	6.01
307.227	6.03
307.597	5.95
307.967	5.84
308.336	5.91
308.706	5.91
309.076	5.96
309.445	5.95
309.815	5.94
310.184	5.94
310.554	6.04
310.923	5.93
311.293	6.02
311.662	6.17
312.031	6.18
312.401	6.11
312.77	6.21
313.139	6.37
313.508	6.36
313.877	6.41
314.246	6.18
314.616	6.21
314.985	6.29
315.353	6.28
315.722	6.46
316.091	6.53
316.46	6.52
316.829	6.55
317.198	6.55
317.567	6.53
317.935	6.49
318.304	6.41
318.672	6.62
319.041	6.64
319.41	6.51
319.778	6.43
320.147	6.6
320.515	6.64
320.883	6.5
321.252	6.7
321.62	6.83
321.988	6.99
322.357	7.11
322.725	7.1
323.093	7.13
323.461	7.23
323.829	7.19
324.197	7.23
324.565	7.3
324.933	7.43
325.301	7.48
325.669	7.61
326.037	7.69
326.405	7.71
326.772	7.76
327.14	7.96
327.508	8.02
327.875	7.9
328.243	7.93
328.61	7.99
328.978	8.04
329.346	8.09
329.713	8.11
330.08	8.19
330.448	8.24
330.815	8.25
331.182	8.22
331.55	8.24
331.917	8.4
332.284	8.48
332.651	8.41
333.018	8.42
333.385	8.28
333.752	8.32
334.119	8.26
334.486	8.24
334.853	8.05
335.22	8.09
335.587	8.32
335.954	8.32
336.32	8.22
336.687	8.28
337.054	8.32
337.42	8.43
337.787	8.41
338.153	8.5
338.52	8.55
338.886	8.58
339.253	8.58
339.619	8.55
339.986	8.56
340.352	8.68
340.718	8.82
341.084	8.95
341.451	9.08
341.817	9.13
342.183	9.14
342.549	9.26
342.915	9.35
343.281	9.24
343.647	9.25
344.013	9.34
344.379	9.23
344.745	9.33
345.11	9.31
345.476	9.31
345.842	9.26
346.208	9.32
346.573	9.38
346.939	9.54
347.304	9.46
347.67	9.47
348.035	9.42
348.401	9.43
348.766	9.48
349.132	9.4
349.497	9.46
349.862	9.54
350.228	9.54
350.593	9.48
350.958	9.43
351.323	9.44
351.688	9.5
352.053	9.61
352.418	9.58
352.783	9.57
353.148	9.59
353.513	9.59
353.878	9.54
354.243	9.61
354.608	9.54
354.972	9.64
355.337	9.78
355.702	9.85
356.066	9.78
356.431	9.73
356.795	9.74
357.16	9.74
357.524	9.7
357.889	9.71
358.253	9.66
358.618	9.8
358.982	9.72
359.346	9.66
359.71	9.56
360.075	9.52
360.439	9.54
360.803	9.55
361.167	9.5
361.531	9.57
361.895	9.48
362.259	9.44
362.623	9.37
362.987	9.26
363.351	9.19
363.714	9.21
364.078	9.15
364.442	9.15
364.806	9.11
365.169	9.06
365.533	9.02
365.896	9.01
366.26	8.91
366.623	8.95
366.987	8.9
367.35	8.95
367.714	8.9
368.077	8.8
368.44	8.67
368.803	8.67
369.167	8.55
369.53	8.46
369.893	8.48
370.256	8.49
370.619	8.4
370.982	8.41
371.345	8.33
371.708	8.3
372.071	8.15
372.434	8.07
372.797	8.02
373.159	7.98
373.522	7.94
373.885	7.95
374.247	7.92
374.61	7.86
374.973	7.76
375.335	7.72
375.698	7.69
376.06	7.7
376.423	7.69
376.785	7.66
377.147	7.64
377.51	7.56
377.872	7.5
378.234	7.47
378.596	7.34
378.958	7.25
379.321	7.26
379.683	7.29
380.045	7.25
380.407	7.21
380.769	7.16
381.13	7.11
381.492	7.01
381.854	6.98
382.216	6.95
382.578	6.95
382.939	6.85
383.301	6.79
383.663	6.75
384.024	6.68
384.386	6.65
384.747	6.63
385.109	6.59
385.47	6.51
385.832	6.49
386.193	6.55
386.554	6.55
386.916	6.48
387.277	6.45
387.638	6.44
387.999	6.42
388.36	6.38
388.721	6.37
389.082	6.35
389.443	6.25
389.804	6.17
390.165	6.1
390.526	6.11
390.887	6.09
391.248	6.07
391.609	6
391.969	5.94
392.33	5.9
392.691	5.89
393.051	5.86
393.412	5.84
393.772	5.74
394.133	5.67
394.493	5.66
394.854	5.6
395.214	5.6
395.574	5.54
395.935	5.5
396.295	5.48
396.655	5.41
397.015	5.39
397.376	5.41
397.736	5.43
398.096	5.37
398.456	5.33
398.816	5.24
399.176	5.19
399.535	5.14
399.895	5.09
400.255	5.05
400.615	5
400.975	4.94
401.334	4.89
401.694	4.89
402.054	4.85
402.413	4.82
402.773	4.74
403.132	4.68
403.492	4.67
403.851	4.62
404.211	4.6
404.57	4.57
404.929	4.56
405.288	4.5
405.648	4.52
406.007	4.52
406.366	4.52
406.725	4.56
407.084	4.56
407.443	4.53
407.802	4.51
408.161	4.49
408.52	4.47
408.879	4.49
409.238	4.49
409.596	4.49
409.955	4.47
410.314	4.48
410.673	4.47
411.031	4.47
411.39	4.43
411.748	4.42
412.107	4.41
412.465	4.35
412.824	4.35
413.182	4.28
413.54	4.29
413.899	4.3
414.257	4.27
414.615	4.26
414.974	4.26
415.332	4.23
415.69	4.22
416.048	4.18
416.406	4.16
416.764	4.11
417.122	4.09
417.48	4.05
417.838	4.06
418.195	4.04
418.553	4.01
418.911	4.01
419.269	4
419.626	3.98
419.984	3.98
420.342	3.96
420.699	3.94
421.057	3.92
421.414	3.88
421.772	3.87
422.129	3.86
422.486	3.83
422.844	3.84
423.201	3.82
423.558	3.82
423.915	3.79
424.273	3.78
424.63	3.76
424.987	3.76
425.344	3.73
425.701	3.72
426.058	3.71
426.415	3.69
426.772	3.67
427.128	3.67
427.485	3.65
427.842	3.65
428.199	3.65
428.555	3.65
428.912	3.66
429.269	3.65
429.625	3.64
429.982	3.63
430.338	3.64
430.695	3.64
431.051	3.64
431.407	3.65
431.764	3.65
432.12	3.64
432.476	3.64
432.832	3.65
433.189	3.66
433.545	3.65
433.901	3.65
434.257	3.64
434.613	3.63
434.969	3.63
435.325	3.64
435.681	3.64
436.036	3.64
436.392	3.65
436.748	3.65
437.104	3.65
437.459	3.65
437.815	3.63
438.171	3.63
438.526	3.64
438.882	3.64
439.237	3.64
439.593	3.65
439.948	3.63
440.304	3.63
440.659	3.64
441.014	3.66
441.369	3.66
441.725	3.67
442.08	3.68
442.435	3.67
442.79	3.66
443.145	3.65
443.5	3.63
443.855	3.6
444.21	3.59
444.565	3.59
444.92	3.57
445.275	3.56
445.629	3.54
445.984	3.52
446.339	3.49
446.693	3.48
447.048	3.46
447.403	3.47
447.757	3.45
448.112	3.44
448.466	3.42
448.82	3.42
449.175	3.41
449.529	3.4
449.883	3.37
450.238	3.37
450.592	3.37
450.946	3.37
451.3	3.36
451.654	3.35
452.008	3.35
452.362	3.35
452.716	3.35
453.07	3.35
453.424	3.37
453.778	3.39
454.132	3.38
454.486	3.38
454.839	3.39
455.193	3.37
455.547	3.37
455.9	3.39
456.254	3.39
456.607	3.37
456.961	3.37
457.314	3.36
457.668	3.35
458.021	3.34
458.375	3.34
458.728	3.34
459.081	3.37
459.434	3.37
459.787	3.39
460.141	3.41
460.494	3.42
460.847	3.43
461.2	3.43
461.553	3.45
461.906	3.45
462.259	3.46
462.611	3.47
462.964	3.48
463.317	3.46
463.67	3.47
464.022	3.48
464.375	3.49
464.728	3.51
465.08	3.53
465.433	3.53
465.785	3.54
466.138	3.55
466.49	3.56
466.843	3.56
467.195	3.56
467.547	3.55
467.899	3.55
468.252	3.56
468.604	3.59
468.956	3.6
469.308	3.63
469.66	3.63
470.012	3.66
470.364	3.67
470.716	3.7
471.068	3.71
471.42	3.72
471.772	3.75
472.123	3.76
472.475	3.79
472.827	3.8
473.178	3.81
473.53	3.81
473.882	3.79
474.233	3.8
474.585	3.78
474.936	3.79
475.288	3.78
475.639	3.78
475.99	3.77
476.342	3.75
476.693	3.74
477.044	3.74
477.395	3.75
477.746	3.74
478.097	3.73
478.448	3.74
478.8	3.71
479.15	3.7
479.501	3.69
479.852	3.68
480.203	3.67
480.554	3.67
480.905	3.68
481.255	3.66
481.606	3.65
481.957	3.65
482.307	3.66
482.658	3.65
483.009	3.64
483.359	3.64
483.709	3.64
484.06	3.62
484.41	3.62
484.761	3.61
485.111	3.61
485.461	3.61
485.811	3.61
486.162	3.62
486.512	3.62
486.862	3.62
487.212	3.62
487.562	3.62
487.912	3.62
488.262	3.62
488.612	3.63
488.961	3.64
489.311	3.64
489.661	3.64
490.011	3.65
490.36	3.66
490.71	3.66
491.06	3.67
491.409	3.69
491.759	3.69
492.108	3.69
492.458	3.7
492.807	3.72
493.157	3.72
493.506	3.73
493.855	3.74
494.204	3.74
494.554	3.76
494.903	3.76
495.252	3.77
495.601	3.79
495.95	3.79
496.299	3.81
496.648	3.83
496.997	3.85
497.346	3.87
497.695	3.9
498.043	3.94
498.392	3.93
498.741	3.96
499.09	3.99
499.438	4.04
499.787	4.06
500.135	4.09
500.484	4.12
500.832	4.17
501.181	4.21
501.529	4.27
501.878	4.31
502.226	4.36
502.574	4.44
502.923	4.5
503.271	4.56
503.619	4.6
503.967	4.67
504.315	4.72
504.663	4.79
505.011	4.85
505.359	4.89
505.707	4.99
506.055	5.07
506.403	5.14
506.751	5.21
507.098	5.27
507.446	5.34
507.794	5.42
508.141	5.49
508.489	5.57
508.837	5.64
509.184	5.73
509.531	5.82
509.879	5.91
510.226	6.01
510.574	6.08
510.921	6.17
511.268	6.26
511.616	6.34
511.963	6.43
512.31	6.51
512.657	6.63
513.004	6.72
513.351	6.84
513.698	6.96
514.045	7.08
514.392	7.21
514.739	7.33
515.086	7.45
515.432	7.58
515.779	7.7
516.126	7.86
516.473	7.96
516.819	8.08
517.166	8.2
517.512	8.31
517.859	8.45
518.205	8.55
518.552	8.66
518.898	8.79
519.245	8.91
519.591	9.04
519.937	9.16
520.283	9.32
520.629	9.45
520.976	9.61
521.322	9.79
521.668	9.98
522.014	10.15
522.36	10.35
522.706	10.54
523.052	10.74
523.398	10.95
523.743	11.2
524.089	11.43
524.435	11.64
524.781	11.87
525.126	12.09
525.472	12.3
525.817	12.5
526.163	12.68
526.509	12.85
526.854	13
527.199	13.17
527.545	13.31
527.89	13.47
528.235	13.65
528.581	13.81
528.926	13.98
529.271	14.16
529.616	14.33
529.961	14.48
530.306	14.67
530.651	14.87
530.996	15.07
531.341	15.28
531.686	15.49
532.031	15.72
532.376	15.94
532.721	16.18
533.065	16.42
533.41	16.69
533.755	16.97
534.099	17.27
534.444	17.55
534.788	17.84
535.133	18.09
535.477	18.37
535.822	18.65
536.166	18.93
536.51	19.25
536.855	19.61
537.199	19.99
537.543	20.33
537.887	20.68
538.231	21.04
538.576	21.44
538.92	21.82
539.264	22.19
539.608	22.54
539.951	22.85
540.295	23.16
540.639	23.44
540.983	23.7
541.327	23.99
541.671	24.25
542.014	24.54
542.358	24.81
542.701	25.1
543.045	25.39
543.389	25.68
543.732	25.95
544.075	26.25
544.419	26.53
544.762	26.9
545.105	27.23
545.449	27.56
545.792	27.89
546.135	28.24
546.478	28.57
546.821	28.96
547.165	29.35
547.508	29.8
547.851	30.19
548.194	30.59
548.536	30.96
548.879	31.41
549.222	31.74
549.565	32.16
549.908	32.51
550.25	32.9
550.593	33.3
550.936	33.72
551.278	34.06
551.621	34.46
551.963	34.85
552.306	35.23
552.648	35.6
552.991	35.98
553.333	36.31
553.675	36.67
554.017	37.03
554.36	37.35
554.702	37.63
555.044	37.96
555.386	38.25
555.728	38.58
556.07	38.87
556.412	39.27
556.754	39.59
557.096	39.96
557.438	40.22
557.78	40.5
558.121	40.89
558.463	41.22
558.805	41.54
559.147	41.77
559.488	42.08
559.83	42.35
560.171	42.64
560.513	42.95
560.854	43.22
561.196	43.48
561.537	43.79
561.878	44.04
562.22	44.36
562.561	44.7
562.902	44.95
563.243	45.22
563.584	45.4
563.925	45.65
564.266	45.9
564.607	46.17
564.948	46.39
565.289	46.55
565.63	46.78
565.971	46.98
566.312	47.2
566.653	47.4
566.993	47.59
567.334	47.8
567.675	48.02
568.015	48.2
568.356	48.39
568.696	48.56
569.037	48.75
569.377	48.91
569.718	49.03
570.058	49.2
570.398	49.44
570.739	49.61
571.079	49.77
571.419	49.96
571.759	50.18
572.099	50.31
572.439	50.51
572.779	50.68
573.119	50.83
573.459	51
573.799	51.15
574.139	51.38
574.479	51.49
574.819	51.66
575.158	51.75
575.498	51.92
575.838	52.05
576.177	52.2
576.517	52.35
576.856	52.53
577.196	52.69
577.535	52.77
577.875	52.94
578.214	53.07
578.553	53.17
578.893	53.21
579.232	53.45
579.571	53.54
579.91	53.65
580.25	53.76
580.589	53.87
580.928	54.03
581.267	54.12
581.606	54.19
581.945	54.26
582.283	54.43
582.622	54.53
582.961	54.59
583.3	54.68
583.639	54.82
583.977	54.99
584.316	55.11
584.654	55.21
584.993	55.3
585.332	55.45
585.67	55.54
586.008	55.73
586.347	55.73
586.685	55.85
587.024	55.94
587.362	56.05
587.7	56.18
588.038	56.33
588.376	56.42
588.715	56.6
589.053	56.74
589.391	56.88
589.729	56.92
590.067	57.02
590.404	57.1
590.742	57.13
591.08	57.14
591.418	57.25
591.756	57.38
592.093	57.49
592.431	57.58
592.769	57.64
593.106	57.72
593.444	57.86
593.781	57.93
594.119	58.06
594.456	58.12
594.793	58.1
595.131	58.07
595.468	58.13
595.805	58.15
596.143	58.14
596.48	58.13
596.817	58.2
597.154	58.27
597.491	58.34
597.828	58.46
598.165	58.58
598.502	58.65
598.839	58.7
599.176	58.79
599.512	58.92
599.849	58.96
600.186	58.99
600.523	59.11
600.859	59.21
601.196	59.29
601.532	59.39
601.869	59.6
602.205	59.69
602.542	59.72
602.878	59.84
603.215	59.88
603.551	59.97
603.887	60.03
604.223	60.08
604.56	60.1
604.896	60.09
605.232	60.16
605.568	60.22
605.904	60.24
606.24	60.24
606.576	60.23
606.912	60.33
607.248	60.41
607.583	60.44
607.919	60.46
608.255	60.49
608.591	60.52
608.926	60.49
609.262	60.59
609.597	60.65
609.933	60.66
610.268	60.74
610.604	60.85
610.939	60.91
611.275	61.03
611.61	61.07
611.945	61.19
612.281	61.19
612.616	61.21
612.951	61.25
613.286	61.37
613.621	61.35
613.956	61.43
614.291	61.53
614.626	61.57
614.961	61.6
615.296	61.61
615.631	61.63
615.966	61.8
616.3	61.8
616.635	61.89
616.97	61.97
617.304	62.02
617.639	62.01
617.973	62.04
618.308	62.05
618.642	62.17
618.977	62.18
619.311	62.17
619.646	62.22
619.98	62.27
620.314	62.3
620.648	62.32
620.983	62.42
621.317	62.3
621.651	62.2
621.985	62.3
622.319	62.33
622.653	62.41
622.987	62.3
623.321	62.23
623.655	62.23
623.988	62.34
624.322	62.32
624.656	62.35
624.99	62.31
625.323	62.32
625.657	62.3
625.99	62.32
626.324	62.43
626.657	62.43
626.991	62.48
627.324	62.46
627.658	62.55
627.991	62.43
628.324	62.52
628.657	62.61
628.991	62.67
629.324	62.68
629.657	62.72
629.99	62.74
630.323	62.87
630.656	62.96
630.989	62.88
631.322	62.91
631.655	62.92
631.987	63.06
632.32	63.12
632.653	63.24
632.986	63.27
633.318	63.2
633.651	63.28
633.984	63.3
634.316	63.32
634.649	63.29
634.981	63.33
635.313	63.43
635.646	63.41
635.978	63.43
636.31	63.49
636.643	63.54
636.975	63.56
637.307	63.63
637.639	63.57
637.971	63.62
638.303	63.68
638.635	63.68
638.967	63.62
639.299	63.63
639.631	63.52
639.963	63.54
640.295	63.66
640.626	63.73
640.958	63.74
641.29	63.85
641.621	63.94
641.953	64.02
642.285	63.92
642.616	63.94
642.948	63.98
643.279	64
643.61	63.85
643.942	63.96
644.273	63.81
644.604	63.91
644.936	63.87
645.267	63.95
645.598	63.97
645.929	64.04
646.26	64.03
646.591	64.04
646.922	64.05
647.253	63.95
647.584	63.9
647.915	64.02
648.245	63.97
648.576	64.12
648.907	64.18
649.238	64.31
649.568	64.47
649.899	64.37
650.229	64.39
650.56	64.49
650.89	64.53
651.221	64.59
651.551	64.47
651.882	64.53
652.212	64.48
652.542	64.66
652.872	64.67
653.203	64.86
653.533	64.94
653.863	64.92
654.193	65.02
654.523	65.02
654.853	65.06
655.183	65.15
655.513	65.1
655.843	65.15
656.172	65.14
656.502	65.07
656.832	65.09
657.162	65.18
657.491	65.26
657.821	65.23
658.15	65.42
658.48	65.53
658.809	65.49
659.139	65.67
659.468	65.55
659.798	65.53
660.127	65.42
660.456	65.54
660.785	65.72
661.115	65.67
661.444	65.64
661.773	65.6
662.102	65.58
662.431	65.53
662.76	65.48
663.089	65.58
663.418	65.58
663.747	65.74
664.076	65.73
664.404	65.76
664.733	65.74
665.062	65.53
665.39	65.53
665.719	65.65
666.048	65.62
666.376	65.84
666.705	65.79
667.033	65.74
667.362	65.69
667.69	65.59
668.018	65.74
668.347	65.81
668.675	65.81
