Data from BA57663_Reflection_00013.txt Node
Date: Mon Nov 18 15:44:14 EST 2019
User: vgr7
Spectrometer: USB2G7710
Scans to average: 3
Trigger mode: 4
Integration Time (sec): 2.000000E-2
Electric dark correction enabled: true
Boxcar width: 10
XAxis mode: Wavelengths
Number of Pixels in Spectrum: 2048
>>>>>Begin Spectral Data<<<<<
177.721	160.7
178.105	-131.21
178.488	-80.44
178.871	-138.84
179.254	-86.63
179.636	237.17
180.019	36.29
180.402	117.86
180.785	-36.88
181.168	-31.27
181.55	-27.05
181.933	50.28
182.316	54.77
182.698	43.65
183.081	59.16
183.463	56.52
183.846	68.15
184.228	79.73
184.611	60.93
184.993	83.32
185.376	65.9
185.758	74.22
186.14	53.58
186.522	51.14
186.904	35.04
187.287	51.32
187.669	80.84
188.051	104.78
188.433	91.83
188.815	108.46
189.197	139.66
189.579	269.23
189.961	214.82
190.342	264.23
190.724	4818.31
191.106	2553.42
191.488	1041.89
191.869	8232.08
192.251	3069.47
192.633	-4019.27
193.014	-1401.63
193.396	1293.55
193.777	864.24
194.159	1572.13
194.54	1775.77
194.922	-3195.86
195.303	-1589.66
195.684	-460900
196.065	-600.16
196.447	-451.07
196.828	-423.41
197.209	-257.39
197.59	-383.35
197.971	-296.11
198.352	-279.96
198.733	-1486.57
199.114	-2525.9
199.495	-1061.21
199.876	-959.7
200.257	-653.98
200.638	-502.68
201.018	-389.78
201.399	-292.27
201.78	-189.12
202.16	-220.85
202.541	-267.83
202.922	-269.31
203.302	-374.42
203.683	-596.61
204.063	-693.81
204.444	-1319.62
204.824	-2113.27
205.204	-953.01
205.585	-649.59
205.965	-567.18
206.345	-843.84
206.725	-380.24
207.106	-477.8
207.486	-829.98
207.866	1575.77
208.246	682.5
208.626	399.31
209.006	430.06
209.386	403.41
209.766	251.76
210.145	220.16
210.525	349.39
210.905	263.79
211.285	543.71
211.664	1833.03
212.044	860
212.424	5832.39
212.803	11636.59
213.183	1319.32
213.562	895.07
213.942	20665.22
214.321	-2119.51
214.701	-800.88
215.08	-1381.36
215.459	-1693.52
215.838	-378.09
216.218	-462.82
216.597	-240.46
216.976	-270.2
217.355	-426.01
217.734	-287.6
218.113	-199.94
218.492	-309.73
218.871	-243.97
219.25	-267.88
219.629	-305.71
220.008	-278.78
220.387	-244.4
220.766	-255.46
221.144	-707.36
221.523	-507.28
221.902	-778.67
222.28	-1148.24
222.659	-2461.5
223.037	-909.24
223.416	-666.73
223.794	-537.96
224.173	-227.6
224.551	-99.62
224.929	-95.19
225.308	-67.75
225.686	-65.16
226.064	-51.49
226.442	-44.23
226.821	-34.56
227.199	-32.43
227.577	-27.73
227.955	-26.26
228.333	-20.7
228.711	-14.55
229.089	-9.2
229.467	-12.07
229.845	-11.56
230.222	-7.69
230.6	-8.24
230.978	-7.81
231.356	-6.33
231.733	-5.64
232.111	-3.14
232.488	-4.58
232.866	-2.2
233.243	-2.63
233.621	-2.65
233.998	-1.51
234.376	-1.63
234.753	-2.81
235.13	-2.54
235.508	-2.45
235.885	-2.12
236.262	-2.68
236.639	-2.88
237.016	-2.49
237.393	0.24
237.77	1.2
238.147	1.38
238.524	1.27
238.901	1.1
239.278	1.28
239.655	2.71
240.032	2.6
240.409	2.54
240.785	2.97
241.162	3.11
241.539	3.5
241.915	3.44
242.292	3.45
242.668	3.88
243.045	3.93
243.421	3.9
243.798	3.97
244.174	3.96
244.551	3.62
244.927	3.38
245.303	3.13
245.679	3.19
246.056	3.23
246.432	3.37
246.808	3.3
247.184	3.22
247.56	2.89
247.936	2.86
248.312	3.05
248.688	2.97
249.064	2.98
249.44	2.98
249.815	2.95
250.191	3.25
250.567	3.21
250.943	3
251.318	2.92
251.694	3.06
252.069	3.16
252.445	3.43
252.82	3.45
253.196	3.45
253.571	3.26
253.947	3.2
254.322	3.22
254.697	3.08
255.073	2.89
255.448	2.75
255.823	2.88
256.198	2.91
256.573	2.9
256.948	2.96
257.323	3.17
257.698	3.29
258.073	3.16
258.448	3.21
258.823	3.31
259.198	3.3
259.573	3.16
259.948	3.12
260.322	3.16
260.697	3.04
261.072	3.01
261.446	3.02
261.821	2.95
262.195	2.91
262.57	2.86
262.944	2.82
263.319	2.85
263.693	2.61
264.067	2.64
264.442	2.62
264.816	2.54
265.19	2.38
265.564	2.27
265.938	2.05
266.313	1.98
266.687	1.96
267.061	2.14
267.435	2.38
267.809	2.26
268.183	2.09
268.556	2.28
268.93	2.44
269.304	2.49
269.678	2.7
270.051	2.68
270.425	2.9
270.799	3.07
271.172	3.15
271.546	3.28
271.919	3.16
272.293	3.25
272.666	3.42
273.04	3.49
273.413	3.43
273.787	3.45
274.16	3.38
274.533	3.36
274.906	3.24
275.279	3
275.653	3.03
276.026	3.07
276.399	3.01
276.772	3
277.145	2.96
277.518	2.84
277.891	2.79
278.263	2.72
278.636	2.63
279.009	2.57
279.382	2.74
279.755	2.73
280.127	2.75
280.5	2.69
280.872	2.78
281.245	2.72
281.617	2.91
281.99	2.98
282.362	3.03
282.735	2.99
283.107	3.01
283.479	3.08
283.852	3.24
284.224	3.27
284.596	3.27
284.968	3.26
285.34	3.35
285.713	3.4
286.085	3.51
286.457	3.59
286.829	3.63
287.201	3.55
287.572	3.48
287.944	3.43
288.316	3.5
288.688	3.33
289.06	3.32
289.431	3.29
289.803	3.27
290.175	3.32
290.546	3.42
290.918	3.48
291.289	3.62
291.661	3.58
292.032	3.64
292.403	3.62
292.775	3.74
293.146	3.65
293.517	3.62
293.889	3.64
294.26	3.7
294.631	3.76
295.002	3.86
295.373	3.93
295.744	3.87
296.115	3.8
296.486	3.8
296.857	3.92
297.228	3.95
297.599	3.9
297.97	3.98
298.34	4.01
298.711	4.08
299.082	4.03
299.452	4.02
299.823	4.04
300.194	4.04
300.564	4.02
300.935	4.1
301.305	4.16
301.676	4.1
302.046	4.14
302.416	4.22
302.787	4.19
303.157	4.23
303.527	4.47
303.897	4.37
304.267	4.54
304.637	4.68
305.008	4.74
305.378	4.85
305.748	4.91
306.117	4.88
306.487	5.02
306.857	5.11
307.227	5.32
307.597	5.46
307.967	5.62
308.336	5.71
308.706	5.79
309.076	5.89
309.445	5.88
309.815	6
310.184	5.96
310.554	6.15
310.923	6.16
311.293	6.21
311.662	6.3
312.031	6.28
312.401	6.37
312.77	6.52
313.139	6.67
313.508	6.68
313.877	6.89
314.246	6.8
314.616	6.68
314.985	6.67
315.353	6.6
315.722	6.75
316.091	6.83
316.46	6.75
316.829	6.81
317.198	6.96
317.567	6.91
317.935	7.05
318.304	6.99
318.672	7.04
319.041	7.18
319.41	7.32
319.778	7.49
320.147	7.49
320.515	7.49
320.883	7.43
321.252	7.46
321.62	7.55
321.988	7.66
322.357	7.85
322.725	7.87
323.093	7.94
323.461	7.95
323.829	8.06
324.197	8.23
324.565	8.31
324.933	8.33
325.301	8.36
325.669	8.35
326.037	8.39
326.405	8.52
326.772	8.44
327.14	8.66
327.508	8.75
327.875	8.77
328.243	8.85
328.61	8.87
328.978	8.94
329.346	8.86
329.713	8.91
330.08	8.96
330.448	8.93
330.815	9.04
331.182	9.15
331.55	9.18
331.917	9.23
332.284	9.35
332.651	9.38
333.018	9.57
333.385	9.67
333.752	9.61
334.119	9.61
334.486	9.68
334.853	9.62
335.22	9.63
335.587	9.67
335.954	9.8
336.32	9.93
336.687	10.02
337.054	10.15
337.42	10.24
337.787	10.26
338.153	10.39
338.52	10.43
338.886	10.33
339.253	10.33
339.619	10.32
339.986	10.33
340.352	10.47
340.718	10.37
341.084	10.26
341.451	10.44
341.817	10.65
342.183	10.63
342.549	10.71
342.915	10.75
343.281	10.75
343.647	10.71
344.013	10.71
344.379	10.67
344.745	10.69
345.11	10.73
345.476	10.82
345.842	10.74
346.208	10.74
346.573	10.85
346.939	11.02
347.304	11.07
347.67	10.98
348.035	10.94
348.401	10.92
348.766	11.03
349.132	11.1
349.497	11
349.862	11.08
350.228	11.07
350.593	11.05
350.958	11.02
351.323	10.92
351.688	10.93
352.053	10.94
352.418	10.91
352.783	10.95
353.148	10.92
353.513	11.04
353.878	11.02
354.243	11.01
354.608	10.88
354.972	10.89
355.337	10.99
355.702	10.99
356.066	11.08
356.431	11.05
356.795	11.01
357.16	10.93
357.524	10.85
357.889	10.79
358.253	10.8
358.618	10.83
358.982	10.82
359.346	10.75
359.71	10.69
360.075	10.72
360.439	10.64
360.803	10.6
361.167	10.61
361.531	10.62
361.895	10.49
362.259	10.43
362.623	10.39
362.987	10.29
363.351	10.24
363.714	10.16
364.078	10.1
364.442	10.03
364.806	10
365.169	9.97
365.533	10
365.896	9.9
366.26	9.82
366.623	9.79
366.987	9.8
367.35	9.84
367.714	9.76
368.077	9.68
368.44	9.61
368.803	9.43
369.167	9.31
369.53	9.31
369.893	9.29
370.256	9.19
370.619	9.15
370.982	9.09
371.345	9.06
371.708	9.02
372.071	8.86
372.434	8.81
372.797	8.73
373.159	8.57
373.522	8.58
373.885	8.57
374.247	8.55
374.61	8.49
374.973	8.37
375.335	8.32
375.698	8.33
376.06	8.27
376.423	8.24
376.785	8.23
377.147	8.16
377.51	8.08
377.872	8.08
378.234	8
378.596	7.99
378.958	7.89
379.321	7.89
379.683	7.92
380.045	7.86
380.407	7.85
380.769	7.84
381.13	7.71
381.492	7.61
381.854	7.55
382.216	7.47
382.578	7.43
382.939	7.36
383.301	7.24
383.663	7.18
384.024	7.13
384.386	7.11
384.747	7.12
385.109	7.08
385.47	6.99
385.832	6.96
386.193	6.89
386.554	6.89
386.916	6.82
387.277	6.75
387.638	6.73
387.999	6.65
388.36	6.59
388.721	6.6
389.082	6.57
389.443	6.51
389.804	6.42
390.165	6.37
390.526	6.32
390.887	6.29
391.248	6.28
391.609	6.24
391.969	6.16
392.33	6.07
392.691	6.06
393.051	6.03
393.412	5.97
393.772	5.92
394.133	5.86
394.493	5.82
394.854	5.77
395.214	5.72
395.574	5.68
395.935	5.65
396.295	5.62
396.655	5.58
397.015	5.55
397.376	5.54
397.736	5.5
398.096	5.43
398.456	5.39
398.816	5.37
399.176	5.3
399.535	5.27
399.895	5.25
400.255	5.21
400.615	5.17
400.975	5.16
401.334	5.13
401.694	5.1
402.054	5.04
402.413	5.03
402.773	5.01
403.132	4.97
403.492	4.96
403.851	4.91
404.211	4.88
404.57	4.86
404.929	4.84
405.288	4.82
405.648	4.81
406.007	4.83
406.366	4.8
406.725	4.82
407.084	4.82
407.443	4.77
407.802	4.74
408.161	4.74
408.52	4.69
408.879	4.67
409.238	4.66
409.596	4.66
409.955	4.63
410.314	4.62
410.673	4.62
411.031	4.58
411.39	4.56
411.748	4.57
412.107	4.57
412.465	4.55
412.824	4.54
413.182	4.53
413.54	4.48
413.899	4.48
414.257	4.42
414.615	4.39
414.974	4.38
415.332	4.37
415.69	4.34
416.048	4.31
416.406	4.3
416.764	4.27
417.122	4.26
417.48	4.24
417.838	4.21
418.195	4.19
418.553	4.19
418.911	4.16
419.269	4.11
419.626	4.08
419.984	4.06
420.342	4.04
420.699	4.03
421.057	4.03
421.414	3.99
421.772	3.98
422.129	3.96
422.486	3.95
422.844	3.94
423.201	3.93
423.558	3.93
423.915	3.91
424.273	3.91
424.63	3.89
424.987	3.86
425.344	3.85
425.701	3.82
426.058	3.8
426.415	3.79
426.772	3.8
427.128	3.77
427.485	3.76
427.842	3.75
428.199	3.71
428.555	3.68
428.912	3.68
429.269	3.7
429.625	3.7
429.982	3.67
430.338	3.65
430.695	3.64
431.051	3.61
431.407	3.61
431.764	3.6
432.12	3.6
432.476	3.64
432.832	3.64
433.189	3.65
433.545	3.66
433.901	3.65
434.257	3.63
434.613	3.63
434.969	3.63
435.325	3.62
435.681	3.62
436.036	3.62
436.392	3.63
436.748	3.61
437.104	3.6
437.459	3.6
437.815	3.6
438.171	3.61
438.526	3.62
438.882	3.62
439.237	3.61
439.593	3.6
439.948	3.59
440.304	3.58
440.659	3.56
441.014	3.56
441.369	3.54
441.725	3.55
442.08	3.54
442.435	3.53
442.79	3.54
443.145	3.53
443.5	3.52
443.855	3.51
444.21	3.49
444.565	3.5
444.92	3.52
445.275	3.49
445.629	3.48
445.984	3.46
446.339	3.44
446.693	3.44
447.048	3.44
447.403	3.43
447.757	3.41
448.112	3.41
448.466	3.4
448.82	3.41
449.175	3.41
449.529	3.41
449.883	3.39
450.238	3.37
450.592	3.39
450.946	3.38
451.3	3.38
451.654	3.39
452.008	3.35
452.362	3.33
452.716	3.35
453.07	3.36
453.424	3.36
453.778	3.36
454.132	3.34
454.486	3.34
454.839	3.33
455.193	3.33
455.547	3.34
455.9	3.33
456.254	3.34
456.607	3.35
456.961	3.35
457.314	3.35
457.668	3.36
458.021	3.34
458.375	3.35
458.728	3.35
459.081	3.35
459.434	3.36
459.787	3.36
460.141	3.35
460.494	3.35
460.847	3.35
461.2	3.36
461.553	3.37
461.906	3.38
462.259	3.39
462.611	3.41
462.964	3.4
463.317	3.42
463.67	3.41
464.022	3.42
464.375	3.41
464.728	3.44
465.08	3.45
465.433	3.46
465.785	3.48
466.138	3.48
466.49	3.49
466.843	3.47
467.195	3.49
467.547	3.51
467.899	3.53
468.252	3.54
468.604	3.53
468.956	3.53
469.308	3.52
469.66	3.52
470.012	3.53
470.364	3.55
470.716	3.55
471.068	3.55
471.42	3.54
471.772	3.56
472.123	3.57
472.475	3.57
472.827	3.57
473.178	3.56
473.53	3.56
473.882	3.56
474.233	3.6
474.585	3.56
474.936	3.57
475.288	3.55
475.639	3.56
475.99	3.58
476.342	3.58
476.693	3.6
477.044	3.62
477.395	3.61
477.746	3.6
478.097	3.6
478.448	3.6
478.8	3.6
479.15	3.59
479.501	3.6
479.852	3.6
480.203	3.6
480.554	3.61
480.905	3.62
481.255	3.62
481.606	3.62
481.957	3.64
482.307	3.64
482.658	3.65
483.009	3.65
483.359	3.64
483.709	3.64
484.06	3.63
484.41	3.63
484.761	3.64
485.111	3.64
485.461	3.66
485.811	3.66
486.162	3.66
486.512	3.68
486.862	3.68
487.212	3.68
487.562	3.69
487.912	3.69
488.262	3.69
488.612	3.7
488.961	3.7
489.311	3.71
489.661	3.72
490.011	3.72
490.36	3.73
490.71	3.74
491.06	3.75
491.409	3.76
491.759	3.76
492.108	3.77
492.458	3.78
492.807	3.77
493.157	3.79
493.506	3.81
493.855	3.81
494.204	3.83
494.554	3.84
494.903	3.85
495.252	3.89
495.601	3.91
495.95	3.93
496.299	3.96
496.648	3.98
496.997	4.01
497.346	4.04
497.695	4.08
498.043	4.12
498.392	4.14
498.741	4.16
499.09	4.2
499.438	4.24
499.787	4.3
500.135	4.36
500.484	4.38
500.832	4.42
501.181	4.45
501.529	4.49
501.878	4.55
502.226	4.62
502.574	4.65
502.923	4.7
503.271	4.74
503.619	4.79
503.967	4.84
504.315	4.89
504.663	4.93
505.011	4.97
505.359	5.02
505.707	5.11
506.055	5.18
506.403	5.23
506.751	5.29
507.098	5.33
507.446	5.4
507.794	5.49
508.141	5.56
508.489	5.6
508.837	5.69
509.184	5.76
509.531	5.8
509.879	5.89
510.226	5.97
510.574	6.05
510.921	6.13
511.268	6.18
511.616	6.26
511.963	6.33
512.31	6.42
512.657	6.49
513.004	6.57
513.351	6.67
513.698	6.79
514.045	6.88
514.392	6.99
514.739	7.09
515.086	7.2
515.432	7.3
515.779	7.42
516.126	7.53
516.473	7.63
516.819	7.76
517.166	7.86
517.512	7.94
517.859	8.03
518.205	8.12
518.552	8.24
518.898	8.32
519.245	8.42
519.591	8.53
519.937	8.64
520.283	8.74
520.629	8.86
520.976	8.98
521.322	9.14
521.668	9.26
522.014	9.37
522.36	9.51
522.706	9.66
523.052	9.84
523.398	10.01
523.743	10.19
524.089	10.37
524.435	10.54
524.781	10.73
525.126	10.91
525.472	11.08
525.817	11.22
526.163	11.36
526.509	11.51
526.854	11.63
527.199	11.76
527.545	11.88
527.89	11.98
528.235	12.1
528.581	12.21
528.926	12.36
529.271	12.5
529.616	12.63
529.961	12.76
530.306	12.9
530.651	13.05
530.996	13.2
531.341	13.35
531.686	13.52
532.031	13.69
532.376	13.85
532.721	14.04
533.065	14.23
533.41	14.43
533.755	14.63
534.099	14.86
534.444	15.07
534.788	15.3
535.133	15.52
535.477	15.76
535.822	15.99
536.166	16.22
536.51	16.48
536.855	16.77
537.199	17.05
537.543	17.34
537.887	17.65
538.231	17.94
538.576	18.25
538.92	18.59
539.264	18.85
539.608	19.12
539.951	19.39
540.295	19.63
540.639	19.86
540.983	20.1
541.327	20.31
541.671	20.56
542.014	20.76
542.358	21
542.701	21.22
543.045	21.45
543.389	21.67
543.732	21.89
544.075	22.12
544.419	22.36
544.762	22.61
545.105	22.86
545.449	23.13
545.792	23.4
546.135	23.65
546.478	23.98
546.821	24.3
547.165	24.61
547.508	24.94
547.851	25.26
548.194	25.56
548.536	25.88
548.879	26.16
549.222	26.56
549.565	26.85
549.908	27.2
550.25	27.57
550.593	27.94
550.936	28.28
551.278	28.61
551.621	28.94
551.963	29.28
552.306	29.6
552.648	29.91
552.991	30.24
553.333	30.55
553.675	30.83
554.017	31.08
554.36	31.33
554.702	31.64
555.044	31.92
555.386	32.18
555.728	32.47
556.07	32.78
556.412	33.01
556.754	33.34
557.096	33.55
557.438	33.8
557.78	34.09
558.121	34.41
558.463	34.7
558.805	34.99
559.147	35.23
559.488	35.46
559.83	35.76
560.171	36.02
560.513	36.29
560.854	36.52
561.196	36.79
561.537	37.07
561.878	37.28
562.22	37.56
562.561	37.78
562.902	38.02
563.243	38.23
563.584	38.44
563.925	38.64
564.266	38.89
564.607	39.13
564.948	39.32
565.289	39.48
565.63	39.65
565.971	39.87
566.312	40.05
566.653	40.24
566.993	40.41
567.334	40.57
567.675	40.71
568.015	40.93
568.356	41.09
568.696	41.26
569.037	41.46
569.377	41.6
569.718	41.8
570.058	41.96
570.398	42.11
570.739	42.29
571.079	42.42
571.419	42.53
571.759	42.67
572.099	42.78
572.439	42.9
572.779	43.06
573.119	43.14
573.459	43.31
573.799	43.44
574.139	43.55
574.479	43.7
574.819	43.84
575.158	43.91
575.498	44.06
575.838	44.14
576.177	44.24
576.517	44.37
576.856	44.51
577.196	44.66
577.535	44.84
577.875	45.02
578.214	45.13
578.553	45.3
578.893	45.43
579.232	45.58
579.571	45.72
579.91	45.85
580.25	46
580.589	46.11
580.928	46.25
581.267	46.43
581.606	46.5
581.945	46.57
582.283	46.72
582.622	46.83
582.961	46.93
583.3	47.05
583.639	47.16
583.977	47.22
584.316	47.32
584.654	47.36
584.993	47.41
585.332	47.52
585.67	47.59
586.008	47.64
586.347	47.75
586.685	47.85
587.024	47.92
587.362	48.09
587.7	48.1
588.038	48.18
588.376	48.18
588.715	48.27
589.053	48.38
589.391	48.45
589.729	48.54
590.067	48.6
590.404	48.69
590.742	48.81
591.08	48.92
591.418	48.94
591.756	48.97
592.093	49.04
592.431	49.12
592.769	49.13
593.106	49.22
593.444	49.24
593.781	49.22
594.119	49.31
594.456	49.19
594.793	49.16
595.131	49.2
595.468	49.25
595.805	49.3
596.143	49.31
596.48	49.36
596.817	49.42
597.154	49.55
597.491	49.56
597.828	49.47
598.165	49.51
598.502	49.49
598.839	49.57
599.176	49.55
599.512	49.54
599.849	49.54
600.186	49.56
600.523	49.55
600.859	49.67
601.196	49.69
601.532	49.8
601.869	49.9
602.205	49.93
602.542	49.97
602.878	50.02
603.215	50.09
603.551	50.06
603.887	50.02
604.223	49.98
604.56	50.03
604.896	50.09
605.232	50.07
605.568	50.13
605.904	50.18
606.24	50.29
606.576	50.34
606.912	50.48
607.248	50.45
607.583	50.51
607.919	50.51
608.255	50.55
608.591	50.62
608.926	50.66
609.262	50.72
609.597	50.79
609.933	50.83
610.268	50.88
610.604	50.94
610.939	51.03
611.275	51.06
611.61	51.08
611.945	51.14
612.281	51.24
612.616	51.28
612.951	51.34
613.286	51.36
613.621	51.5
613.956	51.46
614.291	51.61
614.626	51.77
614.961	51.81
615.296	51.8
615.631	51.81
615.966	51.87
616.3	51.93
616.635	51.93
616.97	51.92
617.304	51.88
617.639	52
617.973	52.04
618.308	52.17
618.642	52.21
618.977	52.22
619.311	52.18
619.646	52.32
619.98	52.31
620.314	52.44
620.648	52.39
620.983	52.47
621.317	52.47
621.651	52.39
621.985	52.49
622.319	52.62
622.653	52.7
622.987	52.77
623.321	52.74
623.655	52.69
623.988	52.72
624.322	52.73
624.656	52.65
624.99	52.64
625.323	52.58
625.657	52.49
625.99	52.52
626.324	52.64
626.657	52.55
626.991	52.53
627.324	52.42
627.658	52.52
627.991	52.56
628.324	52.61
628.657	52.65
628.991	52.59
629.324	52.6
629.657	52.51
629.99	52.49
630.323	52.45
630.656	52.43
630.989	52.45
631.322	52.54
631.655	52.58
631.987	52.64
632.32	52.68
632.653	52.71
632.986	52.8
633.318	52.76
633.651	52.82
633.984	52.88
634.316	52.92
634.649	52.78
634.981	52.88
635.313	52.79
635.646	52.74
635.978	52.85
636.31	52.83
636.643	52.91
636.975	52.98
637.307	53.13
637.639	53.26
637.971	53.21
638.303	53.24
638.635	53.28
638.967	53.3
639.299	53.37
639.631	53.54
639.963	53.4
640.295	53.4
640.626	53.44
640.958	53.41
641.29	53.39
641.621	53.49
641.953	53.49
642.285	53.6
642.616	53.62
642.948	53.62
643.279	53.71
643.61	53.65
643.942	53.66
644.273	53.53
644.604	53.5
644.936	53.56
645.267	53.45
645.598	53.48
645.929	53.54
646.26	53.48
646.591	53.42
646.922	53.5
647.253	53.5
647.584	53.48
647.915	53.52
648.245	53.47
648.576	53.54
648.907	53.45
649.238	53.41
649.568	53.5
649.899	53.48
650.229	53.28
650.56	53.34
650.89	53.28
651.221	53.26
651.551	53.27
651.882	53.31
652.212	53.41
652.542	53.35
652.872	53.26
653.203	53.31
653.533	53.39
653.863	53.48
654.193	53.61
654.523	53.62
654.853	53.57
655.183	53.58
655.513	53.5
655.843	53.52
656.172	53.58
656.502	53.47
656.832	53.43
657.162	53.59
657.491	53.58
657.821	53.68
658.15	53.72
658.48	53.72
658.809	53.68
659.139	53.73
659.468	53.78
659.798	53.87
660.127	53.81
660.456	53.76
660.785	53.78
661.115	53.65
661.444	53.62
661.773	53.66
662.102	53.64
662.431	53.61
662.76	53.49
663.089	53.41
