Data from BA57758_Reflection_00011.txt Node
Date: Mon Nov 18 15:11:45 EST 2019
User: vgr7
Spectrometer: USB2G7710
Scans to average: 3
Trigger mode: 4
Integration Time (sec): 2.000000E-2
Electric dark correction enabled: true
Boxcar width: 10
XAxis mode: Wavelengths
Number of Pixels in Spectrum: 2048
>>>>>Begin Spectral Data<<<<<
177.721	533.2
178.105	203.14
178.488	173.22
178.871	112.69
179.254	144.85
179.636	-111.86
180.019	-662.38
180.402	-620
180.785	292.7
181.168	155.71
181.55	201.34
181.933	144.87
182.316	145.66
182.698	208.28
183.081	139.33
183.463	499.5
183.846	687.82
184.228	348.76
184.611	420.67
184.993	405.41
185.376	473.49
185.758	376.6
186.14	335.17
186.522	306.31
186.904	280.38
187.287	262.15
187.669	388.92
188.051	429.42
188.433	419.39
188.815	457.44
189.197	626.38
189.579	694.41
189.961	555.93
190.342	1898.59
190.724	2654.5
191.106	3475.69
191.488	8387.67
191.869	-1631.71
192.251	-469.26
192.633	-432.86
193.014	-571.45
193.396	-545.7
193.777	-900
194.159	-879.13
194.54	-465.04
194.922	-332.12
195.303	-295.6
195.684	-187.1
196.065	-92.35
196.447	-84.41
196.828	-94.69
197.209	-91.71
197.59	-87.24
197.971	-79.47
198.352	-68.3
198.733	-67.02
199.114	-41.32
199.495	-37.62
199.876	-60.54
200.257	-48.16
200.638	-75.37
201.018	-71.85
201.399	-62.6
201.78	-42.45
202.16	-50.16
202.541	-43.28
202.922	-58.43
203.302	-90.2
203.683	-143.75
204.063	-309.05
204.444	-293.74
204.824	-264.39
205.204	-484.25
205.585	-328
205.965	-459.71
206.345	-290.75
206.725	-566.09
207.106	-961.7
207.486	-770.74
207.866	-727.99
208.246	-1577.04
208.626	-1660.18
209.006	-469.66
209.386	13260
209.766	-681.58
210.145	-600.52
210.525	-1127.13
210.905	-262.9
211.285	-154.27
211.664	-94.69
212.044	-89.37
212.424	-82.28
212.803	-86.3
213.183	-77.63
213.562	-86.31
213.942	-59.5
214.321	-71.2
214.701	-72.46
215.08	-75.74
215.459	-73.43
215.838	-71.7
216.218	-68.88
216.597	-65.98
216.976	-78.71
217.355	-64.64
217.734	-85.02
218.113	-69.94
218.492	-62.09
218.871	-69.29
219.25	-75.35
219.629	-102.82
220.008	-98.48
220.387	-95.27
220.766	-94.51
221.144	-115.18
221.523	-120.78
221.902	-190.98
222.28	-187.68
222.659	-147.69
223.037	-147.4
223.416	-149.78
223.794	-119.5
224.173	-114.3
224.551	-79.42
224.929	-63.31
225.308	-55.68
225.686	-44.55
226.064	-38.63
226.442	-35.2
226.821	-20.37
227.199	-20.01
227.577	-19.3
227.955	-19.08
228.333	-18.63
228.711	-14.64
229.089	-8.1
229.467	-10.05
229.845	-5.84
230.222	-7.19
230.6	-9.91
230.978	-9.64
231.356	-6.96
231.733	-6.71
232.111	-6.88
232.488	-7.87
232.866	-6.02
233.243	-4.26
233.621	-4.31
233.998	-4.85
234.376	-4.86
234.753	-8.7
235.13	-6.93
235.508	-6.13
235.885	-6.55
236.262	-8.02
236.639	-7.7
237.016	-8.73
237.393	-3.89
237.77	-2.18
238.147	-0.29
238.524	1.52
238.901	2.58
239.278	2.26
239.655	2.87
240.032	3.72
240.409	3.73
240.785	3.26
241.162	2.9
241.539	3.46
241.915	3.79
242.292	3.72
242.668	4.25
243.045	4.07
243.421	4.29
243.798	4.47
244.174	4.41
244.551	4.1
244.927	4.1
245.303	3.93
245.679	3.63
246.056	3.74
246.432	3.59
246.808	3.41
247.184	3.51
247.56	3.19
247.936	3.03
248.312	2.85
248.688	3.02
249.064	2.88
249.44	2.81
249.815	2.75
250.191	2.99
250.567	3.09
250.943	3.06
251.318	3.28
251.694	3.14
252.069	3.37
252.445	3.33
252.82	3.18
253.196	2.76
253.571	2.58
253.947	2.69
254.322	2.73
254.697	2.73
255.073	2.89
255.448	2.84
255.823	2.73
256.198	3.01
256.573	3.02
256.948	3.24
257.323	3.49
257.698	3.43
258.073	3.26
258.448	3.17
258.823	3.05
259.198	2.88
259.573	2.86
259.948	2.73
260.322	2.76
260.697	2.75
261.072	2.75
261.446	2.95
261.821	2.62
262.195	2.64
262.57	2.62
262.944	2.52
263.319	2.58
263.693	2.61
264.067	2.76
264.442	2.66
264.816	2.48
265.19	2.15
265.564	2.24
265.938	2.15
266.313	2.12
266.687	2.23
267.061	2.3
267.435	2.44
267.809	2.55
268.183	2.45
268.556	2.61
268.93	2.84
269.304	2.83
269.678	3.2
270.051	3.08
270.425	3.17
270.799	3.17
271.172	3.21
271.546	3.08
271.919	2.91
272.293	2.96
272.666	3.12
273.04	3.29
273.413	3.11
273.787	3.2
274.16	3.19
274.533	3.11
274.906	3.04
275.279	2.98
275.653	3.1
276.026	3.14
276.399	3.02
276.772	2.86
277.145	2.7
277.518	2.76
277.891	2.88
278.263	2.71
278.636	2.84
279.009	2.77
279.382	3.09
279.755	2.93
280.127	3.03
280.5	3.13
280.872	2.98
281.245	3.1
281.617	3.15
281.99	3.19
282.362	3.18
282.735	3.04
283.107	3.07
283.479	3.09
283.852	3.15
284.224	3.16
284.596	3.12
284.968	3.18
285.34	3.16
285.713	3.13
286.085	3.28
286.457	3.22
286.829	3.3
287.201	3.26
287.572	3.29
287.944	3.22
288.316	3.14
288.688	3.14
289.06	3.18
289.431	3.2
289.803	3.23
290.175	3.45
290.546	3.75
290.918	3.8
291.289	3.85
291.661	3.94
292.032	4.04
292.403	4.11
292.775	4.2
293.146	4.05
293.517	4
293.889	4
294.26	3.98
294.631	4.01
295.002	3.97
295.373	4.11
295.744	4.19
296.115	4.24
296.486	4.29
296.857	4.25
297.228	4.29
297.599	4.27
297.97	4.23
298.34	4.29
298.711	4.38
299.082	4.31
299.452	4.32
299.823	4.43
300.194	4.56
300.564	4.48
300.935	4.56
301.305	4.68
301.676	4.85
302.046	5.04
302.416	5.03
302.787	5.03
303.157	4.96
303.527	4.92
303.897	4.97
304.267	5.21
304.637	5.24
305.008	5.25
305.378	5.43
305.748	5.47
306.117	5.27
306.487	5.23
306.857	5.35
307.227	5.45
307.597	5.38
307.967	5.33
308.336	5.41
308.706	5.46
309.076	5.54
309.445	5.53
309.815	5.46
310.184	5.52
310.554	5.47
310.923	5.62
311.293	5.64
311.662	5.56
312.031	5.48
312.401	5.54
312.77	5.71
313.139	5.64
313.508	5.59
313.877	5.71
314.246	5.87
314.616	5.83
314.985	5.84
315.353	5.89
315.722	6.01
316.091	6.1
316.46	6.08
316.829	6.1
317.198	6.07
317.567	6.16
317.935	6.19
318.304	6.4
318.672	6.38
319.041	6.5
319.41	6.51
319.778	6.51
320.147	6.58
320.515	6.54
320.883	6.57
321.252	6.75
321.62	6.76
321.988	6.65
322.357	6.66
322.725	6.76
323.093	6.94
323.461	6.89
323.829	6.89
324.197	6.96
324.565	6.85
324.933	6.96
325.301	7.08
325.669	7.13
326.037	7.07
326.405	7.1
326.772	7.23
327.14	7.39
327.508	7.31
327.875	7.27
328.243	7.32
328.61	7.25
328.978	7.3
329.346	7.26
329.713	7.23
330.08	7.29
330.448	7.09
330.815	6.94
331.182	6.92
331.55	6.94
331.917	7
332.284	7.01
332.651	6.98
333.018	6.98
333.385	6.94
333.752	7.07
334.119	7.17
334.486	6.97
334.853	6.92
335.22	7
335.587	7.03
335.954	6.81
336.32	6.9
336.687	6.88
337.054	7
337.42	7.05
337.787	7.17
338.153	7.35
338.52	7.4
338.886	7.38
339.253	7.32
339.619	7.26
339.986	7.39
340.352	7.46
340.718	7.45
341.084	7.56
341.451	7.67
341.817	7.59
342.183	7.69
342.549	7.73
342.915	7.86
343.281	7.86
343.647	7.92
344.013	8.02
344.379	7.99
344.745	7.9
345.11	8.01
345.476	8.03
345.842	8.02
346.208	8.07
346.573	8.2
346.939	8.28
347.304	8.38
347.67	8.37
348.035	8.37
348.401	8.42
348.766	8.37
349.132	8.35
349.497	8.32
349.862	8.34
350.228	8.41
350.593	8.33
350.958	8.45
351.323	8.53
351.688	8.4
352.053	8.47
352.418	8.54
352.783	8.51
353.148	8.37
353.513	8.37
353.878	8.36
354.243	8.34
354.608	8.38
354.972	8.28
355.337	8.33
355.702	8.41
356.066	8.34
356.431	8.38
356.795	8.32
357.16	8.34
357.524	8.26
357.889	8.11
358.253	8.16
358.618	8.08
358.982	8.06
359.346	8.03
359.71	7.93
360.075	7.85
360.439	7.82
360.803	7.81
361.167	7.71
361.531	7.68
361.895	7.64
362.259	7.55
362.623	7.61
362.987	7.62
363.351	7.49
363.714	7.44
364.078	7.38
364.442	7.3
364.806	7.24
365.169	7.19
365.533	7.17
365.896	7.07
366.26	7
366.623	6.95
366.987	6.94
367.35	6.89
367.714	6.88
368.077	6.84
368.44	6.75
368.803	6.69
369.167	6.62
369.53	6.58
369.893	6.57
370.256	6.44
370.619	6.29
370.982	6.23
371.345	6.15
371.708	6.08
372.071	6.02
372.434	5.98
372.797	5.91
373.159	5.81
373.522	5.76
373.885	5.74
374.247	5.69
374.61	5.7
374.973	5.65
375.335	5.62
375.698	5.56
376.06	5.55
376.423	5.53
376.785	5.46
377.147	5.36
377.51	5.33
377.872	5.34
378.234	5.3
378.596	5.31
378.958	5.32
379.321	5.25
379.683	5.25
380.045	5.19
380.407	5.22
380.769	5.23
381.13	5.16
381.492	5.1
381.854	5.01
382.216	4.94
382.578	4.94
382.939	4.87
383.301	4.79
383.663	4.72
384.024	4.72
384.386	4.72
384.747	4.72
385.109	4.7
385.47	4.62
385.832	4.6
386.193	4.57
386.554	4.51
386.916	4.49
387.277	4.47
387.638	4.43
387.999	4.37
388.36	4.34
388.721	4.39
389.082	4.41
389.443	4.37
389.804	4.34
390.165	4.26
390.526	4.25
390.887	4.2
391.248	4.24
391.609	4.2
391.969	4.16
392.33	4.12
392.691	4.1
393.051	4.11
393.412	4.09
393.772	4.06
394.133	4.03
394.493	4.03
394.854	4.02
395.214	4.01
395.574	4.02
395.935	3.97
396.295	3.93
396.655	3.85
397.015	3.84
397.376	3.79
397.736	3.79
398.096	3.77
398.456	3.74
398.816	3.67
399.176	3.6
399.535	3.57
399.895	3.57
400.255	3.55
400.615	3.53
400.975	3.52
401.334	3.47
401.694	3.47
402.054	3.44
402.413	3.39
402.773	3.37
403.132	3.33
403.492	3.33
403.851	3.36
404.211	3.4
404.57	3.38
404.929	3.38
405.288	3.36
405.648	3.36
406.007	3.37
406.366	3.38
406.725	3.42
407.084	3.42
407.443	3.41
407.802	3.39
408.161	3.33
408.52	3.29
408.879	3.31
409.238	3.31
409.596	3.29
409.955	3.29
410.314	3.3
410.673	3.33
411.031	3.3
411.39	3.24
411.748	3.21
412.107	3.22
412.465	3.23
412.824	3.25
413.182	3.24
413.54	3.23
413.899	3.22
414.257	3.2
414.615	3.18
414.974	3.21
415.332	3.2
415.69	3.2
416.048	3.2
416.406	3.18
416.764	3.14
417.122	3.15
417.48	3.11
417.838	3.09
418.195	3.06
418.553	3.07
418.911	3.06
419.269	3.04
419.626	3.03
419.984	3.02
420.342	2.99
420.699	2.96
421.057	2.96
421.414	2.95
421.772	2.93
422.129	2.92
422.486	2.89
422.844	2.89
423.201	2.87
423.558	2.87
423.915	2.87
424.273	2.87
424.63	2.85
424.987	2.85
425.344	2.86
425.701	2.85
426.058	2.84
426.415	2.83
426.772	2.83
427.128	2.8
427.485	2.79
427.842	2.79
428.199	2.81
428.555	2.78
428.912	2.78
429.269	2.79
429.625	2.78
429.982	2.78
430.338	2.74
430.695	2.74
431.051	2.73
431.407	2.71
431.764	2.71
432.12	2.7
432.476	2.69
432.832	2.68
433.189	2.69
433.545	2.68
433.901	2.68
434.257	2.68
434.613	2.7
434.969	2.71
435.325	2.69
435.681	2.7
436.036	2.7
436.392	2.71
436.748	2.72
437.104	2.72
437.459	2.72
437.815	2.75
438.171	2.77
438.526	2.75
438.882	2.76
439.237	2.76
439.593	2.8
439.948	2.79
440.304	2.79
440.659	2.78
441.014	2.79
441.369	2.76
441.725	2.76
442.08	2.77
442.435	2.78
442.79	2.77
443.145	2.75
443.5	2.76
443.855	2.75
444.21	2.71
444.565	2.72
444.92	2.71
445.275	2.69
445.629	2.69
445.984	2.7
446.339	2.69
446.693	2.67
447.048	2.66
447.403	2.65
447.757	2.65
448.112	2.64
448.466	2.62
448.82	2.64
449.175	2.64
449.529	2.62
449.883	2.61
450.238	2.61
450.592	2.62
450.946	2.61
451.3	2.59
451.654	2.6
452.008	2.6
452.362	2.58
452.716	2.58
453.07	2.59
453.424	2.57
453.778	2.58
454.132	2.58
454.486	2.57
454.839	2.57
455.193	2.56
455.547	2.57
455.9	2.59
456.254	2.6
456.607	2.6
456.961	2.61
457.314	2.6
457.668	2.61
458.021	2.6
458.375	2.6
458.728	2.61
459.081	2.62
459.434	2.64
459.787	2.65
460.141	2.65
460.494	2.65
460.847	2.65
461.2	2.63
461.553	2.64
461.906	2.64
462.259	2.66
462.611	2.68
462.964	2.68
463.317	2.68
463.67	2.68
464.022	2.69
464.375	2.68
464.728	2.7
465.08	2.7
465.433	2.71
465.785	2.72
466.138	2.7
466.49	2.71
466.843	2.69
467.195	2.68
467.547	2.69
467.899	2.68
468.252	2.7
468.604	2.73
468.956	2.73
469.308	2.74
469.66	2.71
470.012	2.71
470.364	2.74
470.716	2.74
471.068	2.73
471.42	2.73
471.772	2.76
472.123	2.74
472.475	2.76
472.827	2.78
473.178	2.79
473.53	2.81
473.882	2.8
474.233	2.81
474.585	2.81
474.936	2.79
475.288	2.79
475.639	2.79
475.99	2.78
476.342	2.79
476.693	2.81
477.044	2.83
477.395	2.82
477.746	2.8
478.097	2.79
478.448	2.8
478.8	2.78
479.15	2.76
479.501	2.77
479.852	2.75
480.203	2.74
480.554	2.72
480.905	2.73
481.255	2.73
481.606	2.73
481.957	2.73
482.307	2.73
482.658	2.73
483.009	2.74
483.359	2.74
483.709	2.74
484.06	2.73
484.41	2.72
484.761	2.72
485.111	2.73
485.461	2.73
485.811	2.73
486.162	2.74
486.512	2.74
486.862	2.74
487.212	2.74
487.562	2.75
487.912	2.76
488.262	2.75
488.612	2.76
488.961	2.76
489.311	2.77
489.661	2.78
490.011	2.79
490.36	2.79
490.71	2.79
491.06	2.79
491.409	2.79
491.759	2.81
492.108	2.81
492.458	2.82
492.807	2.82
493.157	2.83
493.506	2.83
493.855	2.85
494.204	2.84
494.554	2.85
494.903	2.84
495.252	2.86
495.601	2.88
495.95	2.88
496.299	2.89
496.648	2.91
496.997	2.91
497.346	2.94
497.695	2.95
498.043	2.97
498.392	2.97
498.741	3
499.09	3
499.438	3.03
499.787	3.05
500.135	3.09
500.484	3.11
500.832	3.14
501.181	3.16
501.529	3.19
501.878	3.25
502.226	3.28
502.574	3.3
502.923	3.31
503.271	3.36
503.619	3.42
503.967	3.48
504.315	3.51
504.663	3.54
505.011	3.6
505.359	3.64
505.707	3.69
506.055	3.73
506.403	3.8
506.751	3.84
507.098	3.89
507.446	3.94
507.794	4
508.141	4.05
508.489	4.13
508.837	4.2
509.184	4.24
509.531	4.31
509.879	4.37
510.226	4.45
510.574	4.5
510.921	4.54
511.268	4.58
511.616	4.68
511.963	4.73
512.31	4.8
512.657	4.88
513.004	4.98
513.351	5.07
513.698	5.17
514.045	5.27
514.392	5.35
514.739	5.45
515.086	5.56
515.432	5.67
515.779	5.77
516.126	5.87
516.473	5.99
516.819	6.1
517.166	6.18
517.512	6.27
517.859	6.38
518.205	6.47
518.552	6.57
518.898	6.64
519.245	6.76
519.591	6.85
519.937	6.96
520.283	7.07
520.629	7.19
520.976	7.32
521.322	7.45
521.668	7.58
522.014	7.74
522.36	7.88
522.706	8.04
523.052	8.21
523.398	8.4
523.743	8.61
524.089	8.79
524.435	9
524.781	9.18
525.126	9.36
525.472	9.53
525.817	9.68
526.163	9.84
526.509	9.98
526.854	10.13
527.199	10.26
527.545	10.39
527.89	10.54
528.235	10.67
528.581	10.8
528.926	10.95
529.271	11.09
529.616	11.24
529.961	11.38
530.306	11.53
530.651	11.69
530.996	11.84
531.341	12.03
531.686	12.21
532.031	12.41
532.376	12.62
532.721	12.84
533.065	13.05
533.41	13.28
533.755	13.49
534.099	13.71
534.444	13.95
534.788	14.18
535.133	14.39
535.477	14.63
535.822	14.89
536.166	15.14
536.51	15.45
536.855	15.76
537.199	16.08
537.543	16.39
537.887	16.73
538.231	17.09
538.576	17.4
538.92	17.75
539.264	18.06
539.608	18.37
539.951	18.69
540.295	18.96
540.639	19.23
540.983	19.51
541.327	19.79
541.671	20.06
542.014	20.31
542.358	20.56
542.701	20.82
543.045	21.06
543.389	21.35
543.732	21.6
544.075	21.89
544.419	22.16
544.762	22.45
545.105	22.75
545.449	23.04
545.792	23.39
546.135	23.7
546.478	24.07
546.821	24.41
547.165	24.76
547.508	25.15
547.851	25.5
548.194	25.86
548.536	26.25
548.879	26.61
549.222	27
549.565	27.4
549.908	27.8
550.25	28.19
550.593	28.55
550.936	28.94
551.278	29.32
551.621	29.75
551.963	30.14
552.306	30.47
552.648	30.81
552.991	31.16
553.333	31.51
553.675	31.79
554.017	32.15
554.36	32.41
554.702	32.75
555.044	33.07
555.386	33.42
555.728	33.73
556.07	34.08
556.412	34.41
556.754	34.76
557.096	35.07
557.438	35.44
557.78	35.78
558.121	36.09
558.463	36.37
558.805	36.71
559.147	37.07
559.488	37.42
559.83	37.76
560.171	38.05
560.513	38.39
560.854	38.75
561.196	39.08
561.537	39.4
561.878	39.67
562.22	39.94
562.561	40.17
562.902	40.44
563.243	40.66
563.584	40.93
563.925	41.19
564.266	41.49
564.607	41.68
564.948	41.91
565.289	42.15
565.63	42.45
565.971	42.61
566.312	42.8
566.653	43.05
566.993	43.26
567.334	43.47
567.675	43.67
568.015	43.83
568.356	44.06
568.696	44.33
569.037	44.55
569.377	44.8
569.718	45.06
570.058	45.28
570.398	45.57
570.739	45.78
571.079	45.99
571.419	46.17
571.759	46.42
572.099	46.61
572.439	46.8
572.779	46.9
573.119	47.05
573.459	47.26
573.799	47.43
574.139	47.59
574.479	47.77
574.819	47.94
575.158	48.12
575.498	48.27
575.838	48.39
576.177	48.59
576.517	48.79
576.856	48.91
577.196	49.08
577.535	49.13
577.875	49.28
578.214	49.46
578.553	49.58
578.893	49.74
579.232	49.94
579.571	50.14
579.91	50.36
580.25	50.55
580.589	50.7
580.928	50.88
581.267	51.04
581.606	51.21
581.945	51.31
582.283	51.45
582.622	51.57
582.961	51.68
583.3	51.77
583.639	51.87
583.977	52.01
584.316	52.16
584.654	52.4
584.993	52.54
585.332	52.62
585.67	52.79
586.008	52.91
586.347	52.98
586.685	53.03
587.024	53.15
587.362	53.26
587.7	53.3
588.038	53.37
588.376	53.51
588.715	53.59
589.053	53.76
589.391	53.85
589.729	53.98
590.067	54.09
590.404	54.16
590.742	54.29
591.08	54.39
591.418	54.53
591.756	54.65
592.093	54.79
592.431	54.87
592.769	54.93
593.106	54.98
593.444	55.05
593.781	55.15
594.119	55.19
594.456	55.24
594.793	55.35
595.131	55.39
595.468	55.39
595.805	55.46
596.143	55.5
596.48	55.54
596.817	55.54
597.154	55.62
597.491	55.65
597.828	55.68
598.165	55.76
598.502	55.81
598.839	55.81
599.176	55.85
599.512	55.93
599.849	56.02
600.186	56.1
600.523	56.21
600.859	56.25
601.196	56.4
601.532	56.43
601.869	56.51
602.205	56.58
602.542	56.62
602.878	56.73
603.215	56.73
603.551	56.84
603.887	56.94
604.223	57.03
604.56	57.13
604.896	57.2
605.232	57.23
605.568	57.24
605.904	57.29
606.24	57.34
606.576	57.35
606.912	57.38
607.248	57.42
607.583	57.52
607.919	57.54
608.255	57.54
608.591	57.71
608.926	57.73
609.262	57.76
609.597	57.93
609.933	57.97
610.268	58.08
610.604	58.11
610.939	58.15
611.275	58.17
611.61	58.23
611.945	58.26
612.281	58.3
612.616	58.29
612.951	58.33
613.286	58.34
613.621	58.45
613.956	58.55
614.291	58.67
614.626	58.67
614.961	58.75
615.296	58.71
615.631	58.74
615.966	58.83
616.3	58.92
616.635	58.89
616.97	58.91
617.304	58.98
617.639	59.01
617.973	59.06
618.308	59.11
618.642	59.17
618.977	59.19
619.311	59.26
619.646	59.38
619.98	59.52
620.314	59.64
620.648	59.63
620.983	59.59
621.317	59.65
621.651	59.71
621.985	59.85
622.319	59.94
622.653	59.88
622.987	59.84
623.321	59.9
623.655	59.92
623.988	59.97
624.322	59.94
624.656	60.02
624.99	60.06
625.323	60.09
625.657	60.07
625.99	60.1
626.324	60.1
626.657	60.03
626.991	59.98
627.324	59.91
627.658	60.04
627.991	60.17
628.324	60.16
628.657	60.09
628.991	60.07
629.324	60.06
629.657	60.12
629.99	60.21
630.323	60.17
630.656	60.25
630.989	60.32
631.322	60.28
631.655	60.26
631.987	60.33
632.32	60.27
632.653	60.23
632.986	60.22
633.318	60.26
633.651	60.35
633.984	60.38
634.316	60.5
634.649	60.37
634.981	60.4
635.313	60.42
635.646	60.49
635.978	60.42
636.31	60.51
636.643	60.53
636.975	60.59
637.307	60.68
637.639	60.74
637.971	60.7
638.303	60.81
638.635	60.78
638.967	60.65
639.299	60.78
639.631	60.81
639.963	60.83
640.295	60.89
640.626	60.87
640.958	60.81
641.29	60.81
641.621	60.98
641.953	60.91
642.285	60.95
642.616	60.91
642.948	61.03
643.279	61.05
643.61	61.11
643.942	61.04
644.273	61.03
644.604	60.94
644.936	60.84
645.267	60.9
645.598	60.88
645.929	61.06
646.26	61.01
646.591	61.07
646.922	61.23
647.253	61.16
647.584	61.16
647.915	61.27
648.245	61.3
648.576	61.27
648.907	61.29
649.238	61.37
649.568	61.55
649.899	61.5
650.229	61.62
650.56	61.65
650.89	61.68
651.221	61.74
651.551	61.75
651.882	61.92
652.212	61.85
652.542	61.91
652.872	61.87
653.203	61.97
653.533	62.03
653.863	62.08
654.193	61.99
654.523	62.08
654.853	62.1
655.183	62.02
655.513	61.99
655.843	61.98
656.172	61.98
656.502	61.84
656.832	62.03
657.162	61.94
657.491	61.84
657.821	61.77
658.15	61.69
658.48	61.69
658.809	61.59
659.139	61.64
659.468	61.68
659.798	61.7
660.127	61.69
660.456	61.67
660.785	61.56
661.115	61.7
661.444	61.66
661.773	61.62
662.102	61.65
662.431	61.67
662.76	61.74
663.089	61.65
663.418	61.84
663.747	61.74
664.076	61.71
664.404	61.73
664.733	61.92
665.062	61.92
665.39	62.02
665.719	62.09
666.048	62.11
