Data from BA57750_Reflection_00015.txt Node
Date: Mon Nov 18 15:47:37 EST 2019
User: vgr7
Spectrometer: USB2G7710
Scans to average: 3
Trigger mode: 4
Integration Time (sec): 2.000000E-2
Electric dark correction enabled: true
Boxcar width: 10
XAxis mode: Wavelengths
Number of Pixels in Spectrum: 2048
>>>>>Begin Spectral Data<<<<<
177.721	29.51
178.105	62.15
178.488	886.89
178.871	-126.65
179.254	-25.73
179.636	-93.01
180.019	-95.58
180.402	150
180.785	-24.86
181.168	-32.49
181.55	48.79
181.933	88.21
182.316	100
182.698	120.4
183.081	134.58
183.463	189.73
183.846	342.88
184.228	360.55
184.611	452.45
184.993	330.5
185.376	569.82
185.758	581.09
186.14	593.74
186.522	409.99
186.904	219.38
187.287	182.8
187.669	339.77
188.051	251.65
188.433	450.61
188.815	791.87
189.197	37023.08
189.579	3595.65
189.961	21573.68
190.342	9867.44
190.724	-561.83
191.106	-453.95
191.488	-731.12
191.869	-786.51
192.251	-564.32
192.633	-221.18
193.014	-195.14
193.396	-347.5
193.777	-256.73
194.159	-283.81
194.54	-323.04
194.922	-258.42
195.303	-116.36
195.684	-117.6
196.065	-54.17
196.447	-64.38
196.828	-71.37
197.209	-48.25
197.59	-41.4
197.971	-45.56
198.352	-25.4
198.733	-30.95
199.114	-27.02
199.495	-36.46
199.876	-45.94
200.257	-48.41
200.638	-50.53
201.018	-53.99
201.399	-35.53
201.78	-45.17
202.16	-57.48
202.541	-64.02
202.922	-77.69
203.302	-100.88
203.683	-120.48
204.063	-145.36
204.444	-128.9
204.824	-129.67
205.204	-150.99
205.585	-166.5
205.965	-129.16
206.345	-186.35
206.725	-174
207.106	-194.1
207.486	-266.57
207.866	-246.01
208.246	-233.46
208.626	-203.77
209.006	-175.5
209.386	-235.51
209.766	-287.71
210.145	-342.78
210.525	-286.93
210.905	-255.59
211.285	-351.73
211.664	-307.48
212.044	-462.87
212.424	-352.71
212.803	-287.66
213.183	-248.91
213.562	-273.59
213.942	-246.85
214.321	-162.55
214.701	-159.04
215.08	-189.84
215.459	-173.96
215.838	-165.11
216.218	-144.05
216.597	-127.26
216.976	-144.55
217.355	-113.43
217.734	-93.2
218.113	-85.62
218.492	-83.68
218.871	-77.51
219.25	-66.96
219.629	-75.54
220.008	-72.27
220.387	-95.72
220.766	-99.41
221.144	-109.68
221.523	-107.52
221.902	-118.48
222.28	-165.99
222.659	-182.93
223.037	-149.66
223.416	-125.61
223.794	-142.03
224.173	-133.1
224.551	-121.27
224.929	-91.97
225.308	-75.56
225.686	-62.39
226.064	-55.97
226.442	-53.96
226.821	-51.61
227.199	-49.05
227.577	-42.26
227.955	-36.96
228.333	-28.94
228.711	-26.46
229.089	-23.56
229.467	-26.71
229.845	-27.76
230.222	-22.58
230.6	-21.52
230.978	-19.99
231.356	-18.29
231.733	-15.84
232.111	-12.41
232.488	-11.09
232.866	-11.49
233.243	-10.85
233.621	-12.78
233.998	-10.99
234.376	-12.46
234.753	-10.56
235.13	-10.25
235.508	-9.43
235.885	-10.72
236.262	-11.22
236.639	-9.75
237.016	-10.46
237.393	-7.01
237.77	-4.48
238.147	-4.84
238.524	-3.63
238.901	-2.79
239.278	-2.5
239.655	-0.85
240.032	-0.99
240.409	-1.32
240.785	-1.09
241.162	-1.02
241.539	-0.24
241.915	-0.28
242.292	-0.33
242.668	0.17
243.045	0.63
243.421	0.61
243.798	1.12
244.174	0.95
244.551	0.91
244.927	1.03
245.303	1.03
245.679	0.74
246.056	0.85
246.432	1.01
246.808	1.07
247.184	0.84
247.56	0.41
247.936	0.63
248.312	0.62
248.688	0.58
249.064	0.41
249.44	0.24
249.815	0.39
250.191	0.69
250.567	0.53
250.943	0.5
251.318	0.63
251.694	0.48
252.069	0.59
252.445	0.67
252.82	0.71
253.196	0.35
253.571	0.24
253.947	0.25
254.322	-0.07
254.697	-0.34
255.073	-0.19
255.448	-0.18
255.823	-0.32
256.198	0.02
256.573	0.31
256.948	0.85
257.323	1.12
257.698	1.38
258.073	1.35
258.448	1.4
258.823	1.39
259.198	1.26
259.573	1.52
259.948	1.52
260.322	1.57
260.697	1.59
261.072	1.69
261.446	1.72
261.821	1.56
262.195	1.66
262.57	1.69
262.944	1.87
263.319	1.98
263.693	1.92
264.067	1.84
264.442	1.86
264.816	1.79
265.19	1.78
265.564	1.6
265.938	1.56
266.313	1.58
266.687	1.57
267.061	1.67
267.435	1.44
267.809	1.52
268.183	1.37
268.556	1.31
268.93	1.33
269.304	1.59
269.678	1.88
270.051	1.91
270.425	2.06
270.799	1.91
271.172	1.79
271.546	1.82
271.919	1.81
272.293	1.79
272.666	1.72
273.04	1.75
273.413	1.75
273.787	1.68
274.16	1.59
274.533	1.63
274.906	1.58
275.279	1.59
275.653	1.68
276.026	1.7
276.399	1.68
276.772	1.84
277.145	1.66
277.518	1.57
277.891	1.68
278.263	1.57
278.636	1.65
279.009	1.76
279.382	1.91
279.755	1.97
280.127	2.07
280.5	2.03
280.872	2.16
281.245	2.21
281.617	2.31
281.99	2.56
282.362	2.45
282.735	2.35
283.107	2.54
283.479	2.5
283.852	2.48
284.224	2.55
284.596	2.37
284.968	2.45
285.34	2.52
285.713	2.39
286.085	2.51
286.457	2.48
286.829	2.68
287.201	2.56
287.572	2.51
287.944	2.38
288.316	2.35
288.688	2.24
289.06	2.18
289.431	2.33
289.803	2.13
290.175	2.18
290.546	2.54
290.918	2.4
291.289	2.41
291.661	2.45
292.032	2.57
292.403	2.69
292.775	2.85
293.146	2.88
293.517	2.99
293.889	3.04
294.26	3.08
294.631	3.01
295.002	3.01
295.373	3.09
295.744	3.23
296.115	3.34
296.486	3.33
296.857	3.4
297.228	3.38
297.599	3.45
297.97	3.55
298.34	3.31
298.711	3.47
299.082	3.5
299.452	3.57
299.823	3.62
300.194	3.68
300.564	3.55
300.935	3.48
301.305	3.3
301.676	3.28
302.046	3.21
302.416	3.35
302.787	3.47
303.157	3.55
303.527	3.48
303.897	3.52
304.267	3.66
304.637	3.75
305.008	3.82
305.378	3.91
305.748	3.86
306.117	4
306.487	3.85
306.857	3.94
307.227	4.08
307.597	3.93
307.967	4.01
308.336	4.1
308.706	4.19
309.076	4.33
309.445	4.24
309.815	4.36
310.184	4.25
310.554	4.31
310.923	4.3
311.293	4.31
311.662	4.35
312.031	4.33
312.401	4.42
312.77	4.35
313.139	4.36
313.508	4.38
313.877	4.37
314.246	4.53
314.616	4.51
314.985	4.47
315.353	4.58
315.722	4.52
316.091	4.39
316.46	4.35
316.829	4.45
317.198	4.46
317.567	4.47
317.935	4.5
318.304	4.73
318.672	4.77
319.041	4.93
319.41	4.97
319.778	5.04
320.147	5.05
320.515	5.17
320.883	5.14
321.252	5.21
321.62	5.38
321.988	5.33
322.357	5.36
322.725	5.37
323.093	5.49
323.461	5.66
323.829	5.87
324.197	6.05
324.565	6.08
324.933	6.21
325.301	6.31
325.669	6.37
326.037	6.29
326.405	6.41
326.772	6.41
327.14	6.57
327.508	6.57
327.875	6.5
328.243	6.54
328.61	6.7
328.978	6.88
329.346	6.9
329.713	6.93
330.08	7.02
330.448	7.1
330.815	7.05
331.182	7.04
331.55	7.15
331.917	7.12
332.284	7.19
332.651	7.19
333.018	7.2
333.385	7.36
333.752	7.42
334.119	7.57
334.486	7.52
334.853	7.36
335.22	7.38
335.587	7.58
335.954	7.66
336.32	7.65
336.687	7.64
337.054	7.67
337.42	7.72
337.787	7.76
338.153	7.72
338.52	7.93
338.886	7.95
339.253	7.89
339.619	7.9
339.986	7.96
340.352	8.02
340.718	8.14
341.084	8.11
341.451	8.17
341.817	8.15
342.183	8.3
342.549	8.32
342.915	8.34
343.281	8.12
343.647	8.08
344.013	8.15
344.379	8.11
344.745	8.14
345.11	8.19
345.476	8.22
345.842	8.35
346.208	8.25
346.573	8.29
346.939	8.3
347.304	8.26
347.67	8.32
348.035	8.33
348.401	8.28
348.766	8.22
349.132	8.2
349.497	8.16
349.862	8.18
350.228	8.23
350.593	8.21
350.958	8.22
351.323	8.29
351.688	8.25
352.053	8.27
352.418	8.27
352.783	8.25
353.148	8.16
353.513	8.16
353.878	8.18
354.243	8.18
354.608	8.22
354.972	8.24
355.337	8.19
355.702	8.27
356.066	8.29
356.431	8.35
356.795	8.35
357.16	8.3
357.524	8.24
357.889	8.24
358.253	8.35
358.618	8.46
358.982	8.49
359.346	8.46
359.71	8.46
360.075	8.43
360.439	8.47
360.803	8.49
361.167	8.41
361.531	8.4
361.895	8.35
362.259	8.32
362.623	8.36
362.987	8.35
363.351	8.35
363.714	8.33
364.078	8.35
364.442	8.27
364.806	8.24
365.169	8.18
365.533	8.16
365.896	8.06
366.26	7.99
366.623	7.91
366.987	7.95
367.35	7.93
367.714	7.89
368.077	7.86
368.44	7.8
368.803	7.78
369.167	7.66
369.53	7.58
369.893	7.59
370.256	7.52
370.619	7.48
370.982	7.39
371.345	7.26
371.708	7.22
372.071	7.22
372.434	7.24
372.797	7.21
373.159	7.17
373.522	7.12
373.885	7.09
374.247	7.07
374.61	7
374.973	6.92
375.335	6.89
375.698	6.83
376.06	6.78
376.423	6.75
376.785	6.78
377.147	6.87
377.51	6.82
377.872	6.79
378.234	6.76
378.596	6.77
378.958	6.74
379.321	6.62
379.683	6.6
380.045	6.57
380.407	6.56
380.769	6.57
381.13	6.56
381.492	6.52
381.854	6.45
382.216	6.39
382.578	6.42
382.939	6.36
383.301	6.35
383.663	6.34
384.024	6.31
384.386	6.3
384.747	6.24
385.109	6.15
385.47	6.14
385.832	6.06
386.193	5.97
386.554	5.95
386.916	5.95
387.277	5.89
387.638	5.86
387.999	5.81
388.36	5.75
388.721	5.72
389.082	5.67
389.443	5.61
389.804	5.54
390.165	5.49
390.526	5.49
390.887	5.44
391.248	5.42
391.609	5.37
391.969	5.3
392.33	5.25
392.691	5.21
393.051	5.16
393.412	5.17
393.772	5.12
394.133	5.12
394.493	5.05
394.854	5
395.214	4.93
395.574	4.89
395.935	4.87
396.295	4.81
396.655	4.78
397.015	4.73
397.376	4.72
397.736	4.64
398.096	4.61
398.456	4.58
398.816	4.52
399.176	4.47
399.535	4.42
399.895	4.39
400.255	4.35
400.615	4.3
400.975	4.23
401.334	4.24
401.694	4.17
402.054	4.16
402.413	4.16
402.773	4.11
403.132	4.11
403.492	4.05
403.851	4.03
404.211	4
404.57	3.99
404.929	4
405.288	4
405.648	3.95
406.007	3.96
406.366	3.94
406.725	3.92
407.084	3.92
407.443	3.9
407.802	3.93
408.161	3.91
408.52	3.9
408.879	3.85
409.238	3.83
409.596	3.83
409.955	3.77
410.314	3.78
410.673	3.74
411.031	3.71
411.39	3.7
411.748	3.69
412.107	3.67
412.465	3.65
412.824	3.61
413.182	3.58
413.54	3.54
413.899	3.55
414.257	3.55
414.615	3.51
414.974	3.5
415.332	3.48
415.69	3.45
416.048	3.43
416.406	3.44
416.764	3.42
417.122	3.41
417.48	3.41
417.838	3.38
418.195	3.38
418.553	3.35
418.911	3.35
419.269	3.33
419.626	3.31
419.984	3.29
420.342	3.28
420.699	3.27
421.057	3.25
421.414	3.21
421.772	3.18
422.129	3.19
422.486	3.18
422.844	3.16
423.201	3.16
423.558	3.17
423.915	3.15
424.273	3.15
424.63	3.12
424.987	3.1
425.344	3.09
425.701	3.06
426.058	3.06
426.415	3.03
426.772	3.03
427.128	3.04
427.485	3.04
427.842	3.05
428.199	3.05
428.555	3.04
428.912	3.07
429.269	3.08
429.625	3.04
429.982	3.03
430.338	3.02
430.695	3
431.051	2.96
431.407	2.97
431.764	2.96
432.12	2.96
432.476	2.96
432.832	2.95
433.189	2.97
433.545	2.97
433.901	2.97
434.257	2.96
434.613	2.96
434.969	2.94
435.325	2.91
435.681	2.9
436.036	2.89
436.392	2.87
436.748	2.87
437.104	2.87
437.459	2.87
437.815	2.88
438.171	2.88
438.526	2.88
438.882	2.87
439.237	2.87
439.593	2.89
439.948	2.9
440.304	2.91
440.659	2.9
441.014	2.89
441.369	2.89
441.725	2.89
442.08	2.88
442.435	2.88
442.79	2.89
443.145	2.88
443.5	2.88
443.855	2.89
444.21	2.89
444.565	2.89
444.92	2.89
445.275	2.88
445.629	2.88
445.984	2.88
446.339	2.86
446.693	2.85
447.048	2.82
447.403	2.81
447.757	2.81
448.112	2.82
448.466	2.82
448.82	2.81
449.175	2.8
449.529	2.79
449.883	2.78
450.238	2.76
450.592	2.77
450.946	2.75
451.3	2.73
451.654	2.72
452.008	2.72
452.362	2.7
452.716	2.7
453.07	2.7
453.424	2.69
453.778	2.71
454.132	2.73
454.486	2.72
454.839	2.71
455.193	2.68
455.547	2.67
455.9	2.69
456.254	2.69
456.607	2.69
456.961	2.69
457.314	2.69
457.668	2.7
458.021	2.68
458.375	2.68
458.728	2.7
459.081	2.7
459.434	2.68
459.787	2.7
460.141	2.69
460.494	2.69
460.847	2.69
461.2	2.69
461.553	2.68
461.906	2.7
462.259	2.7
462.611	2.73
462.964	2.73
463.317	2.72
463.67	2.73
464.022	2.74
464.375	2.74
464.728	2.75
465.08	2.74
465.433	2.77
465.785	2.79
466.138	2.78
466.49	2.79
466.843	2.81
467.195	2.8
467.547	2.81
467.899	2.8
468.252	2.79
468.604	2.79
468.956	2.78
469.308	2.78
469.66	2.78
470.012	2.8
470.364	2.8
470.716	2.81
471.068	2.83
471.42	2.83
471.772	2.87
472.123	2.88
472.475	2.89
472.827	2.92
473.178	2.9
473.53	2.92
473.882	2.91
474.233	2.93
474.585	2.93
474.936	2.93
475.288	2.93
475.639	2.94
475.99	2.93
476.342	2.95
476.693	2.94
477.044	2.96
477.395	2.95
477.746	2.93
478.097	2.92
478.448	2.92
478.8	2.92
479.15	2.89
479.501	2.88
479.852	2.88
480.203	2.87
480.554	2.89
480.905	2.9
481.255	2.9
481.606	2.9
481.957	2.91
482.307	2.91
482.658	2.92
483.009	2.93
483.359	2.94
483.709	2.93
484.06	2.93
484.41	2.93
484.761	2.93
485.111	2.95
485.461	2.95
485.811	2.95
486.162	2.94
486.512	2.96
486.862	2.96
487.212	2.97
487.562	2.98
487.912	2.97
488.262	2.97
488.612	2.98
488.961	2.98
489.311	2.99
489.661	2.99
490.011	2.99
490.36	2.99
490.71	3
491.06	3
491.409	3
491.759	3
492.108	2.99
492.458	2.99
492.807	3
493.157	3.01
493.506	3.01
493.855	3.01
494.204	3.01
494.554	3.01
494.903	3
495.252	2.99
495.601	3.01
495.95	3
496.299	3.01
496.648	3.01
496.997	3.03
497.346	3.06
497.695	3.07
498.043	3.1
498.392	3.11
498.741	3.16
499.09	3.17
499.438	3.22
499.787	3.27
500.135	3.29
500.484	3.3
500.832	3.34
501.181	3.38
501.529	3.41
501.878	3.45
502.226	3.51
502.574	3.55
502.923	3.57
503.271	3.62
503.619	3.67
503.967	3.73
504.315	3.75
504.663	3.77
505.011	3.82
505.359	3.85
505.707	3.92
506.055	3.96
506.403	4.02
506.751	4.05
507.098	4.08
507.446	4.14
507.794	4.2
508.141	4.25
508.489	4.29
508.837	4.34
509.184	4.39
509.531	4.46
509.879	4.53
510.226	4.6
510.574	4.65
510.921	4.69
511.268	4.73
511.616	4.81
511.963	4.88
512.31	4.95
512.657	5.01
513.004	5.09
513.351	5.18
513.698	5.26
514.045	5.37
514.392	5.45
514.739	5.52
515.086	5.64
515.432	5.72
515.779	5.82
516.126	5.93
516.473	6.01
516.819	6.09
517.166	6.18
517.512	6.27
517.859	6.38
518.205	6.46
518.552	6.56
518.898	6.66
519.245	6.74
519.591	6.83
519.937	6.93
520.283	7.03
520.629	7.14
520.976	7.25
521.322	7.38
521.668	7.51
522.014	7.65
522.36	7.78
522.706	7.95
523.052	8.13
523.398	8.32
523.743	8.53
524.089	8.72
524.435	8.9
524.781	9.09
525.126	9.27
525.472	9.47
525.817	9.63
526.163	9.76
526.509	9.91
526.854	10.04
527.199	10.16
527.545	10.28
527.89	10.4
528.235	10.55
528.581	10.71
528.926	10.85
529.271	11
529.616	11.15
529.961	11.29
530.306	11.44
530.651	11.58
530.996	11.74
531.341	11.92
531.686	12.08
532.031	12.27
532.376	12.46
532.721	12.65
533.065	12.85
533.41	13.07
533.755	13.28
534.099	13.52
534.444	13.75
534.788	13.99
535.133	14.22
535.477	14.45
535.822	14.67
536.166	14.94
536.51	15.24
536.855	15.54
537.199	15.84
537.543	16.17
537.887	16.51
538.231	16.88
538.576	17.21
538.92	17.56
539.264	17.85
539.608	18.14
539.951	18.41
540.295	18.67
540.639	18.94
540.983	19.21
541.327	19.47
541.671	19.75
542.014	20
542.358	20.25
542.701	20.5
543.045	20.78
543.389	21.02
543.732	21.28
544.075	21.54
544.419	21.8
544.762	22.1
545.105	22.38
545.449	22.63
545.792	22.93
546.135	23.27
546.478	23.61
546.821	23.99
547.165	24.36
547.508	24.7
547.851	25.05
548.194	25.39
548.536	25.77
548.879	26.14
549.222	26.46
549.565	26.83
549.908	27.21
550.25	27.52
550.593	27.87
550.936	28.23
551.278	28.63
551.621	28.95
551.963	29.26
552.306	29.6
552.648	29.96
552.991	30.31
553.333	30.64
553.675	30.97
554.017	31.27
554.36	31.53
554.702	31.91
555.044	32.2
555.386	32.54
555.728	32.82
556.07	33.17
556.412	33.51
556.754	33.84
557.096	34.2
557.438	34.58
557.78	34.94
558.121	35.23
558.463	35.5
558.805	35.89
559.147	36.2
559.488	36.51
559.83	36.86
560.171	37.15
560.513	37.42
560.854	37.66
561.196	37.91
561.537	38.24
561.878	38.43
562.22	38.66
562.561	38.86
562.902	39.09
563.243	39.25
563.584	39.46
563.925	39.65
564.266	39.79
564.607	39.96
564.948	40.19
565.289	40.41
565.63	40.59
565.971	40.75
566.312	40.91
566.653	41.14
566.993	41.31
567.334	41.47
567.675	41.6
568.015	41.81
568.356	41.99
568.696	42.16
569.037	42.36
569.377	42.6
569.718	42.84
570.058	43.05
570.398	43.26
570.739	43.41
571.079	43.6
571.419	43.82
571.759	43.94
572.099	44.07
572.439	44.24
572.779	44.42
573.119	44.65
573.459	44.81
573.799	44.88
574.139	45
574.479	45.18
574.819	45.32
575.158	45.44
575.498	45.59
575.838	45.71
576.177	45.9
576.517	46.02
576.856	46.14
577.196	46.27
577.535	46.4
577.875	46.66
578.214	46.78
578.553	46.88
578.893	47.06
579.232	47.17
579.571	47.29
579.91	47.36
580.25	47.42
580.589	47.49
580.928	47.71
581.267	47.87
581.606	47.95
581.945	48.07
582.283	48.19
582.622	48.36
582.961	48.51
583.3	48.57
583.639	48.7
583.977	48.88
584.316	49
584.654	49.06
584.993	49.1
585.332	49.15
585.67	49.19
586.008	49.24
586.347	49.35
586.685	49.4
587.024	49.54
587.362	49.6
587.7	49.76
588.038	49.83
588.376	49.93
588.715	50.05
589.053	50.16
589.391	50.22
589.729	50.3
590.067	50.35
590.404	50.37
590.742	50.42
591.08	50.41
591.418	50.48
591.756	50.57
592.093	50.54
592.431	50.69
592.769	50.74
593.106	50.87
593.444	50.92
593.781	50.95
594.119	50.92
594.456	50.96
594.793	50.97
595.131	51.03
595.468	51.03
595.805	51.12
596.143	51.18
596.48	51.28
596.817	51.31
597.154	51.38
597.491	51.49
597.828	51.47
598.165	51.51
598.502	51.62
598.839	51.73
599.176	51.89
599.512	51.93
599.849	52.07
600.186	52.1
600.523	52.22
600.859	52.33
601.196	52.48
601.532	52.52
601.869	52.63
602.205	52.66
602.542	52.71
602.878	52.66
603.215	52.67
603.551	52.74
603.887	52.84
604.223	52.86
604.56	52.95
604.896	53
605.232	53.07
605.568	53.07
605.904	53.04
606.24	53.1
606.576	53.12
606.912	53.13
607.248	53.13
607.583	53.14
607.919	53.17
608.255	53.17
608.591	53.26
608.926	53.3
609.262	53.29
609.597	53.28
609.933	53.27
610.268	53.36
610.604	53.35
610.939	53.33
611.275	53.41
611.61	53.34
611.945	53.46
612.281	53.42
612.616	53.39
612.951	53.43
613.286	53.39
613.621	53.38
613.956	53.47
614.291	53.59
614.626	53.68
614.961	53.82
615.296	53.92
615.631	53.9
615.966	53.92
616.3	53.98
616.635	54.1
616.97	54.26
617.304	54.21
617.639	54.26
617.973	54.25
618.308	54.3
618.642	54.41
618.977	54.42
619.311	54.61
619.646	54.68
619.98	54.65
620.314	54.69
620.648	54.81
620.983	54.82
621.317	54.78
621.651	54.85
621.985	54.8
622.319	54.81
622.653	54.93
622.987	54.87
623.321	54.98
623.655	55.06
623.988	55.17
624.322	55.15
624.656	55.1
624.99	55.03
625.323	55.02
625.657	55.03
625.99	55.09
626.324	54.99
626.657	55.01
626.991	55.09
627.324	55.11
627.658	55.06
627.991	55.1
628.324	55.16
628.657	55.11
628.991	55.15
629.324	55.11
629.657	55.04
629.99	55.14
630.323	55.13
630.656	55.04
630.989	55
631.322	55.1
631.655	55.24
631.987	55.29
632.32	55.33
632.653	55.32
632.986	55.28
633.318	55.42
633.651	55.45
633.984	55.46
634.316	55.43
634.649	55.48
634.981	55.42
635.313	55.51
635.646	55.51
635.978	55.56
636.31	55.58
636.643	55.62
636.975	55.63
637.307	55.64
637.639	55.74
637.971	55.71
638.303	55.72
638.635	55.63
638.967	55.71
639.299	55.64
639.631	55.61
639.963	55.64
640.295	55.56
640.626	55.58
640.958	55.64
641.29	55.65
641.621	55.62
641.953	55.67
642.285	55.58
642.616	55.58
642.948	55.47
643.279	55.55
643.61	55.55
643.942	55.57
644.273	55.62
644.604	55.53
644.936	55.55
645.267	55.55
645.598	55.6
645.929	55.57
646.26	55.71
646.591	55.74
646.922	55.82
647.253	55.77
647.584	55.72
647.915	55.63
648.245	55.67
648.576	55.78
648.907	55.76
649.238	55.68
649.568	55.67
649.899	55.57
650.229	55.47
650.56	55.47
650.89	55.46
651.221	55.42
651.551	55.41
651.882	55.4
652.212	55.45
652.542	55.55
652.872	55.57
653.203	55.47
653.533	55.49
653.863	55.37
654.193	55.5
654.523	55.62
654.853	55.72
655.183	55.68
655.513	55.55
655.843	55.56
656.172	55.72
656.502	55.72
656.832	55.82
657.162	55.99
657.491	56.05
657.821	55.99
658.15	56.03
658.48	56.08
658.809	56.09
659.139	55.98
659.468	55.89
659.798	55.82
660.127	55.79
660.456	55.82
660.785	55.76
661.115	55.71
661.444	55.66
661.773	55.62
662.102	55.75
662.431	55.91
662.76	56.03
663.089	55.89
663.418	55.97
663.747	56.02
664.076	56.06
664.404	56.09
664.733	56.2
665.062	56.11
