Data from BA57890_Reflection_00006.txt Node
Date: Mon Nov 18 15:06:02 EST 2019
User: vgr7
Spectrometer: USB2G7710
Scans to average: 3
Trigger mode: 4
Integration Time (sec): 2.000000E-2
Electric dark correction enabled: true
Boxcar width: 10
XAxis mode: Wavelengths
Number of Pixels in Spectrum: 2048
>>>>>Begin Spectral Data<<<<<
177.721	-60.97
178.105	-116.75
178.488	-71.37
178.871	-94.51
179.254	56.59
179.636	-178.07
180.019	-103.67
180.402	150
180.785	-3452.24
181.168	342.54
181.55	215.31
181.933	167.95
182.316	166.46
182.698	202.63
183.081	246.72
183.463	351.56
183.846	136.09
184.228	154.31
184.611	164.94
184.993	172.32
185.376	102.58
185.758	165.98
186.14	237.93
186.522	157.1
186.904	207.17
187.287	256.14
187.669	355.37
188.051	385.71
188.433	762.02
188.815	-3900
189.197	-102.53
189.579	-207.69
189.961	-210.25
190.342	-2116.22
190.724	-322.02
191.106	23.75
191.488	109.69
191.869	469.94
192.251	248.82
192.633	2015.49
193.014	299.22
193.396	222.53
193.777	147.98
194.159	148.56
194.54	249
194.922	167.71
195.303	148.88
195.684	105.96
196.065	145.07
196.447	149.24
196.828	143.88
197.209	114.82
197.59	213.72
197.971	243.32
198.352	334.95
198.733	723.74
199.114	1448.42
199.495	-1989.17
199.876	-360.8
200.257	-381.2
200.638	-376.3
201.018	-196.91
201.399	-113.8
201.78	-92.38
202.16	-145.09
202.541	-301.88
202.922	-354.07
203.302	-590.18
203.683	-365.39
204.063	-392.56
204.444	-209.61
204.824	-158.96
205.204	-127.09
205.585	-120.67
205.965	-96.34
206.345	-107.27
206.725	-103.1
207.106	-211.19
207.486	-538.95
207.866	-1537.31
208.246	2058.04
208.626	-1211.2
209.006	-1318.87
209.386	734.86
209.766	1009.09
210.145	-704.44
210.525	-481.75
210.905	-367.78
211.285	-273.7
211.664	-210.52
212.044	-185.85
212.424	-194.21
212.803	-161.13
213.183	-165.08
213.562	-142.48
213.942	-112.46
214.321	-113.44
214.701	-147.53
215.08	-145.6
215.459	-102.92
215.838	-84.46
216.218	-69.87
216.597	-73.89
216.976	-49.6
217.355	-30.73
217.734	-26.65
218.113	-20.13
218.492	-19.03
218.871	-9.83
219.25	-12.6
219.629	-18.87
220.008	-31.22
220.387	-43.26
220.766	-49.99
221.144	-64.14
221.523	-82.28
221.902	-96.74
222.28	-94.08
222.659	-75.84
223.037	-60.34
223.416	-82.97
223.794	-95.54
224.173	-89.85
224.551	-90.18
224.929	-95.87
225.308	-78.97
225.686	-71.08
226.064	-60.96
226.442	-58.72
226.821	-44.59
227.199	-42.83
227.577	-41.61
227.955	-33.58
228.333	-28.46
228.711	-24.81
229.089	-21.02
229.467	-18.13
229.845	-17.14
230.222	-13.94
230.6	-14.75
230.978	-14.9
231.356	-10.34
231.733	-7.45
232.111	-6.1
232.488	-4.66
232.866	-2.94
233.243	-5.11
233.621	-4.7
233.998	-6.26
234.376	-5.54
234.753	-7.01
235.13	-4.18
235.508	-3.36
235.885	-5.32
236.262	-5.85
236.639	-6.49
237.016	-4.95
237.393	-3.22
237.77	-2.2
238.147	-2.84
238.524	-2.01
238.901	-0.7
239.278	0.09
239.655	1.5
240.032	2.04
240.409	2.25
240.785	2.63
241.162	3.14
241.539	3.78
241.915	4.26
242.292	4.5
242.668	4.73
243.045	4.51
243.421	4.79
243.798	5.05
244.174	5.22
244.551	5.47
244.927	5.29
245.303	5.37
245.679	5.27
246.056	5.27
246.432	5.01
246.808	5
247.184	4.83
247.56	4.64
247.936	4.54
248.312	4.57
248.688	4.58
249.064	4.62
249.44	4.61
249.815	4.7
250.191	4.56
250.567	4.58
250.943	4.51
251.318	4.52
251.694	4.51
252.069	4.64
252.445	4.53
252.82	4.45
253.196	4.27
253.571	4.31
253.947	4.57
254.322	4.74
254.697	4.41
255.073	4.16
255.448	4.15
255.823	4.22
256.198	4.38
256.573	4.28
256.948	4.18
257.323	4.4
257.698	4.39
258.073	4.28
258.448	4.19
258.823	4.3
259.198	4.19
259.573	4.21
259.948	4.11
260.322	4.14
260.697	4.13
261.072	4.08
261.446	4.16
261.821	4.06
262.195	4.09
262.57	4.19
262.944	4.28
263.319	4.17
263.693	4.15
264.067	4.04
264.442	4.07
264.816	4.17
265.19	3.87
265.564	3.82
265.938	3.9
266.313	3.81
266.687	3.7
267.061	3.92
267.435	3.93
267.809	3.95
268.183	3.98
268.556	4.07
268.93	4.1
269.304	4.12
269.678	4.21
270.051	4.35
270.425	4.37
270.799	4.32
271.172	4.49
271.546	4.43
271.919	4.38
272.293	4.53
272.666	4.5
273.04	4.62
273.413	4.65
273.787	4.79
274.16	4.68
274.533	4.6
274.906	4.49
275.279	4.46
275.653	4.56
276.026	4.53
276.399	4.43
276.772	4.49
277.145	4.41
277.518	4.63
277.891	4.7
278.263	4.7
278.636	4.86
279.009	4.76
279.382	4.94
279.755	4.89
280.127	4.76
280.5	4.76
280.872	4.68
281.245	4.58
281.617	4.46
281.99	4.63
282.362	4.74
282.735	4.68
283.107	4.63
283.479	4.65
283.852	4.6
284.224	4.6
284.596	4.64
284.968	4.68
285.34	4.58
285.713	4.51
286.085	4.46
286.457	4.44
286.829	4.46
287.201	4.34
287.572	4.39
287.944	4.35
288.316	4.38
288.688	4.32
289.06	4.31
289.431	4.29
289.803	4.37
290.175	4.42
290.546	4.56
290.918	4.61
291.289	4.6
291.661	4.78
292.032	4.94
292.403	5.01
292.775	5.01
293.146	4.98
293.517	5.08
293.889	5.24
294.26	5.37
294.631	5.44
295.002	5.56
295.373	5.66
295.744	5.75
296.115	5.75
296.486	5.84
296.857	5.87
297.228	5.99
297.599	5.94
297.97	5.95
298.34	5.88
298.711	5.96
299.082	5.89
299.452	5.9
299.823	5.99
300.194	5.93
300.564	5.83
300.935	5.87
301.305	5.81
301.676	5.81
302.046	5.74
302.416	5.81
302.787	5.83
303.157	5.88
303.527	5.74
303.897	5.72
304.267	5.83
304.637	5.88
305.008	5.89
305.378	5.99
305.748	6.06
306.117	6.02
306.487	6.04
306.857	6.18
307.227	6.13
307.597	6.06
307.967	6.08
308.336	6.21
308.706	6.19
309.076	6.1
309.445	6.07
309.815	5.99
310.184	5.88
310.554	5.87
310.923	5.77
311.293	5.91
311.662	5.91
312.031	5.89
312.401	6.02
312.77	6.12
313.139	6.07
313.508	6.09
313.877	6.21
314.246	6.17
314.616	6.17
314.985	6.2
315.353	6.27
315.722	6.3
316.091	6.25
316.46	6.12
316.829	6.13
317.198	6.23
317.567	6.4
317.935	6.38
318.304	6.29
318.672	6.32
319.041	6.43
319.41	6.62
319.778	6.7
320.147	6.61
320.515	6.49
320.883	6.44
321.252	6.37
321.62	6.38
321.988	6.43
322.357	6.26
322.725	6.19
323.093	6.24
323.461	6.18
323.829	6.3
324.197	6.46
324.565	6.59
324.933	6.46
325.301	6.41
325.669	6.48
326.037	6.58
326.405	6.55
326.772	6.42
327.14	6.36
327.508	6.26
327.875	6.25
328.243	6.3
328.61	6.32
328.978	6.36
329.346	6.36
329.713	6.32
330.08	6.43
330.448	6.5
330.815	6.27
331.182	6.29
331.55	6.37
331.917	6.39
332.284	6.53
332.651	6.55
333.018	6.58
333.385	6.59
333.752	6.54
334.119	6.56
334.486	6.49
334.853	6.39
335.22	6.4
335.587	6.38
335.954	6.33
336.32	6.36
336.687	6.4
337.054	6.4
337.42	6.39
337.787	6.46
338.153	6.53
338.52	6.62
338.886	6.57
339.253	6.47
339.619	6.44
339.986	6.35
340.352	6.46
340.718	6.43
341.084	6.44
341.451	6.56
341.817	6.55
342.183	6.65
342.549	6.74
342.915	6.77
343.281	6.81
343.647	6.84
344.013	6.94
344.379	6.8
344.745	6.85
345.11	6.82
345.476	6.74
345.842	6.68
346.208	6.76
346.573	6.81
346.939	6.93
347.304	6.96
347.67	6.86
348.035	6.79
348.401	6.78
348.766	6.76
349.132	6.79
349.497	6.89
349.862	6.97
350.228	6.87
350.593	6.87
350.958	6.84
351.323	6.8
351.688	6.79
352.053	6.93
352.418	6.86
352.783	6.94
353.148	6.94
353.513	6.95
353.878	6.97
354.243	7.03
354.608	7.06
354.972	7.06
355.337	7.13
355.702	7.21
356.066	7.3
356.431	7.33
356.795	7.31
357.16	7.2
357.524	7.16
357.889	7.23
358.253	7.21
358.618	7.27
358.982	7.26
359.346	7.13
359.71	7.03
360.075	7.04
360.439	7.1
360.803	7.09
361.167	7.08
361.531	7.07
361.895	7.02
362.259	6.91
362.623	6.94
362.987	6.93
363.351	6.89
363.714	6.81
364.078	6.8
364.442	6.73
364.806	6.79
365.169	6.79
365.533	6.82
365.896	6.79
366.26	6.82
366.623	6.81
366.987	6.86
367.35	7
367.714	7.02
368.077	6.95
368.44	6.96
368.803	6.98
369.167	6.91
369.53	6.9
369.893	7.01
370.256	7.02
370.619	7.08
370.982	7.02
371.345	7.04
371.708	7.06
372.071	7.1
372.434	7.07
372.797	7.02
373.159	6.95
373.522	7.05
373.885	7.08
374.247	7.09
374.61	7.15
374.973	7.07
375.335	7.1
375.698	7.15
376.06	7.16
376.423	7.15
376.785	7.18
377.147	7.28
377.51	7.24
377.872	7.24
378.234	7.21
378.596	7.33
378.958	7.35
379.321	7.36
379.683	7.38
380.045	7.4
380.407	7.46
380.769	7.47
381.13	7.42
381.492	7.38
381.854	7.36
382.216	7.36
382.578	7.36
382.939	7.33
383.301	7.31
383.663	7.29
384.024	7.25
384.386	7.3
384.747	7.22
385.109	7.24
385.47	7.19
385.832	7.2
386.193	7.17
386.554	7.15
386.916	7.16
387.277	7.19
387.638	7.24
387.999	7.23
388.36	7.23
388.721	7.24
389.082	7.24
389.443	7.26
389.804	7.25
390.165	7.25
390.526	7.3
390.887	7.28
391.248	7.34
391.609	7.39
391.969	7.36
392.33	7.39
392.691	7.36
393.051	7.38
393.412	7.42
393.772	7.4
394.133	7.43
394.493	7.42
394.854	7.37
395.214	7.36
395.574	7.37
395.935	7.35
396.295	7.39
396.655	7.36
397.015	7.33
397.376	7.34
397.736	7.36
398.096	7.35
398.456	7.38
398.816	7.37
399.176	7.34
399.535	7.35
399.895	7.32
400.255	7.33
400.615	7.33
400.975	7.31
401.334	7.31
401.694	7.31
402.054	7.29
402.413	7.33
402.773	7.31
403.132	7.3
403.492	7.35
403.851	7.33
404.211	7.36
404.57	7.38
404.929	7.39
405.288	7.39
405.648	7.35
406.007	7.34
406.366	7.31
406.725	7.35
407.084	7.33
407.443	7.34
407.802	7.36
408.161	7.39
408.52	7.35
408.879	7.37
409.238	7.39
409.596	7.38
409.955	7.37
410.314	7.37
410.673	7.38
411.031	7.35
411.39	7.4
411.748	7.39
412.107	7.45
412.465	7.45
412.824	7.43
413.182	7.46
413.54	7.48
413.899	7.49
414.257	7.49
414.615	7.5
414.974	7.51
415.332	7.5
415.69	7.48
416.048	7.51
416.406	7.48
416.764	7.46
417.122	7.49
417.48	7.47
417.838	7.47
418.195	7.45
418.553	7.47
418.911	7.46
419.269	7.49
419.626	7.47
419.984	7.45
420.342	7.47
420.699	7.47
421.057	7.48
421.414	7.47
421.772	7.48
422.129	7.49
422.486	7.5
422.844	7.51
423.201	7.52
423.558	7.5
423.915	7.52
424.273	7.53
424.63	7.52
424.987	7.52
425.344	7.54
425.701	7.55
426.058	7.55
426.415	7.54
426.772	7.52
427.128	7.52
427.485	7.53
427.842	7.53
428.199	7.53
428.555	7.54
428.912	7.55
429.269	7.55
429.625	7.54
429.982	7.51
430.338	7.51
430.695	7.5
431.051	7.51
431.407	7.51
431.764	7.5
432.12	7.5
432.476	7.52
432.832	7.5
433.189	7.51
433.545	7.5
433.901	7.5
434.257	7.5
434.613	7.5
434.969	7.51
435.325	7.53
435.681	7.54
436.036	7.54
436.392	7.54
436.748	7.52
437.104	7.51
437.459	7.51
437.815	7.52
438.171	7.51
438.526	7.52
438.882	7.53
439.237	7.55
439.593	7.54
439.948	7.52
440.304	7.53
440.659	7.52
441.014	7.52
441.369	7.51
441.725	7.51
442.08	7.51
442.435	7.5
442.79	7.49
443.145	7.49
443.5	7.48
443.855	7.47
444.21	7.49
444.565	7.51
444.92	7.53
445.275	7.51
445.629	7.52
445.984	7.5
446.339	7.49
446.693	7.48
447.048	7.47
447.403	7.47
447.757	7.47
448.112	7.48
448.466	7.48
448.82	7.49
449.175	7.5
449.529	7.48
449.883	7.48
450.238	7.5
450.592	7.47
450.946	7.46
451.3	7.45
451.654	7.44
452.008	7.42
452.362	7.43
452.716	7.43
453.07	7.44
453.424	7.45
453.778	7.46
454.132	7.44
454.486	7.46
454.839	7.46
455.193	7.46
455.547	7.46
455.9	7.46
456.254	7.47
456.607	7.48
456.961	7.48
457.314	7.49
457.668	7.48
458.021	7.5
458.375	7.52
458.728	7.53
459.081	7.49
459.434	7.49
459.787	7.49
460.141	7.52
460.494	7.51
460.847	7.52
461.2	7.54
461.553	7.54
461.906	7.55
462.259	7.55
462.611	7.57
462.964	7.57
463.317	7.56
463.67	7.58
464.022	7.57
464.375	7.56
464.728	7.57
465.08	7.55
465.433	7.56
465.785	7.55
466.138	7.57
466.49	7.64
466.843	7.64
467.195	7.63
467.547	7.61
467.899	7.63
468.252	7.63
468.604	7.62
468.956	7.65
469.308	7.64
469.66	7.64
470.012	7.65
470.364	7.66
470.716	7.68
471.068	7.64
471.42	7.65
471.772	7.7
472.123	7.72
472.475	7.74
472.827	7.74
473.178	7.75
473.53	7.73
473.882	7.72
474.233	7.73
474.585	7.7
474.936	7.68
475.288	7.67
475.639	7.67
475.99	7.67
476.342	7.66
476.693	7.66
477.044	7.68
477.395	7.67
477.746	7.67
478.097	7.66
478.448	7.66
478.8	7.65
479.15	7.64
479.501	7.65
479.852	7.66
480.203	7.68
480.554	7.69
480.905	7.72
481.255	7.71
481.606	7.73
481.957	7.77
482.307	7.8
482.658	7.82
483.009	7.82
483.359	7.83
483.709	7.84
484.06	7.84
484.41	7.85
484.761	7.85
485.111	7.85
485.461	7.85
485.811	7.86
486.162	7.87
486.512	7.88
486.862	7.88
487.212	7.89
487.562	7.89
487.912	7.89
488.262	7.88
488.612	7.89
488.961	7.89
489.311	7.88
489.661	7.87
490.011	7.86
490.36	7.86
490.71	7.85
491.06	7.84
491.409	7.83
491.759	7.83
492.108	7.83
492.458	7.84
492.807	7.85
493.157	7.85
493.506	7.85
493.855	7.84
494.204	7.83
494.554	7.82
494.903	7.81
495.252	7.82
495.601	7.81
495.95	7.81
496.299	7.8
496.648	7.8
496.997	7.81
497.346	7.81
497.695	7.83
498.043	7.83
498.392	7.85
498.741	7.88
499.09	7.87
499.438	7.87
499.787	7.88
500.135	7.88
500.484	7.91
500.832	7.93
501.181	7.95
501.529	7.96
501.878	7.96
502.226	7.98
502.574	8
502.923	8.02
503.271	8.03
503.619	8.04
503.967	8.04
504.315	8.03
504.663	8.04
505.011	8.02
505.359	8.05
505.707	8.05
506.055	8.06
506.403	8.09
506.751	8.09
507.098	8.07
507.446	8.09
507.794	8.08
508.141	8.1
508.489	8.1
508.837	8.12
509.184	8.15
509.531	8.16
509.879	8.17
510.226	8.2
510.574	8.21
510.921	8.22
511.268	8.24
511.616	8.24
511.963	8.27
512.31	8.29
512.657	8.28
513.004	8.3
513.351	8.31
513.698	8.32
514.045	8.34
514.392	8.36
514.739	8.34
515.086	8.37
515.432	8.35
515.779	8.34
516.126	8.34
516.473	8.35
516.819	8.36
517.166	8.36
517.512	8.35
517.859	8.38
518.205	8.39
518.552	8.39
518.898	8.4
519.245	8.38
519.591	8.39
519.937	8.41
520.283	8.41
520.629	8.4
520.976	8.39
521.322	8.4
521.668	8.4
522.014	8.42
522.36	8.41
522.706	8.43
523.052	8.44
523.398	8.48
523.743	8.48
524.089	8.48
524.435	8.5
524.781	8.51
525.126	8.51
525.472	8.52
525.817	8.53
526.163	8.55
526.509	8.55
526.854	8.56
527.199	8.56
527.545	8.57
527.89	8.58
528.235	8.59
528.581	8.58
528.926	8.57
529.271	8.57
529.616	8.58
529.961	8.58
530.306	8.58
530.651	8.58
530.996	8.59
531.341	8.59
531.686	8.58
532.031	8.58
532.376	8.57
532.721	8.58
533.065	8.58
533.41	8.57
533.755	8.58
534.099	8.59
534.444	8.6
534.788	8.59
535.133	8.6
535.477	8.61
535.822	8.63
536.166	8.65
536.51	8.65
536.855	8.65
537.199	8.66
537.543	8.66
537.887	8.65
538.231	8.65
538.576	8.67
538.92	8.69
539.264	8.68
539.608	8.68
539.951	8.68
540.295	8.68
540.639	8.69
540.983	8.68
541.327	8.69
541.671	8.68
542.014	8.69
542.358	8.67
542.701	8.67
543.045	8.68
543.389	8.7
543.732	8.7
544.075	8.71
544.419	8.72
544.762	8.71
545.105	8.72
545.449	8.72
545.792	8.71
546.135	8.74
546.478	8.75
546.821	8.75
547.165	8.73
547.508	8.74
547.851	8.74
548.194	8.74
548.536	8.7
548.879	8.72
549.222	8.72
549.565	8.76
549.908	8.74
550.25	8.75
550.593	8.74
550.936	8.72
551.278	8.71
551.621	8.7
551.963	8.73
552.306	8.73
552.648	8.73
552.991	8.72
553.333	8.68
553.675	8.67
554.017	8.69
554.36	8.71
554.702	8.72
555.044	8.71
555.386	8.72
555.728	8.76
556.07	8.75
556.412	8.75
556.754	8.74
557.096	8.73
557.438	8.71
557.78	8.7
558.121	8.75
558.463	8.78
558.805	8.8
559.147	8.82
559.488	8.82
559.83	8.82
560.171	8.84
560.513	8.85
560.854	8.85
561.196	8.84
561.537	8.9
561.878	8.88
562.22	8.87
562.561	8.85
562.902	8.84
563.243	8.82
563.584	8.83
563.925	8.84
564.266	8.83
564.607	8.86
564.948	8.83
565.289	8.82
565.63	8.81
565.971	8.76
566.312	8.74
566.653	8.76
566.993	8.75
567.334	8.75
567.675	8.77
568.015	8.79
568.356	8.81
568.696	8.79
569.037	8.82
569.377	8.86
569.718	8.88
570.058	8.89
570.398	8.92
570.739	8.92
571.079	8.94
571.419	8.98
571.759	8.95
572.099	8.96
572.439	8.95
572.779	8.93
573.119	8.95
573.459	8.95
573.799	8.94
574.139	8.97
574.479	8.98
574.819	8.96
575.158	8.95
575.498	8.94
575.838	8.91
576.177	8.87
576.517	8.85
576.856	8.85
577.196	8.86
577.535	8.83
577.875	8.86
578.214	8.83
578.553	8.83
578.893	8.85
579.232	8.86
579.571	8.89
579.91	8.91
580.25	8.89
580.589	8.89
580.928	8.9
581.267	8.87
581.606	8.87
581.945	8.91
582.283	8.91
582.622	8.87
582.961	8.89
583.3	8.93
583.639	8.92
583.977	8.93
584.316	8.93
584.654	8.91
584.993	8.89
585.332	8.9
585.67	8.9
586.008	8.91
586.347	8.88
586.685	8.85
587.024	8.87
587.362	8.88
587.7	8.89
588.038	8.91
588.376	8.91
588.715	8.89
589.053	8.87
589.391	8.89
589.729	8.91
590.067	8.91
590.404	8.91
590.742	8.91
591.08	8.9
591.418	8.89
591.756	8.94
592.093	8.95
592.431	8.94
592.769	8.96
593.106	8.99
593.444	8.99
593.781	9.02
594.119	9.06
594.456	9.09
594.793	9.1
595.131	9.13
595.468	9.16
595.805	9.14
596.143	9.14
596.48	9.15
596.817	9.17
597.154	9.18
597.491	9.2
597.828	9.21
598.165	9.23
598.502	9.21
598.839	9.15
599.176	9.18
599.512	9.2
599.849	9.2
600.186	9.18
600.523	9.25
600.859	9.27
601.196	9.29
601.532	9.31
601.869	9.31
602.205	9.27
602.542	9.29
602.878	9.3
603.215	9.28
603.551	9.25
603.887	9.24
604.223	9.24
604.56	9.27
604.896	9.28
605.232	9.29
605.568	9.29
605.904	9.36
606.24	9.36
606.576	9.34
606.912	9.33
607.248	9.31
607.583	9.3
607.919	9.26
608.255	9.2
608.591	9.16
608.926	9.17
609.262	9.22
609.597	9.22
609.933	9.27
610.268	9.29
610.604	9.3
610.939	9.36
611.275	9.39
611.61	9.33
611.945	9.36
612.281	9.36
612.616	9.37
612.951	9.35
613.286	9.33
613.621	9.33
613.956	9.34
614.291	9.39
614.626	9.37
614.961	9.38
615.296	9.4
615.631	9.42
615.966	9.42
616.3	9.38
616.635	9.3
616.97	9.29
617.304	9.27
617.639	9.31
617.973	9.25
618.308	9.23
618.642	9.25
618.977	9.24
619.311	9.2
619.646	9.2
619.98	9.17
620.314	9.17
620.648	9.17
620.983	9.2
621.317	9.19
621.651	9.2
621.985	9.23
622.319	9.25
622.653	9.28
622.987	9.29
623.321	9.29
623.655	9.37
623.988	9.41
624.322	9.44
624.656	9.44
624.99	9.51
625.323	9.55
625.657	9.58
625.99	9.52
626.324	9.54
626.657	9.57
626.991	9.56
627.324	9.56
627.658	9.66
627.991	9.63
628.324	9.6
628.657	9.61
628.991	9.59
629.324	9.62
629.657	9.63
629.99	9.62
630.323	9.64
630.656	9.65
630.989	9.65
631.322	9.65
631.655	9.65
631.987	9.6
632.32	9.56
632.653	9.54
632.986	9.63
633.318	9.66
633.651	9.69
633.984	9.72
634.316	9.72
634.649	9.65
634.981	9.67
635.313	9.64
635.646	9.66
635.978	9.65
636.31	9.61
636.643	9.61
636.975	9.63
637.307	9.63
637.639	9.56
637.971	9.54
638.303	9.55
638.635	9.54
638.967	9.56
639.299	9.58
639.631	9.56
639.963	9.52
640.295	9.46
640.626	9.4
640.958	9.41
641.29	9.47
641.621	9.45
641.953	9.51
642.285	9.6
642.616	9.64
642.948	9.67
643.279	9.69
643.61	9.63
643.942	9.58
644.273	9.56
644.604	9.56
644.936	9.5
645.267	9.52
645.598	9.54
645.929	9.57
646.26	9.57
646.591	9.57
646.922	9.53
647.253	9.58
647.584	9.59
647.915	9.6
648.245	9.49
648.576	9.49
648.907	9.47
649.238	9.48
649.568	9.44
649.899	9.44
650.229	9.54
650.56	9.54
650.89	9.64
651.221	9.69
651.551	9.67
651.882	9.7
652.212	9.69
652.542	9.62
652.872	9.54
653.203	9.53
653.533	9.55
653.863	9.64
654.193	9.6
654.523	9.65
654.853	9.65
655.183	9.73
655.513	9.73
655.843	9.67
656.172	9.72
656.502	9.79
656.832	9.76
657.162	9.75
657.491	9.76
657.821	9.74
658.15	9.71
658.48	9.79
658.809	9.85
659.139	9.81
659.468	9.8
659.798	9.87
660.127	9.86
660.456	9.88
660.785	9.82
661.115	9.9
661.444	9.88
661.773	9.9
662.102	9.9
662.431	9.93
662.76	9.96
663.089	9.93
663.418	9.89
663.747	9.89
664.076	9.79
664.404	9.79
664.733	9.91
665.062	9.94
665.39	9.93
665.719	9.9
666.048	9.9
666.376	9.91
666.705	9.9
667.033	9.91
667.362	9.89
667.69	9.9
668.018	9.87
668.347	9.92
668.675	9.96
669.003	9.95
669.331	9.99
669.659	9.99
669.987	10.02
670.315	9.98
670.643	10.1
670.971	10.14
671.299	10.16
671.627	9.99
671.955	10.01
672.283	9.96
672.61	9.96
672.938	9.96
673.266	10
673.593	10.08
673.921	10.11
674.249	10.23
674.576	10.26
674.904	10.15
