Data from BA57710_Reflection_00009.txt Node
Date: Mon Nov 18 15:31:56 EST 2019
User: vgr7
Spectrometer: USB2G7710
Scans to average: 3
Trigger mode: 4
Integration Time (sec): 2.000000E-2
Electric dark correction enabled: true
Boxcar width: 10
XAxis mode: Wavelengths
Number of Pixels in Spectrum: 2048
>>>>>Begin Spectral Data<<<<<
177.721	-58.68
178.105	-99.28
178.488	-90.13
178.871	-117.79
179.254	-347.2
179.636	-31.44
180.019	16.08
180.402	163.89
180.785	-118.05
181.168	-103.8
181.55	-77.29
181.933	32.19
182.316	43.27
182.698	181.19
183.081	111.21
183.463	-413.62
183.846	-637.2
184.228	-170.03
184.611	-215.79
184.993	-59.7
185.376	-68.92
185.758	-71.53
186.14	-88.56
186.522	-105.91
186.904	-160.02
187.287	-204.9
187.669	-51.67
188.051	-38.86
188.433	17.3
188.815	15.98
189.197	-35.5
189.579	-40.64
189.961	-47.36
190.342	-76.25
190.724	-45
191.106	-39.7
191.488	-39.13
191.869	-17.99
192.251	-46.12
192.633	-42.91
193.014	-62.74
193.396	-74.37
193.777	-56.06
194.159	-69.83
194.54	-45.37
194.922	-33.92
195.303	-45.66
195.684	-61.23
196.065	-51.36
196.447	-60.31
196.828	-73.63
197.209	-50.88
197.59	-31.12
197.971	-2.35
198.352	-2
198.733	-5.19
199.114	-32.04
199.495	-37.22
199.876	-43.59
200.257	-12.99
200.638	-2.99
201.018	-15.53
201.399	-16.57
201.78	-8.75
202.16	-14.71
202.541	-31
202.922	-27.28
203.302	-34.52
203.683	-24.42
204.063	-28.6
204.444	-37.08
204.824	-43.25
205.204	-39.25
205.585	-48.58
205.965	-61.19
206.345	-76.25
206.725	-79.64
207.106	-84.05
207.486	-89.93
207.866	-81.29
208.246	-88.33
208.626	-143.65
209.006	-95.84
209.386	-137.11
209.766	-132.87
210.145	-85.17
210.525	-86.18
210.905	-80.36
211.285	-63.96
211.664	-61.04
212.044	-57.01
212.424	-41.22
212.803	-57.19
213.183	-46.64
213.562	-35.26
213.942	-7.01
214.321	8.19
214.701	-13.63
215.08	-19.44
215.459	-6.31
215.838	-9.17
216.218	-27.73
216.597	-7.78
216.976	-8.37
217.355	-14.05
217.734	-20.8
218.113	-24.35
218.492	-17.11
218.871	-19.45
219.25	-15.18
219.629	-23.98
220.008	-28.51
220.387	-31.49
220.766	-36.48
221.144	-54.18
221.523	-81.86
221.902	-102.26
222.28	-107.27
222.659	-94.89
223.037	-71.69
223.416	-79.6
223.794	-63.12
224.173	-47.09
224.551	-42.46
224.929	-35.94
225.308	-31
225.686	-26.93
226.064	-19
226.442	-23.26
226.821	-13.22
227.199	-17.18
227.577	-12.98
227.955	-7.86
228.333	-4.79
228.711	-1.92
229.089	0.16
229.467	1.54
229.845	2.39
230.222	4.51
230.6	3.52
230.978	2.75
231.356	2.16
231.733	0.19
232.111	0.71
232.488	2.41
232.866	3.41
233.243	3.89
233.621	4.31
233.998	5.46
234.376	6.64
234.753	6.02
235.13	8.04
235.508	7.4
235.885	6.19
236.262	5.96
236.639	7.51
237.016	6.57
237.393	8.05
237.77	8.19
238.147	7.27
238.524	7.76
238.901	7.32
239.278	7.27
239.655	7.81
240.032	7.98
240.409	6.98
240.785	6.37
241.162	6.12
241.539	5.59
241.915	5.75
242.292	5.52
242.668	5.47
243.045	5.1
243.421	5.42
243.798	5.77
244.174	5.76
244.551	5.52
244.927	5.54
245.303	5.62
245.679	5.35
246.056	5.11
246.432	5.15
246.808	5.19
247.184	5.13
247.56	4.9
247.936	4.89
248.312	5.19
248.688	5.2
249.064	5.4
249.44	5.54
249.815	5.51
250.191	5.42
250.567	5.38
250.943	5.41
251.318	5.44
251.694	5.28
252.069	5.09
252.445	5.2
252.82	5.37
253.196	5.23
253.571	5.45
253.947	5.68
254.322	5.82
254.697	5.77
255.073	5.45
255.448	5.65
255.823	5.56
256.198	5.21
256.573	5.22
256.948	5.03
257.323	5.08
257.698	4.72
258.073	4.78
258.448	4.63
258.823	4.71
259.198	4.62
259.573	4.62
259.948	4.66
260.322	4.56
260.697	4.49
261.072	4.45
261.446	4.64
261.821	4.64
262.195	4.62
262.57	4.5
262.944	4.69
263.319	4.57
263.693	4.35
264.067	4.39
264.442	4.57
264.816	4.47
265.19	4.51
265.564	4.79
265.938	4.74
266.313	4.81
266.687	4.59
267.061	4.56
267.435	4.46
267.809	4.5
268.183	4.74
268.556	4.71
268.93	4.7
269.304	4.38
269.678	4.36
270.051	4.33
270.425	4.45
270.799	4.35
271.172	4.31
271.546	4.46
271.919	4.4
272.293	4.32
272.666	4.51
273.04	4.36
273.413	4.25
273.787	4.32
274.16	4.32
274.533	4.5
274.906	4.6
275.279	4.61
275.653	4.41
276.026	4.21
276.399	4.07
276.772	4.02
277.145	4.08
277.518	4.13
277.891	4.01
278.263	3.89
278.636	4.05
279.009	3.95
279.382	4.08
279.755	4
280.127	4.15
280.5	4.02
280.872	4.24
281.245	4.21
281.617	4.31
281.99	4.17
282.362	4.27
282.735	3.97
283.107	3.87
283.479	3.99
283.852	4.14
284.224	4.24
284.596	4.39
284.968	4.49
285.34	4.53
285.713	4.52
286.085	4.61
286.457	4.65
286.829	4.79
287.201	4.75
287.572	4.73
287.944	4.61
288.316	4.58
288.688	4.43
289.06	4.39
289.431	4.3
289.803	4.47
290.175	4.46
290.546	4.68
290.918	4.85
291.289	4.93
291.661	4.82
292.032	4.95
292.403	4.86
292.775	4.99
293.146	4.94
293.517	4.96
293.889	5.06
294.26	5.18
294.631	5.11
295.002	5.14
295.373	5.19
295.744	5.13
296.115	5.23
296.486	5.2
296.857	5.25
297.228	5.4
297.599	5.31
297.97	5.27
298.34	5.33
298.711	5.43
299.082	5.47
299.452	5.5
299.823	5.49
300.194	5.59
300.564	5.48
300.935	5.6
301.305	5.66
301.676	5.69
302.046	5.62
302.416	5.89
302.787	5.92
303.157	6.1
303.527	6.21
303.897	6.37
304.267	6.63
304.637	6.72
305.008	6.67
305.378	6.94
305.748	7.23
306.117	7.17
306.487	7.15
306.857	7.05
307.227	7.18
307.597	7.23
307.967	7.2
308.336	7.18
308.706	7.24
309.076	7.35
309.445	7.45
309.815	7.42
310.184	7.22
310.554	7.29
310.923	7.31
311.293	7.37
311.662	7.31
312.031	7.34
312.401	7.41
312.77	7.52
313.139	7.55
313.508	7.42
313.877	7.49
314.246	7.51
314.616	7.67
314.985	7.83
315.353	7.85
315.722	7.96
316.091	8.12
316.46	8.08
316.829	8.16
317.198	8.15
317.567	8.19
317.935	8.39
318.304	8.44
318.672	8.53
319.041	8.62
319.41	8.73
319.778	8.77
320.147	8.88
320.515	8.88
320.883	8.86
321.252	9
321.62	9.03
321.988	9.16
322.357	9.3
322.725	9.23
323.093	9.44
323.461	9.55
323.829	9.63
324.197	9.82
324.565	9.86
324.933	9.91
325.301	9.96
325.669	10.06
326.037	10.04
326.405	10.04
326.772	10.2
327.14	10.19
327.508	10.26
327.875	10.24
328.243	10.41
328.61	10.44
328.978	10.49
329.346	10.65
329.713	10.64
330.08	10.67
330.448	10.68
330.815	10.61
331.182	10.71
331.55	10.8
331.917	10.76
332.284	10.93
332.651	10.84
333.018	10.96
333.385	10.98
333.752	11.12
334.119	11.21
334.486	11.07
334.853	11.15
335.22	11.14
335.587	11.26
335.954	11.23
336.32	11.19
336.687	11.26
337.054	11.26
337.42	11.34
337.787	11.35
338.153	11.38
338.52	11.45
338.886	11.3
339.253	11.22
339.619	11.27
339.986	11.28
340.352	11.47
340.718	11.51
341.084	11.59
341.451	11.67
341.817	11.71
342.183	11.8
342.549	11.8
342.915	11.92
343.281	11.9
343.647	11.81
344.013	11.93
344.379	11.88
344.745	11.92
345.11	11.9
345.476	11.94
345.842	12.07
346.208	12.06
346.573	12.2
346.939	12.33
347.304	12.44
347.67	12.42
348.035	12.3
348.401	12.27
348.766	12.26
349.132	12.33
349.497	12.31
349.862	12.38
350.228	12.42
350.593	12.34
350.958	12.39
351.323	12.56
351.688	12.57
352.053	12.64
352.418	12.67
352.783	12.75
353.148	12.75
353.513	12.71
353.878	12.69
354.243	12.64
354.608	12.61
354.972	12.51
355.337	12.54
355.702	12.62
356.066	12.66
356.431	12.7
356.795	12.65
357.16	12.62
357.524	12.55
357.889	12.52
358.253	12.52
358.618	12.54
358.982	12.45
359.346	12.39
359.71	12.37
360.075	12.32
360.439	12.29
360.803	12.27
361.167	12.2
361.531	12.24
361.895	12.29
362.259	12.27
362.623	12.3
362.987	12.28
363.351	12.29
363.714	12.28
364.078	12.16
364.442	12.06
364.806	12.06
365.169	12.05
365.533	12.12
365.896	12.16
366.26	12.06
366.623	12.1
366.987	12.11
367.35	12.14
367.714	12.16
368.077	12.2
368.44	12.25
368.803	12.23
369.167	12.12
369.53	12
369.893	11.94
370.256	11.94
370.619	11.87
370.982	11.83
371.345	11.76
371.708	11.82
372.071	11.75
372.434	11.74
372.797	11.7
373.159	11.55
373.522	11.46
373.885	11.44
374.247	11.33
374.61	11.34
374.973	11.19
375.335	11.12
375.698	10.98
376.06	10.88
376.423	10.85
376.785	10.84
377.147	10.85
377.51	10.81
377.872	10.77
378.234	10.72
378.596	10.61
378.958	10.59
379.321	10.52
379.683	10.54
380.045	10.46
380.407	10.41
380.769	10.34
381.13	10.28
381.492	10.21
381.854	10.14
382.216	10.02
382.578	10
382.939	9.93
383.301	9.89
383.663	9.8
384.024	9.74
384.386	9.72
384.747	9.7
385.109	9.62
385.47	9.49
385.832	9.48
386.193	9.48
386.554	9.38
386.916	9.33
387.277	9.31
387.638	9.26
387.999	9.21
388.36	9.2
388.721	9.18
389.082	9.14
389.443	9.09
389.804	9.07
390.165	8.99
390.526	8.97
390.887	8.92
391.248	8.89
391.609	8.79
391.969	8.72
392.33	8.65
392.691	8.63
393.051	8.59
393.412	8.46
393.772	8.38
394.133	8.33
394.493	8.29
394.854	8.19
395.214	8.17
395.574	8.12
395.935	8.08
396.295	8.01
396.655	7.93
397.015	7.87
397.376	7.8
397.736	7.77
398.096	7.64
398.456	7.57
398.816	7.49
399.176	7.42
399.535	7.34
399.895	7.24
400.255	7.19
400.615	7.13
400.975	7.17
401.334	7.12
401.694	7.06
402.054	6.95
402.413	6.89
402.773	6.81
403.132	6.76
403.492	6.68
403.851	6.63
404.211	6.59
404.57	6.57
404.929	6.55
405.288	6.51
405.648	6.51
406.007	6.46
406.366	6.44
406.725	6.5
407.084	6.5
407.443	6.51
407.802	6.52
408.161	6.5
408.52	6.42
408.879	6.37
409.238	6.37
409.596	6.37
409.955	6.35
410.314	6.33
410.673	6.29
411.031	6.28
411.39	6.24
411.748	6.25
412.107	6.25
412.465	6.19
412.824	6.18
413.182	6.16
413.54	6.18
413.899	6.15
414.257	6.09
414.615	6.04
414.974	5.98
415.332	5.91
415.69	5.86
416.048	5.83
416.406	5.83
416.764	5.81
417.122	5.79
417.48	5.75
417.838	5.73
418.195	5.7
418.553	5.67
418.911	5.64
419.269	5.62
419.626	5.57
419.984	5.54
420.342	5.5
420.699	5.48
421.057	5.44
421.414	5.43
421.772	5.39
422.129	5.37
422.486	5.36
422.844	5.33
423.201	5.29
423.558	5.28
423.915	5.24
424.273	5.2
424.63	5.19
424.987	5.18
425.344	5.15
425.701	5.11
426.058	5.09
426.415	5.08
426.772	5.06
427.128	5.04
427.485	5.03
427.842	4.99
428.199	4.96
428.555	4.94
428.912	4.92
429.269	4.92
429.625	4.89
429.982	4.86
430.338	4.86
430.695	4.88
431.051	4.86
431.407	4.86
431.764	4.86
432.12	4.83
432.476	4.81
432.832	4.79
433.189	4.79
433.545	4.77
433.901	4.75
434.257	4.74
434.613	4.72
434.969	4.72
435.325	4.75
435.681	4.75
436.036	4.76
436.392	4.75
436.748	4.72
437.104	4.72
437.459	4.71
437.815	4.7
438.171	4.7
438.526	4.71
438.882	4.7
439.237	4.71
439.593	4.72
439.948	4.73
440.304	4.75
440.659	4.75
441.014	4.77
441.369	4.76
441.725	4.75
442.08	4.75
442.435	4.74
442.79	4.73
443.145	4.73
443.5	4.71
443.855	4.7
444.21	4.71
444.565	4.7
444.92	4.72
445.275	4.71
445.629	4.7
445.984	4.69
446.339	4.67
446.693	4.65
447.048	4.63
447.403	4.61
447.757	4.58
448.112	4.56
448.466	4.55
448.82	4.54
449.175	4.54
449.529	4.53
449.883	4.52
450.238	4.5
450.592	4.48
450.946	4.49
451.3	4.49
451.654	4.48
452.008	4.45
452.362	4.42
452.716	4.39
453.07	4.38
453.424	4.35
453.778	4.34
454.132	4.33
454.486	4.3
454.839	4.3
455.193	4.3
455.547	4.29
455.9	4.28
456.254	4.28
456.607	4.27
456.961	4.26
457.314	4.25
457.668	4.24
458.021	4.22
458.375	4.21
458.728	4.22
459.081	4.2
459.434	4.21
459.787	4.22
460.141	4.24
460.494	4.25
460.847	4.27
461.2	4.28
461.553	4.3
461.906	4.34
462.259	4.35
462.611	4.37
462.964	4.4
463.317	4.42
463.67	4.42
464.022	4.44
464.375	4.46
464.728	4.5
465.08	4.54
465.433	4.57
465.785	4.59
466.138	4.58
466.49	4.61
466.843	4.63
467.195	4.64
467.547	4.66
467.899	4.65
468.252	4.67
468.604	4.69
468.956	4.7
469.308	4.69
469.66	4.68
470.012	4.68
470.364	4.7
470.716	4.73
471.068	4.76
471.42	4.75
471.772	4.76
472.123	4.76
472.475	4.77
472.827	4.78
473.178	4.8
473.53	4.81
473.882	4.82
474.233	4.83
474.585	4.82
474.936	4.82
475.288	4.84
475.639	4.87
475.99	4.87
476.342	4.88
476.693	4.89
477.044	4.93
477.395	4.95
477.746	4.96
478.097	4.94
478.448	4.93
478.8	4.93
479.15	4.9
479.501	4.9
479.852	4.89
480.203	4.88
480.554	4.87
480.905	4.86
481.255	4.87
481.606	4.88
481.957	4.88
482.307	4.87
482.658	4.85
483.009	4.83
483.359	4.82
483.709	4.82
484.06	4.82
484.41	4.81
484.761	4.81
485.111	4.79
485.461	4.8
485.811	4.8
486.162	4.8
486.512	4.8
486.862	4.8
487.212	4.79
487.562	4.79
487.912	4.78
488.262	4.78
488.612	4.78
488.961	4.77
489.311	4.77
489.661	4.76
490.011	4.78
490.36	4.78
490.71	4.79
491.06	4.79
491.409	4.8
491.759	4.8
492.108	4.8
492.458	4.82
492.807	4.82
493.157	4.84
493.506	4.86
493.855	4.87
494.204	4.89
494.554	4.93
494.903	4.95
495.252	4.99
495.601	5.04
495.95	5.06
496.299	5.09
496.648	5.11
496.997	5.17
497.346	5.22
497.695	5.28
498.043	5.33
498.392	5.38
498.741	5.44
499.09	5.49
499.438	5.56
499.787	5.63
500.135	5.71
500.484	5.76
500.832	5.83
501.181	5.93
501.529	6.01
501.878	6.09
502.226	6.18
502.574	6.27
502.923	6.35
503.271	6.43
503.619	6.56
503.967	6.68
504.315	6.76
504.663	6.86
505.011	6.94
505.359	7.03
505.707	7.11
506.055	7.2
506.403	7.3
506.751	7.41
507.098	7.5
507.446	7.6
507.794	7.72
508.141	7.8
508.489	7.9
508.837	8.02
509.184	8.13
509.531	8.24
509.879	8.35
510.226	8.49
510.574	8.6
510.921	8.71
511.268	8.83
511.616	8.99
511.963	9.1
512.31	9.25
512.657	9.4
513.004	9.55
513.351	9.71
513.698	9.87
514.045	10.04
514.392	10.21
514.739	10.37
515.086	10.53
515.432	10.7
515.779	10.84
516.126	10.99
516.473	11.14
516.819	11.3
517.166	11.43
517.512	11.55
517.859	11.69
518.205	11.81
518.552	11.94
518.898	12.04
519.245	12.19
519.591	12.31
519.937	12.44
520.283	12.58
520.629	12.74
520.976	12.9
521.322	13.04
521.668	13.2
522.014	13.38
522.36	13.56
522.706	13.76
523.052	13.98
523.398	14.21
523.743	14.45
524.089	14.66
524.435	14.89
524.781	15.11
525.126	15.31
525.472	15.51
525.817	15.67
526.163	15.85
526.509	15.99
526.854	16.14
527.199	16.27
527.545	16.39
527.89	16.51
528.235	16.66
528.581	16.79
528.926	16.92
529.271	17.04
529.616	17.19
529.961	17.32
530.306	17.47
530.651	17.61
530.996	17.76
531.341	17.94
531.686	18.11
532.031	18.3
532.376	18.5
532.721	18.66
533.065	18.86
533.41	19.07
533.755	19.3
534.099	19.51
534.444	19.73
534.788	19.98
535.133	20.2
535.477	20.44
535.822	20.7
536.166	20.96
536.51	21.26
536.855	21.54
537.199	21.86
537.543	22.14
537.887	22.45
538.231	22.76
538.576	23.06
538.92	23.4
539.264	23.67
539.608	23.97
539.951	24.24
540.295	24.49
540.639	24.72
540.983	24.94
541.327	25.2
541.671	25.43
542.014	25.66
542.358	25.88
542.701	26.09
543.045	26.33
543.389	26.57
543.732	26.81
544.075	27.04
544.419	27.29
544.762	27.58
545.105	27.85
545.449	28.13
545.792	28.42
546.135	28.7
546.478	29.03
546.821	29.32
547.165	29.68
547.508	30.02
547.851	30.41
548.194	30.77
548.536	31.09
548.879	31.5
549.222	31.84
549.565	32.21
549.908	32.59
550.25	32.94
550.593	33.28
550.936	33.61
551.278	33.98
551.621	34.31
551.963	34.66
552.306	35.02
552.648	35.33
552.991	35.67
553.333	35.99
553.675	36.29
554.017	36.65
554.36	36.93
554.702	37.24
555.044	37.52
555.386	37.79
555.728	38.09
556.07	38.3
556.412	38.62
556.754	38.89
557.096	39.16
557.438	39.46
557.78	39.77
558.121	40.13
558.463	40.41
558.805	40.77
559.147	41.03
559.488	41.28
559.83	41.6
560.171	41.88
560.513	42.13
560.854	42.4
561.196	42.61
561.537	42.83
561.878	43.05
562.22	43.32
562.561	43.57
562.902	43.77
563.243	44.05
563.584	44.26
563.925	44.52
564.266	44.8
564.607	45.02
564.948	45.21
565.289	45.42
565.63	45.67
565.971	45.82
566.312	46.01
566.653	46.23
566.993	46.4
567.334	46.59
567.675	46.79
568.015	46.99
568.356	47.21
568.696	47.43
569.037	47.65
569.377	47.85
569.718	48.08
570.058	48.32
570.398	48.54
570.739	48.73
571.079	48.92
571.419	49.08
571.759	49.22
572.099	49.38
572.439	49.53
572.779	49.65
573.119	49.78
573.459	49.9
573.799	50.03
574.139	50.2
574.479	50.33
574.819	50.48
575.158	50.6
575.498	50.72
575.838	50.84
576.177	50.93
576.517	51.07
576.856	51.17
577.196	51.26
577.535	51.3
577.875	51.4
578.214	51.5
578.553	51.63
578.893	51.84
579.232	51.98
579.571	52.13
579.91	52.25
580.25	52.41
580.589	52.59
580.928	52.77
581.267	52.93
581.606	53
581.945	53.11
582.283	53.21
582.622	53.31
582.961	53.43
583.3	53.56
583.639	53.58
583.977	53.67
584.316	53.81
584.654	53.92
584.993	54.04
585.332	54.15
585.67	54.23
586.008	54.33
586.347	54.43
586.685	54.47
587.024	54.56
587.362	54.63
587.7	54.73
588.038	54.83
588.376	54.84
588.715	54.94
589.053	55.04
589.391	55.11
589.729	55.2
590.067	55.27
590.404	55.37
590.742	55.48
591.08	55.6
591.418	55.78
591.756	55.89
592.093	55.99
592.431	56.06
592.769	56.06
593.106	56.09
593.444	56.15
593.781	56.23
594.119	56.33
594.456	56.36
594.793	56.38
595.131	56.42
595.468	56.43
595.805	56.5
596.143	56.51
596.48	56.62
596.817	56.74
597.154	56.77
597.491	56.82
597.828	56.83
598.165	56.87
598.502	56.86
598.839	56.87
599.176	56.97
599.512	57.08
599.849	57.1
600.186	57.2
600.523	57.28
600.859	57.21
601.196	57.22
601.532	57.32
601.869	57.42
602.205	57.5
602.542	57.64
602.878	57.65
603.215	57.7
603.551	57.72
603.887	57.78
604.223	57.87
604.56	57.92
604.896	57.98
605.232	58.03
605.568	58.06
605.904	58.12
606.24	58.09
606.576	58.1
606.912	58.21
607.248	58.22
607.583	58.27
607.919	58.42
608.255	58.5
608.591	58.52
608.926	58.57
609.262	58.59
609.597	58.57
609.933	58.66
610.268	58.7
610.604	58.77
610.939	58.79
611.275	58.86
611.61	58.87
611.945	58.93
612.281	58.99
612.616	59.04
612.951	59.19
613.286	59.33
613.621	59.26
613.956	59.38
614.291	59.43
614.626	59.43
614.961	59.52
615.296	59.51
615.631	59.51
615.966	59.53
616.3	59.61
616.635	59.57
616.97	59.61
617.304	59.72
617.639	59.8
617.973	59.79
618.308	59.79
618.642	59.9
618.977	59.89
619.311	59.93
619.646	59.96
619.98	59.93
620.314	59.9
620.648	59.99
620.983	60
621.317	59.96
621.651	59.91
621.985	59.92
622.319	59.89
622.653	59.97
622.987	59.98
623.321	59.92
623.655	59.97
623.988	59.98
624.322	59.93
624.656	59.95
624.99	59.91
625.323	59.97
625.657	59.97
625.99	60.09
626.324	60.12
626.657	60.16
626.991	60.15
627.324	60.17
627.658	60.18
627.991	60.16
628.324	60.29
628.657	60.34
628.991	60.35
629.324	60.49
629.657	60.52
629.99	60.57
630.323	60.7
630.656	60.8
630.989	60.83
631.322	60.88
631.655	60.87
631.987	61.03
632.32	61
632.653	61.09
632.986	61.12
633.318	61.03
633.651	61.03
633.984	61.09
634.316	61.18
634.649	61.21
634.981	61.25
635.313	61.26
635.646	61.22
635.978	61.27
636.31	61.27
636.643	61.27
636.975	61.17
637.307	61.1
637.639	61.06
637.971	61.06
638.303	61.01
638.635	60.98
638.967	60.82
639.299	60.77
639.631	60.64
639.963	60.55
640.295	60.66
640.626	60.69
640.958	60.7
641.29	60.74
641.621	60.69
641.953	60.72
642.285	60.7
642.616	60.91
642.948	60.93
643.279	60.95
643.61	60.93
643.942	61.15
644.273	61.08
644.604	61.17
644.936	61.24
645.267	61.32
645.598	61.34
645.929	61.47
646.26	61.56
646.591	61.5
646.922	61.4
647.253	61.4
647.584	61.45
647.915	61.43
648.245	61.27
648.576	61.49
648.907	61.44
649.238	61.48
649.568	61.45
649.899	61.41
650.229	61.33
650.56	61.38
650.89	61.22
651.221	61.38
651.551	61.37
651.882	61.34
652.212	61.4
652.542	61.42
652.872	61.49
653.203	61.59
653.533	61.67
653.863	61.77
654.193	61.81
654.523	61.77
654.853	61.87
655.183	62.03
655.513	62.01
655.843	61.96
656.172	61.98
656.502	61.96
656.832	62.02
657.162	62.22
657.491	62.29
657.821	62.45
658.15	62.55
658.48	62.6
658.809	62.58
659.139	62.58
659.468	62.58
659.798	62.57
660.127	62.47
660.456	62.5
660.785	62.62
661.115	62.56
661.444	62.49
661.773	62.35
662.102	62.27
662.431	62.14
662.76	62.29
663.089	62.22
663.418	62.14
663.747	62.2
