Data from BA57663_Reflection_00007.txt Node
Date: Mon Nov 18 15:43:59 EST 2019
User: vgr7
Spectrometer: USB2G7710
Scans to average: 3
Trigger mode: 4
Integration Time (sec): 2.000000E-2
Electric dark correction enabled: true
Boxcar width: 10
XAxis mode: Wavelengths
Number of Pixels in Spectrum: 2048
>>>>>Begin Spectral Data<<<<<
177.721	-1155.59
178.105	221.39
178.488	313.04
178.871	367.86
179.254	308.91
179.636	-205.31
180.019	-340.44
180.402	189.29
180.785	12.13
181.168	44.82
181.55	50.9
181.933	96.64
182.316	130.28
182.698	137.01
183.081	184.63
183.463	273.2
183.846	233.76
184.228	235.38
184.611	248.69
184.993	237.17
185.376	272.97
185.758	230.98
186.14	217.62
186.522	225.06
186.904	198.06
187.287	179.34
187.669	204.09
188.051	189.88
188.433	170.91
188.815	176.16
189.197	181.7
189.579	291.9
189.961	217.38
190.342	262.51
190.724	3015.49
191.106	1460.25
191.488	644.79
191.869	4684.91
192.251	2367.18
192.633	-3065.14
193.014	-1023.78
193.396	1006.16
193.777	624.56
194.159	660.66
194.54	540.27
194.922	-1089.35
195.303	-793.42
195.684	-260900
196.065	-349.75
196.447	-289.66
196.828	-277.73
197.209	-114.43
197.59	-175.48
197.971	-121.79
198.352	-83.85
198.733	-567.84
199.114	-957.55
199.495	-270.28
199.876	-200.64
200.257	-130.1
200.638	-24.83
201.018	-25.61
201.399	36.07
201.78	-6.63
202.16	-76.24
202.541	-130.4
202.922	-166
203.302	-185.86
203.683	-196.02
204.063	-196.02
204.444	-316.89
204.824	-795.73
205.204	-586.75
205.585	-329.98
205.965	-289.31
206.345	-502.59
206.725	-305.99
207.106	-381.3
207.486	-812.47
207.866	1593.39
208.246	702.39
208.626	362.02
209.006	398.16
209.386	389.76
209.766	195.21
210.145	130.9
210.525	205.48
210.905	119.65
211.285	167.55
211.664	819.46
212.044	389.41
212.424	902.82
212.803	1343.9
213.183	29.5
213.562	-99.24
213.942	-3943.48
214.321	319.51
214.701	200.88
215.08	598.31
215.459	1010.93
215.838	260.66
216.218	244.02
216.597	132.08
216.976	148.8
217.355	311.56
217.734	230.43
218.113	166.99
218.492	236.03
218.871	182.32
219.25	199.93
219.629	229.8
220.008	186.44
220.387	130.23
220.766	186.15
221.144	483.54
221.523	220.94
221.902	328.96
222.28	444.26
222.659	982.35
223.037	425.64
223.416	323.71
223.794	279.56
224.173	127.66
224.551	78.1
224.929	52.56
225.308	35.02
225.686	29.91
226.064	19.5
226.442	14.32
226.821	15.7
227.199	10.28
227.577	9
227.955	9.51
228.333	7.29
228.711	6.34
229.089	7.61
229.467	8.73
229.845	4.51
230.222	5.45
230.6	4.78
230.978	5.27
231.356	5.21
231.733	6.11
232.111	6.25
232.488	7.22
232.866	7.71
233.243	8.42
233.621	7.55
233.998	11.02
234.376	9.72
234.753	8.28
235.13	9.72
235.508	10.76
235.885	10.79
236.262	9.28
236.639	8.63
237.016	7.65
237.393	6.8
237.77	7.47
238.147	7.69
238.524	7.55
238.901	7.24
239.278	7.29
239.655	6.88
240.032	6.81
240.409	5.96
240.785	5.96
241.162	5.71
241.539	5.84
241.915	4.8
242.292	4.99
242.668	5.06
243.045	4.88
243.421	4.5
243.798	4.3
244.174	4.56
244.551	4.37
244.927	4.46
245.303	4.49
245.679	4.6
246.056	4.54
246.432	4.41
246.808	4.59
247.184	4.48
247.56	4.45
247.936	4.44
248.312	4.6
248.688	4.65
249.064	4.57
249.44	4.51
249.815	4.7
250.191	4.79
250.567	4.73
250.943	4.58
251.318	4.62
251.694	4.72
252.069	4.63
252.445	4.95
252.82	5.08
253.196	5.15
253.571	5.2
253.947	5.29
254.322	5.7
254.697	5.35
255.073	4.97
255.448	4.69
255.823	4.54
256.198	4.55
256.573	4.39
256.948	4.54
257.323	4.63
257.698	4.61
258.073	4.49
258.448	4.61
258.823	4.49
259.198	4.47
259.573	4.34
259.948	4.47
260.322	4.36
260.697	4.22
261.072	4.21
261.446	4.27
261.821	4.14
262.195	4.13
262.57	4.08
262.944	4.14
263.319	4.2
263.693	4.08
264.067	3.99
264.442	4.09
264.816	4.06
265.19	3.85
265.564	3.8
265.938	3.71
266.313	3.51
266.687	3.7
267.061	3.62
267.435	3.68
267.809	3.4
268.183	3.34
268.556	3.31
268.93	3.14
269.304	2.95
269.678	3
270.051	2.82
270.425	2.95
270.799	3.03
271.172	3.14
271.546	3.27
271.919	3.21
272.293	3.12
272.666	3.1
273.04	3.3
273.413	3.31
273.787	3.51
274.16	3.58
274.533	3.37
274.906	3.43
275.279	3.41
275.653	3.53
276.026	3.6
276.399	3.64
276.772	3.9
277.145	3.89
277.518	3.89
277.891	4
278.263	3.87
278.636	3.95
279.009	3.88
279.382	3.99
279.755	4.06
280.127	4.16
280.5	4.17
280.872	4.31
281.245	4.28
281.617	4.23
281.99	4.34
282.362	4.53
282.735	4.36
283.107	4.39
283.479	4.39
283.852	4.4
284.224	4.42
284.596	4.36
284.968	4.49
285.34	4.56
285.713	4.46
286.085	4.61
286.457	4.66
286.829	4.62
287.201	4.56
287.572	4.57
287.944	4.43
288.316	4.44
288.688	4.24
289.06	4.27
289.431	4.22
289.803	4.11
290.175	4.05
290.546	4.31
290.918	4.21
291.289	4.28
291.661	4.4
292.032	4.57
292.403	4.62
292.775	4.61
293.146	4.59
293.517	4.81
293.889	4.83
294.26	4.7
294.631	4.73
295.002	4.81
295.373	4.81
295.744	4.92
296.115	4.9
296.486	4.87
296.857	4.98
297.228	5.13
297.599	5.16
297.97	5.28
298.34	5.23
298.711	5.36
299.082	5.29
299.452	5.36
299.823	5.32
300.194	5.37
300.564	5.39
300.935	5.43
301.305	5.26
301.676	5.43
302.046	5.51
302.416	5.65
302.787	5.74
303.157	5.84
303.527	5.79
303.897	6.01
304.267	6.24
304.637	6.25
305.008	6.29
305.378	6.55
305.748	6.64
306.117	6.83
306.487	6.92
306.857	7.05
307.227	7.01
307.597	7.1
307.967	7.13
308.336	7.26
308.706	7.32
309.076	7.45
309.445	7.38
309.815	7.42
310.184	7.44
310.554	7.47
310.923	7.54
311.293	7.64
311.662	7.6
312.031	7.63
312.401	7.68
312.77	7.82
313.139	7.83
313.508	7.87
313.877	7.95
314.246	7.99
314.616	8.06
314.985	8.08
315.353	8.12
315.722	8.22
316.091	8.22
316.46	8.29
316.829	8.44
317.198	8.49
317.567	8.75
317.935	8.82
318.304	8.94
318.672	9
319.041	9.15
319.41	9.26
319.778	9.32
320.147	9.46
320.515	9.35
320.883	9.29
321.252	9.39
321.62	9.38
321.988	9.64
322.357	9.75
322.725	9.92
323.093	10.02
323.461	10.04
323.829	10.15
324.197	10.31
324.565	10.36
324.933	10.46
325.301	10.56
325.669	10.54
326.037	10.52
326.405	10.69
326.772	10.91
327.14	11.02
327.508	11.17
327.875	11.17
328.243	11.28
328.61	11.38
328.978	11.45
329.346	11.45
329.713	11.42
330.08	11.42
330.448	11.47
330.815	11.45
331.182	11.56
331.55	11.69
331.917	11.73
332.284	11.75
332.651	11.59
333.018	11.52
333.385	11.64
333.752	11.76
334.119	11.83
334.486	11.8
334.853	11.72
335.22	11.75
335.587	11.77
335.954	11.89
336.32	11.96
336.687	12.14
337.054	12.18
337.42	12.23
337.787	12.29
338.153	12.33
338.52	12.43
338.886	12.37
339.253	12.4
339.619	12.41
339.986	12.56
340.352	12.79
340.718	12.89
341.084	12.97
341.451	13.05
341.817	13.03
342.183	12.99
342.549	13.08
342.915	13.18
343.281	13.28
343.647	13.23
344.013	13.3
344.379	13.17
344.745	13.33
345.11	13.31
345.476	13.35
345.842	13.33
346.208	13.36
346.573	13.48
346.939	13.53
347.304	13.57
347.67	13.53
348.035	13.51
348.401	13.46
348.766	13.49
349.132	13.52
349.497	13.47
349.862	13.61
350.228	13.65
350.593	13.52
350.958	13.57
351.323	13.62
351.688	13.55
352.053	13.57
352.418	13.58
352.783	13.58
353.148	13.66
353.513	13.72
353.878	13.63
354.243	13.67
354.608	13.68
354.972	13.67
355.337	13.72
355.702	13.78
356.066	13.88
356.431	13.93
356.795	13.87
357.16	13.87
357.524	13.7
357.889	13.67
358.253	13.7
358.618	13.58
358.982	13.55
359.346	13.53
359.71	13.5
360.075	13.45
360.439	13.45
360.803	13.39
361.167	13.32
361.531	13.32
361.895	13.23
362.259	13.16
362.623	13.19
362.987	13.17
363.351	13.11
363.714	13.04
364.078	12.96
364.442	12.9
364.806	12.87
365.169	12.91
365.533	12.87
365.896	12.8
366.26	12.74
366.623	12.71
366.987	12.67
367.35	12.67
367.714	12.61
368.077	12.53
368.44	12.44
368.803	12.36
369.167	12.26
369.53	12.18
369.893	12.13
370.256	12.04
370.619	11.95
370.982	11.82
371.345	11.7
371.708	11.61
372.071	11.54
372.434	11.46
372.797	11.33
373.159	11.19
373.522	11.19
373.885	11.15
374.247	11.07
374.61	10.99
374.973	10.85
375.335	10.81
375.698	10.76
376.06	10.6
376.423	10.57
376.785	10.47
377.147	10.41
377.51	10.29
377.872	10.14
378.234	10.04
378.596	9.95
378.958	9.88
379.321	9.86
379.683	9.82
380.045	9.77
380.407	9.73
380.769	9.71
381.13	9.6
381.492	9.54
381.854	9.4
382.216	9.32
382.578	9.24
382.939	9.09
383.301	9
383.663	9.04
384.024	8.92
384.386	8.96
384.747	8.92
385.109	8.93
385.47	8.88
385.832	8.81
386.193	8.79
386.554	8.76
386.916	8.59
387.277	8.53
387.638	8.49
387.999	8.43
388.36	8.37
388.721	8.33
389.082	8.28
389.443	8.27
389.804	8.24
390.165	8.21
390.526	8.18
390.887	8.1
391.248	8
391.609	7.94
391.969	7.84
392.33	7.76
392.691	7.66
393.051	7.61
393.412	7.57
393.772	7.5
394.133	7.45
394.493	7.47
394.854	7.38
395.214	7.31
395.574	7.25
395.935	7.18
396.295	7.09
396.655	7
397.015	6.92
397.376	6.82
397.736	6.76
398.096	6.69
398.456	6.65
398.816	6.64
399.176	6.6
399.535	6.56
399.895	6.54
400.255	6.48
400.615	6.45
400.975	6.35
401.334	6.32
401.694	6.25
402.054	6.17
402.413	6.14
402.773	6.07
403.132	6
403.492	5.99
403.851	5.95
404.211	5.95
404.57	5.89
404.929	5.91
405.288	5.85
405.648	5.82
406.007	5.79
406.366	5.74
406.725	5.69
407.084	5.68
407.443	5.64
407.802	5.62
408.161	5.57
408.52	5.56
408.879	5.54
409.238	5.51
409.596	5.49
409.955	5.46
410.314	5.46
410.673	5.46
411.031	5.41
411.39	5.37
411.748	5.35
412.107	5.35
412.465	5.31
412.824	5.3
413.182	5.27
413.54	5.23
413.899	5.22
414.257	5.23
414.615	5.19
414.974	5.15
415.332	5.12
415.69	5.07
416.048	5.03
416.406	4.98
416.764	4.95
417.122	4.92
417.48	4.86
417.838	4.81
418.195	4.77
418.553	4.74
418.911	4.72
419.269	4.69
419.626	4.64
419.984	4.62
420.342	4.58
420.699	4.57
421.057	4.56
421.414	4.53
421.772	4.5
422.129	4.47
422.486	4.44
422.844	4.43
423.201	4.42
423.558	4.41
423.915	4.39
424.273	4.38
424.63	4.35
424.987	4.36
425.344	4.35
425.701	4.33
426.058	4.34
426.415	4.33
426.772	4.31
427.128	4.31
427.485	4.29
427.842	4.28
428.199	4.25
428.555	4.23
428.912	4.22
429.269	4.21
429.625	4.19
429.982	4.21
430.338	4.18
430.695	4.17
431.051	4.14
431.407	4.15
431.764	4.12
432.12	4.1
432.476	4.11
432.832	4.11
433.189	4.11
433.545	4.07
433.901	4.05
434.257	4.03
434.613	4.04
434.969	4.05
435.325	4.05
435.681	4.04
436.036	4.03
436.392	4.02
436.748	4
437.104	4
437.459	3.98
437.815	3.99
438.171	3.98
438.526	3.99
438.882	3.99
439.237	4
439.593	4.01
439.948	3.98
440.304	3.97
440.659	3.96
441.014	3.95
441.369	3.94
441.725	3.94
442.08	3.93
442.435	3.91
442.79	3.9
443.145	3.89
443.5	3.9
443.855	3.9
444.21	3.89
444.565	3.89
444.92	3.86
445.275	3.84
445.629	3.82
445.984	3.81
446.339	3.77
446.693	3.74
447.048	3.73
447.403	3.71
447.757	3.69
448.112	3.68
448.466	3.67
448.82	3.68
449.175	3.68
449.529	3.66
449.883	3.63
450.238	3.61
450.592	3.6
450.946	3.57
451.3	3.54
451.654	3.52
452.008	3.5
452.362	3.51
452.716	3.5
453.07	3.51
453.424	3.52
453.778	3.53
454.132	3.52
454.486	3.52
454.839	3.51
455.193	3.52
455.547	3.52
455.9	3.54
456.254	3.52
456.607	3.5
456.961	3.51
457.314	3.52
457.668	3.52
458.021	3.52
458.375	3.54
458.728	3.54
459.081	3.56
459.434	3.57
459.787	3.57
460.141	3.59
460.494	3.59
460.847	3.58
461.2	3.59
461.553	3.61
461.906	3.62
462.259	3.65
462.611	3.67
462.964	3.7
463.317	3.7
463.67	3.71
464.022	3.74
464.375	3.73
464.728	3.77
465.08	3.78
465.433	3.81
465.785	3.83
466.138	3.84
466.49	3.86
466.843	3.86
467.195	3.87
467.547	3.91
467.899	3.92
468.252	3.92
468.604	3.94
468.956	3.95
469.308	3.96
469.66	3.96
470.012	3.96
470.364	3.97
470.716	3.97
471.068	3.99
471.42	4.01
471.772	4.04
472.123	4.05
472.475	4.08
472.827	4.08
473.178	4.1
473.53	4.08
473.882	4.07
474.233	4.09
474.585	4.07
474.936	4.04
475.288	4.02
475.639	4.04
475.99	4.03
476.342	4.02
476.693	4.04
477.044	4.05
477.395	4.06
477.746	4.04
478.097	4.03
478.448	4.01
478.8	4.01
479.15	3.99
479.501	3.98
479.852	3.95
480.203	3.95
480.554	3.94
480.905	3.95
481.255	3.95
481.606	3.95
481.957	3.95
482.307	3.95
482.658	3.97
483.009	3.96
483.359	3.96
483.709	3.97
484.06	3.96
484.41	3.96
484.761	3.96
485.111	3.96
485.461	3.97
485.811	3.98
486.162	3.98
486.512	3.99
486.862	3.99
487.212	4.01
487.562	4.02
487.912	4.03
488.262	4.05
488.612	4.05
488.961	4.06
489.311	4.09
489.661	4.11
490.011	4.11
490.36	4.12
490.71	4.13
491.06	4.15
491.409	4.17
491.759	4.19
492.108	4.19
492.458	4.21
492.807	4.22
493.157	4.24
493.506	4.28
493.855	4.31
494.204	4.35
494.554	4.37
494.903	4.39
495.252	4.41
495.601	4.47
495.95	4.5
496.299	4.54
496.648	4.56
496.997	4.6
497.346	4.65
497.695	4.71
498.043	4.74
498.392	4.77
498.741	4.81
499.09	4.86
499.438	4.93
499.787	5
500.135	5.05
500.484	5.11
500.832	5.16
501.181	5.19
501.529	5.25
501.878	5.3
502.226	5.38
502.574	5.44
502.923	5.49
503.271	5.57
503.619	5.64
503.967	5.74
504.315	5.79
504.663	5.87
505.011	5.98
505.359	6.08
505.707	6.17
506.055	6.27
506.403	6.36
506.751	6.44
507.098	6.51
507.446	6.59
507.794	6.65
508.141	6.76
508.489	6.86
508.837	6.96
509.184	7.06
509.531	7.15
509.879	7.25
510.226	7.36
510.574	7.46
510.921	7.56
511.268	7.64
511.616	7.75
511.963	7.85
512.31	7.94
512.657	8.05
513.004	8.17
513.351	8.32
513.698	8.44
514.045	8.6
514.392	8.78
514.739	8.94
515.086	9.12
515.432	9.26
515.779	9.39
516.126	9.54
516.473	9.69
516.819	9.84
517.166	9.98
517.512	10.09
517.859	10.22
518.205	10.36
518.552	10.49
518.898	10.63
519.245	10.79
519.591	10.94
519.937	11.04
520.283	11.17
520.629	11.32
520.976	11.48
521.322	11.65
521.668	11.81
522.014	12
522.36	12.19
522.706	12.39
523.052	12.65
523.398	12.91
523.743	13.17
524.089	13.4
524.435	13.63
524.781	13.88
525.126	14.12
525.472	14.31
525.817	14.53
526.163	14.71
526.509	14.87
526.854	15.02
527.199	15.2
527.545	15.36
527.89	15.5
528.235	15.69
528.581	15.86
528.926	16.03
529.271	16.19
529.616	16.35
529.961	16.53
530.306	16.72
530.651	16.9
530.996	17.1
531.341	17.3
531.686	17.55
532.031	17.78
532.376	18
532.721	18.26
533.065	18.5
533.41	18.76
533.755	19.05
534.099	19.33
534.444	19.61
534.788	19.89
535.133	20.18
535.477	20.44
535.822	20.71
536.166	21.01
536.51	21.37
536.855	21.75
537.199	22.11
537.543	22.47
537.887	22.84
538.231	23.18
538.576	23.57
538.92	23.94
539.264	24.3
539.608	24.62
539.951	24.94
540.295	25.23
540.639	25.49
540.983	25.75
541.327	26.03
541.671	26.31
542.014	26.59
542.358	26.86
542.701	27.1
543.045	27.36
543.389	27.64
543.732	27.92
544.075	28.19
544.419	28.48
544.762	28.76
545.105	29.07
545.449	29.39
545.792	29.72
546.135	30.03
546.478	30.38
546.821	30.72
547.165	31.08
547.508	31.47
547.851	31.86
548.194	32.28
548.536	32.65
548.879	33.01
549.222	33.4
549.565	33.79
549.908	34.18
550.25	34.59
550.593	34.94
550.936	35.23
551.278	35.57
551.621	35.95
551.963	36.32
552.306	36.69
552.648	37.04
552.991	37.37
553.333	37.7
553.675	38.01
554.017	38.36
554.36	38.65
554.702	38.97
555.044	39.26
555.386	39.52
555.728	39.78
556.07	40.08
556.412	40.38
556.754	40.64
557.096	40.98
557.438	41.23
557.78	41.57
558.121	41.94
558.463	42.27
558.805	42.56
559.147	42.89
559.488	43.13
559.83	43.42
560.171	43.73
560.513	44.01
560.854	44.24
561.196	44.51
561.537	44.75
561.878	44.96
562.22	45.25
562.561	45.47
562.902	45.78
563.243	46.05
563.584	46.24
563.925	46.45
564.266	46.65
564.607	46.87
564.948	47.04
565.289	47.2
565.63	47.44
565.971	47.62
566.312	47.75
566.653	47.97
566.993	48.14
567.334	48.28
567.675	48.5
568.015	48.73
568.356	48.95
568.696	49.16
569.037	49.38
569.377	49.61
569.718	49.83
570.058	50
570.398	50.12
570.739	50.35
571.079	50.61
571.419	50.76
571.759	50.95
572.099	51.13
572.439	51.34
572.779	51.42
573.119	51.54
573.459	51.68
573.799	51.85
574.139	51.97
574.479	52.13
574.819	52.17
575.158	52.27
575.498	52.39
575.838	52.53
576.177	52.7
576.517	52.79
576.856	52.9
577.196	52.98
577.535	53.21
577.875	53.34
578.214	53.34
578.553	53.5
578.893	53.58
579.232	53.75
579.571	53.84
579.91	54.03
580.25	54.15
580.589	54.29
580.928	54.38
581.267	54.56
581.606	54.69
581.945	54.84
582.283	54.98
582.622	55.06
582.961	55.08
583.3	55.15
583.639	55.18
583.977	55.29
584.316	55.45
584.654	55.49
584.993	55.56
585.332	55.71
585.67	55.87
586.008	56.02
586.347	56.04
586.685	56.12
587.024	56.19
587.362	56.33
587.7	56.39
588.038	56.46
588.376	56.53
588.715	56.56
589.053	56.59
589.391	56.68
589.729	56.75
590.067	56.84
590.404	56.95
590.742	57.06
591.08	57.15
591.418	57.19
591.756	57.28
592.093	57.3
592.431	57.35
592.769	57.31
593.106	57.35
593.444	57.38
593.781	57.32
594.119	57.36
594.456	57.29
594.793	57.3
595.131	57.27
595.468	57.3
595.805	57.37
596.143	57.42
596.48	57.46
596.817	57.54
597.154	57.64
597.491	57.58
597.828	57.61
598.165	57.62
598.502	57.64
598.839	57.66
599.176	57.68
599.512	57.76
599.849	57.85
600.186	57.86
600.523	57.94
600.859	58.12
601.196	58.19
601.532	58.28
601.869	58.31
602.205	58.4
602.542	58.45
602.878	58.51
603.215	58.59
603.551	58.6
603.887	58.62
604.223	58.58
604.56	58.67
604.896	58.67
605.232	58.71
605.568	58.77
605.904	58.84
606.24	58.91
606.576	58.92
606.912	59.03
607.248	59.05
607.583	59.09
607.919	59.08
608.255	59.16
608.591	59.22
608.926	59.32
609.262	59.36
609.597	59.37
609.933	59.41
610.268	59.48
610.604	59.52
610.939	59.52
611.275	59.64
611.61	59.69
611.945	59.72
612.281	59.74
612.616	59.77
612.951	59.84
613.286	59.86
613.621	59.95
613.956	59.9
614.291	59.99
614.626	60.1
614.961	60.2
615.296	60.16
615.631	60.18
615.966	60.17
616.3	60.23
616.635	60.29
616.97	60.22
617.304	60.21
617.639	60.2
617.973	60.2
618.308	60.28
618.642	60.3
618.977	60.45
619.311	60.47
619.646	60.57
619.98	60.52
620.314	60.75
620.648	60.81
620.983	60.76
621.317	60.83
621.651	60.75
621.985	60.77
622.319	60.78
622.653	60.87
622.987	60.96
623.321	60.96
623.655	60.91
623.988	60.94
624.322	60.89
624.656	60.91
624.99	60.98
625.323	60.94
625.657	60.86
625.99	60.77
626.324	60.79
626.657	60.76
626.991	60.8
627.324	60.65
627.658	60.61
627.991	60.7
628.324	60.73
628.657	60.75
628.991	60.74
629.324	60.76
629.657	60.69
629.99	60.71
630.323	60.74
630.656	60.77
630.989	60.8
631.322	60.88
631.655	60.92
631.987	61
632.32	61.03
632.653	61.12
632.986	61.17
633.318	61.14
633.651	61.14
633.984	61.15
634.316	61.13
634.649	61.1
634.981	61.07
635.313	60.95
635.646	60.94
635.978	61.03
636.31	61.05
636.643	61.11
636.975	61.15
637.307	61.16
637.639	61.14
637.971	61.09
638.303	61.1
638.635	61.1
638.967	61.02
639.299	60.98
639.631	61.01
639.963	60.97
640.295	60.99
640.626	60.9
640.958	60.94
641.29	60.91
641.621	60.96
641.953	60.92
642.285	61.05
642.616	61.08
642.948	61.01
643.279	61.02
643.61	60.87
643.942	60.81
644.273	60.75
644.604	60.79
644.936	60.93
645.267	60.9
645.598	60.91
645.929	60.9
646.26	60.98
646.591	61
646.922	61.06
647.253	61.21
647.584	61.3
647.915	61.23
648.245	61.44
648.576	61.4
648.907	61.41
649.238	61.48
649.568	61.56
649.899	61.59
650.229	61.52
650.56	61.57
650.89	61.57
651.221	61.6
651.551	61.61
651.882	61.61
652.212	61.71
652.542	61.75
652.872	61.83
653.203	61.79
653.533	61.78
653.863	61.89
654.193	61.75
654.523	61.95
654.853	62.03
655.183	61.94
655.513	61.93
655.843	62.07
656.172	62.1
656.502	61.94
656.832	62
657.162	62.09
657.491	62.22
657.821	62.22
658.15	62.3
658.48	62.39
658.809	62.39
659.139	62.46
659.468	62.44
659.798	62.46
660.127	62.45
660.456	62.48
660.785	62.46
661.115	62.46
661.444	62.26
661.773	62.22
662.102	62.18
662.431	62.15
662.76	62.08
663.089	61.94
