Data from BA57663_Reflection_00011.txt Node
Date: Mon Nov 18 15:44:09 EST 2019
User: vgr7
Spectrometer: USB2G7710
Scans to average: 3
Trigger mode: 4
Integration Time (sec): 2.000000E-2
Electric dark correction enabled: true
Boxcar width: 10
XAxis mode: Wavelengths
Number of Pixels in Spectrum: 2048
>>>>>Begin Spectral Data<<<<<
177.721	-18.21
178.105	36.42
178.488	70.9
178.871	158.04
179.254	236.49
179.636	-196.46
180.019	-235.18
180.402	100
180.785	75.49
181.168	50.67
181.55	54.01
181.933	77.94
182.316	86.92
182.698	96.33
183.081	113.05
183.463	173.41
183.846	117.95
184.228	218.38
184.611	195.04
184.993	194.14
185.376	201.05
185.758	154.18
186.14	132.9
186.522	132.72
186.904	142.61
187.287	162.48
187.669	193.73
188.051	162.96
188.433	152
188.815	160.23
189.197	180.75
189.579	319.43
189.961	243.04
190.342	333.02
190.724	5100
191.106	2155.9
191.488	974.09
191.869	8949.06
192.251	3176.34
192.633	-3652.29
193.014	-1290.88
193.396	1334.6
193.777	903.54
194.159	1598.36
194.54	1557.34
194.922	-2746.15
195.303	-1426.65
195.684	-426900
196.065	-672.65
196.447	-491.42
196.828	-437.98
197.209	-246.29
197.59	-349.04
197.971	-307
198.352	-220.84
198.733	-1133.22
199.114	-2583.45
199.495	-854.66
199.876	-682.52
200.257	-500.58
200.638	-465.1
201.018	-380.04
201.399	-312.79
201.78	-199.73
202.16	-291.87
202.541	-463.46
202.922	-474.4
203.302	-641.22
203.683	-1094.4
204.063	-1112.08
204.444	-2142.51
204.824	-3715.17
205.204	-1984.34
205.585	-1404.12
205.965	-1312.21
206.345	-2066.31
206.725	-1094.01
207.106	-1059.23
207.486	-1897.81
207.866	4042.73
208.246	1867.4
208.626	913.54
209.006	1073.01
209.386	891.22
209.766	522.97
210.145	409.47
210.525	606.13
210.905	411.49
211.285	935.76
211.664	3009.5
212.044	1570.59
212.424	8564.79
212.803	15490.24
213.183	1575.2
213.562	1001.33
213.942	21795.65
214.321	-2275.61
214.701	-900
215.08	-1957.63
215.459	-2211.74
215.838	-461.83
216.218	-452.6
216.597	-255.09
216.976	-275.41
217.355	-421.39
217.734	-339.41
218.113	-219.25
218.492	-355.89
218.871	-306.51
219.25	-296
219.629	-322.04
220.008	-284.4
220.387	-263.37
220.766	-252.9
221.144	-815.94
221.523	-650.33
221.902	-911.74
222.28	-1138.88
222.659	-2247.59
223.037	-1024.71
223.416	-934.42
223.794	-742.34
224.173	-291.52
224.551	-142.15
224.929	-119.73
225.308	-79.45
225.686	-72.72
226.064	-64.72
226.442	-49.35
226.821	-37.53
227.199	-36.99
227.577	-34.92
227.955	-30.35
228.333	-29.37
228.711	-28.4
229.089	-23.42
229.467	-22.66
229.845	-25.01
230.222	-23.09
230.6	-25.27
230.978	-22.23
231.356	-18.5
231.733	-20.24
232.111	-20.27
232.488	-19.9
232.866	-17.98
233.243	-17.04
233.621	-15.2
233.998	-13.34
234.376	-13.49
234.753	-14.24
235.13	-14.16
235.508	-13.34
235.885	-13.98
236.262	-13.33
236.639	-11.04
237.016	-9.04
237.393	-6.69
237.77	-4.51
238.147	-3.32
238.524	-2.07
238.901	-1.48
239.278	-0.99
239.655	1.12
240.032	1.56
240.409	1.39
240.785	1.28
241.162	1.57
241.539	1.21
241.915	1.1
242.292	1.09
242.668	1.29
243.045	1.83
243.421	2
243.798	2.05
244.174	2.11
244.551	2.06
244.927	1.92
245.303	1.82
245.679	1.97
246.056	1.87
246.432	1.89
246.808	1.93
247.184	1.64
247.56	1.45
247.936	1.46
248.312	1.45
248.688	1.59
249.064	1.56
249.44	1.72
249.815	1.78
250.191	1.96
250.567	1.93
250.943	1.68
251.318	1.86
251.694	1.98
252.069	1.73
252.445	1.75
252.82	1.98
253.196	1.83
253.571	1.49
253.947	1.73
254.322	1.88
254.697	1.83
255.073	1.86
255.448	1.89
255.823	1.99
256.198	2.04
256.573	2.19
256.948	2.37
257.323	2.44
257.698	2.37
258.073	2.39
258.448	2.36
258.823	2.47
259.198	2.3
259.573	2.2
259.948	2.32
260.322	2.3
260.697	2.19
261.072	2.21
261.446	2.33
261.821	2.1
262.195	2.15
262.57	2.12
262.944	1.97
263.319	2
263.693	1.91
264.067	2.03
264.442	1.98
264.816	1.88
265.19	1.85
265.564	1.87
265.938	1.68
266.313	1.67
266.687	1.78
267.061	1.96
267.435	2.02
267.809	2.12
268.183	2.08
268.556	2.18
268.93	2.21
269.304	2.13
269.678	2.36
270.051	2.22
270.425	2.38
270.799	2.57
271.172	2.53
271.546	2.57
271.919	2.44
272.293	2.27
272.666	2.23
273.04	2.23
273.413	2.18
273.787	2.22
274.16	2.3
274.533	2.28
274.906	2.15
275.279	2.07
275.653	1.91
276.026	1.9
276.399	1.88
276.772	1.86
277.145	1.92
277.518	1.73
277.891	1.76
278.263	1.61
278.636	1.73
279.009	1.65
279.382	1.81
279.755	1.92
280.127	2.27
280.5	2.29
280.872	2.42
281.245	2.52
281.617	2.81
281.99	2.97
282.362	3
282.735	3.08
283.107	3.09
283.479	3.3
283.852	3.41
284.224	3.43
284.596	3.46
284.968	3.55
285.34	3.59
285.713	3.65
286.085	3.6
286.457	3.6
286.829	3.66
287.201	3.64
287.572	3.5
287.944	3.3
288.316	3.45
288.688	3.39
289.06	3.25
289.431	3.07
289.803	3.02
290.175	3.06
290.546	3.17
290.918	3.24
291.289	3.21
291.661	3.2
292.032	3.16
292.403	3.17
292.775	3.26
293.146	3.35
293.517	3.36
293.889	3.49
294.26	3.5
294.631	3.37
295.002	3.24
295.373	3.44
295.744	3.5
296.115	3.37
296.486	3.24
296.857	3.41
297.228	3.57
297.599	3.6
297.97	3.52
298.34	3.54
298.711	3.72
299.082	3.61
299.452	3.63
299.823	3.77
300.194	3.85
300.564	3.94
300.935	3.98
301.305	3.92
301.676	4.03
302.046	4.15
302.416	4.39
302.787	4.56
303.157	4.51
303.527	4.48
303.897	4.47
304.267	4.76
304.637	4.85
305.008	4.77
305.378	4.76
305.748	4.93
306.117	4.92
306.487	5.01
306.857	5.27
307.227	5.27
307.597	5.26
307.967	5.26
308.336	5.15
308.706	5.19
309.076	5.4
309.445	5.22
309.815	5.23
310.184	5.17
310.554	5.29
310.923	5.3
311.293	5.42
311.662	5.57
312.031	5.49
312.401	5.56
312.77	5.69
313.139	5.75
313.508	5.72
313.877	5.74
314.246	5.64
314.616	5.66
314.985	5.74
315.353	5.77
315.722	5.99
316.091	5.97
316.46	6.06
316.829	6.07
317.198	6.27
317.567	6.21
317.935	6.25
318.304	6.16
318.672	6.25
319.041	6.59
319.41	6.56
319.778	6.67
320.147	6.75
320.515	6.86
320.883	6.83
321.252	7.02
321.62	7.23
321.988	7.41
322.357	7.5
322.725	7.51
323.093	7.65
323.461	7.61
323.829	7.57
324.197	7.68
324.565	7.79
324.933	7.8
325.301	8.02
325.669	8.09
326.037	8.13
326.405	8.3
326.772	8.21
327.14	8.46
327.508	8.55
327.875	8.48
328.243	8.62
328.61	8.77
328.978	8.77
329.346	8.77
329.713	8.8
330.08	8.8
330.448	8.99
330.815	8.98
331.182	9.08
331.55	9.28
331.917	9.4
332.284	9.41
332.651	9.49
333.018	9.42
333.385	9.57
333.752	9.71
334.119	9.74
334.486	9.68
334.853	9.63
335.22	9.62
335.587	9.67
335.954	9.6
336.32	9.66
336.687	9.63
337.054	9.64
337.42	9.73
337.787	9.88
338.153	9.86
338.52	9.93
338.886	9.82
339.253	9.93
339.619	9.78
339.986	9.79
340.352	9.89
340.718	9.98
341.084	9.99
341.451	10.05
341.817	10.01
342.183	10.16
342.549	10.11
342.915	10.26
343.281	10.35
343.647	10.38
344.013	10.47
344.379	10.57
344.745	10.56
345.11	10.51
345.476	10.37
345.842	10.38
346.208	10.37
346.573	10.58
346.939	10.67
347.304	10.79
347.67	10.75
348.035	10.85
348.401	10.91
348.766	10.91
349.132	10.91
349.497	11.09
349.862	11.08
350.228	11.21
350.593	11.17
350.958	11.13
351.323	11.11
351.688	11.11
352.053	11.1
352.418	11.14
352.783	11.17
353.148	11.21
353.513	11.22
353.878	11.21
354.243	11.17
354.608	11.14
354.972	11.18
355.337	11.27
355.702	11.24
356.066	11.15
356.431	11.16
356.795	11.18
357.16	11.09
357.524	11.09
357.889	11.06
358.253	11.12
358.618	11.14
358.982	11.12
359.346	11.05
359.71	11.03
360.075	11.05
360.439	11.05
360.803	11.12
361.167	11.15
361.531	11.14
361.895	11.06
362.259	11.01
362.623	10.99
362.987	10.95
363.351	10.95
363.714	11.04
364.078	10.99
364.442	10.95
364.806	10.88
365.169	10.82
365.533	10.81
365.896	10.65
366.26	10.63
366.623	10.59
366.987	10.61
367.35	10.56
367.714	10.46
368.077	10.4
368.44	10.33
368.803	10.24
369.167	10.2
369.53	10.15
369.893	10.16
370.256	10.08
370.619	9.92
370.982	9.78
371.345	9.66
371.708	9.69
372.071	9.55
372.434	9.49
372.797	9.52
373.159	9.44
373.522	9.52
373.885	9.5
374.247	9.45
374.61	9.29
374.973	9.2
375.335	9.19
375.698	9.11
376.06	9.01
376.423	8.91
376.785	8.9
377.147	8.87
377.51	8.7
377.872	8.7
378.234	8.71
378.596	8.71
378.958	8.64
379.321	8.57
379.683	8.52
380.045	8.48
380.407	8.39
380.769	8.33
381.13	8.21
381.492	8.12
381.854	8.05
382.216	8.04
382.578	8.07
382.939	7.97
383.301	7.97
383.663	7.9
384.024	7.92
384.386	7.91
384.747	7.89
385.109	7.87
385.47	7.77
385.832	7.7
386.193	7.68
386.554	7.61
386.916	7.55
387.277	7.59
387.638	7.57
387.999	7.51
388.36	7.47
388.721	7.41
389.082	7.32
389.443	7.29
389.804	7.22
390.165	7.13
390.526	7.11
390.887	7.03
391.248	7.06
391.609	7.01
391.969	6.94
392.33	6.84
392.691	6.81
393.051	6.76
393.412	6.75
393.772	6.65
394.133	6.64
394.493	6.59
394.854	6.52
395.214	6.44
395.574	6.41
395.935	6.38
396.295	6.37
396.655	6.35
397.015	6.3
397.376	6.28
397.736	6.24
398.096	6.2
398.456	6.17
398.816	6.06
399.176	5.99
399.535	5.92
399.895	5.9
400.255	5.91
400.615	5.91
400.975	5.86
401.334	5.86
401.694	5.84
402.054	5.76
402.413	5.74
402.773	5.69
403.132	5.65
403.492	5.61
403.851	5.57
404.211	5.54
404.57	5.51
404.929	5.5
405.288	5.47
405.648	5.44
406.007	5.41
406.366	5.41
406.725	5.41
407.084	5.4
407.443	5.39
407.802	5.33
408.161	5.3
408.52	5.26
408.879	5.24
409.238	5.21
409.596	5.23
409.955	5.16
410.314	5.19
410.673	5.18
411.031	5.14
411.39	5.1
411.748	5.11
412.107	5.07
412.465	5.03
412.824	5.01
413.182	4.96
413.54	4.96
413.899	4.92
414.257	4.9
414.615	4.86
414.974	4.81
415.332	4.78
415.69	4.75
416.048	4.74
416.406	4.72
416.764	4.66
417.122	4.62
417.48	4.61
417.838	4.59
418.195	4.56
418.553	4.54
418.911	4.52
419.269	4.49
419.626	4.49
419.984	4.47
420.342	4.45
420.699	4.43
421.057	4.41
421.414	4.4
421.772	4.38
422.129	4.37
422.486	4.34
422.844	4.33
423.201	4.31
423.558	4.29
423.915	4.29
424.273	4.29
424.63	4.27
424.987	4.27
425.344	4.26
425.701	4.25
426.058	4.24
426.415	4.24
426.772	4.22
427.128	4.2
427.485	4.18
427.842	4.16
428.199	4.16
428.555	4.15
428.912	4.13
429.269	4.12
429.625	4.1
429.982	4.12
430.338	4.12
430.695	4.11
431.051	4.09
431.407	4.06
431.764	4.03
432.12	4.03
432.476	4.01
432.832	3.98
433.189	3.97
433.545	3.95
433.901	3.94
434.257	3.94
434.613	3.94
434.969	3.96
435.325	3.97
435.681	3.95
436.036	3.95
436.392	3.95
436.748	3.94
437.104	3.95
437.459	3.93
437.815	3.93
438.171	3.92
438.526	3.93
438.882	3.95
439.237	3.95
439.593	3.95
439.948	3.93
440.304	3.92
440.659	3.91
441.014	3.91
441.369	3.91
441.725	3.9
442.08	3.89
442.435	3.88
442.79	3.87
443.145	3.88
443.5	3.85
443.855	3.83
444.21	3.82
444.565	3.82
444.92	3.82
445.275	3.79
445.629	3.79
445.984	3.76
446.339	3.73
446.693	3.71
447.048	3.7
447.403	3.7
447.757	3.69
448.112	3.68
448.466	3.66
448.82	3.64
449.175	3.64
449.529	3.63
449.883	3.6
450.238	3.59
450.592	3.57
450.946	3.56
451.3	3.54
451.654	3.53
452.008	3.51
452.362	3.49
452.716	3.49
453.07	3.51
453.424	3.5
453.778	3.49
454.132	3.49
454.486	3.5
454.839	3.48
455.193	3.51
455.547	3.52
455.9	3.54
456.254	3.56
456.607	3.56
456.961	3.55
457.314	3.56
457.668	3.59
458.021	3.6
458.375	3.62
458.728	3.64
459.081	3.67
459.434	3.66
459.787	3.67
460.141	3.68
460.494	3.68
460.847	3.69
461.2	3.69
461.553	3.73
461.906	3.74
462.259	3.77
462.611	3.77
462.964	3.78
463.317	3.77
463.67	3.78
464.022	3.79
464.375	3.81
464.728	3.83
465.08	3.82
465.433	3.84
465.785	3.86
466.138	3.85
466.49	3.85
466.843	3.86
467.195	3.87
467.547	3.9
467.899	3.9
468.252	3.92
468.604	3.94
468.956	3.93
469.308	3.95
469.66	3.95
470.012	3.95
470.364	3.94
470.716	3.97
471.068	3.96
471.42	3.97
471.772	3.98
472.123	4
472.475	4
472.827	4
473.178	4.03
473.53	4.04
473.882	4.03
474.233	4.02
474.585	3.99
474.936	4
475.288	4.02
475.639	4.01
475.99	4
476.342	3.99
476.693	3.99
477.044	4
477.395	4
477.746	4.01
478.097	3.98
478.448	3.97
478.8	3.98
479.15	3.96
479.501	3.94
479.852	3.94
480.203	3.94
480.554	3.95
480.905	3.94
481.255	3.94
481.606	3.97
481.957	3.98
482.307	3.97
482.658	3.97
483.009	3.98
483.359	3.98
483.709	3.98
484.06	3.97
484.41	3.98
484.761	3.98
485.111	3.99
485.461	4
485.811	4.01
486.162	4.01
486.512	4.02
486.862	4.03
487.212	4.03
487.562	4.04
487.912	4.04
488.262	4.05
488.612	4.06
488.961	4.06
489.311	4.08
489.661	4.1
490.011	4.1
490.36	4.11
490.71	4.13
491.06	4.15
491.409	4.16
491.759	4.18
492.108	4.19
492.458	4.2
492.807	4.22
493.157	4.23
493.506	4.26
493.855	4.28
494.204	4.3
494.554	4.33
494.903	4.36
495.252	4.38
495.601	4.42
495.95	4.45
496.299	4.46
496.648	4.5
496.997	4.53
497.346	4.57
497.695	4.62
498.043	4.65
498.392	4.68
498.741	4.73
499.09	4.76
499.438	4.81
499.787	4.86
500.135	4.92
500.484	4.96
500.832	5
501.181	5.09
501.529	5.14
501.878	5.21
502.226	5.27
502.574	5.33
502.923	5.4
503.271	5.47
503.619	5.56
503.967	5.64
504.315	5.7
504.663	5.77
505.011	5.85
505.359	5.91
505.707	6.01
506.055	6.1
506.403	6.16
506.751	6.23
507.098	6.32
507.446	6.4
507.794	6.5
508.141	6.56
508.489	6.62
508.837	6.7
509.184	6.8
509.531	6.88
509.879	6.97
510.226	7.07
510.574	7.14
510.921	7.21
511.268	7.29
511.616	7.39
511.963	7.5
512.31	7.58
512.657	7.69
513.004	7.79
513.351	7.91
513.698	8.02
514.045	8.14
514.392	8.26
514.739	8.39
515.086	8.51
515.432	8.64
515.779	8.77
516.126	8.89
516.473	8.98
516.819	9.13
517.166	9.23
517.512	9.32
517.859	9.46
518.205	9.57
518.552	9.68
518.898	9.78
519.245	9.89
519.591	10
519.937	10.11
520.283	10.23
520.629	10.35
520.976	10.49
521.322	10.62
521.668	10.79
522.014	10.94
522.36	11.11
522.706	11.28
523.052	11.51
523.398	11.75
523.743	11.98
524.089	12.2
524.435	12.39
524.781	12.6
525.126	12.8
525.472	13
525.817	13.19
526.163	13.36
526.509	13.52
526.854	13.69
527.199	13.83
527.545	13.98
527.89	14.12
528.235	14.26
528.581	14.42
528.926	14.57
529.271	14.74
529.616	14.88
529.961	15.07
530.306	15.21
530.651	15.37
530.996	15.54
531.341	15.73
531.686	15.96
532.031	16.16
532.376	16.38
532.721	16.6
533.065	16.81
533.41	17.05
533.755	17.28
534.099	17.5
534.444	17.78
534.788	18.02
535.133	18.26
535.477	18.53
535.822	18.8
536.166	19.09
536.51	19.38
536.855	19.71
537.199	20.02
537.543	20.35
537.887	20.69
538.231	21.04
538.576	21.4
538.92	21.75
539.264	22.07
539.608	22.34
539.951	22.63
540.295	22.91
540.639	23.17
540.983	23.42
541.327	23.69
541.671	23.94
542.014	24.19
542.358	24.44
542.701	24.68
543.045	24.92
543.389	25.15
543.732	25.41
544.075	25.67
544.419	25.93
544.762	26.21
545.105	26.5
545.449	26.78
545.792	27.05
546.135	27.34
546.478	27.66
546.821	28.04
547.165	28.34
547.508	28.69
547.851	29.06
548.194	29.43
548.536	29.79
548.879	30.13
549.222	30.48
549.565	30.84
549.908	31.2
550.25	31.58
550.593	31.92
550.936	32.26
551.278	32.63
551.621	32.99
551.963	33.34
552.306	33.68
552.648	34.03
552.991	34.37
553.333	34.65
553.675	34.93
554.017	35.21
554.36	35.52
554.702	35.83
555.044	36.08
555.386	36.36
555.728	36.6
556.07	36.92
556.412	37.18
556.754	37.49
557.096	37.78
557.438	38.05
557.78	38.39
558.121	38.68
558.463	38.96
558.805	39.25
559.147	39.47
559.488	39.74
559.83	40.03
560.171	40.36
560.513	40.65
560.854	40.92
561.196	41.19
561.537	41.49
561.878	41.68
562.22	41.98
562.561	42.2
562.902	42.49
563.243	42.68
563.584	42.94
563.925	43.16
564.266	43.4
564.607	43.63
564.948	43.78
565.289	43.99
565.63	44.15
565.971	44.36
566.312	44.6
566.653	44.79
566.993	44.95
567.334	45.07
567.675	45.25
568.015	45.44
568.356	45.65
568.696	45.8
569.037	46.04
569.377	46.2
569.718	46.41
570.058	46.56
570.398	46.75
570.739	46.91
571.079	47.08
571.419	47.17
571.759	47.29
572.099	47.48
572.439	47.59
572.779	47.73
573.119	47.77
573.459	47.91
573.799	48.07
574.139	48.2
574.479	48.33
574.819	48.41
575.158	48.48
575.498	48.57
575.838	48.65
576.177	48.67
576.517	48.81
576.856	48.92
577.196	49.08
577.535	49.27
577.875	49.45
578.214	49.56
578.553	49.74
578.893	49.91
579.232	50.1
579.571	50.27
579.91	50.45
580.25	50.64
580.589	50.75
580.928	50.81
581.267	50.89
581.606	51
581.945	51.14
582.283	51.37
582.622	51.5
582.961	51.68
583.3	51.92
583.639	52.02
583.977	52.07
584.316	52.11
584.654	52.15
584.993	52.19
585.332	52.31
585.67	52.45
586.008	52.5
586.347	52.48
586.685	52.47
587.024	52.53
587.362	52.62
587.7	52.69
588.038	52.79
588.376	52.93
588.715	52.99
589.053	53.06
589.391	53.05
589.729	53.11
590.067	53.16
590.404	53.22
590.742	53.24
591.08	53.38
591.418	53.45
591.756	53.51
592.093	53.52
592.431	53.56
592.769	53.59
593.106	53.67
593.444	53.71
593.781	53.79
594.119	53.86
594.456	53.89
594.793	53.87
595.131	53.89
595.468	53.9
595.805	53.96
596.143	53.95
596.48	54.11
596.817	54.22
597.154	54.25
597.491	54.28
597.828	54.33
598.165	54.35
598.502	54.37
598.839	54.37
599.176	54.46
599.512	54.48
599.849	54.48
600.186	54.51
600.523	54.59
600.859	54.7
601.196	54.74
601.532	54.8
601.869	54.96
602.205	55.06
602.542	55.1
602.878	55.1
603.215	55.18
603.551	55.11
603.887	55.04
604.223	55.06
604.56	55.12
604.896	55.17
605.232	55.19
605.568	55.21
605.904	55.28
606.24	55.31
606.576	55.38
606.912	55.5
607.248	55.61
607.583	55.62
607.919	55.6
608.255	55.67
608.591	55.73
608.926	55.68
609.262	55.72
609.597	55.84
609.933	55.89
610.268	56
610.604	56.05
610.939	56.18
611.275	56.25
611.61	56.25
611.945	56.34
612.281	56.37
612.616	56.46
612.951	56.54
613.286	56.53
613.621	56.58
613.956	56.51
614.291	56.53
614.626	56.68
614.961	56.79
615.296	56.79
615.631	56.74
615.966	56.83
616.3	56.82
616.635	56.9
616.97	56.91
617.304	56.84
617.639	56.87
617.973	56.93
618.308	57.06
618.642	57.18
618.977	57.22
619.311	57.16
619.646	57.2
619.98	57.17
620.314	57.31
620.648	57.33
620.983	57.38
621.317	57.43
621.651	57.41
621.985	57.49
622.319	57.5
622.653	57.64
622.987	57.75
623.321	57.84
623.655	57.63
623.988	57.7
624.322	57.7
624.656	57.7
624.99	57.53
625.323	57.45
625.657	57.29
625.99	57.19
626.324	57.29
626.657	57.34
626.991	57.38
627.324	57.35
627.658	57.34
627.991	57.37
628.324	57.43
628.657	57.44
628.991	57.41
629.324	57.49
629.657	57.36
629.99	57.24
630.323	57.14
630.656	57.23
630.989	57.31
631.322	57.41
631.655	57.42
631.987	57.61
632.32	57.68
632.653	57.69
632.986	57.78
633.318	57.76
633.651	57.7
633.984	57.7
634.316	57.65
634.649	57.64
634.981	57.65
635.313	57.53
635.646	57.49
635.978	57.5
636.31	57.39
636.643	57.5
636.975	57.57
637.307	57.65
637.639	57.72
637.971	57.7
638.303	57.75
638.635	57.83
638.967	57.82
639.299	57.81
639.631	57.93
639.963	57.92
640.295	57.93
640.626	57.96
640.958	58.06
641.29	58.21
641.621	58.2
641.953	58.27
642.285	58.42
642.616	58.45
642.948	58.55
643.279	58.71
643.61	58.74
643.942	58.76
644.273	58.77
644.604	58.77
644.936	58.69
645.267	58.62
645.598	58.63
645.929	58.65
646.26	58.65
646.591	58.77
646.922	58.8
647.253	58.87
647.584	58.83
647.915	58.73
648.245	58.73
648.576	58.83
648.907	58.74
649.238	58.62
649.568	58.65
649.899	58.59
650.229	58.53
650.56	58.46
650.89	58.43
651.221	58.44
651.551	58.44
651.882	58.52
652.212	58.61
652.542	58.62
652.872	58.61
653.203	58.67
653.533	58.64
653.863	58.69
654.193	58.7
654.523	58.9
654.853	58.89
655.183	58.77
655.513	58.77
655.843	58.79
656.172	58.81
656.502	58.77
656.832	58.76
657.162	58.8
657.491	58.93
657.821	58.95
658.15	58.98
658.48	59.01
658.809	58.97
659.139	58.96
659.468	58.92
659.798	58.87
660.127	58.82
660.456	58.83
660.785	58.72
661.115	58.68
661.444	58.57
661.773	58.61
662.102	58.6
662.431	58.56
662.76	58.55
