Data from BA57730_Reflection_00008.txt Node
Date: Mon Nov 18 15:59:44 EST 2019
User: vgr7
Spectrometer: USB2G7710
Scans to average: 3
Trigger mode: 4
Integration Time (sec): 2.000000E-2
Electric dark correction enabled: true
Boxcar width: 10
XAxis mode: Wavelengths
Number of Pixels in Spectrum: 2048
>>>>>Begin Spectral Data<<<<<
177.721	2465.08
178.105	-30.72
178.488	197.39
178.871	91.45
179.254	-13.85
179.636	-191.25
180.019	-135.62
180.402	90.7
180.785	31.22
181.168	41.57
181.55	50.4
181.933	188.48
182.316	111.41
182.698	96.93
183.081	57.31
183.463	54
183.846	47.13
184.228	125.03
184.611	120.16
184.993	-65.5
185.376	-84.27
185.758	-64.36
186.14	1.65
186.522	24.61
186.904	2.75
187.287	-26.7
187.669	-100.69
188.051	-128.6
188.433	-609.4
188.815	-130.33
189.197	-67.19
189.579	-13.23
189.961	-44.11
190.342	-28.48
190.724	-197.05
191.106	1128.99
191.488	147.62
191.869	106.97
192.251	327.14
192.633	150.15
193.014	111.99
193.396	-350.29
193.777	34.05
194.159	29.52
194.54	29.21
194.922	43.09
195.303	28.92
195.684	48.48
196.065	75.34
196.447	99.13
196.828	110.88
197.209	193.15
197.59	270.23
197.971	288.3
198.352	178.12
198.733	237.25
199.114	209.82
199.495	316.89
199.876	214.9
200.257	256.05
200.638	191.79
201.018	83.3
201.399	88.67
201.78	106.73
202.16	103.68
202.541	89.81
202.922	72.01
203.302	22.74
203.683	85.51
204.063	85.73
204.444	58.88
204.824	105.94
205.204	541.27
205.585	1067.08
205.965	1489.74
206.345	733.11
206.725	608.15
207.106	383.38
207.486	310.06
207.866	312.63
208.246	284.19
208.626	229.86
209.006	320.92
209.386	321.26
209.766	714.33
210.145	-2125.23
210.525	-262.78
210.905	-90.56
211.285	-62.17
211.664	-86.73
212.044	-70.46
212.424	-39.72
212.803	-49.9
213.183	-45.85
213.562	-46.33
213.942	-29.67
214.321	-21.23
214.701	-13.01
215.08	-18.86
215.459	-9.63
215.838	-25.68
216.218	-32.01
216.597	-20.69
216.976	-24.17
217.355	-7.37
217.734	-8.01
218.113	-2.47
218.492	10.58
218.871	18.43
219.25	3.29
219.629	0.14
220.008	2.63
220.387	-19.29
220.766	2.83
221.144	-7.02
221.523	-2.54
221.902	-1.59
222.28	-18.83
222.659	-11.11
223.037	3.36
223.416	-18.14
223.794	-17.21
224.173	-12.46
224.551	-7.62
224.929	1.6
225.308	-2.65
225.686	-5.18
226.064	-6.37
226.442	-6.79
226.821	-6.13
227.199	-1.9
227.577	-0.19
227.955	1.28
228.333	4.46
228.711	6.42
229.089	9.76
229.467	8.21
229.845	10.17
230.222	13.1
230.6	12.19
230.978	9.18
231.356	13.72
231.733	14.21
232.111	12.94
232.488	12.29
232.866	10.72
233.243	11.22
233.621	11.54
233.998	13.45
234.376	12.79
234.753	10.96
235.13	10.75
235.508	11.56
235.885	12.09
236.262	11.2
236.639	8.91
237.016	8.29
237.393	7.95
237.77	7.66
238.147	5.92
238.524	6.83
238.901	7.8
239.278	6.96
239.655	6.67
240.032	6.58
240.409	6.09
240.785	6.24
241.162	6.45
241.539	6.26
241.915	5.75
242.292	5.24
242.668	5.15
243.045	4.62
243.421	4.25
243.798	4
244.174	3.73
244.551	3.83
244.927	3.63
245.303	3.65
245.679	3.21
246.056	3.3
246.432	3.14
246.808	3.19
247.184	2.86
247.56	2.88
247.936	2.76
248.312	2.72
248.688	2.87
249.064	2.71
249.44	2.44
249.815	2.23
250.191	2.46
250.567	2.33
250.943	2.4
251.318	2.57
251.694	2.61
252.069	2.64
252.445	2.45
252.82	2.56
253.196	2.64
253.571	3.09
253.947	3.29
254.322	3.23
254.697	2.61
255.073	2.33
255.448	2.22
255.823	2.11
256.198	2.22
256.573	2.26
256.948	2.38
257.323	2.37
257.698	2.46
258.073	2.27
258.448	2.4
258.823	2.5
259.198	2.43
259.573	2.41
259.948	2.32
260.322	2.43
260.697	2.45
261.072	2.21
261.446	2.1
261.821	2.03
262.195	2.11
262.57	2.24
262.944	2.39
263.319	2.34
263.693	2.38
264.067	2.27
264.442	2.25
264.816	2.16
265.19	2.17
265.564	2.18
265.938	2.18
266.313	2.12
266.687	2.04
267.061	1.99
267.435	1.94
267.809	1.84
268.183	1.82
268.556	1.83
268.93	2
269.304	2.14
269.678	2.2
270.051	2.17
270.425	2.23
270.799	2.24
271.172	2.25
271.546	2.18
271.919	2.24
272.293	2.03
272.666	2.03
273.04	1.93
273.413	1.86
273.787	1.93
274.16	1.88
274.533	1.73
274.906	1.84
275.279	1.73
275.653	1.87
276.026	1.94
276.399	1.8
276.772	1.85
277.145	1.74
277.518	1.72
277.891	1.66
278.263	1.55
278.636	1.56
279.009	1.51
279.382	1.74
279.755	1.75
280.127	1.98
280.5	1.99
280.872	2.28
281.245	2.34
281.617	2.44
281.99	2.62
282.362	2.81
282.735	2.6
283.107	2.69
283.479	2.67
283.852	2.55
284.224	2.56
284.596	2.54
284.968	2.61
285.34	2.62
285.713	2.7
286.085	2.94
286.457	2.94
286.829	3.1
287.201	3.19
287.572	3.11
287.944	3.11
288.316	3.06
288.688	3.09
289.06	2.97
289.431	2.95
289.803	2.86
290.175	2.84
290.546	3.06
290.918	3.08
291.289	3.17
291.661	3.31
292.032	3.42
292.403	3.57
292.775	3.54
293.146	3.59
293.517	3.5
293.889	3.5
294.26	3.46
294.631	3.42
295.002	3.29
295.373	3.3
295.744	3.14
296.115	3.19
296.486	2.97
296.857	2.94
297.228	3.08
297.599	3.04
297.97	3.16
298.34	3.04
298.711	3.17
299.082	3.13
299.452	3.12
299.823	3.16
300.194	3.1
300.564	3.08
300.935	3.04
301.305	3.06
301.676	3.05
302.046	3.2
302.416	3.34
302.787	3.22
303.157	3.28
303.527	3.41
303.897	3.5
304.267	3.69
304.637	4.03
305.008	3.81
305.378	3.95
305.748	3.98
306.117	3.89
306.487	3.69
306.857	3.71
307.227	3.71
307.597	3.67
307.967	3.77
308.336	3.86
308.706	3.89
309.076	3.94
309.445	3.95
309.815	3.74
310.184	3.72
310.554	3.98
310.923	4.1
311.293	4.15
311.662	4.24
312.031	4.26
312.401	4.19
312.77	4.32
313.139	4.36
313.508	4.3
313.877	4.38
314.246	4.5
314.616	4.5
314.985	4.62
315.353	4.68
315.722	4.71
316.091	4.69
316.46	4.79
316.829	4.87
317.198	4.86
317.567	5.17
317.935	5.11
318.304	5.13
318.672	5.06
319.041	5.16
319.41	4.95
319.778	5.1
320.147	5.21
320.515	5.16
320.883	5.23
321.252	5.29
321.62	5.43
321.988	5.51
322.357	5.59
322.725	5.6
323.093	5.73
323.461	5.75
323.829	5.91
324.197	5.83
324.565	5.92
324.933	6.02
325.301	5.94
325.669	5.9
326.037	5.9
326.405	5.97
326.772	6.02
327.14	6.32
327.508	6.3
327.875	6.31
328.243	6.44
328.61	6.43
328.978	6.56
329.346	6.69
329.713	6.73
330.08	6.93
330.448	6.8
330.815	6.66
331.182	6.69
331.55	6.71
331.917	6.86
332.284	6.83
332.651	6.81
333.018	6.96
333.385	7.13
333.752	7.2
334.119	7.18
334.486	7.21
334.853	7.14
335.22	7.07
335.587	7.15
335.954	7.17
336.32	7.19
336.687	7.22
337.054	7.21
337.42	7.21
337.787	7.24
338.153	7.36
338.52	7.5
338.886	7.45
339.253	7.52
339.619	7.51
339.986	7.53
340.352	7.66
340.718	7.56
341.084	7.45
341.451	7.52
341.817	7.64
342.183	7.56
342.549	7.55
342.915	7.73
343.281	7.77
343.647	7.85
344.013	7.92
344.379	7.83
344.745	7.96
345.11	7.96
345.476	7.86
345.842	8
346.208	8.08
346.573	8.29
346.939	8.39
347.304	8.45
347.67	8.43
348.035	8.42
348.401	8.55
348.766	8.64
349.132	8.65
349.497	8.63
349.862	8.77
350.228	8.82
350.593	8.73
350.958	8.75
351.323	8.66
351.688	8.63
352.053	8.72
352.418	8.65
352.783	8.65
353.148	8.68
353.513	8.56
353.878	8.49
354.243	8.39
354.608	8.26
354.972	8.22
355.337	8.26
355.702	8.21
356.066	8.21
356.431	8.21
356.795	8.13
357.16	8.05
357.524	7.95
357.889	7.93
358.253	7.92
358.618	7.89
358.982	7.85
359.346	7.8
359.71	7.7
360.075	7.65
360.439	7.64
360.803	7.63
361.167	7.63
361.531	7.61
361.895	7.54
362.259	7.56
362.623	7.58
362.987	7.54
363.351	7.55
363.714	7.47
364.078	7.45
364.442	7.41
364.806	7.36
365.169	7.35
365.533	7.31
365.896	7.31
366.26	7.29
366.623	7.27
366.987	7.21
367.35	7.22
367.714	7.24
368.077	7.24
368.44	7.16
368.803	7.11
369.167	7.03
369.53	7.02
369.893	6.97
370.256	6.88
370.619	6.87
370.982	6.78
371.345	6.75
371.708	6.67
372.071	6.61
372.434	6.64
372.797	6.59
373.159	6.52
373.522	6.45
373.885	6.33
374.247	6.33
374.61	6.29
374.973	6.23
375.335	6.13
375.698	6.07
376.06	6.02
376.423	5.96
376.785	5.93
377.147	5.95
377.51	5.85
377.872	5.79
378.234	5.71
378.596	5.71
378.958	5.69
379.321	5.67
379.683	5.67
380.045	5.57
380.407	5.52
380.769	5.47
381.13	5.43
381.492	5.44
381.854	5.4
382.216	5.33
382.578	5.28
382.939	5.23
383.301	5.17
383.663	5.13
384.024	5.11
384.386	5.1
384.747	5.02
385.109	4.96
385.47	4.92
385.832	4.94
386.193	4.87
386.554	4.83
386.916	4.75
387.277	4.73
387.638	4.75
387.999	4.76
388.36	4.72
388.721	4.7
389.082	4.62
389.443	4.55
389.804	4.58
390.165	4.54
390.526	4.5
390.887	4.52
391.248	4.5
391.609	4.45
391.969	4.4
392.33	4.39
392.691	4.35
393.051	4.31
393.412	4.23
393.772	4.17
394.133	4.13
394.493	4.14
394.854	4.09
395.214	4.04
395.574	3.98
395.935	3.94
396.295	3.88
396.655	3.84
397.015	3.8
397.376	3.78
397.736	3.75
398.096	3.72
398.456	3.65
398.816	3.61
399.176	3.54
399.535	3.49
399.895	3.42
400.255	3.42
400.615	3.41
400.975	3.41
401.334	3.39
401.694	3.37
402.054	3.27
402.413	3.25
402.773	3.19
403.132	3.17
403.492	3.17
403.851	3.17
404.211	3.2
404.57	3.18
404.929	3.13
405.288	3.12
405.648	3.06
406.007	3.05
406.366	3.03
406.725	3.04
407.084	3.06
407.443	3.03
407.802	3.05
408.161	3.01
408.52	2.94
408.879	2.94
409.238	2.92
409.596	2.96
409.955	2.94
410.314	2.98
410.673	2.94
411.031	2.93
411.39	2.89
411.748	2.86
412.107	2.84
412.465	2.82
412.824	2.81
413.182	2.81
413.54	2.78
413.899	2.8
414.257	2.82
414.615	2.8
414.974	2.82
415.332	2.79
415.69	2.78
416.048	2.76
416.406	2.72
416.764	2.69
417.122	2.69
417.48	2.66
417.838	2.63
418.195	2.63
418.553	2.61
418.911	2.59
419.269	2.57
419.626	2.56
419.984	2.55
420.342	2.53
420.699	2.51
421.057	2.5
421.414	2.47
421.772	2.44
422.129	2.43
422.486	2.39
422.844	2.38
423.201	2.36
423.558	2.35
423.915	2.36
424.273	2.35
424.63	2.32
424.987	2.3
425.344	2.31
425.701	2.29
426.058	2.28
426.415	2.27
426.772	2.26
427.128	2.26
427.485	2.25
427.842	2.25
428.199	2.28
428.555	2.27
428.912	2.26
429.269	2.26
429.625	2.24
429.982	2.25
430.338	2.23
430.695	2.25
431.051	2.24
431.407	2.23
431.764	2.22
432.12	2.23
432.476	2.23
432.832	2.2
433.189	2.2
433.545	2.2
433.901	2.2
434.257	2.2
434.613	2.2
434.969	2.18
435.325	2.17
435.681	2.16
436.036	2.16
436.392	2.16
436.748	2.15
437.104	2.14
437.459	2.15
437.815	2.17
438.171	2.16
438.526	2.18
438.882	2.18
439.237	2.17
439.593	2.18
439.948	2.2
440.304	2.2
440.659	2.19
441.014	2.2
441.369	2.19
441.725	2.19
442.08	2.17
442.435	2.17
442.79	2.18
443.145	2.17
443.5	2.17
443.855	2.16
444.21	2.15
444.565	2.16
444.92	2.13
445.275	2.12
445.629	2.11
445.984	2.11
446.339	2.09
446.693	2.09
447.048	2.07
447.403	2.06
447.757	2.07
448.112	2.06
448.466	2.04
448.82	2.04
449.175	2.02
449.529	2.02
449.883	2.01
450.238	2
450.592	2
450.946	1.98
451.3	1.98
451.654	1.98
452.008	1.96
452.362	1.96
452.716	1.94
453.07	1.96
453.424	1.94
453.778	1.94
454.132	1.94
454.486	1.92
454.839	1.9
455.193	1.87
455.547	1.87
455.9	1.91
456.254	1.92
456.607	1.93
456.961	1.93
457.314	1.93
457.668	1.93
458.021	1.89
458.375	1.89
458.728	1.9
459.081	1.9
459.434	1.91
459.787	1.92
460.141	1.92
460.494	1.91
460.847	1.93
461.2	1.94
461.553	1.94
461.906	1.97
462.259	1.98
462.611	2.01
462.964	2.02
463.317	2
463.67	2.01
464.022	2.01
464.375	2.01
464.728	2.03
465.08	2.05
465.433	2.09
465.785	2.1
466.138	2.1
466.49	2.11
466.843	2.1
467.195	2.09
467.547	2.1
467.899	2.12
468.252	2.11
468.604	2.11
468.956	2.11
469.308	2.11
469.66	2.1
470.012	2.09
470.364	2.1
470.716	2.11
471.068	2.1
471.42	2.09
471.772	2.1
472.123	2.09
472.475	2.08
472.827	2.09
473.178	2.09
473.53	2.1
473.882	2.11
474.233	2.14
474.585	2.13
474.936	2.12
475.288	2.1
475.639	2.11
475.99	2.12
476.342	2.13
476.693	2.14
477.044	2.16
477.395	2.16
477.746	2.14
478.097	2.12
478.448	2.12
478.8	2.12
479.15	2.13
479.501	2.12
479.852	2.13
480.203	2.11
480.554	2.1
480.905	2.11
481.255	2.1
481.606	2.1
481.957	2.1
482.307	2.11
482.658	2.1
483.009	2.1
483.359	2.09
483.709	2.09
484.06	2.09
484.41	2.09
484.761	2.09
485.111	2.1
485.461	2.11
485.811	2.11
486.162	2.11
486.512	2.11
486.862	2.12
487.212	2.12
487.562	2.13
487.912	2.14
488.262	2.13
488.612	2.13
488.961	2.14
489.311	2.14
489.661	2.14
490.011	2.15
490.36	2.14
490.71	2.15
491.06	2.15
491.409	2.15
491.759	2.15
492.108	2.15
492.458	2.15
492.807	2.15
493.157	2.16
493.506	2.18
493.855	2.18
494.204	2.19
494.554	2.18
494.903	2.18
495.252	2.19
495.601	2.23
495.95	2.24
496.299	2.25
496.648	2.29
496.997	2.29
497.346	2.33
497.695	2.37
498.043	2.39
498.392	2.42
498.741	2.44
499.09	2.46
499.438	2.49
499.787	2.52
500.135	2.56
500.484	2.57
500.832	2.59
501.181	2.62
501.529	2.64
501.878	2.69
502.226	2.74
502.574	2.77
502.923	2.79
503.271	2.82
503.619	2.85
503.967	2.9
504.315	2.94
504.663	2.96
505.011	3
505.359	3.05
505.707	3.09
506.055	3.12
506.403	3.18
506.751	3.22
507.098	3.25
507.446	3.29
507.794	3.35
508.141	3.39
508.489	3.43
508.837	3.49
509.184	3.56
509.531	3.61
509.879	3.67
510.226	3.74
510.574	3.78
510.921	3.83
511.268	3.86
511.616	3.9
511.963	3.94
512.31	3.98
512.657	4.04
513.004	4.09
513.351	4.17
513.698	4.22
514.045	4.29
514.392	4.34
514.739	4.41
515.086	4.47
515.432	4.54
515.779	4.6
516.126	4.65
516.473	4.71
516.819	4.76
517.166	4.81
517.512	4.85
517.859	4.93
518.205	4.98
518.552	5.04
518.898	5.1
519.245	5.16
519.591	5.21
519.937	5.25
520.283	5.33
520.629	5.41
520.976	5.48
521.322	5.56
521.668	5.63
522.014	5.72
522.36	5.79
522.706	5.89
523.052	6
523.398	6.13
523.743	6.25
524.089	6.37
524.435	6.48
524.781	6.6
525.126	6.71
525.472	6.81
525.817	6.91
526.163	6.99
526.509	7.08
526.854	7.18
527.199	7.26
527.545	7.34
527.89	7.42
528.235	7.53
528.581	7.6
528.926	7.71
529.271	7.8
529.616	7.89
529.961	7.98
530.306	8.08
530.651	8.19
530.996	8.3
531.341	8.43
531.686	8.55
532.031	8.69
532.376	8.83
532.721	8.99
533.065	9.14
533.41	9.31
533.755	9.47
534.099	9.65
534.444	9.83
534.788	10
535.133	10.18
535.477	10.33
535.822	10.51
536.166	10.7
536.51	10.92
536.855	11.14
537.199	11.4
537.543	11.68
537.887	11.91
538.231	12.14
538.576	12.4
538.92	12.65
539.264	12.88
539.608	13.12
539.951	13.33
540.295	13.55
540.639	13.76
540.983	13.98
541.327	14.18
541.671	14.39
542.014	14.59
542.358	14.79
542.701	15.01
543.045	15.24
543.389	15.48
543.732	15.71
544.075	15.95
544.419	16.15
544.762	16.36
545.105	16.6
545.449	16.89
545.792	17.17
546.135	17.48
546.478	17.78
546.821	18.09
547.165	18.39
547.508	18.73
547.851	19.07
548.194	19.36
548.536	19.66
548.879	19.99
549.222	20.35
549.565	20.69
549.908	21.03
550.25	21.33
550.593	21.65
550.936	21.98
551.278	22.3
551.621	22.66
551.963	23
552.306	23.35
552.648	23.65
552.991	23.96
553.333	24.18
553.675	24.5
554.017	24.77
554.36	25.1
554.702	25.36
555.044	25.62
555.386	25.96
555.728	26.3
556.07	26.56
556.412	26.81
556.754	27.1
557.096	27.42
557.438	27.71
557.78	28.03
558.121	28.29
558.463	28.65
558.805	28.91
559.147	29.2
559.488	29.49
559.83	29.82
560.171	30.14
560.513	30.41
560.854	30.62
561.196	30.84
561.537	31.09
561.878	31.33
562.22	31.52
562.561	31.73
562.902	31.96
563.243	32.19
563.584	32.38
563.925	32.59
564.266	32.7
564.607	32.9
564.948	33.03
565.289	33.25
565.63	33.39
565.971	33.57
566.312	33.75
566.653	33.88
566.993	33.97
567.334	34.11
567.675	34.28
568.015	34.44
568.356	34.64
568.696	34.82
569.037	34.98
569.377	35.19
569.718	35.35
570.058	35.49
570.398	35.6
570.739	35.79
571.079	35.93
571.419	36.12
571.759	36.3
572.099	36.41
572.439	36.56
572.779	36.66
573.119	36.83
573.459	36.96
573.799	37.1
574.139	37.29
574.479	37.37
574.819	37.53
575.158	37.67
575.498	37.8
575.838	37.9
576.177	38.05
576.517	38.14
576.856	38.28
577.196	38.39
577.535	38.58
577.875	38.72
578.214	38.87
578.553	39.01
578.893	39.08
579.232	39.24
579.571	39.36
579.91	39.57
580.25	39.64
580.589	39.7
580.928	39.84
581.267	39.91
581.606	40.05
581.945	40.11
582.283	40.24
582.622	40.39
582.961	40.53
583.3	40.62
583.639	40.78
583.977	40.83
584.316	40.97
584.654	41.01
584.993	41.1
585.332	41.15
585.67	41.24
586.008	41.36
586.347	41.43
586.685	41.52
587.024	41.52
587.362	41.65
587.7	41.76
588.038	41.93
588.376	42.03
588.715	42.14
589.053	42.22
589.391	42.29
589.729	42.25
590.067	42.24
590.404	42.27
590.742	42.24
591.08	42.3
591.418	42.38
591.756	42.45
592.093	42.49
592.431	42.55
592.769	42.58
593.106	42.62
593.444	42.65
593.781	42.65
594.119	42.76
594.456	42.77
594.793	42.82
595.131	42.74
595.468	42.75
595.805	42.72
596.143	42.78
596.48	42.82
596.817	42.85
597.154	42.96
597.491	43.02
597.828	43.16
598.165	43.22
598.502	43.16
598.839	43.22
599.176	43.33
599.512	43.4
599.849	43.42
600.186	43.49
600.523	43.61
600.859	43.67
601.196	43.67
601.532	43.61
601.869	43.64
602.205	43.68
602.542	43.72
602.878	43.77
603.215	43.78
603.551	43.75
603.887	43.85
604.223	43.85
604.56	43.82
604.896	43.77
605.232	43.82
605.568	43.92
605.904	43.93
606.24	43.95
606.576	43.93
606.912	43.95
607.248	43.9
607.583	43.9
607.919	43.94
608.255	43.97
608.591	44.15
608.926	44.22
609.262	44.25
609.597	44.31
609.933	44.34
610.268	44.41
610.604	44.5
610.939	44.52
611.275	44.56
611.61	44.69
611.945	44.75
612.281	44.75
612.616	44.77
612.951	44.82
613.286	44.81
613.621	44.87
613.956	44.94
614.291	45.11
614.626	45.19
614.961	45.22
615.296	45.22
615.631	45.22
615.966	45.24
616.3	45.31
616.635	45.27
616.97	45.28
617.304	45.25
617.639	45.29
617.973	45.3
618.308	45.31
618.642	45.31
618.977	45.3
619.311	45.35
619.646	45.34
619.98	45.38
620.314	45.39
620.648	45.45
620.983	45.5
621.317	45.47
621.651	45.51
621.985	45.56
622.319	45.64
622.653	45.66
622.987	45.63
623.321	45.6
623.655	45.69
623.988	45.7
624.322	45.73
624.656	45.71
624.99	45.72
625.323	45.69
625.657	45.66
625.99	45.64
626.324	45.68
626.657	45.67
626.991	45.7
627.324	45.73
627.658	45.75
627.991	45.78
628.324	45.79
628.657	45.76
628.991	45.75
629.324	45.77
629.657	45.76
629.99	45.83
630.323	45.84
630.656	45.8
630.989	45.92
631.322	45.98
631.655	45.95
631.987	45.85
632.32	45.88
632.653	46.03
632.986	46.11
633.318	46.09
633.651	46.16
633.984	46.12
634.316	46.16
634.649	46.23
634.981	46.23
635.313	46.3
635.646	46.3
635.978	46.3
636.31	46.35
636.643	46.34
636.975	46.35
637.307	46.49
637.639	46.63
637.971	46.59
638.303	46.68
638.635	46.7
638.967	46.83
639.299	46.95
639.631	46.85
639.963	46.85
640.295	46.96
640.626	46.91
640.958	46.91
641.29	46.91
641.621	46.91
641.953	46.89
642.285	46.88
642.616	46.87
642.948	46.91
643.279	46.87
643.61	46.93
643.942	46.89
644.273	46.78
644.604	46.73
644.936	46.67
645.267	46.6
645.598	46.72
645.929	46.85
646.26	46.9
646.591	46.87
646.922	46.85
647.253	46.78
647.584	46.93
647.915	46.99
648.245	47.08
648.576	47
648.907	47.06
649.238	47.01
649.568	47.04
649.899	47.02
650.229	47.1
650.56	47.07
650.89	47.14
651.221	47.17
651.551	47.14
651.882	47.23
652.212	47.28
652.542	47.21
652.872	47.09
653.203	46.98
653.533	47.03
653.863	47.14
654.193	47.15
654.523	47.17
654.853	47.15
655.183	47.01
655.513	46.94
655.843	46.83
656.172	46.9
656.502	46.87
656.832	46.95
657.162	46.91
657.491	46.93
657.821	46.89
658.15	46.93
658.48	46.96
658.809	47
659.139	46.93
659.468	46.95
659.798	47.04
660.127	47.08
660.456	47.14
660.785	47.13
661.115	47.22
661.444	47.18
661.773	47.15
662.102	47.24
662.431	47.47
662.76	47.57
663.089	47.56
663.418	47.57
663.747	47.51
664.076	47.52
664.404	47.52
664.733	47.58
665.062	47.53
665.39	47.48
665.719	47.43
666.048	47.43
666.376	47.42
666.705	47.28
667.033	47.17
667.362	47.08
667.69	47.05
668.018	46.96
668.347	46.91
668.675	47.02
669.003	46.95
