Data from BA57710_Reflection_00002.txt Node
Date: Mon Nov 18 15:31:39 EST 2019
User: vgr7
Spectrometer: USB2G7710
Scans to average: 3
Trigger mode: 4
Integration Time (sec): 2.000000E-2
Electric dark correction enabled: true
Boxcar width: 10
XAxis mode: Wavelengths
Number of Pixels in Spectrum: 2048
>>>>>Begin Spectral Data<<<<<
177.721	67.27
178.105	87.43
178.488	68.96
178.871	90.02
179.254	56.52
179.636	87.11
180.019	-152.75
180.402	80.56
180.785	80.07
181.168	113.59
181.55	138.88
181.933	106.39
182.316	183.64
182.698	288.09
183.081	404.67
183.463	-767.7
183.846	-702.05
184.228	-157.96
184.611	-244.36
184.993	-53.72
185.376	-43.48
185.758	-18.52
186.14	-7.17
186.522	-21.07
186.904	-83.1
187.287	-217.6
187.669	-58.75
188.051	-143.97
188.433	-195.56
188.815	-53.41
189.197	-8.28
189.579	11.15
189.961	-0.84
190.342	12.7
190.724	9.76
191.106	6.58
191.488	-4.2
191.869	-11.24
192.251	-37.5
192.633	-25.69
193.014	-41.6
193.396	-49.12
193.777	-46.98
194.159	-38.41
194.54	-33.54
194.922	2.18
195.303	1.43
195.684	-19.91
196.065	-17.08
196.447	-12.16
196.828	-30.55
197.209	-41.88
197.59	-29.1
197.971	-13.01
198.352	-0.63
198.733	8.37
199.114	17.64
199.495	38.02
199.876	66.65
200.257	61.51
200.638	68.53
201.018	72.38
201.399	64.7
201.78	73.23
202.16	64.79
202.541	49.28
202.922	34.75
203.302	22.57
203.683	22.95
204.063	29.64
204.444	28.71
204.824	30.72
205.204	39.25
205.585	27.32
205.965	32.26
206.345	25.94
206.725	-0.84
207.106	-2.69
207.486	-19.69
207.866	-22.71
208.246	-35.33
208.626	-55.02
209.006	-34.72
209.386	-82.65
209.766	-84.48
210.145	-63.37
210.525	-56.81
210.905	-36.67
211.285	-21.58
211.664	-2.89
212.044	-21.5
212.424	-14.6
212.803	-14.62
213.183	-27.73
213.562	-33.87
213.942	-23.61
214.321	-29.13
214.701	-13.92
215.08	-38.41
215.459	-24.53
215.838	-34.5
216.218	-41.83
216.597	-16.09
216.976	-28.5
217.355	-19.26
217.734	-35.3
218.113	-38.47
218.492	-34.27
218.871	-49.99
219.25	-44.14
219.629	-36.16
220.008	-31.46
220.387	-30.59
220.766	-32.4
221.144	-47.92
221.523	-55.51
221.902	-48.46
222.28	-47.31
222.659	-34.94
223.037	-14.68
223.416	-25.95
223.794	-16.54
224.173	-10.22
224.551	-10.64
224.929	-15.79
225.308	-7.63
225.686	0.67
226.064	5.56
226.442	2.98
226.821	10.04
227.199	7.27
227.577	3.27
227.955	3.18
228.333	2.4
228.711	7.44
229.089	12.21
229.467	11.07
229.845	6.66
230.222	8.77
230.6	5.31
230.978	4.23
231.356	5.57
231.733	6.3
232.111	9.35
232.488	9.02
232.866	11.68
233.243	10.64
233.621	11.89
233.998	13.65
234.376	14.62
234.753	13.92
235.13	12.46
235.508	11.56
235.885	13.04
236.262	11.89
236.639	9.66
237.016	6.96
237.393	8.54
237.77	9.33
238.147	8.96
238.524	9.01
238.901	9.07
239.278	9.26
239.655	10.06
240.032	9.2
240.409	8.44
240.785	8.4
241.162	7.58
241.539	7.42
241.915	6.53
242.292	6.02
242.668	5.76
243.045	6.24
243.421	6.3
243.798	5.8
244.174	5.82
244.551	5.78
244.927	5.93
245.303	6.01
245.679	6.11
246.056	5.99
246.432	5.73
246.808	5.85
247.184	5.55
247.56	5.05
247.936	5.02
248.312	4.99
248.688	4.95
249.064	5.14
249.44	4.78
249.815	5.17
250.191	5.51
250.567	5.51
250.943	5.16
251.318	5.32
251.694	5.39
252.069	5.51
252.445	5.88
252.82	5.8
253.196	5.47
253.571	5.72
253.947	5.28
254.322	5.58
254.697	5.34
255.073	5.09
255.448	5.03
255.823	5.05
256.198	5.23
256.573	5.08
256.948	5.05
257.323	5.22
257.698	4.85
258.073	4.62
258.448	4.68
258.823	4.91
259.198	4.69
259.573	4.6
259.948	4.5
260.322	4.41
260.697	4.37
261.072	4.33
261.446	4.08
261.821	4.09
262.195	4.07
262.57	4.18
262.944	4.31
263.319	4.33
263.693	4.33
264.067	4.26
264.442	4.25
264.816	4.29
265.19	4.07
265.564	4.08
265.938	4.09
266.313	4.02
266.687	4.02
267.061	4.29
267.435	4.32
267.809	4.48
268.183	4.34
268.556	4.4
268.93	4.43
269.304	4.46
269.678	4.7
270.051	4.64
270.425	4.42
270.799	4.51
271.172	4.47
271.546	4.41
271.919	4.4
272.293	4.46
272.666	4.37
273.04	4.7
273.413	4.71
273.787	4.6
274.16	4.63
274.533	4.37
274.906	4.15
275.279	4.28
275.653	4.24
276.026	4.36
276.399	4.26
276.772	4.31
277.145	4.34
277.518	4.31
277.891	4.42
278.263	4.44
278.636	4.33
279.009	4.49
279.382	4.66
279.755	4.72
280.127	4.69
280.5	4.89
280.872	4.81
281.245	4.7
281.617	4.97
281.99	4.98
282.362	5.22
282.735	5.23
283.107	5.05
283.479	5.08
283.852	5.05
284.224	5.14
284.596	5.23
284.968	5.2
285.34	5.25
285.713	5.22
286.085	5.27
286.457	5.38
286.829	5.43
287.201	5.33
287.572	5.27
287.944	5.15
288.316	5.09
288.688	5.11
289.06	5.19
289.431	5.06
289.803	5.05
290.175	5.13
290.546	5.28
290.918	5.34
291.289	5.35
291.661	5.48
292.032	5.63
292.403	5.54
292.775	5.61
293.146	5.58
293.517	5.69
293.889	5.93
294.26	6.03
294.631	6.04
295.002	6.05
295.373	6
295.744	6.26
296.115	6.21
296.486	6.16
296.857	6.29
297.228	6.38
297.599	6.4
297.97	6.31
298.34	6.35
298.711	6.43
299.082	6.59
299.452	6.54
299.823	6.52
300.194	6.61
300.564	6.6
300.935	6.72
301.305	6.7
301.676	6.69
302.046	6.77
302.416	6.88
302.787	6.89
303.157	7.01
303.527	6.88
303.897	7.04
304.267	7.16
304.637	7.13
305.008	7.22
305.378	7.34
305.748	7.38
306.117	7.39
306.487	7.47
306.857	7.29
307.227	7.3
307.597	7.4
307.967	7.37
308.336	7.46
308.706	7.33
309.076	7.39
309.445	7.31
309.815	7.29
310.184	7.25
310.554	7.29
310.923	7.27
311.293	7.31
311.662	7.22
312.031	7.14
312.401	7.08
312.77	7.06
313.139	7.07
313.508	7.07
313.877	6.89
314.246	6.94
314.616	6.91
314.985	6.83
315.353	6.73
315.722	6.84
316.091	6.7
316.46	6.66
316.829	6.7
317.198	6.73
317.567	6.65
317.935	6.57
318.304	6.59
318.672	6.78
319.041	6.9
319.41	6.85
319.778	6.78
320.147	6.81
320.515	6.7
320.883	6.53
321.252	6.7
321.62	6.9
321.988	6.78
322.357	6.78
322.725	6.97
323.093	6.98
323.461	6.92
323.829	7.04
324.197	7.09
324.565	7.04
324.933	7.05
325.301	7.08
325.669	7.13
326.037	7.05
326.405	6.97
326.772	6.89
327.14	7.01
327.508	7.19
327.875	7.18
328.243	7.26
328.61	7.24
328.978	7.24
329.346	7.25
329.713	7.2
330.08	7.36
330.448	7.26
330.815	7.23
331.182	7.2
331.55	7.19
331.917	7.2
332.284	7.3
332.651	7.18
333.018	7.14
333.385	7.11
333.752	7.21
334.119	7.35
334.486	7.27
334.853	7.29
335.22	7.16
335.587	7.25
335.954	7.23
336.32	7.35
336.687	7.23
337.054	7.23
337.42	7.3
337.787	7.2
338.153	7.27
338.52	7.37
338.886	7.32
339.253	7.32
339.619	7.43
339.986	7.36
340.352	7.27
340.718	7.24
341.084	7.21
341.451	7.08
341.817	7.07
342.183	7.11
342.549	7.02
342.915	7.16
343.281	7.13
343.647	7.12
344.013	7.12
344.379	7.1
344.745	7.04
345.11	6.98
345.476	6.96
345.842	6.89
346.208	6.86
346.573	6.92
346.939	6.99
347.304	6.88
347.67	6.86
348.035	6.97
348.401	7
348.766	7.03
349.132	7.14
349.497	7.02
349.862	7.08
350.228	7.12
350.593	7.05
350.958	7.05
351.323	7.03
351.688	7.02
352.053	7.07
352.418	7.07
352.783	7.16
353.148	7.21
353.513	7.25
353.878	7.25
354.243	7.32
354.608	7.29
354.972	7.33
355.337	7.4
355.702	7.41
356.066	7.49
356.431	7.42
356.795	7.41
357.16	7.48
357.524	7.43
357.889	7.38
358.253	7.4
358.618	7.4
358.982	7.41
359.346	7.35
359.71	7.25
360.075	7.3
360.439	7.24
360.803	7.25
361.167	7.23
361.531	7.15
361.895	7.06
362.259	7.05
362.623	7.06
362.987	6.98
363.351	6.97
363.714	6.96
364.078	6.93
364.442	6.88
364.806	6.78
365.169	6.7
365.533	6.8
365.896	6.74
366.26	6.73
366.623	6.73
366.987	6.76
367.35	6.86
367.714	6.92
368.077	6.92
368.44	6.88
368.803	6.85
369.167	6.84
369.53	6.79
369.893	6.83
370.256	6.81
370.619	6.79
370.982	6.81
371.345	6.73
371.708	6.77
372.071	6.89
372.434	6.98
372.797	7.08
373.159	6.98
373.522	7.03
373.885	7.02
374.247	7.04
374.61	7.09
374.973	6.99
375.335	6.91
375.698	6.94
376.06	6.91
376.423	6.94
376.785	7.02
377.147	7.07
377.51	7.06
377.872	7.1
378.234	7.06
378.596	7.1
378.958	7.11
379.321	7.1
379.683	7.08
380.045	7.01
380.407	6.99
380.769	7.01
381.13	7.01
381.492	7.07
381.854	7.11
382.216	7.07
382.578	7.11
382.939	7.06
383.301	7.03
383.663	7.1
384.024	7.05
384.386	7.03
384.747	7.05
385.109	7.06
385.47	6.97
385.832	7.04
386.193	7.02
386.554	7.03
386.916	7.02
387.277	7
387.638	7.04
387.999	7.07
388.36	7.08
388.721	7.07
389.082	7.03
389.443	6.98
389.804	6.95
390.165	6.99
390.526	7.07
390.887	7.08
391.248	7.05
391.609	7.06
391.969	7.09
392.33	7.09
392.691	7.06
393.051	7.13
393.412	7.16
393.772	7.11
394.133	7.14
394.493	7.16
394.854	7.14
395.214	7.1
395.574	7.09
395.935	7.09
396.295	7.09
396.655	7.1
397.015	7.09
397.376	7.14
397.736	7.12
398.096	7.07
398.456	7.11
398.816	7.13
399.176	7.12
399.535	7.08
399.895	7.09
400.255	7.12
400.615	7.12
400.975	7.07
401.334	7.1
401.694	7.06
402.054	7.04
402.413	7.01
402.773	7
403.132	6.99
403.492	6.98
403.851	6.99
404.211	6.97
404.57	6.96
404.929	6.98
405.288	6.97
405.648	6.95
406.007	6.92
406.366	6.9
406.725	6.91
407.084	6.92
407.443	6.92
407.802	6.9
408.161	6.9
408.52	6.89
408.879	6.88
409.238	6.9
409.596	6.91
409.955	6.94
410.314	7
410.673	7
411.031	7
411.39	6.99
411.748	6.99
412.107	7.01
412.465	6.98
412.824	6.99
413.182	7
413.54	7.02
413.899	7.03
414.257	7.03
414.615	7.01
414.974	6.99
415.332	7.01
415.69	7.01
416.048	7.01
416.406	7.02
416.764	6.97
417.122	6.99
417.48	6.98
417.838	6.98
418.195	6.97
418.553	6.98
418.911	6.97
419.269	6.97
419.626	6.96
419.984	6.96
420.342	6.95
420.699	6.96
421.057	6.95
421.414	6.94
421.772	6.94
422.129	6.94
422.486	6.95
422.844	6.93
423.201	6.9
423.558	6.91
423.915	6.9
424.273	6.92
424.63	6.91
424.987	6.9
425.344	6.89
425.701	6.88
426.058	6.86
426.415	6.87
426.772	6.87
427.128	6.87
427.485	6.86
427.842	6.85
428.199	6.83
428.555	6.82
428.912	6.83
429.269	6.83
429.625	6.84
429.982	6.84
430.338	6.86
430.695	6.87
431.051	6.83
431.407	6.83
431.764	6.85
432.12	6.83
432.476	6.81
432.832	6.79
433.189	6.8
433.545	6.81
433.901	6.79
434.257	6.77
434.613	6.78
434.969	6.81
435.325	6.81
435.681	6.81
436.036	6.81
436.392	6.81
436.748	6.78
437.104	6.8
437.459	6.79
437.815	6.77
438.171	6.77
438.526	6.81
438.882	6.81
439.237	6.81
439.593	6.83
439.948	6.85
440.304	6.88
440.659	6.88
441.014	6.88
441.369	6.87
441.725	6.88
442.08	6.88
442.435	6.87
442.79	6.89
443.145	6.9
443.5	6.89
443.855	6.88
444.21	6.89
444.565	6.88
444.92	6.88
445.275	6.88
445.629	6.88
445.984	6.88
446.339	6.85
446.693	6.85
447.048	6.82
447.403	6.82
447.757	6.8
448.112	6.79
448.466	6.78
448.82	6.79
449.175	6.78
449.529	6.78
449.883	6.76
450.238	6.75
450.592	6.74
450.946	6.75
451.3	6.74
451.654	6.73
452.008	6.71
452.362	6.7
452.716	6.7
453.07	6.71
453.424	6.7
453.778	6.73
454.132	6.7
454.486	6.7
454.839	6.71
455.193	6.69
455.547	6.7
455.9	6.7
456.254	6.71
456.607	6.72
456.961	6.73
457.314	6.74
457.668	6.74
458.021	6.72
458.375	6.7
458.728	6.7
459.081	6.71
459.434	6.71
459.787	6.7
460.141	6.71
460.494	6.68
460.847	6.69
461.2	6.69
461.553	6.69
461.906	6.7
462.259	6.7
462.611	6.71
462.964	6.73
463.317	6.75
463.67	6.75
464.022	6.74
464.375	6.72
464.728	6.71
465.08	6.73
465.433	6.74
465.785	6.75
466.138	6.75
466.49	6.78
466.843	6.77
467.195	6.8
467.547	6.81
467.899	6.84
468.252	6.84
468.604	6.86
468.956	6.85
469.308	6.85
469.66	6.85
470.012	6.88
470.364	6.86
470.716	6.86
471.068	6.87
471.42	6.87
471.772	6.9
472.123	6.91
472.475	6.92
472.827	6.92
473.178	6.95
473.53	6.95
473.882	6.94
474.233	6.96
474.585	6.96
474.936	6.95
475.288	6.95
475.639	6.96
475.99	6.94
476.342	6.96
476.693	6.98
477.044	6.98
477.395	6.98
477.746	6.96
478.097	6.94
478.448	6.94
478.8	6.93
479.15	6.92
479.501	6.94
479.852	6.95
480.203	6.97
480.554	6.97
480.905	6.98
481.255	6.98
481.606	6.99
481.957	6.99
482.307	6.99
482.658	7
483.009	6.99
483.359	7
483.709	7.01
484.06	7
484.41	7.01
484.761	6.99
485.111	7.01
485.461	7.02
485.811	7.01
486.162	7.02
486.512	7.03
486.862	7.03
487.212	7.02
487.562	7.02
487.912	7.01
488.262	7.02
488.612	7.03
488.961	7.03
489.311	7.02
489.661	7.03
490.011	7.02
490.36	7.03
490.71	7.05
491.06	7.03
491.409	7.04
491.759	7.04
492.108	7.05
492.458	7.04
492.807	7.05
493.157	7.06
493.506	7.07
493.855	7.08
494.204	7.07
494.554	7.09
494.903	7.07
495.252	7.07
495.601	7.07
495.95	7.06
496.299	7.05
496.648	7.05
496.997	7.05
497.346	7.07
497.695	7.06
498.043	7.05
498.392	7.04
498.741	7.05
499.09	7.05
499.438	7.08
499.787	7.08
500.135	7.09
500.484	7.09
500.832	7.08
501.181	7.07
501.529	7.08
501.878	7.09
502.226	7.11
502.574	7.13
502.923	7.12
503.271	7.14
503.619	7.15
503.967	7.18
504.315	7.18
504.663	7.18
505.011	7.18
505.359	7.18
505.707	7.22
506.055	7.22
506.403	7.22
506.751	7.24
507.098	7.24
507.446	7.25
507.794	7.25
508.141	7.28
508.489	7.32
508.837	7.33
509.184	7.31
509.531	7.32
509.879	7.34
510.226	7.37
510.574	7.38
510.921	7.39
511.268	7.39
511.616	7.39
511.963	7.4
512.31	7.42
512.657	7.44
513.004	7.45
513.351	7.46
513.698	7.47
514.045	7.47
514.392	7.47
514.739	7.47
515.086	7.48
515.432	7.45
515.779	7.44
516.126	7.43
516.473	7.44
516.819	7.46
517.166	7.46
517.512	7.46
517.859	7.46
518.205	7.47
518.552	7.48
518.898	7.47
519.245	7.45
519.591	7.46
519.937	7.45
520.283	7.45
520.629	7.46
520.976	7.47
521.322	7.47
521.668	7.47
522.014	7.47
522.36	7.47
522.706	7.49
523.052	7.5
523.398	7.54
523.743	7.55
524.089	7.54
524.435	7.52
524.781	7.54
525.126	7.54
525.472	7.54
525.817	7.54
526.163	7.55
526.509	7.58
526.854	7.58
527.199	7.59
527.545	7.59
527.89	7.6
528.235	7.59
528.581	7.6
528.926	7.6
529.271	7.61
529.616	7.61
529.961	7.61
530.306	7.61
530.651	7.59
530.996	7.6
531.341	7.6
531.686	7.61
532.031	7.61
532.376	7.61
532.721	7.62
533.065	7.62
533.41	7.63
533.755	7.63
534.099	7.63
534.444	7.62
534.788	7.64
535.133	7.63
535.477	7.63
535.822	7.62
536.166	7.62
536.51	7.62
536.855	7.65
537.199	7.66
537.543	7.67
537.887	7.67
538.231	7.67
538.576	7.67
538.92	7.67
539.264	7.67
539.608	7.66
539.951	7.68
540.295	7.67
540.639	7.66
540.983	7.65
541.327	7.65
541.671	7.65
542.014	7.65
542.358	7.66
542.701	7.68
543.045	7.69
543.389	7.71
543.732	7.71
544.075	7.68
544.419	7.67
544.762	7.67
545.105	7.66
545.449	7.66
545.792	7.69
546.135	7.69
546.478	7.69
546.821	7.73
547.165	7.69
547.508	7.72
547.851	7.73
548.194	7.75
548.536	7.78
548.879	7.77
549.222	7.77
549.565	7.75
549.908	7.73
550.25	7.73
550.593	7.73
550.936	7.71
551.278	7.73
551.621	7.74
551.963	7.75
552.306	7.75
552.648	7.76
552.991	7.73
553.333	7.71
553.675	7.7
554.017	7.69
554.36	7.69
554.702	7.68
555.044	7.69
555.386	7.67
555.728	7.64
556.07	7.68
556.412	7.66
556.754	7.69
557.096	7.7
557.438	7.69
557.78	7.71
558.121	7.75
558.463	7.73
558.805	7.72
559.147	7.72
559.488	7.73
559.83	7.73
560.171	7.75
560.513	7.8
560.854	7.82
561.196	7.83
561.537	7.85
561.878	7.84
562.22	7.81
562.561	7.8
562.902	7.8
563.243	7.78
563.584	7.78
563.925	7.75
564.266	7.76
564.607	7.73
564.948	7.71
565.289	7.7
565.63	7.72
565.971	7.72
566.312	7.72
566.653	7.73
566.993	7.73
567.334	7.7
567.675	7.69
568.015	7.68
568.356	7.69
568.696	7.71
569.037	7.72
569.377	7.79
569.718	7.8
570.058	7.81
570.398	7.81
570.739	7.81
571.079	7.86
571.419	7.87
571.759	7.9
572.099	7.89
572.439	7.89
572.779	7.88
573.119	7.9
573.459	7.9
573.799	7.9
574.139	7.91
574.479	7.94
574.819	7.95
575.158	7.95
575.498	7.92
575.838	7.9
576.177	7.87
576.517	7.8
576.856	7.82
577.196	7.8
577.535	7.82
577.875	7.84
578.214	7.79
578.553	7.79
578.893	7.76
579.232	7.75
579.571	7.74
579.91	7.74
580.25	7.71
580.589	7.71
580.928	7.7
581.267	7.68
581.606	7.69
581.945	7.67
582.283	7.62
582.622	7.63
582.961	7.66
583.3	7.7
583.639	7.78
583.977	7.8
584.316	7.8
584.654	7.76
584.993	7.74
585.332	7.81
585.67	7.83
586.008	7.86
586.347	7.9
586.685	7.93
587.024	7.95
587.362	7.97
587.7	7.97
588.038	8
588.376	8.01
588.715	7.99
589.053	8.04
589.391	8.11
589.729	8.13
590.067	8.12
590.404	8.12
590.742	8.08
591.08	8.03
591.418	8.09
591.756	8.11
592.093	8.13
592.431	8.11
592.769	8.11
593.106	8.14
593.444	8.12
593.781	8.1
594.119	8.13
594.456	8.14
594.793	8.18
595.131	8.15
595.468	8.15
595.805	8.16
596.143	8.13
596.48	8.11
596.817	8.11
597.154	8.09
597.491	8.12
597.828	8.13
598.165	8.17
598.502	8.17
598.839	8.18
599.176	8.19
599.512	8.18
599.849	8.13
600.186	8.12
600.523	8.17
600.859	8.22
601.196	8.22
601.532	8.19
601.869	8.16
602.205	8.15
602.542	8.16
602.878	8.17
603.215	8.18
603.551	8.16
603.887	8.17
604.223	8.17
604.56	8.16
604.896	8.17
605.232	8.16
605.568	8.1
605.904	8.1
606.24	8.1
606.576	8.06
606.912	8.07
607.248	8.06
607.583	8.02
607.919	7.97
608.255	7.93
608.591	7.95
608.926	7.97
609.262	8.01
609.597	7.99
609.933	8
610.268	7.99
610.604	8.04
610.939	8.02
611.275	8.08
611.61	8.08
611.945	8.05
612.281	8.05
612.616	8.11
612.951	8.13
613.286	8.13
613.621	8.21
613.956	8.25
614.291	8.3
614.626	8.28
614.961	8.3
615.296	8.33
615.631	8.29
615.966	8.26
616.3	8.24
616.635	8.24
616.97	8.24
617.304	8.25
617.639	8.23
617.973	8.24
618.308	8.2
618.642	8.27
618.977	8.29
619.311	8.3
619.646	8.27
619.98	8.22
620.314	8.2
620.648	8.15
620.983	8.15
621.317	8.1
621.651	8.17
621.985	8.23
622.319	8.28
622.653	8.35
622.987	8.39
623.321	8.39
623.655	8.41
623.988	8.48
624.322	8.49
624.656	8.5
624.99	8.5
625.323	8.52
625.657	8.53
625.99	8.55
626.324	8.53
626.657	8.56
626.991	8.64
627.324	8.66
627.658	8.72
627.991	8.75
628.324	8.79
628.657	8.79
628.991	8.75
629.324	8.7
629.657	8.68
629.99	8.68
630.323	8.76
630.656	8.81
630.989	8.78
631.322	8.8
631.655	8.8
631.987	8.82
632.32	8.78
632.653	8.75
632.986	8.77
633.318	8.8
633.651	8.84
633.984	8.77
634.316	8.73
634.649	8.73
634.981	8.74
635.313	8.7
635.646	8.67
635.978	8.64
636.31	8.66
636.643	8.73
636.975	8.74
637.307	8.67
637.639	8.67
637.971	8.64
638.303	8.6
638.635	8.63
638.967	8.6
639.299	8.63
639.631	8.63
639.963	8.59
640.295	8.63
640.626	8.57
640.958	8.61
641.29	8.67
641.621	8.61
641.953	8.61
642.285	8.7
642.616	8.73
642.948	8.81
643.279	8.79
643.61	8.71
643.942	8.66
644.273	8.7
644.604	8.66
644.936	8.63
645.267	8.65
645.598	8.59
645.929	8.63
646.26	8.62
646.591	8.55
646.922	8.51
647.253	8.43
647.584	8.48
647.915	8.44
648.245	8.42
648.576	8.49
648.907	8.49
649.238	8.44
649.568	8.42
649.899	8.38
650.229	8.4
650.56	8.37
650.89	8.49
651.221	8.46
651.551	8.47
651.882	8.48
652.212	8.53
652.542	8.61
652.872	8.55
653.203	8.59
653.533	8.65
653.863	8.73
654.193	8.8
654.523	8.8
654.853	8.79
655.183	8.79
655.513	8.74
655.843	8.75
656.172	8.81
656.502	8.89
656.832	8.91
657.162	8.95
657.491	9
657.821	8.88
658.15	8.87
658.48	8.88
658.809	8.87
659.139	8.85
659.468	8.81
659.798	8.83
660.127	8.84
660.456	8.82
660.785	8.82
661.115	8.8
661.444	8.8
661.773	8.87
662.102	8.85
662.431	8.85
662.76	8.9
663.089	8.83
663.418	8.76
663.747	8.77
664.076	8.77
664.404	8.75
664.733	8.75
665.062	8.73
665.39	8.76
665.719	8.79
666.048	8.79
666.376	8.78
666.705	8.72
667.033	8.68
667.362	8.74
667.69	8.82
668.018	8.78
668.347	8.75
668.675	8.74
669.003	8.89
669.331	8.99
669.659	8.97
669.987	9
670.315	9.07
670.643	9.04
670.971	9.05
671.299	9.13
671.627	9.11
671.955	9.1
672.283	9.14
672.61	9.19
672.938	9.19
673.266	9.27
673.593	9.4
673.921	9.47
674.249	9.43
674.576	9.29
674.904	9.3
675.231	9.37
675.558	9.36
675.886	9.31
676.213	9.22
676.54	9.21
676.867	9.23
677.195	9.23
677.522	9.23
677.849	9.2
678.176	9.14
678.503	9.24
678.83	9.28
679.157	9.15
