Data from BA57663_Reflection_00012.txt Node
Date: Mon Nov 18 15:44:12 EST 2019
User: vgr7
Spectrometer: USB2G7710
Scans to average: 3
Trigger mode: 4
Integration Time (sec): 2.000000E-2
Electric dark correction enabled: true
Boxcar width: 10
XAxis mode: Wavelengths
Number of Pixels in Spectrum: 2048
>>>>>Begin Spectral Data<<<<<
177.721	304.47
178.105	76.88
178.488	223.4
178.871	182.59
179.254	155.71
179.636	-161.06
180.019	-387.53
180.402	89.29
180.785	-53.02
181.168	-38.8
181.55	-48.09
181.933	35.7
182.316	28.97
182.698	16.64
183.081	20
183.463	-26.87
183.846	-10.02
184.228	-75.28
184.611	-101.75
184.993	-108.71
185.376	-99.63
185.758	-85.17
186.14	-26.18
186.522	-3.99
186.904	-0.95
187.287	-0.42
187.669	-29.47
188.051	-8.55
188.433	-61.58
188.815	-75.21
189.197	-59.58
189.579	-58.7
189.961	-64.21
190.342	-114.96
190.724	-1900
191.106	-595.65
191.488	-98.55
191.869	-881.13
192.251	435.88
192.633	-1569.72
193.014	-414.66
193.396	369.79
193.777	174.66
194.159	244.26
194.54	270.65
194.922	-515.38
195.303	-244.83
195.684	-73900
196.065	-12.03
196.447	-99.24
196.828	-120.6
197.209	-72.1
197.59	-101.82
197.971	-97.67
198.352	-104.76
198.733	-352.3
199.114	-346.04
199.495	-101.51
199.876	6.18
200.257	97.11
200.638	113.42
201.018	-59.69
201.399	-48.38
201.78	-72.94
202.16	-106.58
202.541	-124.74
202.922	-114.34
203.302	-196.89
203.683	-353.61
204.063	-441.97
204.444	-820.98
204.824	-1388.15
205.204	-526.51
205.585	-377.76
205.965	-379.39
206.345	-539.31
206.725	-340.72
207.106	-307.72
207.486	-626.48
207.866	1377.53
208.246	712.33
208.626	325.71
209.006	279.14
209.386	254.15
209.766	108.08
210.145	74.5
210.525	111.45
210.905	72.6
211.285	166.23
211.664	461.99
212.044	203.53
212.424	719.72
212.803	2197.56
213.183	340.21
213.562	46.87
213.942	-1639.13
214.321	60.98
214.701	-30.97
215.08	-313.56
215.459	-223.89
215.838	-30.48
216.218	12.16
216.597	14.46
216.976	24.53
217.355	104.62
217.734	48.2
218.113	48.1
218.492	48.89
218.871	56.6
219.25	85.2
219.629	73.88
220.008	81.73
220.387	49.02
220.766	79.58
221.144	107.01
221.523	-43.04
221.902	-80.04
222.28	-17.1
222.659	89.3
223.037	220.09
223.416	73.23
223.794	-16.79
224.173	-26.61
224.551	-3.46
224.929	-3.85
225.308	4.82
225.686	-0.74
226.064	4.46
226.442	9.51
226.821	11.34
227.199	13.29
227.577	9.07
227.955	7.2
228.333	7.72
228.711	8.41
229.089	11.41
229.467	11.81
229.845	9.27
230.222	10.02
230.6	8.59
230.978	8
231.356	8
231.733	7.98
232.111	9.26
232.488	9.4
232.866	7.74
233.243	5.47
233.621	7.22
233.998	6.66
234.376	4.45
234.753	4.29
235.13	5.03
235.508	5.99
235.885	5.82
236.262	5.1
236.639	4.04
237.016	3.95
237.393	3.8
237.77	5.04
238.147	3.35
238.524	3.52
238.901	3.87
239.278	4.76
239.655	5.26
240.032	5.1
240.409	4.48
240.785	4.34
241.162	4.61
241.539	4.76
241.915	4.62
242.292	4.56
242.668	4.66
243.045	4.25
243.421	4.19
243.798	4.02
244.174	3.91
244.551	3.96
244.927	3.84
245.303	3.98
245.679	3.99
246.056	4.05
246.432	4.22
246.808	4.14
247.184	3.84
247.56	3.67
247.936	3.62
248.312	3.64
248.688	3.87
249.064	3.77
249.44	3.82
249.815	3.71
250.191	4.04
250.567	4.07
250.943	4.21
251.318	4.45
251.694	4.35
252.069	4.43
252.445	4.27
252.82	4.25
253.196	3.97
253.571	4
253.947	4.17
254.322	4.18
254.697	4.11
255.073	4.33
255.448	4.08
255.823	3.98
256.198	4.34
256.573	4.31
256.948	4.67
257.323	4.59
257.698	4.67
258.073	4.49
258.448	4.19
258.823	4.08
259.198	4.03
259.573	4.05
259.948	3.97
260.322	4.12
260.697	4.05
261.072	4.17
261.446	4.05
261.821	4.01
262.195	4.09
262.57	4.17
262.944	4.09
263.319	4.22
263.693	4.16
264.067	4
264.442	4.01
264.816	3.67
265.19	3.55
265.564	3.64
265.938	3.5
266.313	3.5
266.687	3.58
267.061	3.61
267.435	3.75
267.809	3.85
268.183	3.81
268.556	3.94
268.93	3.89
269.304	3.94
269.678	3.98
270.051	3.82
270.425	3.76
270.799	3.77
271.172	3.88
271.546	3.96
271.919	4.05
272.293	4.05
272.666	4.14
273.04	4.17
273.413	3.99
273.787	4
274.16	4.05
274.533	4.03
274.906	3.92
275.279	3.81
275.653	3.85
276.026	3.78
276.399	3.6
276.772	3.69
277.145	3.54
277.518	3.6
277.891	3.66
278.263	3.73
278.636	3.97
279.009	4.03
279.382	4.06
279.755	3.94
280.127	4
280.5	4.1
280.872	4.18
281.245	4.25
281.617	4.29
281.99	4.34
282.362	4.33
282.735	4.14
283.107	4.14
283.479	4.17
283.852	4.21
284.224	4.37
284.596	4.35
284.968	4.42
285.34	4.47
285.713	4.37
286.085	4.39
286.457	4.29
286.829	4.23
287.201	4.24
287.572	4.22
287.944	4.15
288.316	4.1
288.688	4.1
289.06	4.07
289.431	4.16
289.803	4.12
290.175	4.18
290.546	4.45
290.918	4.55
291.289	4.47
291.661	4.58
292.032	4.62
292.403	4.68
292.775	4.84
293.146	4.75
293.517	4.78
293.889	4.76
294.26	4.77
294.631	4.83
295.002	4.77
295.373	4.87
295.744	4.88
296.115	4.81
296.486	4.82
296.857	4.92
297.228	4.87
297.599	4.97
297.97	4.93
298.34	4.94
298.711	5.01
299.082	5.06
299.452	5.06
299.823	5.16
300.194	5.19
300.564	5.1
300.935	5.18
301.305	5.31
301.676	5.4
302.046	5.49
302.416	5.6
302.787	5.66
303.157	5.85
303.527	5.95
303.897	6.15
304.267	6.28
304.637	6.26
305.008	6.47
305.378	6.62
305.748	6.79
306.117	6.79
306.487	6.82
306.857	6.93
307.227	7.03
307.597	7.06
307.967	7.08
308.336	7.17
308.706	7.17
309.076	7.18
309.445	7.19
309.815	7.2
310.184	7.21
310.554	7.4
310.923	7.22
311.293	7.22
311.662	7.19
312.031	7.15
312.401	7.32
312.77	7.41
313.139	7.46
313.508	7.47
313.877	7.57
314.246	7.77
314.616	7.8
314.985	7.84
315.353	7.85
315.722	8.03
316.091	8.15
316.46	8.29
316.829	8.48
317.198	8.55
317.567	8.65
317.935	8.7
318.304	8.74
318.672	8.81
319.041	8.98
319.41	9.05
319.778	9.15
320.147	9.15
320.515	9.03
320.883	8.84
321.252	8.94
321.62	8.94
321.988	8.91
322.357	8.92
322.725	9
323.093	9.08
323.461	9.05
323.829	9.04
324.197	9.17
324.565	9.22
324.933	9.29
325.301	9.32
325.669	9.39
326.037	9.47
326.405	9.58
326.772	9.69
327.14	9.82
327.508	9.83
327.875	9.85
328.243	10
328.61	10.2
328.978	10.27
329.346	10.32
329.713	10.33
330.08	10.48
330.448	10.42
330.815	10.38
331.182	10.44
331.55	10.54
331.917	10.64
332.284	10.58
332.651	10.64
333.018	10.65
333.385	10.76
333.752	10.77
334.119	10.93
334.486	10.85
334.853	10.82
335.22	10.92
335.587	10.94
335.954	11.03
336.32	11.05
336.687	10.98
337.054	11.11
337.42	11.15
337.787	11.17
338.153	11.36
338.52	11.41
338.886	11.32
339.253	11.21
339.619	11.12
339.986	11.22
340.352	11.29
340.718	11.29
341.084	11.29
341.451	11.35
341.817	11.42
342.183	11.53
342.549	11.66
342.915	11.66
343.281	11.71
343.647	11.71
344.013	11.76
344.379	11.82
344.745	11.87
345.11	11.93
345.476	11.98
345.842	11.99
346.208	12.09
346.573	12.26
346.939	12.46
347.304	12.4
347.67	12.37
348.035	12.37
348.401	12.45
348.766	12.5
349.132	12.5
349.497	12.45
349.862	12.46
350.228	12.44
350.593	12.47
350.958	12.55
351.323	12.59
351.688	12.68
352.053	12.75
352.418	12.78
352.783	12.81
353.148	12.77
353.513	12.69
353.878	12.68
354.243	12.68
354.608	12.65
354.972	12.79
355.337	12.81
355.702	12.88
356.066	12.97
356.431	12.95
356.795	12.92
357.16	12.87
357.524	12.79
357.889	12.77
358.253	12.77
358.618	12.73
358.982	12.6
359.346	12.46
359.71	12.44
360.075	12.36
360.439	12.32
360.803	12.32
361.167	12.28
361.531	12.2
361.895	12.11
362.259	12.05
362.623	12.09
362.987	12.03
363.351	11.9
363.714	11.76
364.078	11.66
364.442	11.65
364.806	11.62
365.169	11.61
365.533	11.55
365.896	11.47
366.26	11.39
366.623	11.33
366.987	11.27
367.35	11.24
367.714	11.25
368.077	11.19
368.44	11.14
368.803	11.14
369.167	11.08
369.53	11.01
369.893	10.98
370.256	10.83
370.619	10.81
370.982	10.78
371.345	10.73
371.708	10.75
372.071	10.68
372.434	10.64
372.797	10.59
373.159	10.52
373.522	10.5
373.885	10.48
374.247	10.48
374.61	10.49
374.973	10.38
375.335	10.24
375.698	10.13
376.06	10.08
376.423	9.98
376.785	9.97
377.147	9.94
377.51	9.92
377.872	9.89
378.234	9.81
378.596	9.74
378.958	9.69
379.321	9.6
379.683	9.55
380.045	9.48
380.407	9.42
380.769	9.35
381.13	9.27
381.492	9.21
381.854	9.16
382.216	9.05
382.578	9.06
382.939	8.97
383.301	8.94
383.663	8.9
384.024	8.82
384.386	8.81
384.747	8.82
385.109	8.76
385.47	8.67
385.832	8.62
386.193	8.57
386.554	8.47
386.916	8.39
387.277	8.33
387.638	8.29
387.999	8.22
388.36	8.18
388.721	8.1
389.082	8.02
389.443	7.93
389.804	7.92
390.165	7.8
390.526	7.77
390.887	7.7
391.248	7.62
391.609	7.58
391.969	7.48
392.33	7.39
392.691	7.3
393.051	7.24
393.412	7.2
393.772	7.14
394.133	7.09
394.493	7.07
394.854	7.01
395.214	6.9
395.574	6.86
395.935	6.81
396.295	6.77
396.655	6.73
397.015	6.7
397.376	6.59
397.736	6.57
398.096	6.52
398.456	6.48
398.816	6.41
399.176	6.36
399.535	6.32
399.895	6.25
400.255	6.21
400.615	6.17
400.975	6.1
401.334	6.07
401.694	6.02
402.054	5.95
402.413	5.91
402.773	5.89
403.132	5.84
403.492	5.83
403.851	5.85
404.211	5.83
404.57	5.76
404.929	5.79
405.288	5.72
405.648	5.68
406.007	5.68
406.366	5.68
406.725	5.72
407.084	5.7
407.443	5.72
407.802	5.7
408.161	5.68
408.52	5.68
408.879	5.66
409.238	5.7
409.596	5.7
409.955	5.68
410.314	5.68
410.673	5.66
411.031	5.64
411.39	5.57
411.748	5.55
412.107	5.57
412.465	5.5
412.824	5.48
413.182	5.46
413.54	5.41
413.899	5.39
414.257	5.33
414.615	5.29
414.974	5.27
415.332	5.23
415.69	5.19
416.048	5.15
416.406	5.13
416.764	5.07
417.122	5.03
417.48	4.98
417.838	4.95
418.195	4.93
418.553	4.9
418.911	4.85
419.269	4.81
419.626	4.77
419.984	4.75
420.342	4.73
420.699	4.71
421.057	4.68
421.414	4.65
421.772	4.62
422.129	4.6
422.486	4.54
422.844	4.55
423.201	4.52
423.558	4.5
423.915	4.47
424.273	4.45
424.63	4.43
424.987	4.44
425.344	4.41
425.701	4.39
426.058	4.36
426.415	4.37
426.772	4.37
427.128	4.35
427.485	4.34
427.842	4.34
428.199	4.33
428.555	4.3
428.912	4.3
429.269	4.29
429.625	4.29
429.982	4.29
430.338	4.24
430.695	4.25
431.051	4.24
431.407	4.25
431.764	4.25
432.12	4.22
432.476	4.21
432.832	4.21
433.189	4.21
433.545	4.21
433.901	4.21
434.257	4.19
434.613	4.21
434.969	4.2
435.325	4.19
435.681	4.18
436.036	4.22
436.392	4.22
436.748	4.21
437.104	4.17
437.459	4.18
437.815	4.19
438.171	4.19
438.526	4.18
438.882	4.19
439.237	4.19
439.593	4.2
439.948	4.18
440.304	4.17
440.659	4.17
441.014	4.18
441.369	4.14
441.725	4.15
442.08	4.13
442.435	4.11
442.79	4.1
443.145	4.09
443.5	4.07
443.855	4.05
444.21	4.05
444.565	4.06
444.92	4.05
445.275	4.03
445.629	4
445.984	3.99
446.339	3.97
446.693	3.94
447.048	3.92
447.403	3.92
447.757	3.9
448.112	3.88
448.466	3.86
448.82	3.88
449.175	3.87
449.529	3.87
449.883	3.86
450.238	3.84
450.592	3.83
450.946	3.81
451.3	3.8
451.654	3.79
452.008	3.77
452.362	3.78
452.716	3.78
453.07	3.78
453.424	3.78
453.778	3.78
454.132	3.79
454.486	3.79
454.839	3.79
455.193	3.81
455.547	3.79
455.9	3.79
456.254	3.8
456.607	3.8
456.961	3.79
457.314	3.79
457.668	3.81
458.021	3.8
458.375	3.81
458.728	3.82
459.081	3.81
459.434	3.81
459.787	3.8
460.141	3.81
460.494	3.81
460.847	3.84
461.2	3.82
461.553	3.83
461.906	3.84
462.259	3.88
462.611	3.89
462.964	3.91
463.317	3.91
463.67	3.92
464.022	3.93
464.375	3.93
464.728	3.95
465.08	3.97
465.433	4
465.785	4
466.138	4.01
466.49	4.05
466.843	4.05
467.195	4.06
467.547	4.07
467.899	4.1
468.252	4.11
468.604	4.14
468.956	4.13
469.308	4.13
469.66	4.12
470.012	4.13
470.364	4.16
470.716	4.15
471.068	4.15
471.42	4.15
471.772	4.19
472.123	4.2
472.475	4.19
472.827	4.21
473.178	4.2
473.53	4.22
473.882	4.2
474.233	4.22
474.585	4.21
474.936	4.2
475.288	4.2
475.639	4.18
475.99	4.18
476.342	4.17
476.693	4.17
477.044	4.16
477.395	4.16
477.746	4.13
478.097	4.14
478.448	4.13
478.8	4.11
479.15	4.06
479.501	4.06
479.852	4.05
480.203	4.04
480.554	4.05
480.905	4.04
481.255	4.05
481.606	4.05
481.957	4.06
482.307	4.06
482.658	4.06
483.009	4.07
483.359	4.07
483.709	4.07
484.06	4.08
484.41	4.1
484.761	4.1
485.111	4.1
485.461	4.11
485.811	4.12
486.162	4.14
486.512	4.17
486.862	4.18
487.212	4.19
487.562	4.19
487.912	4.2
488.262	4.21
488.612	4.22
488.961	4.23
489.311	4.25
489.661	4.25
490.011	4.26
490.36	4.27
490.71	4.28
491.06	4.3
491.409	4.31
491.759	4.32
492.108	4.33
492.458	4.37
492.807	4.37
493.157	4.39
493.506	4.41
493.855	4.42
494.204	4.44
494.554	4.47
494.903	4.51
495.252	4.54
495.601	4.58
495.95	4.62
496.299	4.64
496.648	4.66
496.997	4.7
497.346	4.76
497.695	4.83
498.043	4.88
498.392	4.93
498.741	4.98
499.09	5.02
499.438	5.08
499.787	5.09
500.135	5.16
500.484	5.23
500.832	5.25
501.181	5.32
501.529	5.36
501.878	5.42
502.226	5.48
502.574	5.53
502.923	5.58
503.271	5.66
503.619	5.75
503.967	5.83
504.315	5.92
504.663	6
505.011	6.06
505.359	6.11
505.707	6.19
506.055	6.27
506.403	6.35
506.751	6.44
507.098	6.55
507.446	6.62
507.794	6.69
508.141	6.77
508.489	6.83
508.837	6.92
509.184	7
509.531	7.1
509.879	7.2
510.226	7.3
510.574	7.37
510.921	7.46
511.268	7.52
511.616	7.62
511.963	7.72
512.31	7.81
512.657	7.95
513.004	8.08
513.351	8.2
513.698	8.32
514.045	8.41
514.392	8.52
514.739	8.66
515.086	8.8
515.432	8.95
515.779	9.1
516.126	9.26
516.473	9.39
516.819	9.52
517.166	9.64
517.512	9.78
517.859	9.91
518.205	10.02
518.552	10.16
518.898	10.28
519.245	10.39
519.591	10.52
519.937	10.62
520.283	10.73
520.629	10.88
520.976	11.02
521.322	11.2
521.668	11.37
522.014	11.52
522.36	11.69
522.706	11.86
523.052	12.05
523.398	12.25
523.743	12.48
524.089	12.71
524.435	12.91
524.781	13.11
525.126	13.32
525.472	13.52
525.817	13.68
526.163	13.85
526.509	14
526.854	14.15
527.199	14.32
527.545	14.46
527.89	14.59
528.235	14.76
528.581	14.91
528.926	15.07
529.271	15.22
529.616	15.38
529.961	15.54
530.306	15.71
530.651	15.89
530.996	16.09
531.341	16.27
531.686	16.49
532.031	16.7
532.376	16.9
532.721	17.11
533.065	17.34
533.41	17.59
533.755	17.85
534.099	18.1
534.444	18.36
534.788	18.61
535.133	18.86
535.477	19.11
535.822	19.35
536.166	19.62
536.51	19.95
536.855	20.28
537.199	20.65
537.543	20.99
537.887	21.33
538.231	21.65
538.576	21.98
538.92	22.32
539.264	22.63
539.608	22.95
539.951	23.23
540.295	23.5
540.639	23.74
540.983	23.97
541.327	24.19
541.671	24.44
542.014	24.71
542.358	24.94
542.701	25.18
543.045	25.44
543.389	25.7
543.732	25.93
544.075	26.19
544.419	26.37
544.762	26.64
545.105	26.92
545.449	27.21
545.792	27.51
546.135	27.8
546.478	28.14
546.821	28.48
547.165	28.81
547.508	29.18
547.851	29.56
548.194	29.95
548.536	30.36
548.879	30.68
549.222	31.03
549.565	31.41
549.908	31.75
550.25	32.12
550.593	32.48
550.936	32.84
551.278	33.16
551.621	33.56
551.963	33.9
552.306	34.24
552.648	34.59
552.991	34.93
553.333	35.29
553.675	35.58
554.017	35.82
554.36	36.12
554.702	36.4
555.044	36.71
555.386	37
555.728	37.19
556.07	37.48
556.412	37.73
556.754	37.99
557.096	38.23
557.438	38.52
557.78	38.82
558.121	39.09
558.463	39.39
558.805	39.65
559.147	39.94
559.488	40.16
559.83	40.41
560.171	40.7
560.513	40.91
560.854	41.12
561.196	41.39
561.537	41.68
561.878	41.91
562.22	42.15
562.561	42.41
562.902	42.73
563.243	42.97
563.584	43.23
563.925	43.42
564.266	43.67
564.607	43.88
564.948	44.12
565.289	44.32
565.63	44.52
565.971	44.72
566.312	44.91
566.653	45.09
566.993	45.26
567.334	45.35
567.675	45.55
568.015	45.75
568.356	45.91
568.696	46.04
569.037	46.25
569.377	46.43
569.718	46.54
570.058	46.68
570.398	46.82
570.739	46.99
571.079	47.23
571.419	47.35
571.759	47.47
572.099	47.54
572.439	47.69
572.779	47.8
573.119	47.86
573.459	48.02
573.799	48.2
574.139	48.32
574.479	48.51
574.819	48.61
575.158	48.72
575.498	48.9
575.838	49.04
576.177	49.13
576.517	49.2
576.856	49.35
577.196	49.47
577.535	49.65
577.875	49.79
578.214	49.85
578.553	50.08
578.893	50.21
579.232	50.43
579.571	50.62
579.91	50.81
580.25	51.03
580.589	51.11
580.928	51.19
581.267	51.32
581.606	51.35
581.945	51.5
582.283	51.59
582.622	51.66
582.961	51.76
583.3	51.92
583.639	52.02
583.977	52.1
584.316	52.23
584.654	52.28
584.993	52.32
585.332	52.42
585.67	52.5
586.008	52.59
586.347	52.65
586.685	52.67
587.024	52.7
587.362	52.81
587.7	52.85
588.038	52.9
588.376	52.97
588.715	53.14
589.053	53.16
589.391	53.29
589.729	53.39
590.067	53.49
590.404	53.56
590.742	53.61
591.08	53.68
591.418	53.73
591.756	53.81
592.093	53.85
592.431	53.94
592.769	53.94
593.106	53.99
593.444	54
593.781	54.02
594.119	54.08
594.456	54.09
594.793	54.16
595.131	54.16
595.468	54.15
595.805	54.16
596.143	54.2
596.48	54.27
596.817	54.28
597.154	54.35
597.491	54.39
597.828	54.48
598.165	54.5
598.502	54.48
598.839	54.56
599.176	54.59
599.512	54.61
599.849	54.6
600.186	54.63
600.523	54.7
600.859	54.74
601.196	54.76
601.532	54.77
601.869	54.8
602.205	54.91
602.542	54.99
602.878	55.05
603.215	55.12
603.551	55.08
603.887	55.09
604.223	55.08
604.56	55.1
604.896	55.1
605.232	55.17
605.568	55.26
605.904	55.28
606.24	55.35
606.576	55.39
606.912	55.51
607.248	55.55
607.583	55.55
607.919	55.63
608.255	55.68
608.591	55.77
608.926	55.82
609.262	55.83
609.597	55.88
609.933	55.91
610.268	55.94
610.604	55.96
610.939	56.01
611.275	56.07
611.61	56.15
611.945	56.21
612.281	56.31
612.616	56.33
612.951	56.37
613.286	56.44
613.621	56.51
613.956	56.5
614.291	56.57
614.626	56.69
614.961	56.74
615.296	56.78
615.631	56.83
615.966	56.85
616.3	56.88
616.635	56.94
616.97	56.94
617.304	56.97
617.639	57.11
617.973	57.15
618.308	57.13
618.642	57.06
618.977	57.1
619.311	57.05
619.646	57.12
619.98	57.14
620.314	57.25
620.648	57.24
620.983	57.31
621.317	57.26
621.651	57.18
621.985	57.21
622.319	57.29
622.653	57.31
622.987	57.38
623.321	57.38
623.655	57.32
623.988	57.31
624.322	57.25
624.656	57.22
624.99	57.22
625.323	57.29
625.657	57.26
625.99	57.31
626.324	57.38
626.657	57.28
626.991	57.28
627.324	57.27
627.658	57.31
627.991	57.35
628.324	57.47
628.657	57.57
628.991	57.55
629.324	57.51
629.657	57.56
629.99	57.51
630.323	57.47
630.656	57.58
630.989	57.7
631.322	57.81
631.655	57.81
631.987	57.93
632.32	57.96
632.653	57.99
632.986	58.02
633.318	57.92
633.651	58.04
633.984	58.02
634.316	57.87
634.649	57.85
634.981	57.89
635.313	57.84
635.646	57.77
635.978	57.86
636.31	57.89
636.643	57.82
636.975	57.92
637.307	58.05
637.639	58.07
637.971	57.98
638.303	58.05
638.635	58.16
638.967	58.17
639.299	58.13
639.631	58.15
639.963	58.11
640.295	58.23
640.626	58.14
640.958	58.28
641.29	58.39
641.621	58.4
641.953	58.25
642.285	58.32
642.616	58.31
642.948	58.28
643.279	58.37
643.61	58.36
643.942	58.33
644.273	58.29
644.604	58.28
644.936	58.34
645.267	58.17
645.598	58.11
645.929	58.01
646.26	58.02
646.591	58.15
646.922	58.1
647.253	58.07
647.584	58.05
647.915	57.99
648.245	58.03
648.576	58.14
648.907	58.26
649.238	58.27
649.568	58.36
649.899	58.35
650.229	58.27
650.56	58.37
650.89	58.39
651.221	58.4
651.551	58.36
651.882	58.38
652.212	58.56
652.542	58.5
652.872	58.51
653.203	58.59
653.533	58.61
653.863	58.69
654.193	58.77
654.523	58.94
654.853	58.89
655.183	58.84
655.513	58.8
655.843	58.77
656.172	58.79
656.502	58.64
656.832	58.6
657.162	58.59
657.491	58.57
657.821	58.58
658.15	58.57
658.48	58.63
658.809	58.62
659.139	58.53
659.468	58.64
659.798	58.68
660.127	58.68
660.456	58.68
660.785	58.73
661.115	58.67
661.444	58.67
661.773	58.73
662.102	58.79
662.431	58.74
662.76	58.7
663.089	58.7
663.418	58.92
663.747	59.01
664.076	59.16
664.404	59.18
664.733	59.21
