Data from BA57710_Reflection_00015.txt Node
Date: Mon Nov 18 15:32:15 EST 2019
User: vgr7
Spectrometer: USB2G7710
Scans to average: 3
Trigger mode: 4
Integration Time (sec): 2.000000E-2
Electric dark correction enabled: true
Boxcar width: 10
XAxis mode: Wavelengths
Number of Pixels in Spectrum: 2048
>>>>>Begin Spectral Data<<<<<
177.721	33.23
178.105	53.32
178.488	10.49
178.871	-53.36
179.254	-136.02
179.636	-3.09
180.019	-69.83
180.402	25
180.785	-38.34
181.168	-11.41
181.55	-46.19
181.933	39.07
182.316	75.27
182.698	21.52
183.081	70.09
183.463	-71.21
183.846	113.65
184.228	45.12
184.611	78.95
184.993	66.32
185.376	72.93
185.758	55.93
186.14	74.21
186.522	40.9
186.904	19.83
187.287	52.81
187.669	61.58
188.051	57.57
188.433	133.69
188.815	52.9
189.197	60.63
189.579	22.12
189.961	12.74
190.342	4.84
190.724	-18.08
191.106	-23.02
191.488	-43.23
191.869	-37.95
192.251	-51.37
192.633	-43.64
193.014	-53.97
193.396	-98.19
193.777	-62.33
194.159	-59.25
194.54	-42.49
194.922	-29.51
195.303	-32.2
195.684	-35.8
196.065	-33.81
196.447	-30.81
196.828	-38.77
197.209	-40.33
197.59	-63.5
197.971	-44.14
198.352	-14.07
198.733	12.01
199.114	23.31
199.495	31.72
199.876	38.01
200.257	8.06
200.638	-6.63
201.018	-2.36
201.399	-11.97
201.78	6.01
202.16	10
202.541	-15.08
202.922	-33.27
203.302	-24.97
203.683	-22.38
204.063	-31.63
204.444	-29.89
204.824	-30.89
205.204	-17.86
205.585	-13.95
205.965	-21.7
206.345	-42.1
206.725	-68.62
207.106	-108.59
207.486	-119.48
207.866	-107.26
208.246	-101.36
208.626	-109.29
209.006	-79.2
209.386	-91.81
209.766	-70.58
210.145	-73.77
210.525	-47.29
210.905	-34.92
211.285	-45.74
211.664	-61.85
212.044	-55.51
212.424	-58.59
212.803	-82.79
213.183	-99.59
213.562	-87.59
213.942	-71.41
214.321	-60
214.701	-53.8
215.08	-27.53
215.459	-29.27
215.838	-42.12
216.218	-54.4
216.597	-48.73
216.976	-51.13
217.355	-35.58
217.734	-48.78
218.113	-37.57
218.492	-32.54
218.871	-41.05
219.25	-41.42
219.629	-37.24
220.008	-26.96
220.387	-18.92
220.766	-16.58
221.144	-27.4
221.523	-43.16
221.902	-48.7
222.28	-50.21
222.659	-56.68
223.037	-57.81
223.416	-62.1
223.794	-40.78
224.173	-20.21
224.551	-1.11
224.929	-1.81
225.308	-9.45
225.686	-8.94
226.064	-10.57
226.442	-9.44
226.821	-2.95
227.199	0.84
227.577	-1.21
227.955	-7.2
228.333	-6.36
228.711	1.54
229.089	3.73
229.467	4.11
229.845	3.83
230.222	2.52
230.6	2.08
230.978	1.16
231.356	2.5
231.733	1.71
232.111	1.03
232.488	-0.6
232.866	-2.43
233.243	-2.25
233.621	-3.19
233.998	-1.62
234.376	-2.96
234.753	-3.65
235.13	-3.69
235.508	-1.19
235.885	0.33
236.262	-0.78
236.639	-2.38
237.016	-1.73
237.393	0.4
237.77	1.16
238.147	2
238.524	2.93
238.901	4.02
239.278	3.95
239.655	4.66
240.032	4.5
240.409	3.63
240.785	4.26
241.162	4.75
241.539	5.05
241.915	4.94
242.292	4.68
242.668	4.85
243.045	4.89
243.421	4.71
243.798	4.5
244.174	4.37
244.551	4.49
244.927	4.41
245.303	4.45
245.679	4.48
246.056	4.53
246.432	4.47
246.808	4.52
247.184	4.48
247.56	4.4
247.936	4.44
248.312	4.85
248.688	4.73
249.064	4.64
249.44	4.54
249.815	4.43
250.191	4.62
250.567	4.35
250.943	4.1
251.318	4.06
251.694	4.12
252.069	4.44
252.445	4.35
252.82	4.14
253.196	3.74
253.571	3.59
253.947	3.49
254.322	3.46
254.697	3.26
255.073	3.04
255.448	2.88
255.823	3.16
256.198	3.21
256.573	3.42
256.948	3.49
257.323	3.6
257.698	3.63
258.073	3.52
258.448	3.63
258.823	3.65
259.198	3.67
259.573	3.68
259.948	3.56
260.322	3.56
260.697	3.73
261.072	3.67
261.446	3.82
261.821	3.75
262.195	3.89
262.57	3.86
262.944	3.96
263.319	3.94
263.693	3.73
264.067	3.85
264.442	3.7
264.816	3.49
265.19	3.34
265.564	3.29
265.938	3.16
266.313	3.17
266.687	3.23
267.061	3.31
267.435	3.27
267.809	3.25
268.183	3.36
268.556	3.18
268.93	3.45
269.304	3.4
269.678	3.64
270.051	3.62
270.425	3.77
270.799	3.77
271.172	3.81
271.546	3.85
271.919	3.57
272.293	3.6
272.666	3.75
273.04	3.87
273.413	3.96
273.787	4.08
274.16	4.12
274.533	4
274.906	3.85
275.279	3.8
275.653	3.75
276.026	3.59
276.399	3.51
276.772	3.51
277.145	3.31
277.518	3.27
277.891	3.21
278.263	3.07
278.636	3.17
279.009	3.05
279.382	3.33
279.755	3.35
280.127	3.46
280.5	3.54
280.872	3.71
281.245	3.67
281.617	3.6
281.99	3.7
282.362	3.88
282.735	3.76
283.107	3.82
283.479	3.89
283.852	4
284.224	4.09
284.596	4.02
284.968	4.28
285.34	4.29
285.713	4.22
286.085	4.25
286.457	4.23
286.829	4.31
287.201	4.15
287.572	4.17
287.944	4.2
288.316	4.19
288.688	4.08
289.06	4.04
289.431	4.09
289.803	4.06
290.175	3.96
290.546	4.15
290.918	4.22
291.289	4.21
291.661	4.18
292.032	4.4
292.403	4.42
292.775	4.4
293.146	4.34
293.517	4.36
293.889	4.42
294.26	4.42
294.631	4.44
295.002	4.47
295.373	4.51
295.744	4.51
296.115	4.47
296.486	4.48
296.857	4.58
297.228	4.64
297.599	4.5
297.97	4.68
298.34	4.65
298.711	4.65
299.082	4.66
299.452	4.72
299.823	4.66
300.194	4.68
300.564	4.54
300.935	4.49
301.305	4.46
301.676	4.5
302.046	4.53
302.416	4.57
302.787	4.49
303.157	4.5
303.527	4.4
303.897	4.53
304.267	4.69
304.637	4.79
305.008	4.81
305.378	5.1
305.748	5.16
306.117	5.15
306.487	5.25
306.857	5.32
307.227	5.37
307.597	5.42
307.967	5.45
308.336	5.54
308.706	5.72
309.076	5.9
309.445	5.86
309.815	5.97
310.184	6.02
310.554	6.14
310.923	6.21
311.293	6.28
311.662	6.27
312.031	6.29
312.401	6.22
312.77	6.35
313.139	6.39
313.508	6.31
313.877	6.37
314.246	6.38
314.616	6.34
314.985	6.42
315.353	6.39
315.722	6.58
316.091	6.59
316.46	6.51
316.829	6.41
317.198	6.48
317.567	6.33
317.935	6.38
318.304	6.47
318.672	6.59
319.041	6.79
319.41	6.86
319.778	6.88
320.147	7.08
320.515	6.91
320.883	6.84
321.252	6.89
321.62	7.03
321.988	7.01
322.357	7.22
322.725	7.25
323.093	7.48
323.461	7.46
323.829	7.61
324.197	7.8
324.565	7.9
324.933	7.98
325.301	8.08
325.669	8.09
326.037	8.14
326.405	8.09
326.772	8.1
327.14	8.13
327.508	8.08
327.875	8.05
328.243	8.31
328.61	8.41
328.978	8.48
329.346	8.47
329.713	8.54
330.08	8.6
330.448	8.64
330.815	8.63
331.182	8.68
331.55	8.68
331.917	8.62
332.284	8.73
332.651	8.81
333.018	8.88
333.385	8.91
333.752	8.95
334.119	9.14
334.486	9.14
334.853	9.12
335.22	9.13
335.587	9.11
335.954	9.04
336.32	9.13
336.687	9.27
337.054	9.39
337.42	9.43
337.787	9.46
338.153	9.51
338.52	9.56
338.886	9.49
339.253	9.5
339.619	9.57
339.986	9.61
340.352	9.59
340.718	9.63
341.084	9.68
341.451	9.69
341.817	9.75
342.183	9.74
342.549	9.68
342.915	9.72
343.281	9.76
343.647	9.78
344.013	9.71
344.379	9.59
344.745	9.61
345.11	9.63
345.476	9.64
345.842	9.59
346.208	9.54
346.573	9.63
346.939	9.75
347.304	9.79
347.67	9.8
348.035	9.8
348.401	9.77
348.766	9.88
349.132	9.94
349.497	9.86
349.862	9.93
350.228	9.96
350.593	9.92
350.958	9.95
351.323	10.06
351.688	10.12
352.053	10.23
352.418	10.21
352.783	10.3
353.148	10.29
353.513	10.26
353.878	10.3
354.243	10.32
354.608	10.25
354.972	10.28
355.337	10.28
355.702	10.4
356.066	10.51
356.431	10.42
356.795	10.44
357.16	10.35
357.524	10.25
357.889	10.28
358.253	10.33
358.618	10.3
358.982	10.22
359.346	10.17
359.71	10.1
360.075	10.05
360.439	10.01
360.803	10.03
361.167	9.99
361.531	9.92
361.895	9.82
362.259	9.77
362.623	9.69
362.987	9.64
363.351	9.55
363.714	9.49
364.078	9.45
364.442	9.39
364.806	9.42
365.169	9.36
365.533	9.37
365.896	9.35
366.26	9.35
366.623	9.31
366.987	9.23
367.35	9.22
367.714	9.29
368.077	9.21
368.44	9.15
368.803	9.13
369.167	9.08
369.53	9.09
369.893	9.08
370.256	9.09
370.619	9.08
370.982	8.95
371.345	8.88
371.708	8.9
372.071	8.8
372.434	8.8
372.797	8.88
373.159	8.77
373.522	8.71
373.885	8.61
374.247	8.58
374.61	8.65
374.973	8.54
375.335	8.42
375.698	8.37
376.06	8.34
376.423	8.26
376.785	8.29
377.147	8.27
377.51	8.21
377.872	8.18
378.234	8.11
378.596	8.16
378.958	8.13
379.321	8.03
379.683	8.01
380.045	7.89
380.407	7.77
380.769	7.79
381.13	7.7
381.492	7.69
381.854	7.6
382.216	7.52
382.578	7.5
382.939	7.41
383.301	7.37
383.663	7.32
384.024	7.32
384.386	7.28
384.747	7.28
385.109	7.24
385.47	7.16
385.832	7.14
386.193	7.07
386.554	6.99
386.916	6.95
387.277	6.94
387.638	6.92
387.999	6.87
388.36	6.84
388.721	6.84
389.082	6.77
389.443	6.74
389.804	6.7
390.165	6.71
390.526	6.71
390.887	6.65
391.248	6.66
391.609	6.62
391.969	6.53
392.33	6.47
392.691	6.43
393.051	6.41
393.412	6.38
393.772	6.34
394.133	6.32
394.493	6.25
394.854	6.17
395.214	6.13
395.574	6.11
395.935	6.06
396.295	6.04
396.655	6.01
397.015	5.98
397.376	5.92
397.736	5.84
398.096	5.81
398.456	5.8
398.816	5.74
399.176	5.67
399.535	5.64
399.895	5.59
400.255	5.57
400.615	5.53
400.975	5.49
401.334	5.46
401.694	5.43
402.054	5.38
402.413	5.36
402.773	5.3
403.132	5.27
403.492	5.23
403.851	5.21
404.211	5.15
404.57	5.12
404.929	5.09
405.288	5.08
405.648	5.02
406.007	5.01
406.366	4.98
406.725	4.99
407.084	4.99
407.443	4.96
407.802	4.97
408.161	4.93
408.52	4.87
408.879	4.81
409.238	4.81
409.596	4.84
409.955	4.79
410.314	4.81
410.673	4.78
411.031	4.77
411.39	4.72
411.748	4.72
412.107	4.72
412.465	4.7
412.824	4.67
413.182	4.65
413.54	4.66
413.899	4.63
414.257	4.62
414.615	4.58
414.974	4.57
415.332	4.53
415.69	4.49
416.048	4.47
416.406	4.48
416.764	4.47
417.122	4.47
417.48	4.47
417.838	4.45
418.195	4.43
418.553	4.42
418.911	4.4
419.269	4.41
419.626	4.38
419.984	4.36
420.342	4.36
420.699	4.35
421.057	4.33
421.414	4.31
421.772	4.29
422.129	4.3
422.486	4.28
422.844	4.27
423.201	4.27
423.558	4.27
423.915	4.25
424.273	4.23
424.63	4.19
424.987	4.19
425.344	4.18
425.701	4.17
426.058	4.15
426.415	4.15
426.772	4.12
427.128	4.1
427.485	4.1
427.842	4.06
428.199	4.06
428.555	4.05
428.912	4.06
429.269	4.04
429.625	4.01
429.982	4.01
430.338	3.99
430.695	3.98
431.051	3.97
431.407	3.96
431.764	3.96
432.12	3.97
432.476	3.96
432.832	3.96
433.189	3.96
433.545	3.95
433.901	3.93
434.257	3.93
434.613	3.94
434.969	3.94
435.325	3.97
435.681	3.96
436.036	3.96
436.392	3.94
436.748	3.94
437.104	3.94
437.459	3.93
437.815	3.95
438.171	3.95
438.526	3.96
438.882	3.96
439.237	3.97
439.593	3.97
439.948	3.96
440.304	3.95
440.659	3.95
441.014	3.97
441.369	3.97
441.725	3.96
442.08	3.94
442.435	3.94
442.79	3.92
443.145	3.92
443.5	3.92
443.855	3.91
444.21	3.89
444.565	3.88
444.92	3.88
445.275	3.85
445.629	3.85
445.984	3.85
446.339	3.82
446.693	3.8
447.048	3.77
447.403	3.76
447.757	3.76
448.112	3.74
448.466	3.72
448.82	3.71
449.175	3.72
449.529	3.72
449.883	3.7
450.238	3.69
450.592	3.67
450.946	3.63
451.3	3.62
451.654	3.62
452.008	3.62
452.362	3.59
452.716	3.6
453.07	3.59
453.424	3.57
453.778	3.57
454.132	3.56
454.486	3.58
454.839	3.58
455.193	3.57
455.547	3.59
455.9	3.6
456.254	3.59
456.607	3.58
456.961	3.58
457.314	3.57
457.668	3.58
458.021	3.57
458.375	3.58
458.728	3.59
459.081	3.59
459.434	3.58
459.787	3.6
460.141	3.61
460.494	3.61
460.847	3.62
461.2	3.61
461.553	3.62
461.906	3.63
462.259	3.64
462.611	3.65
462.964	3.65
463.317	3.65
463.67	3.66
464.022	3.68
464.375	3.68
464.728	3.7
465.08	3.7
465.433	3.73
465.785	3.74
466.138	3.76
466.49	3.76
466.843	3.77
467.195	3.76
467.547	3.77
467.899	3.78
468.252	3.8
468.604	3.84
468.956	3.86
469.308	3.86
469.66	3.86
470.012	3.87
470.364	3.88
470.716	3.89
471.068	3.89
471.42	3.89
471.772	3.91
472.123	3.91
472.475	3.95
472.827	3.95
473.178	3.96
473.53	3.97
473.882	3.97
474.233	3.98
474.585	3.97
474.936	3.96
475.288	3.95
475.639	3.96
475.99	3.94
476.342	3.93
476.693	3.93
477.044	3.94
477.395	3.93
477.746	3.93
478.097	3.92
478.448	3.91
478.8	3.93
479.15	3.93
479.501	3.94
479.852	3.93
480.203	3.91
480.554	3.9
480.905	3.9
481.255	3.92
481.606	3.91
481.957	3.92
482.307	3.93
482.658	3.94
483.009	3.92
483.359	3.92
483.709	3.92
484.06	3.92
484.41	3.91
484.761	3.91
485.111	3.9
485.461	3.9
485.811	3.91
486.162	3.91
486.512	3.91
486.862	3.9
487.212	3.89
487.562	3.9
487.912	3.91
488.262	3.9
488.612	3.89
488.961	3.89
489.311	3.88
489.661	3.88
490.011	3.88
490.36	3.88
490.71	3.89
491.06	3.9
491.409	3.9
491.759	3.91
492.108	3.92
492.458	3.93
492.807	3.95
493.157	3.95
493.506	3.96
493.855	3.98
494.204	3.99
494.554	4.02
494.903	4.04
495.252	4.06
495.601	4.09
495.95	4.12
496.299	4.14
496.648	4.19
496.997	4.22
497.346	4.24
497.695	4.28
498.043	4.32
498.392	4.34
498.741	4.37
499.09	4.41
499.438	4.44
499.787	4.49
500.135	4.53
500.484	4.56
500.832	4.61
501.181	4.65
501.529	4.68
501.878	4.72
502.226	4.79
502.574	4.82
502.923	4.87
503.271	4.93
503.619	5
503.967	5.06
504.315	5.1
504.663	5.17
505.011	5.23
505.359	5.26
505.707	5.33
506.055	5.41
506.403	5.48
506.751	5.54
507.098	5.61
507.446	5.69
507.794	5.78
508.141	5.87
508.489	5.95
508.837	6.04
509.184	6.13
509.531	6.18
509.879	6.27
510.226	6.36
510.574	6.43
510.921	6.51
511.268	6.58
511.616	6.68
511.963	6.78
512.31	6.88
512.657	7
513.004	7.1
513.351	7.21
513.698	7.33
514.045	7.45
514.392	7.55
514.739	7.65
515.086	7.76
515.432	7.85
515.779	7.97
516.126	8.08
516.473	8.21
516.819	8.31
517.166	8.41
517.512	8.53
517.859	8.63
518.205	8.73
518.552	8.81
518.898	8.89
519.245	9
519.591	9.09
519.937	9.17
520.283	9.29
520.629	9.42
520.976	9.55
521.322	9.68
521.668	9.82
522.014	9.96
522.36	10.12
522.706	10.3
523.052	10.5
523.398	10.71
523.743	10.87
524.089	11.1
524.435	11.29
524.781	11.5
525.126	11.69
525.472	11.87
525.817	12.06
526.163	12.24
526.509	12.39
526.854	12.55
527.199	12.7
527.545	12.82
527.89	12.95
528.235	13.1
528.581	13.24
528.926	13.4
529.271	13.55
529.616	13.7
529.961	13.83
530.306	13.98
530.651	14.14
530.996	14.32
531.341	14.5
531.686	14.69
532.031	14.88
532.376	15.09
532.721	15.3
533.065	15.51
533.41	15.73
533.755	15.96
534.099	16.19
534.444	16.42
534.788	16.68
535.133	16.92
535.477	17.16
535.822	17.45
536.166	17.73
536.51	18.06
536.855	18.36
537.199	18.72
537.543	19.03
537.887	19.36
538.231	19.71
538.576	20.07
538.92	20.42
539.264	20.76
539.608	21.09
539.951	21.39
540.295	21.68
540.639	21.93
540.983	22.19
541.327	22.44
541.671	22.71
542.014	22.96
542.358	23.2
542.701	23.45
543.045	23.7
543.389	23.96
543.732	24.18
544.075	24.45
544.419	24.71
544.762	25.02
545.105	25.31
545.449	25.62
545.792	25.92
546.135	26.23
546.478	26.56
546.821	26.87
547.165	27.21
547.508	27.58
547.851	27.98
548.194	28.33
548.536	28.71
548.879	29.1
549.222	29.45
549.565	29.83
549.908	30.16
550.25	30.52
550.593	30.9
550.936	31.31
551.278	31.69
551.621	32.04
551.963	32.4
552.306	32.78
552.648	33.05
552.991	33.4
553.333	33.71
553.675	34
554.017	34.32
554.36	34.59
554.702	34.85
555.044	35.12
555.386	35.39
555.728	35.67
556.07	35.96
556.412	36.28
556.754	36.57
557.096	36.93
557.438	37.19
557.78	37.45
558.121	37.74
558.463	38.03
558.805	38.32
559.147	38.62
559.488	38.88
559.83	39.18
560.171	39.45
560.513	39.72
560.854	39.96
561.196	40.24
561.537	40.53
561.878	40.82
562.22	41.02
562.561	41.29
562.902	41.54
563.243	41.7
563.584	41.89
563.925	42.18
564.266	42.39
564.607	42.62
564.948	42.81
565.289	42.97
565.63	43.14
565.971	43.31
566.312	43.45
566.653	43.65
566.993	43.84
567.334	44.03
567.675	44.22
568.015	44.39
568.356	44.55
568.696	44.74
569.037	44.9
569.377	45.09
569.718	45.27
570.058	45.45
570.398	45.72
570.739	45.86
571.079	45.96
571.419	46.11
571.759	46.31
572.099	46.43
572.439	46.61
572.779	46.72
573.119	46.86
573.459	47
573.799	47.16
574.139	47.23
574.479	47.35
574.819	47.48
575.158	47.61
575.498	47.7
575.838	47.84
576.177	47.93
576.517	48.03
576.856	48.16
577.196	48.27
577.535	48.32
577.875	48.47
578.214	48.54
578.553	48.68
578.893	48.72
579.232	48.91
579.571	48.96
579.91	49.1
580.25	49.17
580.589	49.31
580.928	49.4
581.267	49.62
581.606	49.65
581.945	49.75
582.283	49.81
582.622	49.89
582.961	49.98
583.3	50.08
583.639	50.2
583.977	50.25
584.316	50.38
584.654	50.48
584.993	50.58
585.332	50.69
585.67	50.77
586.008	50.86
586.347	50.86
586.685	50.94
587.024	51
587.362	51.14
587.7	51.18
588.038	51.24
588.376	51.28
588.715	51.42
589.053	51.47
589.391	51.64
589.729	51.74
590.067	51.8
590.404	51.87
590.742	51.96
591.08	52.01
591.418	52.08
591.756	52.12
592.093	52.19
592.431	52.28
592.769	52.34
593.106	52.43
593.444	52.55
593.781	52.64
594.119	52.73
594.456	52.77
594.793	52.84
595.131	52.9
595.468	52.96
595.805	53.02
596.143	53.08
596.48	53.11
596.817	53.18
597.154	53.15
597.491	53.25
597.828	53.34
598.165	53.48
598.502	53.48
598.839	53.52
599.176	53.58
599.512	53.68
599.849	53.75
600.186	53.75
600.523	53.88
600.859	53.91
601.196	53.97
601.532	54.04
601.869	54.19
602.205	54.22
602.542	54.25
602.878	54.27
603.215	54.29
603.551	54.29
603.887	54.32
604.223	54.45
604.56	54.5
604.896	54.45
605.232	54.41
605.568	54.44
605.904	54.53
606.24	54.56
606.576	54.57
606.912	54.59
607.248	54.62
607.583	54.57
607.919	54.61
608.255	54.63
608.591	54.68
608.926	54.65
609.262	54.7
609.597	54.7
609.933	54.8
610.268	54.89
610.604	55.01
610.939	55.07
611.275	55.03
611.61	55.01
611.945	55.11
612.281	55.18
612.616	55.31
612.951	55.3
613.286	55.46
613.621	55.41
613.956	55.46
614.291	55.6
614.626	55.68
614.961	55.73
615.296	55.75
615.631	55.74
615.966	55.83
616.3	55.87
616.635	55.9
616.97	55.86
617.304	55.87
617.639	55.92
617.973	55.98
618.308	56.08
618.642	56.14
618.977	56.07
619.311	56.12
619.646	56.09
619.98	56.15
620.314	56.04
620.648	56.16
620.983	56.21
621.317	56.17
621.651	56.11
621.985	56.21
622.319	56.21
622.653	56.26
622.987	56.21
623.321	56.18
623.655	56.24
623.988	56.37
624.322	56.36
624.656	56.35
624.99	56.26
625.323	56.26
625.657	56.23
625.99	56.32
626.324	56.36
626.657	56.38
626.991	56.38
627.324	56.38
627.658	56.37
627.991	56.36
628.324	56.37
628.657	56.4
628.991	56.42
629.324	56.51
629.657	56.51
629.99	56.48
630.323	56.57
630.656	56.63
630.989	56.54
631.322	56.49
631.655	56.4
631.987	56.46
632.32	56.53
632.653	56.62
632.986	56.63
633.318	56.63
633.651	56.63
633.984	56.62
634.316	56.68
634.649	56.67
634.981	56.69
635.313	56.72
635.646	56.78
635.978	56.85
636.31	56.86
636.643	56.88
636.975	56.93
637.307	56.86
637.639	56.81
637.971	56.81
638.303	56.87
638.635	56.98
638.967	56.97
639.299	56.91
639.631	56.8
639.963	56.76
640.295	56.76
640.626	56.91
640.958	56.93
641.29	57.05
641.621	57.12
641.953	57.16
642.285	57.22
642.616	57.13
642.948	56.97
643.279	57.03
643.61	57.01
643.942	57.11
644.273	57.05
644.604	57.13
644.936	57.14
645.267	57.19
645.598	57.17
645.929	57.23
646.26	57.28
646.591	57.41
646.922	57.39
647.253	57.45
647.584	57.38
647.915	57.47
648.245	57.34
648.576	57.44
648.907	57.47
649.238	57.42
649.568	57.43
649.899	57.5
650.229	57.5
650.56	57.55
650.89	57.54
651.221	57.69
651.551	57.7
651.882	57.74
652.212	57.75
652.542	57.71
652.872	57.69
653.203	57.68
653.533	57.62
653.863	57.72
654.193	57.77
654.523	57.83
654.853	57.89
655.183	57.96
655.513	57.87
655.843	57.78
656.172	57.88
656.502	58.03
656.832	58.03
657.162	58.05
657.491	58.08
657.821	58.17
658.15	58.27
658.48	58.33
658.809	58.4
659.139	58.49
659.468	58.54
659.798	58.52
660.127	58.5
660.456	58.6
660.785	58.68
661.115	58.48
661.444	58.45
661.773	58.37
662.102	58.33
662.431	58.32
662.76	58.39
663.089	58.35
663.418	58.28
663.747	58.34
664.076	58.35
664.404	58.3
664.733	58.15
665.062	57.98
665.39	58.02
665.719	57.95
666.048	57.95
666.376	57.96
666.705	57.99
667.033	58.05
667.362	58.02
