Data from BA57890_Reflection_00013.txt Node
Date: Mon Nov 18 15:06:30 EST 2019
User: vgr7
Spectrometer: USB2G7710
Scans to average: 3
Trigger mode: 4
Integration Time (sec): 2.000000E-2
Electric dark correction enabled: true
Boxcar width: 10
XAxis mode: Wavelengths
Number of Pixels in Spectrum: 2048
>>>>>Begin Spectral Data<<<<<
177.721	-36.65
178.105	-28.08
178.488	59.55
178.871	102.39
179.254	106.68
179.636	-65.78
180.019	-33.56
180.402	192.86
180.785	-2735.82
181.168	303.36
181.55	167.59
181.933	140.15
182.316	106.27
182.698	75.63
183.081	98.46
183.463	127.4
183.846	83.82
184.228	93.79
184.611	89.67
184.993	189.01
185.376	114.17
185.758	137.7
186.14	157.84
186.522	134.56
186.904	160.5
187.287	145.42
187.669	165.74
188.051	260.51
188.433	469.34
188.815	-3125.81
189.197	-49.95
189.579	-115.38
189.961	-93.91
190.342	-1954.05
190.724	-652.29
191.106	164.52
191.488	225.91
191.869	678.03
192.251	216.15
192.633	2691.55
193.014	213.84
193.396	194.25
193.777	147.98
194.159	171.57
194.54	343.44
194.922	271.76
195.303	378.43
195.684	209.59
196.065	168.25
196.447	149.24
196.828	99.12
197.209	83.7
197.59	134.99
197.971	184.69
198.352	263.87
198.733	566.8
199.114	851.13
199.495	-651.59
199.876	-20.63
200.257	-20.3
200.638	109.25
201.018	78.9
201.399	69.9
201.78	76.54
202.16	107.48
202.541	235.01
202.922	176.26
203.302	210.83
203.683	120.62
204.063	45.87
204.444	-18.87
204.824	-34.51
205.204	-40.63
205.585	-30.69
205.965	-5.48
206.345	-12.86
206.725	-36.22
207.106	-110.26
207.486	-460.18
207.866	-1350.78
208.246	1806.29
208.626	-1136.51
209.006	-1069.81
209.386	613.76
209.766	641.23
210.145	-463.11
210.525	-283.15
210.905	-167.92
211.285	-76.44
211.664	-51.96
212.044	-52.2
212.424	-15.74
212.803	-23.78
213.183	2.34
213.562	-1.18
213.942	4.47
214.321	24.76
214.701	38.82
215.08	46.73
215.459	47.74
215.838	51.62
216.218	52.65
216.597	55.27
216.976	52.54
217.355	47.71
217.734	32.34
218.113	36.94
218.492	36.74
218.871	37.53
219.25	28.07
219.629	19.42
220.008	13
220.387	8.36
220.766	19.79
221.144	2.52
221.523	-16.3
221.902	-23.65
222.28	-29.24
222.659	-18.27
223.037	-16.23
223.416	-21.85
223.794	-28.1
224.173	-19.74
224.551	-22.89
224.929	-24.45
225.308	-17.08
225.686	-5.35
226.064	-2.11
226.442	-7.41
226.821	-5.43
227.199	-2.22
227.577	-1.92
227.955	-0.43
228.333	2.17
228.711	4.04
229.089	7.77
229.467	7.48
229.845	6.41
230.222	4.26
230.6	2.81
230.978	1.4
231.356	2.72
231.733	4.32
232.111	5.46
232.488	6.04
232.866	4.56
233.243	4.24
233.621	2.83
233.998	3.1
234.376	2.43
234.753	1.24
235.13	0.75
235.508	2.07
235.885	1.4
236.262	-1.68
236.639	-2.44
237.016	-2.71
237.393	0.74
237.77	1.97
238.147	3.39
238.524	3.47
238.901	3.84
239.278	4.62
239.655	5.19
240.032	4.08
240.409	3.61
240.785	4.41
241.162	4.23
241.539	4.66
241.915	4.68
242.292	4.37
242.668	4.61
243.045	4.88
243.421	4.62
243.798	4.68
244.174	5.07
244.551	4.92
244.927	4.75
245.303	4.47
245.679	4.8
246.056	4.69
246.432	4.58
246.808	4.52
247.184	4.13
247.56	4.03
247.936	4.12
248.312	4.17
248.688	4.38
249.064	4.44
249.44	4.38
249.815	4.56
250.191	4.89
250.567	4.76
250.943	4.47
251.318	4.69
251.694	4.64
252.069	4.55
252.445	4.6
252.82	4.72
253.196	4.82
253.571	4.52
253.947	4.39
254.322	4.55
254.697	4.38
255.073	4.16
255.448	3.8
255.823	3.67
256.198	3.86
256.573	3.77
256.948	3.88
257.323	3.87
257.698	3.85
258.073	3.86
258.448	3.91
258.823	4.16
259.198	4.13
259.573	4.12
259.948	4.15
260.322	4.25
260.697	4.19
261.072	4.01
261.446	4
261.821	3.99
262.195	4.14
262.57	4.34
262.944	4.55
263.319	4.69
263.693	4.71
264.067	4.67
264.442	4.74
264.816	4.59
265.19	4.47
265.564	4.42
265.938	4.3
266.313	4.49
266.687	4.49
267.061	4.5
267.435	4.52
267.809	4.49
268.183	4.53
268.556	4.44
268.93	4.49
269.304	4.59
269.678	4.88
270.051	4.81
270.425	4.78
270.799	4.71
271.172	4.63
271.546	4.72
271.919	4.69
272.293	4.49
272.666	4.57
273.04	4.8
273.413	4.82
273.787	4.91
274.16	4.77
274.533	4.66
274.906	4.56
275.279	4.53
275.653	4.6
276.026	4.43
276.399	4.55
276.772	4.7
277.145	4.67
277.518	4.65
277.891	4.54
278.263	4.34
278.636	4.35
279.009	4.34
279.382	4.37
279.755	4.39
280.127	4.5
280.5	4.62
280.872	4.63
281.245	4.51
281.617	4.65
281.99	4.76
282.362	4.87
282.735	4.75
283.107	4.74
283.479	4.65
283.852	4.73
284.224	4.88
284.596	4.81
284.968	4.81
285.34	4.76
285.713	4.93
286.085	5
286.457	5.05
286.829	5.1
287.201	5.22
287.572	5.15
287.944	5.2
288.316	5.17
288.688	5.06
289.06	5.2
289.431	5.14
289.803	5.15
290.175	5.26
290.546	5.55
290.918	5.63
291.289	5.65
291.661	5.75
292.032	5.59
292.403	5.66
292.775	5.77
293.146	5.73
293.517	5.58
293.889	5.71
294.26	5.76
294.631	5.82
295.002	5.75
295.373	5.92
295.744	5.84
296.115	5.84
296.486	5.8
296.857	5.77
297.228	5.82
297.599	5.79
297.97	5.77
298.34	5.71
298.711	5.98
299.082	6.1
299.452	6.09
299.823	6.22
300.194	6.27
300.564	6.14
300.935	6.28
301.305	6.47
301.676	6.59
302.046	6.66
302.416	6.7
302.787	6.72
303.157	6.79
303.527	6.92
303.897	6.96
304.267	7.24
304.637	7.37
305.008	7.45
305.378	7.59
305.748	7.73
306.117	7.8
306.487	7.76
306.857	7.85
307.227	7.96
307.597	8.12
307.967	8.18
308.336	8.29
308.706	8.35
309.076	8.35
309.445	8.33
309.815	8.27
310.184	8.39
310.554	8.57
310.923	8.62
311.293	8.67
311.662	8.76
312.031	8.74
312.401	8.7
312.77	8.71
313.139	8.84
313.508	8.85
313.877	8.81
314.246	8.83
314.616	8.91
314.985	8.89
315.353	8.79
315.722	8.85
316.091	8.83
316.46	8.85
316.829	9
317.198	9.14
317.567	9.32
317.935	9.29
318.304	9.21
318.672	9.19
319.041	9.32
319.41	9.29
319.778	9.4
320.147	9.58
320.515	9.6
320.883	9.48
321.252	9.57
321.62	9.83
321.988	9.87
322.357	9.78
322.725	10.01
323.093	10.21
323.461	10.35
323.829	10.54
324.197	10.61
324.565	10.68
324.933	10.64
325.301	10.74
325.669	10.89
326.037	10.96
326.405	11.09
326.772	11.24
327.14	11.38
327.508	11.46
327.875	11.55
328.243	11.69
328.61	11.85
328.978	11.82
329.346	11.84
329.713	11.85
330.08	12.07
330.448	11.98
330.815	11.9
331.182	11.92
331.55	12.15
331.917	12.15
332.284	12.17
332.651	12.24
333.018	12.27
333.385	12.31
333.752	12.33
334.119	12.39
334.486	12.25
334.853	12.27
335.22	12.24
335.587	12.26
335.954	12.29
336.32	12.3
336.687	12.48
337.054	12.44
337.42	12.51
337.787	12.58
338.153	12.66
338.52	12.82
338.886	12.81
339.253	12.61
339.619	12.69
339.986	12.76
340.352	12.88
340.718	12.92
341.084	12.95
341.451	13.05
341.817	13.05
342.183	13.11
342.549	13.15
342.915	13.19
343.281	13.21
343.647	13.22
344.013	13.31
344.379	13.25
344.745	13.27
345.11	13.29
345.476	13.17
345.842	13.11
346.208	13.15
346.573	13.19
346.939	13.35
347.304	13.38
347.67	13.33
348.035	13.32
348.401	13.29
348.766	13.34
349.132	13.29
349.497	13.23
349.862	13.36
350.228	13.36
350.593	13.28
350.958	13.22
351.323	13.3
351.688	13.3
352.053	13.31
352.418	13.36
352.783	13.31
353.148	13.35
353.513	13.42
353.878	13.41
354.243	13.43
354.608	13.43
354.972	13.43
355.337	13.45
355.702	13.37
356.066	13.4
356.431	13.27
356.795	13.31
357.16	13.32
357.524	13.11
357.889	13.06
358.253	13.13
358.618	13.16
358.982	13.09
359.346	12.96
359.71	12.88
360.075	12.85
360.439	12.88
360.803	12.88
361.167	12.83
361.531	12.74
361.895	12.7
362.259	12.59
362.623	12.53
362.987	12.51
363.351	12.53
363.714	12.45
364.078	12.46
364.442	12.36
364.806	12.31
365.169	12.3
365.533	12.24
365.896	12.19
366.26	12.08
366.623	11.99
366.987	11.96
367.35	11.93
367.714	11.89
368.077	11.83
368.44	11.74
368.803	11.74
369.167	11.7
369.53	11.63
369.893	11.62
370.256	11.6
370.619	11.49
370.982	11.39
371.345	11.29
371.708	11.19
372.071	11.12
372.434	11.02
372.797	10.98
373.159	10.94
373.522	10.91
373.885	10.87
374.247	10.79
374.61	10.75
374.973	10.69
375.335	10.58
375.698	10.49
376.06	10.43
376.423	10.3
376.785	10.2
377.147	10.15
377.51	10.07
377.872	10.06
378.234	9.93
378.596	9.86
378.958	9.79
379.321	9.8
379.683	9.8
380.045	9.77
380.407	9.71
380.769	9.61
381.13	9.55
381.492	9.45
381.854	9.39
382.216	9.27
382.578	9.17
382.939	9.13
383.301	9.09
383.663	9.03
384.024	8.94
384.386	8.92
384.747	8.86
385.109	8.79
385.47	8.66
385.832	8.73
386.193	8.72
386.554	8.71
386.916	8.58
387.277	8.55
387.638	8.52
387.999	8.46
388.36	8.42
388.721	8.33
389.082	8.3
389.443	8.28
389.804	8.24
390.165	8.19
390.526	8.13
390.887	8.04
391.248	7.99
391.609	7.97
391.969	7.91
392.33	7.86
392.691	7.84
393.051	7.79
393.412	7.67
393.772	7.58
394.133	7.53
394.493	7.52
394.854	7.44
395.214	7.36
395.574	7.33
395.935	7.32
396.295	7.29
396.655	7.23
397.015	7.2
397.376	7.17
397.736	7.14
398.096	7.08
398.456	7.03
398.816	7.02
399.176	6.96
399.535	6.93
399.895	6.87
400.255	6.8
400.615	6.76
400.975	6.74
401.334	6.69
401.694	6.62
402.054	6.61
402.413	6.57
402.773	6.53
403.132	6.51
403.492	6.49
403.851	6.44
404.211	6.44
404.57	6.37
404.929	6.36
405.288	6.35
405.648	6.34
406.007	6.34
406.366	6.29
406.725	6.29
407.084	6.23
407.443	6.2
407.802	6.2
408.161	6.18
408.52	6.15
408.879	6.11
409.238	6.13
409.596	6.06
409.955	6.04
410.314	6.04
410.673	5.99
411.031	5.95
411.39	5.93
411.748	5.9
412.107	5.87
412.465	5.8
412.824	5.8
413.182	5.75
413.54	5.71
413.899	5.73
414.257	5.69
414.615	5.68
414.974	5.67
415.332	5.63
415.69	5.59
416.048	5.56
416.406	5.52
416.764	5.47
417.122	5.47
417.48	5.43
417.838	5.42
418.195	5.39
418.553	5.37
418.911	5.36
419.269	5.34
419.626	5.35
419.984	5.33
420.342	5.3
420.699	5.29
421.057	5.27
421.414	5.21
421.772	5.19
422.129	5.18
422.486	5.16
422.844	5.14
423.201	5.11
423.558	5.11
423.915	5.1
424.273	5.1
424.63	5.06
424.987	5.06
425.344	5.05
425.701	5.03
426.058	5.01
426.415	4.98
426.772	4.96
427.128	4.94
427.485	4.93
427.842	4.91
428.199	4.89
428.555	4.87
428.912	4.89
429.269	4.88
429.625	4.86
429.982	4.82
430.338	4.82
430.695	4.83
431.051	4.8
431.407	4.8
431.764	4.78
432.12	4.79
432.476	4.77
432.832	4.74
433.189	4.75
433.545	4.75
433.901	4.76
434.257	4.77
434.613	4.76
434.969	4.76
435.325	4.76
435.681	4.76
436.036	4.77
436.392	4.74
436.748	4.76
437.104	4.75
437.459	4.77
437.815	4.77
438.171	4.76
438.526	4.77
438.882	4.78
439.237	4.79
439.593	4.79
439.948	4.78
440.304	4.77
440.659	4.76
441.014	4.77
441.369	4.76
441.725	4.73
442.08	4.72
442.435	4.71
442.79	4.7
443.145	4.7
443.5	4.69
443.855	4.67
444.21	4.64
444.565	4.64
444.92	4.63
445.275	4.59
445.629	4.59
445.984	4.58
446.339	4.56
446.693	4.53
447.048	4.5
447.403	4.5
447.757	4.49
448.112	4.48
448.466	4.45
448.82	4.44
449.175	4.43
449.529	4.41
449.883	4.39
450.238	4.39
450.592	4.37
450.946	4.34
451.3	4.33
451.654	4.32
452.008	4.31
452.362	4.3
452.716	4.29
453.07	4.29
453.424	4.28
453.778	4.29
454.132	4.29
454.486	4.28
454.839	4.26
455.193	4.25
455.547	4.25
455.9	4.25
456.254	4.23
456.607	4.26
456.961	4.27
457.314	4.28
457.668	4.29
458.021	4.28
458.375	4.29
458.728	4.3
459.081	4.31
459.434	4.3
459.787	4.3
460.141	4.31
460.494	4.3
460.847	4.31
461.2	4.3
461.553	4.33
461.906	4.36
462.259	4.39
462.611	4.42
462.964	4.45
463.317	4.48
463.67	4.49
464.022	4.48
464.375	4.5
464.728	4.52
465.08	4.52
465.433	4.52
465.785	4.56
466.138	4.58
466.49	4.59
466.843	4.61
467.195	4.65
467.547	4.7
467.899	4.72
468.252	4.72
468.604	4.73
468.956	4.73
469.308	4.71
469.66	4.7
470.012	4.71
470.364	4.72
470.716	4.74
471.068	4.75
471.42	4.76
471.772	4.79
472.123	4.79
472.475	4.8
472.827	4.83
473.178	4.83
473.53	4.84
473.882	4.82
474.233	4.83
474.585	4.81
474.936	4.77
475.288	4.78
475.639	4.78
475.99	4.79
476.342	4.79
476.693	4.79
477.044	4.81
477.395	4.8
477.746	4.78
478.097	4.78
478.448	4.78
478.8	4.78
479.15	4.76
479.501	4.76
479.852	4.76
480.203	4.76
480.554	4.76
480.905	4.76
481.255	4.76
481.606	4.77
481.957	4.77
482.307	4.77
482.658	4.76
483.009	4.76
483.359	4.75
483.709	4.75
484.06	4.75
484.41	4.75
484.761	4.75
485.111	4.75
485.461	4.74
485.811	4.74
486.162	4.75
486.512	4.75
486.862	4.76
487.212	4.75
487.562	4.76
487.912	4.76
488.262	4.76
488.612	4.77
488.961	4.77
489.311	4.77
489.661	4.77
490.011	4.77
490.36	4.78
490.71	4.8
491.06	4.81
491.409	4.83
491.759	4.83
492.108	4.84
492.458	4.85
492.807	4.87
493.157	4.88
493.506	4.9
493.855	4.91
494.204	4.92
494.554	4.94
494.903	4.96
495.252	4.98
495.601	5.01
495.95	5.04
496.299	5.07
496.648	5.1
496.997	5.15
497.346	5.2
497.695	5.25
498.043	5.29
498.392	5.3
498.741	5.34
499.09	5.38
499.438	5.47
499.787	5.51
500.135	5.59
500.484	5.65
500.832	5.7
501.181	5.76
501.529	5.83
501.878	5.9
502.226	5.96
502.574	6.04
502.923	6.1
503.271	6.18
503.619	6.28
503.967	6.37
504.315	6.45
504.663	6.56
505.011	6.65
505.359	6.76
505.707	6.89
506.055	6.96
506.403	7.07
506.751	7.13
507.098	7.23
507.446	7.33
507.794	7.42
508.141	7.53
508.489	7.67
508.837	7.78
509.184	7.89
509.531	8
509.879	8.1
510.226	8.23
510.574	8.34
510.921	8.44
511.268	8.54
511.616	8.64
511.963	8.76
512.31	8.89
512.657	9.02
513.004	9.14
513.351	9.31
513.698	9.45
514.045	9.62
514.392	9.78
514.739	9.94
515.086	10.12
515.432	10.29
515.779	10.4
516.126	10.56
516.473	10.72
516.819	10.87
517.166	11.01
517.512	11.15
517.859	11.29
518.205	11.43
518.552	11.57
518.898	11.74
519.245	11.87
519.591	12.02
519.937	12.16
520.283	12.32
520.629	12.46
520.976	12.65
521.322	12.79
521.668	12.97
522.014	13.13
522.36	13.31
522.706	13.49
523.052	13.73
523.398	13.97
523.743	14.21
524.089	14.46
524.435	14.73
524.781	14.98
525.126	15.24
525.472	15.47
525.817	15.67
526.163	15.85
526.509	16.03
526.854	16.18
527.199	16.34
527.545	16.49
527.89	16.65
528.235	16.8
528.581	16.98
528.926	17.16
529.271	17.36
529.616	17.53
529.961	17.72
530.306	17.9
530.651	18.09
530.996	18.3
531.341	18.51
531.686	18.73
532.031	18.94
532.376	19.16
532.721	19.39
533.065	19.64
533.41	19.9
533.755	20.15
534.099	20.43
534.444	20.72
534.788	21.02
535.133	21.29
535.477	21.6
535.822	21.88
536.166	22.17
536.51	22.47
536.855	22.83
537.199	23.18
537.543	23.56
537.887	23.94
538.231	24.3
538.576	24.67
538.92	25.05
539.264	25.4
539.608	25.72
539.951	26.03
540.295	26.33
540.639	26.63
540.983	26.91
541.327	27.2
541.671	27.45
542.014	27.72
542.358	27.95
542.701	28.21
543.045	28.47
543.389	28.75
543.732	29.02
544.075	29.28
544.419	29.57
544.762	29.86
545.105	30.15
545.449	30.47
545.792	30.76
546.135	31.08
546.478	31.41
546.821	31.76
547.165	32.13
547.508	32.53
547.851	32.87
548.194	33.22
548.536	33.54
548.879	33.92
549.222	34.26
549.565	34.67
549.908	35
550.25	35.35
550.593	35.7
550.936	36.06
551.278	36.44
551.621	36.8
551.963	37.16
552.306	37.46
552.648	37.78
552.991	38.14
553.333	38.42
553.675	38.71
554.017	39.01
554.36	39.35
554.702	39.6
555.044	39.86
555.386	40.16
555.728	40.51
556.07	40.78
556.412	41.06
556.754	41.32
557.096	41.61
557.438	41.89
557.78	42.16
558.121	42.47
558.463	42.73
558.805	42.97
559.147	43.23
559.488	43.54
559.83	43.8
560.171	44.08
560.513	44.35
560.854	44.63
561.196	44.85
561.537	45.01
561.878	45.17
562.22	45.45
562.561	45.68
562.902	45.82
563.243	46.06
563.584	46.22
563.925	46.46
564.266	46.73
564.607	46.94
564.948	47.11
565.289	47.28
565.63	47.57
565.971	47.76
566.312	47.88
566.653	48.02
566.993	48.21
567.334	48.37
567.675	48.46
568.015	48.62
568.356	48.78
568.696	48.96
569.037	49.18
569.377	49.33
569.718	49.44
570.058	49.66
570.398	49.8
570.739	49.97
571.079	50.07
571.419	50.2
571.759	50.31
572.099	50.44
572.439	50.54
572.779	50.59
573.119	50.71
573.459	50.82
573.799	50.99
574.139	51.09
574.479	51.21
574.819	51.4
575.158	51.53
575.498	51.64
575.838	51.7
576.177	51.76
576.517	51.87
576.856	52.01
577.196	52.13
577.535	52.26
577.875	52.44
578.214	52.62
578.553	52.73
578.893	52.91
579.232	53.07
579.571	53.26
579.91	53.4
580.25	53.54
580.589	53.71
580.928	53.83
581.267	53.92
581.606	53.96
581.945	54.09
582.283	54.17
582.622	54.32
582.961	54.45
583.3	54.62
583.639	54.77
583.977	54.9
584.316	54.93
584.654	54.94
584.993	54.96
585.332	55
585.67	55.08
586.008	55.14
586.347	55.18
586.685	55.26
587.024	55.39
587.362	55.33
587.7	55.39
588.038	55.39
588.376	55.51
588.715	55.61
589.053	55.59
589.391	55.65
589.729	55.72
590.067	55.84
590.404	55.94
590.742	55.98
591.08	56
591.418	56.19
591.756	56.36
592.093	56.47
592.431	56.57
592.769	56.67
593.106	56.72
593.444	56.71
593.781	56.82
594.119	56.83
594.456	56.98
594.793	57.04
595.131	57.19
595.468	57.25
595.805	57.3
596.143	57.38
596.48	57.51
596.817	57.55
597.154	57.57
597.491	57.6
597.828	57.6
598.165	57.62
598.502	57.56
598.839	57.62
599.176	57.69
599.512	57.73
599.849	57.72
600.186	57.79
600.523	57.94
600.859	57.92
601.196	57.97
601.532	57.95
601.869	57.98
602.205	57.97
602.542	58.02
602.878	58.03
603.215	58.04
603.551	58.11
603.887	58.12
604.223	58.14
604.56	58.14
604.896	58.16
605.232	58.26
605.568	58.32
605.904	58.34
606.24	58.38
606.576	58.46
606.912	58.51
607.248	58.63
607.583	58.67
607.919	58.86
608.255	58.9
608.591	58.98
608.926	59.04
609.262	59.17
609.597	59.14
609.933	59.2
610.268	59.28
610.604	59.24
610.939	59.3
611.275	59.34
611.61	59.36
611.945	59.49
612.281	59.56
612.616	59.6
612.951	59.65
613.286	59.63
613.621	59.64
613.956	59.7
614.291	59.62
614.626	59.58
614.961	59.48
615.296	59.57
615.631	59.7
615.966	59.71
616.3	59.59
616.635	59.69
616.97	59.74
617.304	59.77
617.639	59.8
617.973	59.75
618.308	59.81
618.642	59.83
618.977	59.95
619.311	60
619.646	60.04
619.98	59.91
620.314	59.9
620.648	59.87
620.983	59.94
621.317	59.94
621.651	60.03
621.985	59.99
622.319	59.92
622.653	59.88
622.987	59.95
623.321	60.1
623.655	60.05
623.988	60.08
624.322	60.05
624.656	60.12
624.99	60.31
625.323	60.41
625.657	60.45
625.99	60.36
626.324	60.38
626.657	60.43
626.991	60.52
627.324	60.6
627.658	60.68
627.991	60.65
628.324	60.72
628.657	60.84
628.991	60.94
629.324	61.01
629.657	61.17
629.99	61.15
630.323	61.13
630.656	61.28
630.989	61.24
631.322	61.28
631.655	61.32
631.987	61.23
632.32	61.23
632.653	61.21
632.986	61.21
633.318	61.21
633.651	61.19
633.984	61.21
634.316	61.25
634.649	61.26
634.981	61.3
635.313	61.41
635.646	61.24
635.978	61.18
636.31	61.25
636.643	61.05
636.975	61.12
637.307	61.1
637.639	60.94
637.971	61.1
638.303	61.28
638.635	61.28
638.967	61.28
639.299	61.25
639.631	61.29
639.963	61.3
640.295	61.27
640.626	61.35
640.958	61.47
641.29	61.47
641.621	61.52
641.953	61.57
642.285	61.49
642.616	61.73
642.948	61.81
643.279	61.76
643.61	61.84
643.942	61.82
644.273	61.91
644.604	62.03
644.936	62.03
645.267	61.93
645.598	61.86
645.929	61.91
646.26	61.98
646.591	62
646.922	61.96
647.253	61.91
647.584	61.88
647.915	61.93
648.245	61.93
648.576	61.94
648.907	61.85
649.238	61.81
649.568	61.71
649.899	61.65
650.229	61.75
650.56	61.8
650.89	61.76
651.221	61.79
651.551	61.93
651.882	61.98
652.212	62.16
652.542	62.27
652.872	62.23
653.203	62.17
653.533	62.19
653.863	62.42
654.193	62.57
654.523	62.53
654.853	62.52
655.183	62.52
655.513	62.6
655.843	62.71
656.172	62.73
656.502	62.77
656.832	62.85
657.162	62.87
657.491	62.91
657.821	63.05
658.15	63.03
658.48	62.98
658.809	63.06
659.139	62.94
659.468	62.83
659.798	62.92
660.127	62.99
660.456	63.06
660.785	62.96
661.115	62.87
661.444	62.94
661.773	62.96
662.102	62.9
662.431	62.92
662.76	62.89
663.089	62.94
663.418	62.91
663.747	62.94
