Data from BA57712_Reflection_00004.txt Node
Date: Mon Nov 18 15:19:17 EST 2019
User: vgr7
Spectrometer: USB2G7710
Scans to average: 3
Trigger mode: 4
Integration Time (sec): 2.000000E-2
Electric dark correction enabled: true
Boxcar width: 10
XAxis mode: Wavelengths
Number of Pixels in Spectrum: 2048
>>>>>Begin Spectral Data<<<<<
177.721	-80.83
178.105	-20.88
178.488	-6.19
178.871	-1.19
179.254	35.96
179.636	-14.04
180.019	4.29
180.402	4.55
180.785	-9.14
181.168	-1316.67
181.55	-118.54
181.933	30.84
182.316	30.82
182.698	63.4
183.081	62.96
183.463	75.98
183.846	75.68
184.228	82.62
184.611	55.73
184.993	55.08
185.376	79.67
185.758	63.25
186.14	87.57
186.522	65.61
186.904	82.99
187.287	102.03
187.669	180.14
188.051	294.81
188.433	255.78
188.815	198.9
189.197	624.75
189.579	-612
189.961	-214.08
190.342	-233.33
190.724	-188.54
191.106	-169.35
191.488	-77.27
191.869	-79.42
192.251	-114.66
192.633	-97.88
193.014	-183.24
193.396	-222.8
193.777	-256.27
194.159	-285.92
194.54	-217.92
194.922	-183.31
195.303	-167.83
195.684	-216.58
196.065	-143.94
196.447	-127.77
196.828	-119.09
197.209	-143.24
197.59	-136.95
197.971	-116.58
198.352	-91.28
198.733	-86.79
199.114	-62.31
199.495	-66.83
199.876	-46.17
200.257	-35.19
200.638	-29.97
201.018	-21.73
201.399	-12.57
201.78	-10.98
202.16	-24.93
202.541	-32.34
202.922	-49.72
203.302	-72.23
203.683	-55.63
204.063	-86.11
204.444	-79.59
204.824	-106.17
205.204	-100
205.585	-83.18
205.965	-100
206.345	-85.84
206.725	-130.53
207.106	-323.42
207.486	-729.46
207.866	262.24
208.246	158.38
208.626	201.58
209.006	280.95
209.386	419.3
209.766	456.32
210.145	218.01
210.525	233.9
210.905	301.97
211.285	176.36
211.664	224.58
212.044	642.86
212.424	688.79
212.803	638.46
213.183	-434.39
213.562	-569.42
213.942	-316.27
214.321	-804.76
214.701	-328.57
215.08	-159.81
215.459	-125.81
215.838	-132.53
216.218	-129.15
216.597	-141.18
216.976	-131.65
217.355	-105.24
217.734	-103.01
218.113	-69.29
218.492	-89.6
218.871	-109.44
219.25	-103.82
219.629	-119.92
220.008	-129
220.387	-126.37
220.766	-103.25
221.144	-136.99
221.523	-183.02
221.902	-186.29
222.28	-179.76
222.659	-154.4
223.037	-132.95
223.416	-145.4
223.794	-125.99
224.173	-127.37
224.551	-85.36
224.929	-94.66
225.308	-70.82
225.686	-50.46
226.064	-42.67
226.442	-32.02
226.821	-24.12
227.199	-19.12
227.577	-16.59
227.955	-14.27
228.333	-12.2
228.711	-6.98
229.089	-2.05
229.467	-2.19
229.845	1.27
230.222	2.24
230.6	2.06
230.978	1.79
231.356	1.68
231.733	3
232.111	4.59
232.488	2.6
232.866	3.89
233.243	3.58
233.621	2.71
233.998	1.83
234.376	1.51
234.753	1.47
235.13	0.69
235.508	1.08
235.885	0.73
236.262	-0.58
236.639	-0.72
237.016	-1.2
237.393	0.47
237.77	0.73
238.147	1.51
238.524	2.09
238.901	2.27
239.278	3.01
239.655	3.34
240.032	3.18
240.409	3.54
240.785	3.4
241.162	3.39
241.539	3.44
241.915	4.12
242.292	4.23
242.668	4.31
243.045	4.12
243.421	4.25
243.798	4.32
244.174	4.44
244.551	4.31
244.927	4.3
245.303	4.4
245.679	4.39
246.056	4.32
246.432	4.22
246.808	4.13
247.184	4
247.56	3.67
247.936	3.43
248.312	3.35
248.688	3.37
249.064	3.45
249.44	3.58
249.815	3.43
250.191	3.15
250.567	3.22
250.943	3.27
251.318	3.22
251.694	3.16
252.069	2.94
252.445	2.91
252.82	2.77
253.196	2.63
253.571	2.57
253.947	2.65
254.322	2.7
254.697	2.75
255.073	2.44
255.448	2.59
255.823	2.67
256.198	2.96
256.573	3.04
256.948	3.17
257.323	3.4
257.698	3.38
258.073	3.7
258.448	3.62
258.823	3.72
259.198	3.63
259.573	3.7
259.948	3.78
260.322	3.75
260.697	3.81
261.072	3.71
261.446	3.73
261.821	3.72
262.195	3.82
262.57	3.91
262.944	3.85
263.319	4.03
263.693	4.15
264.067	4.04
264.442	4.16
264.816	4.12
265.19	3.92
265.564	4.08
265.938	3.88
266.313	3.99
266.687	4.03
267.061	4.13
267.435	4.22
267.809	4.27
268.183	4.37
268.556	4.13
268.93	4.19
269.304	4.17
269.678	4.09
270.051	3.9
270.425	3.78
270.799	3.98
271.172	3.82
271.546	3.7
271.919	3.62
272.293	3.52
272.666	3.55
273.04	3.65
273.413	3.64
273.787	3.87
274.16	3.82
274.533	3.74
274.906	3.81
275.279	3.6
275.653	3.57
276.026	3.51
276.399	3.62
276.772	3.66
277.145	3.64
277.518	3.71
277.891	3.84
278.263	3.88
278.636	3.91
279.009	3.97
279.382	4.22
279.755	4.25
280.127	4.25
280.5	4.24
280.872	4.18
281.245	4.1
281.617	4.15
281.99	4.16
282.362	4.18
282.735	4.09
283.107	4.22
283.479	4.09
283.852	4.22
284.224	4.33
284.596	4.31
284.968	4.33
285.34	4.34
285.713	4.23
286.085	4.18
286.457	4.2
286.829	4.23
287.201	4.18
287.572	4.24
287.944	4.27
288.316	4.15
288.688	4.16
289.06	4.2
289.431	4.08
289.803	4.18
290.175	4.15
290.546	4.24
290.918	4.24
291.289	4.41
291.661	4.4
292.032	4.48
292.403	4.46
292.775	4.45
293.146	4.4
293.517	4.35
293.889	4.56
294.26	4.57
294.631	4.58
295.002	4.52
295.373	4.51
295.744	4.48
296.115	4.54
296.486	4.41
296.857	4.39
297.228	4.45
297.599	4.35
297.97	4.33
298.34	4.33
298.711	4.24
299.082	4.26
299.452	4.26
299.823	4.2
300.194	4.12
300.564	4.06
300.935	4.11
301.305	4.18
301.676	4.08
302.046	4.14
302.416	4.13
302.787	4.16
303.157	4.15
303.527	4.24
303.897	4.22
304.267	4.39
304.637	4.36
305.008	4.4
305.378	4.42
305.748	4.44
306.117	4.37
306.487	4.49
306.857	4.52
307.227	4.42
307.597	4.34
307.967	4.34
308.336	4.52
308.706	4.53
309.076	4.58
309.445	4.48
309.815	4.43
310.184	4.36
310.554	4.38
310.923	4.32
311.293	4.33
311.662	4.32
312.031	4.21
312.401	4.1
312.77	4.09
313.139	4.09
313.508	4.15
313.877	4.15
314.246	4.13
314.616	4.05
314.985	4.14
315.353	4.07
315.722	4.22
316.091	4.11
316.46	4.03
316.829	3.99
317.198	4.03
317.567	3.89
317.935	3.87
318.304	3.85
318.672	3.76
319.041	3.71
319.41	3.85
319.778	3.96
320.147	3.96
320.515	3.79
320.883	3.67
321.252	3.73
321.62	3.75
321.988	3.67
322.357	3.71
322.725	3.65
323.093	3.72
323.461	3.57
323.829	3.59
324.197	3.52
324.565	3.58
324.933	3.63
325.301	3.65
325.669	3.72
326.037	3.62
326.405	3.76
326.772	3.79
327.14	3.64
327.508	3.68
327.875	3.75
328.243	3.89
328.61	3.92
328.978	3.95
329.346	3.96
329.713	3.97
330.08	4.02
330.448	4.03
330.815	4.08
331.182	4.12
331.55	4.05
331.917	4.2
332.284	4.21
332.651	4.16
333.018	4.18
333.385	4.24
333.752	4.4
334.119	4.33
334.486	4.28
334.853	4.39
335.22	4.32
335.587	4.31
335.954	4.23
336.32	4.17
336.687	4.17
337.054	4.21
337.42	4.33
337.787	4.28
338.153	4.28
338.52	4.23
338.886	4.1
339.253	4.07
339.619	4.09
339.986	4.04
340.352	4.09
340.718	4.12
341.084	4.05
341.451	3.94
341.817	4.07
342.183	3.99
342.549	3.94
342.915	4.01
343.281	4.01
343.647	3.93
344.013	4.07
344.379	4.05
344.745	3.94
345.11	3.88
345.476	3.84
345.842	3.72
346.208	3.74
346.573	3.92
346.939	4.1
347.304	3.93
347.67	3.83
348.035	3.83
348.401	3.88
348.766	3.9
349.132	3.98
349.497	3.83
349.862	3.85
350.228	3.9
350.593	3.77
350.958	3.81
351.323	3.89
351.688	3.77
352.053	3.73
352.418	3.78
352.783	3.76
353.148	3.76
353.513	3.81
353.878	3.9
354.243	3.86
354.608	3.78
354.972	3.94
355.337	4.02
355.702	4.02
356.066	4.01
356.431	3.95
356.795	3.96
357.16	4
357.524	3.96
357.889	3.94
358.253	4.01
358.618	3.97
358.982	3.98
359.346	3.92
359.71	3.89
360.075	3.89
360.439	3.89
360.803	3.93
361.167	3.96
361.531	3.89
361.895	3.84
362.259	3.82
362.623	3.77
362.987	3.79
363.351	3.86
363.714	3.78
364.078	3.83
364.442	3.79
364.806	3.77
365.169	3.83
365.533	3.8
365.896	3.81
366.26	3.84
366.623	3.83
366.987	3.9
367.35	3.92
367.714	3.93
368.077	3.95
368.44	3.93
368.803	3.91
369.167	3.89
369.53	3.93
369.893	3.96
370.256	3.95
370.619	3.92
370.982	3.86
371.345	3.85
371.708	3.83
372.071	3.8
372.434	3.83
372.797	3.81
373.159	3.77
373.522	3.74
373.885	3.73
374.247	3.76
374.61	3.8
374.973	3.79
375.335	3.76
375.698	3.79
376.06	3.8
376.423	3.78
376.785	3.83
377.147	3.86
377.51	3.83
377.872	3.88
378.234	3.9
378.596	3.89
378.958	3.92
379.321	3.95
379.683	3.97
380.045	3.92
380.407	3.9
380.769	3.95
381.13	3.95
381.492	3.9
381.854	3.88
382.216	3.85
382.578	3.88
382.939	3.91
383.301	3.84
383.663	3.81
384.024	3.83
384.386	3.81
384.747	3.78
385.109	3.83
385.47	3.77
385.832	3.79
386.193	3.8
386.554	3.81
386.916	3.79
387.277	3.82
387.638	3.87
387.999	3.91
388.36	3.9
388.721	3.92
389.082	3.96
389.443	3.95
389.804	3.96
390.165	3.96
390.526	3.97
390.887	3.99
391.248	4.09
391.609	4.06
391.969	4.05
392.33	4.08
392.691	4.02
393.051	4.04
393.412	4.03
393.772	4
394.133	4.03
394.493	4.01
394.854	3.99
395.214	3.98
395.574	3.96
395.935	3.94
396.295	3.95
396.655	3.91
397.015	3.92
397.376	3.92
397.736	3.93
398.096	3.91
398.456	3.92
398.816	3.84
399.176	3.84
399.535	3.85
399.895	3.79
400.255	3.83
400.615	3.84
400.975	3.83
401.334	3.81
401.694	3.81
402.054	3.8
402.413	3.82
402.773	3.77
403.132	3.75
403.492	3.75
403.851	3.74
404.211	3.77
404.57	3.78
404.929	3.8
405.288	3.78
405.648	3.75
406.007	3.73
406.366	3.75
406.725	3.79
407.084	3.8
407.443	3.84
407.802	3.84
408.161	3.84
408.52	3.85
408.879	3.84
409.238	3.84
409.596	3.85
409.955	3.86
410.314	3.9
410.673	3.9
411.031	3.92
411.39	3.92
411.748	3.94
412.107	3.93
412.465	3.89
412.824	3.89
413.182	3.87
413.54	3.9
413.899	3.91
414.257	3.91
414.615	3.87
414.974	3.87
415.332	3.86
415.69	3.88
416.048	3.84
416.406	3.86
416.764	3.84
417.122	3.86
417.48	3.82
417.838	3.84
418.195	3.85
418.553	3.83
418.911	3.82
419.269	3.82
419.626	3.82
419.984	3.82
420.342	3.84
420.699	3.85
421.057	3.84
421.414	3.83
421.772	3.83
422.129	3.85
422.486	3.86
422.844	3.86
423.201	3.84
423.558	3.85
423.915	3.85
424.273	3.85
424.63	3.83
424.987	3.85
425.344	3.84
425.701	3.84
426.058	3.84
426.415	3.84
426.772	3.84
427.128	3.83
427.485	3.83
427.842	3.8
428.199	3.82
428.555	3.82
428.912	3.83
429.269	3.81
429.625	3.8
429.982	3.77
430.338	3.78
430.695	3.8
431.051	3.79
431.407	3.8
431.764	3.81
432.12	3.82
432.476	3.81
432.832	3.8
433.189	3.8
433.545	3.81
433.901	3.82
434.257	3.83
434.613	3.85
434.969	3.87
435.325	3.88
435.681	3.86
436.036	3.86
436.392	3.85
436.748	3.85
437.104	3.86
437.459	3.88
437.815	3.85
438.171	3.85
438.526	3.86
438.882	3.85
439.237	3.85
439.593	3.87
439.948	3.87
440.304	3.86
440.659	3.85
441.014	3.87
441.369	3.85
441.725	3.83
442.08	3.81
442.435	3.81
442.79	3.81
443.145	3.8
443.5	3.81
443.855	3.81
444.21	3.82
444.565	3.81
444.92	3.82
445.275	3.82
445.629	3.82
445.984	3.8
446.339	3.79
446.693	3.77
447.048	3.75
447.403	3.75
447.757	3.75
448.112	3.75
448.466	3.74
448.82	3.74
449.175	3.74
449.529	3.75
449.883	3.75
450.238	3.72
450.592	3.73
450.946	3.72
451.3	3.73
451.654	3.73
452.008	3.73
452.362	3.68
452.716	3.69
453.07	3.69
453.424	3.68
453.778	3.68
454.132	3.69
454.486	3.7
454.839	3.69
455.193	3.7
455.547	3.7
455.9	3.71
456.254	3.71
456.607	3.73
456.961	3.71
457.314	3.7
457.668	3.72
458.021	3.72
458.375	3.72
458.728	3.72
459.081	3.72
459.434	3.72
459.787	3.75
460.141	3.77
460.494	3.77
460.847	3.78
461.2	3.79
461.553	3.79
461.906	3.8
462.259	3.83
462.611	3.82
462.964	3.83
463.317	3.82
463.67	3.84
464.022	3.83
464.375	3.84
464.728	3.84
465.08	3.83
465.433	3.84
465.785	3.81
466.138	3.81
466.49	3.79
466.843	3.79
467.195	3.75
467.547	3.73
467.899	3.73
468.252	3.73
468.604	3.74
468.956	3.75
469.308	3.73
469.66	3.7
470.012	3.72
470.364	3.71
470.716	3.71
471.068	3.69
471.42	3.69
471.772	3.7
472.123	3.74
472.475	3.75
472.827	3.78
473.178	3.81
473.53	3.82
473.882	3.83
474.233	3.84
474.585	3.85
474.936	3.85
475.288	3.86
475.639	3.86
475.99	3.85
476.342	3.85
476.693	3.89
477.044	3.9
477.395	3.91
477.746	3.9
478.097	3.9
478.448	3.91
478.8	3.89
479.15	3.88
479.501	3.86
479.852	3.87
480.203	3.85
480.554	3.87
480.905	3.87
481.255	3.88
481.606	3.89
481.957	3.9
482.307	3.92
482.658	3.92
483.009	3.93
483.359	3.93
483.709	3.94
484.06	3.94
484.41	3.95
484.761	3.94
485.111	3.94
485.461	3.94
485.811	3.96
486.162	3.97
486.512	3.97
486.862	3.98
487.212	3.97
487.562	3.98
487.912	3.96
488.262	3.96
488.612	3.96
488.961	3.95
489.311	3.94
489.661	3.93
490.011	3.93
490.36	3.92
490.71	3.92
491.06	3.92
491.409	3.91
491.759	3.9
492.108	3.9
492.458	3.9
492.807	3.9
493.157	3.88
493.506	3.87
493.855	3.86
494.204	3.86
494.554	3.87
494.903	3.87
495.252	3.88
495.601	3.89
495.95	3.88
496.299	3.86
496.648	3.83
496.997	3.84
497.346	3.85
497.695	3.86
498.043	3.85
498.392	3.84
498.741	3.84
499.09	3.84
499.438	3.85
499.787	3.86
500.135	3.88
500.484	3.89
500.832	3.89
501.181	3.91
501.529	3.9
501.878	3.91
502.226	3.89
502.574	3.89
502.923	3.89
503.271	3.89
503.619	3.92
503.967	3.96
504.315	3.97
504.663	3.98
505.011	3.96
505.359	3.96
505.707	3.99
506.055	4
506.403	3.99
506.751	3.99
507.098	4
507.446	4
507.794	4
508.141	4.03
508.489	4.04
508.837	4.04
509.184	4.05
509.531	4.08
509.879	4.11
510.226	4.13
510.574	4.13
510.921	4.11
511.268	4.12
511.616	4.14
511.963	4.15
512.31	4.2
512.657	4.21
513.004	4.19
513.351	4.21
513.698	4.22
514.045	4.24
514.392	4.24
514.739	4.24
515.086	4.26
515.432	4.23
515.779	4.22
516.126	4.24
516.473	4.23
516.819	4.22
517.166	4.2
517.512	4.19
517.859	4.21
518.205	4.22
518.552	4.23
518.898	4.22
519.245	4.22
519.591	4.19
519.937	4.16
520.283	4.17
520.629	4.15
520.976	4.16
521.322	4.15
521.668	4.14
522.014	4.12
522.36	4.11
522.706	4.13
523.052	4.15
523.398	4.14
523.743	4.14
524.089	4.15
524.435	4.17
524.781	4.18
525.126	4.19
525.472	4.2
525.817	4.2
526.163	4.2
526.509	4.2
526.854	4.2
527.199	4.22
527.545	4.22
527.89	4.24
528.235	4.24
528.581	4.24
528.926	4.24
529.271	4.26
529.616	4.27
529.961	4.27
530.306	4.27
530.651	4.28
530.996	4.28
531.341	4.28
531.686	4.28
532.031	4.28
532.376	4.29
532.721	4.28
533.065	4.29
533.41	4.28
533.755	4.29
534.099	4.31
534.444	4.31
534.788	4.31
535.133	4.31
535.477	4.33
535.822	4.32
536.166	4.33
536.51	4.31
536.855	4.29
537.199	4.29
537.543	4.29
537.887	4.3
538.231	4.31
538.576	4.31
538.92	4.31
539.264	4.29
539.608	4.28
539.951	4.29
540.295	4.29
540.639	4.31
540.983	4.31
541.327	4.3
541.671	4.29
542.014	4.28
542.358	4.29
542.701	4.27
543.045	4.28
543.389	4.29
543.732	4.3
544.075	4.32
544.419	4.33
544.762	4.34
545.105	4.33
545.449	4.33
545.792	4.34
546.135	4.35
546.478	4.35
546.821	4.36
547.165	4.35
547.508	4.37
547.851	4.36
548.194	4.35
548.536	4.34
548.879	4.36
549.222	4.38
549.565	4.37
549.908	4.38
550.25	4.38
550.593	4.38
550.936	4.4
551.278	4.39
551.621	4.36
551.963	4.38
552.306	4.4
552.648	4.41
552.991	4.41
553.333	4.38
553.675	4.39
554.017	4.4
554.36	4.42
554.702	4.4
555.044	4.4
555.386	4.39
555.728	4.4
556.07	4.4
556.412	4.39
556.754	4.4
557.096	4.37
557.438	4.39
557.78	4.39
558.121	4.38
558.463	4.39
558.805	4.4
559.147	4.39
559.488	4.38
559.83	4.37
560.171	4.35
560.513	4.38
560.854	4.38
561.196	4.37
561.537	4.36
561.878	4.34
562.22	4.35
562.561	4.35
562.902	4.34
563.243	4.33
563.584	4.34
563.925	4.33
564.266	4.34
564.607	4.32
564.948	4.33
565.289	4.32
565.63	4.29
565.971	4.28
566.312	4.26
566.653	4.24
566.993	4.25
567.334	4.24
567.675	4.23
568.015	4.23
568.356	4.25
568.696	4.26
569.037	4.27
569.377	4.28
569.718	4.29
570.058	4.3
570.398	4.3
570.739	4.28
571.079	4.29
571.419	4.29
571.759	4.31
572.099	4.29
572.439	4.29
572.779	4.29
573.119	4.32
573.459	4.32
573.799	4.36
574.139	4.33
574.479	4.35
574.819	4.36
575.158	4.35
575.498	4.36
575.838	4.36
576.177	4.32
576.517	4.31
576.856	4.34
577.196	4.33
577.535	4.33
577.875	4.36
578.214	4.35
578.553	4.4
578.893	4.36
579.232	4.38
579.571	4.42
579.91	4.47
580.25	4.45
580.589	4.45
580.928	4.44
581.267	4.43
581.606	4.44
581.945	4.43
582.283	4.45
582.622	4.46
582.961	4.45
583.3	4.48
583.639	4.52
583.977	4.51
584.316	4.51
584.654	4.51
584.993	4.5
585.332	4.51
585.67	4.45
586.008	4.5
586.347	4.5
586.685	4.48
587.024	4.42
587.362	4.42
587.7	4.44
588.038	4.43
588.376	4.44
588.715	4.42
589.053	4.44
589.391	4.43
589.729	4.39
590.067	4.38
590.404	4.38
590.742	4.35
591.08	4.32
591.418	4.31
591.756	4.31
592.093	4.33
592.431	4.31
592.769	4.34
593.106	4.34
593.444	4.31
593.781	4.33
594.119	4.37
594.456	4.38
594.793	4.38
595.131	4.37
595.468	4.4
595.805	4.41
596.143	4.41
596.48	4.4
596.817	4.45
597.154	4.48
597.491	4.52
597.828	4.5
598.165	4.53
598.502	4.54
598.839	4.54
599.176	4.56
599.512	4.58
599.849	4.58
600.186	4.58
600.523	4.59
600.859	4.57
601.196	4.56
601.532	4.52
601.869	4.49
602.205	4.5
602.542	4.49
602.878	4.48
603.215	4.47
603.551	4.47
603.887	4.43
604.223	4.42
604.56	4.43
604.896	4.42
605.232	4.4
605.568	4.38
605.904	4.36
606.24	4.35
606.576	4.35
606.912	4.36
607.248	4.37
607.583	4.41
607.919	4.41
608.255	4.4
608.591	4.44
608.926	4.45
609.262	4.44
609.597	4.43
609.933	4.44
610.268	4.46
610.604	4.44
610.939	4.43
611.275	4.44
611.61	4.4
611.945	4.45
612.281	4.41
612.616	4.45
612.951	4.49
613.286	4.5
613.621	4.51
613.956	4.47
614.291	4.47
614.626	4.46
614.961	4.42
615.296	4.42
615.631	4.42
615.966	4.48
616.3	4.54
616.635	4.54
616.97	4.54
617.304	4.53
617.639	4.53
617.973	4.61
618.308	4.59
618.642	4.57
618.977	4.56
619.311	4.59
619.646	4.57
619.98	4.59
620.314	4.56
620.648	4.55
620.983	4.61
621.317	4.62
621.651	4.61
621.985	4.68
622.319	4.72
622.653	4.73
622.987	4.72
623.321	4.73
623.655	4.73
623.988	4.76
624.322	4.78
624.656	4.83
624.99	4.83
625.323	4.85
625.657	4.88
625.99	4.88
626.324	4.91
626.657	4.92
626.991	4.9
627.324	4.93
627.658	4.9
627.991	4.88
628.324	4.88
628.657	4.89
628.991	4.88
629.324	4.85
629.657	4.86
629.99	4.87
630.323	4.85
630.656	4.88
630.989	4.88
631.322	4.89
631.655	4.89
631.987	4.85
632.32	4.87
632.653	4.84
632.986	4.85
633.318	4.8
633.651	4.81
633.984	4.84
634.316	4.82
634.649	4.84
634.981	4.84
635.313	4.78
635.646	4.77
635.978	4.78
636.31	4.77
636.643	4.79
636.975	4.76
637.307	4.78
637.639	4.77
637.971	4.77
638.303	4.8
638.635	4.74
638.967	4.76
639.299	4.77
639.631	4.8
639.963	4.74
640.295	4.78
640.626	4.79
640.958	4.79
641.29	4.81
641.621	4.83
641.953	4.81
642.285	4.85
642.616	4.82
642.948	4.78
643.279	4.82
643.61	4.75
643.942	4.76
644.273	4.72
644.604	4.67
644.936	4.64
645.267	4.57
645.598	4.57
645.929	4.58
646.26	4.55
646.591	4.53
646.922	4.56
647.253	4.53
647.584	4.5
647.915	4.41
648.245	4.38
648.576	4.37
648.907	4.39
649.238	4.38
649.568	4.42
649.899	4.47
650.229	4.5
650.56	4.58
650.89	4.58
651.221	4.63
651.551	4.66
651.882	4.71
652.212	4.68
652.542	4.71
652.872	4.65
653.203	4.68
653.533	4.69
653.863	4.74
654.193	4.73
654.523	4.76
654.853	4.85
655.183	4.89
655.513	4.89
655.843	4.89
656.172	4.89
656.502	4.86
656.832	4.8
657.162	4.76
657.491	4.7
657.821	4.74
658.15	4.68
658.48	4.74
658.809	4.73
659.139	4.74
659.468	4.76
659.798	4.75
660.127	4.78
660.456	4.8
660.785	4.79
661.115	4.8
661.444	4.76
661.773	4.79
662.102	4.75
662.431	4.75
662.76	4.78
663.089	4.8
663.418	4.81
663.747	4.84
664.076	4.85
664.404	4.82
664.733	4.83
665.062	4.87
665.39	4.78
665.719	4.77
666.048	4.76
666.376	4.73
666.705	4.75
667.033	4.61
667.362	4.61
667.69	4.61
668.018	4.64
668.347	4.7
668.675	4.64
669.003	4.72
669.331	4.82
669.659	4.79
669.987	4.79
670.315	4.79
670.643	4.83
670.971	4.87
671.299	4.95
671.627	4.87
671.955	4.83
672.283	4.79
672.61	4.82
672.938	4.87
673.266	4.95
673.593	5.04
673.921	5.13
674.249	5.21
674.576	5.24
674.904	5.26
675.231	5.19
675.558	5.16
675.886	5.11
676.213	5.03
676.54	5.03
