Data from BA57662_Reflection_00015.txt Node
Date: Mon Nov 18 15:34:59 EST 2019
User: vgr7
Spectrometer: USB2G7710
Scans to average: 3
Trigger mode: 4
Integration Time (sec): 2.000000E-2
Electric dark correction enabled: true
Boxcar width: 10
XAxis mode: Wavelengths
Number of Pixels in Spectrum: 2048
>>>>>Begin Spectral Data<<<<<
177.721	-118.09
178.105	-15.62
178.488	4.69
178.871	113.22
179.254	120.5
179.636	111.28
180.019	-122.44
180.402	164.71
180.785	-1.17
181.168	57.51
181.55	237.81
181.933	119.02
182.316	141.99
182.698	135.62
183.081	155.53
183.463	150.49
183.846	148.15
184.228	122.48
184.611	153.37
184.993	177.4
185.376	202.14
185.758	265.17
186.14	449.04
186.522	692.02
186.904	-990.29
187.287	-1848.21
187.669	-346.7
188.051	-351.11
188.433	-208.17
188.815	-168.2
189.197	-146.74
189.579	-163.2
189.961	-151.77
190.342	-122.82
190.724	-84.85
191.106	-86.66
191.488	-91.23
191.869	-82.37
192.251	-91.39
192.633	-91.65
193.014	-91.38
193.396	-107.69
193.777	-114.54
194.159	-125.58
194.54	-148.6
194.922	-142.99
195.303	-118.16
195.684	-124.03
196.065	-59.69
196.447	-79.17
196.828	-73.1
197.209	-89.16
197.59	-53.82
197.971	-36.77
198.352	-7.04
198.733	1.65
199.114	-16.07
199.495	-3.56
199.876	3.08
200.257	1.03
200.638	-7.96
201.018	-12.1
201.399	-18.37
201.78	-25.2
202.16	-37.79
202.541	-41.32
202.922	-55.66
203.302	-56.76
203.683	-56.39
204.063	-81.98
204.444	-68.73
204.824	-81.94
205.204	-69.73
205.585	-75.58
205.965	-71.74
206.345	-101.07
206.725	-110.45
207.106	-118.01
207.486	-166.14
207.866	-175.7
208.246	-148.56
208.626	-152.6
209.006	-163.08
209.386	-175.85
209.766	-162.64
210.145	-165.91
210.525	-139.6
210.905	-107.7
211.285	-80.64
211.664	-61.52
212.044	-66.99
212.424	-55.9
212.803	-68.42
213.183	-82.19
213.562	-82.14
213.942	-59.28
214.321	-25.76
214.701	-57.02
215.08	-41.98
215.459	-30.91
215.838	-32.48
216.218	-28.49
216.597	-11.06
216.976	-18.8
217.355	-5.96
217.734	-5.04
218.113	-1.38
218.492	1.56
218.871	2.73
219.25	-4.31
219.629	-16.74
220.008	-23.98
220.387	-27.53
220.766	-13.56
221.144	-21.8
221.523	-15.66
221.902	-25.66
222.28	-27.57
222.659	1.31
223.037	10.09
223.416	13.83
223.794	-0.38
224.173	-11.89
224.551	-12.35
224.929	-7.67
225.308	-3.56
225.686	-1.71
226.064	-4.91
226.442	-4.05
226.821	-2.68
227.199	-5.34
227.577	-3.48
227.955	-3.05
228.333	-4.38
228.711	-2.09
229.089	3.26
229.467	0.6
229.845	-0.74
230.222	-0.6
230.6	-4.75
230.978	-5.83
231.356	-5.37
231.733	-2.56
232.111	-0.36
232.488	0.31
232.866	1.58
233.243	-0.59
233.621	-2.91
233.998	-0.11
234.376	-2.68
234.753	-1.73
235.13	-0.62
235.508	-0.97
235.885	-0.16
236.262	-0.98
236.639	-2.56
237.016	-1.86
237.393	-0.25
237.77	0.09
238.147	-0.57
238.524	-0.02
238.901	0.71
239.278	1.54
239.655	2.22
240.032	1.96
240.409	1.52
240.785	1
241.162	1.32
241.539	1.88
241.915	1.39
242.292	1.33
242.668	1.19
243.045	1.25
243.421	1.51
243.798	1.68
244.174	1.74
244.551	1.85
244.927	1.65
245.303	1.53
245.679	1.62
246.056	1.6
246.432	1.63
246.808	1.77
247.184	1.54
247.56	1.29
247.936	1.22
248.312	1.22
248.688	1.19
249.064	1.18
249.44	1.17
249.815	1.22
250.191	1.55
250.567	1.55
250.943	1.54
251.318	1.42
251.694	1.32
252.069	1.32
252.445	1.35
252.82	1.34
253.196	1.44
253.571	1.52
253.947	1.46
254.322	1.46
254.697	1.39
255.073	1.24
255.448	1.08
255.823	1.43
256.198	1.61
256.573	1.82
256.948	1.8
257.323	1.68
257.698	1.72
258.073	1.61
258.448	1.66
258.823	1.72
259.198	1.69
259.573	1.86
259.948	1.92
260.322	1.9
260.697	1.85
261.072	1.79
261.446	1.57
261.821	1.72
262.195	1.62
262.57	1.43
262.944	1.45
263.319	1.56
263.693	1.37
264.067	1.32
264.442	1.35
264.816	1.31
265.19	1.24
265.564	1.04
265.938	1.1
266.313	1.07
266.687	1.14
267.061	1.37
267.435	1.12
267.809	1.18
268.183	1.18
268.556	1.25
268.93	1.16
269.304	1.47
269.678	1.49
270.051	1.62
270.425	1.68
270.799	1.74
271.172	1.73
271.546	1.79
271.919	1.74
272.293	1.8
272.666	1.93
273.04	2.03
273.413	2.1
273.787	1.96
274.16	1.87
274.533	1.57
274.906	1.41
275.279	1.4
275.653	1.33
276.026	1.37
276.399	1.35
276.772	1.56
277.145	1.32
277.518	1.28
277.891	1.36
278.263	1.37
278.636	1.29
279.009	1.13
279.382	1.26
279.755	1.22
280.127	1.32
280.5	1.32
280.872	1.37
281.245	1.44
281.617	1.59
281.99	1.72
282.362	1.87
282.735	1.87
283.107	1.91
283.479	1.79
283.852	1.76
284.224	1.74
284.596	1.66
284.968	1.86
285.34	1.81
285.713	1.8
286.085	1.78
286.457	1.93
286.829	2.11
287.201	2.04
287.572	2.04
287.944	1.97
288.316	1.96
288.688	2.04
289.06	2.02
289.431	2.04
289.803	1.99
290.175	2.06
290.546	2.21
290.918	2.29
291.289	2.3
291.661	2.42
292.032	2.5
292.403	2.65
292.775	2.57
293.146	2.61
293.517	2.59
293.889	2.65
294.26	2.57
294.631	2.51
295.002	2.62
295.373	2.71
295.744	2.67
296.115	2.63
296.486	2.59
296.857	2.61
297.228	2.66
297.599	2.6
297.97	2.62
298.34	2.61
298.711	2.7
299.082	2.82
299.452	2.81
299.823	2.8
300.194	2.73
300.564	2.85
300.935	2.94
301.305	2.9
301.676	3.05
302.046	3
302.416	3.2
302.787	3.22
303.157	3.31
303.527	3.36
303.897	3.54
304.267	3.67
304.637	3.77
305.008	3.78
305.378	4.02
305.748	4.12
306.117	3.97
306.487	3.97
306.857	3.95
307.227	3.97
307.597	4.03
307.967	4.08
308.336	4.01
308.706	4.03
309.076	4.21
309.445	4.05
309.815	4.2
310.184	4.2
310.554	4.24
310.923	4.22
311.293	4.31
311.662	4.31
312.031	4.26
312.401	4.3
312.77	4.42
313.139	4.39
313.508	4.5
313.877	4.73
314.246	4.77
314.616	4.89
314.985	4.93
315.353	4.9
315.722	5.03
316.091	5.1
316.46	5.14
316.829	5.12
317.198	5.46
317.567	5.48
317.935	5.48
318.304	5.66
318.672	5.71
319.041	5.85
319.41	5.94
319.778	6
320.147	6.18
320.515	6.17
320.883	6.33
321.252	6.28
321.62	6.22
321.988	6.25
322.357	6.2
322.725	6.13
323.093	6.29
323.461	6.38
323.829	6.47
324.197	6.51
324.565	6.61
324.933	6.62
325.301	6.77
325.669	6.82
326.037	6.73
326.405	6.79
326.772	6.85
327.14	6.95
327.508	7.06
327.875	6.97
328.243	7.07
328.61	7.1
328.978	7.23
329.346	7.45
329.713	7.54
330.08	7.72
330.448	7.89
330.815	7.9
331.182	7.91
331.55	7.98
331.917	8.07
332.284	8.2
332.651	8.17
333.018	8.15
333.385	8.27
333.752	8.5
334.119	8.58
334.486	8.46
334.853	8.46
335.22	8.38
335.587	8.43
335.954	8.39
336.32	8.38
336.687	8.39
337.054	8.41
337.42	8.46
337.787	8.6
338.153	8.66
338.52	8.72
338.886	8.75
339.253	8.77
339.619	8.82
339.986	8.82
340.352	8.93
340.718	9.08
341.084	9.06
341.451	9.04
341.817	9.19
342.183	9.28
342.549	9.31
342.915	9.53
343.281	9.58
343.647	9.56
344.013	9.75
344.379	9.76
344.745	9.76
345.11	9.82
345.476	9.71
345.842	9.65
346.208	9.72
346.573	9.81
346.939	10
347.304	9.95
347.67	9.96
348.035	10.02
348.401	10.02
348.766	10.02
349.132	10.01
349.497	9.97
349.862	10
350.228	10.04
350.593	9.98
350.958	10.09
351.323	10.26
351.688	10.19
352.053	10.27
352.418	10.24
352.783	10.29
353.148	10.29
353.513	10.4
353.878	10.45
354.243	10.43
354.608	10.4
354.972	10.53
355.337	10.58
355.702	10.53
356.066	10.6
356.431	10.62
356.795	10.7
357.16	10.66
357.524	10.69
357.889	10.73
358.253	10.71
358.618	10.64
358.982	10.68
359.346	10.58
359.71	10.53
360.075	10.58
360.439	10.58
360.803	10.58
361.167	10.63
361.531	10.58
361.895	10.6
362.259	10.41
362.623	10.37
362.987	10.29
363.351	10.31
363.714	10.28
364.078	10.24
364.442	10.15
364.806	10.12
365.169	10.11
365.533	10.05
365.896	9.99
366.26	9.99
366.623	9.89
366.987	9.89
367.35	9.85
367.714	9.84
368.077	9.8
368.44	9.82
368.803	9.73
369.167	9.67
369.53	9.61
369.893	9.75
370.256	9.75
370.619	9.72
370.982	9.59
371.345	9.52
371.708	9.54
372.071	9.5
372.434	9.44
372.797	9.33
373.159	9.26
373.522	9.31
373.885	9.28
374.247	9.25
374.61	9.28
374.973	9.25
375.335	9.15
375.698	9.09
376.06	9.01
376.423	8.98
376.785	8.97
377.147	8.9
377.51	8.8
377.872	8.69
378.234	8.69
378.596	8.68
378.958	8.56
379.321	8.52
379.683	8.47
380.045	8.43
380.407	8.37
380.769	8.32
381.13	8.21
381.492	8.16
381.854	8.07
382.216	8
382.578	7.95
382.939	7.93
383.301	7.86
383.663	7.77
384.024	7.68
384.386	7.61
384.747	7.58
385.109	7.57
385.47	7.49
385.832	7.44
386.193	7.42
386.554	7.4
386.916	7.33
387.277	7.26
387.638	7.29
387.999	7.26
388.36	7.19
388.721	7.13
389.082	7.07
389.443	7.01
389.804	6.96
390.165	6.89
390.526	6.81
390.887	6.71
391.248	6.74
391.609	6.71
391.969	6.69
392.33	6.63
392.691	6.54
393.051	6.54
393.412	6.47
393.772	6.38
394.133	6.33
394.493	6.3
394.854	6.24
395.214	6.14
395.574	6.07
395.935	6.02
396.295	6
396.655	5.95
397.015	5.9
397.376	5.85
397.736	5.78
398.096	5.74
398.456	5.74
398.816	5.64
399.176	5.57
399.535	5.53
399.895	5.47
400.255	5.48
400.615	5.41
400.975	5.4
401.334	5.35
401.694	5.28
402.054	5.22
402.413	5.19
402.773	5.13
403.132	5.09
403.492	5.04
403.851	5
404.211	4.95
404.57	4.9
404.929	4.88
405.288	4.86
405.648	4.84
406.007	4.8
406.366	4.78
406.725	4.77
407.084	4.72
407.443	4.71
407.802	4.65
408.161	4.62
408.52	4.56
408.879	4.56
409.238	4.56
409.596	4.55
409.955	4.57
410.314	4.55
410.673	4.53
411.031	4.52
411.39	4.49
411.748	4.48
412.107	4.47
412.465	4.45
412.824	4.43
413.182	4.38
413.54	4.36
413.899	4.36
414.257	4.35
414.615	4.33
414.974	4.31
415.332	4.26
415.69	4.21
416.048	4.19
416.406	4.16
416.764	4.12
417.122	4.07
417.48	4.01
417.838	3.99
418.195	3.94
418.553	3.91
418.911	3.87
419.269	3.85
419.626	3.82
419.984	3.78
420.342	3.77
420.699	3.74
421.057	3.71
421.414	3.67
421.772	3.64
422.129	3.62
422.486	3.59
422.844	3.58
423.201	3.56
423.558	3.54
423.915	3.52
424.273	3.51
424.63	3.48
424.987	3.47
425.344	3.46
425.701	3.46
426.058	3.45
426.415	3.45
426.772	3.43
427.128	3.42
427.485	3.42
427.842	3.4
428.199	3.4
428.555	3.39
428.912	3.4
429.269	3.38
429.625	3.36
429.982	3.33
430.338	3.32
430.695	3.33
431.051	3.3
431.407	3.3
431.764	3.27
432.12	3.27
432.476	3.25
432.832	3.23
433.189	3.25
433.545	3.23
433.901	3.23
434.257	3.22
434.613	3.22
434.969	3.2
435.325	3.2
435.681	3.19
436.036	3.18
436.392	3.2
436.748	3.18
437.104	3.2
437.459	3.2
437.815	3.19
438.171	3.18
438.526	3.19
438.882	3.18
439.237	3.18
439.593	3.19
439.948	3.19
440.304	3.19
440.659	3.19
441.014	3.19
441.369	3.15
441.725	3.14
442.08	3.12
442.435	3.12
442.79	3.1
443.145	3.08
443.5	3.06
443.855	3.03
444.21	3.02
444.565	3
444.92	3.01
445.275	2.99
445.629	2.99
445.984	2.98
446.339	2.96
446.693	2.96
447.048	2.94
447.403	2.93
447.757	2.9
448.112	2.87
448.466	2.87
448.82	2.88
449.175	2.88
449.529	2.86
449.883	2.84
450.238	2.84
450.592	2.81
450.946	2.8
451.3	2.78
451.654	2.78
452.008	2.78
452.362	2.75
452.716	2.75
453.07	2.73
453.424	2.72
453.778	2.72
454.132	2.69
454.486	2.69
454.839	2.68
455.193	2.69
455.547	2.69
455.9	2.7
456.254	2.7
456.607	2.71
456.961	2.73
457.314	2.74
457.668	2.75
458.021	2.75
458.375	2.76
458.728	2.75
459.081	2.75
459.434	2.73
459.787	2.75
460.141	2.76
460.494	2.75
460.847	2.76
461.2	2.76
461.553	2.79
461.906	2.79
462.259	2.81
462.611	2.83
462.964	2.85
463.317	2.86
463.67	2.86
464.022	2.85
464.375	2.85
464.728	2.86
465.08	2.85
465.433	2.87
465.785	2.88
466.138	2.92
466.49	2.94
466.843	2.95
467.195	2.94
467.547	2.92
467.899	2.95
468.252	2.96
468.604	2.97
468.956	2.95
469.308	2.96
469.66	2.95
470.012	2.95
470.364	2.95
470.716	2.96
471.068	2.98
471.42	3
471.772	3.02
472.123	3.04
472.475	3.06
472.827	3.06
473.178	3.05
473.53	3.02
473.882	3.03
474.233	3.05
474.585	3.06
474.936	3.08
475.288	3.08
475.639	3.09
475.99	3.08
476.342	3.1
476.693	3.11
477.044	3.11
477.395	3.11
477.746	3.11
478.097	3.1
478.448	3.09
478.8	3.07
479.15	3.04
479.501	3.03
479.852	3.02
480.203	3.03
480.554	3.05
480.905	3.07
481.255	3.07
481.606	3.08
481.957	3.08
482.307	3.08
482.658	3.08
483.009	3.08
483.359	3.07
483.709	3.07
484.06	3.07
484.41	3.08
484.761	3.07
485.111	3.07
485.461	3.07
485.811	3.08
486.162	3.09
486.512	3.11
486.862	3.11
487.212	3.12
487.562	3.13
487.912	3.13
488.262	3.12
488.612	3.13
488.961	3.13
489.311	3.14
489.661	3.14
490.011	3.15
490.36	3.15
490.71	3.18
491.06	3.19
491.409	3.2
491.759	3.21
492.108	3.22
492.458	3.23
492.807	3.25
493.157	3.25
493.506	3.26
493.855	3.28
494.204	3.29
494.554	3.32
494.903	3.32
495.252	3.35
495.601	3.38
495.95	3.4
496.299	3.42
496.648	3.44
496.997	3.49
497.346	3.52
497.695	3.56
498.043	3.57
498.392	3.57
498.741	3.59
499.09	3.62
499.438	3.66
499.787	3.71
500.135	3.75
500.484	3.8
500.832	3.83
501.181	3.88
501.529	3.92
501.878	3.96
502.226	4.03
502.574	4.08
502.923	4.13
503.271	4.19
503.619	4.25
503.967	4.3
504.315	4.34
504.663	4.4
505.011	4.46
505.359	4.54
505.707	4.63
506.055	4.7
506.403	4.76
506.751	4.81
507.098	4.85
507.446	4.9
507.794	4.95
508.141	5.02
508.489	5.06
508.837	5.12
509.184	5.18
509.531	5.22
509.879	5.28
510.226	5.35
510.574	5.4
510.921	5.44
511.268	5.51
511.616	5.58
511.963	5.63
512.31	5.67
512.657	5.73
513.004	5.79
513.351	5.85
513.698	5.94
514.045	6.01
514.392	6.1
514.739	6.16
515.086	6.27
515.432	6.33
515.779	6.4
516.126	6.45
516.473	6.52
516.819	6.59
517.166	6.64
517.512	6.68
517.859	6.74
518.205	6.82
518.552	6.88
518.898	6.93
519.245	7.01
519.591	7.07
519.937	7.14
520.283	7.19
520.629	7.25
520.976	7.3
521.322	7.39
521.668	7.44
522.014	7.54
522.36	7.6
522.706	7.7
523.052	7.82
523.398	7.96
523.743	8.08
524.089	8.18
524.435	8.31
524.781	8.44
525.126	8.55
525.472	8.65
525.817	8.73
526.163	8.81
526.509	8.88
526.854	8.97
527.199	9.04
527.545	9.12
527.89	9.2
528.235	9.28
528.581	9.36
528.926	9.45
529.271	9.56
529.616	9.64
529.961	9.72
530.306	9.81
530.651	9.89
530.996	10
531.341	10.11
531.686	10.22
532.031	10.33
532.376	10.44
532.721	10.56
533.065	10.72
533.41	10.85
533.755	10.99
534.099	11.13
534.444	11.28
534.788	11.42
535.133	11.56
535.477	11.73
535.822	11.91
536.166	12.09
536.51	12.26
536.855	12.48
537.199	12.68
537.543	12.88
537.887	13.11
538.231	13.31
538.576	13.54
538.92	13.75
539.264	13.95
539.608	14.18
539.951	14.35
540.295	14.51
540.639	14.71
540.983	14.92
541.327	15.11
541.671	15.3
542.014	15.48
542.358	15.66
542.701	15.84
543.045	16.02
543.389	16.2
543.732	16.4
544.075	16.6
544.419	16.8
544.762	17.04
545.105	17.24
545.449	17.45
545.792	17.7
546.135	17.97
546.478	18.23
546.821	18.49
547.165	18.8
547.508	19.11
547.851	19.38
548.194	19.64
548.536	19.92
548.879	20.21
549.222	20.49
549.565	20.78
549.908	21.09
550.25	21.36
550.593	21.62
550.936	21.86
551.278	22.1
551.621	22.4
551.963	22.67
552.306	22.93
552.648	23.25
552.991	23.51
553.333	23.78
553.675	24.02
554.017	24.28
554.36	24.48
554.702	24.73
555.044	24.95
555.386	25.18
555.728	25.44
556.07	25.68
556.412	25.91
556.754	26.17
557.096	26.36
557.438	26.61
557.78	26.89
558.121	27.18
558.463	27.44
558.805	27.67
559.147	27.93
559.488	28.18
559.83	28.43
560.171	28.61
560.513	28.78
560.854	29
561.196	29.19
561.537	29.39
561.878	29.61
562.22	29.83
562.561	30.02
562.902	30.17
563.243	30.37
563.584	30.6
563.925	30.76
564.266	30.93
564.607	31.07
564.948	31.22
565.289	31.39
565.63	31.5
565.971	31.65
566.312	31.77
566.653	31.92
566.993	32.02
567.334	32.2
567.675	32.38
568.015	32.53
568.356	32.65
568.696	32.84
569.037	32.97
569.377	33.14
569.718	33.3
570.058	33.43
570.398	33.52
570.739	33.6
571.079	33.74
571.419	33.87
571.759	34.04
572.099	34.18
572.439	34.31
572.779	34.47
573.119	34.59
573.459	34.69
573.799	34.82
574.139	34.91
574.479	35.03
574.819	35.16
575.158	35.23
575.498	35.35
575.838	35.44
576.177	35.49
576.517	35.57
576.856	35.69
577.196	35.79
577.535	35.94
577.875	36.06
578.214	36.12
578.553	36.21
578.893	36.3
579.232	36.37
579.571	36.46
579.91	36.55
580.25	36.64
580.589	36.72
580.928	36.79
581.267	36.92
581.606	36.95
581.945	36.94
582.283	37.02
582.622	37.04
582.961	37.08
583.3	37.16
583.639	37.25
583.977	37.34
584.316	37.44
584.654	37.46
584.993	37.53
585.332	37.65
585.67	37.75
586.008	37.81
586.347	37.84
586.685	37.86
587.024	37.87
587.362	37.91
587.7	38.09
588.038	38.12
588.376	38.12
588.715	38.22
589.053	38.29
589.391	38.34
589.729	38.43
590.067	38.47
590.404	38.49
590.742	38.49
591.08	38.41
591.418	38.45
591.756	38.49
592.093	38.53
592.431	38.51
592.769	38.49
593.106	38.56
593.444	38.63
593.781	38.67
594.119	38.76
594.456	38.74
594.793	38.68
595.131	38.75
595.468	38.82
595.805	38.89
596.143	38.98
596.48	39.01
596.817	39.01
597.154	39.1
597.491	39.19
597.828	39.28
598.165	39.37
598.502	39.37
598.839	39.4
599.176	39.46
599.512	39.51
599.849	39.58
600.186	39.6
600.523	39.68
600.859	39.71
601.196	39.7
601.532	39.77
601.869	39.78
602.205	39.78
602.542	39.79
602.878	39.78
603.215	39.77
603.551	39.85
603.887	39.93
604.223	39.89
604.56	39.88
604.896	39.92
605.232	39.99
605.568	40
605.904	40.01
606.24	40.04
606.576	40.1
606.912	40.17
607.248	40.13
607.583	40.12
607.919	40.12
608.255	40.19
608.591	40.23
608.926	40.32
609.262	40.38
609.597	40.44
609.933	40.45
610.268	40.46
610.604	40.43
610.939	40.39
611.275	40.46
611.61	40.47
611.945	40.49
612.281	40.45
612.616	40.47
612.951	40.56
613.286	40.56
613.621	40.58
613.956	40.53
614.291	40.63
614.626	40.6
614.961	40.63
615.296	40.66
615.631	40.74
615.966	40.7
616.3	40.71
616.635	40.68
616.97	40.75
617.304	40.73
617.639	40.78
617.973	40.84
618.308	40.78
618.642	40.77
618.977	40.71
619.311	40.76
619.646	40.83
619.98	40.9
620.314	40.95
620.648	40.95
620.983	41
621.317	41.01
621.651	41.05
621.985	41.08
622.319	41.03
622.653	41
622.987	41.08
623.321	41.07
623.655	41.17
623.988	41.14
624.322	41.15
624.656	41.2
624.99	41.19
625.323	41.24
625.657	41.33
625.99	41.33
626.324	41.33
626.657	41.36
626.991	41.31
627.324	41.32
627.658	41.36
627.991	41.36
628.324	41.35
628.657	41.41
628.991	41.44
629.324	41.46
629.657	41.45
629.99	41.48
630.323	41.44
630.656	41.39
630.989	41.39
631.322	41.35
631.655	41.34
631.987	41.36
632.32	41.41
632.653	41.46
632.986	41.46
633.318	41.48
633.651	41.44
633.984	41.52
634.316	41.48
634.649	41.46
634.981	41.47
635.313	41.48
635.646	41.43
635.978	41.48
636.31	41.51
636.643	41.5
636.975	41.43
637.307	41.43
637.639	41.45
637.971	41.46
638.303	41.52
638.635	41.49
638.967	41.53
639.299	41.47
639.631	41.37
639.963	41.44
640.295	41.42
640.626	41.44
640.958	41.38
641.29	41.47
641.621	41.42
641.953	41.41
642.285	41.43
642.616	41.4
642.948	41.39
643.279	41.43
643.61	41.44
643.942	41.41
644.273	41.5
644.604	41.47
644.936	41.44
645.267	41.47
645.598	41.5
645.929	41.52
646.26	41.56
646.591	41.55
646.922	41.56
647.253	41.5
647.584	41.5
647.915	41.52
648.245	41.41
648.576	41.45
648.907	41.48
649.238	41.44
649.568	41.5
649.899	41.48
650.229	41.34
650.56	41.36
650.89	41.47
651.221	41.52
651.551	41.47
651.882	41.55
652.212	41.57
652.542	41.56
652.872	41.56
653.203	41.58
653.533	41.62
653.863	41.58
654.193	41.71
654.523	41.68
654.853	41.66
655.183	41.75
655.513	41.78
655.843	41.83
656.172	41.74
656.502	41.69
656.832	41.66
657.162	41.78
657.491	41.82
657.821	41.83
658.15	41.74
658.48	41.77
658.809	41.75
659.139	41.79
659.468	41.77
659.798	41.7
660.127	41.72
660.456	41.77
660.785	41.78
661.115	41.78
661.444	41.82
661.773	41.81
662.102	41.73
662.431	41.75
662.76	41.75
663.089	41.84
663.418	41.93
663.747	41.74
664.076	41.65
664.404	41.54
664.733	41.51
665.062	41.58
665.39	41.54
665.719	41.63
666.048	41.58
666.376	41.55
