Data from BA57712_Reflection_00012.txt Node
Date: Mon Nov 18 15:19:40 EST 2019
User: vgr7
Spectrometer: USB2G7710
Scans to average: 3
Trigger mode: 4
Integration Time (sec): 2.000000E-2
Electric dark correction enabled: true
Boxcar width: 10
XAxis mode: Wavelengths
Number of Pixels in Spectrum: 2048
>>>>>Begin Spectral Data<<<<<
177.721	119.61
178.105	198.9
178.488	80.61
178.871	144.64
179.254	124.63
179.636	7.89
180.019	-8.91
180.402	45.45
180.785	2.65
181.168	-1400
181.55	-65.56
181.933	30.84
182.316	45.91
182.698	72.18
183.081	45.19
183.463	35.52
183.846	55.65
184.228	66.82
184.611	67.94
184.993	116.55
185.376	109.24
185.758	109.67
186.14	147.96
186.522	106.88
186.904	143.48
187.287	179.11
187.669	187.11
188.051	199.57
188.433	155.28
188.815	118.32
189.197	406.93
189.579	-292
189.961	-127.44
190.342	-136.95
190.724	-125.3
191.106	-132.2
191.488	-69.15
191.869	-59.94
192.251	-93.72
192.633	-79.28
193.014	-144.7
193.396	-150.56
193.777	-153.07
194.159	-178.87
194.54	-98.46
194.922	-66.92
195.303	-33.24
195.684	-82.58
196.065	-79.32
196.447	-86.36
196.828	-84.82
197.209	-114.93
197.59	-134.27
197.971	-110.36
198.352	-81.6
198.733	-93.74
199.114	-78.15
199.495	-87.8
199.876	-55.18
200.257	-38.48
200.638	-43.03
201.018	-36.19
201.399	-54.26
201.78	-50.15
202.16	-46.61
202.541	-76.24
202.922	-107.37
203.302	-135.35
203.683	-115.82
204.063	-143.1
204.444	-124.73
204.824	-156.89
205.204	-162.89
205.585	-127.23
205.965	-149.03
206.345	-146.52
206.725	-176.34
207.106	-431.53
207.486	-1179.07
207.866	492.33
208.246	320.34
208.626	413.77
209.006	579.37
209.386	657.89
209.766	686.21
210.145	338.1
210.525	399.15
210.905	686.21
211.285	496.36
211.664	440.07
212.044	966.67
212.424	1100
212.803	809.4
213.183	-444.97
213.562	-734.71
213.942	-459.81
214.321	-1071.43
214.701	-475.51
215.08	-227.1
215.459	-130.26
215.838	-78.31
216.218	-86.96
216.597	-59.2
216.976	-66.83
217.355	-23.14
217.734	-4.43
218.113	-8.87
218.492	-0.62
218.871	-10.79
219.25	-1.57
219.629	-10.37
220.008	-6.98
220.387	0.71
220.766	-9.44
221.144	-40.64
221.523	-42.86
221.902	-37.13
222.28	-26.61
222.659	-20.51
223.037	2.09
223.416	-14.31
223.794	-29.24
224.173	-12.58
224.551	-0.18
224.929	-0.06
225.308	-4
225.686	-13.49
226.064	-11.41
226.442	-12.1
226.821	-7.26
227.199	-7.11
227.577	-8.61
227.955	-9.19
228.333	-12.52
228.711	-8.48
229.089	-2.85
229.467	-2.7
229.845	-3
230.222	-5.74
230.6	-6.05
230.978	-6.79
231.356	-2.95
231.733	-2.56
232.111	-2.29
232.488	-3.92
232.866	-2.06
233.243	-0.32
233.621	0.91
233.998	1.99
234.376	1.82
234.753	2.1
235.13	1.75
235.508	3.43
235.885	2.3
236.262	3.65
236.639	3.11
237.016	4.69
237.393	5.14
237.77	5.76
238.147	7.44
238.524	7.87
238.901	8.31
239.278	8.35
239.655	8.1
240.032	8.72
240.409	8.41
240.785	7.93
241.162	6.96
241.539	6.6
241.915	6.51
242.292	6.23
242.668	6.24
243.045	6.22
243.421	6.18
243.798	6.45
244.174	6.14
244.551	6.11
244.927	5.66
245.303	5.81
245.679	5.89
246.056	5.77
246.432	5.76
246.808	5.58
247.184	5.21
247.56	5.12
247.936	4.86
248.312	4.85
248.688	4.83
249.064	4.74
249.44	4.72
249.815	4.54
250.191	4.79
250.567	4.74
250.943	4.65
251.318	4.75
251.694	4.7
252.069	4.49
252.445	4.26
252.82	4.26
253.196	3.99
253.571	3.44
253.947	3.12
254.322	3.17
254.697	3.06
255.073	3.34
255.448	3.37
255.823	3.66
256.198	3.79
256.573	3.81
256.948	4.04
257.323	4.21
257.698	4.11
258.073	4.02
258.448	3.97
258.823	4.07
259.198	4.01
259.573	3.86
259.948	3.88
260.322	3.99
260.697	3.92
261.072	3.93
261.446	4.07
261.821	4.17
262.195	4.21
262.57	4.22
262.944	4.1
263.319	4.04
263.693	3.79
264.067	3.86
264.442	3.87
264.816	3.9
265.19	3.82
265.564	3.92
265.938	3.78
266.313	3.87
266.687	3.95
267.061	3.83
267.435	3.84
267.809	3.99
268.183	3.89
268.556	3.86
268.93	3.81
269.304	3.83
269.678	4.01
270.051	3.7
270.425	3.75
270.799	3.8
271.172	3.69
271.546	3.59
271.919	3.49
272.293	3.56
272.666	3.45
273.04	3.39
273.413	3.41
273.787	3.57
274.16	3.56
274.533	3.51
274.906	3.4
275.279	3.38
275.653	3.28
276.026	3.41
276.399	3.52
276.772	3.62
277.145	3.6
277.518	3.45
277.891	3.7
278.263	3.75
278.636	3.75
279.009	3.87
279.382	4.18
279.755	4.07
280.127	4.1
280.5	4.14
280.872	4.14
281.245	4.01
281.617	4.01
281.99	4.05
282.362	3.92
282.735	3.99
283.107	4.1
283.479	4.26
283.852	4.18
284.224	4.17
284.596	4.11
284.968	4.16
285.34	4.17
285.713	4.06
286.085	3.98
286.457	4.02
286.829	4.11
287.201	4.06
287.572	4.03
287.944	3.97
288.316	3.91
288.688	3.86
289.06	4.02
289.431	4.07
289.803	4.01
290.175	4.11
290.546	4.25
290.918	4.15
291.289	4.07
291.661	4.13
292.032	4.18
292.403	4.22
292.775	4.3
293.146	4.38
293.517	4.36
293.889	4.49
294.26	4.56
294.631	4.57
295.002	4.51
295.373	4.63
295.744	4.73
296.115	4.81
296.486	4.88
296.857	4.73
297.228	4.81
297.599	4.85
297.97	4.94
298.34	4.98
298.711	5.11
299.082	5.19
299.452	5.22
299.823	5.27
300.194	5.33
300.564	5.33
300.935	5.24
301.305	5.37
301.676	5.4
302.046	5.46
302.416	5.63
302.787	5.7
303.157	5.83
303.527	5.84
303.897	6.01
304.267	6.18
304.637	6.41
305.008	6.42
305.378	6.61
305.748	6.61
306.117	6.53
306.487	6.65
306.857	6.7
307.227	6.76
307.597	6.75
307.967	6.8
308.336	6.88
308.706	7.05
309.076	7.02
309.445	7.03
309.815	7.06
310.184	6.95
310.554	7.13
310.923	7.11
311.293	7.17
311.662	7.14
312.031	7.11
312.401	7.2
312.77	7.22
313.139	7.29
313.508	7.42
313.877	7.5
314.246	7.62
314.616	7.69
314.985	7.8
315.353	7.96
315.722	8.09
316.091	8.06
316.46	8.2
316.829	8.24
317.198	8.28
317.567	8.37
317.935	8.48
318.304	8.49
318.672	8.56
319.041	8.69
319.41	8.75
319.778	8.88
320.147	8.82
320.515	8.89
320.883	8.94
321.252	8.88
321.62	9.08
321.988	8.95
322.357	8.99
322.725	8.99
323.093	8.88
323.461	8.93
323.829	8.99
324.197	9.12
324.565	9.25
324.933	9.36
325.301	9.46
325.669	9.5
326.037	9.5
326.405	9.45
326.772	9.42
327.14	9.69
327.508	9.68
327.875	9.65
328.243	9.62
328.61	9.64
328.978	9.79
329.346	9.71
329.713	9.64
330.08	9.67
330.448	9.66
330.815	9.77
331.182	9.79
331.55	9.87
331.917	9.72
332.284	9.91
332.651	9.87
333.018	9.85
333.385	9.97
333.752	10.1
334.119	10.31
334.486	10.4
334.853	10.26
335.22	10.45
335.587	10.76
335.954	10.72
336.32	10.69
336.687	10.73
337.054	10.84
337.42	11.1
337.787	11.19
338.153	11.4
338.52	11.45
338.886	11.39
339.253	11.43
339.619	11.42
339.986	11.41
340.352	11.56
340.718	11.6
341.084	11.66
341.451	11.74
341.817	11.79
342.183	11.78
342.549	11.73
342.915	11.73
343.281	11.66
343.647	11.72
344.013	11.67
344.379	11.58
344.745	11.63
345.11	11.65
345.476	11.7
345.842	11.66
346.208	11.76
346.573	11.84
346.939	11.91
347.304	12
347.67	11.98
348.035	11.92
348.401	11.88
348.766	11.82
349.132	11.71
349.497	11.62
349.862	11.65
350.228	11.68
350.593	11.54
350.958	11.6
351.323	11.54
351.688	11.62
352.053	11.74
352.418	11.7
352.783	11.72
353.148	11.62
353.513	11.61
353.878	11.6
354.243	11.59
354.608	11.49
354.972	11.49
355.337	11.56
355.702	11.68
356.066	11.72
356.431	11.7
356.795	11.71
357.16	11.73
357.524	11.64
357.889	11.65
358.253	11.59
358.618	11.49
358.982	11.48
359.346	11.39
359.71	11.32
360.075	11.27
360.439	11.18
360.803	11.15
361.167	11.09
361.531	11.01
361.895	10.93
362.259	10.9
362.623	10.85
362.987	10.72
363.351	10.59
363.714	10.57
364.078	10.49
364.442	10.38
364.806	10.31
365.169	10.33
365.533	10.28
365.896	10.33
366.26	10.26
366.623	10.24
366.987	10.23
367.35	10.16
367.714	10.08
368.077	9.98
368.44	9.93
368.803	9.84
369.167	9.72
369.53	9.68
369.893	9.66
370.256	9.54
370.619	9.51
370.982	9.36
371.345	9.24
371.708	9.21
372.071	9.17
372.434	9.08
372.797	8.94
373.159	8.83
373.522	8.73
373.885	8.71
374.247	8.66
374.61	8.6
374.973	8.55
375.335	8.45
375.698	8.44
376.06	8.35
376.423	8.31
376.785	8.28
377.147	8.29
377.51	8.22
377.872	8.23
378.234	8.19
378.596	8.23
378.958	8.15
379.321	8.14
379.683	8.08
380.045	8.07
380.407	8.04
380.769	7.99
381.13	7.97
381.492	7.84
381.854	7.81
382.216	7.71
382.578	7.69
382.939	7.65
383.301	7.54
383.663	7.45
384.024	7.36
384.386	7.33
384.747	7.26
385.109	7.22
385.47	7.15
385.832	7.15
386.193	7.09
386.554	7.02
386.916	6.94
387.277	6.88
387.638	6.85
387.999	6.81
388.36	6.78
388.721	6.7
389.082	6.7
389.443	6.66
389.804	6.61
390.165	6.52
390.526	6.5
390.887	6.47
391.248	6.48
391.609	6.48
391.969	6.42
392.33	6.35
392.691	6.27
393.051	6.21
393.412	6.11
393.772	6.01
394.133	6.02
394.493	5.97
394.854	5.95
395.214	5.88
395.574	5.8
395.935	5.74
396.295	5.71
396.655	5.64
397.015	5.57
397.376	5.55
397.736	5.48
398.096	5.45
398.456	5.45
398.816	5.42
399.176	5.36
399.535	5.32
399.895	5.28
400.255	5.26
400.615	5.24
400.975	5.22
401.334	5.2
401.694	5.16
402.054	5.11
402.413	5.06
402.773	5.01
403.132	5.01
403.492	4.97
403.851	4.93
404.211	4.93
404.57	4.88
404.929	4.85
405.288	4.84
405.648	4.8
406.007	4.75
406.366	4.72
406.725	4.72
407.084	4.71
407.443	4.68
407.802	4.7
408.161	4.67
408.52	4.64
408.879	4.62
409.238	4.61
409.596	4.59
409.955	4.58
410.314	4.56
410.673	4.56
411.031	4.57
411.39	4.58
411.748	4.55
412.107	4.54
412.465	4.54
412.824	4.52
413.182	4.48
413.54	4.45
413.899	4.44
414.257	4.41
414.615	4.39
414.974	4.4
415.332	4.36
415.69	4.34
416.048	4.32
416.406	4.32
416.764	4.29
417.122	4.29
417.48	4.26
417.838	4.24
418.195	4.21
418.553	4.19
418.911	4.16
419.269	4.13
419.626	4.11
419.984	4.09
420.342	4.08
420.699	4.07
421.057	4.05
421.414	4.02
421.772	4.01
422.129	4
422.486	3.98
422.844	3.98
423.201	3.95
423.558	3.93
423.915	3.91
424.273	3.91
424.63	3.9
424.987	3.88
425.344	3.87
425.701	3.87
426.058	3.86
426.415	3.86
426.772	3.87
427.128	3.85
427.485	3.84
427.842	3.81
428.199	3.8
428.555	3.8
428.912	3.81
429.269	3.8
429.625	3.78
429.982	3.77
430.338	3.76
430.695	3.76
431.051	3.75
431.407	3.76
431.764	3.74
432.12	3.72
432.476	3.73
432.832	3.73
433.189	3.73
433.545	3.71
433.901	3.7
434.257	3.7
434.613	3.71
434.969	3.73
435.325	3.74
435.681	3.75
436.036	3.76
436.392	3.74
436.748	3.74
437.104	3.72
437.459	3.72
437.815	3.71
438.171	3.72
438.526	3.71
438.882	3.7
439.237	3.72
439.593	3.71
439.948	3.7
440.304	3.69
440.659	3.68
441.014	3.7
441.369	3.68
441.725	3.65
442.08	3.64
442.435	3.63
442.79	3.62
443.145	3.58
443.5	3.56
443.855	3.57
444.21	3.55
444.565	3.56
444.92	3.55
445.275	3.52
445.629	3.51
445.984	3.51
446.339	3.49
446.693	3.46
447.048	3.46
447.403	3.46
447.757	3.44
448.112	3.44
448.466	3.41
448.82	3.42
449.175	3.42
449.529	3.4
449.883	3.39
450.238	3.38
450.592	3.39
450.946	3.37
451.3	3.36
451.654	3.36
452.008	3.35
452.362	3.35
452.716	3.38
453.07	3.4
453.424	3.42
453.778	3.41
454.132	3.42
454.486	3.41
454.839	3.4
455.193	3.41
455.547	3.41
455.9	3.42
456.254	3.42
456.607	3.41
456.961	3.43
457.314	3.42
457.668	3.42
458.021	3.42
458.375	3.42
458.728	3.43
459.081	3.43
459.434	3.43
459.787	3.43
460.141	3.43
460.494	3.43
460.847	3.43
461.2	3.43
461.553	3.46
461.906	3.49
462.259	3.5
462.611	3.49
462.964	3.51
463.317	3.53
463.67	3.53
464.022	3.55
464.375	3.55
464.728	3.59
465.08	3.63
465.433	3.64
465.785	3.64
466.138	3.64
466.49	3.65
466.843	3.67
467.195	3.66
467.547	3.67
467.899	3.69
468.252	3.68
468.604	3.7
468.956	3.68
469.308	3.69
469.66	3.71
470.012	3.72
470.364	3.74
470.716	3.73
471.068	3.74
471.42	3.72
471.772	3.75
472.123	3.75
472.475	3.74
472.827	3.76
473.178	3.79
473.53	3.79
473.882	3.81
474.233	3.83
474.585	3.84
474.936	3.83
475.288	3.81
475.639	3.81
475.99	3.8
476.342	3.79
476.693	3.79
477.044	3.79
477.395	3.79
477.746	3.74
478.097	3.73
478.448	3.73
478.8	3.74
479.15	3.71
479.501	3.7
479.852	3.7
480.203	3.69
480.554	3.69
480.905	3.69
481.255	3.69
481.606	3.68
481.957	3.67
482.307	3.66
482.658	3.67
483.009	3.67
483.359	3.67
483.709	3.67
484.06	3.67
484.41	3.67
484.761	3.67
485.111	3.69
485.461	3.7
485.811	3.71
486.162	3.71
486.512	3.73
486.862	3.74
487.212	3.73
487.562	3.74
487.912	3.75
488.262	3.75
488.612	3.75
488.961	3.76
489.311	3.78
489.661	3.79
490.011	3.8
490.36	3.81
490.71	3.82
491.06	3.82
491.409	3.83
491.759	3.83
492.108	3.85
492.458	3.84
492.807	3.85
493.157	3.86
493.506	3.87
493.855	3.88
494.204	3.88
494.554	3.9
494.903	3.91
495.252	3.92
495.601	3.94
495.95	3.97
496.299	3.97
496.648	4
496.997	4.03
497.346	4.06
497.695	4.1
498.043	4.13
498.392	4.16
498.741	4.18
499.09	4.22
499.438	4.26
499.787	4.3
500.135	4.34
500.484	4.37
500.832	4.41
501.181	4.45
501.529	4.5
501.878	4.55
502.226	4.62
502.574	4.68
502.923	4.74
503.271	4.76
503.619	4.84
503.967	4.9
504.315	4.97
504.663	5.04
505.011	5.09
505.359	5.14
505.707	5.21
506.055	5.29
506.403	5.37
506.751	5.43
507.098	5.49
507.446	5.61
507.794	5.68
508.141	5.76
508.489	5.82
508.837	5.9
509.184	5.99
509.531	6.06
509.879	6.13
510.226	6.22
510.574	6.29
510.921	6.39
511.268	6.46
511.616	6.53
511.963	6.6
512.31	6.68
512.657	6.78
513.004	6.87
513.351	6.96
513.698	7.08
514.045	7.16
514.392	7.27
514.739	7.35
515.086	7.46
515.432	7.58
515.779	7.67
516.126	7.79
516.473	7.89
516.819	7.99
517.166	8.09
517.512	8.18
517.859	8.3
518.205	8.38
518.552	8.49
518.898	8.59
519.245	8.7
519.591	8.81
519.937	8.92
520.283	9.05
520.629	9.18
520.976	9.28
521.322	9.44
521.668	9.56
522.014	9.71
522.36	9.86
522.706	10
523.052	10.17
523.398	10.36
523.743	10.56
524.089	10.75
524.435	10.92
524.781	11.11
525.126	11.29
525.472	11.44
525.817	11.6
526.163	11.74
526.509	11.89
526.854	12.02
527.199	12.14
527.545	12.24
527.89	12.35
528.235	12.47
528.581	12.6
528.926	12.75
529.271	12.88
529.616	13.01
529.961	13.15
530.306	13.3
530.651	13.43
530.996	13.58
531.341	13.76
531.686	13.94
532.031	14.11
532.376	14.31
532.721	14.5
533.065	14.68
533.41	14.88
533.755	15.07
534.099	15.28
534.444	15.51
534.788	15.75
535.133	16
535.477	16.24
535.822	16.47
536.166	16.74
536.51	17
536.855	17.3
537.199	17.6
537.543	17.9
537.887	18.23
538.231	18.55
538.576	18.87
538.92	19.17
539.264	19.46
539.608	19.71
539.951	19.98
540.295	20.27
540.639	20.51
540.983	20.76
541.327	21
541.671	21.22
542.014	21.45
542.358	21.66
542.701	21.91
543.045	22.16
543.389	22.39
543.732	22.64
544.075	22.89
544.419	23.13
544.762	23.41
545.105	23.67
545.449	23.95
545.792	24.21
546.135	24.48
546.478	24.79
546.821	25.13
547.165	25.46
547.508	25.76
547.851	26.08
548.194	26.41
548.536	26.75
548.879	27.11
549.222	27.46
549.565	27.82
549.908	28.13
550.25	28.43
550.593	28.77
550.936	29.08
551.278	29.38
551.621	29.69
551.963	30
552.306	30.3
552.648	30.58
552.991	30.94
553.333	31.27
553.675	31.56
554.017	31.88
554.36	32.17
554.702	32.47
555.044	32.79
555.386	33.11
555.728	33.39
556.07	33.69
556.412	33.95
556.754	34.23
557.096	34.54
557.438	34.83
557.78	35.15
558.121	35.48
558.463	35.84
558.805	36.18
559.147	36.45
559.488	36.75
559.83	37.03
560.171	37.25
560.513	37.53
560.854	37.8
561.196	38.05
561.537	38.35
561.878	38.6
562.22	38.83
562.561	39.08
562.902	39.33
563.243	39.56
563.584	39.82
563.925	40.09
564.266	40.27
564.607	40.49
564.948	40.65
565.289	40.82
565.63	40.99
565.971	41.17
566.312	41.42
566.653	41.61
566.993	41.9
567.334	42.11
567.675	42.29
568.015	42.48
568.356	42.7
568.696	42.85
569.037	43.06
569.377	43.2
569.718	43.4
570.058	43.6
570.398	43.8
570.739	44.05
571.079	44.15
571.419	44.39
571.759	44.55
572.099	44.69
572.439	44.87
572.779	45.07
573.119	45.24
573.459	45.38
573.799	45.54
574.139	45.62
574.479	45.78
574.819	45.96
575.158	46.11
575.498	46.21
575.838	46.35
576.177	46.48
576.517	46.66
576.856	46.79
577.196	46.9
577.535	47
577.875	47.08
578.214	47.31
578.553	47.47
578.893	47.69
579.232	47.9
579.571	48.11
579.91	48.25
580.25	48.43
580.589	48.57
580.928	48.79
581.267	48.91
581.606	49.09
581.945	49.22
582.283	49.33
582.622	49.47
582.961	49.68
583.3	49.79
583.639	49.97
583.977	50.16
584.316	50.29
584.654	50.47
584.993	50.56
585.332	50.64
585.67	50.67
586.008	50.78
586.347	50.85
586.685	50.9
587.024	50.99
587.362	51.02
587.7	51.1
588.038	51.14
588.376	51.27
588.715	51.35
589.053	51.49
589.391	51.61
589.729	51.71
590.067	51.72
590.404	51.82
590.742	51.84
591.08	51.83
591.418	51.95
591.756	51.99
592.093	52.13
592.431	52.13
592.769	52.2
593.106	52.31
593.444	52.4
593.781	52.52
594.119	52.61
594.456	52.7
594.793	52.73
595.131	52.8
595.468	52.86
595.805	52.89
596.143	52.83
596.48	52.89
596.817	52.94
597.154	53.02
597.491	53.06
597.828	53.18
598.165	53.3
598.502	53.37
598.839	53.39
599.176	53.42
599.512	53.56
599.849	53.68
600.186	53.68
600.523	53.66
600.859	53.72
601.196	53.75
601.532	53.88
601.869	53.99
602.205	54.06
602.542	54.12
602.878	54.13
603.215	54.23
603.551	54.32
603.887	54.3
604.223	54.3
604.56	54.39
604.896	54.32
605.232	54.39
605.568	54.36
605.904	54.44
606.24	54.47
606.576	54.4
606.912	54.43
607.248	54.47
607.583	54.57
607.919	54.5
608.255	54.54
608.591	54.51
608.926	54.52
609.262	54.59
609.597	54.61
609.933	54.63
610.268	54.68
610.604	54.59
610.939	54.72
611.275	54.82
611.61	54.85
611.945	54.97
612.281	54.94
612.616	55.06
612.951	55.1
613.286	55.22
613.621	55.36
613.956	55.44
614.291	55.49
614.626	55.64
614.961	55.81
615.296	55.9
615.631	55.97
615.966	55.97
616.3	55.96
616.635	56.04
616.97	56.2
617.304	56.28
617.639	56.44
617.973	56.41
618.308	56.42
618.642	56.46
618.977	56.58
619.311	56.64
619.646	56.58
619.98	56.69
620.314	56.64
620.648	56.6
620.983	56.52
621.317	56.57
621.651	56.48
621.985	56.56
622.319	56.58
622.653	56.58
622.987	56.6
623.321	56.53
623.655	56.58
623.988	56.58
624.322	56.56
624.656	56.53
624.99	56.59
625.323	56.58
625.657	56.62
625.99	56.6
626.324	56.61
626.657	56.59
626.991	56.5
627.324	56.61
627.658	56.77
627.991	56.83
628.324	56.88
628.657	56.92
628.991	56.81
629.324	56.79
629.657	56.78
629.99	56.9
630.323	56.99
630.656	56.89
630.989	56.96
631.322	57.07
631.655	57.11
631.987	57.16
632.32	57.17
632.653	57.2
632.986	57.23
633.318	57.24
633.651	57.39
633.984	57.54
634.316	57.51
634.649	57.43
634.981	57.48
635.313	57.51
635.646	57.5
635.978	57.63
636.31	57.71
636.643	57.75
636.975	57.75
637.307	57.82
637.639	57.92
637.971	57.89
638.303	57.87
638.635	57.91
638.967	57.97
639.299	58.1
639.631	58.07
639.963	58.06
640.295	58.11
640.626	58.12
640.958	58.16
641.29	58.2
641.621	58.29
641.953	58.33
642.285	58.46
642.616	58.48
642.948	58.47
643.279	58.45
643.61	58.52
643.942	58.63
644.273	58.65
644.604	58.73
644.936	58.69
645.267	58.69
645.598	58.71
645.929	58.7
646.26	58.6
646.591	58.6
646.922	58.63
647.253	58.69
647.584	58.66
647.915	58.64
648.245	58.63
648.576	58.63
648.907	58.68
649.238	58.52
649.568	58.58
649.899	58.66
650.229	58.73
650.56	58.76
650.89	58.7
651.221	58.72
651.551	58.61
651.882	58.64
652.212	58.59
652.542	58.51
652.872	58.54
653.203	58.6
653.533	58.58
653.863	58.57
654.193	58.45
654.523	58.43
654.853	58.47
655.183	58.51
655.513	58.42
655.843	58.36
656.172	58.39
656.502	58.41
656.832	58.43
657.162	58.42
657.491	58.42
657.821	58.44
658.15	58.5
658.48	58.61
658.809	58.72
659.139	58.85
659.468	59.02
659.798	58.95
660.127	58.99
660.456	59.15
660.785	59.19
661.115	59.27
661.444	59.27
661.773	59.15
662.102	59.2
662.431	59.38
662.76	59.4
663.089	59.49
663.418	59.52
663.747	59.59
664.076	59.58
664.404	59.62
664.733	59.61
665.062	59.57
