Data from BA57730_Reflection_00006.txt Node
Date: Mon Nov 18 15:59:34 EST 2019
User: vgr7
Spectrometer: USB2G7710
Scans to average: 3
Trigger mode: 4
Integration Time (sec): 2.000000E-2
Electric dark correction enabled: true
Boxcar width: 10
XAxis mode: Wavelengths
Number of Pixels in Spectrum: 2048
>>>>>Begin Spectral Data<<<<<
177.721	2036.51
178.105	-89.54
178.488	-210.01
178.871	-139.32
179.254	6.72
179.636	-100.34
180.019	41.69
180.402	27.91
180.785	-31.05
181.168	-70.5
181.55	-22.26
181.933	264.85
182.316	134.83
182.698	102.46
183.081	38.61
183.463	17.91
183.846	32.11
184.228	37.94
184.611	68.99
184.993	25.41
185.376	83.44
185.758	4.76
186.14	14.71
186.522	-16.26
186.904	-12.84
187.287	33.66
187.669	-5.08
188.051	67.77
188.433	390.6
188.815	-31.62
189.197	-45.38
189.579	-35.45
189.961	-106.82
190.342	-58.13
190.724	-135.83
191.106	911.59
191.488	38.38
191.869	119.53
192.251	353.69
192.633	459.88
193.014	435.73
193.396	-753.8
193.777	221.21
194.159	229.52
194.54	156.63
194.922	112.51
195.303	151.07
195.684	184.12
196.065	173.19
196.447	190.99
196.828	125.72
197.209	129.18
197.59	102.04
197.971	67.25
198.352	58.26
198.733	106.82
199.114	72.79
199.495	207.71
199.876	109.1
200.257	117.48
200.638	61.35
201.018	-10.89
201.399	26.06
201.78	31.5
202.16	-30.98
202.541	-176.56
202.922	613.99
203.302	625.39
203.683	-3523.19
204.063	369.78
204.444	271.48
204.824	210.26
205.204	626.98
205.585	857.2
205.965	1012.82
206.345	457.94
206.725	354.81
207.106	265.23
207.486	258.96
207.866	293.13
208.246	270.71
208.626	247.23
209.006	324.84
209.386	306.76
209.766	904.41
210.145	-2422.52
210.525	-314.99
210.905	-111.05
211.285	-69.27
211.664	-81.92
212.044	-54.89
212.424	-19.39
212.803	-31.2
213.183	-31.79
213.562	-31.92
213.942	-12.37
214.321	-16.25
214.701	-14.97
215.08	-1.12
215.459	-3.62
215.838	10.27
216.218	4.46
216.597	13.03
216.976	24.25
217.355	44.34
217.734	48.43
218.113	65.92
218.492	75.92
218.871	77.07
219.25	86.94
219.629	97.14
220.008	113.95
220.387	91.19
220.766	87.82
221.144	84.05
221.523	82.12
221.902	65.6
222.28	67.99
222.659	63.06
223.037	59.56
223.416	55.91
223.794	51.38
224.173	45.92
224.551	36.26
224.929	20.86
225.308	15.95
225.686	19.77
226.064	20.01
226.442	19.44
226.821	18.93
227.199	16.31
227.577	11.21
227.955	9.5
228.333	9.96
228.711	14.12
229.089	19.5
229.467	15.99
229.845	19.11
230.222	20.11
230.6	17.49
230.978	16.41
231.356	15.94
231.733	14.81
232.111	16.41
232.488	16.13
232.866	14.54
233.243	13.39
233.621	15.49
233.998	16.67
234.376	15.69
234.753	14.61
235.13	14.06
235.508	16.19
235.885	15
236.262	14.5
236.639	11.91
237.016	10.98
237.393	11.11
237.77	9.5
238.147	9
238.524	9.18
238.901	8.6
239.278	8.11
239.655	7.8
240.032	7.64
240.409	7.16
240.785	7.91
241.162	7.39
241.539	6.69
241.915	5.56
242.292	5.61
242.668	6.06
243.045	5.72
243.421	5.5
243.798	5.85
244.174	5.94
244.551	6.26
244.927	6
245.303	5.92
245.679	6.22
246.056	6.09
246.432	6.15
246.808	6.15
247.184	6.07
247.56	6.04
247.936	5.83
248.312	5.74
248.688	5.64
249.064	5.9
249.44	5.75
249.815	5.72
250.191	5.75
250.567	5.7
250.943	5.83
251.318	5.95
251.694	5.89
252.069	6.02
252.445	5.69
252.82	5.89
253.196	5.95
253.571	5.55
253.947	5.68
254.322	5.55
254.697	5.58
255.073	5.37
255.448	5
255.823	5.13
256.198	5.26
256.573	5.04
256.948	4.85
257.323	4.86
257.698	5.21
258.073	5.19
258.448	5.04
258.823	4.88
259.198	4.75
259.573	4.66
259.948	4.41
260.322	4.62
260.697	4.36
261.072	4.32
261.446	4.5
261.821	4.47
262.195	4.46
262.57	4.46
262.944	4.44
263.319	4.73
263.693	4.75
264.067	4.83
264.442	5.08
264.816	5.18
265.19	5.06
265.564	5.04
265.938	5.1
266.313	5.14
266.687	5.27
267.061	5.48
267.435	5.63
267.809	5.8
268.183	5.66
268.556	5.92
268.93	6.05
269.304	5.92
269.678	5.99
270.051	5.98
270.425	5.98
270.799	6.06
271.172	5.91
271.546	5.8
271.919	5.66
272.293	5.58
272.666	5.58
273.04	5.67
273.413	5.56
273.787	5.55
274.16	5.48
274.533	5.38
274.906	5.13
275.279	4.91
275.653	4.89
276.026	4.9
276.399	4.68
276.772	4.77
277.145	4.68
277.518	4.54
277.891	4.54
278.263	4.45
278.636	4.5
279.009	4.51
279.382	4.75
279.755	4.76
280.127	4.79
280.5	4.86
280.872	5.04
281.245	5.02
281.617	5.16
281.99	5.27
282.362	5.5
282.735	5.6
283.107	5.78
283.479	5.8
283.852	5.76
284.224	5.75
284.596	5.53
284.968	5.62
285.34	5.62
285.713	5.64
286.085	5.65
286.457	5.77
286.829	5.81
287.201	5.69
287.572	5.65
287.944	5.64
288.316	5.53
288.688	5.34
289.06	5.35
289.431	5.28
289.803	5.26
290.175	5.05
290.546	5.15
290.918	5.07
291.289	5.01
291.661	5.09
292.032	5.35
292.403	5.43
292.775	5.57
293.146	5.41
293.517	5.66
293.889	5.68
294.26	5.52
294.631	5.47
295.002	5.44
295.373	5.55
295.744	5.45
296.115	5.52
296.486	5.42
296.857	5.45
297.228	5.43
297.599	5.49
297.97	5.58
298.34	5.47
298.711	5.54
299.082	5.58
299.452	5.71
299.823	5.66
300.194	5.79
300.564	5.64
300.935	5.83
301.305	5.55
301.676	5.56
302.046	5.5
302.416	5.71
302.787	5.84
303.157	5.82
303.527	5.81
303.897	5.73
304.267	6.09
304.637	6.03
305.008	6.02
305.378	6.06
305.748	6.18
306.117	6.15
306.487	6.27
306.857	6.35
307.227	6.17
307.597	6.09
307.967	6.05
308.336	6.08
308.706	6.13
309.076	6.13
309.445	6.11
309.815	6.14
310.184	5.93
310.554	5.89
310.923	5.84
311.293	5.82
311.662	5.75
312.031	5.52
312.401	5.52
312.77	5.56
313.139	5.56
313.508	5.33
313.877	5.35
314.246	5.23
314.616	5.17
314.985	5.22
315.353	5.18
315.722	5.02
316.091	5.12
316.46	5.1
316.829	5.09
317.198	5.17
317.567	5.13
317.935	5.17
318.304	5.21
318.672	5.22
319.041	5.5
319.41	5.67
319.778	5.79
320.147	5.84
320.515	5.73
320.883	5.57
321.252	5.79
321.62	5.9
321.988	5.9
322.357	5.79
322.725	5.67
323.093	5.61
323.461	5.53
323.829	5.4
324.197	5.41
324.565	5.4
324.933	5.39
325.301	5.44
325.669	5.36
326.037	5.26
326.405	5.36
326.772	5.22
327.14	5.22
327.508	5.27
327.875	5.23
328.243	5.28
328.61	5.31
328.978	5.27
329.346	5.17
329.713	5.03
330.08	5.01
330.448	5
330.815	4.92
331.182	5.09
331.55	5.11
331.917	5.14
332.284	5.32
332.651	5.32
333.018	5.28
333.385	5.35
333.752	5.4
334.119	5.37
334.486	5.37
334.853	5.31
335.22	5.2
335.587	5.28
335.954	5.26
336.32	5.22
336.687	5.18
337.054	5.18
337.42	5.25
337.787	5.37
338.153	5.4
338.52	5.53
338.886	5.4
339.253	5.33
339.619	5.21
339.986	5.05
340.352	5.14
340.718	5.17
341.084	5.2
341.451	5.27
341.817	5.25
342.183	5.28
342.549	5.31
342.915	5.35
343.281	5.33
343.647	5.24
344.013	5.36
344.379	5.27
344.745	5.28
345.11	5.23
345.476	5.19
345.842	5.11
346.208	5.09
346.573	5.15
346.939	5.28
347.304	5.26
347.67	5.19
348.035	5.03
348.401	5.04
348.766	4.98
349.132	4.77
349.497	4.78
349.862	4.77
350.228	4.86
350.593	4.86
350.958	4.8
351.323	4.89
351.688	4.83
352.053	4.9
352.418	4.97
352.783	4.99
353.148	4.95
353.513	5
353.878	5
354.243	5.1
354.608	5.08
354.972	5.12
355.337	5.23
355.702	5.35
356.066	5.3
356.431	5.22
356.795	5.41
357.16	5.43
357.524	5.37
357.889	5.29
358.253	5.26
358.618	5.24
358.982	5.19
359.346	5.13
359.71	5.09
360.075	5.03
360.439	5.04
360.803	5.03
361.167	5
361.531	4.95
361.895	4.79
362.259	4.72
362.623	4.75
362.987	4.7
363.351	4.66
363.714	4.74
364.078	4.8
364.442	4.7
364.806	4.6
365.169	4.57
365.533	4.58
365.896	4.62
366.26	4.64
366.623	4.67
366.987	4.66
367.35	4.71
367.714	4.72
368.077	4.64
368.44	4.67
368.803	4.68
369.167	4.65
369.53	4.7
369.893	4.73
370.256	4.73
370.619	4.75
370.982	4.75
371.345	4.77
371.708	4.88
372.071	4.87
372.434	4.91
372.797	4.91
373.159	4.83
373.522	4.79
373.885	4.81
374.247	4.76
374.61	4.8
374.973	4.71
375.335	4.68
375.698	4.77
376.06	4.75
376.423	4.73
376.785	4.81
377.147	4.84
377.51	4.83
377.872	4.82
378.234	4.83
378.596	4.8
378.958	4.68
379.321	4.59
379.683	4.6
380.045	4.56
380.407	4.59
380.769	4.61
381.13	4.6
381.492	4.58
381.854	4.62
382.216	4.58
382.578	4.65
382.939	4.66
383.301	4.63
383.663	4.62
384.024	4.62
384.386	4.67
384.747	4.67
385.109	4.63
385.47	4.64
385.832	4.63
386.193	4.66
386.554	4.7
386.916	4.7
387.277	4.72
387.638	4.76
387.999	4.76
388.36	4.8
388.721	4.79
389.082	4.77
389.443	4.74
389.804	4.76
390.165	4.73
390.526	4.74
390.887	4.74
391.248	4.79
391.609	4.75
391.969	4.67
392.33	4.67
392.691	4.71
393.051	4.7
393.412	4.72
393.772	4.66
394.133	4.65
394.493	4.65
394.854	4.57
395.214	4.57
395.574	4.58
395.935	4.56
396.295	4.57
396.655	4.56
397.015	4.57
397.376	4.57
397.736	4.57
398.096	4.59
398.456	4.56
398.816	4.56
399.176	4.6
399.535	4.59
399.895	4.54
400.255	4.51
400.615	4.51
400.975	4.44
401.334	4.46
401.694	4.44
402.054	4.47
402.413	4.53
402.773	4.51
403.132	4.46
403.492	4.47
403.851	4.48
404.211	4.5
404.57	4.52
404.929	4.53
405.288	4.52
405.648	4.49
406.007	4.5
406.366	4.47
406.725	4.47
407.084	4.49
407.443	4.54
407.802	4.56
408.161	4.56
408.52	4.56
408.879	4.56
409.238	4.57
409.596	4.54
409.955	4.54
410.314	4.56
410.673	4.56
411.031	4.56
411.39	4.52
411.748	4.54
412.107	4.53
412.465	4.53
412.824	4.54
413.182	4.51
413.54	4.51
413.899	4.5
414.257	4.48
414.615	4.47
414.974	4.48
415.332	4.44
415.69	4.46
416.048	4.46
416.406	4.46
416.764	4.47
417.122	4.48
417.48	4.46
417.838	4.49
418.195	4.49
418.553	4.48
418.911	4.5
419.269	4.47
419.626	4.46
419.984	4.46
420.342	4.46
420.699	4.47
421.057	4.46
421.414	4.48
421.772	4.48
422.129	4.5
422.486	4.49
422.844	4.5
423.201	4.47
423.558	4.47
423.915	4.48
424.273	4.48
424.63	4.47
424.987	4.48
425.344	4.45
425.701	4.44
426.058	4.45
426.415	4.44
426.772	4.45
427.128	4.45
427.485	4.43
427.842	4.43
428.199	4.45
428.555	4.45
428.912	4.44
429.269	4.44
429.625	4.42
429.982	4.4
430.338	4.4
430.695	4.41
431.051	4.41
431.407	4.4
431.764	4.41
432.12	4.39
432.476	4.39
432.832	4.38
433.189	4.39
433.545	4.37
433.901	4.37
434.257	4.36
434.613	4.36
434.969	4.37
435.325	4.37
435.681	4.36
436.036	4.37
436.392	4.39
436.748	4.38
437.104	4.36
437.459	4.37
437.815	4.37
438.171	4.38
438.526	4.39
438.882	4.39
439.237	4.38
439.593	4.39
439.948	4.39
440.304	4.41
440.659	4.4
441.014	4.41
441.369	4.41
441.725	4.4
442.08	4.4
442.435	4.4
442.79	4.38
443.145	4.39
443.5	4.36
443.855	4.34
444.21	4.34
444.565	4.36
444.92	4.35
445.275	4.35
445.629	4.35
445.984	4.34
446.339	4.33
446.693	4.32
447.048	4.31
447.403	4.32
447.757	4.31
448.112	4.31
448.466	4.3
448.82	4.3
449.175	4.31
449.529	4.3
449.883	4.27
450.238	4.28
450.592	4.26
450.946	4.27
451.3	4.26
451.654	4.26
452.008	4.26
452.362	4.24
452.716	4.24
453.07	4.24
453.424	4.24
453.778	4.25
454.132	4.25
454.486	4.25
454.839	4.24
455.193	4.21
455.547	4.21
455.9	4.21
456.254	4.22
456.607	4.24
456.961	4.25
457.314	4.27
457.668	4.29
458.021	4.27
458.375	4.29
458.728	4.31
459.081	4.3
459.434	4.3
459.787	4.32
460.141	4.31
460.494	4.3
460.847	4.3
461.2	4.3
461.553	4.3
461.906	4.3
462.259	4.31
462.611	4.34
462.964	4.34
463.317	4.35
463.67	4.34
464.022	4.34
464.375	4.32
464.728	4.31
465.08	4.3
465.433	4.33
465.785	4.35
466.138	4.34
466.49	4.34
466.843	4.34
467.195	4.34
467.547	4.33
467.899	4.35
468.252	4.34
468.604	4.35
468.956	4.35
469.308	4.34
469.66	4.31
470.012	4.31
470.364	4.32
470.716	4.32
471.068	4.31
471.42	4.3
471.772	4.32
472.123	4.33
472.475	4.34
472.827	4.36
473.178	4.35
473.53	4.36
473.882	4.37
474.233	4.37
474.585	4.37
474.936	4.37
475.288	4.37
475.639	4.38
475.99	4.37
476.342	4.36
476.693	4.37
477.044	4.38
477.395	4.39
477.746	4.39
478.097	4.36
478.448	4.36
478.8	4.37
479.15	4.37
479.501	4.39
479.852	4.39
480.203	4.38
480.554	4.38
480.905	4.38
481.255	4.4
481.606	4.4
481.957	4.4
482.307	4.41
482.658	4.41
483.009	4.41
483.359	4.42
483.709	4.43
484.06	4.42
484.41	4.43
484.761	4.43
485.111	4.45
485.461	4.46
485.811	4.47
486.162	4.47
486.512	4.47
486.862	4.45
487.212	4.45
487.562	4.45
487.912	4.44
488.262	4.45
488.612	4.45
488.961	4.44
489.311	4.44
489.661	4.44
490.011	4.44
490.36	4.44
490.71	4.44
491.06	4.44
491.409	4.45
491.759	4.45
492.108	4.44
492.458	4.42
492.807	4.41
493.157	4.41
493.506	4.41
493.855	4.4
494.204	4.42
494.554	4.41
494.903	4.39
495.252	4.41
495.601	4.39
495.95	4.38
496.299	4.4
496.648	4.41
496.997	4.42
497.346	4.42
497.695	4.42
498.043	4.43
498.392	4.41
498.741	4.41
499.09	4.42
499.438	4.43
499.787	4.44
500.135	4.46
500.484	4.45
500.832	4.45
501.181	4.47
501.529	4.46
501.878	4.48
502.226	4.51
502.574	4.5
502.923	4.5
503.271	4.48
503.619	4.5
503.967	4.5
504.315	4.5
504.663	4.49
505.011	4.5
505.359	4.52
505.707	4.53
506.055	4.51
506.403	4.51
506.751	4.53
507.098	4.54
507.446	4.56
507.794	4.56
508.141	4.57
508.489	4.59
508.837	4.61
509.184	4.61
509.531	4.61
509.879	4.62
510.226	4.67
510.574	4.68
510.921	4.66
511.268	4.67
511.616	4.66
511.963	4.67
512.31	4.65
512.657	4.64
513.004	4.66
513.351	4.67
513.698	4.67
514.045	4.65
514.392	4.66
514.739	4.65
515.086	4.68
515.432	4.69
515.779	4.65
516.126	4.65
516.473	4.66
516.819	4.66
517.166	4.64
517.512	4.62
517.859	4.62
518.205	4.62
518.552	4.62
518.898	4.63
519.245	4.63
519.591	4.64
519.937	4.65
520.283	4.65
520.629	4.67
520.976	4.69
521.322	4.7
521.668	4.69
522.014	4.69
522.36	4.69
522.706	4.68
523.052	4.72
523.398	4.71
523.743	4.71
524.089	4.72
524.435	4.71
524.781	4.73
525.126	4.74
525.472	4.74
525.817	4.73
526.163	4.72
526.509	4.73
526.854	4.74
527.199	4.75
527.545	4.75
527.89	4.75
528.235	4.75
528.581	4.76
528.926	4.76
529.271	4.77
529.616	4.76
529.961	4.76
530.306	4.75
530.651	4.75
530.996	4.75
531.341	4.74
531.686	4.76
532.031	4.76
532.376	4.75
532.721	4.76
533.065	4.78
533.41	4.79
533.755	4.78
534.099	4.79
534.444	4.79
534.788	4.78
535.133	4.77
535.477	4.78
535.822	4.76
536.166	4.76
536.51	4.75
536.855	4.78
537.199	4.79
537.543	4.79
537.887	4.81
538.231	4.82
538.576	4.82
538.92	4.8
539.264	4.8
539.608	4.81
539.951	4.82
540.295	4.81
540.639	4.82
540.983	4.83
541.327	4.83
541.671	4.82
542.014	4.82
542.358	4.82
542.701	4.81
543.045	4.82
543.389	4.83
543.732	4.82
544.075	4.83
544.419	4.83
544.762	4.82
545.105	4.82
545.449	4.8
545.792	4.81
546.135	4.83
546.478	4.85
546.821	4.83
547.165	4.83
547.508	4.84
547.851	4.84
548.194	4.82
548.536	4.82
548.879	4.85
549.222	4.87
549.565	4.9
549.908	4.93
550.25	4.94
550.593	4.95
550.936	4.96
551.278	4.95
551.621	4.93
551.963	4.97
552.306	4.96
552.648	4.98
552.991	4.98
553.333	4.96
553.675	4.94
554.017	4.97
554.36	4.99
554.702	4.98
555.044	4.97
555.386	4.99
555.728	4.99
556.07	4.95
556.412	4.91
556.754	4.9
557.096	4.87
557.438	4.86
557.78	4.84
558.121	4.84
558.463	4.85
558.805	4.84
559.147	4.81
559.488	4.83
559.83	4.87
560.171	4.88
560.513	4.9
560.854	4.91
561.196	4.91
561.537	4.91
561.878	4.91
562.22	4.9
562.561	4.89
562.902	4.91
563.243	4.92
563.584	4.96
563.925	4.94
564.266	4.93
564.607	4.93
564.948	4.94
565.289	4.95
565.63	4.95
565.971	4.96
566.312	4.96
566.653	4.95
566.993	4.92
567.334	4.9
567.675	4.92
568.015	4.95
568.356	4.94
568.696	4.93
569.037	4.94
569.377	4.95
569.718	4.97
570.058	4.97
570.398	4.98
570.739	4.95
571.079	4.94
571.419	4.96
571.759	4.95
572.099	4.95
572.439	4.95
572.779	4.93
573.119	4.96
573.459	4.96
573.799	4.99
574.139	4.99
574.479	4.98
574.819	4.96
575.158	4.92
575.498	4.92
575.838	4.9
576.177	4.87
576.517	4.85
576.856	4.85
577.196	4.81
577.535	4.78
577.875	4.81
578.214	4.83
578.553	4.86
578.893	4.87
579.232	4.85
579.571	4.87
579.91	4.84
580.25	4.84
580.589	4.86
580.928	4.87
581.267	4.86
581.606	4.9
581.945	4.88
582.283	4.91
582.622	4.9
582.961	4.94
583.3	4.96
583.639	5.02
583.977	5.03
584.316	5.06
584.654	5.08
584.993	5.06
585.332	5.07
585.67	5.02
586.008	5.04
586.347	5.02
586.685	4.98
587.024	5.01
587.362	4.99
587.7	4.97
588.038	4.95
588.376	4.96
588.715	4.93
589.053	4.96
589.391	4.96
589.729	4.99
590.067	4.98
590.404	4.97
590.742	4.96
591.08	4.95
591.418	4.97
591.756	4.95
592.093	4.95
592.431	4.96
592.769	4.98
593.106	4.96
593.444	4.97
593.781	4.99
594.119	5.03
594.456	5.01
594.793	5.01
595.131	5.03
595.468	5.02
595.805	5.02
596.143	5.01
596.48	5
596.817	4.99
597.154	4.98
597.491	4.99
597.828	5.02
598.165	4.97
598.502	4.93
598.839	4.93
599.176	4.96
599.512	4.93
599.849	4.92
600.186	4.93
600.523	4.97
600.859	4.99
601.196	4.99
601.532	4.98
601.869	4.93
602.205	4.93
602.542	4.94
602.878	4.96
603.215	4.96
603.551	4.99
603.887	5.01
604.223	5
604.56	5
604.896	4.97
605.232	5.04
605.568	5.05
605.904	5.07
606.24	5.09
606.576	5.09
606.912	5.12
607.248	5.09
607.583	5.09
607.919	5.06
608.255	5.04
608.591	5.08
608.926	5.1
609.262	5.12
609.597	5.11
609.933	5.12
610.268	5.15
610.604	5.11
610.939	5.1
611.275	5.12
611.61	5.13
611.945	5.16
612.281	5.13
612.616	5.17
612.951	5.18
613.286	5.13
613.621	5.13
613.956	5.13
614.291	5.2
614.626	5.2
614.961	5.21
615.296	5.21
615.631	5.22
615.966	5.25
616.3	5.22
616.635	5.2
616.97	5.19
617.304	5.18
617.639	5.21
617.973	5.21
618.308	5.19
618.642	5.2
618.977	5.13
619.311	5.12
619.646	5.07
619.98	5.04
620.314	5.09
620.648	5.13
620.983	5.14
621.317	5.13
621.651	5.16
621.985	5.17
622.319	5.19
622.653	5.2
622.987	5.18
623.321	5.19
623.655	5.26
623.988	5.27
624.322	5.23
624.656	5.24
624.99	5.23
625.323	5.23
625.657	5.25
625.99	5.29
626.324	5.28
626.657	5.31
626.991	5.35
627.324	5.29
627.658	5.29
627.991	5.28
628.324	5.27
628.657	5.28
628.991	5.27
629.324	5.27
629.657	5.3
629.99	5.34
630.323	5.34
630.656	5.27
630.989	5.31
631.322	5.31
631.655	5.24
631.987	5.24
632.32	5.26
632.653	5.21
632.986	5.19
633.318	5.21
633.651	5.22
633.984	5.2
634.316	5.19
634.649	5.14
634.981	5.13
635.313	5.12
635.646	5.13
635.978	5.15
636.31	5.18
636.643	5.15
636.975	5.17
637.307	5.18
637.639	5.22
637.971	5.17
638.303	5.21
638.635	5.24
638.967	5.27
639.299	5.24
639.631	5.27
639.963	5.27
640.295	5.23
640.626	5.28
640.958	5.38
641.29	5.44
641.621	5.46
641.953	5.49
642.285	5.5
642.616	5.5
642.948	5.49
643.279	5.49
643.61	5.47
643.942	5.41
644.273	5.4
644.604	5.36
644.936	5.33
645.267	5.28
645.598	5.29
645.929	5.28
646.26	5.31
646.591	5.32
646.922	5.32
647.253	5.41
647.584	5.37
647.915	5.25
648.245	5.18
648.576	5.27
648.907	5.28
649.238	5.27
649.568	5.19
649.899	5.19
650.229	5.18
650.56	5.22
650.89	5.27
651.221	5.3
651.551	5.34
651.882	5.47
652.212	5.49
652.542	5.52
652.872	5.48
653.203	5.48
653.533	5.5
653.863	5.57
654.193	5.56
654.523	5.53
654.853	5.56
655.183	5.6
655.513	5.53
655.843	5.5
656.172	5.49
656.502	5.49
656.832	5.49
657.162	5.47
657.491	5.46
657.821	5.46
658.15	5.43
658.48	5.39
658.809	5.34
659.139	5.39
659.468	5.37
659.798	5.41
660.127	5.4
660.456	5.42
660.785	5.4
661.115	5.39
661.444	5.43
661.773	5.41
662.102	5.4
662.431	5.4
662.76	5.43
663.089	5.48
663.418	5.55
663.747	5.52
664.076	5.6
664.404	5.57
664.733	5.59
665.062	5.59
665.39	5.61
665.719	5.61
666.048	5.58
666.376	5.58
666.705	5.54
667.033	5.6
667.362	5.58
667.69	5.48
668.018	5.42
668.347	5.35
668.675	5.36
669.003	5.39
669.331	5.52
669.659	5.52
669.987	5.46
670.315	5.39
670.643	5.41
670.971	5.33
671.299	5.35
671.627	5.3
671.955	5.3
672.283	5.34
672.61	5.29
672.938	5.23
673.266	5.27
673.593	5.46
673.921	5.36
674.249	5.42
674.576	5.49
674.904	5.52
675.231	5.53
675.558	5.54
675.886	5.47
676.213	5.31
676.54	5.33
676.867	5.38
677.195	5.43
677.522	5.43
677.849	5.48
