Data from BA57712_Reflection_00015.txt Node
Date: Mon Nov 18 15:19:51 EST 2019
User: vgr7
Spectrometer: USB2G7710
Scans to average: 3
Trigger mode: 4
Integration Time (sec): 2.000000E-2
Electric dark correction enabled: true
Boxcar width: 10
XAxis mode: Wavelengths
Number of Pixels in Spectrum: 2048
>>>>>Begin Spectral Data<<<<<
177.721	-3.85
178.105	-72.16
178.488	25.82
178.871	116.87
179.254	131.2
179.636	92.69
180.019	54.9
180.402	38.64
180.785	87.22
181.168	-1038.89
181.55	-189.18
181.933	-4.05
182.316	19.92
182.698	3.86
183.081	-38.77
183.463	-38.64
183.846	-36.86
184.228	-6.9
184.611	21.12
184.993	-7.96
185.376	-36.17
185.758	0.06
186.14	-27.29
186.522	28.93
186.904	115.75
187.287	149.36
187.669	233.57
188.051	300.58
188.433	292.63
188.815	218.44
189.197	637.95
189.579	-638.67
189.961	-276.65
190.342	-335.07
190.724	-304.48
191.106	-353.04
191.488	-160.26
191.869	-125.78
192.251	-141.42
192.633	-96.99
193.014	-170.39
193.396	-243.87
193.777	-269.37
194.159	-379.81
194.54	-193.51
194.922	-111.84
195.303	-78.11
195.684	-98.21
196.065	-81.48
196.447	-56.31
196.828	-64.42
197.209	-54.87
197.59	-63.77
197.971	-51.64
198.352	-22.95
198.733	-42.77
199.114	-25.36
199.495	-18.53
199.876	-18.69
200.257	-6.37
200.638	-10.58
201.018	-10.25
201.399	-12.17
201.78	-4.65
202.16	10.82
202.541	-2.22
202.922	-13.96
203.302	-37.36
203.683	-25.82
204.063	-28.52
204.444	-33.79
204.824	-21.65
205.204	-16.14
205.585	-16.45
205.965	4.09
206.345	-16.73
206.725	7.89
207.106	-51.15
207.486	-398.71
207.866	154.08
208.246	115.69
208.626	87.21
209.006	88.36
209.386	157.31
209.766	154.92
210.145	104.83
210.525	123.74
210.905	131.2
211.285	28.48
211.664	47.25
212.044	-125.4
212.424	-158.57
212.803	-16.81
213.183	-18.17
213.562	64.19
213.942	31.42
214.321	268.25
214.701	33.33
215.08	54.52
215.459	68.48
215.838	64.2
216.218	59.41
216.597	55.83
216.976	55.83
217.355	57.79
217.734	51.27
218.113	44.41
218.492	46.38
218.871	36.86
219.25	42.51
219.629	53.25
220.008	36.04
220.387	23.48
220.766	8.48
221.144	-9.04
221.523	-40.46
221.902	-55.84
222.28	-62.5
222.659	-32.72
223.037	-33.92
223.416	-55.34
223.794	-43.2
224.173	-65.07
224.551	-56.17
224.929	-59.09
225.308	-37.57
225.686	-25.82
226.064	-28.48
226.442	-23.54
226.821	-11.21
227.199	-14.84
227.577	-14.66
227.955	-12.13
228.333	-10.51
228.711	-9.58
229.089	-3.82
229.467	-1.59
229.845	-2.41
230.222	-3.55
230.6	-5.75
230.978	-4.79
231.356	-1.07
231.733	-1.15
232.111	2.84
232.488	4.41
232.866	5.27
233.243	5.59
233.621	5.06
233.998	7.1
234.376	6.26
234.753	3.42
235.13	4.38
235.508	5.4
235.885	4.33
236.262	3.29
236.639	4.07
237.016	3.11
237.393	4.72
237.77	5.58
238.147	5.75
238.524	6.15
238.901	6.27
239.278	5.67
239.655	5.91
240.032	5.69
240.409	5.24
240.785	4.78
241.162	4.63
241.539	4.65
241.915	4.54
242.292	4.33
242.668	4.95
243.045	4.64
243.421	4.46
243.798	4.48
244.174	4.77
244.551	4.59
244.927	4.48
245.303	4.41
245.679	4.53
246.056	4.52
246.432	4.36
246.808	4.39
247.184	4.2
247.56	4.09
247.936	3.93
248.312	3.96
248.688	4.13
249.064	4.12
249.44	4.13
249.815	4.01
250.191	4.13
250.567	4.14
250.943	4.31
251.318	4.54
251.694	4.73
252.069	4.61
252.445	4.82
252.82	4.87
253.196	4.74
253.571	4.76
253.947	4.76
254.322	4.94
254.697	4.71
255.073	4.71
255.448	4.49
255.823	4.37
256.198	4.46
256.573	4.46
256.948	4.72
257.323	4.89
257.698	4.97
258.073	5.09
258.448	4.97
258.823	4.85
259.198	4.59
259.573	4.59
259.948	4.65
260.322	4.73
260.697	4.73
261.072	4.79
261.446	4.64
261.821	4.64
262.195	4.57
262.57	4.43
262.944	4.5
263.319	4.64
263.693	4.68
264.067	4.62
264.442	4.68
264.816	4.44
265.19	4.17
265.564	4.22
265.938	4.19
266.313	4.13
266.687	4.44
267.061	4.68
267.435	4.7
267.809	4.66
268.183	4.75
268.556	4.83
268.93	4.75
269.304	4.87
269.678	4.92
270.051	4.84
270.425	5.07
270.799	5.03
271.172	5.05
271.546	5.12
271.919	4.94
272.293	4.8
272.666	4.96
273.04	5.13
273.413	5.07
273.787	5.07
274.16	5.12
274.533	4.94
274.906	4.91
275.279	4.8
275.653	4.98
276.026	4.82
276.399	4.87
276.772	5.05
277.145	4.97
277.518	4.97
277.891	5.1
278.263	5.04
278.636	5.06
279.009	5.01
279.382	5.09
279.755	5.23
280.127	5.25
280.5	5.29
280.872	5.29
281.245	5.23
281.617	5.2
281.99	5.23
282.362	5.29
282.735	5.15
283.107	5.09
283.479	5.08
283.852	5.07
284.224	5.05
284.596	4.81
284.968	4.92
285.34	5
285.713	5.05
286.085	5.16
286.457	5.24
286.829	5.28
287.201	5.18
287.572	5.2
287.944	5.2
288.316	5.05
288.688	5.05
289.06	5.04
289.431	5.05
289.803	5.05
290.175	5.11
290.546	5.32
290.918	5.42
291.289	5.34
291.661	5.5
292.032	5.64
292.403	5.83
292.775	5.75
293.146	5.77
293.517	5.7
293.889	5.73
294.26	5.91
294.631	5.87
295.002	6.01
295.373	6.08
295.744	6.21
296.115	6.44
296.486	6.4
296.857	6.54
297.228	6.72
297.599	6.77
297.97	6.78
298.34	6.85
298.711	7.01
299.082	7.09
299.452	7.15
299.823	7.26
300.194	7.33
300.564	7.53
300.935	7.62
301.305	7.79
301.676	7.9
302.046	7.87
302.416	8.13
302.787	8.28
303.157	8.39
303.527	8.58
303.897	8.6
304.267	8.89
304.637	9.01
305.008	9.03
305.378	9.08
305.748	9.27
306.117	9.37
306.487	9.44
306.857	9.66
307.227	9.63
307.597	9.77
307.967	9.95
308.336	10.01
308.706	10.23
309.076	10.33
309.445	10.54
309.815	10.69
310.184	10.75
310.554	10.91
310.923	11.03
311.293	11.11
311.662	11.24
312.031	11.36
312.401	11.57
312.77	11.65
313.139	12.02
313.508	12.02
313.877	12.09
314.246	12.15
314.616	12.21
314.985	12.49
315.353	12.52
315.722	12.73
316.091	12.97
316.46	12.97
316.829	13.19
317.198	13.23
317.567	13.32
317.935	13.5
318.304	13.62
318.672	13.75
319.041	14.03
319.41	14.13
319.778	14.15
320.147	14.2
320.515	14.44
320.883	14.38
321.252	14.69
321.62	14.94
321.988	15.04
322.357	15.09
322.725	15.09
323.093	15.16
323.461	15.2
323.829	15.21
324.197	15.37
324.565	15.46
324.933	15.65
325.301	15.71
325.669	15.69
326.037	15.75
326.405	15.93
326.772	15.76
327.14	15.92
327.508	16.12
327.875	16.12
328.243	16.23
328.61	16.37
328.978	16.53
329.346	16.65
329.713	16.75
330.08	16.91
330.448	17.17
330.815	17.15
331.182	17.18
331.55	17.34
331.917	17.45
332.284	17.56
332.651	17.63
333.018	17.81
333.385	17.97
333.752	17.98
334.119	18.01
334.486	18.13
334.853	18
335.22	18.04
335.587	18.26
335.954	18.22
336.32	18.18
336.687	18.15
337.054	18.08
337.42	18.22
337.787	18.32
338.153	18.33
338.52	18.48
338.886	18.46
339.253	18.5
339.619	18.49
339.986	18.42
340.352	18.44
340.718	18.39
341.084	18.38
341.451	18.6
341.817	18.71
342.183	18.79
342.549	18.79
342.915	18.74
343.281	18.78
343.647	18.77
344.013	18.81
344.379	18.74
344.745	18.86
345.11	18.9
345.476	18.86
345.842	18.88
346.208	18.94
346.573	19
346.939	19.01
347.304	18.98
347.67	18.96
348.035	18.93
348.401	18.96
348.766	18.92
349.132	18.72
349.497	18.64
349.862	18.63
350.228	18.81
350.593	18.86
350.958	18.73
351.323	18.78
351.688	18.69
352.053	18.78
352.418	18.72
352.783	18.68
353.148	18.67
353.513	18.62
353.878	18.58
354.243	18.71
354.608	18.73
354.972	18.8
355.337	18.87
355.702	18.93
356.066	18.98
356.431	19.03
356.795	19.12
357.16	19.11
357.524	19.08
357.889	19.02
358.253	18.93
358.618	18.88
358.982	18.88
359.346	18.84
359.71	18.72
360.075	18.7
360.439	18.65
360.803	18.68
361.167	18.66
361.531	18.6
361.895	18.45
362.259	18.35
362.623	18.28
362.987	18.19
363.351	18.1
363.714	18.04
364.078	18.02
364.442	17.86
364.806	17.81
365.169	17.8
365.533	17.68
365.896	17.64
366.26	17.59
366.623	17.46
366.987	17.41
367.35	17.36
367.714	17.25
368.077	17.14
368.44	17.03
368.803	16.88
369.167	16.76
369.53	16.69
369.893	16.69
370.256	16.51
370.619	16.49
370.982	16.39
371.345	16.22
371.708	16.06
372.071	16.01
372.434	15.83
372.797	15.68
373.159	15.57
373.522	15.49
373.885	15.43
374.247	15.41
374.61	15.29
374.973	15.22
375.335	15.12
375.698	15.02
376.06	14.87
376.423	14.74
376.785	14.69
377.147	14.62
377.51	14.5
377.872	14.51
378.234	14.36
378.596	14.3
378.958	14.21
379.321	14.18
379.683	14.11
380.045	14.07
380.407	13.94
380.769	13.86
381.13	13.83
381.492	13.76
381.854	13.61
382.216	13.52
382.578	13.51
382.939	13.42
383.301	13.32
383.663	13.26
384.024	13.22
384.386	13.2
384.747	13.17
385.109	13.06
385.47	12.92
385.832	12.82
386.193	12.72
386.554	12.67
386.916	12.59
387.277	12.52
387.638	12.48
387.999	12.4
388.36	12.4
388.721	12.27
389.082	12.16
389.443	12.08
389.804	12.06
390.165	11.9
390.526	11.79
390.887	11.76
391.248	11.65
391.609	11.59
391.969	11.48
392.33	11.33
392.691	11.28
393.051	11.23
393.412	11.17
393.772	11.06
394.133	10.96
394.493	10.86
394.854	10.75
395.214	10.62
395.574	10.56
395.935	10.46
396.295	10.39
396.655	10.33
397.015	10.31
397.376	10.24
397.736	10.17
398.096	10.06
398.456	9.97
398.816	9.9
399.176	9.79
399.535	9.74
399.895	9.69
400.255	9.61
400.615	9.55
400.975	9.5
401.334	9.45
401.694	9.4
402.054	9.33
402.413	9.29
402.773	9.24
403.132	9.15
403.492	9.07
403.851	8.98
404.211	8.92
404.57	8.8
404.929	8.74
405.288	8.72
405.648	8.71
406.007	8.68
406.366	8.66
406.725	8.65
407.084	8.58
407.443	8.58
407.802	8.56
408.161	8.51
408.52	8.45
408.879	8.43
409.238	8.4
409.596	8.38
409.955	8.34
410.314	8.35
410.673	8.35
411.031	8.32
411.39	8.29
411.748	8.28
412.107	8.26
412.465	8.21
412.824	8.15
413.182	8.13
413.54	8.09
413.899	8.07
414.257	8.01
414.615	7.95
414.974	7.89
415.332	7.86
415.69	7.82
416.048	7.79
416.406	7.73
416.764	7.66
417.122	7.61
417.48	7.55
417.838	7.49
418.195	7.42
418.553	7.38
418.911	7.34
419.269	7.29
419.626	7.26
419.984	7.21
420.342	7.17
420.699	7.12
421.057	7.07
421.414	7.02
421.772	6.98
422.129	6.96
422.486	6.91
422.844	6.87
423.201	6.82
423.558	6.78
423.915	6.73
424.273	6.71
424.63	6.67
424.987	6.64
425.344	6.61
425.701	6.61
426.058	6.58
426.415	6.55
426.772	6.52
427.128	6.48
427.485	6.46
427.842	6.45
428.199	6.45
428.555	6.44
428.912	6.44
429.269	6.42
429.625	6.4
429.982	6.39
430.338	6.38
430.695	6.4
431.051	6.41
431.407	6.41
431.764	6.4
432.12	6.4
432.476	6.4
432.832	6.38
433.189	6.36
433.545	6.33
433.901	6.34
434.257	6.33
434.613	6.35
434.969	6.35
435.325	6.33
435.681	6.31
436.036	6.3
436.392	6.29
436.748	6.29
437.104	6.28
437.459	6.29
437.815	6.28
438.171	6.25
438.526	6.26
438.882	6.28
439.237	6.27
439.593	6.27
439.948	6.26
440.304	6.26
440.659	6.25
441.014	6.27
441.369	6.25
441.725	6.25
442.08	6.21
442.435	6.21
442.79	6.21
443.145	6.17
443.5	6.15
443.855	6.13
444.21	6.11
444.565	6.08
444.92	6.05
445.275	6.02
445.629	6
445.984	5.96
446.339	5.91
446.693	5.9
447.048	5.88
447.403	5.85
447.757	5.82
448.112	5.8
448.466	5.77
448.82	5.76
449.175	5.74
449.529	5.73
449.883	5.69
450.238	5.67
450.592	5.67
450.946	5.65
451.3	5.62
451.654	5.6
452.008	5.6
452.362	5.58
452.716	5.58
453.07	5.59
453.424	5.59
453.778	5.58
454.132	5.57
454.486	5.56
454.839	5.57
455.193	5.57
455.547	5.56
455.9	5.57
456.254	5.56
456.607	5.57
456.961	5.58
457.314	5.58
457.668	5.58
458.021	5.58
458.375	5.59
458.728	5.62
459.081	5.63
459.434	5.63
459.787	5.64
460.141	5.66
460.494	5.66
460.847	5.68
461.2	5.68
461.553	5.72
461.906	5.73
462.259	5.75
462.611	5.76
462.964	5.79
463.317	5.8
463.67	5.84
464.022	5.86
464.375	5.86
464.728	5.9
465.08	5.94
465.433	5.98
465.785	6.02
466.138	6.03
466.49	6.05
466.843	6.09
467.195	6.11
467.547	6.13
467.899	6.14
468.252	6.16
468.604	6.22
468.956	6.22
469.308	6.24
469.66	6.25
470.012	6.29
470.364	6.32
470.716	6.34
471.068	6.35
471.42	6.36
471.772	6.4
472.123	6.41
472.475	6.41
472.827	6.43
473.178	6.44
473.53	6.47
473.882	6.47
474.233	6.48
474.585	6.49
474.936	6.49
475.288	6.5
475.639	6.49
475.99	6.47
476.342	6.47
476.693	6.48
477.044	6.49
477.395	6.48
477.746	6.43
478.097	6.42
478.448	6.4
478.8	6.39
479.15	6.36
479.501	6.38
479.852	6.35
480.203	6.31
480.554	6.3
480.905	6.28
481.255	6.3
481.606	6.28
481.957	6.27
482.307	6.25
482.658	6.26
483.009	6.26
483.359	6.25
483.709	6.24
484.06	6.24
484.41	6.24
484.761	6.24
485.111	6.24
485.461	6.24
485.811	6.25
486.162	6.26
486.512	6.27
486.862	6.27
487.212	6.27
487.562	6.29
487.912	6.29
488.262	6.3
488.612	6.3
488.961	6.31
489.311	6.32
489.661	6.34
490.011	6.34
490.36	6.36
490.71	6.38
491.06	6.41
491.409	6.42
491.759	6.44
492.108	6.46
492.458	6.5
492.807	6.53
493.157	6.55
493.506	6.58
493.855	6.62
494.204	6.65
494.554	6.7
494.903	6.72
495.252	6.77
495.601	6.82
495.95	6.88
496.299	6.94
496.648	7.01
496.997	7.07
497.346	7.15
497.695	7.22
498.043	7.29
498.392	7.35
498.741	7.43
499.09	7.49
499.438	7.61
499.787	7.69
500.135	7.78
500.484	7.88
500.832	7.97
501.181	8.07
501.529	8.16
501.878	8.28
502.226	8.42
502.574	8.52
502.923	8.66
503.271	8.75
503.619	8.9
503.967	9.04
504.315	9.15
504.663	9.26
505.011	9.37
505.359	9.52
505.707	9.67
506.055	9.81
506.403	9.97
506.751	10.08
507.098	10.24
507.446	10.41
507.794	10.54
508.141	10.67
508.489	10.82
508.837	10.97
509.184	11.11
509.531	11.25
509.879	11.43
510.226	11.57
510.574	11.74
510.921	11.89
511.268	12.03
511.616	12.2
511.963	12.36
512.31	12.54
512.657	12.71
513.004	12.88
513.351	13.04
513.698	13.24
514.045	13.4
514.392	13.59
514.739	13.77
515.086	13.97
515.432	14.18
515.779	14.33
516.126	14.53
516.473	14.72
516.819	14.86
517.166	15.02
517.512	15.17
517.859	15.34
518.205	15.48
518.552	15.65
518.898	15.81
519.245	15.96
519.591	16.13
519.937	16.27
520.283	16.43
520.629	16.62
520.976	16.8
521.322	17.01
521.668	17.2
522.014	17.39
522.36	17.61
522.706	17.83
523.052	18.09
523.398	18.37
523.743	18.64
524.089	18.97
524.435	19.25
524.781	19.52
525.126	19.76
525.472	20.01
525.817	20.25
526.163	20.45
526.509	20.65
526.854	20.82
527.199	20.99
527.545	21.13
527.89	21.28
528.235	21.43
528.581	21.58
528.926	21.75
529.271	21.94
529.616	22.09
529.961	22.26
530.306	22.44
530.651	22.6
530.996	22.79
531.341	22.93
531.686	23.12
532.031	23.33
532.376	23.53
532.721	23.74
533.065	23.91
533.41	24.12
533.755	24.35
534.099	24.58
534.444	24.83
534.788	25.08
535.133	25.33
535.477	25.54
535.822	25.81
536.166	26.08
536.51	26.36
536.855	26.66
537.199	26.98
537.543	27.32
537.887	27.64
538.231	27.98
538.576	28.33
538.92	28.66
539.264	28.9
539.608	29.16
539.951	29.4
540.295	29.66
540.639	29.91
540.983	30.12
541.327	30.36
541.671	30.54
542.014	30.79
542.358	31.02
542.701	31.28
543.045	31.5
543.389	31.69
543.732	31.86
544.075	32.07
544.419	32.27
544.762	32.45
545.105	32.65
545.449	32.84
545.792	33.05
546.135	33.25
546.478	33.55
546.821	33.85
547.165	34.12
547.508	34.4
547.851	34.65
548.194	34.95
548.536	35.21
548.879	35.53
549.222	35.75
549.565	36
549.908	36.3
550.25	36.53
550.593	36.84
550.936	37.15
551.278	37.41
551.621	37.66
551.963	37.96
552.306	38.23
552.648	38.53
552.991	38.79
553.333	39.07
553.675	39.28
554.017	39.51
554.36	39.77
554.702	40
555.044	40.21
555.386	40.4
555.728	40.59
556.07	40.78
556.412	40.96
556.754	41.13
557.096	41.3
557.438	41.54
557.78	41.76
558.121	42.04
558.463	42.24
558.805	42.42
559.147	42.58
559.488	42.72
559.83	42.94
560.171	43.11
560.513	43.24
560.854	43.43
561.196	43.56
561.537	43.8
561.878	43.93
562.22	44.09
562.561	44.27
562.902	44.48
563.243	44.7
563.584	44.87
563.925	45.05
564.266	45.22
564.607	45.38
564.948	45.48
565.289	45.57
565.63	45.7
565.971	45.82
566.312	45.97
566.653	46.1
566.993	46.2
567.334	46.38
567.675	46.53
568.015	46.62
568.356	46.75
568.696	46.81
569.037	46.91
569.377	47.06
569.718	47.19
570.058	47.26
570.398	47.35
570.739	47.5
571.079	47.57
571.419	47.64
571.759	47.77
572.099	47.86
572.439	47.95
572.779	48.09
573.119	48.21
573.459	48.36
573.799	48.45
574.139	48.52
574.479	48.6
574.819	48.65
575.158	48.75
575.498	48.85
575.838	48.92
576.177	49.07
576.517	49.08
576.856	49.25
577.196	49.35
577.535	49.48
577.875	49.56
578.214	49.72
578.553	49.87
578.893	49.92
579.232	50.06
579.571	50.23
579.91	50.4
580.25	50.48
580.589	50.59
580.928	50.76
581.267	50.89
581.606	50.96
581.945	51.12
582.283	51.21
582.622	51.22
582.961	51.32
583.3	51.34
583.639	51.57
583.977	51.57
584.316	51.62
584.654	51.64
584.993	51.71
585.332	51.71
585.67	51.7
586.008	51.75
586.347	51.74
586.685	51.76
587.024	51.68
587.362	51.76
587.7	51.73
588.038	51.71
588.376	51.72
588.715	51.78
589.053	51.87
589.391	51.96
589.729	52.1
590.067	52.09
590.404	52.19
590.742	52.2
591.08	52.21
591.418	52.31
591.756	52.34
592.093	52.38
592.431	52.4
592.769	52.47
593.106	52.49
593.444	52.53
593.781	52.56
594.119	52.63
594.456	52.69
594.793	52.66
595.131	52.74
595.468	52.82
595.805	52.85
596.143	52.79
596.48	52.81
596.817	52.82
597.154	52.86
597.491	52.86
597.828	52.87
598.165	52.94
598.502	52.94
598.839	52.99
599.176	53.09
599.512	53.19
599.849	53.27
600.186	53.31
600.523	53.33
600.859	53.37
601.196	53.4
601.532	53.41
601.869	53.5
602.205	53.47
602.542	53.46
602.878	53.44
603.215	53.52
603.551	53.54
603.887	53.51
604.223	53.53
604.56	53.6
604.896	53.58
605.232	53.65
605.568	53.66
605.904	53.65
606.24	53.59
606.576	53.59
606.912	53.57
607.248	53.58
607.583	53.64
607.919	53.61
608.255	53.68
608.591	53.78
608.926	53.76
609.262	53.78
609.597	53.89
609.933	53.96
610.268	54.01
610.604	54.06
610.939	54.17
611.275	54.24
611.61	54.17
611.945	54.26
612.281	54.21
612.616	54.31
612.951	54.36
613.286	54.45
613.621	54.51
613.956	54.59
614.291	54.73
614.626	54.79
614.961	54.84
615.296	54.87
615.631	54.83
615.966	54.92
616.3	54.91
616.635	54.84
616.97	54.9
617.304	54.93
617.639	54.87
617.973	54.8
618.308	54.81
618.642	54.98
618.977	54.9
619.311	54.94
619.646	54.92
619.98	54.97
620.314	54.9
620.648	54.82
620.983	54.81
621.317	54.68
621.651	54.61
621.985	54.64
622.319	54.66
622.653	54.65
622.987	54.66
623.321	54.7
623.655	54.73
623.988	54.73
624.322	54.72
624.656	54.79
624.99	54.88
625.323	54.89
625.657	54.88
625.99	54.97
626.324	55.01
626.657	55.04
626.991	55.02
627.324	55.13
627.658	55.22
627.991	55.25
628.324	55.4
628.657	55.43
628.991	55.49
629.324	55.47
629.657	55.49
629.99	55.52
630.323	55.58
630.656	55.58
630.989	55.58
631.322	55.64
631.655	55.58
631.987	55.61
632.32	55.54
632.653	55.49
632.986	55.44
633.318	55.33
633.651	55.37
633.984	55.44
634.316	55.38
634.649	55.35
634.981	55.32
635.313	55.26
635.646	55.26
635.978	55.31
636.31	55.37
636.643	55.36
636.975	55.39
637.307	55.42
637.639	55.44
637.971	55.47
638.303	55.48
638.635	55.62
638.967	55.6
639.299	55.74
639.631	55.73
639.963	55.8
640.295	55.91
640.626	55.82
640.958	55.83
641.29	55.84
641.621	55.84
641.953	55.88
642.285	56.03
642.616	56.16
642.948	56.12
643.279	56.12
643.61	56.18
643.942	56.18
644.273	56.19
644.604	56.2
644.936	56.1
645.267	56.05
645.598	55.97
645.929	56.02
646.26	55.95
646.591	55.96
646.922	55.93
647.253	55.91
647.584	55.96
647.915	55.92
648.245	55.95
648.576	56.05
648.907	56
649.238	55.89
649.568	55.83
649.899	55.88
650.229	55.89
650.56	55.89
650.89	55.87
651.221	55.84
651.551	55.86
651.882	55.87
652.212	55.83
652.542	55.79
652.872	55.76
653.203	55.77
653.533	55.8
653.863	55.87
654.193	55.83
654.523	55.93
654.853	56.04
655.183	56.02
655.513	55.95
655.843	56
656.172	56.04
656.502	56.08
656.832	56.16
657.162	56.18
657.491	56.2
657.821	56.26
658.15	56.28
658.48	56.28
658.809	56.26
659.139	56.39
659.468	56.47
659.798	56.39
660.127	56.5
660.456	56.45
660.785	56.47
