Data from BA57748_Reflection_00015.txt Node
Date: Mon Nov 18 15:55:49 EST 2019
User: vgr7
Spectrometer: USB2G7710
Scans to average: 3
Trigger mode: 4
Integration Time (sec): 2.000000E-2
Electric dark correction enabled: true
Boxcar width: 10
XAxis mode: Wavelengths
Number of Pixels in Spectrum: 2048
>>>>>Begin Spectral Data<<<<<
177.721	-43.35
178.105	108.85
178.488	-31.48
178.871	-88.95
179.254	-46.59
179.636	-368.5
180.019	-20.25
180.402	145.45
180.785	108.72
181.168	259.51
181.55	-146.96
181.933	127.48
182.316	125.45
182.698	120.78
183.081	162.46
183.463	170.83
183.846	394.86
184.228	273.31
184.611	279.04
184.993	873.78
185.376	1161.92
185.758	-2071.6
186.14	437.78
186.522	551.06
186.904	278.46
187.287	150.63
187.669	191.88
188.051	196.73
188.433	378.15
188.815	265.67
189.197	180.37
189.579	184.72
189.961	249.67
190.342	225.37
190.724	401.34
191.106	208.79
191.488	-3656.76
191.869	-1167.52
192.251	6417.07
192.633	701.17
193.014	250.6
193.396	229
193.777	169.36
194.159	167.23
194.54	295.15
194.922	1027.6
195.303	-2606.42
195.684	1062.83
196.065	-650.74
196.447	13570.59
196.828	-9416.13
197.209	-9416.13
197.59	4998.31
197.971	1597.3
198.352	-7224.32
198.733	443.45
199.114	1435.88
199.495	227.63
199.876	310.41
200.257	574.86
200.638	-81.31
201.018	-144.33
201.399	-65.34
201.78	-12.56
202.16	-45.33
202.541	-7757.14
202.922	191.93
203.302	107.35
203.683	576.44
204.063	360.8
204.444	753.25
204.824	882.43
205.204	997.67
205.585	603.92
205.965	-929.27
206.345	-1241.97
206.725	-2017.24
207.106	-18900
207.486	-2215.51
207.866	3085.4
208.246	-2119.25
208.626	-2886.75
209.006	-957.83
209.386	1434.55
209.766	1310.53
210.145	1553.53
210.525	3560.18
210.905	-761.89
211.285	-404.9
211.664	-574.02
212.044	-321.9
212.424	-208.5
212.803	-265.3
213.183	-96.46
213.562	-90.83
213.942	-45.45
214.321	-32.38
214.701	-49.44
215.08	-65.98
215.459	-55.8
215.838	-29.62
216.218	-42.86
216.597	-27.31
216.976	-38.11
217.355	-63.96
217.734	-118.66
218.113	-81.46
218.492	-64.96
218.871	-105.75
219.25	-54.46
219.629	-26.02
220.008	-74.52
220.387	-46.53
220.766	-47.65
221.144	-114.24
221.523	-133.63
221.902	-188.47
222.28	-230.64
222.659	-148.34
223.037	-108.35
223.416	-157.31
223.794	-175.54
224.173	-82.47
224.551	-55.63
224.929	-36.75
225.308	-12.69
225.686	-7.19
226.064	-7.22
226.442	-10.55
226.821	-11.22
227.199	-18.93
227.577	-24.78
227.955	-15.47
228.333	-20.44
228.711	-13.65
229.089	-5.03
229.467	-6.73
229.845	-8.55
230.222	-6.82
230.6	-12.56
230.978	-10.61
231.356	-5.67
231.733	-2.8
232.111	-4.81
232.488	-5.8
232.866	-3.73
233.243	-1.87
233.621	-1.01
233.998	1.24
234.376	0.8
234.753	2.91
235.13	5.73
235.508	7.12
235.885	7.32
236.262	7.56
236.639	5.11
237.016	3.1
237.393	6.83
237.77	8.13
238.147	8.36
238.524	9.41
238.901	8.36
239.278	8.63
239.655	8.44
240.032	8.02
240.409	7.63
240.785	6.85
241.162	6.47
241.539	6.73
241.915	5.68
242.292	5.74
242.668	5.65
243.045	5.68
243.421	5.57
243.798	5.29
244.174	4.98
244.551	5.19
244.927	4.82
245.303	4.53
245.679	4.43
246.056	4.66
246.432	4.43
246.808	4.48
247.184	4.05
247.56	4.04
247.936	4.01
248.312	4.14
248.688	4.45
249.064	4.45
249.44	4.21
249.815	4.46
250.191	4.68
250.567	4.9
250.943	4.82
251.318	4.9
251.694	4.88
252.069	4.75
252.445	4.59
252.82	4.77
253.196	4.77
253.571	4.71
253.947	4.28
254.322	4.46
254.697	4.35
255.073	4.38
255.448	4.03
255.823	3.98
256.198	3.96
256.573	3.62
256.948	3.69
257.323	3.92
257.698	3.8
258.073	3.55
258.448	3.43
258.823	3.33
259.198	3.33
259.573	3.31
259.948	3.31
260.322	3.47
260.697	3.58
261.072	3.47
261.446	3.54
261.821	3.57
262.195	3.68
262.57	3.85
262.944	3.81
263.319	3.85
263.693	3.87
264.067	3.77
264.442	3.95
264.816	3.66
265.19	3.64
265.564	3.76
265.938	3.72
266.313	3.62
266.687	3.58
267.061	3.42
267.435	3.43
267.809	3.62
268.183	3.72
268.556	3.62
268.93	3.66
269.304	3.83
269.678	3.79
270.051	3.68
270.425	3.55
270.799	3.57
271.172	3.72
271.546	3.65
271.919	3.5
272.293	3.36
272.666	3.55
273.04	3.44
273.413	3.35
273.787	3.37
274.16	3.23
274.533	3.21
274.906	3.17
275.279	3.13
275.653	3.02
276.026	3.07
276.399	3.14
276.772	3.07
277.145	2.8
277.518	2.88
277.891	2.92
278.263	2.85
278.636	3.13
279.009	3.05
279.382	3.06
279.755	3.21
280.127	3.34
280.5	3.36
280.872	3.58
281.245	3.46
281.617	3.75
281.99	3.97
282.362	4.19
282.735	4.16
283.107	4.25
283.479	4.37
283.852	4.29
284.224	4.2
284.596	4.42
284.968	4.53
285.34	4.51
285.713	4.52
286.085	4.63
286.457	4.55
286.829	4.64
287.201	4.69
287.572	4.66
287.944	4.65
288.316	4.63
288.688	4.53
289.06	4.67
289.431	4.55
289.803	4.56
290.175	4.37
290.546	4.58
290.918	4.57
291.289	4.6
291.661	4.62
292.032	4.89
292.403	4.85
292.775	4.91
293.146	4.92
293.517	4.91
293.889	4.95
294.26	4.9
294.631	4.87
295.002	4.78
295.373	4.9
295.744	4.91
296.115	4.98
296.486	4.93
296.857	4.98
297.228	5.05
297.599	5.01
297.97	5.16
298.34	5.18
298.711	5.31
299.082	5.29
299.452	5.35
299.823	5.36
300.194	5.45
300.564	5.31
300.935	5.36
301.305	5.26
301.676	5.22
302.046	5.41
302.416	5.54
302.787	5.73
303.157	5.79
303.527	5.81
303.897	5.98
304.267	6.18
304.637	6.22
305.008	6.2
305.378	6.51
305.748	6.55
306.117	6.58
306.487	6.61
306.857	6.65
307.227	6.68
307.597	6.57
307.967	6.51
308.336	6.8
308.706	6.86
309.076	7.07
309.445	7.11
309.815	7.05
310.184	7.04
310.554	7.06
310.923	7.03
311.293	7.12
311.662	7.02
312.031	7.11
312.401	7.16
312.77	7.34
313.139	7.19
313.508	7.15
313.877	7.18
314.246	7.19
314.616	7.3
314.985	7.31
315.353	7.48
315.722	7.64
316.091	7.54
316.46	7.7
316.829	7.93
317.198	8.07
317.567	8.08
317.935	8.15
318.304	8.28
318.672	8.41
319.041	8.51
319.41	8.63
319.778	8.49
320.147	8.52
320.515	8.39
320.883	8.42
321.252	8.64
321.62	8.65
321.988	8.71
322.357	8.61
322.725	8.68
323.093	8.75
323.461	8.72
323.829	8.91
324.197	8.88
324.565	8.8
324.933	8.75
325.301	8.87
325.669	8.99
326.037	8.97
326.405	8.96
326.772	9
327.14	9.08
327.508	9.29
327.875	9.28
328.243	9.44
328.61	9.58
328.978	9.68
329.346	9.81
329.713	9.87
330.08	10.22
330.448	10.18
330.815	10.13
331.182	10.18
331.55	10.13
331.917	10.32
332.284	10.39
332.651	10.52
333.018	10.63
333.385	10.57
333.752	10.73
334.119	10.86
334.486	10.88
334.853	10.99
335.22	11.06
335.587	11.19
335.954	11.19
336.32	11.18
336.687	11.14
337.054	11.21
337.42	11.29
337.787	11.25
338.153	11.37
338.52	11.48
338.886	11.45
339.253	11.43
339.619	11.22
339.986	11.25
340.352	11.29
340.718	11.29
341.084	11.31
341.451	11.35
341.817	11.39
342.183	11.35
342.549	11.33
342.915	11.37
343.281	11.43
343.647	11.39
344.013	11.48
344.379	11.49
344.745	11.55
345.11	11.6
345.476	11.57
345.842	11.63
346.208	11.67
346.573	11.82
346.939	12.01
347.304	12.12
347.67	12.06
348.035	12.1
348.401	12.14
348.766	12.21
349.132	12.21
349.497	12.2
349.862	12.25
350.228	12.22
350.593	12.21
350.958	12.18
351.323	12.25
351.688	12.16
352.053	12.16
352.418	12.12
352.783	12.14
353.148	12.16
353.513	12.21
353.878	12.15
354.243	12.09
354.608	12.05
354.972	12.14
355.337	12.18
355.702	12.17
356.066	12.12
356.431	12.09
356.795	12.04
357.16	12.06
357.524	12.01
357.889	12.03
358.253	11.99
358.618	11.99
358.982	11.94
359.346	11.94
359.71	11.91
360.075	11.91
360.439	11.88
360.803	11.84
361.167	11.76
361.531	11.73
361.895	11.74
362.259	11.65
362.623	11.57
362.987	11.58
363.351	11.53
363.714	11.5
364.078	11.52
364.442	11.48
364.806	11.41
365.169	11.39
365.533	11.34
365.896	11.22
366.26	11.17
366.623	11.19
366.987	11.1
367.35	11.05
367.714	10.99
368.077	10.84
368.44	10.77
368.803	10.67
369.167	10.62
369.53	10.53
369.893	10.56
370.256	10.49
370.619	10.44
370.982	10.33
371.345	10.22
371.708	10.08
372.071	9.97
372.434	9.87
372.797	9.84
373.159	9.73
373.522	9.75
373.885	9.74
374.247	9.65
374.61	9.64
374.973	9.58
375.335	9.45
375.698	9.4
376.06	9.32
376.423	9.31
376.785	9.27
377.147	9.21
377.51	9.09
377.872	9.04
378.234	8.92
378.596	8.97
378.958	8.94
379.321	8.88
379.683	8.84
380.045	8.79
380.407	8.77
380.769	8.68
381.13	8.56
381.492	8.45
381.854	8.38
382.216	8.31
382.578	8.27
382.939	8.24
383.301	8.17
383.663	8.07
384.024	7.99
384.386	7.98
384.747	7.88
385.109	7.87
385.47	7.8
385.832	7.74
386.193	7.64
386.554	7.56
386.916	7.55
387.277	7.49
387.638	7.47
387.999	7.37
388.36	7.41
388.721	7.36
389.082	7.34
389.443	7.25
389.804	7.2
390.165	7.11
390.526	7.05
390.887	7
391.248	6.97
391.609	6.91
391.969	6.81
392.33	6.76
392.691	6.65
393.051	6.63
393.412	6.59
393.772	6.52
394.133	6.5
394.493	6.39
394.854	6.32
395.214	6.26
395.574	6.24
395.935	6.13
396.295	6.1
396.655	6
397.015	5.96
397.376	5.92
397.736	5.89
398.096	5.83
398.456	5.8
398.816	5.77
399.176	5.71
399.535	5.62
399.895	5.57
400.255	5.54
400.615	5.47
400.975	5.4
401.334	5.38
401.694	5.32
402.054	5.29
402.413	5.29
402.773	5.24
403.132	5.15
403.492	5.11
403.851	5.08
404.211	5.07
404.57	5.03
404.929	4.99
405.288	4.95
405.648	4.94
406.007	4.88
406.366	4.83
406.725	4.82
407.084	4.85
407.443	4.83
407.802	4.85
408.161	4.81
408.52	4.79
408.879	4.73
409.238	4.72
409.596	4.72
409.955	4.69
410.314	4.68
410.673	4.68
411.031	4.68
411.39	4.64
411.748	4.6
412.107	4.59
412.465	4.58
412.824	4.55
413.182	4.53
413.54	4.52
413.899	4.55
414.257	4.54
414.615	4.49
414.974	4.47
415.332	4.43
415.69	4.39
416.048	4.35
416.406	4.35
416.764	4.32
417.122	4.3
417.48	4.27
417.838	4.26
418.195	4.24
418.553	4.21
418.911	4.22
419.269	4.2
419.626	4.18
419.984	4.15
420.342	4.13
420.699	4.09
421.057	4.09
421.414	4.05
421.772	4.02
422.129	4.02
422.486	4
422.844	3.99
423.201	3.98
423.558	3.98
423.915	3.96
424.273	3.96
424.63	3.93
424.987	3.92
425.344	3.88
425.701	3.86
426.058	3.84
426.415	3.82
426.772	3.81
427.128	3.78
427.485	3.77
427.842	3.75
428.199	3.76
428.555	3.74
428.912	3.74
429.269	3.73
429.625	3.7
429.982	3.68
430.338	3.67
430.695	3.68
431.051	3.66
431.407	3.65
431.764	3.63
432.12	3.64
432.476	3.65
432.832	3.65
433.189	3.66
433.545	3.64
433.901	3.64
434.257	3.62
434.613	3.64
434.969	3.65
435.325	3.65
435.681	3.63
436.036	3.62
436.392	3.63
436.748	3.63
437.104	3.63
437.459	3.63
437.815	3.62
438.171	3.62
438.526	3.63
438.882	3.62
439.237	3.62
439.593	3.62
439.948	3.61
440.304	3.62
440.659	3.6
441.014	3.62
441.369	3.62
441.725	3.62
442.08	3.6
442.435	3.58
442.79	3.58
443.145	3.57
443.5	3.57
443.855	3.55
444.21	3.54
444.565	3.52
444.92	3.53
445.275	3.5
445.629	3.49
445.984	3.47
446.339	3.46
446.693	3.44
447.048	3.43
447.403	3.41
447.757	3.38
448.112	3.37
448.466	3.35
448.82	3.33
449.175	3.32
449.529	3.31
449.883	3.3
450.238	3.28
450.592	3.28
450.946	3.28
451.3	3.26
451.654	3.26
452.008	3.27
452.362	3.26
452.716	3.26
453.07	3.26
453.424	3.26
453.778	3.25
454.132	3.25
454.486	3.25
454.839	3.26
455.193	3.26
455.547	3.26
455.9	3.26
456.254	3.26
456.607	3.27
456.961	3.27
457.314	3.27
457.668	3.28
458.021	3.28
458.375	3.28
458.728	3.28
459.081	3.29
459.434	3.27
459.787	3.27
460.141	3.29
460.494	3.28
460.847	3.28
461.2	3.28
461.553	3.29
461.906	3.3
462.259	3.31
462.611	3.31
462.964	3.35
463.317	3.36
463.67	3.38
464.022	3.38
464.375	3.38
464.728	3.4
465.08	3.41
465.433	3.42
465.785	3.42
466.138	3.44
466.49	3.43
466.843	3.45
467.195	3.47
467.547	3.47
467.899	3.5
468.252	3.53
468.604	3.57
468.956	3.57
469.308	3.57
469.66	3.56
470.012	3.58
470.364	3.6
470.716	3.61
471.068	3.63
471.42	3.65
471.772	3.69
472.123	3.69
472.475	3.7
472.827	3.71
473.178	3.71
473.53	3.71
473.882	3.72
474.233	3.72
474.585	3.71
474.936	3.69
475.288	3.69
475.639	3.68
475.99	3.67
476.342	3.68
476.693	3.69
477.044	3.71
477.395	3.71
477.746	3.68
478.097	3.67
478.448	3.66
478.8	3.64
479.15	3.6
479.501	3.59
479.852	3.59
480.203	3.59
480.554	3.58
480.905	3.59
481.255	3.6
481.606	3.61
481.957	3.61
482.307	3.62
482.658	3.62
483.009	3.62
483.359	3.61
483.709	3.6
484.06	3.6
484.41	3.6
484.761	3.6
485.111	3.6
485.461	3.6
485.811	3.61
486.162	3.6
486.512	3.62
486.862	3.63
487.212	3.62
487.562	3.63
487.912	3.63
488.262	3.63
488.612	3.63
488.961	3.62
489.311	3.63
489.661	3.63
490.011	3.63
490.36	3.63
490.71	3.65
491.06	3.66
491.409	3.66
491.759	3.67
492.108	3.68
492.458	3.69
492.807	3.69
493.157	3.7
493.506	3.73
493.855	3.75
494.204	3.75
494.554	3.78
494.903	3.79
495.252	3.81
495.601	3.83
495.95	3.87
496.299	3.89
496.648	3.92
496.997	3.96
497.346	3.99
497.695	4.03
498.043	4.04
498.392	4.07
498.741	4.11
499.09	4.13
499.438	4.18
499.787	4.21
500.135	4.25
500.484	4.29
500.832	4.33
501.181	4.37
501.529	4.43
501.878	4.51
502.226	4.57
502.574	4.64
502.923	4.65
503.271	4.7
503.619	4.78
503.967	4.85
504.315	4.9
504.663	4.97
505.011	5.06
505.359	5.13
505.707	5.22
506.055	5.3
506.403	5.39
506.751	5.44
507.098	5.54
507.446	5.65
507.794	5.75
508.141	5.85
508.489	5.93
508.837	6.03
509.184	6.08
509.531	6.19
509.879	6.3
510.226	6.43
510.574	6.53
510.921	6.65
511.268	6.73
511.616	6.85
511.963	6.97
512.31	7.05
512.657	7.2
513.004	7.31
513.351	7.44
513.698	7.58
514.045	7.74
514.392	7.87
514.739	8.03
515.086	8.15
515.432	8.31
515.779	8.44
516.126	8.6
516.473	8.75
516.819	8.87
517.166	9
517.512	9.15
517.859	9.31
518.205	9.42
518.552	9.58
518.898	9.73
519.245	9.85
519.591	10.02
519.937	10.15
520.283	10.3
520.629	10.51
520.976	10.68
521.322	10.85
521.668	11.04
522.014	11.22
522.36	11.44
522.706	11.66
523.052	11.93
523.398	12.16
523.743	12.46
524.089	12.73
524.435	12.99
524.781	13.24
525.126	13.46
525.472	13.69
525.817	13.88
526.163	14.08
526.509	14.26
526.854	14.44
527.199	14.62
527.545	14.79
527.89	14.93
528.235	15.09
528.581	15.27
528.926	15.47
529.271	15.65
529.616	15.85
529.961	16.04
530.306	16.23
530.651	16.43
530.996	16.64
531.341	16.86
531.686	17.09
532.031	17.34
532.376	17.59
532.721	17.83
533.065	18.11
533.41	18.37
533.755	18.66
534.099	18.94
534.444	19.22
534.788	19.51
535.133	19.8
535.477	20.1
535.822	20.41
536.166	20.69
536.51	21
536.855	21.32
537.199	21.68
537.543	22.04
537.887	22.41
538.231	22.74
538.576	23.09
538.92	23.41
539.264	23.72
539.608	24.04
539.951	24.36
540.295	24.63
540.639	24.92
540.983	25.17
541.327	25.41
541.671	25.66
542.014	25.91
542.358	26.16
542.701	26.42
543.045	26.66
543.389	26.92
543.732	27.2
544.075	27.5
544.419	27.72
544.762	27.97
545.105	28.25
545.449	28.56
545.792	28.89
546.135	29.26
546.478	29.57
546.821	29.9
547.165	30.22
547.508	30.57
547.851	30.91
548.194	31.25
548.536	31.62
548.879	32
549.222	32.32
549.565	32.7
549.908	33.06
550.25	33.4
550.593	33.72
550.936	34
551.278	34.33
551.621	34.71
551.963	35.01
552.306	35.35
552.648	35.62
552.991	35.93
553.333	36.17
553.675	36.47
554.017	36.76
554.36	37.03
554.702	37.32
555.044	37.58
555.386	37.79
555.728	38.04
556.07	38.29
556.412	38.54
556.754	38.77
557.096	38.97
557.438	39.21
557.78	39.46
558.121	39.77
558.463	39.93
558.805	40.13
559.147	40.37
559.488	40.57
559.83	40.8
560.171	40.96
560.513	41.17
560.854	41.35
561.196	41.49
561.537	41.63
561.878	41.8
562.22	41.94
562.561	42.1
562.902	42.26
563.243	42.38
563.584	42.55
563.925	42.71
564.266	42.87
564.607	43.02
564.948	43.21
565.289	43.32
565.63	43.46
565.971	43.55
566.312	43.68
566.653	43.83
566.993	43.95
567.334	44.07
567.675	44.19
568.015	44.35
568.356	44.47
568.696	44.65
569.037	44.8
569.377	44.99
569.718	45.21
570.058	45.38
570.398	45.55
570.739	45.66
571.079	45.79
571.419	45.91
571.759	46.05
572.099	46.14
572.439	46.17
572.779	46.31
573.119	46.51
573.459	46.62
573.799	46.76
574.139	46.94
574.479	47.08
574.819	47.15
575.158	47.24
575.498	47.37
575.838	47.46
576.177	47.55
576.517	47.63
576.856	47.69
577.196	47.76
577.535	47.84
577.875	47.97
578.214	48.07
578.553	48.21
578.893	48.32
579.232	48.39
579.571	48.64
579.91	48.76
580.25	48.8
580.589	48.86
580.928	48.91
581.267	48.96
581.606	49.04
581.945	49.16
582.283	49.18
582.622	49.33
582.961	49.36
583.3	49.51
583.639	49.54
583.977	49.61
584.316	49.72
584.654	49.8
584.993	49.86
585.332	49.95
585.67	49.99
586.008	50.04
586.347	50.13
586.685	50.14
587.024	50.17
587.362	50.31
587.7	50.47
588.038	50.59
588.376	50.65
588.715	50.7
589.053	50.79
589.391	50.91
589.729	50.96
590.067	51.02
590.404	50.97
590.742	51.03
591.08	51.13
591.418	51.15
591.756	51.12
592.093	51.24
592.431	51.27
592.769	51.3
593.106	51.29
593.444	51.3
593.781	51.31
594.119	51.38
594.456	51.32
594.793	51.3
595.131	51.33
595.468	51.36
595.805	51.4
596.143	51.45
596.48	51.45
596.817	51.43
597.154	51.53
597.491	51.67
597.828	51.7
598.165	51.64
598.502	51.67
598.839	51.82
599.176	51.83
599.512	51.85
599.849	51.86
600.186	51.93
600.523	51.98
600.859	52.03
601.196	52.01
601.532	52.04
601.869	52.02
602.205	52.08
602.542	52.13
602.878	52.17
603.215	52.15
603.551	52.23
603.887	52.28
604.223	52.28
604.56	52.28
604.896	52.35
605.232	52.38
605.568	52.45
605.904	52.43
606.24	52.42
606.576	52.4
606.912	52.44
607.248	52.46
607.583	52.54
607.919	52.56
608.255	52.57
608.591	52.7
608.926	52.75
609.262	52.71
609.597	52.73
609.933	52.83
610.268	52.92
610.604	52.91
610.939	52.89
611.275	52.9
611.61	52.93
611.945	52.87
612.281	52.94
612.616	52.95
612.951	53.05
613.286	53.18
613.621	53.27
613.956	53.29
614.291	53.4
614.626	53.41
614.961	53.52
615.296	53.64
615.631	53.64
615.966	53.77
616.3	53.85
616.635	53.85
616.97	53.87
617.304	53.9
617.639	54
617.973	54.13
618.308	54.17
618.642	54.21
618.977	54.33
619.311	54.36
619.646	54.37
619.98	54.3
620.314	54.34
620.648	54.29
620.983	54.41
621.317	54.41
621.651	54.4
621.985	54.42
622.319	54.39
622.653	54.41
622.987	54.38
623.321	54.37
623.655	54.35
623.988	54.24
624.322	54.17
624.656	54.25
624.99	54.32
625.323	54.32
625.657	54.33
625.99	54.36
626.324	54.36
626.657	54.45
626.991	54.48
627.324	54.43
627.658	54.56
627.991	54.5
628.324	54.54
628.657	54.54
628.991	54.57
629.324	54.62
629.657	54.56
629.99	54.61
630.323	54.65
630.656	54.78
630.989	54.92
631.322	54.98
631.655	54.97
631.987	54.93
632.32	54.96
632.653	55.01
632.986	54.97
633.318	55.04
633.651	55.01
633.984	55.08
634.316	55.11
634.649	55
634.981	55.03
635.313	55.03
635.646	55.13
635.978	55.14
636.31	55.27
636.643	55.44
636.975	55.46
637.307	55.49
637.639	55.41
637.971	55.39
638.303	55.4
638.635	55.35
638.967	55.41
639.299	55.49
639.631	55.48
639.963	55.51
640.295	55.47
640.626	55.43
640.958	55.38
641.29	55.42
641.621	55.48
641.953	55.55
642.285	55.57
642.616	55.55
642.948	55.55
643.279	55.46
643.61	55.41
643.942	55.48
644.273	55.39
644.604	55.33
644.936	55.3
645.267	55.33
645.598	55.39
645.929	55.3
646.26	55.33
646.591	55.33
646.922	55.37
647.253	55.31
647.584	55.37
647.915	55.43
648.245	55.47
648.576	55.54
648.907	55.54
649.238	55.59
649.568	55.65
649.899	55.62
650.229	55.71
650.56	55.72
650.89	55.64
651.221	55.76
651.551	55.92
651.882	55.91
652.212	55.97
652.542	55.93
652.872	55.98
653.203	55.92
653.533	55.89
653.863	55.88
654.193	55.97
654.523	55.96
654.853	55.87
655.183	55.8
655.513	55.76
655.843	55.85
656.172	55.87
656.502	55.73
656.832	55.69
657.162	55.65
657.491	55.62
657.821	55.67
658.15	55.59
658.48	55.56
658.809	55.58
659.139	55.57
659.468	55.54
659.798	55.49
660.127	55.48
660.456	55.51
660.785	55.53
661.115	55.64
661.444	55.69
661.773	55.75
662.102	55.85
662.431	55.94
