Data from BA57710_Reflection_00003.txt Node
Date: Mon Nov 18 15:31:41 EST 2019
User: vgr7
Spectrometer: USB2G7710
Scans to average: 3
Trigger mode: 4
Integration Time (sec): 2.000000E-2
Electric dark correction enabled: true
Boxcar width: 10
XAxis mode: Wavelengths
Number of Pixels in Spectrum: 2048
>>>>>Begin Spectral Data<<<<<
177.721	-9.04
178.105	-54.4
178.488	-78.7
178.871	-105.08
179.254	-378.26
179.636	-22.42
180.019	-48.85
180.402	83.33
180.785	42.56
181.168	-39.95
181.55	79.78
181.933	84.77
182.316	190.91
182.698	285.39
183.081	479.44
183.463	-806.61
183.846	-879.52
184.228	-320.42
184.611	-448.87
184.993	-147.15
185.376	-156.09
185.758	-142.41
186.14	-242.47
186.522	-322.31
186.904	-347.45
187.287	-605.99
187.669	-335.79
188.051	-344.55
188.433	-541.65
188.815	-181.99
189.197	-187.78
189.579	-96.98
189.961	-69.6
190.342	-83.29
190.724	-55.71
191.106	-51.48
191.488	-54.68
191.869	-40.59
192.251	-48
192.633	-33.75
193.014	-59.95
193.396	-85.33
193.777	-76.43
194.159	-75.12
194.54	-65.85
194.922	-63.41
195.303	-69.93
195.684	-54
196.065	-31.34
196.447	-23.3
196.828	-63.43
197.209	-59.89
197.59	-81.71
197.971	-65.88
198.352	-26.41
198.733	-52.5
199.114	-51.72
199.495	-54.79
199.876	-36.13
200.257	-35.97
200.638	-30.82
201.018	-24.4
201.399	-6.33
201.78	12.96
202.16	0.91
202.541	-6.21
202.922	-17.36
203.302	-16.88
203.683	-24.21
204.063	-32.28
204.444	-38.14
204.824	-23.85
205.204	-17.26
205.585	-15.76
205.965	-29.28
206.345	-59.43
206.725	-56.41
207.106	-59.78
207.486	-73.35
207.866	-76.25
208.246	-61.39
208.626	-75.32
209.006	-43.68
209.386	-104.82
209.766	-100.77
210.145	-46.6
210.525	-26.19
210.905	-4.51
211.285	12.48
211.664	27.21
212.044	46.54
212.424	38.08
212.803	46.71
213.183	39.19
213.562	41.83
213.942	40.8
214.321	60
214.701	57.25
215.08	44.32
215.459	37.36
215.838	27.96
216.218	11
216.597	21.38
216.976	11.77
217.355	13.37
217.734	2.92
218.113	3.7
218.492	-5.62
218.871	-15.24
219.25	-12.14
219.629	-20.12
220.008	-22.77
220.387	-24.84
220.766	-23.51
221.144	-29.35
221.523	-48.05
221.902	-41.08
222.28	-45.53
222.659	-34.46
223.037	-22.05
223.416	-33.78
223.794	-21.18
224.173	-17.49
224.551	-22.92
224.929	-16.37
225.308	-5.67
225.686	-4.92
226.064	0.22
226.442	5.41
226.821	9.21
227.199	5.61
227.577	7.83
227.955	1.33
228.333	-0.02
228.711	2.03
229.089	6.4
229.467	8.77
229.845	5.99
230.222	7.89
230.6	5.38
230.978	5.17
231.356	6.86
231.733	5.77
232.111	8.84
232.488	9.27
232.866	7.59
233.243	6.18
233.621	6.93
233.998	7.2
234.376	4.97
234.753	4.7
235.13	4.61
235.508	5.72
235.885	6.97
236.262	7.33
236.639	4.93
237.016	3.02
237.393	4.27
237.77	5.99
238.147	5.9
238.524	6.21
238.901	6.81
239.278	6
239.655	6.51
240.032	5.75
240.409	5.07
240.785	5.31
241.162	5.85
241.539	5.39
241.915	5.21
242.292	5.44
242.668	5.26
243.045	6.06
243.421	5.94
243.798	5.47
244.174	5.58
244.551	5.68
244.927	5.47
245.303	5.08
245.679	4.94
246.056	4.85
246.432	4.99
246.808	4.88
247.184	5.08
247.56	4.74
247.936	4.47
248.312	4.4
248.688	4.52
249.064	4.21
249.44	4.27
249.815	4.18
250.191	4.09
250.567	4.11
250.943	3.54
251.318	3.67
251.694	3.83
252.069	3.88
252.445	3.82
252.82	3.97
253.196	4.12
253.571	4.24
253.947	4.1
254.322	4.02
254.697	3.84
255.073	3.82
255.448	3.88
255.823	4.05
256.198	4.41
256.573	4.22
256.948	4.36
257.323	4.87
257.698	4.71
258.073	4.86
258.448	4.98
258.823	5.01
259.198	4.83
259.573	4.65
259.948	4.47
260.322	4.63
260.697	4.63
261.072	4.57
261.446	4.6
261.821	4.6
262.195	4.63
262.57	4.66
262.944	4.65
263.319	4.74
263.693	4.83
264.067	4.91
264.442	5.2
264.816	5.13
265.19	4.89
265.564	5
265.938	4.76
266.313	4.67
266.687	4.88
267.061	5.08
267.435	5.32
267.809	5.43
268.183	5.26
268.556	5.23
268.93	5.24
269.304	4.99
269.678	5.18
270.051	5.18
270.425	5.16
270.799	5.09
271.172	5.01
271.546	5.03
271.919	4.91
272.293	4.72
272.666	4.87
273.04	4.73
273.413	4.71
273.787	4.9
274.16	4.94
274.533	4.96
274.906	4.89
275.279	4.85
275.653	4.8
276.026	4.86
276.399	4.81
276.772	4.84
277.145	4.8
277.518	4.5
277.891	4.33
278.263	4.26
278.636	4.19
279.009	4.25
279.382	4.25
279.755	4.05
280.127	4.19
280.5	4.04
280.872	4.19
281.245	4.24
281.617	4.28
281.99	4.33
282.362	4.35
282.735	4.17
283.107	4.12
283.479	4.19
283.852	4.11
284.224	4.02
284.596	3.94
284.968	3.94
285.34	4.14
285.713	4.31
286.085	4.32
286.457	4.35
286.829	4.4
287.201	4.4
287.572	4.47
287.944	4.41
288.316	4.44
288.688	4.43
289.06	4.44
289.431	4.39
289.803	4.45
290.175	4.29
290.546	4.42
290.918	4.47
291.289	4.49
291.661	4.61
292.032	4.88
292.403	5.05
292.775	5.22
293.146	5.23
293.517	5.18
293.889	5.44
294.26	5.61
294.631	5.64
295.002	5.74
295.373	5.85
295.744	5.92
296.115	5.98
296.486	5.89
296.857	5.95
297.228	5.98
297.599	5.83
297.97	6
298.34	6.03
298.711	6.19
299.082	6.05
299.452	5.98
299.823	5.98
300.194	6.02
300.564	6
300.935	5.95
301.305	5.96
301.676	5.93
302.046	5.92
302.416	6
302.787	5.99
303.157	5.99
303.527	6.03
303.897	5.96
304.267	6.33
304.637	6.35
305.008	6.4
305.378	6.63
305.748	6.58
306.117	6.53
306.487	6.51
306.857	6.83
307.227	7.01
307.597	6.87
307.967	6.75
308.336	6.72
308.706	6.79
309.076	6.86
309.445	6.81
309.815	6.83
310.184	6.74
310.554	6.79
310.923	6.76
311.293	6.76
311.662	6.85
312.031	6.65
312.401	6.72
312.77	6.83
313.139	6.82
313.508	6.83
313.877	6.84
314.246	6.78
314.616	6.56
314.985	6.45
315.353	6.46
315.722	6.57
316.091	6.57
316.46	6.55
316.829	6.5
317.198	6.5
317.567	6.39
317.935	6.51
318.304	6.41
318.672	6.46
319.041	6.52
319.41	6.51
319.778	6.46
320.147	6.35
320.515	6.1
320.883	5.9
321.252	5.99
321.62	6.07
321.988	6.09
322.357	6.23
322.725	6.26
323.093	6.25
323.461	6.37
323.829	6.4
324.197	6.44
324.565	6.57
324.933	6.51
325.301	6.53
325.669	6.37
326.037	6.4
326.405	6.38
326.772	6.32
327.14	6.32
327.508	6.42
327.875	6.37
328.243	6.49
328.61	6.6
328.978	6.45
329.346	6.48
329.713	6.48
330.08	6.32
330.448	6.27
330.815	6.25
331.182	6.18
331.55	6.23
331.917	6.24
332.284	6.28
332.651	6.34
333.018	6.41
333.385	6.55
333.752	6.59
334.119	6.61
334.486	6.65
334.853	6.65
335.22	6.68
335.587	6.74
335.954	6.75
336.32	6.68
336.687	6.79
337.054	6.86
337.42	6.97
337.787	7.08
338.153	7.04
338.52	7.07
338.886	6.97
339.253	6.92
339.619	6.89
339.986	6.86
340.352	6.92
340.718	6.86
341.084	6.82
341.451	6.85
341.817	6.86
342.183	6.84
342.549	6.87
342.915	6.93
343.281	6.97
343.647	6.89
344.013	6.96
344.379	6.85
344.745	6.81
345.11	6.7
345.476	6.71
345.842	6.77
346.208	6.87
346.573	6.94
346.939	7.07
347.304	7.1
347.67	7.05
348.035	6.99
348.401	7.05
348.766	7.05
349.132	7.07
349.497	6.98
349.862	7.05
350.228	7.02
350.593	6.89
350.958	6.85
351.323	6.94
351.688	7.01
352.053	7.11
352.418	7.06
352.783	7.07
353.148	7.11
353.513	7.14
353.878	7.04
354.243	7.09
354.608	7.04
354.972	7
355.337	6.98
355.702	6.99
356.066	6.96
356.431	6.92
356.795	6.93
357.16	6.93
357.524	6.85
357.889	6.77
358.253	6.82
358.618	6.8
358.982	6.75
359.346	6.71
359.71	6.69
360.075	6.67
360.439	6.68
360.803	6.6
361.167	6.54
361.531	6.51
361.895	6.44
362.259	6.42
362.623	6.45
362.987	6.41
363.351	6.43
363.714	6.44
364.078	6.48
364.442	6.43
364.806	6.5
365.169	6.5
365.533	6.6
365.896	6.58
366.26	6.6
366.623	6.58
366.987	6.58
367.35	6.62
367.714	6.71
368.077	6.65
368.44	6.67
368.803	6.67
369.167	6.71
369.53	6.65
369.893	6.67
370.256	6.69
370.619	6.66
370.982	6.63
371.345	6.62
371.708	6.6
372.071	6.59
372.434	6.57
372.797	6.55
373.159	6.55
373.522	6.62
373.885	6.57
374.247	6.59
374.61	6.65
374.973	6.56
375.335	6.41
375.698	6.44
376.06	6.45
376.423	6.48
376.785	6.5
377.147	6.63
377.51	6.63
377.872	6.61
378.234	6.68
378.596	6.71
378.958	6.72
379.321	6.75
379.683	6.77
380.045	6.75
380.407	6.74
380.769	6.69
381.13	6.66
381.492	6.68
381.854	6.7
382.216	6.62
382.578	6.66
382.939	6.76
383.301	6.78
383.663	6.71
384.024	6.75
384.386	6.78
384.747	6.75
385.109	6.76
385.47	6.73
385.832	6.73
386.193	6.73
386.554	6.77
386.916	6.76
387.277	6.75
387.638	6.79
387.999	6.82
388.36	6.85
388.721	6.82
389.082	6.84
389.443	6.85
389.804	6.86
390.165	6.85
390.526	6.83
390.887	6.81
391.248	6.9
391.609	6.89
391.969	6.89
392.33	6.85
392.691	6.83
393.051	6.84
393.412	6.83
393.772	6.82
394.133	6.8
394.493	6.81
394.854	6.77
395.214	6.78
395.574	6.76
395.935	6.8
396.295	6.81
396.655	6.77
397.015	6.76
397.376	6.76
397.736	6.77
398.096	6.79
398.456	6.85
398.816	6.84
399.176	6.79
399.535	6.77
399.895	6.76
400.255	6.79
400.615	6.78
400.975	6.81
401.334	6.82
401.694	6.78
402.054	6.75
402.413	6.77
402.773	6.71
403.132	6.7
403.492	6.65
403.851	6.69
404.211	6.73
404.57	6.72
404.929	6.72
405.288	6.7
405.648	6.7
406.007	6.66
406.366	6.67
406.725	6.7
407.084	6.7
407.443	6.72
407.802	6.7
408.161	6.71
408.52	6.68
408.879	6.68
409.238	6.69
409.596	6.74
409.955	6.76
410.314	6.78
410.673	6.76
411.031	6.76
411.39	6.73
411.748	6.69
412.107	6.71
412.465	6.71
412.824	6.71
413.182	6.7
413.54	6.69
413.899	6.67
414.257	6.64
414.615	6.64
414.974	6.65
415.332	6.66
415.69	6.68
416.048	6.66
416.406	6.64
416.764	6.63
417.122	6.61
417.48	6.57
417.838	6.59
418.195	6.59
418.553	6.61
418.911	6.62
419.269	6.61
419.626	6.64
419.984	6.63
420.342	6.65
420.699	6.64
421.057	6.64
421.414	6.64
421.772	6.64
422.129	6.64
422.486	6.64
422.844	6.63
423.201	6.61
423.558	6.61
423.915	6.61
424.273	6.61
424.63	6.61
424.987	6.62
425.344	6.61
425.701	6.62
426.058	6.59
426.415	6.58
426.772	6.59
427.128	6.57
427.485	6.57
427.842	6.55
428.199	6.54
428.555	6.55
428.912	6.54
429.269	6.55
429.625	6.55
429.982	6.54
430.338	6.53
430.695	6.52
431.051	6.52
431.407	6.54
431.764	6.56
432.12	6.56
432.476	6.58
432.832	6.57
433.189	6.57
433.545	6.58
433.901	6.58
434.257	6.56
434.613	6.57
434.969	6.56
435.325	6.57
435.681	6.57
436.036	6.56
436.392	6.56
436.748	6.55
437.104	6.53
437.459	6.53
437.815	6.54
438.171	6.56
438.526	6.57
438.882	6.59
439.237	6.59
439.593	6.58
439.948	6.58
440.304	6.59
440.659	6.6
441.014	6.6
441.369	6.6
441.725	6.6
442.08	6.57
442.435	6.58
442.79	6.59
443.145	6.59
443.5	6.61
443.855	6.63
444.21	6.64
444.565	6.65
444.92	6.66
445.275	6.65
445.629	6.65
445.984	6.65
446.339	6.62
446.693	6.6
447.048	6.59
447.403	6.58
447.757	6.57
448.112	6.56
448.466	6.55
448.82	6.54
449.175	6.56
449.529	6.55
449.883	6.55
450.238	6.55
450.592	6.54
450.946	6.52
451.3	6.5
451.654	6.5
452.008	6.5
452.362	6.49
452.716	6.5
453.07	6.5
453.424	6.51
453.778	6.5
454.132	6.51
454.486	6.52
454.839	6.53
455.193	6.55
455.547	6.55
455.9	6.58
456.254	6.6
456.607	6.61
456.961	6.61
457.314	6.59
457.668	6.59
458.021	6.6
458.375	6.6
458.728	6.6
459.081	6.59
459.434	6.59
459.787	6.61
460.141	6.61
460.494	6.6
460.847	6.6
461.2	6.61
461.553	6.61
461.906	6.63
462.259	6.61
462.611	6.61
462.964	6.62
463.317	6.62
463.67	6.62
464.022	6.61
464.375	6.62
464.728	6.65
465.08	6.66
465.433	6.66
465.785	6.66
466.138	6.68
466.49	6.69
466.843	6.68
467.195	6.66
467.547	6.65
467.899	6.66
468.252	6.66
468.604	6.67
468.956	6.67
469.308	6.66
469.66	6.66
470.012	6.68
470.364	6.69
470.716	6.69
471.068	6.69
471.42	6.69
471.772	6.71
472.123	6.69
472.475	6.7
472.827	6.72
473.178	6.73
473.53	6.74
473.882	6.75
474.233	6.74
474.585	6.74
474.936	6.74
475.288	6.74
475.639	6.75
475.99	6.76
476.342	6.76
476.693	6.77
477.044	6.79
477.395	6.77
477.746	6.75
478.097	6.72
478.448	6.73
478.8	6.73
479.15	6.71
479.501	6.72
479.852	6.73
480.203	6.74
480.554	6.74
480.905	6.75
481.255	6.76
481.606	6.76
481.957	6.79
482.307	6.79
482.658	6.8
483.009	6.8
483.359	6.8
483.709	6.82
484.06	6.82
484.41	6.84
484.761	6.84
485.111	6.84
485.461	6.86
485.811	6.86
486.162	6.86
486.512	6.88
486.862	6.88
487.212	6.87
487.562	6.88
487.912	6.88
488.262	6.88
488.612	6.88
488.961	6.88
489.311	6.87
489.661	6.87
490.011	6.87
490.36	6.86
490.71	6.87
491.06	6.86
491.409	6.85
491.759	6.83
492.108	6.83
492.458	6.82
492.807	6.81
493.157	6.81
493.506	6.81
493.855	6.81
494.204	6.81
494.554	6.82
494.903	6.8
495.252	6.78
495.601	6.78
495.95	6.78
496.299	6.79
496.648	6.8
496.997	6.8
497.346	6.82
497.695	6.82
498.043	6.81
498.392	6.82
498.741	6.83
499.09	6.84
499.438	6.86
499.787	6.89
500.135	6.91
500.484	6.93
500.832	6.9
501.181	6.9
501.529	6.9
501.878	6.9
502.226	6.91
502.574	6.93
502.923	6.94
503.271	6.96
503.619	6.96
503.967	6.96
504.315	6.94
504.663	6.93
505.011	6.94
505.359	6.95
505.707	6.96
506.055	6.97
506.403	6.98
506.751	6.99
507.098	6.99
507.446	6.99
507.794	7
508.141	7.03
508.489	7.04
508.837	7.06
509.184	7.07
509.531	7.09
509.879	7.12
510.226	7.15
510.574	7.14
510.921	7.15
511.268	7.17
511.616	7.2
511.963	7.21
512.31	7.24
512.657	7.27
513.004	7.28
513.351	7.3
513.698	7.29
514.045	7.3
514.392	7.29
514.739	7.29
515.086	7.31
515.432	7.31
515.779	7.3
516.126	7.29
516.473	7.29
516.819	7.3
517.166	7.29
517.512	7.28
517.859	7.3
518.205	7.3
518.552	7.3
518.898	7.31
519.245	7.32
519.591	7.3
519.937	7.29
520.283	7.3
520.629	7.29
520.976	7.3
521.322	7.29
521.668	7.28
522.014	7.29
522.36	7.29
522.706	7.31
523.052	7.35
523.398	7.36
523.743	7.36
524.089	7.34
524.435	7.34
524.781	7.34
525.126	7.34
525.472	7.36
525.817	7.36
526.163	7.37
526.509	7.38
526.854	7.39
527.199	7.4
527.545	7.39
527.89	7.39
528.235	7.39
528.581	7.41
528.926	7.42
529.271	7.42
529.616	7.41
529.961	7.4
530.306	7.39
530.651	7.39
530.996	7.41
531.341	7.43
531.686	7.43
532.031	7.45
532.376	7.45
532.721	7.46
533.065	7.45
533.41	7.45
533.755	7.44
534.099	7.44
534.444	7.44
534.788	7.45
535.133	7.46
535.477	7.47
535.822	7.46
536.166	7.45
536.51	7.45
536.855	7.47
537.199	7.49
537.543	7.49
537.887	7.47
538.231	7.45
538.576	7.45
538.92	7.46
539.264	7.46
539.608	7.47
539.951	7.46
540.295	7.47
540.639	7.48
540.983	7.47
541.327	7.48
541.671	7.48
542.014	7.49
542.358	7.5
542.701	7.49
543.045	7.5
543.389	7.51
543.732	7.53
544.075	7.53
544.419	7.53
544.762	7.55
545.105	7.57
545.449	7.58
545.792	7.59
546.135	7.57
546.478	7.56
546.821	7.57
547.165	7.59
547.508	7.59
547.851	7.59
548.194	7.6
548.536	7.59
548.879	7.61
549.222	7.58
549.565	7.58
549.908	7.59
550.25	7.6
550.593	7.6
550.936	7.59
551.278	7.58
551.621	7.56
551.963	7.56
552.306	7.54
552.648	7.56
552.991	7.58
553.333	7.61
553.675	7.6
554.017	7.62
554.36	7.59
554.702	7.6
555.044	7.61
555.386	7.63
555.728	7.66
556.07	7.65
556.412	7.65
556.754	7.63
557.096	7.63
557.438	7.64
557.78	7.66
558.121	7.67
558.463	7.65
558.805	7.64
559.147	7.65
559.488	7.68
559.83	7.64
560.171	7.64
560.513	7.61
560.854	7.62
561.196	7.62
561.537	7.63
561.878	7.62
562.22	7.58
562.561	7.55
562.902	7.55
563.243	7.57
563.584	7.61
563.925	7.66
564.266	7.65
564.607	7.61
564.948	7.59
565.289	7.61
565.63	7.62
565.971	7.64
566.312	7.62
566.653	7.63
566.993	7.63
567.334	7.61
567.675	7.63
568.015	7.63
568.356	7.65
568.696	7.65
569.037	7.67
569.377	7.7
569.718	7.7
570.058	7.7
570.398	7.69
570.739	7.66
571.079	7.62
571.419	7.62
571.759	7.65
572.099	7.63
572.439	7.6
572.779	7.58
573.119	7.6
573.459	7.62
573.799	7.62
574.139	7.63
574.479	7.66
574.819	7.68
575.158	7.66
575.498	7.65
575.838	7.66
576.177	7.63
576.517	7.62
576.856	7.65
577.196	7.63
577.535	7.62
577.875	7.63
578.214	7.67
578.553	7.7
578.893	7.7
579.232	7.7
579.571	7.71
579.91	7.73
580.25	7.74
580.589	7.76
580.928	7.76
581.267	7.74
581.606	7.71
581.945	7.64
582.283	7.68
582.622	7.64
582.961	7.62
583.3	7.65
583.639	7.66
583.977	7.65
584.316	7.68
584.654	7.68
584.993	7.72
585.332	7.75
585.67	7.73
586.008	7.72
586.347	7.73
586.685	7.77
587.024	7.77
587.362	7.74
587.7	7.74
588.038	7.79
588.376	7.84
588.715	7.85
589.053	7.92
589.391	7.94
589.729	7.94
590.067	7.94
590.404	7.96
590.742	8.01
591.08	8
591.418	8.03
591.756	8.01
592.093	7.99
592.431	8.02
592.769	8.03
593.106	8.02
593.444	8.03
593.781	8.03
594.119	8.05
594.456	8.08
594.793	8.06
595.131	8.01
595.468	8
595.805	8.04
596.143	8.01
596.48	8.01
596.817	8.04
597.154	8.05
597.491	8.05
597.828	8.02
598.165	8.01
598.502	8.02
598.839	8.06
599.176	8.07
599.512	8.05
599.849	8.03
600.186	8.02
600.523	8.03
600.859	8.08
601.196	8.09
601.532	8.05
601.869	8.05
602.205	8.08
602.542	8.1
602.878	8.06
603.215	8.07
603.551	8.06
603.887	8.08
604.223	8.08
604.56	8.07
604.896	8.05
605.232	8.11
605.568	8.08
605.904	8.04
606.24	8.06
606.576	8.05
606.912	8.05
607.248	8.09
607.583	8.13
607.919	8.07
608.255	8.04
608.591	8.05
608.926	8.04
609.262	8.06
609.597	8.04
609.933	8.06
610.268	8.08
610.604	8.11
610.939	8.09
611.275	8.09
611.61	8.11
611.945	8.15
612.281	8.08
612.616	8.08
612.951	8.14
613.286	8.15
613.621	8.15
613.956	8.16
614.291	8.14
614.626	8.12
614.961	8.13
615.296	8.15
615.631	8.18
615.966	8.21
616.3	8.19
616.635	8.23
616.97	8.24
617.304	8.24
617.639	8.22
617.973	8.23
618.308	8.24
618.642	8.28
618.977	8.26
619.311	8.35
619.646	8.37
619.98	8.31
620.314	8.3
620.648	8.32
620.983	8.39
621.317	8.4
621.651	8.39
621.985	8.4
622.319	8.42
622.653	8.44
622.987	8.45
623.321	8.47
623.655	8.48
623.988	8.48
624.322	8.46
624.656	8.47
624.99	8.48
625.323	8.5
625.657	8.47
625.99	8.45
626.324	8.42
626.657	8.4
626.991	8.42
627.324	8.41
627.658	8.36
627.991	8.35
628.324	8.34
628.657	8.33
628.991	8.37
629.324	8.39
629.657	8.42
629.99	8.46
630.323	8.46
630.656	8.44
630.989	8.39
631.322	8.37
631.655	8.38
631.987	8.4
632.32	8.37
632.653	8.38
632.986	8.45
633.318	8.44
633.651	8.46
633.984	8.43
634.316	8.42
634.649	8.46
634.981	8.44
635.313	8.47
635.646	8.51
635.978	8.48
636.31	8.44
636.643	8.37
636.975	8.32
637.307	8.28
637.639	8.32
637.971	8.35
638.303	8.37
638.635	8.31
638.967	8.3
639.299	8.31
639.631	8.25
639.963	8.16
640.295	8.18
640.626	8.22
640.958	8.28
641.29	8.31
641.621	8.3
641.953	8.3
642.285	8.3
642.616	8.29
642.948	8.3
643.279	8.33
643.61	8.38
643.942	8.42
644.273	8.41
644.604	8.4
644.936	8.43
645.267	8.44
645.598	8.5
645.929	8.47
646.26	8.43
646.591	8.48
646.922	8.52
647.253	8.51
647.584	8.5
647.915	8.5
648.245	8.49
648.576	8.53
648.907	8.53
649.238	8.43
649.568	8.47
649.899	8.47
650.229	8.41
650.56	8.42
650.89	8.43
651.221	8.42
651.551	8.38
651.882	8.39
652.212	8.38
652.542	8.34
652.872	8.37
653.203	8.49
653.533	8.53
653.863	8.52
654.193	8.49
654.523	8.57
654.853	8.61
655.183	8.64
655.513	8.57
655.843	8.59
656.172	8.63
656.502	8.53
656.832	8.53
657.162	8.59
657.491	8.5
657.821	8.49
658.15	8.52
658.48	8.53
658.809	8.52
659.139	8.57
659.468	8.56
659.798	8.53
660.127	8.47
660.456	8.46
660.785	8.47
661.115	8.47
661.444	8.41
661.773	8.38
662.102	8.31
662.431	8.41
662.76	8.39
663.089	8.43
663.418	8.44
663.747	8.37
664.076	8.35
664.404	8.39
664.733	8.43
665.062	8.39
665.39	8.41
665.719	8.41
666.048	8.48
666.376	8.46
666.705	8.46
667.033	8.47
667.362	8.52
667.69	8.5
668.018	8.56
668.347	8.52
668.675	8.5
669.003	8.57
669.331	8.54
669.659	8.58
669.987	8.56
670.315	8.65
670.643	8.74
670.971	8.76
671.299	8.78
671.627	8.81
671.955	8.91
672.283	8.93
672.61	8.95
672.938	8.86
673.266	8.95
673.593	9
673.921	8.98
674.249	8.91
674.576	8.98
674.904	9
675.231	9.04
675.558	9.08
675.886	9.13
676.213	9.13
676.54	9.17
676.867	9.29
677.195	9.29
677.522	9.4
677.849	9.39
678.176	9.49
678.503	9.39
