Data from BA57710_Reflection_00008.txt Node
Date: Mon Nov 18 15:31:54 EST 2019
User: vgr7
Spectrometer: USB2G7710
Scans to average: 3
Trigger mode: 4
Integration Time (sec): 2.000000E-2
Electric dark correction enabled: true
Boxcar width: 10
XAxis mode: Wavelengths
Number of Pixels in Spectrum: 2048
>>>>>Begin Spectral Data<<<<<
177.721	13.07
178.105	-49.01
178.488	-70.86
178.871	-58.8
179.254	-340.99
179.636	74.23
180.019	-72.83
180.402	102.78
180.785	49.59
181.168	78.26
181.55	79.78
181.933	99.51
182.316	199.64
182.698	374.7
183.081	457.01
183.463	-713.23
183.846	-777.13
184.228	-168.94
184.611	-196.24
184.993	-65.67
185.376	-71.63
185.758	-95.95
186.14	-189.28
186.522	-230.79
186.904	-217.44
187.287	-399.09
187.669	-202.33
188.051	-257.76
188.433	-367.08
188.815	-109.42
189.197	-107.87
189.579	-87.9
189.961	-69.6
190.342	-90.73
190.724	-63.05
191.106	-72.18
191.488	-84.62
191.869	-72.29
192.251	-113.19
192.633	-130.49
193.014	-136.54
193.396	-156.79
193.777	-99
194.159	-104.98
194.54	-112.58
194.922	-106.39
195.303	-117.32
195.684	-112.94
196.065	-88.92
196.447	-80.07
196.828	-116.71
197.209	-102.73
197.59	-113.27
197.971	-119.62
198.352	-70.83
198.733	-104.1
199.114	-87.73
199.495	-70.7
199.876	-94.98
200.257	-69.21
200.638	-49.54
201.018	-53.28
201.399	-33.9
201.78	-30.03
202.16	-28.47
202.541	-14.4
202.922	-32.58
203.302	-43.04
203.683	-25.43
204.063	-40.07
204.444	-47.03
204.824	-44.32
205.204	-43.9
205.585	-54.42
205.965	-40.3
206.345	-59.43
206.725	-47.78
207.106	-66.18
207.486	-89.63
207.866	-69.89
208.246	-84.48
208.626	-124.52
209.006	-70.56
209.386	-136.63
209.766	-135.27
210.145	-96.91
210.525	-105.63
210.905	-54.84
211.285	-46.93
211.664	-50.87
212.044	-22.99
212.424	-22.44
212.803	-40.82
213.183	-27.15
213.562	-16.62
213.942	-23.11
214.321	-6.04
214.701	-11.62
215.08	8.86
215.459	8.91
215.838	-3.02
216.218	-1.31
216.597	10.95
216.976	3.05
217.355	3.28
217.734	5.99
218.113	3.7
218.492	-3.73
218.871	-18.27
219.25	-6.38
219.629	-7.17
220.008	-15.32
220.387	-3.29
220.766	-2.19
221.144	-22.87
221.523	-21.47
221.902	-25.84
222.28	-29.49
222.659	-34.46
223.037	-38.96
223.416	-42.07
223.794	-22.44
224.173	-21.84
224.551	-20.98
224.929	-32.26
225.308	-21.62
225.686	-21.7
226.064	-15.82
226.442	-14.2
226.821	-8.67
227.199	-7.56
227.577	-8.94
227.955	-12.55
228.333	-12.35
228.711	-7.38
229.089	1.34
229.467	2.12
229.845	0.39
230.222	3.59
230.6	4.24
230.978	4.52
231.356	5.03
231.733	3.2
232.111	5.37
232.488	5.21
232.866	5.97
233.243	6.35
233.621	6.24
233.998	6.52
234.376	4.63
234.753	2.34
235.13	1.32
235.508	1.06
235.885	2.39
236.262	1.67
236.639	0.73
237.016	-1.52
237.393	-0.81
237.77	1.33
238.147	0.88
238.524	1.71
238.901	1.95
239.278	2.47
239.655	3.96
240.032	3.65
240.409	3.28
240.785	4.05
241.162	3.43
241.539	3.13
241.915	3.14
242.292	3.46
242.668	4.62
243.045	4.79
243.421	4.88
243.798	4.89
244.174	4.89
244.551	4.86
244.927	4.67
245.303	4.74
245.679	4.57
246.056	4.57
246.432	4.58
246.808	4.58
247.184	4.36
247.56	3.98
247.936	3.85
248.312	4.02
248.688	4.09
249.064	4.1
249.44	4.38
249.815	4.51
250.191	4.63
250.567	4.54
250.943	4.49
251.318	4.59
251.694	4.57
252.069	4.62
252.445	4.74
252.82	4.99
253.196	4.92
253.571	5.2
253.947	5.66
254.322	5.45
254.697	5.26
255.073	5.26
255.448	5.17
255.823	5.34
256.198	5.24
256.573	4.86
256.948	4.89
257.323	4.81
257.698	4.78
258.073	4.8
258.448	4.54
258.823	4.49
259.198	4.52
259.573	4.62
259.948	4.57
260.322	4.59
260.697	4.57
261.072	4.39
261.446	4.41
261.821	4.07
262.195	4.28
262.57	4.4
262.944	4.31
263.319	4.21
263.693	4.13
264.067	4.31
264.442	4.46
264.816	4.39
265.19	4.4
265.564	4.27
265.938	4.13
266.313	4.29
266.687	4.29
267.061	4.39
267.435	4.34
267.809	4.22
268.183	4.12
268.556	4.12
268.93	4.4
269.304	4.4
269.678	4.51
270.051	4.37
270.425	4.3
270.799	4.56
271.172	4.58
271.546	4.61
271.919	4.33
272.293	4.38
272.666	4.6
273.04	4.49
273.413	4.43
273.787	4.47
274.16	4.38
274.533	4.38
274.906	4.26
275.279	4.2
275.653	4.31
276.026	4.38
276.399	4.25
276.772	4.32
277.145	4.25
277.518	4.27
277.891	4.37
278.263	4.45
278.636	4.32
279.009	4.46
279.382	4.54
279.755	4.46
280.127	4.59
280.5	4.5
280.872	4.67
281.245	4.85
281.617	4.96
281.99	5.08
282.362	5.03
282.735	4.85
283.107	4.86
283.479	4.88
283.852	4.93
284.224	5.12
284.596	4.97
284.968	5
285.34	5
285.713	5
286.085	4.86
286.457	5.03
286.829	4.96
287.201	4.88
287.572	5
287.944	4.81
288.316	4.76
288.688	4.61
289.06	4.47
289.431	4.48
289.803	4.46
290.175	4.53
290.546	4.79
290.918	4.78
291.289	4.83
291.661	4.71
292.032	4.74
292.403	4.65
292.775	4.61
293.146	4.58
293.517	4.51
293.889	4.66
294.26	4.53
294.631	4.51
295.002	4.5
295.373	4.47
295.744	4.41
296.115	4.5
296.486	4.53
296.857	4.68
297.228	4.58
297.599	4.57
297.97	4.6
298.34	4.6
298.711	4.67
299.082	4.55
299.452	4.76
299.823	4.82
300.194	4.83
300.564	4.85
300.935	4.86
301.305	4.79
301.676	4.9
302.046	5.02
302.416	5.25
302.787	5.3
303.157	5.44
303.527	5.57
303.897	5.71
304.267	5.9
304.637	5.88
305.008	6.1
305.378	6.28
305.748	6.38
306.117	6.23
306.487	6.29
306.857	6.4
307.227	6.24
307.597	6.18
307.967	6.42
308.336	6.57
308.706	6.74
309.076	6.94
309.445	6.93
309.815	6.93
310.184	6.81
310.554	6.89
310.923	6.77
311.293	6.86
311.662	6.88
312.031	6.91
312.401	7
312.77	7.05
313.139	7.08
313.508	7.08
313.877	7.12
314.246	7.21
314.616	7.17
314.985	7.32
315.353	7.4
315.722	7.49
316.091	7.43
316.46	7.56
316.829	7.68
317.198	7.64
317.567	7.71
317.935	7.82
318.304	8
318.672	8.17
319.041	8.34
319.41	8.29
319.778	8.44
320.147	8.33
320.515	8.26
320.883	8.2
321.252	8.33
321.62	8.77
321.988	8.93
322.357	9.11
322.725	9.27
323.093	9.29
323.461	9.32
323.829	9.45
324.197	9.44
324.565	9.45
324.933	9.61
325.301	9.81
325.669	9.97
326.037	10.06
326.405	10.12
326.772	10.08
327.14	10.17
327.508	10.15
327.875	10.27
328.243	10.43
328.61	10.61
328.978	10.73
329.346	10.67
329.713	10.58
330.08	10.69
330.448	10.66
330.815	10.69
331.182	10.72
331.55	10.81
331.917	10.87
332.284	10.95
332.651	11
333.018	10.9
333.385	10.89
333.752	10.89
334.119	11.09
334.486	11.21
334.853	11.22
335.22	11.28
335.587	11.4
335.954	11.47
336.32	11.38
336.687	11.38
337.054	11.35
337.42	11.48
337.787	11.59
338.153	11.67
338.52	11.75
338.886	11.84
339.253	11.84
339.619	11.83
339.986	11.83
340.352	11.83
340.718	11.86
341.084	11.86
341.451	12
341.817	12
342.183	11.92
342.549	11.86
342.915	11.95
343.281	11.99
343.647	11.84
344.013	11.99
344.379	11.93
344.745	12.03
345.11	12.06
345.476	12.06
345.842	12.14
346.208	12.22
346.573	12.19
346.939	12.26
347.304	12.3
347.67	12.14
348.035	12.23
348.401	12.36
348.766	12.35
349.132	12.3
349.497	12.3
349.862	12.4
350.228	12.55
350.593	12.5
350.958	12.58
351.323	12.77
351.688	12.79
352.053	12.84
352.418	12.89
352.783	12.84
353.148	12.82
353.513	12.75
353.878	12.7
354.243	12.83
354.608	12.81
354.972	12.78
355.337	12.97
355.702	13.07
356.066	13.06
356.431	13.11
356.795	13.12
357.16	13.06
357.524	13.08
357.889	12.99
358.253	12.96
358.618	12.91
358.982	12.86
359.346	12.79
359.71	12.77
360.075	12.73
360.439	12.75
360.803	12.77
361.167	12.76
361.531	12.74
361.895	12.66
362.259	12.62
362.623	12.63
362.987	12.58
363.351	12.52
363.714	12.47
364.078	12.45
364.442	12.38
364.806	12.33
365.169	12.23
365.533	12.28
365.896	12.31
366.26	12.19
366.623	12.15
366.987	12.14
367.35	12.1
367.714	12
368.077	11.89
368.44	11.84
368.803	11.81
369.167	11.82
369.53	11.76
369.893	11.8
370.256	11.84
370.619	11.8
370.982	11.67
371.345	11.64
371.708	11.6
372.071	11.57
372.434	11.58
372.797	11.59
373.159	11.54
373.522	11.45
373.885	11.47
374.247	11.44
374.61	11.4
374.973	11.31
375.335	11.26
375.698	11.2
376.06	11.15
376.423	11.07
376.785	10.97
377.147	10.97
377.51	10.81
377.872	10.7
378.234	10.64
378.596	10.68
378.958	10.57
379.321	10.49
379.683	10.42
380.045	10.37
380.407	10.3
380.769	10.21
381.13	10.21
381.492	10.18
381.854	10.13
382.216	10.07
382.578	10.1
382.939	10.02
383.301	9.98
383.663	9.87
384.024	9.85
384.386	9.82
384.747	9.76
385.109	9.77
385.47	9.65
385.832	9.63
386.193	9.58
386.554	9.52
386.916	9.49
387.277	9.49
387.638	9.44
387.999	9.37
388.36	9.33
388.721	9.29
389.082	9.23
389.443	9.17
389.804	9.11
390.165	9.05
390.526	9.06
390.887	9.04
391.248	9.04
391.609	9.02
391.969	8.95
392.33	8.89
392.691	8.82
393.051	8.81
393.412	8.77
393.772	8.68
394.133	8.65
394.493	8.63
394.854	8.56
395.214	8.51
395.574	8.47
395.935	8.4
396.295	8.28
396.655	8.23
397.015	8.13
397.376	8.07
397.736	7.97
398.096	7.89
398.456	7.8
398.816	7.76
399.176	7.63
399.535	7.57
399.895	7.52
400.255	7.44
400.615	7.38
400.975	7.26
401.334	7.2
401.694	7.11
402.054	7.04
402.413	6.99
402.773	6.87
403.132	6.82
403.492	6.79
403.851	6.76
404.211	6.71
404.57	6.68
404.929	6.65
405.288	6.61
405.648	6.55
406.007	6.53
406.366	6.46
406.725	6.44
407.084	6.44
407.443	6.43
407.802	6.47
408.161	6.42
408.52	6.41
408.879	6.39
409.238	6.37
409.596	6.35
409.955	6.3
410.314	6.34
410.673	6.29
411.031	6.26
411.39	6.25
411.748	6.23
412.107	6.23
412.465	6.18
412.824	6.16
413.182	6.14
413.54	6.14
413.899	6.13
414.257	6.11
414.615	6.07
414.974	6.02
415.332	5.94
415.69	5.91
416.048	5.89
416.406	5.86
416.764	5.84
417.122	5.81
417.48	5.8
417.838	5.78
418.195	5.78
418.553	5.75
418.911	5.71
419.269	5.68
419.626	5.64
419.984	5.6
420.342	5.57
420.699	5.55
421.057	5.5
421.414	5.46
421.772	5.44
422.129	5.41
422.486	5.38
422.844	5.36
423.201	5.34
423.558	5.32
423.915	5.3
424.273	5.28
424.63	5.25
424.987	5.24
425.344	5.21
425.701	5.17
426.058	5.14
426.415	5.12
426.772	5.1
427.128	5.07
427.485	5.08
427.842	5.06
428.199	5.03
428.555	5.03
428.912	5.03
429.269	5.02
429.625	4.97
429.982	4.95
430.338	4.93
430.695	4.91
431.051	4.9
431.407	4.87
431.764	4.87
432.12	4.83
432.476	4.8
432.832	4.78
433.189	4.78
433.545	4.79
433.901	4.79
434.257	4.77
434.613	4.82
434.969	4.81
435.325	4.82
435.681	4.83
436.036	4.81
436.392	4.81
436.748	4.79
437.104	4.81
437.459	4.83
437.815	4.83
438.171	4.84
438.526	4.86
438.882	4.88
439.237	4.87
439.593	4.88
439.948	4.87
440.304	4.88
440.659	4.87
441.014	4.86
441.369	4.85
441.725	4.83
442.08	4.81
442.435	4.8
442.79	4.8
443.145	4.8
443.5	4.79
443.855	4.78
444.21	4.79
444.565	4.78
444.92	4.77
445.275	4.75
445.629	4.74
445.984	4.72
446.339	4.69
446.693	4.67
447.048	4.65
447.403	4.64
447.757	4.62
448.112	4.6
448.466	4.59
448.82	4.58
449.175	4.59
449.529	4.56
449.883	4.54
450.238	4.51
450.592	4.49
450.946	4.47
451.3	4.45
451.654	4.43
452.008	4.42
452.362	4.39
452.716	4.38
453.07	4.37
453.424	4.35
453.778	4.34
454.132	4.33
454.486	4.32
454.839	4.33
455.193	4.31
455.547	4.31
455.9	4.3
456.254	4.29
456.607	4.28
456.961	4.28
457.314	4.29
457.668	4.31
458.021	4.29
458.375	4.28
458.728	4.28
459.081	4.27
459.434	4.27
459.787	4.29
460.141	4.29
460.494	4.28
460.847	4.3
461.2	4.29
461.553	4.32
461.906	4.34
462.259	4.37
462.611	4.4
462.964	4.42
463.317	4.45
463.67	4.48
464.022	4.48
464.375	4.48
464.728	4.5
465.08	4.53
465.433	4.56
465.785	4.59
466.138	4.62
466.49	4.62
466.843	4.64
467.195	4.66
467.547	4.68
467.899	4.7
468.252	4.71
468.604	4.74
468.956	4.77
469.308	4.78
469.66	4.77
470.012	4.79
470.364	4.81
470.716	4.8
471.068	4.8
471.42	4.83
471.772	4.88
472.123	4.9
472.475	4.9
472.827	4.94
473.178	4.95
473.53	4.96
473.882	5
474.233	5.02
474.585	5
474.936	5.02
475.288	5.03
475.639	5.04
475.99	5.04
476.342	5
476.693	5.01
477.044	5.02
477.395	5.01
477.746	4.98
478.097	4.98
478.448	4.97
478.8	4.94
479.15	4.91
479.501	4.91
479.852	4.9
480.203	4.89
480.554	4.89
480.905	4.89
481.255	4.89
481.606	4.87
481.957	4.86
482.307	4.86
482.658	4.85
483.009	4.84
483.359	4.84
483.709	4.85
484.06	4.84
484.41	4.84
484.761	4.84
485.111	4.84
485.461	4.84
485.811	4.84
486.162	4.84
486.512	4.85
486.862	4.84
487.212	4.84
487.562	4.83
487.912	4.82
488.262	4.81
488.612	4.8
488.961	4.81
489.311	4.83
489.661	4.84
490.011	4.84
490.36	4.86
490.71	4.85
491.06	4.86
491.409	4.86
491.759	4.86
492.108	4.87
492.458	4.89
492.807	4.9
493.157	4.94
493.506	4.96
493.855	4.98
494.204	4.99
494.554	5.02
494.903	5.04
495.252	5.07
495.601	5.11
495.95	5.16
496.299	5.18
496.648	5.22
496.997	5.24
497.346	5.29
497.695	5.34
498.043	5.39
498.392	5.43
498.741	5.5
499.09	5.56
499.438	5.62
499.787	5.67
500.135	5.74
500.484	5.79
500.832	5.87
501.181	5.95
501.529	6.01
501.878	6.08
502.226	6.19
502.574	6.28
502.923	6.36
503.271	6.45
503.619	6.55
503.967	6.64
504.315	6.75
504.663	6.85
505.011	6.91
505.359	7
505.707	7.1
506.055	7.2
506.403	7.33
506.751	7.44
507.098	7.58
507.446	7.69
507.794	7.8
508.141	7.92
508.489	8.03
508.837	8.17
509.184	8.3
509.531	8.43
509.879	8.58
510.226	8.72
510.574	8.83
510.921	8.96
511.268	9.09
511.616	9.2
511.963	9.34
512.31	9.52
512.657	9.71
513.004	9.87
513.351	10.03
513.698	10.17
514.045	10.32
514.392	10.46
514.739	10.61
515.086	10.78
515.432	10.95
515.779	11.08
516.126	11.24
516.473	11.4
516.819	11.5
517.166	11.61
517.512	11.74
517.859	11.88
518.205	12
518.552	12.12
518.898	12.27
519.245	12.4
519.591	12.52
519.937	12.61
520.283	12.75
520.629	12.89
520.976	13.05
521.322	13.2
521.668	13.39
522.014	13.57
522.36	13.75
522.706	13.95
523.052	14.23
523.398	14.45
523.743	14.68
524.089	14.93
524.435	15.16
524.781	15.37
525.126	15.57
525.472	15.79
525.817	15.95
526.163	16.1
526.509	16.26
526.854	16.4
527.199	16.56
527.545	16.67
527.89	16.82
528.235	16.97
528.581	17.14
528.926	17.27
529.271	17.42
529.616	17.55
529.961	17.68
530.306	17.79
530.651	17.94
530.996	18.1
531.341	18.29
531.686	18.46
532.031	18.65
532.376	18.84
532.721	19.03
533.065	19.24
533.41	19.45
533.755	19.67
534.099	19.91
534.444	20.12
534.788	20.38
535.133	20.57
535.477	20.8
535.822	21.02
536.166	21.28
536.51	21.55
536.855	21.88
537.199	22.17
537.543	22.5
537.887	22.82
538.231	23.13
538.576	23.42
538.92	23.72
539.264	24.04
539.608	24.31
539.951	24.58
540.295	24.84
540.639	25.08
540.983	25.29
541.327	25.51
541.671	25.73
542.014	25.95
542.358	26.2
542.701	26.43
543.045	26.67
543.389	26.92
543.732	27.14
544.075	27.39
544.419	27.64
544.762	27.92
545.105	28.18
545.449	28.46
545.792	28.77
546.135	29.06
546.478	29.36
546.821	29.69
547.165	29.99
547.508	30.39
547.851	30.69
548.194	31.08
548.536	31.43
548.879	31.82
549.222	32.18
549.565	32.56
549.908	32.89
550.25	33.24
550.593	33.59
550.936	33.93
551.278	34.25
551.621	34.57
551.963	34.94
552.306	35.25
552.648	35.54
552.991	35.9
553.333	36.24
553.675	36.53
554.017	36.86
554.36	37.18
554.702	37.42
555.044	37.76
555.386	38.04
555.728	38.35
556.07	38.66
556.412	38.95
556.754	39.24
557.096	39.58
557.438	39.85
557.78	40.12
558.121	40.45
558.463	40.75
558.805	41.02
559.147	41.25
559.488	41.55
559.83	41.83
560.171	42.1
560.513	42.41
560.854	42.67
561.196	42.91
561.537	43.11
561.878	43.39
562.22	43.68
562.561	43.95
562.902	44.15
563.243	44.36
563.584	44.6
563.925	44.81
564.266	44.99
564.607	45.22
564.948	45.41
565.289	45.59
565.63	45.84
565.971	46.07
566.312	46.27
566.653	46.47
566.993	46.68
567.334	46.85
567.675	47.02
568.015	47.19
568.356	47.42
568.696	47.65
569.037	47.81
569.377	47.93
569.718	48.11
570.058	48.35
570.398	48.55
570.739	48.69
571.079	48.87
571.419	49.09
571.759	49.31
572.099	49.46
572.439	49.61
572.779	49.7
573.119	49.83
573.459	49.9
573.799	50.05
574.139	50.19
574.479	50.33
574.819	50.44
575.158	50.57
575.498	50.63
575.838	50.72
576.177	50.84
576.517	51
576.856	51.1
577.196	51.21
577.535	51.32
577.875	51.41
578.214	51.48
578.553	51.59
578.893	51.62
579.232	51.81
579.571	51.98
579.91	52.1
580.25	52.21
580.589	52.43
580.928	52.5
581.267	52.7
581.606	52.75
581.945	52.86
582.283	52.95
582.622	53.15
582.961	53.3
583.3	53.44
583.639	53.62
583.977	53.77
584.316	53.87
584.654	53.94
584.993	54.11
585.332	54.21
585.67	54.25
586.008	54.38
586.347	54.44
586.685	54.52
587.024	54.63
587.362	54.74
587.7	54.79
588.038	54.98
588.376	54.98
588.715	55.12
589.053	55.21
589.391	55.3
589.729	55.34
590.067	55.41
590.404	55.4
590.742	55.39
591.08	55.51
591.418	55.56
591.756	55.62
592.093	55.69
592.431	55.82
592.769	55.92
593.106	56.02
593.444	56.1
593.781	56.09
594.119	56.19
594.456	56.26
594.793	56.33
595.131	56.34
595.468	56.37
595.805	56.43
596.143	56.54
596.48	56.56
596.817	56.65
597.154	56.66
597.491	56.74
597.828	56.89
598.165	56.96
598.502	57.08
598.839	57.15
599.176	57.26
599.512	57.33
599.849	57.41
600.186	57.41
600.523	57.48
600.859	57.59
601.196	57.64
601.532	57.69
601.869	57.85
602.205	57.93
602.542	58.02
602.878	58.02
603.215	57.96
603.551	58.04
603.887	58.06
604.223	58.17
604.56	58.22
604.896	58.21
605.232	58.17
605.568	58.13
605.904	58.14
606.24	58.12
606.576	58.15
606.912	58.16
607.248	58.18
607.583	58.21
607.919	58.26
608.255	58.3
608.591	58.31
608.926	58.28
609.262	58.36
609.597	58.37
609.933	58.46
610.268	58.53
610.604	58.58
610.939	58.6
611.275	58.62
611.61	58.53
611.945	58.53
612.281	58.56
612.616	58.58
612.951	58.68
613.286	58.82
613.621	58.74
613.956	58.77
614.291	58.94
614.626	58.95
614.961	58.92
615.296	58.88
615.631	58.89
615.966	58.93
616.3	58.87
616.635	58.94
616.97	58.94
617.304	59.1
617.639	59.21
617.973	59.26
618.308	59.22
618.642	59.44
618.977	59.43
619.311	59.48
619.646	59.63
619.98	59.68
620.314	59.64
620.648	59.75
620.983	59.9
621.317	59.85
621.651	59.98
621.985	60.1
622.319	60.2
622.653	60.29
622.987	60.29
623.321	60.3
623.655	60.32
623.988	60.37
624.322	60.25
624.656	60.18
624.99	60.18
625.323	60.29
625.657	60.27
625.99	60.36
626.324	60.34
626.657	60.24
626.991	60.21
627.324	60.19
627.658	60.12
627.991	60.14
628.324	60.15
628.657	60.02
628.991	60.04
629.324	60.06
629.657	60.08
629.99	60.07
630.323	60.14
630.656	60.16
630.989	60.14
631.322	60.15
631.655	60.17
631.987	60.26
632.32	60.26
632.653	60.3
632.986	60.29
633.318	60.36
633.651	60.47
633.984	60.54
634.316	60.72
634.649	60.8
634.981	60.77
635.313	60.81
635.646	60.85
635.978	60.81
636.31	60.82
636.643	60.85
636.975	60.88
637.307	60.95
637.639	60.96
637.971	61
638.303	61
638.635	60.95
638.967	60.86
639.299	60.91
639.631	60.88
639.963	60.93
640.295	60.88
640.626	61
640.958	60.96
641.29	60.88
641.621	60.9
641.953	60.9
642.285	60.89
642.616	60.92
642.948	60.95
643.279	61.01
643.61	61.01
643.942	61.09
644.273	60.94
644.604	60.99
644.936	61.03
645.267	61.08
645.598	61.15
645.929	61.21
646.26	61.08
646.591	61.21
646.922	61.22
647.253	61.34
647.584	61.29
647.915	61.35
648.245	61.21
648.576	61.37
648.907	61.38
649.238	61.4
649.568	61.47
649.899	61.48
650.229	61.41
650.56	61.43
650.89	61.41
651.221	61.5
651.551	61.49
651.882	61.51
652.212	61.59
652.542	61.68
652.872	61.8
653.203	61.93
653.533	61.77
653.863	61.84
654.193	61.92
654.523	61.92
654.853	61.94
655.183	62.28
655.513	62.17
655.843	62.16
656.172	62.27
656.502	62.3
656.832	62.37
657.162	62.57
657.491	62.52
657.821	62.52
658.15	62.61
658.48	62.73
658.809	62.75
659.139	62.79
659.468	62.69
659.798	62.56
660.127	62.55
660.456	62.67
660.785	62.77
661.115	62.67
661.444	62.56
661.773	62.55
662.102	62.39
662.431	62.42
662.76	62.43
663.089	62.33
663.418	62.34
663.747	62.29
