Data from BA57757_Reflection_00031.txt Node
Date: Mon Nov 18 15:01:54 EST 2019
User: vgr7
Spectrometer: USB2G7710
Scans to average: 3
Trigger mode: 4
Integration Time (sec): 2.000000E-2
Electric dark correction enabled: true
Boxcar width: 10
XAxis mode: Wavelengths
Number of Pixels in Spectrum: 2048
>>>>>Begin Spectral Data<<<<<
177.721	197
178.105	72.13
178.488	-874.9
178.871	587.07
179.254	-38.95
179.636	548.28
180.019	-25.63
180.402	75.61
180.785	-171.03
181.168	-10.62
181.55	1053.49
181.933	94.91
182.316	60.56
182.698	52.59
183.081	58.23
183.463	65.79
183.846	30.44
184.228	15.76
184.611	-48.6
184.993	19
185.376	40.37
185.758	-28.55
186.14	-72.83
186.522	-113.37
186.904	-17.3
187.287	696.33
187.669	-172.41
188.051	-237.52
188.433	-85.89
188.815	-67.22
189.197	-69.8
189.579	-48.32
189.961	-35.44
190.342	-34.6
190.724	-17.33
191.106	-31.32
191.488	-16.83
191.869	-17.1
192.251	-39.53
192.633	-34.43
193.014	-1.95
193.396	-17.45
193.777	-9.55
194.159	-6.79
194.54	-9.96
194.922	-12.4
195.303	-18.52
195.684	-8.61
196.065	13.84
196.447	3.05
196.828	-2.48
197.209	10.09
197.59	12.15
197.971	14.74
198.352	15.77
198.733	12.65
199.114	20.4
199.495	11.08
199.876	12.04
200.257	16.13
200.638	15.09
201.018	2.08
201.399	-4.37
201.78	-1.92
202.16	-14.28
202.541	-15.23
202.922	-23.46
203.302	-30.64
203.683	-26.53
204.063	-38.48
204.444	-30.03
204.824	-21.5
205.204	-36.81
205.585	-48.49
205.965	-54.27
206.345	-66.41
206.725	-37.75
207.106	-61.5
207.486	-46.09
207.866	-51.58
208.246	-36.21
208.626	-47.17
209.006	-19.9
209.386	-29.53
209.766	-36.96
210.145	-18.95
210.525	-11.82
210.905	2
211.285	6.44
211.664	7.77
212.044	5.3
212.424	4.71
212.803	11.17
213.183	29.95
213.562	46.89
213.942	38.32
214.321	31.36
214.701	19.58
215.08	27.63
215.459	30.7
215.838	41.8
216.218	26.54
216.597	35.57
216.976	45.51
217.355	56.19
217.734	70.32
218.113	69.94
218.492	74.16
218.871	82.74
219.25	76.35
219.629	68.26
220.008	65.37
220.387	57.22
220.766	55.07
221.144	39.88
221.523	36.08
221.902	48.43
222.28	53.02
222.659	39.17
223.037	46.02
223.416	34.39
223.794	26.75
224.173	33.35
224.551	34.07
224.929	26.51
225.308	27.58
225.686	19.69
226.064	19.76
226.442	21.55
226.821	22.55
227.199	19.06
227.577	14.66
227.955	13.12
228.333	14.89
228.711	14.75
229.089	16.66
229.467	13.15
229.845	10.12
230.222	9.85
230.6	10.02
230.978	7.63
231.356	9.88
231.733	8.82
232.111	9.03
232.488	9.19
232.866	8.2
233.243	7.91
233.621	7.76
233.998	7.56
234.376	7.61
234.753	5.7
235.13	5.4
235.508	7.39
235.885	6.62
236.262	4.75
236.639	4.63
237.016	4.78
237.393	7.37
237.77	8.19
238.147	7.76
238.524	8.49
238.901	8.58
239.278	8.28
239.655	8.51
240.032	8.42
240.409	7.41
240.785	7.17
241.162	7.02
241.539	7.17
241.915	6.91
242.292	6.14
242.668	6.3
243.045	6.54
243.421	6.35
243.798	6.36
244.174	6.21
244.551	6.2
244.927	5.92
245.303	5.66
245.679	5.64
246.056	5.63
246.432	5.56
246.808	5.42
247.184	5.21
247.56	4.82
247.936	4.69
248.312	4.59
248.688	4.93
249.064	4.65
249.44	4.63
249.815	4.69
250.191	4.97
250.567	5.09
250.943	4.97
251.318	4.92
251.694	4.83
252.069	4.8
252.445	4.84
252.82	4.88
253.196	4.82
253.571	4.96
253.947	4.87
254.322	4.78
254.697	4.92
255.073	4.71
255.448	4.85
255.823	4.89
256.198	5.3
256.573	5.06
256.948	5.62
257.323	5.79
257.698	5.88
258.073	5.61
258.448	5.41
258.823	5.38
259.198	5.22
259.573	5.17
259.948	5.2
260.322	5.18
260.697	5.09
261.072	5.13
261.446	5.18
261.821	5.22
262.195	5.33
262.57	5.39
262.944	5.44
263.319	5.5
263.693	5.36
264.067	5.36
264.442	5.56
264.816	5.34
265.19	5.21
265.564	5.14
265.938	5.23
266.313	5.19
266.687	5.19
267.061	5.5
267.435	5.66
267.809	5.69
268.183	5.48
268.556	5.55
268.93	5.52
269.304	5.4
269.678	5.46
270.051	5.27
270.425	5.24
270.799	5.28
271.172	5.32
271.546	5.42
271.919	5.29
272.293	5.04
272.666	4.99
273.04	5.1
273.413	4.94
273.787	4.98
274.16	5.13
274.533	5.22
274.906	5
275.279	4.86
275.653	4.91
276.026	5.02
276.399	5.09
276.772	5.02
277.145	4.97
277.518	4.99
277.891	5.13
278.263	5.15
278.636	5.31
279.009	5.24
279.382	5.53
279.755	5.49
280.127	5.66
280.5	5.61
280.872	5.51
281.245	5.55
281.617	5.52
281.99	5.49
282.362	5.53
282.735	5.51
283.107	5.57
283.479	5.53
283.852	5.49
284.224	5.48
284.596	5.46
284.968	5.53
285.34	5.51
285.713	5.34
286.085	5.34
286.457	5.37
286.829	5.38
287.201	5.12
287.572	5.11
287.944	5.06
288.316	5.18
288.688	5.07
289.06	5.1
289.431	5.14
289.803	5.08
290.175	5.08
290.546	5.28
290.918	5.32
291.289	5.42
291.661	5.56
292.032	5.66
292.403	5.8
292.775	5.93
293.146	5.89
293.517	5.99
293.889	6.16
294.26	6.09
294.631	6.14
295.002	6.34
295.373	6.46
295.744	6.51
296.115	6.5
296.486	6.49
296.857	6.64
297.228	6.71
297.599	6.78
297.97	6.79
298.34	6.8
298.711	6.79
299.082	6.78
299.452	6.74
299.823	6.73
300.194	6.68
300.564	6.47
300.935	6.53
301.305	6.52
301.676	6.44
302.046	6.4
302.416	6.44
302.787	6.39
303.157	6.26
303.527	6.28
303.897	6.31
304.267	6.59
304.637	6.6
305.008	6.61
305.378	6.64
305.748	6.73
306.117	6.59
306.487	6.67
306.857	6.69
307.227	6.71
307.597	6.62
307.967	6.7
308.336	6.95
308.706	6.87
309.076	7.02
309.445	7.05
309.815	7.1
310.184	7.1
310.554	7.09
310.923	7.22
311.293	7.32
311.662	7.2
312.031	7.05
312.401	6.95
312.77	6.98
313.139	6.96
313.508	6.91
313.877	6.93
314.246	6.93
314.616	6.93
314.985	6.92
315.353	7
315.722	6.99
316.091	6.89
316.46	6.87
316.829	6.84
317.198	6.69
317.567	6.67
317.935	6.65
318.304	6.72
318.672	6.61
319.041	6.53
319.41	6.57
319.778	6.64
320.147	6.67
320.515	6.57
320.883	6.49
321.252	6.6
321.62	6.57
321.988	6.57
322.357	6.47
322.725	6.31
323.093	6.29
323.461	6.25
323.829	6.26
324.197	6.53
324.565	6.5
324.933	6.61
325.301	6.6
325.669	6.52
326.037	6.44
326.405	6.49
326.772	6.51
327.14	6.66
327.508	6.76
327.875	6.72
328.243	6.84
328.61	6.78
328.978	6.64
329.346	6.8
329.713	6.7
330.08	6.78
330.448	7.01
330.815	6.93
331.182	6.89
331.55	6.94
331.917	6.81
332.284	6.93
332.651	6.96
333.018	6.97
333.385	6.95
333.752	7.06
334.119	7.07
334.486	7.07
334.853	7
335.22	6.93
335.587	6.99
335.954	6.93
336.32	7.02
336.687	7.07
337.054	7.07
337.42	7.29
337.787	7.23
338.153	7.07
338.52	7.05
338.886	7.01
339.253	6.96
339.619	6.9
339.986	6.82
340.352	6.77
340.718	6.81
341.084	6.89
341.451	6.89
341.817	6.88
342.183	6.77
342.549	6.8
342.915	6.8
343.281	6.89
343.647	6.81
344.013	6.81
344.379	6.74
344.745	6.66
345.11	6.49
345.476	6.53
345.842	6.6
346.208	6.73
346.573	6.8
346.939	6.88
347.304	6.88
347.67	6.87
348.035	6.88
348.401	6.9
348.766	6.99
349.132	6.9
349.497	6.9
349.862	6.96
350.228	6.9
350.593	6.91
350.958	6.83
351.323	6.96
351.688	6.99
352.053	7.09
352.418	7.13
352.783	7.14
353.148	7.15
353.513	7.12
353.878	6.98
354.243	7.02
354.608	6.98
354.972	7
355.337	7.02
355.702	6.99
356.066	6.94
356.431	6.83
356.795	6.9
357.16	6.84
357.524	6.76
357.889	6.74
358.253	6.71
358.618	6.73
358.982	6.61
359.346	6.57
359.71	6.51
360.075	6.47
360.439	6.49
360.803	6.48
361.167	6.4
361.531	6.43
361.895	6.36
362.259	6.33
362.623	6.31
362.987	6.27
363.351	6.25
363.714	6.21
364.078	6.18
364.442	6.08
364.806	6
365.169	6.06
365.533	6.07
365.896	6.07
366.26	6.03
366.623	6.04
366.987	6.03
367.35	6
367.714	6.03
368.077	5.98
368.44	5.97
368.803	6.07
369.167	6.05
369.53	6.05
369.893	6.08
370.256	6.12
370.619	6.08
370.982	6.09
371.345	6.11
371.708	6.21
372.071	6.23
372.434	6.25
372.797	6.22
373.159	6.21
373.522	6.15
373.885	6.13
374.247	6.16
374.61	6.16
374.973	6.2
375.335	6.13
375.698	6.12
376.06	6.08
376.423	6.03
376.785	6.07
377.147	6.08
377.51	6.03
377.872	5.97
378.234	6.06
378.596	6.02
378.958	5.97
379.321	5.91
379.683	5.95
380.045	5.97
380.407	5.94
380.769	5.93
381.13	5.94
381.492	5.95
381.854	5.92
382.216	5.91
382.578	5.92
382.939	5.95
383.301	5.93
383.663	5.95
384.024	5.98
384.386	6.03
384.747	6.05
385.109	6.08
385.47	6.12
385.832	6.1
386.193	6.11
386.554	6.18
386.916	6.19
387.277	6.2
387.638	6.21
387.999	6.24
388.36	6.25
388.721	6.3
389.082	6.27
389.443	6.28
389.804	6.28
390.165	6.26
390.526	6.26
390.887	6.26
391.248	6.28
391.609	6.23
391.969	6.2
392.33	6.21
392.691	6.18
393.051	6.13
393.412	6.08
393.772	6.05
394.133	6.03
394.493	6.04
394.854	6
395.214	6
395.574	6
395.935	6
396.295	6.03
396.655	6.03
397.015	6
397.376	6
397.736	6
398.096	5.98
398.456	5.99
398.816	5.99
399.176	6
399.535	5.96
399.895	5.95
400.255	5.93
400.615	5.94
400.975	6.01
401.334	6.04
401.694	6.01
402.054	6.01
402.413	6.02
402.773	5.99
403.132	5.96
403.492	5.97
403.851	5.89
404.211	5.88
404.57	5.9
404.929	5.91
405.288	5.87
405.648	5.87
406.007	5.86
406.366	5.82
406.725	5.86
407.084	5.88
407.443	5.87
407.802	5.91
408.161	5.89
408.52	5.84
408.879	5.86
409.238	5.88
409.596	5.84
409.955	5.83
410.314	5.85
410.673	5.85
411.031	5.81
411.39	5.83
411.748	5.83
412.107	5.82
412.465	5.81
412.824	5.8
413.182	5.79
413.54	5.82
413.899	5.84
414.257	5.81
414.615	5.79
414.974	5.82
415.332	5.78
415.69	5.76
416.048	5.77
416.406	5.77
416.764	5.76
417.122	5.77
417.48	5.76
417.838	5.78
418.195	5.76
418.553	5.79
418.911	5.8
419.269	5.82
419.626	5.81
419.984	5.82
420.342	5.85
420.699	5.85
421.057	5.85
421.414	5.85
421.772	5.84
422.129	5.86
422.486	5.84
422.844	5.85
423.201	5.85
423.558	5.85
423.915	5.85
424.273	5.86
424.63	5.85
424.987	5.86
425.344	5.85
425.701	5.86
426.058	5.84
426.415	5.84
426.772	5.83
427.128	5.84
427.485	5.83
427.842	5.82
428.199	5.83
428.555	5.79
428.912	5.8
429.269	5.8
429.625	5.73
429.982	5.73
430.338	5.7
430.695	5.71
431.051	5.71
431.407	5.7
431.764	5.7
432.12	5.69
432.476	5.7
432.832	5.7
433.189	5.72
433.545	5.7
433.901	5.68
434.257	5.67
434.613	5.65
434.969	5.66
435.325	5.67
435.681	5.67
436.036	5.7
436.392	5.7
436.748	5.69
437.104	5.7
437.459	5.7
437.815	5.72
438.171	5.71
438.526	5.71
438.882	5.71
439.237	5.71
439.593	5.71
439.948	5.7
440.304	5.69
440.659	5.69
441.014	5.7
441.369	5.7
441.725	5.69
442.08	5.7
442.435	5.7
442.79	5.68
443.145	5.68
443.5	5.66
443.855	5.64
444.21	5.66
444.565	5.68
444.92	5.69
445.275	5.68
445.629	5.68
445.984	5.68
446.339	5.67
446.693	5.67
447.048	5.64
447.403	5.63
447.757	5.62
448.112	5.59
448.466	5.57
448.82	5.56
449.175	5.57
449.529	5.56
449.883	5.54
450.238	5.54
450.592	5.55
450.946	5.53
451.3	5.53
451.654	5.49
452.008	5.5
452.362	5.51
452.716	5.5
453.07	5.5
453.424	5.5
453.778	5.5
454.132	5.49
454.486	5.5
454.839	5.5
455.193	5.5
455.547	5.52
455.9	5.56
456.254	5.56
456.607	5.55
456.961	5.57
457.314	5.58
457.668	5.56
458.021	5.56
458.375	5.54
458.728	5.56
459.081	5.57
459.434	5.55
459.787	5.55
460.141	5.55
460.494	5.53
460.847	5.54
461.2	5.55
461.553	5.54
461.906	5.55
462.259	5.56
462.611	5.6
462.964	5.59
463.317	5.57
463.67	5.57
464.022	5.58
464.375	5.56
464.728	5.55
465.08	5.54
465.433	5.54
465.785	5.57
466.138	5.58
466.49	5.59
466.843	5.57
467.195	5.57
467.547	5.58
467.899	5.58
468.252	5.57
468.604	5.57
468.956	5.57
469.308	5.58
469.66	5.6
470.012	5.58
470.364	5.59
470.716	5.59
471.068	5.6
471.42	5.59
471.772	5.62
472.123	5.63
472.475	5.65
472.827	5.65
473.178	5.67
473.53	5.67
473.882	5.66
474.233	5.68
474.585	5.65
474.936	5.66
475.288	5.66
475.639	5.67
475.99	5.66
476.342	5.66
476.693	5.67
477.044	5.65
477.395	5.65
477.746	5.66
478.097	5.67
478.448	5.68
478.8	5.66
479.15	5.66
479.501	5.68
479.852	5.69
480.203	5.7
480.554	5.7
480.905	5.71
481.255	5.72
481.606	5.73
481.957	5.75
482.307	5.75
482.658	5.75
483.009	5.75
483.359	5.76
483.709	5.77
484.06	5.77
484.41	5.77
484.761	5.77
485.111	5.77
485.461	5.77
485.811	5.76
486.162	5.77
486.512	5.77
486.862	5.76
487.212	5.75
487.562	5.75
487.912	5.74
488.262	5.73
488.612	5.72
488.961	5.71
489.311	5.7
489.661	5.7
490.011	5.71
490.36	5.7
490.71	5.7
491.06	5.7
491.409	5.69
491.759	5.69
492.108	5.68
492.458	5.68
492.807	5.66
493.157	5.66
493.506	5.67
493.855	5.66
494.204	5.67
494.554	5.67
494.903	5.65
495.252	5.67
495.601	5.67
495.95	5.68
496.299	5.67
496.648	5.67
496.997	5.66
497.346	5.68
497.695	5.7
498.043	5.69
498.392	5.7
498.741	5.72
499.09	5.73
499.438	5.75
499.787	5.77
500.135	5.81
500.484	5.82
500.832	5.83
501.181	5.82
501.529	5.82
501.878	5.83
502.226	5.87
502.574	5.87
502.923	5.89
503.271	5.88
503.619	5.88
503.967	5.87
504.315	5.88
504.663	5.87
505.011	5.85
505.359	5.86
505.707	5.86
506.055	5.85
506.403	5.85
506.751	5.84
507.098	5.85
507.446	5.86
507.794	5.87
508.141	5.87
508.489	5.9
508.837	5.91
509.184	5.92
509.531	5.93
509.879	5.95
510.226	5.96
510.574	5.98
510.921	5.99
511.268	6
511.616	6.02
511.963	6.02
512.31	6.03
512.657	6.03
513.004	6.04
513.351	6.04
513.698	6.06
514.045	6.05
514.392	6.06
514.739	6.04
515.086	6.05
515.432	6.05
515.779	6.05
516.126	6.07
516.473	6.07
516.819	6.07
517.166	6.07
517.512	6.06
517.859	6.06
518.205	6.06
518.552	6.08
518.898	6.07
519.245	6.08
519.591	6.09
519.937	6.07
520.283	6.07
520.629	6.07
520.976	6.06
521.322	6.07
521.668	6.05
522.014	6.07
522.36	6.07
522.706	6.08
523.052	6.09
523.398	6.09
523.743	6.09
524.089	6.09
524.435	6.1
524.781	6.12
525.126	6.13
525.472	6.15
525.817	6.14
526.163	6.16
526.509	6.17
526.854	6.17
527.199	6.2
527.545	6.21
527.89	6.21
528.235	6.21
528.581	6.23
528.926	6.25
529.271	6.27
529.616	6.27
529.961	6.27
530.306	6.26
530.651	6.27
530.996	6.26
531.341	6.26
531.686	6.25
532.031	6.25
532.376	6.25
532.721	6.26
533.065	6.26
533.41	6.27
533.755	6.28
534.099	6.28
534.444	6.28
534.788	6.29
535.133	6.29
535.477	6.28
535.822	6.27
536.166	6.26
536.51	6.24
536.855	6.25
537.199	6.25
537.543	6.27
537.887	6.28
538.231	6.3
538.576	6.3
538.92	6.33
539.264	6.33
539.608	6.34
539.951	6.35
540.295	6.35
540.639	6.32
540.983	6.32
541.327	6.33
541.671	6.33
542.014	6.32
542.358	6.32
542.701	6.34
543.045	6.36
543.389	6.36
543.732	6.37
544.075	6.35
544.419	6.36
544.762	6.36
545.105	6.36
545.449	6.36
545.792	6.36
546.135	6.35
546.478	6.36
546.821	6.34
547.165	6.31
547.508	6.34
547.851	6.35
548.194	6.34
548.536	6.32
548.879	6.33
549.222	6.36
549.565	6.4
549.908	6.37
550.25	6.38
550.593	6.39
550.936	6.36
551.278	6.39
551.621	6.39
551.963	6.41
552.306	6.39
552.648	6.43
552.991	6.47
553.333	6.47
553.675	6.48
554.017	6.48
554.36	6.47
554.702	6.46
555.044	6.48
555.386	6.47
555.728	6.49
556.07	6.51
556.412	6.46
556.754	6.45
557.096	6.46
557.438	6.42
557.78	6.41
558.121	6.44
558.463	6.44
558.805	6.45
559.147	6.44
559.488	6.46
559.83	6.4
560.171	6.4
560.513	6.43
560.854	6.42
561.196	6.48
561.537	6.51
561.878	6.48
562.22	6.46
562.561	6.48
562.902	6.51
563.243	6.49
563.584	6.52
563.925	6.54
564.266	6.54
564.607	6.56
564.948	6.58
565.289	6.58
565.63	6.57
565.971	6.56
566.312	6.57
566.653	6.57
566.993	6.55
567.334	6.54
567.675	6.52
568.015	6.52
568.356	6.49
568.696	6.49
569.037	6.52
569.377	6.55
569.718	6.55
570.058	6.52
570.398	6.51
570.739	6.53
571.079	6.53
571.419	6.54
571.759	6.55
572.099	6.54
572.439	6.53
572.779	6.52
573.119	6.53
573.459	6.53
573.799	6.53
574.139	6.55
574.479	6.52
574.819	6.54
575.158	6.54
575.498	6.53
575.838	6.55
576.177	6.54
576.517	6.54
576.856	6.54
577.196	6.55
577.535	6.55
577.875	6.56
578.214	6.53
578.553	6.56
578.893	6.53
579.232	6.53
579.571	6.54
579.91	6.54
580.25	6.53
580.589	6.53
580.928	6.56
581.267	6.56
581.606	6.58
581.945	6.54
582.283	6.53
582.622	6.57
582.961	6.57
583.3	6.57
583.639	6.61
583.977	6.63
584.316	6.61
584.654	6.62
584.993	6.61
585.332	6.62
585.67	6.6
586.008	6.62
586.347	6.62
586.685	6.61
587.024	6.62
587.362	6.65
587.7	6.66
588.038	6.67
588.376	6.69
588.715	6.71
589.053	6.73
589.391	6.79
589.729	6.77
590.067	6.74
590.404	6.71
590.742	6.65
591.08	6.61
591.418	6.64
591.756	6.68
592.093	6.67
592.431	6.7
592.769	6.71
593.106	6.72
593.444	6.75
593.781	6.74
594.119	6.76
594.456	6.72
594.793	6.7
595.131	6.64
595.468	6.66
595.805	6.64
596.143	6.64
596.48	6.59
596.817	6.64
597.154	6.65
597.491	6.67
597.828	6.66
598.165	6.66
598.502	6.68
598.839	6.66
599.176	6.64
599.512	6.65
599.849	6.65
600.186	6.63
600.523	6.64
600.859	6.66
601.196	6.65
601.532	6.66
601.869	6.68
602.205	6.72
602.542	6.72
602.878	6.73
603.215	6.75
603.551	6.75
603.887	6.68
604.223	6.71
604.56	6.72
604.896	6.78
605.232	6.82
605.568	6.8
605.904	6.8
606.24	6.86
606.576	6.85
606.912	6.83
607.248	6.85
607.583	6.87
607.919	6.86
608.255	6.9
608.591	6.93
608.926	6.93
609.262	6.96
609.597	6.94
609.933	6.98
610.268	6.99
610.604	7.02
610.939	7.08
611.275	7.06
611.61	7.05
611.945	7
612.281	7
612.616	7.02
612.951	7.04
613.286	7.03
613.621	7.01
613.956	7.02
614.291	7.02
614.626	7.03
614.961	7.05
615.296	6.97
615.631	6.98
615.966	7.02
616.3	7.03
616.635	7.07
616.97	7.04
617.304	7.01
617.639	7.01
617.973	6.99
618.308	6.98
618.642	7.05
618.977	7.08
619.311	7.1
619.646	7.13
619.98	7.11
620.314	7.06
620.648	7.11
620.983	7.09
621.317	7.09
621.651	7.08
621.985	7.07
622.319	7.1
622.653	7.09
622.987	7.03
623.321	7.02
623.655	7.03
623.988	7.07
624.322	7.03
624.656	7.08
624.99	7.13
625.323	7.14
625.657	7.14
625.99	7.14
626.324	7.11
626.657	7.09
626.991	7.12
627.324	7.13
627.658	7.1
627.991	7.16
628.324	7.16
628.657	7.14
628.991	7.14
629.324	7.2
629.657	7.24
629.99	7.29
630.323	7.3
630.656	7.31
630.989	7.32
631.322	7.35
631.655	7.32
631.987	7.3
632.32	7.32
632.653	7.27
632.986	7.25
633.318	7.23
633.651	7.25
633.984	7.24
634.316	7.28
634.649	7.24
634.981	7.17
635.313	7.17
635.646	7.18
635.978	7.21
636.31	7.16
636.643	7.12
636.975	7.09
637.307	7.07
637.639	7.05
637.971	7.03
638.303	7.01
638.635	7.01
638.967	6.97
639.299	7.03
639.631	7.02
639.963	7.08
640.295	7.16
640.626	7.13
640.958	7.14
641.29	7.11
641.621	7.18
641.953	7.25
642.285	7.25
642.616	7.3
642.948	7.26
643.279	7.25
643.61	7.21
643.942	7.29
644.273	7.31
644.604	7.31
644.936	7.27
645.267	7.27
645.598	7.29
645.929	7.35
646.26	7.28
646.591	7.35
646.922	7.31
647.253	7.21
647.584	7.25
647.915	7.23
648.245	7.14
648.576	7.17
648.907	7.25
649.238	7.25
649.568	7.21
649.899	7.28
650.229	7.34
650.56	7.35
650.89	7.31
651.221	7.34
651.551	7.3
651.882	7.36
652.212	7.38
652.542	7.36
652.872	7.25
653.203	7.22
653.533	7.19
653.863	7.16
654.193	7.19
654.523	7.19
654.853	7.21
655.183	7.33
655.513	7.29
655.843	7.25
656.172	7.24
656.502	7.25
656.832	7.2
657.162	7.18
657.491	7.24
657.821	7.24
658.15	7.17
658.48	7.23
658.809	7.23
659.139	7.2
659.468	7.22
659.798	7.28
660.127	7.33
660.456	7.4
660.785	7.49
661.115	7.5
661.444	7.52
661.773	7.58
662.102	7.61
662.431	7.66
662.76	7.65
663.089	7.67
663.418	7.66
663.747	7.66
664.076	7.6
664.404	7.52
664.733	7.63
665.062	7.64
665.39	7.56
665.719	7.55
666.048	7.55
666.376	7.56
666.705	7.56
667.033	7.57
667.362	7.56
667.69	7.47
668.018	7.5
668.347	7.54
668.675	7.43
669.003	7.41
669.331	7.41
669.659	7.34
669.987	7.3
670.315	7.44
670.643	7.49
670.971	7.57
671.299	7.7
671.627	7.59
671.955	7.6
672.283	7.66
672.61	7.66
672.938	7.75
673.266	7.76
673.593	7.85
673.921	7.86
674.249	7.76
674.576	7.8
674.904	7.79
675.231	7.68
675.558	7.74
675.886	7.66
676.213	7.65
676.54	7.7
676.867	7.81
677.195	7.7
677.522	7.64
677.849	7.6
678.176	7.52
678.503	7.5
678.83	7.5
679.157	7.43
679.484	7.44
679.81	7.41
680.137	7.36
