Data from BA57730_Reflection_00004.txt Node
Date: Mon Nov 18 15:59:30 EST 2019
User: vgr7
Spectrometer: USB2G7710
Scans to average: 3
Trigger mode: 4
Integration Time (sec): 2.000000E-2
Electric dark correction enabled: true
Boxcar width: 10
XAxis mode: Wavelengths
Number of Pixels in Spectrum: 2048
>>>>>Begin Spectral Data<<<<<
177.721	-931.75
178.105	-102.61
178.488	-129.08
178.871	-96.58
179.254	-33.06
179.636	-159.26
180.019	-113.55
180.402	76.74
180.785	19.82
181.168	31.99
181.55	80.39
181.933	55.15
182.316	41.74
182.698	47.82
183.081	24.7
183.463	31.35
183.846	22.65
184.228	38.94
184.611	135.66
184.993	209.56
185.376	122.77
185.758	52.38
186.14	-26.2
186.522	-42.6
186.904	-56.64
187.287	-37.57
187.669	-117.92
188.051	-112.49
188.433	-780.34
188.815	-98.86
189.197	-25.65
189.579	22.75
189.961	105.5
190.342	77.54
190.724	165.76
191.106	-581.16
191.488	-216.53
191.869	-132.91
192.251	-180.24
192.633	-233.33
193.014	-358.03
193.396	1111.7
193.777	-358.11
194.159	-446.67
194.54	-230.76
194.922	-102
195.303	-106.35
195.684	-220.72
196.065	-142.64
196.447	-177.34
196.828	-177.94
197.209	-154.77
197.59	-113.05
197.971	-144.44
198.352	-60.41
198.733	-134.44
199.114	-126.43
199.495	-125.62
199.876	-21.73
200.257	-93.51
200.638	2.42
201.018	40.55
201.399	18.31
201.78	12.54
202.16	-14.05
202.541	-151.82
202.922	524.94
203.302	534.88
203.683	-3189.86
204.063	339.95
204.444	230.36
204.824	256.91
205.204	839.68
205.585	1404.53
205.965	1787.18
206.345	903.13
206.725	551.85
207.106	421.81
207.486	371.7
207.866	472.33
208.246	406.38
208.626	357.24
209.006	467.32
209.386	354.11
209.766	940.22
210.145	-2863.96
210.525	-452.88
210.905	-163.81
211.285	-132.15
211.664	-156.29
212.044	-105.59
212.424	-85.54
212.803	-77.8
213.183	-68.46
213.562	-70.67
213.942	-38.2
214.321	-19.34
214.701	-17.81
215.08	-23.34
215.459	-15.86
215.838	-12.52
216.218	-20.07
216.597	-33.59
216.976	-49.56
217.355	-45.59
217.734	-53.24
218.113	-50.95
218.492	-48.86
218.871	-70.19
219.25	-68.55
219.629	-76.54
220.008	-80.46
220.387	-75.32
220.766	-58.59
221.144	-103.93
221.523	-97.54
221.902	-125.58
222.28	-142.76
222.659	-112.39
223.037	-110.23
223.416	-116.87
223.794	-113.48
224.173	-113.55
224.551	-92.32
224.929	-86.24
225.308	-65.84
225.686	-57.4
226.064	-41.55
226.442	-30.76
226.821	-20.2
227.199	-17.71
227.577	-17.47
227.955	-15.83
228.333	-14.73
228.711	-14.12
229.089	-3.79
229.467	-3.6
229.845	-3.54
230.222	-0.53
230.6	-2.06
230.978	-0.27
231.356	1.83
231.733	1.28
232.111	4.04
232.488	6.45
232.866	5.83
233.243	6.96
233.621	4.91
233.998	4.34
234.376	2.46
234.753	2.56
235.13	5.33
235.508	6.54
235.885	5.79
236.262	4.48
236.639	4.26
237.016	2.33
237.393	3.77
237.77	4.65
238.147	4.34
238.524	4.14
238.901	5.01
239.278	5.79
239.655	6.54
240.032	6.16
240.409	5.15
240.785	5.22
241.162	5.07
241.539	5.54
241.915	5.44
242.292	5.35
242.668	5.5
243.045	5.02
243.421	4.58
243.798	4.63
244.174	4.97
244.551	5.2
244.927	5.28
245.303	5.41
245.679	5.49
246.056	5.23
246.432	5.16
246.808	5.15
247.184	4.93
247.56	4.82
247.936	4.75
248.312	4.91
248.688	4.89
249.064	4.92
249.44	4.92
249.815	4.75
250.191	4.95
250.567	5.08
250.943	4.94
251.318	5.38
251.694	5.46
252.069	5.42
252.445	5.5
252.82	5.35
253.196	5.3
253.571	5.24
253.947	5.43
254.322	5.8
254.697	5.33
255.073	5.34
255.448	4.99
255.823	4.97
256.198	5.2
256.573	5.22
256.948	5.14
257.323	5.08
257.698	5.19
258.073	5.11
258.448	4.89
258.823	4.97
259.198	4.83
259.573	4.72
259.948	4.54
260.322	4.39
260.697	4.47
261.072	4.33
261.446	4.32
261.821	4.28
262.195	4.3
262.57	4.29
262.944	4.3
263.319	4.23
263.693	3.96
264.067	3.88
264.442	3.76
264.816	3.76
265.19	3.82
265.564	3.87
265.938	3.7
266.313	3.52
266.687	3.61
267.061	3.67
267.435	3.87
267.809	4.11
268.183	4.3
268.556	4.2
268.93	4.25
269.304	4.16
269.678	4.3
270.051	4.32
270.425	4.46
270.799	4.36
271.172	4.53
271.546	4.69
271.919	4.68
272.293	4.69
272.666	4.75
273.04	4.73
273.413	4.52
273.787	4.56
274.16	4.54
274.533	4.39
274.906	4.26
275.279	4.28
275.653	4.26
276.026	4.12
276.399	4.03
276.772	4.13
277.145	4.14
277.518	4.27
277.891	4.08
278.263	3.98
278.636	4.07
279.009	3.98
279.382	4.02
279.755	3.84
280.127	4.03
280.5	4.08
280.872	4.17
281.245	4.32
281.617	4.68
281.99	5.04
282.362	5.16
282.735	5.28
283.107	5.23
283.479	5.3
283.852	5.24
284.224	5.29
284.596	5.19
284.968	5.3
285.34	5.21
285.713	5.31
286.085	5.42
286.457	5.5
286.829	5.44
287.201	5.46
287.572	5.53
287.944	5.53
288.316	5.57
288.688	5.44
289.06	5.35
289.431	5.21
289.803	5.08
290.175	5.04
290.546	5.09
290.918	5.08
291.289	5.06
291.661	5.09
292.032	5.23
292.403	5.33
292.775	5.42
293.146	5.32
293.517	5.41
293.889	5.49
294.26	5.49
294.631	5.66
295.002	5.61
295.373	5.62
295.744	5.53
296.115	5.54
296.486	5.53
296.857	5.64
297.228	5.62
297.599	5.52
297.97	5.54
298.34	5.5
298.711	5.47
299.082	5.43
299.452	5.43
299.823	5.45
300.194	5.35
300.564	5.24
300.935	5.39
301.305	5.38
301.676	5.45
302.046	5.44
302.416	5.45
302.787	5.5
303.157	5.59
303.527	5.7
303.897	5.54
304.267	5.78
304.637	5.79
305.008	5.8
305.378	5.91
305.748	5.9
306.117	5.83
306.487	5.85
306.857	5.83
307.227	5.89
307.597	5.79
307.967	5.89
308.336	5.83
308.706	5.73
309.076	5.74
309.445	5.6
309.815	5.57
310.184	5.45
310.554	5.34
310.923	5.22
311.293	5.11
311.662	5.2
312.031	5.09
312.401	5.05
312.77	5.23
313.139	5.21
313.508	5.19
313.877	5.12
314.246	5.21
314.616	5.17
314.985	5.18
315.353	5.11
315.722	5.18
316.091	5.2
316.46	5.14
316.829	5.05
317.198	5.02
317.567	4.96
317.935	4.87
318.304	4.93
318.672	5.01
319.041	4.99
319.41	4.87
319.778	4.73
320.147	4.68
320.515	4.43
320.883	4.44
321.252	4.48
321.62	4.63
321.988	4.48
322.357	4.59
322.725	4.57
323.093	4.64
323.461	4.51
323.829	4.54
324.197	4.66
324.565	4.64
324.933	4.73
325.301	4.78
325.669	4.94
326.037	5.02
326.405	5.07
326.772	5.18
327.14	5.3
327.508	5.33
327.875	5.32
328.243	5.3
328.61	5.26
328.978	5.21
329.346	5.18
329.713	5.21
330.08	5.13
330.448	4.92
330.815	4.83
331.182	4.75
331.55	4.72
331.917	4.75
332.284	4.92
332.651	4.8
333.018	4.88
333.385	4.81
333.752	4.8
334.119	4.6
334.486	4.51
334.853	4.51
335.22	4.65
335.587	4.67
335.954	4.68
336.32	4.76
336.687	4.85
337.054	4.9
337.42	4.81
337.787	4.83
338.153	5.11
338.52	5.09
338.886	5.2
339.253	5.16
339.619	5.08
339.986	4.93
340.352	4.99
340.718	4.89
341.084	4.89
341.451	4.97
341.817	5.15
342.183	5.23
342.549	5.31
342.915	5.28
343.281	5.3
343.647	5.26
344.013	5.29
344.379	5.22
344.745	5.14
345.11	5.22
345.476	5.25
345.842	5.13
346.208	5.23
346.573	5.21
346.939	5.35
347.304	5.34
347.67	5.34
348.035	5.38
348.401	5.42
348.766	5.53
349.132	5.49
349.497	5.38
349.862	5.41
350.228	5.34
350.593	5.29
350.958	5.28
351.323	5.37
351.688	5.32
352.053	5.4
352.418	5.49
352.783	5.55
353.148	5.59
353.513	5.59
353.878	5.49
354.243	5.54
354.608	5.48
354.972	5.5
355.337	5.53
355.702	5.55
356.066	5.52
356.431	5.48
356.795	5.55
357.16	5.55
357.524	5.54
357.889	5.52
358.253	5.46
358.618	5.53
358.982	5.5
359.346	5.46
359.71	5.44
360.075	5.47
360.439	5.44
360.803	5.38
361.167	5.32
361.531	5.37
361.895	5.33
362.259	5.33
362.623	5.34
362.987	5.34
363.351	5.34
363.714	5.38
364.078	5.33
364.442	5.26
364.806	5.29
365.169	5.25
365.533	5.27
365.896	5.32
366.26	5.28
366.623	5.25
366.987	5.29
367.35	5.22
367.714	5.17
368.077	5.15
368.44	5.17
368.803	5.27
369.167	5.25
369.53	5.22
369.893	5.24
370.256	5.28
370.619	5.23
370.982	5.17
371.345	5.07
371.708	5.14
372.071	5.14
372.434	5.09
372.797	5.14
373.159	5.07
373.522	5.08
373.885	5.05
374.247	5.08
374.61	5.04
374.973	5.03
375.335	5.01
375.698	5.09
376.06	5.06
376.423	5.06
376.785	5.1
377.147	5.15
377.51	5.09
377.872	5.05
378.234	5.07
378.596	5.09
378.958	5.12
379.321	5.05
379.683	5.04
380.045	5.03
380.407	4.98
380.769	5.01
381.13	4.98
381.492	4.95
381.854	4.93
382.216	4.93
382.578	4.99
382.939	4.96
383.301	4.93
383.663	4.91
384.024	4.86
384.386	4.86
384.747	4.85
385.109	4.87
385.47	4.88
385.832	4.84
386.193	4.8
386.554	4.77
386.916	4.83
387.277	4.87
387.638	4.92
387.999	4.92
388.36	4.9
388.721	4.97
389.082	5.01
389.443	4.99
389.804	5.04
390.165	5.03
390.526	5.06
390.887	5.04
391.248	5.06
391.609	5.04
391.969	5.02
392.33	5
392.691	4.99
393.051	4.99
393.412	5.01
393.772	5.05
394.133	5.11
394.493	5.09
394.854	5.05
395.214	5.05
395.574	5.04
395.935	5.02
396.295	5
396.655	4.94
397.015	4.95
397.376	4.91
397.736	4.9
398.096	4.87
398.456	4.89
398.816	4.89
399.176	4.88
399.535	4.88
399.895	4.88
400.255	4.9
400.615	4.87
400.975	4.87
401.334	4.8
401.694	4.79
402.054	4.76
402.413	4.76
402.773	4.71
403.132	4.7
403.492	4.73
403.851	4.71
404.211	4.73
404.57	4.72
404.929	4.74
405.288	4.73
405.648	4.74
406.007	4.73
406.366	4.74
406.725	4.82
407.084	4.82
407.443	4.83
407.802	4.82
408.161	4.8
408.52	4.78
408.879	4.82
409.238	4.81
409.596	4.82
409.955	4.85
410.314	4.89
410.673	4.91
411.031	4.88
411.39	4.88
411.748	4.9
412.107	4.9
412.465	4.88
412.824	4.88
413.182	4.9
413.54	4.91
413.899	4.91
414.257	4.88
414.615	4.84
414.974	4.86
415.332	4.86
415.69	4.88
416.048	4.87
416.406	4.9
416.764	4.89
417.122	4.91
417.48	4.89
417.838	4.88
418.195	4.86
418.553	4.88
418.911	4.89
419.269	4.92
419.626	4.91
419.984	4.92
420.342	4.93
420.699	4.91
421.057	4.89
421.414	4.88
421.772	4.88
422.129	4.89
422.486	4.89
422.844	4.89
423.201	4.89
423.558	4.9
423.915	4.9
424.273	4.91
424.63	4.9
424.987	4.89
425.344	4.91
425.701	4.92
426.058	4.92
426.415	4.91
426.772	4.89
427.128	4.89
427.485	4.89
427.842	4.87
428.199	4.89
428.555	4.9
428.912	4.91
429.269	4.9
429.625	4.88
429.982	4.85
430.338	4.84
430.695	4.83
431.051	4.84
431.407	4.83
431.764	4.8
432.12	4.81
432.476	4.82
432.832	4.8
433.189	4.81
433.545	4.8
433.901	4.79
434.257	4.78
434.613	4.78
434.969	4.77
435.325	4.77
435.681	4.76
436.036	4.75
436.392	4.76
436.748	4.75
437.104	4.76
437.459	4.78
437.815	4.79
438.171	4.8
438.526	4.79
438.882	4.79
439.237	4.79
439.593	4.78
439.948	4.78
440.304	4.79
440.659	4.78
441.014	4.79
441.369	4.79
441.725	4.78
442.08	4.78
442.435	4.8
442.79	4.81
443.145	4.8
443.5	4.8
443.855	4.79
444.21	4.79
444.565	4.8
444.92	4.79
445.275	4.78
445.629	4.77
445.984	4.78
446.339	4.75
446.693	4.76
447.048	4.74
447.403	4.72
447.757	4.7
448.112	4.69
448.466	4.68
448.82	4.69
449.175	4.69
449.529	4.68
449.883	4.67
450.238	4.65
450.592	4.65
450.946	4.64
451.3	4.64
451.654	4.62
452.008	4.62
452.362	4.61
452.716	4.61
453.07	4.63
453.424	4.63
453.778	4.65
454.132	4.63
454.486	4.65
454.839	4.66
455.193	4.64
455.547	4.65
455.9	4.67
456.254	4.67
456.607	4.67
456.961	4.68
457.314	4.67
457.668	4.69
458.021	4.67
458.375	4.66
458.728	4.67
459.081	4.68
459.434	4.66
459.787	4.67
460.141	4.66
460.494	4.66
460.847	4.65
461.2	4.64
461.553	4.67
461.906	4.68
462.259	4.69
462.611	4.71
462.964	4.69
463.317	4.69
463.67	4.69
464.022	4.68
464.375	4.66
464.728	4.65
465.08	4.66
465.433	4.68
465.785	4.71
466.138	4.72
466.49	4.71
466.843	4.75
467.195	4.75
467.547	4.76
467.899	4.75
468.252	4.75
468.604	4.77
468.956	4.74
469.308	4.74
469.66	4.73
470.012	4.74
470.364	4.78
470.716	4.77
471.068	4.76
471.42	4.77
471.772	4.8
472.123	4.81
472.475	4.79
472.827	4.79
473.178	4.78
473.53	4.77
473.882	4.78
474.233	4.78
474.585	4.74
474.936	4.75
475.288	4.75
475.639	4.77
475.99	4.76
476.342	4.76
476.693	4.76
477.044	4.78
477.395	4.76
477.746	4.74
478.097	4.74
478.448	4.76
478.8	4.77
479.15	4.75
479.501	4.76
479.852	4.77
480.203	4.78
480.554	4.81
480.905	4.81
481.255	4.81
481.606	4.8
481.957	4.82
482.307	4.83
482.658	4.83
483.009	4.83
483.359	4.82
483.709	4.83
484.06	4.83
484.41	4.84
484.761	4.84
485.111	4.86
485.461	4.87
485.811	4.87
486.162	4.86
486.512	4.87
486.862	4.88
487.212	4.87
487.562	4.87
487.912	4.86
488.262	4.86
488.612	4.86
488.961	4.86
489.311	4.86
489.661	4.86
490.011	4.85
490.36	4.85
490.71	4.85
491.06	4.86
491.409	4.85
491.759	4.83
492.108	4.84
492.458	4.82
492.807	4.8
493.157	4.8
493.506	4.81
493.855	4.8
494.204	4.8
494.554	4.82
494.903	4.81
495.252	4.82
495.601	4.82
495.95	4.84
496.299	4.85
496.648	4.84
496.997	4.83
497.346	4.86
497.695	4.86
498.043	4.87
498.392	4.87
498.741	4.9
499.09	4.9
499.438	4.92
499.787	4.93
500.135	4.96
500.484	4.97
500.832	4.98
501.181	5
501.529	4.99
501.878	4.98
502.226	4.98
502.574	4.99
502.923	5
503.271	5.01
503.619	5.02
503.967	5.03
504.315	5.03
504.663	5.01
505.011	5.02
505.359	5.02
505.707	5.04
506.055	5.03
506.403	5.05
506.751	5.05
507.098	5.05
507.446	5.05
507.794	5.06
508.141	5.05
508.489	5.05
508.837	5.07
509.184	5.06
509.531	5.08
509.879	5.09
510.226	5.08
510.574	5.08
510.921	5.09
511.268	5.07
511.616	5.08
511.963	5.09
512.31	5.09
512.657	5.14
513.004	5.13
513.351	5.12
513.698	5.1
514.045	5.11
514.392	5.1
514.739	5.1
515.086	5.11
515.432	5.12
515.779	5.1
516.126	5.09
516.473	5.11
516.819	5.11
517.166	5.1
517.512	5.09
517.859	5.11
518.205	5.1
518.552	5.11
518.898	5.11
519.245	5.12
519.591	5.12
519.937	5.08
520.283	5.09
520.629	5.09
520.976	5.11
521.322	5.12
521.668	5.14
522.014	5.15
522.36	5.15
522.706	5.17
523.052	5.18
523.398	5.2
523.743	5.21
524.089	5.24
524.435	5.25
524.781	5.3
525.126	5.32
525.472	5.32
525.817	5.33
526.163	5.35
526.509	5.35
526.854	5.35
527.199	5.37
527.545	5.37
527.89	5.38
528.235	5.38
528.581	5.38
528.926	5.38
529.271	5.38
529.616	5.37
529.961	5.38
530.306	5.38
530.651	5.39
530.996	5.4
531.341	5.38
531.686	5.38
532.031	5.36
532.376	5.35
532.721	5.37
533.065	5.34
533.41	5.35
533.755	5.36
534.099	5.37
534.444	5.37
534.788	5.38
535.133	5.36
535.477	5.37
535.822	5.38
536.166	5.38
536.51	5.38
536.855	5.39
537.199	5.4
537.543	5.39
537.887	5.39
538.231	5.38
538.576	5.4
538.92	5.39
539.264	5.38
539.608	5.38
539.951	5.38
540.295	5.41
540.639	5.42
540.983	5.42
541.327	5.43
541.671	5.43
542.014	5.42
542.358	5.44
542.701	5.44
543.045	5.44
543.389	5.45
543.732	5.45
544.075	5.45
544.419	5.45
544.762	5.47
545.105	5.47
545.449	5.47
545.792	5.47
546.135	5.49
546.478	5.51
546.821	5.51
547.165	5.5
547.508	5.51
547.851	5.47
548.194	5.46
548.536	5.45
548.879	5.44
549.222	5.45
549.565	5.47
549.908	5.49
550.25	5.48
550.593	5.47
550.936	5.46
551.278	5.47
551.621	5.47
551.963	5.47
552.306	5.46
552.648	5.48
552.991	5.49
553.333	5.47
553.675	5.47
554.017	5.47
554.36	5.47
554.702	5.47
555.044	5.48
555.386	5.49
555.728	5.48
556.07	5.46
556.412	5.45
556.754	5.42
557.096	5.42
557.438	5.43
557.78	5.46
558.121	5.48
558.463	5.5
558.805	5.49
559.147	5.46
559.488	5.48
559.83	5.48
560.171	5.49
560.513	5.52
560.854	5.52
561.196	5.52
561.537	5.55
561.878	5.53
562.22	5.56
562.561	5.56
562.902	5.58
563.243	5.62
563.584	5.67
563.925	5.66
564.266	5.62
564.607	5.62
564.948	5.63
565.289	5.63
565.63	5.61
565.971	5.61
566.312	5.63
566.653	5.62
566.993	5.63
567.334	5.6
567.675	5.58
568.015	5.59
568.356	5.59
568.696	5.6
569.037	5.59
569.377	5.56
569.718	5.57
570.058	5.56
570.398	5.53
570.739	5.53
571.079	5.56
571.419	5.58
571.759	5.61
572.099	5.59
572.439	5.57
572.779	5.58
573.119	5.6
573.459	5.62
573.799	5.63
574.139	5.64
574.479	5.65
574.819	5.67
575.158	5.64
575.498	5.66
575.838	5.67
576.177	5.67
576.517	5.68
576.856	5.68
577.196	5.7
577.535	5.72
577.875	5.71
578.214	5.7
578.553	5.72
578.893	5.67
579.232	5.68
579.571	5.69
579.91	5.69
580.25	5.69
580.589	5.66
580.928	5.69
581.267	5.69
581.606	5.66
581.945	5.63
582.283	5.67
582.622	5.66
582.961	5.66
583.3	5.67
583.639	5.71
583.977	5.73
584.316	5.7
584.654	5.66
584.993	5.64
585.332	5.66
585.67	5.63
586.008	5.63
586.347	5.61
586.685	5.61
587.024	5.59
587.362	5.62
587.7	5.63
588.038	5.61
588.376	5.61
588.715	5.6
589.053	5.62
589.391	5.59
589.729	5.6
590.067	5.57
590.404	5.58
590.742	5.59
591.08	5.53
591.418	5.51
591.756	5.55
592.093	5.54
592.431	5.53
592.769	5.55
593.106	5.61
593.444	5.58
593.781	5.57
594.119	5.6
594.456	5.56
594.793	5.54
595.131	5.52
595.468	5.52
595.805	5.55
596.143	5.55
596.48	5.58
596.817	5.58
597.154	5.58
597.491	5.58
597.828	5.54
598.165	5.59
598.502	5.59
598.839	5.62
599.176	5.65
599.512	5.64
599.849	5.62
600.186	5.59
600.523	5.62
600.859	5.66
601.196	5.65
601.532	5.63
601.869	5.63
602.205	5.62
602.542	5.6
602.878	5.6
603.215	5.6
603.551	5.63
603.887	5.6
604.223	5.61
604.56	5.64
604.896	5.65
605.232	5.65
605.568	5.67
605.904	5.67
606.24	5.68
606.576	5.7
606.912	5.72
607.248	5.72
607.583	5.72
607.919	5.71
608.255	5.69
608.591	5.72
608.926	5.73
609.262	5.76
609.597	5.81
609.933	5.8
610.268	5.83
610.604	5.78
610.939	5.79
611.275	5.78
611.61	5.79
611.945	5.79
612.281	5.76
612.616	5.74
612.951	5.68
613.286	5.66
613.621	5.67
613.956	5.66
614.291	5.67
614.626	5.69
614.961	5.62
615.296	5.61
615.631	5.65
615.966	5.68
616.3	5.68
616.635	5.64
616.97	5.64
617.304	5.59
617.639	5.65
617.973	5.66
618.308	5.66
618.642	5.63
618.977	5.64
619.311	5.68
619.646	5.75
619.98	5.85
620.314	5.88
620.648	5.85
620.983	5.85
621.317	5.86
621.651	5.87
621.985	5.94
622.319	5.94
622.653	5.91
622.987	5.92
623.321	5.91
623.655	5.9
623.988	5.94
624.322	5.95
624.656	5.97
624.99	5.98
625.323	6.02
625.657	6
625.99	6.02
626.324	6.02
626.657	5.95
626.991	5.88
627.324	5.88
627.658	5.88
627.991	5.89
628.324	5.91
628.657	5.86
628.991	5.87
629.324	5.88
629.657	5.88
629.99	5.88
630.323	5.84
630.656	5.89
630.989	5.91
631.322	5.97
631.655	5.84
631.987	5.87
632.32	5.81
632.653	5.77
632.986	5.79
633.318	5.81
633.651	5.83
633.984	5.82
634.316	5.81
634.649	5.76
634.981	5.73
635.313	5.73
635.646	5.74
635.978	5.74
636.31	5.74
636.643	5.76
636.975	5.72
637.307	5.72
637.639	5.66
637.971	5.63
638.303	5.56
638.635	5.64
638.967	5.63
639.299	5.7
639.631	5.74
639.963	5.66
640.295	5.63
640.626	5.66
640.958	5.71
641.29	5.75
641.621	5.78
641.953	5.78
642.285	5.73
642.616	5.81
642.948	5.77
643.279	5.79
643.61	5.77
643.942	5.79
644.273	5.85
644.604	5.87
644.936	5.85
645.267	5.85
645.598	5.87
645.929	5.83
646.26	5.82
646.591	5.86
646.922	5.91
647.253	5.97
647.584	5.94
647.915	5.91
648.245	5.88
648.576	5.9
648.907	5.95
649.238	5.99
649.568	5.9
649.899	5.94
650.229	5.93
650.56	5.89
650.89	5.95
651.221	5.97
651.551	5.95
651.882	5.98
652.212	6
652.542	6
652.872	5.95
653.203	5.92
653.533	5.88
653.863	5.87
654.193	5.81
654.523	5.81
654.853	5.81
655.183	5.77
655.513	5.73
655.843	5.64
656.172	5.62
656.502	5.62
656.832	5.61
657.162	5.59
657.491	5.58
657.821	5.53
658.15	5.54
658.48	5.56
658.809	5.54
659.139	5.51
659.468	5.46
659.798	5.54
660.127	5.55
660.456	5.58
660.785	5.58
661.115	5.6
661.444	5.6
661.773	5.63
662.102	5.67
662.431	5.71
662.76	5.76
663.089	5.81
663.418	5.78
663.747	5.77
664.076	5.79
664.404	5.83
664.733	5.87
665.062	5.83
665.39	5.9
665.719	5.91
666.048	5.97
666.376	5.98
666.705	5.93
667.033	5.87
667.362	5.9
667.69	5.9
668.018	5.9
668.347	5.88
668.675	5.9
669.003	5.93
669.331	6.02
669.659	6.13
669.987	6.04
670.315	6.14
670.643	6.21
670.971	6.22
671.299	6.22
671.627	6.18
671.955	6.2
672.283	6.16
672.61	6.12
672.938	6.1
673.266	6.26
673.593	6.36
673.921	6.46
674.249	6.44
674.576	6.44
674.904	6.46
675.231	6.44
675.558	6.41
675.886	6.3
676.213	6.2
