Data from BA57712_Reflection_00007.txt Node
Date: Mon Nov 18 15:19:26 EST 2019
User: vgr7
Spectrometer: USB2G7710
Scans to average: 3
Trigger mode: 4
Integration Time (sec): 2.000000E-2
Electric dark correction enabled: true
Boxcar width: 10
XAxis mode: Wavelengths
Number of Pixels in Spectrum: 2048
>>>>>Begin Spectral Data<<<<<
177.721	27.38
178.105	85.35
178.488	10.74
178.871	-24.01
179.254	-14.94
179.636	-116.37
180.019	-3.41
180.402	18.18
180.785	-90.76
181.168	3988.89
181.55	276.6
181.933	131.15
182.316	110.9
182.698	115.62
183.081	133.58
183.463	85.67
183.846	92.37
184.228	110.53
184.611	107.12
184.993	163.04
185.376	130.81
185.758	147.71
186.14	158.02
186.522	106.42
186.904	89.92
187.287	129.75
187.669	199.88
188.051	319.34
188.433	374.71
188.815	241.64
189.197	463.04
189.579	-273.33
189.961	-97.35
190.342	-127.58
190.724	-100.26
191.106	-87.82
191.488	-49.75
191.869	-51.14
192.251	-89.65
192.633	-84.15
193.014	-124.79
193.396	-176.9
193.777	-166.99
194.159	-189.2
194.54	-136.35
194.922	-127.67
195.303	-92.01
195.684	-102.12
196.065	-62.63
196.447	-49.41
196.828	-55.04
197.209	-47.58
197.59	-37.44
197.971	-51.99
198.352	-28.06
198.733	-27.43
199.114	-22.46
199.495	-3.59
199.876	4.27
200.257	8.78
200.638	22.45
201.018	5.13
201.399	18.6
201.78	21.27
202.16	9.49
202.541	7.9
202.922	-1.41
203.302	-5.2
203.683	-19.23
204.063	-50.19
204.444	-40.01
204.824	-22.01
205.204	3.56
205.585	-6.77
205.965	16.56
206.345	5.6
206.725	1.27
207.106	-16.12
207.486	-385.79
207.866	178.66
208.246	78.66
208.626	87.96
209.006	19.58
209.386	67.25
209.766	64.24
210.145	22.71
210.525	10.73
210.905	63.88
211.285	58.79
211.664	-59.37
212.044	-236.51
212.424	-342.37
212.803	-184.9
213.183	43.56
213.562	-4.68
213.942	135.09
214.321	246.03
214.701	72.79
215.08	50.16
215.459	56.99
215.838	63.85
216.218	55.26
216.597	65.05
216.976	51.7
217.355	48.76
217.734	29.27
218.113	34.13
218.492	29.73
218.871	29.47
219.25	31.38
219.629	21.44
220.008	25.14
220.387	10.51
220.766	4.52
221.144	-3.08
221.523	-6.62
221.902	-22.43
222.28	-18.78
222.659	-18.86
223.037	-21.99
223.416	-42.82
223.794	-50.66
224.173	-57.96
224.551	-44.37
224.929	-37.46
225.308	-24.55
225.686	-17.81
226.064	-19.94
226.442	-16.98
226.821	-9.92
227.199	-11.59
227.577	-8.55
227.955	-7.44
228.333	-8.67
228.711	-7.53
229.089	-6.51
229.467	-4.7
229.845	-5.72
230.222	-6.64
230.6	-6.01
230.978	-3.32
231.356	0.31
231.733	2.27
232.111	3.17
232.488	1.75
232.866	3.42
233.243	2.47
233.621	3.4
233.998	3.75
234.376	4.2
234.753	4.49
235.13	6.48
235.508	6.7
235.885	5.87
236.262	5.31
236.639	5.9
237.016	6.84
237.393	5.84
237.77	5.98
238.147	6.98
238.524	7.71
238.901	6.34
239.278	5.51
239.655	5.63
240.032	5.25
240.409	5.06
240.785	4.5
241.162	4.72
241.539	5.08
241.915	5.35
242.292	5.05
242.668	5.38
243.045	4.99
243.421	4.89
243.798	5.13
244.174	5.34
244.551	5.41
244.927	5.24
245.303	5.38
245.679	5.37
246.056	5.4
246.432	5.06
246.808	4.95
247.184	5.13
247.56	4.91
247.936	5.05
248.312	5.07
248.688	5.07
249.064	4.98
249.44	4.9
249.815	4.62
250.191	4.86
250.567	4.5
250.943	4.55
251.318	4.54
251.694	4.58
252.069	4.59
252.445	4.4
252.82	4.24
253.196	4.09
253.571	3.98
253.947	3.78
254.322	4.35
254.697	4.47
255.073	4.09
255.448	4
255.823	3.76
256.198	3.94
256.573	3.85
256.948	3.94
257.323	4.01
257.698	4.17
258.073	4.1
258.448	4.12
258.823	4.04
259.198	4.07
259.573	3.94
259.948	4
260.322	4.02
260.697	3.92
261.072	3.94
261.446	3.86
261.821	3.82
262.195	3.71
262.57	3.64
262.944	3.73
263.319	3.63
263.693	3.63
264.067	3.57
264.442	3.64
264.816	3.54
265.19	3.39
265.564	3.33
265.938	3.33
266.313	3.3
266.687	3.31
267.061	3.28
267.435	3.41
267.809	3.25
268.183	3.21
268.556	3.44
268.93	3.45
269.304	3.54
269.678	3.74
270.051	3.67
270.425	3.87
270.799	4.05
271.172	4.17
271.546	4.32
271.919	4.32
272.293	4.21
272.666	4.37
273.04	4.35
273.413	4.3
273.787	4.2
274.16	4.24
274.533	4.41
274.906	4.38
275.279	4.28
275.653	4.26
276.026	4.14
276.399	4.13
276.772	4.21
277.145	4.2
277.518	4.09
277.891	4.09
278.263	3.94
278.636	3.73
279.009	3.87
279.382	3.86
279.755	3.75
280.127	3.9
280.5	3.78
280.872	3.88
281.245	4
281.617	4.17
281.99	4.35
282.362	4.26
282.735	4.18
283.107	4.06
283.479	4.1
283.852	4.25
284.224	4.29
284.596	4.14
284.968	4.19
285.34	4.25
285.713	4.16
286.085	4.31
286.457	4.34
286.829	4.36
287.201	4.22
287.572	4.22
287.944	4.05
288.316	3.94
288.688	3.82
289.06	3.78
289.431	3.66
289.803	3.55
290.175	3.42
290.546	3.58
290.918	3.74
291.289	3.75
291.661	3.75
292.032	3.7
292.403	3.87
292.775	3.87
293.146	3.69
293.517	3.68
293.889	3.65
294.26	3.65
294.631	3.52
295.002	3.53
295.373	3.62
295.744	3.75
296.115	3.9
296.486	3.88
296.857	3.88
297.228	3.94
297.599	3.93
297.97	4.02
298.34	3.96
298.711	4.04
299.082	4.1
299.452	4.07
299.823	4.19
300.194	4.18
300.564	4.11
300.935	4.3
301.305	4.46
301.676	4.41
302.046	4.54
302.416	4.69
302.787	4.77
303.157	4.81
303.527	4.79
303.897	4.87
304.267	5.06
304.637	5.13
305.008	5.18
305.378	5.33
305.748	5.36
306.117	5.31
306.487	5.26
306.857	5.25
307.227	5.45
307.597	5.34
307.967	5.32
308.336	5.45
308.706	5.42
309.076	5.4
309.445	5.44
309.815	5.32
310.184	5.35
310.554	5.42
310.923	5.47
311.293	5.51
311.662	5.48
312.031	5.57
312.401	5.63
312.77	5.7
313.139	5.81
313.508	5.88
313.877	5.96
314.246	5.95
314.616	5.96
314.985	5.87
315.353	5.94
315.722	6.09
316.091	6.12
316.46	6.18
316.829	6.37
317.198	6.48
317.567	6.69
317.935	6.81
318.304	6.98
318.672	6.87
319.041	7.14
319.41	7.25
319.778	7.14
320.147	7.2
320.515	7.22
320.883	7.11
321.252	7.1
321.62	7.14
321.988	7.33
322.357	7.39
322.725	7.42
323.093	7.42
323.461	7.48
323.829	7.64
324.197	7.67
324.565	7.63
324.933	7.64
325.301	7.53
325.669	7.49
326.037	7.41
326.405	7.62
326.772	7.53
327.14	7.66
327.508	7.74
327.875	7.65
328.243	7.73
328.61	7.8
328.978	7.96
329.346	8.17
329.713	8
330.08	8.06
330.448	8.11
330.815	8.1
331.182	8.11
331.55	8.02
331.917	8.01
332.284	7.99
332.651	8.04
333.018	8.23
333.385	8.3
333.752	8.4
334.119	8.4
334.486	8.45
334.853	8.41
335.22	8.37
335.587	8.56
335.954	8.47
336.32	8.45
336.687	8.55
337.054	8.48
337.42	8.63
337.787	8.63
338.153	8.74
338.52	8.84
338.886	8.73
339.253	8.76
339.619	8.87
339.986	8.97
340.352	9.07
340.718	8.99
341.084	8.86
341.451	8.91
341.817	8.94
342.183	8.91
342.549	8.85
342.915	8.94
343.281	8.94
343.647	8.99
344.013	9.06
344.379	8.99
344.745	9.01
345.11	9.06
345.476	9.07
345.842	9
346.208	8.95
346.573	9.08
346.939	9.15
347.304	9.08
347.67	9.11
348.035	9.05
348.401	9.06
348.766	9.14
349.132	9.12
349.497	9.09
349.862	9.22
350.228	9.33
350.593	9.31
350.958	9.16
351.323	9.28
351.688	9.26
352.053	9.24
352.418	9.17
352.783	9.16
353.148	9.14
353.513	9.12
353.878	9.14
354.243	9.12
354.608	8.98
354.972	8.96
355.337	8.93
355.702	8.94
356.066	8.96
356.431	8.95
356.795	8.86
357.16	8.78
357.524	8.69
357.889	8.62
358.253	8.62
358.618	8.74
358.982	8.65
359.346	8.54
359.71	8.47
360.075	8.56
360.439	8.48
360.803	8.49
361.167	8.5
361.531	8.52
361.895	8.46
362.259	8.5
362.623	8.46
362.987	8.43
363.351	8.37
363.714	8.36
364.078	8.31
364.442	8.32
364.806	8.31
365.169	8.29
365.533	8.3
365.896	8.31
366.26	8.25
366.623	8.22
366.987	8.3
367.35	8.3
367.714	8.18
368.077	8.17
368.44	8.08
368.803	8.01
369.167	7.9
369.53	7.88
369.893	7.84
370.256	7.84
370.619	7.81
370.982	7.75
371.345	7.65
371.708	7.66
372.071	7.58
372.434	7.48
372.797	7.43
373.159	7.31
373.522	7.23
373.885	7.16
374.247	7.1
374.61	6.97
374.973	6.99
375.335	6.96
375.698	6.91
376.06	6.83
376.423	6.77
376.785	6.77
377.147	6.8
377.51	6.73
377.872	6.7
378.234	6.65
378.596	6.62
378.958	6.61
379.321	6.51
379.683	6.49
380.045	6.52
380.407	6.46
380.769	6.4
381.13	6.33
381.492	6.29
381.854	6.21
382.216	6.18
382.578	6.11
382.939	6.06
383.301	6.02
383.663	6
384.024	5.98
384.386	5.93
384.747	5.86
385.109	5.84
385.47	5.77
385.832	5.72
386.193	5.71
386.554	5.68
386.916	5.67
387.277	5.63
387.638	5.58
387.999	5.51
388.36	5.49
388.721	5.5
389.082	5.45
389.443	5.43
389.804	5.44
390.165	5.36
390.526	5.32
390.887	5.29
391.248	5.32
391.609	5.26
391.969	5.24
392.33	5.17
392.691	5.16
393.051	5.14
393.412	5.14
393.772	5.07
394.133	5.06
394.493	5.07
394.854	5.04
395.214	5.04
395.574	5.04
395.935	5.04
396.295	5.01
396.655	4.98
397.015	4.98
397.376	4.93
397.736	4.88
398.096	4.86
398.456	4.85
398.816	4.77
399.176	4.78
399.535	4.73
399.895	4.7
400.255	4.69
400.615	4.66
400.975	4.61
401.334	4.61
401.694	4.52
402.054	4.46
402.413	4.46
402.773	4.45
403.132	4.41
403.492	4.38
403.851	4.35
404.211	4.37
404.57	4.33
404.929	4.34
405.288	4.36
405.648	4.35
406.007	4.34
406.366	4.38
406.725	4.36
407.084	4.39
407.443	4.39
407.802	4.36
408.161	4.32
408.52	4.32
408.879	4.32
409.238	4.34
409.596	4.36
409.955	4.33
410.314	4.3
410.673	4.29
411.031	4.29
411.39	4.27
411.748	4.25
412.107	4.25
412.465	4.23
412.824	4.23
413.182	4.19
413.54	4.15
413.899	4.14
414.257	4.14
414.615	4.08
414.974	4.08
415.332	4.06
415.69	4.07
416.048	4.04
416.406	4.04
416.764	4.01
417.122	4.01
417.48	3.96
417.838	3.95
418.195	3.95
418.553	3.93
418.911	3.91
419.269	3.92
419.626	3.9
419.984	3.88
420.342	3.86
420.699	3.86
421.057	3.86
421.414	3.82
421.772	3.8
422.129	3.8
422.486	3.79
422.844	3.8
423.201	3.78
423.558	3.78
423.915	3.77
424.273	3.78
424.63	3.77
424.987	3.78
425.344	3.77
425.701	3.78
426.058	3.77
426.415	3.77
426.772	3.75
427.128	3.74
427.485	3.75
427.842	3.74
428.199	3.76
428.555	3.73
428.912	3.76
429.269	3.77
429.625	3.76
429.982	3.75
430.338	3.74
430.695	3.73
431.051	3.71
431.407	3.71
431.764	3.68
432.12	3.65
432.476	3.66
432.832	3.67
433.189	3.66
433.545	3.64
433.901	3.64
434.257	3.62
434.613	3.63
434.969	3.62
435.325	3.63
435.681	3.61
436.036	3.61
436.392	3.61
436.748	3.59
437.104	3.6
437.459	3.6
437.815	3.6
438.171	3.6
438.526	3.61
438.882	3.63
439.237	3.64
439.593	3.65
439.948	3.63
440.304	3.61
440.659	3.6
441.014	3.6
441.369	3.6
441.725	3.6
442.08	3.58
442.435	3.58
442.79	3.55
443.145	3.56
443.5	3.57
443.855	3.55
444.21	3.57
444.565	3.57
444.92	3.57
445.275	3.56
445.629	3.56
445.984	3.57
446.339	3.54
446.693	3.51
447.048	3.49
447.403	3.47
447.757	3.48
448.112	3.48
448.466	3.47
448.82	3.48
449.175	3.48
449.529	3.48
449.883	3.47
450.238	3.48
450.592	3.47
450.946	3.44
451.3	3.43
451.654	3.41
452.008	3.4
452.362	3.38
452.716	3.37
453.07	3.37
453.424	3.37
453.778	3.38
454.132	3.39
454.486	3.39
454.839	3.42
455.193	3.4
455.547	3.39
455.9	3.4
456.254	3.39
456.607	3.38
456.961	3.4
457.314	3.4
457.668	3.42
458.021	3.42
458.375	3.42
458.728	3.42
459.081	3.43
459.434	3.42
459.787	3.43
460.141	3.44
460.494	3.44
460.847	3.43
461.2	3.42
461.553	3.43
461.906	3.45
462.259	3.47
462.611	3.48
462.964	3.5
463.317	3.49
463.67	3.49
464.022	3.5
464.375	3.49
464.728	3.49
465.08	3.47
465.433	3.49
465.785	3.51
466.138	3.51
466.49	3.53
466.843	3.53
467.195	3.54
467.547	3.53
467.899	3.53
468.252	3.55
468.604	3.56
468.956	3.55
469.308	3.55
469.66	3.54
470.012	3.55
470.364	3.56
470.716	3.55
471.068	3.58
471.42	3.58
471.772	3.6
472.123	3.61
472.475	3.63
472.827	3.63
473.178	3.63
473.53	3.63
473.882	3.62
474.233	3.64
474.585	3.62
474.936	3.64
475.288	3.63
475.639	3.62
475.99	3.63
476.342	3.63
476.693	3.64
477.044	3.63
477.395	3.62
477.746	3.6
478.097	3.61
478.448	3.59
478.8	3.6
479.15	3.58
479.501	3.58
479.852	3.58
480.203	3.58
480.554	3.58
480.905	3.59
481.255	3.59
481.606	3.59
481.957	3.6
482.307	3.6
482.658	3.62
483.009	3.62
483.359	3.61
483.709	3.62
484.06	3.63
484.41	3.63
484.761	3.63
485.111	3.64
485.461	3.65
485.811	3.66
486.162	3.66
486.512	3.67
486.862	3.68
487.212	3.68
487.562	3.68
487.912	3.68
488.262	3.68
488.612	3.69
488.961	3.7
489.311	3.7
489.661	3.71
490.011	3.71
490.36	3.71
490.71	3.71
491.06	3.72
491.409	3.71
491.759	3.71
492.108	3.73
492.458	3.74
492.807	3.73
493.157	3.74
493.506	3.76
493.855	3.76
494.204	3.75
494.554	3.76
494.903	3.77
495.252	3.8
495.601	3.81
495.95	3.83
496.299	3.84
496.648	3.85
496.997	3.86
497.346	3.88
497.695	3.92
498.043	3.94
498.392	3.95
498.741	4
499.09	4.03
499.438	4.06
499.787	4.09
500.135	4.13
500.484	4.15
500.832	4.16
501.181	4.2
501.529	4.24
501.878	4.28
502.226	4.32
502.574	4.36
502.923	4.38
503.271	4.4
503.619	4.45
503.967	4.5
504.315	4.53
504.663	4.57
505.011	4.62
505.359	4.67
505.707	4.73
506.055	4.78
506.403	4.84
506.751	4.88
507.098	4.94
507.446	5
507.794	5.03
508.141	5.11
508.489	5.15
508.837	5.22
509.184	5.29
509.531	5.35
509.879	5.41
510.226	5.52
510.574	5.59
510.921	5.67
511.268	5.71
511.616	5.78
511.963	5.84
512.31	5.91
512.657	5.98
513.004	6.06
513.351	6.12
513.698	6.19
514.045	6.28
514.392	6.34
514.739	6.41
515.086	6.52
515.432	6.58
515.779	6.68
516.126	6.78
516.473	6.87
516.819	6.94
517.166	7.02
517.512	7.08
517.859	7.17
518.205	7.23
518.552	7.32
518.898	7.4
519.245	7.49
519.591	7.56
519.937	7.64
520.283	7.72
520.629	7.81
520.976	7.9
521.322	8
521.668	8.12
522.014	8.24
522.36	8.35
522.706	8.5
523.052	8.63
523.398	8.76
523.743	8.9
524.089	9.06
524.435	9.22
524.781	9.35
525.126	9.49
525.472	9.62
525.817	9.74
526.163	9.87
526.509	9.98
526.854	10.09
527.199	10.2
527.545	10.3
527.89	10.4
528.235	10.52
528.581	10.64
528.926	10.75
529.271	10.87
529.616	10.98
529.961	11.08
530.306	11.21
530.651	11.33
530.996	11.48
531.341	11.61
531.686	11.77
532.031	11.92
532.376	12.08
532.721	12.25
533.065	12.42
533.41	12.59
533.755	12.78
534.099	12.98
534.444	13.18
534.788	13.38
535.133	13.59
535.477	13.76
535.822	13.97
536.166	14.2
536.51	14.46
536.855	14.73
537.199	15.02
537.543	15.29
537.887	15.59
538.231	15.88
538.576	16.19
538.92	16.48
539.264	16.76
539.608	17.02
539.951	17.28
540.295	17.52
540.639	17.75
540.983	17.98
541.327	18.2
541.671	18.41
542.014	18.66
542.358	18.89
542.701	19.12
543.045	19.35
543.389	19.57
543.732	19.79
544.075	20.05
544.419	20.28
544.762	20.54
545.105	20.8
545.449	21.08
545.792	21.32
546.135	21.59
546.478	21.91
546.821	22.25
547.165	22.59
547.508	22.94
547.851	23.31
548.194	23.68
548.536	24.05
548.879	24.44
549.222	24.76
549.565	25.1
549.908	25.49
550.25	25.86
550.593	26.27
550.936	26.65
551.278	27
551.621	27.33
551.963	27.71
552.306	28.07
552.648	28.41
552.991	28.81
553.333	29.13
553.675	29.5
554.017	29.82
554.36	30.13
554.702	30.46
555.044	30.75
555.386	30.98
555.728	31.3
556.07	31.57
556.412	31.9
556.754	32.19
557.096	32.51
557.438	32.82
557.78	33.09
558.121	33.44
558.463	33.74
558.805	34.1
559.147	34.39
559.488	34.7
559.83	35.04
560.171	35.33
560.513	35.68
560.854	35.93
561.196	36.19
561.537	36.45
561.878	36.67
562.22	36.93
562.561	37.26
562.902	37.56
563.243	37.89
563.584	38.17
563.925	38.46
564.266	38.7
564.607	38.97
564.948	39.23
565.289	39.43
565.63	39.65
565.971	39.84
566.312	40.1
566.653	40.29
566.993	40.51
567.334	40.74
567.675	40.94
568.015	41.17
568.356	41.39
568.696	41.59
569.037	41.85
569.377	42.1
569.718	42.3
570.058	42.44
570.398	42.63
570.739	42.83
571.079	43.04
571.419	43.25
571.759	43.42
572.099	43.59
572.439	43.77
572.779	43.97
573.119	44.17
573.459	44.33
573.799	44.49
574.139	44.66
574.479	44.81
574.819	44.95
575.158	45.09
575.498	45.22
575.838	45.36
576.177	45.53
576.517	45.65
576.856	45.84
577.196	46.02
577.535	46.22
577.875	46.33
578.214	46.5
578.553	46.66
578.893	46.85
579.232	47.04
579.571	47.22
579.91	47.35
580.25	47.57
580.589	47.74
580.928	47.95
581.267	48.07
581.606	48.13
581.945	48.3
582.283	48.45
582.622	48.64
582.961	48.86
583.3	48.96
583.639	49.11
583.977	49.22
584.316	49.27
584.654	49.29
584.993	49.39
585.332	49.53
585.67	49.61
586.008	49.72
586.347	49.8
586.685	49.9
587.024	49.97
587.362	49.97
587.7	50.07
588.038	50.14
588.376	50.21
588.715	50.37
589.053	50.56
589.391	50.63
589.729	50.71
590.067	50.77
590.404	50.91
590.742	51.02
591.08	51.09
591.418	51.25
591.756	51.42
592.093	51.61
592.431	51.62
592.769	51.71
593.106	51.76
593.444	51.8
593.781	51.93
594.119	52.13
594.456	52.24
594.793	52.26
595.131	52.34
595.468	52.46
595.805	52.56
596.143	52.51
596.48	52.56
596.817	52.69
597.154	52.76
597.491	52.8
597.828	52.89
598.165	53.02
598.502	53.11
598.839	53.11
599.176	53.16
599.512	53.28
599.849	53.38
600.186	53.45
600.523	53.55
600.859	53.59
601.196	53.58
601.532	53.63
601.869	53.75
602.205	53.75
602.542	53.79
602.878	53.79
603.215	53.85
603.551	53.97
603.887	53.94
604.223	53.96
604.56	54.09
604.896	54.07
605.232	54.09
605.568	54.15
605.904	54.2
606.24	54.24
606.576	54.3
606.912	54.33
607.248	54.38
607.583	54.43
607.919	54.51
608.255	54.56
608.591	54.69
608.926	54.72
609.262	54.86
609.597	54.94
609.933	55.02
610.268	55.11
610.604	55.11
610.939	55.24
611.275	55.37
611.61	55.35
611.945	55.44
612.281	55.46
612.616	55.57
612.951	55.7
613.286	55.76
613.621	55.83
613.956	55.9
614.291	56.1
614.626	56.2
614.961	56.28
615.296	56.4
615.631	56.39
615.966	56.5
616.3	56.55
616.635	56.58
616.97	56.74
617.304	56.75
617.639	56.78
617.973	56.77
618.308	56.77
618.642	56.89
618.977	56.91
619.311	56.94
619.646	56.88
619.98	56.92
620.314	56.99
620.648	56.99
620.983	57.01
621.317	56.97
621.651	56.91
621.985	56.9
622.319	56.89
622.653	56.85
622.987	56.83
623.321	56.73
623.655	56.74
623.988	56.75
624.322	56.79
624.656	56.91
624.99	57.01
625.323	57.06
625.657	57.09
625.99	57.17
626.324	57.27
626.657	57.32
626.991	57.34
627.324	57.42
627.658	57.45
627.991	57.5
628.324	57.49
628.657	57.57
628.991	57.57
629.324	57.58
629.657	57.59
629.99	57.64
630.323	57.73
630.656	57.72
630.989	57.74
631.322	57.87
631.655	57.83
631.987	57.76
632.32	57.71
632.653	57.65
632.986	57.63
633.318	57.56
633.651	57.57
633.984	57.59
634.316	57.6
634.649	57.63
634.981	57.62
635.313	57.66
635.646	57.67
635.978	57.7
636.31	57.68
636.643	57.77
636.975	57.78
637.307	57.9
637.639	57.97
637.971	57.97
638.303	57.88
638.635	57.94
638.967	58.06
639.299	58.12
639.631	58.11
639.963	58.19
640.295	58.17
640.626	58.19
640.958	58.19
641.29	58.12
641.621	58.17
641.953	58.32
642.285	58.38
642.616	58.4
642.948	58.4
643.279	58.58
643.61	58.55
643.942	58.55
644.273	58.53
644.604	58.54
644.936	58.55
645.267	58.58
645.598	58.51
645.929	58.48
646.26	58.52
646.591	58.63
646.922	58.63
647.253	58.63
647.584	58.63
647.915	58.63
648.245	58.67
648.576	58.75
648.907	58.68
649.238	58.63
649.568	58.72
649.899	58.84
650.229	58.89
650.56	58.95
650.89	58.9
651.221	58.92
651.551	58.84
651.882	58.95
652.212	58.92
652.542	58.97
652.872	58.98
653.203	58.92
653.533	58.87
653.863	58.77
654.193	58.85
654.523	58.89
654.853	58.91
655.183	58.93
655.513	58.85
655.843	58.86
656.172	58.89
656.502	58.88
656.832	58.88
657.162	58.87
657.491	58.87
657.821	58.9
658.15	58.97
658.48	59.09
658.809	59
659.139	59.06
659.468	59.1
659.798	59.06
660.127	59.11
660.456	59.19
660.785	59.29
661.115	59.26
661.444	59.2
661.773	59.23
662.102	59.26
662.431	59.3
662.76	59.22
663.089	59.32
663.418	59.37
663.747	59.38
664.076	59.28
664.404	59.45
664.733	59.56
665.062	59.43
665.39	59.55
665.719	59.61
666.048	59.76
666.376	59.73
666.705	59.96
667.033	59.9
667.362	59.84
667.69	59.86
668.018	59.98
668.347	59.99
668.675	60.03
