Data from BA57758_Reflection_00013.txt Node
Date: Mon Nov 18 15:11:59 EST 2019
User: vgr7
Spectrometer: USB2G7710
Scans to average: 3
Trigger mode: 4
Integration Time (sec): 2.000000E-2
Electric dark correction enabled: true
Boxcar width: 10
XAxis mode: Wavelengths
Number of Pixels in Spectrum: 2048
>>>>>Begin Spectral Data<<<<<
177.721	116.19
178.105	-3.14
178.488	-9.36
178.871	-76.4
179.254	-111.08
179.636	261.02
180.019	-771.29
180.402	-580
180.785	22.92
181.168	121.74
181.55	187.95
181.933	107.6
182.316	87.14
182.698	103.64
183.081	103.35
183.463	184.37
183.846	137.47
184.228	38.55
184.611	3.91
184.993	12.16
185.376	32.09
185.758	37.1
186.14	12.79
186.522	-13.38
186.904	-38.99
187.287	-25.18
187.669	-27.8
188.051	54.51
188.433	25.02
188.815	52.9
189.197	27.32
189.579	4.9
189.961	6.42
190.342	241.34
190.724	573.93
191.106	354.14
191.488	1223.29
191.869	-373.87
192.251	-158.85
192.633	-249.85
193.014	-335.46
193.396	-475.1
193.777	-691.29
194.159	-626.96
194.54	-404.47
194.922	-298.76
195.303	-258.91
195.684	-208.01
196.065	-110.45
196.447	-107.66
196.828	-119.5
197.209	-104.21
197.59	-104.49
197.971	-99.17
198.352	-105.87
198.733	-90.62
199.114	-94.92
199.495	-87.95
199.876	-103.51
200.257	-69.33
200.638	-41.1
201.018	-32.56
201.399	-17.91
201.78	-2.26
202.16	-16.82
202.541	-16.67
202.922	-35.16
203.302	-40.14
203.683	-54.98
204.063	-141.46
204.444	-134.16
204.824	-78.81
205.204	-95.28
205.585	-70.8
205.965	-95.68
206.345	-66.82
206.725	-136.52
207.106	-249.61
207.486	-262.66
207.866	-210.29
208.246	-405.84
208.626	-596.83
209.006	-178.62
209.386	5060
209.766	-371.09
210.145	-278.66
210.525	-461.51
210.905	-108.62
211.285	-48.8
211.664	-24.89
212.044	-8.53
212.424	-3.19
212.803	-19.85
213.183	-16.88
213.562	-13.5
213.942	-17.27
214.321	-22.38
214.701	-22.92
215.08	-18.63
215.459	-25.53
215.838	-25.9
216.218	-47.25
216.597	-35.79
216.976	-38.88
217.355	-33.56
217.734	-39.41
218.113	-45.43
218.492	-37.73
218.871	-45.22
219.25	-53.85
219.629	-80.54
220.008	-78.66
220.387	-96.71
220.766	-118.28
221.144	-151.44
221.523	-162.55
221.902	-178.43
222.28	-156.05
222.659	-145.3
223.037	-128.18
223.416	-103.37
223.794	-83.59
224.173	-70.88
224.551	-55.74
224.929	-46.53
225.308	-39.45
225.686	-26.97
226.064	-14.48
226.442	-14.42
226.821	-6.85
227.199	-7.93
227.577	-7.94
227.955	-10.49
228.333	-7.94
228.711	-2.94
229.089	2.27
229.467	2.26
229.845	-2.15
230.222	-2.92
230.6	-3.55
230.978	-3.12
231.356	-2.6
231.733	-2.88
232.111	-2.01
232.488	-2.1
232.866	-1.51
233.243	-0.81
233.621	-2.02
233.998	-2.66
234.376	-3.2
234.753	-2.12
235.13	-2.91
235.508	-1.01
235.885	-0.53
236.262	-1.71
236.639	-2.59
237.016	-2.45
237.393	-0.69
237.77	2.42
238.147	3.24
238.524	3.59
238.901	3.93
239.278	3.58
239.655	4.52
240.032	4.29
240.409	3.61
240.785	3.45
241.162	3.6
241.539	3.42
241.915	3.14
242.292	3.25
242.668	2.93
243.045	3.22
243.421	2.86
243.798	3.08
244.174	3.29
244.551	3.68
244.927	3.21
245.303	3.21
245.679	3.41
246.056	3.28
246.432	3.19
246.808	3.09
247.184	3.33
247.56	2.91
247.936	3.24
248.312	3.19
248.688	3.49
249.064	3.57
249.44	3.89
249.815	4.07
250.191	4.04
250.567	3.89
250.943	3.79
251.318	4.18
251.694	4.18
252.069	4.2
252.445	4.19
252.82	4.41
253.196	3.96
253.571	3.66
253.947	3.62
254.322	3.95
254.697	3.9
255.073	3.63
255.448	3.96
255.823	3.46
256.198	3.6
256.573	3.39
256.948	3.33
257.323	3
257.698	2.91
258.073	2.67
258.448	2.68
258.823	2.78
259.198	2.46
259.573	2.37
259.948	2.42
260.322	2.4
260.697	2.45
261.072	2.68
261.446	2.68
261.821	2.65
262.195	2.73
262.57	2.69
262.944	2.67
263.319	2.51
263.693	2.55
264.067	2.62
264.442	2.44
264.816	2.27
265.19	2.37
265.564	2.35
265.938	2.43
266.313	2.58
266.687	2.5
267.061	2.78
267.435	2.86
267.809	2.84
268.183	2.68
268.556	2.63
268.93	2.63
269.304	2.62
269.678	2.8
270.051	2.69
270.425	2.82
270.799	2.7
271.172	2.82
271.546	2.68
271.919	2.66
272.293	2.73
272.666	2.87
273.04	2.94
273.413	2.86
273.787	2.95
274.16	2.82
274.533	2.94
274.906	2.82
275.279	2.76
275.653	2.69
276.026	2.69
276.399	2.81
276.772	2.86
277.145	2.8
277.518	2.73
277.891	2.61
278.263	2.43
278.636	2.7
279.009	2.67
279.382	2.9
279.755	2.78
280.127	2.91
280.5	2.77
280.872	2.71
281.245	2.89
281.617	2.83
281.99	2.94
282.362	2.93
282.735	2.93
283.107	2.93
283.479	3.07
283.852	2.97
284.224	2.9
284.596	2.87
284.968	2.88
285.34	2.97
285.713	2.97
286.085	3
286.457	2.95
286.829	3
287.201	2.92
287.572	2.9
287.944	2.81
288.316	2.85
288.688	2.78
289.06	2.7
289.431	2.81
289.803	2.78
290.175	2.91
290.546	3.04
290.918	3.18
291.289	3.08
291.661	3.3
292.032	3.34
292.403	3.23
292.775	3.32
293.146	3.22
293.517	3.34
293.889	3.44
294.26	3.51
294.631	3.47
295.002	3.56
295.373	3.64
295.744	3.8
296.115	3.77
296.486	3.78
296.857	3.85
297.228	3.79
297.599	3.82
297.97	3.85
298.34	3.83
298.711	3.82
299.082	3.8
299.452	3.88
299.823	3.99
300.194	4.08
300.564	4.06
300.935	4.19
301.305	4.19
301.676	4.31
302.046	4.33
302.416	4.49
302.787	4.58
303.157	4.61
303.527	4.48
303.897	4.63
304.267	4.84
304.637	4.8
305.008	4.87
305.378	5.12
305.748	5.03
306.117	5.04
306.487	4.9
306.857	4.92
307.227	4.88
307.597	4.71
307.967	4.65
308.336	4.68
308.706	4.64
309.076	4.69
309.445	4.62
309.815	4.62
310.184	4.53
310.554	4.48
310.923	4.6
311.293	4.69
311.662	4.73
312.031	4.65
312.401	4.76
312.77	4.88
313.139	4.85
313.508	4.79
313.877	4.85
314.246	4.99
314.616	5.05
314.985	5.04
315.353	5.16
315.722	5.34
316.091	5.36
316.46	5.33
316.829	5.31
317.198	5.38
317.567	5.22
317.935	5.24
318.304	5.3
318.672	5.32
319.041	5.38
319.41	5.38
319.778	5.36
320.147	5.31
320.515	5.24
320.883	5.12
321.252	5.23
321.62	5.14
321.988	5.24
322.357	5.26
322.725	5.29
323.093	5.39
323.461	5.42
323.829	5.5
324.197	5.62
324.565	5.81
324.933	5.8
325.301	5.96
325.669	6.01
326.037	6.03
326.405	6.03
326.772	6.1
327.14	6.12
327.508	6.25
327.875	6.13
328.243	6.13
328.61	6.2
328.978	6.23
329.346	6.49
329.713	6.42
330.08	6.53
330.448	6.52
330.815	6.44
331.182	6.47
331.55	6.42
331.917	6.52
332.284	6.55
332.651	6.55
333.018	6.59
333.385	6.66
333.752	6.74
334.119	6.84
334.486	6.73
334.853	6.75
335.22	6.88
335.587	7.07
335.954	7.16
336.32	7.41
336.687	7.32
337.054	7.24
337.42	7.25
337.787	7.31
338.153	7.39
338.52	7.52
338.886	7.4
339.253	7.47
339.619	7.41
339.986	7.35
340.352	7.35
340.718	7.35
341.084	7.38
341.451	7.4
341.817	7.33
342.183	7.44
342.549	7.49
342.915	7.41
343.281	7.41
343.647	7.38
344.013	7.22
344.379	7.25
344.745	7.3
345.11	7.33
345.476	7.36
345.842	7.38
346.208	7.31
346.573	7.42
346.939	7.51
347.304	7.48
347.67	7.52
348.035	7.49
348.401	7.52
348.766	7.44
349.132	7.43
349.497	7.46
349.862	7.5
350.228	7.41
350.593	7.34
350.958	7.39
351.323	7.39
351.688	7.4
352.053	7.48
352.418	7.46
352.783	7.52
353.148	7.41
353.513	7.41
353.878	7.44
354.243	7.42
354.608	7.41
354.972	7.43
355.337	7.41
355.702	7.44
356.066	7.45
356.431	7.49
356.795	7.48
357.16	7.51
357.524	7.39
357.889	7.46
358.253	7.45
358.618	7.45
358.982	7.47
359.346	7.42
359.71	7.35
360.075	7.3
360.439	7.27
360.803	7.32
361.167	7.24
361.531	7.22
361.895	7.21
362.259	7.08
362.623	7.07
362.987	6.97
363.351	6.93
363.714	6.92
364.078	6.84
364.442	6.76
364.806	6.67
365.169	6.65
365.533	6.53
365.896	6.5
366.26	6.43
366.623	6.34
366.987	6.24
367.35	6.23
367.714	6.14
368.077	6.06
368.44	6.01
368.803	5.99
369.167	5.91
369.53	5.85
369.893	5.87
370.256	5.75
370.619	5.76
370.982	5.7
371.345	5.57
371.708	5.56
372.071	5.53
372.434	5.47
372.797	5.46
373.159	5.46
373.522	5.44
373.885	5.38
374.247	5.39
374.61	5.35
374.973	5.29
375.335	5.3
375.698	5.22
376.06	5.1
376.423	5.05
376.785	5
377.147	4.95
377.51	4.91
377.872	4.97
378.234	4.93
378.596	4.91
378.958	4.9
379.321	4.89
379.683	4.88
380.045	4.85
380.407	4.78
380.769	4.72
381.13	4.64
381.492	4.55
381.854	4.5
382.216	4.56
382.578	4.55
382.939	4.48
383.301	4.45
383.663	4.48
384.024	4.45
384.386	4.5
384.747	4.51
385.109	4.48
385.47	4.38
385.832	4.34
386.193	4.32
386.554	4.25
386.916	4.16
387.277	4.11
387.638	4.11
387.999	4.07
388.36	4.03
388.721	4.03
389.082	4.04
389.443	3.98
389.804	3.93
390.165	3.86
390.526	3.87
390.887	3.81
391.248	3.81
391.609	3.79
391.969	3.73
392.33	3.69
392.691	3.69
393.051	3.65
393.412	3.64
393.772	3.61
394.133	3.62
394.493	3.63
394.854	3.6
395.214	3.56
395.574	3.53
395.935	3.48
396.295	3.47
396.655	3.4
397.015	3.38
397.376	3.36
397.736	3.34
398.096	3.34
398.456	3.36
398.816	3.34
399.176	3.29
399.535	3.28
399.895	3.24
400.255	3.17
400.615	3.17
400.975	3.17
401.334	3.15
401.694	3.13
402.054	3.1
402.413	3.06
402.773	3.05
403.132	3.03
403.492	3.05
403.851	3.02
404.211	3.03
404.57	3.03
404.929	3
405.288	2.98
405.648	2.94
406.007	2.94
406.366	2.89
406.725	2.88
407.084	2.86
407.443	2.88
407.802	2.89
408.161	2.88
408.52	2.83
408.879	2.85
409.238	2.82
409.596	2.82
409.955	2.82
410.314	2.82
410.673	2.84
411.031	2.81
411.39	2.8
411.748	2.8
412.107	2.79
412.465	2.79
412.824	2.8
413.182	2.77
413.54	2.74
413.899	2.73
414.257	2.77
414.615	2.75
414.974	2.75
415.332	2.71
415.69	2.71
416.048	2.7
416.406	2.69
416.764	2.69
417.122	2.68
417.48	2.68
417.838	2.67
418.195	2.66
418.553	2.67
418.911	2.67
419.269	2.64
419.626	2.62
419.984	2.61
420.342	2.59
420.699	2.6
421.057	2.61
421.414	2.59
421.772	2.56
422.129	2.56
422.486	2.53
422.844	2.55
423.201	2.54
423.558	2.54
423.915	2.53
424.273	2.52
424.63	2.5
424.987	2.5
425.344	2.48
425.701	2.47
426.058	2.46
426.415	2.46
426.772	2.48
427.128	2.48
427.485	2.47
427.842	2.47
428.199	2.47
428.555	2.46
428.912	2.48
429.269	2.48
429.625	2.47
429.982	2.48
430.338	2.44
430.695	2.45
431.051	2.43
431.407	2.42
431.764	2.4
432.12	2.4
432.476	2.38
432.832	2.37
433.189	2.37
433.545	2.36
433.901	2.35
434.257	2.35
434.613	2.36
434.969	2.38
435.325	2.39
435.681	2.39
436.036	2.39
436.392	2.39
436.748	2.38
437.104	2.37
437.459	2.38
437.815	2.4
438.171	2.4
438.526	2.42
438.882	2.44
439.237	2.45
439.593	2.46
439.948	2.45
440.304	2.48
440.659	2.47
441.014	2.47
441.369	2.46
441.725	2.44
442.08	2.42
442.435	2.41
442.79	2.41
443.145	2.4
443.5	2.41
443.855	2.39
444.21	2.38
444.565	2.39
444.92	2.39
445.275	2.37
445.629	2.37
445.984	2.36
446.339	2.33
446.693	2.31
447.048	2.31
447.403	2.32
447.757	2.28
448.112	2.27
448.466	2.27
448.82	2.27
449.175	2.28
449.529	2.29
449.883	2.28
450.238	2.27
450.592	2.27
450.946	2.24
451.3	2.24
451.654	2.25
452.008	2.22
452.362	2.22
452.716	2.23
453.07	2.22
453.424	2.23
453.778	2.25
454.132	2.25
454.486	2.23
454.839	2.21
455.193	2.23
455.547	2.22
455.9	2.23
456.254	2.23
456.607	2.23
456.961	2.22
457.314	2.22
457.668	2.22
458.021	2.2
458.375	2.22
458.728	2.23
459.081	2.22
459.434	2.23
459.787	2.23
460.141	2.24
460.494	2.24
460.847	2.23
461.2	2.23
461.553	2.25
461.906	2.27
462.259	2.3
462.611	2.32
462.964	2.33
463.317	2.33
463.67	2.34
464.022	2.33
464.375	2.34
464.728	2.36
465.08	2.35
465.433	2.37
465.785	2.35
466.138	2.35
466.49	2.37
466.843	2.39
467.195	2.39
467.547	2.38
467.899	2.37
468.252	2.39
468.604	2.4
468.956	2.38
469.308	2.39
469.66	2.38
470.012	2.38
470.364	2.41
470.716	2.4
471.068	2.4
471.42	2.39
471.772	2.41
472.123	2.4
472.475	2.42
472.827	2.42
473.178	2.44
473.53	2.44
473.882	2.44
474.233	2.44
474.585	2.43
474.936	2.43
475.288	2.43
475.639	2.42
475.99	2.41
476.342	2.42
476.693	2.41
477.044	2.4
477.395	2.38
477.746	2.35
478.097	2.33
478.448	2.35
478.8	2.35
479.15	2.34
479.501	2.35
479.852	2.36
480.203	2.37
480.554	2.37
480.905	2.38
481.255	2.37
481.606	2.37
481.957	2.38
482.307	2.39
482.658	2.39
483.009	2.39
483.359	2.4
483.709	2.4
484.06	2.39
484.41	2.4
484.761	2.4
485.111	2.41
485.461	2.42
485.811	2.42
486.162	2.42
486.512	2.43
486.862	2.42
487.212	2.42
487.562	2.42
487.912	2.42
488.262	2.42
488.612	2.42
488.961	2.42
489.311	2.42
489.661	2.42
490.011	2.43
490.36	2.44
490.71	2.44
491.06	2.43
491.409	2.44
491.759	2.45
492.108	2.45
492.458	2.46
492.807	2.45
493.157	2.47
493.506	2.47
493.855	2.49
494.204	2.5
494.554	2.5
494.903	2.5
495.252	2.53
495.601	2.54
495.95	2.56
496.299	2.57
496.648	2.57
496.997	2.58
497.346	2.6
497.695	2.63
498.043	2.64
498.392	2.68
498.741	2.7
499.09	2.71
499.438	2.77
499.787	2.8
500.135	2.85
500.484	2.89
500.832	2.91
501.181	2.93
501.529	2.96
501.878	3.01
502.226	3.05
502.574	3.08
502.923	3.1
503.271	3.14
503.619	3.21
503.967	3.28
504.315	3.32
504.663	3.35
505.011	3.38
505.359	3.44
505.707	3.49
506.055	3.51
506.403	3.57
506.751	3.6
507.098	3.65
507.446	3.7
507.794	3.72
508.141	3.79
508.489	3.85
508.837	3.91
509.184	3.96
509.531	4.02
509.879	4.09
510.226	4.19
510.574	4.26
510.921	4.31
511.268	4.36
511.616	4.45
511.963	4.5
512.31	4.59
512.657	4.66
513.004	4.75
513.351	4.87
513.698	4.97
514.045	5.05
514.392	5.14
514.739	5.23
515.086	5.36
515.432	5.46
515.779	5.56
516.126	5.68
516.473	5.78
516.819	5.87
517.166	5.97
517.512	6.05
517.859	6.13
518.205	6.23
518.552	6.33
518.898	6.42
519.245	6.52
519.591	6.64
519.937	6.75
520.283	6.88
520.629	6.98
520.976	7.1
521.322	7.25
521.668	7.39
522.014	7.55
522.36	7.69
522.706	7.87
523.052	8.03
523.398	8.2
523.743	8.4
524.089	8.61
524.435	8.8
524.781	8.99
525.126	9.18
525.472	9.33
525.817	9.49
526.163	9.64
526.509	9.78
526.854	9.91
527.199	10.05
527.545	10.15
527.89	10.28
528.235	10.41
528.581	10.54
528.926	10.69
529.271	10.82
529.616	10.96
529.961	11.1
530.306	11.25
530.651	11.42
530.996	11.58
531.341	11.75
531.686	11.91
532.031	12.09
532.376	12.27
532.721	12.47
533.065	12.67
533.41	12.89
533.755	13.11
534.099	13.34
534.444	13.56
534.788	13.79
535.133	14.01
535.477	14.24
535.822	14.46
536.166	14.72
536.51	15.01
536.855	15.31
537.199	15.6
537.543	15.9
537.887	16.2
538.231	16.5
538.576	16.83
538.92	17.17
539.264	17.46
539.608	17.73
539.951	18.01
540.295	18.28
540.639	18.53
540.983	18.76
541.327	18.97
541.671	19.19
542.014	19.43
542.358	19.67
542.701	19.89
543.045	20.14
543.389	20.35
543.732	20.6
544.075	20.84
544.419	21.1
544.762	21.32
545.105	21.59
545.449	21.9
545.792	22.16
546.135	22.43
546.478	22.74
546.821	23.09
547.165	23.42
547.508	23.74
547.851	24.04
548.194	24.37
548.536	24.76
548.879	25.11
549.222	25.48
549.565	25.84
549.908	26.18
550.25	26.56
550.593	26.91
550.936	27.24
551.278	27.59
551.621	27.97
551.963	28.32
552.306	28.65
552.648	28.93
552.991	29.26
553.333	29.57
553.675	29.89
554.017	30.18
554.36	30.47
554.702	30.75
555.044	31.1
555.386	31.43
555.728	31.71
556.07	32.04
556.412	32.33
556.754	32.6
557.096	32.9
557.438	33.13
557.78	33.45
558.121	33.74
558.463	34.04
558.805	34.27
559.147	34.65
559.488	34.94
559.83	35.26
560.171	35.54
560.513	35.84
560.854	36.16
561.196	36.43
561.537	36.69
561.878	36.97
562.22	37.22
562.561	37.51
562.902	37.73
563.243	37.92
563.584	38.15
563.925	38.39
564.266	38.65
564.607	38.87
564.948	39.09
565.289	39.33
565.63	39.52
565.971	39.71
566.312	39.91
566.653	40.1
566.993	40.28
567.334	40.48
567.675	40.69
568.015	40.85
568.356	41.05
568.696	41.27
569.037	41.42
569.377	41.56
569.718	41.73
570.058	41.93
570.398	42.2
570.739	42.36
571.079	42.57
571.419	42.73
571.759	42.94
572.099	43.09
572.439	43.21
572.779	43.32
573.119	43.47
573.459	43.59
573.799	43.75
574.139	43.91
574.479	44.05
574.819	44.16
575.158	44.3
575.498	44.41
575.838	44.51
576.177	44.69
576.517	44.89
576.856	44.98
577.196	45.13
577.535	45.22
577.875	45.38
578.214	45.49
578.553	45.66
578.893	45.82
579.232	45.98
579.571	46.16
579.91	46.38
580.25	46.53
580.589	46.71
580.928	46.86
581.267	47
581.606	47.13
581.945	47.21
582.283	47.36
582.622	47.52
582.961	47.68
583.3	47.81
583.639	47.92
583.977	48.08
584.316	48.17
584.654	48.3
584.993	48.42
585.332	48.51
585.67	48.59
586.008	48.72
586.347	48.77
586.685	48.83
587.024	48.93
587.362	49.01
587.7	49.03
588.038	49.07
588.376	49.17
588.715	49.28
589.053	49.4
589.391	49.45
589.729	49.55
590.067	49.58
590.404	49.63
590.742	49.7
591.08	49.74
591.418	49.83
591.756	49.98
592.093	50.03
592.431	50.11
592.769	50.23
593.106	50.22
593.444	50.31
593.781	50.35
594.119	50.37
594.456	50.49
594.793	50.58
595.131	50.65
595.468	50.68
595.805	50.75
596.143	50.84
596.48	50.92
596.817	50.86
597.154	50.93
597.491	50.98
597.828	51.09
598.165	51.19
598.502	51.21
598.839	51.21
599.176	51.23
599.512	51.29
599.849	51.26
600.186	51.35
600.523	51.42
600.859	51.54
601.196	51.66
601.532	51.7
601.869	51.8
602.205	51.86
602.542	51.91
602.878	51.94
603.215	52
603.551	52.04
603.887	52.18
604.223	52.25
604.56	52.29
604.896	52.25
605.232	52.23
605.568	52.28
605.904	52.26
606.24	52.39
606.576	52.42
606.912	52.54
607.248	52.64
607.583	52.7
607.919	52.71
608.255	52.7
608.591	52.77
608.926	52.75
609.262	52.76
609.597	52.84
609.933	52.86
610.268	52.86
610.604	52.84
610.939	52.89
611.275	52.96
611.61	52.94
611.945	53.04
612.281	53.12
612.616	53.22
612.951	53.37
613.286	53.31
613.621	53.38
613.956	53.42
614.291	53.41
614.626	53.47
614.961	53.53
615.296	53.54
615.631	53.62
615.966	53.69
616.3	53.82
616.635	53.84
616.97	53.88
617.304	54.01
617.639	54.11
617.973	54.14
618.308	54.15
618.642	54.28
618.977	54.27
619.311	54.36
619.646	54.42
619.98	54.47
620.314	54.56
620.648	54.66
620.983	54.63
621.317	54.56
621.651	54.59
621.985	54.66
622.319	54.74
622.653	54.69
622.987	54.83
623.321	54.8
623.655	54.84
623.988	54.91
624.322	54.87
624.656	54.86
624.99	54.77
625.323	54.7
625.657	54.73
625.99	54.79
626.324	54.78
626.657	54.72
626.991	54.67
627.324	54.7
627.658	54.66
627.991	54.7
628.324	54.83
628.657	54.78
628.991	54.8
629.324	54.81
629.657	54.84
629.99	54.82
630.323	54.8
630.656	54.81
630.989	54.81
631.322	54.84
631.655	54.83
631.987	54.93
632.32	55.01
632.653	55.08
632.986	55.02
633.318	54.97
633.651	55.04
633.984	55.06
634.316	55.03
634.649	54.98
634.981	55.07
635.313	55.02
635.646	55.15
635.978	55.12
636.31	55.22
636.643	55.17
636.975	55.17
637.307	55.31
637.639	55.25
637.971	55.25
638.303	55.32
638.635	55.31
638.967	55.29
639.299	55.32
639.631	55.29
639.963	55.3
640.295	55.43
640.626	55.35
640.958	55.35
641.29	55.42
641.621	55.46
641.953	55.45
642.285	55.51
642.616	55.46
642.948	55.5
643.279	55.44
643.61	55.52
643.942	55.5
644.273	55.45
644.604	55.48
644.936	55.38
645.267	55.38
645.598	55.38
645.929	55.47
646.26	55.42
646.591	55.39
646.922	55.44
647.253	55.37
647.584	55.43
647.915	55.57
648.245	55.54
648.576	55.66
648.907	55.71
649.238	55.7
649.568	55.72
649.899	55.74
650.229	55.78
650.56	55.77
650.89	55.73
651.221	55.73
651.551	55.77
651.882	55.89
652.212	55.87
652.542	56
652.872	56
653.203	56.12
653.533	56.22
653.863	56.28
654.193	56.39
654.523	56.4
654.853	56.46
655.183	56.52
655.513	56.47
655.843	56.43
656.172	56.43
656.502	56.53
656.832	56.55
657.162	56.57
657.491	56.57
657.821	56.65
658.15	56.51
658.48	56.56
658.809	56.54
659.139	56.62
659.468	56.56
659.798	56.61
660.127	56.66
660.456	56.69
660.785	56.66
661.115	56.64
661.444	56.68
661.773	56.6
662.102	56.63
662.431	56.63
662.76	56.71
663.089	56.73
663.418	56.65
663.747	56.68
664.076	56.79
664.404	56.7
664.733	56.67
665.062	56.84
665.39	56.76
665.719	56.77
666.048	56.67
666.376	56.75
666.705	56.65
