Data from BA57757_Reflection_00040.txt Node
Date: Mon Nov 18 15:02:30 EST 2019
User: vgr7
Spectrometer: USB2G7710
Scans to average: 3
Trigger mode: 4
Integration Time (sec): 2.000000E-2
Electric dark correction enabled: true
Boxcar width: 10
XAxis mode: Wavelengths
Number of Pixels in Spectrum: 2048
>>>>>Begin Spectral Data<<<<<
177.721	-81.44
178.105	-42.86
178.488	468.2
178.871	56.9
179.254	36.22
179.636	134.48
180.019	-281.91
180.402	100
180.785	-30.84
181.168	201.77
181.55	-132.56
181.933	62.18
182.316	73.09
182.698	53.89
183.081	42.01
183.463	6.9
183.846	1.72
184.228	-76.41
184.611	-65.36
184.993	-126.8
185.376	168.14
185.758	106.68
186.14	68.03
186.522	233.68
186.904	274.95
187.287	-1202.75
187.669	233.57
188.051	255.58
188.433	149.01
188.815	127.48
189.197	99.32
189.579	99.29
189.961	87.71
190.342	86.62
190.724	72
191.106	90.64
191.488	99.38
191.869	82.42
192.251	77.99
192.633	78.24
193.014	69.63
193.396	43.68
193.777	33.54
194.159	30.76
194.54	21.83
194.922	19.35
195.303	11.71
195.684	16.21
196.065	9.38
196.447	-3.45
196.828	-9.98
197.209	-6.44
197.59	-4.87
197.971	-8.73
198.352	3.64
198.733	12.05
199.114	14.22
199.495	3.46
199.876	4.69
200.257	-3.31
200.638	2.72
201.018	1.55
201.399	8.03
201.78	18.39
202.16	21.58
202.541	11.47
202.922	13.5
203.302	3.4
203.683	-5.98
204.063	-23.17
204.444	-18.28
204.824	-3.97
205.204	-15.63
205.585	-13.53
205.965	-6.51
206.345	-35.5
206.725	-35.32
207.106	-51.93
207.486	-42.32
207.866	-47.67
208.246	-40.22
208.626	-44.65
209.006	-32.21
209.386	-28.8
209.766	-30.32
210.145	-26.31
210.525	-4.54
210.905	-2.86
211.285	4.89
211.664	6.14
212.044	27.07
212.424	36.33
212.803	42
213.183	57.04
213.562	41.04
213.942	29.73
214.321	34.14
214.701	33.77
215.08	34.88
215.459	46.08
215.838	41.25
216.218	42.48
216.597	52.19
216.976	70.7
217.355	82.95
217.734	84.07
218.113	107.15
218.492	109.15
218.871	105.84
219.25	100.94
219.629	100.89
220.008	84.66
220.387	66.93
220.766	53.57
221.144	48.28
221.523	52.11
221.902	59.17
222.28	55.97
222.659	40.8
223.037	41.43
223.416	30.03
223.794	25.42
224.173	16.65
224.551	10.64
224.929	1.38
225.308	-1.98
225.686	-3.94
226.064	-11.34
226.442	-11.02
226.821	-6.07
227.199	-5.73
227.577	-7.12
227.955	-7.34
228.333	-6.86
228.711	-5.61
229.089	-4.9
229.467	-7.58
229.845	-6.17
230.222	-5.37
230.6	-3.26
230.978	-3.33
231.356	-2.56
231.733	-2.02
232.111	0.8
232.488	0.14
232.866	0.78
233.243	2.17
233.621	2.19
233.998	3.7
234.376	2.11
234.753	4.07
235.13	4.09
235.508	5.96
235.885	6.69
236.262	7.25
236.639	7.92
237.016	7.9
237.393	8.89
237.77	8.91
238.147	9.23
238.524	7.98
238.901	7.87
239.278	8.16
239.655	8.05
240.032	7.4
240.409	7.26
240.785	6.5
241.162	6.11
241.539	5.7
241.915	5.47
242.292	5.8
242.668	5.43
243.045	5.36
243.421	5.26
243.798	5.02
244.174	4.9
244.551	4.58
244.927	4.69
245.303	4.88
245.679	4.68
246.056	4.35
246.432	4.4
246.808	4.38
247.184	4.06
247.56	3.95
247.936	3.92
248.312	3.92
248.688	4.17
249.064	4.3
249.44	4.51
249.815	4.41
250.191	4.29
250.567	4.26
250.943	4.17
251.318	4.19
251.694	4.06
252.069	4
252.445	4.42
252.82	4.32
253.196	4.26
253.571	4.2
253.947	4.31
254.322	4.65
254.697	4.55
255.073	4.51
255.448	4.4
255.823	4.26
256.198	4.38
256.573	4.15
256.948	4.2
257.323	4.15
257.698	4.09
258.073	3.94
258.448	3.86
258.823	3.84
259.198	3.63
259.573	3.67
259.948	3.62
260.322	3.57
260.697	3.59
261.072	3.44
261.446	3.47
261.821	3.48
262.195	3.47
262.57	3.5
262.944	3.46
263.319	3.58
263.693	3.69
264.067	3.56
264.442	3.65
264.816	3.42
265.19	3.42
265.564	3.56
265.938	3.74
266.313	3.81
266.687	4.01
267.061	4.08
267.435	4.08
267.809	4.19
268.183	4.05
268.556	3.8
268.93	3.9
269.304	3.93
269.678	4.09
270.051	3.92
270.425	3.85
270.799	3.89
271.172	3.91
271.546	4
271.919	3.93
272.293	3.97
272.666	4.19
273.04	4.2
273.413	4.15
273.787	4.28
274.16	4.2
274.533	4.05
274.906	4.14
275.279	4.12
275.653	3.99
276.026	3.89
276.399	4.04
276.772	4.11
277.145	4.11
277.518	4.02
277.891	4.09
278.263	4.04
278.636	4.03
279.009	3.96
279.382	3.93
279.755	4.12
280.127	4.3
280.5	4.19
280.872	4.18
281.245	4.21
281.617	4.09
281.99	4.2
282.362	4.26
282.735	4.14
283.107	4.12
283.479	4.21
283.852	4.44
284.224	4.39
284.596	4.25
284.968	4.25
285.34	4.23
285.713	4.23
286.085	4.22
286.457	4.41
286.829	4.41
287.201	4.55
287.572	4.49
287.944	4.28
288.316	4.26
288.688	4.17
289.06	4.17
289.431	4.11
289.803	4
290.175	3.95
290.546	4.12
290.918	4.16
291.289	4.17
291.661	4.17
292.032	4.17
292.403	4.24
292.775	4.26
293.146	4.2
293.517	4.29
293.889	4.33
294.26	4.24
294.631	4.25
295.002	4.11
295.373	4.03
295.744	4.1
296.115	4.05
296.486	3.96
296.857	3.94
297.228	4.1
297.599	4.15
297.97	4.21
298.34	4.05
298.711	4.08
299.082	3.91
299.452	3.88
299.823	4.01
300.194	4.1
300.564	4.08
300.935	4.17
301.305	4.07
301.676	4.14
302.046	4.11
302.416	4.29
302.787	4.27
303.157	4.34
303.527	4.38
303.897	4.49
304.267	4.76
304.637	4.89
305.008	4.88
305.378	4.96
305.748	5.02
306.117	5.19
306.487	5.24
306.857	5.54
307.227	5.62
307.597	5.62
307.967	5.63
308.336	5.6
308.706	5.65
309.076	5.78
309.445	5.88
309.815	5.96
310.184	5.88
310.554	5.87
310.923	5.87
311.293	5.94
311.662	6
312.031	5.97
312.401	5.92
312.77	6.03
313.139	6.09
313.508	6.09
313.877	6.15
314.246	6.21
314.616	6.28
314.985	6.23
315.353	6.28
315.722	6.44
316.091	6.64
316.46	6.59
316.829	6.75
317.198	6.86
317.567	6.91
317.935	6.94
318.304	7.12
318.672	7.27
319.041	7.44
319.41	7.36
319.778	7.37
320.147	7.51
320.515	7.4
320.883	7.5
321.252	7.55
321.62	7.57
321.988	7.5
322.357	7.48
322.725	7.54
323.093	7.62
323.461	7.59
323.829	7.72
324.197	7.84
324.565	7.84
324.933	7.86
325.301	8.01
325.669	8.07
326.037	8.14
326.405	8.12
326.772	8.13
327.14	8.38
327.508	8.44
327.875	8.38
328.243	8.52
328.61	8.43
328.978	8.54
329.346	8.57
329.713	8.75
330.08	8.94
330.448	8.94
330.815	8.98
331.182	9
331.55	8.99
331.917	9.06
332.284	9.08
332.651	9
333.018	8.97
333.385	9.09
333.752	9.15
334.119	9.33
334.486	9.12
334.853	8.93
335.22	9.14
335.587	9.36
335.954	9.37
336.32	9.51
336.687	9.57
337.054	9.73
337.42	9.67
337.787	9.63
338.153	9.8
338.52	9.87
338.886	9.85
339.253	9.73
339.619	9.76
339.986	9.81
340.352	9.99
340.718	9.9
341.084	9.84
341.451	9.92
341.817	9.78
342.183	9.88
342.549	9.99
342.915	9.99
343.281	9.95
343.647	9.98
344.013	9.98
344.379	10
344.745	9.98
345.11	10.01
345.476	9.97
345.842	9.87
346.208	9.88
346.573	9.89
346.939	10.09
347.304	10.05
347.67	9.98
348.035	9.82
348.401	9.98
348.766	10.11
349.132	10.05
349.497	10.15
349.862	10.17
350.228	10.19
350.593	10.13
350.958	10.04
351.323	9.92
351.688	9.86
352.053	9.87
352.418	9.9
352.783	10
353.148	9.98
353.513	9.98
353.878	9.9
354.243	10.01
354.608	9.9
354.972	9.87
355.337	9.91
355.702	10.03
356.066	9.99
356.431	9.97
356.795	9.96
357.16	9.91
357.524	9.93
357.889	9.94
358.253	10.01
358.618	10.04
358.982	10.08
359.346	10.05
359.71	9.97
360.075	9.92
360.439	9.84
360.803	9.83
361.167	9.82
361.531	9.8
361.895	9.65
362.259	9.64
362.623	9.7
362.987	9.66
363.351	9.57
363.714	9.58
364.078	9.46
364.442	9.36
364.806	9.31
365.169	9.27
365.533	9.16
365.896	9.05
366.26	8.97
366.623	8.91
366.987	8.86
367.35	8.81
367.714	8.72
368.077	8.68
368.44	8.64
368.803	8.57
369.167	8.47
369.53	8.47
369.893	8.43
370.256	8.34
370.619	8.25
370.982	8.23
371.345	8.1
371.708	8.08
372.071	8.04
372.434	8
372.797	7.93
373.159	7.85
373.522	7.81
373.885	7.79
374.247	7.77
374.61	7.76
374.973	7.66
375.335	7.55
375.698	7.48
376.06	7.38
376.423	7.39
376.785	7.41
377.147	7.38
377.51	7.29
377.872	7.27
378.234	7.24
378.596	7.17
378.958	7.11
379.321	7.11
379.683	7.1
380.045	7.06
380.407	6.98
380.769	7.02
381.13	6.96
381.492	6.9
381.854	6.85
382.216	6.74
382.578	6.73
382.939	6.7
383.301	6.62
383.663	6.58
384.024	6.5
384.386	6.44
384.747	6.38
385.109	6.39
385.47	6.32
385.832	6.22
386.193	6.16
386.554	6.13
386.916	6.03
387.277	6
387.638	5.95
387.999	5.94
388.36	5.87
388.721	5.81
389.082	5.76
389.443	5.64
389.804	5.64
390.165	5.6
390.526	5.57
390.887	5.52
391.248	5.47
391.609	5.42
391.969	5.41
392.33	5.39
392.691	5.33
393.051	5.25
393.412	5.22
393.772	5.17
394.133	5.12
394.493	5.08
394.854	5.03
395.214	4.94
395.574	4.9
395.935	4.86
396.295	4.83
396.655	4.79
397.015	4.76
397.376	4.7
397.736	4.63
398.096	4.6
398.456	4.57
398.816	4.57
399.176	4.54
399.535	4.48
399.895	4.42
400.255	4.37
400.615	4.36
400.975	4.36
401.334	4.33
401.694	4.31
402.054	4.26
402.413	4.23
402.773	4.24
403.132	4.17
403.492	4.14
403.851	4.11
404.211	4.08
404.57	4.07
404.929	4.08
405.288	4.04
405.648	4.02
406.007	4.03
406.366	3.99
406.725	3.98
407.084	3.97
407.443	3.96
407.802	3.97
408.161	3.96
408.52	3.93
408.879	3.93
409.238	3.93
409.596	3.93
409.955	3.94
410.314	3.91
410.673	3.92
411.031	3.92
411.39	3.88
411.748	3.88
412.107	3.88
412.465	3.81
412.824	3.81
413.182	3.77
413.54	3.75
413.899	3.76
414.257	3.72
414.615	3.68
414.974	3.66
415.332	3.63
415.69	3.61
416.048	3.57
416.406	3.54
416.764	3.5
417.122	3.5
417.48	3.45
417.838	3.46
418.195	3.44
418.553	3.44
418.911	3.41
419.269	3.39
419.626	3.37
419.984	3.35
420.342	3.33
420.699	3.33
421.057	3.31
421.414	3.27
421.772	3.26
422.129	3.25
422.486	3.24
422.844	3.22
423.201	3.21
423.558	3.22
423.915	3.21
424.273	3.19
424.63	3.17
424.987	3.16
425.344	3.13
425.701	3.12
426.058	3.09
426.415	3.1
426.772	3.09
427.128	3.08
427.485	3.08
427.842	3.07
428.199	3.06
428.555	3.06
428.912	3.06
429.269	3.04
429.625	3.02
429.982	3.01
430.338	3
430.695	3.01
431.051	2.99
431.407	2.98
431.764	3
432.12	2.98
432.476	3
432.832	2.99
433.189	3
433.545	2.99
433.901	2.98
434.257	2.97
434.613	2.99
434.969	2.99
435.325	3.01
435.681	3
436.036	2.99
436.392	2.99
436.748	3
437.104	3
437.459	2.99
437.815	3
438.171	2.97
438.526	2.97
438.882	2.99
439.237	3
439.593	3.01
439.948	3.01
440.304	3.01
440.659	3
441.014	3.02
441.369	3.01
441.725	3.01
442.08	3
442.435	2.98
442.79	2.97
443.145	2.97
443.5	2.96
443.855	2.96
444.21	2.97
444.565	2.97
444.92	2.97
445.275	2.94
445.629	2.94
445.984	2.94
446.339	2.91
446.693	2.87
447.048	2.85
447.403	2.84
447.757	2.83
448.112	2.82
448.466	2.78
448.82	2.79
449.175	2.79
449.529	2.78
449.883	2.77
450.238	2.75
450.592	2.75
450.946	2.76
451.3	2.75
451.654	2.73
452.008	2.71
452.362	2.7
452.716	2.73
453.07	2.74
453.424	2.72
453.778	2.72
454.132	2.74
454.486	2.76
454.839	2.75
455.193	2.75
455.547	2.77
455.9	2.8
456.254	2.78
456.607	2.78
456.961	2.78
457.314	2.79
457.668	2.81
458.021	2.79
458.375	2.78
458.728	2.78
459.081	2.77
459.434	2.76
459.787	2.77
460.141	2.77
460.494	2.77
460.847	2.78
461.2	2.78
461.553	2.78
461.906	2.79
462.259	2.8
462.611	2.82
462.964	2.82
463.317	2.82
463.67	2.83
464.022	2.83
464.375	2.84
464.728	2.86
465.08	2.84
465.433	2.86
465.785	2.85
466.138	2.86
466.49	2.88
466.843	2.91
467.195	2.9
467.547	2.92
467.899	2.93
468.252	2.94
468.604	2.97
468.956	2.95
469.308	2.94
469.66	2.93
470.012	2.95
470.364	2.95
470.716	2.94
471.068	2.95
471.42	2.98
471.772	2.98
472.123	2.98
472.475	2.99
472.827	3.01
473.178	3.03
473.53	3.03
473.882	3.03
474.233	3.02
474.585	3
474.936	2.97
475.288	2.96
475.639	2.94
475.99	2.94
476.342	2.95
476.693	2.94
477.044	2.96
477.395	2.93
477.746	2.93
478.097	2.93
478.448	2.92
478.8	2.93
479.15	2.91
479.501	2.92
479.852	2.92
480.203	2.91
480.554	2.92
480.905	2.92
481.255	2.91
481.606	2.91
481.957	2.92
482.307	2.93
482.658	2.92
483.009	2.92
483.359	2.92
483.709	2.92
484.06	2.93
484.41	2.92
484.761	2.92
485.111	2.92
485.461	2.93
485.811	2.92
486.162	2.91
486.512	2.92
486.862	2.91
487.212	2.92
487.562	2.92
487.912	2.92
488.262	2.92
488.612	2.91
488.961	2.92
489.311	2.92
489.661	2.92
490.011	2.93
490.36	2.94
490.71	2.93
491.06	2.94
491.409	2.95
491.759	2.96
492.108	2.97
492.458	2.97
492.807	2.98
493.157	3
493.506	3.03
493.855	3.04
494.204	3.05
494.554	3.06
494.903	3.05
495.252	3.06
495.601	3.09
495.95	3.13
496.299	3.15
496.648	3.17
496.997	3.19
497.346	3.23
497.695	3.26
498.043	3.28
498.392	3.31
498.741	3.33
499.09	3.34
499.438	3.38
499.787	3.42
500.135	3.43
500.484	3.45
500.832	3.47
501.181	3.5
501.529	3.52
501.878	3.58
502.226	3.66
502.574	3.7
502.923	3.73
503.271	3.78
503.619	3.84
503.967	3.88
504.315	3.9
504.663	3.95
505.011	4
505.359	4.03
505.707	4.07
506.055	4.11
506.403	4.17
506.751	4.22
507.098	4.27
507.446	4.32
507.794	4.38
508.141	4.43
508.489	4.49
508.837	4.54
509.184	4.59
509.531	4.62
509.879	4.7
510.226	4.77
510.574	4.81
510.921	4.85
511.268	4.92
511.616	5
511.963	5.06
512.31	5.13
512.657	5.23
513.004	5.31
513.351	5.38
513.698	5.47
514.045	5.55
514.392	5.62
514.739	5.72
515.086	5.82
515.432	5.9
515.779	5.98
516.126	6.08
516.473	6.15
516.819	6.23
517.166	6.3
517.512	6.37
517.859	6.44
518.205	6.53
518.552	6.62
518.898	6.69
519.245	6.77
519.591	6.84
519.937	6.91
520.283	6.98
520.629	7.08
520.976	7.17
521.322	7.28
521.668	7.4
522.014	7.52
522.36	7.62
522.706	7.76
523.052	7.9
523.398	8.06
523.743	8.23
524.089	8.4
524.435	8.57
524.781	8.74
525.126	8.89
525.472	9.02
525.817	9.15
526.163	9.28
526.509	9.4
526.854	9.51
527.199	9.63
527.545	9.75
527.89	9.86
528.235	9.98
528.581	10.1
528.926	10.23
529.271	10.36
529.616	10.49
529.961	10.62
530.306	10.75
530.651	10.89
530.996	11.04
531.341	11.2
531.686	11.36
532.031	11.52
532.376	11.7
532.721	11.91
533.065	12.1
533.41	12.31
533.755	12.51
534.099	12.73
534.444	12.93
534.788	13.16
535.133	13.39
535.477	13.63
535.822	13.85
536.166	14.1
536.51	14.37
536.855	14.68
537.199	15
537.543	15.32
537.887	15.65
538.231	15.96
538.576	16.31
538.92	16.61
539.264	16.92
539.608	17.21
539.951	17.48
540.295	17.74
540.639	18
540.983	18.25
541.327	18.52
541.671	18.79
542.014	19.05
542.358	19.3
542.701	19.53
543.045	19.79
543.389	20.05
543.732	20.31
544.075	20.56
544.419	20.83
544.762	21.11
545.105	21.41
545.449	21.71
545.792	21.97
546.135	22.31
546.478	22.69
546.821	23.03
547.165	23.43
547.508	23.8
547.851	24.15
548.194	24.54
548.536	24.96
548.879	25.36
549.222	25.76
549.565	26.13
549.908	26.54
550.25	27
550.593	27.38
550.936	27.81
551.278	28.22
551.621	28.64
551.963	29.04
552.306	29.44
552.648	29.89
552.991	30.32
553.333	30.68
553.675	31.02
554.017	31.42
554.36	31.79
554.702	32.16
555.044	32.59
555.386	32.95
555.728	33.25
556.07	33.6
556.412	33.92
556.754	34.31
557.096	34.71
557.438	35.06
557.78	35.42
558.121	35.77
558.463	36.1
558.805	36.47
559.147	36.84
559.488	37.19
559.83	37.51
560.171	37.86
560.513	38.28
560.854	38.61
561.196	38.92
561.537	39.17
561.878	39.5
562.22	39.8
562.561	40.14
562.902	40.43
563.243	40.72
563.584	41.11
563.925	41.4
564.266	41.64
564.607	41.92
564.948	42.2
565.289	42.5
565.63	42.8
565.971	43.02
566.312	43.31
566.653	43.53
566.993	43.77
567.334	44.05
567.675	44.21
568.015	44.48
568.356	44.74
568.696	44.97
569.037	45.2
569.377	45.47
569.718	45.68
570.058	45.93
570.398	46.18
570.739	46.36
571.079	46.57
571.419	46.75
571.759	46.9
572.099	47.09
572.439	47.26
572.779	47.39
573.119	47.64
573.459	47.84
573.799	48.02
574.139	48.2
574.479	48.36
574.819	48.59
575.158	48.71
575.498	48.89
575.838	49.14
576.177	49.34
576.517	49.46
576.856	49.66
577.196	49.87
577.535	50.05
577.875	50.29
578.214	50.47
578.553	50.69
578.893	50.96
579.232	51.16
579.571	51.38
579.91	51.66
580.25	51.84
580.589	51.95
580.928	52.16
581.267	52.32
581.606	52.47
581.945	52.63
582.283	52.81
582.622	53.05
582.961	53.16
583.3	53.33
583.639	53.53
583.977	53.66
584.316	53.79
584.654	53.99
584.993	54.09
585.332	54.29
585.67	54.45
586.008	54.53
586.347	54.7
586.685	54.76
587.024	54.86
587.362	54.9
587.7	55.08
588.038	55.23
588.376	55.43
588.715	55.54
589.053	55.67
589.391	55.8
589.729	55.81
590.067	55.92
590.404	55.96
590.742	56.04
591.08	56.1
591.418	56.13
591.756	56.11
592.093	56.23
592.431	56.27
592.769	56.28
593.106	56.38
593.444	56.33
593.781	56.47
594.119	56.57
594.456	56.62
594.793	56.6
595.131	56.65
595.468	56.55
595.805	56.63
596.143	56.65
596.48	56.73
596.817	56.85
597.154	56.9
597.491	57.02
597.828	57.11
598.165	57.23
598.502	57.33
598.839	57.43
599.176	57.52
599.512	57.6
599.849	57.65
600.186	57.69
600.523	57.85
600.859	57.85
601.196	57.83
601.532	57.95
601.869	58
602.205	58.04
602.542	58.15
602.878	58.16
603.215	58.22
603.551	58.3
603.887	58.27
604.223	58.34
604.56	58.43
604.896	58.46
605.232	58.56
605.568	58.59
605.904	58.6
606.24	58.6
606.576	58.69
606.912	58.82
607.248	58.92
607.583	58.96
607.919	59.01
608.255	59.09
608.591	59.2
608.926	59.37
609.262	59.4
609.597	59.48
609.933	59.51
610.268	59.65
610.604	59.69
610.939	59.83
611.275	59.93
611.61	59.9
611.945	59.94
612.281	59.98
612.616	60.01
612.951	60.17
613.286	60.22
613.621	60.28
613.956	60.4
614.291	60.51
614.626	60.63
614.961	60.72
615.296	60.88
615.631	60.91
615.966	60.84
616.3	60.92
616.635	61.06
616.97	61.27
617.304	61.24
617.639	61.33
617.973	61.35
618.308	61.28
618.642	61.37
618.977	61.51
619.311	61.59
619.646	61.65
619.98	61.78
620.314	61.8
620.648	61.83
620.983	61.82
621.317	61.81
621.651	61.86
621.985	61.89
622.319	61.82
622.653	61.78
622.987	61.93
623.321	62.05
623.655	62.04
623.988	61.91
624.322	61.84
624.656	61.8
624.99	61.83
625.323	61.8
625.657	61.79
625.99	61.73
626.324	61.7
626.657	61.76
626.991	61.67
627.324	61.75
627.658	61.77
627.991	61.87
628.324	61.85
628.657	61.81
628.991	61.87
629.324	61.97
629.657	62.06
629.99	62.08
630.323	62.01
630.656	61.99
630.989	62.15
631.322	62.32
631.655	62.39
631.987	62.37
632.32	62.55
632.653	62.63
632.986	62.7
633.318	62.68
633.651	62.79
633.984	62.81
634.316	62.84
634.649	62.89
634.981	62.73
635.313	62.74
635.646	62.8
635.978	62.87
636.31	62.88
636.643	62.89
636.975	62.89
637.307	63.04
637.639	63.14
637.971	63.06
638.303	63.05
638.635	63.03
638.967	63.1
639.299	63.07
639.631	63.08
639.963	63.04
640.295	63.12
640.626	63.15
640.958	63.19
641.29	63.22
641.621	63.18
641.953	63.33
642.285	63.36
642.616	63.49
642.948	63.55
643.279	63.57
643.61	63.51
643.942	63.48
644.273	63.44
644.604	63.35
644.936	63.36
645.267	63.36
645.598	63.38
645.929	63.47
646.26	63.51
646.591	63.45
646.922	63.58
647.253	63.67
647.584	63.5
647.915	63.4
648.245	63.31
648.576	63.3
648.907	63.29
649.238	63.24
649.568	63.05
649.899	63.04
650.229	63.02
650.56	63.1
650.89	63.2
651.221	63.29
651.551	63.43
651.882	63.45
652.212	63.5
652.542	63.51
652.872	63.4
653.203	63.35
653.533	63.35
653.863	63.24
654.193	63.12
654.523	63.13
654.853	63.21
655.183	63.23
655.513	63.27
655.843	63.28
656.172	63.46
656.502	63.55
656.832	63.5
657.162	63.48
657.491	63.35
657.821	63.37
658.15	63.26
658.48	63.24
658.809	63.1
659.139	63.09
659.468	63.16
659.798	63.28
660.127	63.28
660.456	63.29
660.785	63.35
661.115	63.41
661.444	63.4
661.773	63.39
662.102	63.45
662.431	63.44
662.76	63.49
663.089	63.35
663.418	63.27
663.747	63.25
664.076	63.25
664.404	63.33
664.733	63.35
665.062	63.39
665.39	63.29
665.719	63.45
666.048	63.46
666.376	63.37
666.705	63.16
667.033	63.09
667.362	63.15
667.69	63.14
668.018	63.11
668.347	63.21
668.675	63.23
669.003	63.17
669.331	63.25
669.659	63.17
669.987	63.11
670.315	63.14
670.643	63.22
