Data from BA57758_Reflection_00015.txt Node
Date: Mon Nov 18 15:12:05 EST 2019
User: vgr7
Spectrometer: USB2G7710
Scans to average: 3
Trigger mode: 4
Integration Time (sec): 2.000000E-2
Electric dark correction enabled: true
Boxcar width: 10
XAxis mode: Wavelengths
Number of Pixels in Spectrum: 2048
>>>>>Begin Spectral Data<<<<<
177.721	47.37
178.105	14.8
178.488	0.83
178.871	93.65
179.254	144.85
179.636	91.53
180.019	169.31
180.402	-420
180.785	-96.75
181.168	-31.79
181.55	-74
181.933	44.49
182.316	53.05
182.698	88.17
183.081	8.79
183.463	201.74
183.846	322.48
184.228	93.06
184.611	92.18
184.993	123.49
185.376	92.33
185.758	93.52
186.14	82.13
186.522	74.87
186.904	71.9
187.287	66.98
187.669	21.82
188.051	46.44
188.433	94.95
188.815	144.58
189.197	253.58
189.579	350.35
189.961	255.6
190.342	923.32
190.724	1062.09
191.106	1486.74
191.488	1976.71
191.869	-440.07
192.251	-202.33
192.633	-269.06
193.014	-344.59
193.396	-376.25
193.777	-507.99
194.159	-576.52
194.54	-292.25
194.922	-225.06
195.303	-183.52
195.684	-138.14
196.065	-69.8
196.447	-54.93
196.828	-65.33
197.209	-49.65
197.59	-32.53
197.971	-36.2
198.352	-34.2
198.733	-43.12
199.114	-29.01
199.495	-46.35
199.876	-60.54
200.257	-50.11
200.638	-29.45
201.018	-22.65
201.399	-26.41
201.78	-13.91
202.16	-0.53
202.541	-12.52
202.922	-48.87
203.302	-67.41
203.683	-114.32
204.063	-218.51
204.444	-216.76
204.824	-174.23
205.204	-333.07
205.585	-280.34
205.965	-347.48
206.345	-252.67
206.725	-430.43
207.106	-884.58
207.486	-652.24
207.866	-596.46
208.246	-1203.5
208.626	-1442.99
209.006	-378.62
209.386	11580
209.766	-771.52
210.145	-621.17
210.525	-956.78
210.905	-154.22
211.285	-104.38
211.664	-60.78
212.044	-57.48
212.424	-41.4
212.803	-32.24
213.183	-34.75
213.562	-23.72
213.942	-19.87
214.321	-13.16
214.701	-15.72
215.08	-1.65
215.459	7.28
215.838	11.66
216.218	8.51
216.597	10.13
216.976	2.94
217.355	8.5
217.734	16.55
218.113	27.28
218.492	21.93
218.871	16.65
219.25	20.42
219.629	25.81
220.008	31.85
220.387	39.72
220.766	32.04
221.144	41.38
221.523	22.43
221.902	20.28
222.28	15.52
222.659	12.2
223.037	11.44
223.416	4.52
223.794	11.77
224.173	12.47
224.551	27.41
224.929	18.89
225.308	18
225.686	18.35
226.064	11.31
226.442	11.49
226.821	14.66
227.199	11.3
227.577	5.93
227.955	3.68
228.333	1.65
228.711	2.84
229.089	5.95
229.467	3.61
229.845	1.96
230.222	1.75
230.6	3.19
230.978	1.75
231.356	4.08
231.733	4.03
232.111	3.39
232.488	3.22
232.866	4.49
233.243	3.9
233.621	3.76
233.998	4.33
234.376	3.64
234.753	4.4
235.13	5.73
235.508	8.11
235.885	8.93
236.262	8.75
236.639	8.02
237.016	6.54
237.393	9.36
237.77	8.76
238.147	7.69
238.524	7.6
238.901	8.72
239.278	7.4
239.655	7.42
240.032	7.61
240.409	6.58
240.785	6.17
241.162	6.38
241.539	5.6
241.915	5.57
242.292	5.15
242.668	4.96
243.045	4.76
243.421	4.51
243.798	4.36
244.174	4.06
244.551	4.01
244.927	3.82
245.303	3.71
245.679	3.61
246.056	3.59
246.432	3.39
246.808	3.16
247.184	2.91
247.56	2.79
247.936	2.8
248.312	2.96
248.688	3.02
249.064	3.04
249.44	3.29
249.815	3.3
250.191	3.58
250.567	3.51
250.943	3.56
251.318	3.72
251.694	3.68
252.069	3.91
252.445	4.31
252.82	4.33
253.196	4.18
253.571	4.54
253.947	4.58
254.322	5.03
254.697	4.89
255.073	5.22
255.448	4.99
255.823	4.85
256.198	4.64
256.573	4.64
256.948	4.53
257.323	4.43
257.698	4.41
258.073	4.14
258.448	3.99
258.823	4.02
259.198	3.68
259.573	3.59
259.948	3.56
260.322	3.41
260.697	3.47
261.072	3.32
261.446	3.33
261.821	3.37
262.195	3.19
262.57	3.23
262.944	3.15
263.319	3.18
263.693	3.1
264.067	3.09
264.442	2.92
264.816	2.88
265.19	2.76
265.564	2.78
265.938	2.85
266.313	2.98
266.687	2.78
267.061	3.01
267.435	3.09
267.809	3.14
268.183	3.13
268.556	3.19
268.93	3.34
269.304	3.4
269.678	3.58
270.051	3.5
270.425	3.44
270.799	3.35
271.172	3.48
271.546	3.57
271.919	3.58
272.293	3.58
272.666	3.51
273.04	3.67
273.413	3.64
273.787	3.72
274.16	3.54
274.533	3.61
274.906	3.54
275.279	3.5
275.653	3.38
276.026	3.41
276.399	3.4
276.772	3.38
277.145	3.24
277.518	3.09
277.891	3.14
278.263	3.24
278.636	3.41
279.009	3.17
279.382	3.12
279.755	3.12
280.127	3.27
280.5	3.52
280.872	3.37
281.245	3.21
281.617	3.16
281.99	3.38
282.362	3.41
282.735	3.33
283.107	3.32
283.479	3.33
283.852	3.32
284.224	3.28
284.596	3.3
284.968	3.35
285.34	3.53
285.713	3.59
286.085	3.62
286.457	3.73
286.829	3.89
287.201	3.93
287.572	3.75
287.944	3.75
288.316	3.62
288.688	3.59
289.06	3.6
289.431	3.5
289.803	3.5
290.175	3.49
290.546	3.63
290.918	3.58
291.289	3.65
291.661	3.59
292.032	3.7
292.403	3.73
292.775	3.74
293.146	3.67
293.517	3.54
293.889	3.57
294.26	3.56
294.631	3.51
295.002	3.38
295.373	3.45
295.744	3.51
296.115	3.47
296.486	3.53
296.857	3.53
297.228	3.61
297.599	3.57
297.97	3.59
298.34	3.7
298.711	3.93
299.082	3.91
299.452	3.93
299.823	3.96
300.194	3.99
300.564	4.01
300.935	4.04
301.305	4.17
301.676	4.15
302.046	4.11
302.416	4.28
302.787	4.43
303.157	4.58
303.527	4.49
303.897	4.64
304.267	4.84
304.637	4.98
305.008	5.07
305.378	5.03
305.748	5.12
306.117	5
306.487	4.92
306.857	4.97
307.227	5.12
307.597	5.17
307.967	5.21
308.336	5.21
308.706	5.08
309.076	5.07
309.445	5.15
309.815	5.06
310.184	4.99
310.554	5.05
310.923	5.02
311.293	5.09
311.662	5.05
312.031	4.92
312.401	4.9
312.77	4.86
313.139	5.07
313.508	5.11
313.877	5.2
314.246	5.28
314.616	5.42
314.985	5.39
315.353	5.37
315.722	5.43
316.091	5.51
316.46	5.55
316.829	5.57
317.198	5.51
317.567	5.58
317.935	5.48
318.304	5.54
318.672	5.58
319.041	5.8
319.41	5.89
319.778	5.85
320.147	5.91
320.515	5.99
320.883	5.92
321.252	5.89
321.62	5.93
321.988	5.8
322.357	5.73
322.725	5.79
323.093	5.83
323.461	5.84
323.829	5.82
324.197	6.05
324.565	6.12
324.933	6.06
325.301	6.19
325.669	6.25
326.037	6.3
326.405	6.43
326.772	6.34
327.14	6.31
327.508	6.56
327.875	6.56
328.243	6.66
328.61	6.65
328.978	6.62
329.346	6.73
329.713	6.71
330.08	6.7
330.448	6.7
330.815	6.69
331.182	6.75
331.55	6.83
331.917	6.81
332.284	6.86
332.651	7.02
333.018	7.07
333.385	7.18
333.752	7.21
334.119	7.12
334.486	7.05
334.853	7.19
335.22	7.04
335.587	7.1
335.954	7.02
336.32	7.07
336.687	7.23
337.054	7.15
337.42	7.29
337.787	7.39
338.153	7.41
338.52	7.46
338.886	7.37
339.253	7.25
339.619	7.27
339.986	7.3
340.352	7.3
340.718	7.16
341.084	7.21
341.451	7.16
341.817	7.23
342.183	7.29
342.549	7.25
342.915	7.34
343.281	7.3
343.647	7.3
344.013	7.31
344.379	7.2
344.745	7.16
345.11	7.22
345.476	7.18
345.842	7.17
346.208	7.11
346.573	7.17
346.939	7.26
347.304	7.26
347.67	7.23
348.035	7.19
348.401	7.29
348.766	7.22
349.132	7.27
349.497	7.22
349.862	7.37
350.228	7.29
350.593	7.2
350.958	7.32
351.323	7.36
351.688	7.4
352.053	7.4
352.418	7.48
352.783	7.46
353.148	7.41
353.513	7.43
353.878	7.44
354.243	7.43
354.608	7.42
354.972	7.39
355.337	7.36
355.702	7.46
356.066	7.48
356.431	7.42
356.795	7.38
357.16	7.41
357.524	7.25
357.889	7.25
358.253	7.28
358.618	7.21
358.982	7.18
359.346	7.12
359.71	7.05
360.075	6.96
360.439	6.94
360.803	6.96
361.167	6.9
361.531	6.81
361.895	6.8
362.259	6.83
362.623	6.84
362.987	6.81
363.351	6.74
363.714	6.71
364.078	6.71
364.442	6.62
364.806	6.58
365.169	6.56
365.533	6.56
365.896	6.54
366.26	6.46
366.623	6.45
366.987	6.43
367.35	6.5
367.714	6.45
368.077	6.36
368.44	6.38
368.803	6.33
369.167	6.29
369.53	6.2
369.893	6.14
370.256	6.01
370.619	5.95
370.982	5.93
371.345	5.8
371.708	5.76
372.071	5.72
372.434	5.66
372.797	5.64
373.159	5.61
373.522	5.58
373.885	5.58
374.247	5.51
374.61	5.49
374.973	5.34
375.335	5.34
375.698	5.27
376.06	5.13
376.423	5.08
376.785	5.07
377.147	5.06
377.51	4.98
377.872	5.02
378.234	5.01
378.596	4.99
378.958	4.99
379.321	4.94
379.683	4.91
380.045	4.86
380.407	4.84
380.769	4.71
381.13	4.64
381.492	4.61
381.854	4.63
382.216	4.53
382.578	4.5
382.939	4.44
383.301	4.47
383.663	4.47
384.024	4.46
384.386	4.48
384.747	4.43
385.109	4.38
385.47	4.31
385.832	4.28
386.193	4.27
386.554	4.2
386.916	4.21
387.277	4.19
387.638	4.17
387.999	4.14
388.36	4.18
388.721	4.17
389.082	4.13
389.443	4.03
389.804	3.99
390.165	3.98
390.526	3.97
390.887	3.88
391.248	3.84
391.609	3.83
391.969	3.79
392.33	3.73
392.691	3.72
393.051	3.7
393.412	3.66
393.772	3.57
394.133	3.58
394.493	3.55
394.854	3.53
395.214	3.46
395.574	3.39
395.935	3.35
396.295	3.34
396.655	3.3
397.015	3.29
397.376	3.27
397.736	3.25
398.096	3.19
398.456	3.17
398.816	3.18
399.176	3.11
399.535	3.08
399.895	3.09
400.255	3.08
400.615	3.07
400.975	3.06
401.334	3.05
401.694	3
402.054	2.94
402.413	2.95
402.773	2.98
403.132	3
403.492	2.98
403.851	2.97
404.211	2.98
404.57	2.98
404.929	2.98
405.288	2.96
405.648	2.97
406.007	2.99
406.366	2.97
406.725	2.99
407.084	2.97
407.443	2.97
407.802	2.95
408.161	2.94
408.52	2.92
408.879	2.92
409.238	2.94
409.596	2.97
409.955	2.92
410.314	2.92
410.673	2.9
411.031	2.9
411.39	2.84
411.748	2.82
412.107	2.82
412.465	2.78
412.824	2.78
413.182	2.76
413.54	2.76
413.899	2.78
414.257	2.77
414.615	2.77
414.974	2.75
415.332	2.75
415.69	2.74
416.048	2.74
416.406	2.73
416.764	2.69
417.122	2.68
417.48	2.67
417.838	2.66
418.195	2.66
418.553	2.64
418.911	2.63
419.269	2.62
419.626	2.6
419.984	2.6
420.342	2.61
420.699	2.58
421.057	2.58
421.414	2.54
421.772	2.52
422.129	2.52
422.486	2.51
422.844	2.5
423.201	2.49
423.558	2.47
423.915	2.46
424.273	2.47
424.63	2.45
424.987	2.46
425.344	2.44
425.701	2.44
426.058	2.44
426.415	2.45
426.772	2.45
427.128	2.45
427.485	2.44
427.842	2.42
428.199	2.45
428.555	2.42
428.912	2.44
429.269	2.45
429.625	2.42
429.982	2.43
430.338	2.45
430.695	2.46
431.051	2.45
431.407	2.44
431.764	2.45
432.12	2.45
432.476	2.43
432.832	2.43
433.189	2.43
433.545	2.41
433.901	2.42
434.257	2.41
434.613	2.43
434.969	2.44
435.325	2.43
435.681	2.44
436.036	2.44
436.392	2.45
436.748	2.46
437.104	2.47
437.459	2.46
437.815	2.46
438.171	2.45
438.526	2.46
438.882	2.47
439.237	2.46
439.593	2.46
439.948	2.45
440.304	2.46
440.659	2.45
441.014	2.44
441.369	2.42
441.725	2.41
442.08	2.41
442.435	2.4
442.79	2.4
443.145	2.38
443.5	2.37
443.855	2.34
444.21	2.32
444.565	2.31
444.92	2.32
445.275	2.3
445.629	2.29
445.984	2.3
446.339	2.29
446.693	2.27
447.048	2.26
447.403	2.26
447.757	2.25
448.112	2.24
448.466	2.24
448.82	2.26
449.175	2.26
449.529	2.26
449.883	2.25
450.238	2.24
450.592	2.25
450.946	2.23
451.3	2.25
451.654	2.26
452.008	2.26
452.362	2.24
452.716	2.24
453.07	2.23
453.424	2.23
453.778	2.21
454.132	2.21
454.486	2.22
454.839	2.21
455.193	2.23
455.547	2.23
455.9	2.23
456.254	2.23
456.607	2.23
456.961	2.22
457.314	2.23
457.668	2.23
458.021	2.22
458.375	2.24
458.728	2.22
459.081	2.22
459.434	2.21
459.787	2.21
460.141	2.21
460.494	2.23
460.847	2.23
461.2	2.23
461.553	2.25
461.906	2.26
462.259	2.27
462.611	2.27
462.964	2.27
463.317	2.29
463.67	2.28
464.022	2.28
464.375	2.27
464.728	2.27
465.08	2.28
465.433	2.31
465.785	2.32
466.138	2.34
466.49	2.36
466.843	2.38
467.195	2.38
467.547	2.4
467.899	2.39
468.252	2.38
468.604	2.41
468.956	2.42
469.308	2.41
469.66	2.42
470.012	2.42
470.364	2.43
470.716	2.44
471.068	2.45
471.42	2.45
471.772	2.48
472.123	2.49
472.475	2.51
472.827	2.5
473.178	2.48
473.53	2.49
473.882	2.47
474.233	2.48
474.585	2.48
474.936	2.45
475.288	2.45
475.639	2.46
475.99	2.43
476.342	2.42
476.693	2.42
477.044	2.41
477.395	2.41
477.746	2.4
478.097	2.37
478.448	2.36
478.8	2.35
479.15	2.35
479.501	2.34
479.852	2.32
480.203	2.31
480.554	2.33
480.905	2.32
481.255	2.32
481.606	2.32
481.957	2.33
482.307	2.34
482.658	2.34
483.009	2.33
483.359	2.33
483.709	2.34
484.06	2.34
484.41	2.35
484.761	2.35
485.111	2.35
485.461	2.36
485.811	2.37
486.162	2.37
486.512	2.38
486.862	2.39
487.212	2.38
487.562	2.39
487.912	2.4
488.262	2.4
488.612	2.4
488.961	2.4
489.311	2.4
489.661	2.41
490.011	2.41
490.36	2.42
490.71	2.43
491.06	2.43
491.409	2.43
491.759	2.42
492.108	2.42
492.458	2.42
492.807	2.43
493.157	2.44
493.506	2.44
493.855	2.43
494.204	2.45
494.554	2.48
494.903	2.48
495.252	2.49
495.601	2.5
495.95	2.53
496.299	2.54
496.648	2.56
496.997	2.59
497.346	2.62
497.695	2.65
498.043	2.67
498.392	2.69
498.741	2.72
499.09	2.75
499.438	2.8
499.787	2.83
500.135	2.85
500.484	2.88
500.832	2.91
501.181	2.95
501.529	2.97
501.878	2.99
502.226	3.04
502.574	3.07
502.923	3.1
503.271	3.13
503.619	3.17
503.967	3.21
504.315	3.25
504.663	3.29
505.011	3.33
505.359	3.39
505.707	3.47
506.055	3.5
506.403	3.57
506.751	3.61
507.098	3.66
507.446	3.72
507.794	3.76
508.141	3.84
508.489	3.89
508.837	3.94
509.184	4
509.531	4.06
509.879	4.13
510.226	4.18
510.574	4.25
510.921	4.32
511.268	4.39
511.616	4.46
511.963	4.54
512.31	4.61
512.657	4.68
513.004	4.74
513.351	4.86
513.698	4.95
514.045	5.05
514.392	5.18
514.739	5.26
515.086	5.38
515.432	5.46
515.779	5.57
516.126	5.68
516.473	5.81
516.819	5.92
517.166	6.01
517.512	6.13
517.859	6.23
518.205	6.32
518.552	6.41
518.898	6.51
519.245	6.59
519.591	6.69
519.937	6.79
520.283	6.92
520.629	7.03
520.976	7.15
521.322	7.28
521.668	7.39
522.014	7.56
522.36	7.73
522.706	7.87
523.052	8.05
523.398	8.25
523.743	8.43
524.089	8.61
524.435	8.82
524.781	9.01
525.126	9.19
525.472	9.37
525.817	9.53
526.163	9.67
526.509	9.83
526.854	9.96
527.199	10.1
527.545	10.21
527.89	10.35
528.235	10.46
528.581	10.58
528.926	10.72
529.271	10.86
529.616	10.99
529.961	11.12
530.306	11.27
530.651	11.42
530.996	11.58
531.341	11.74
531.686	11.92
532.031	12.1
532.376	12.28
532.721	12.48
533.065	12.66
533.41	12.87
533.755	13.06
534.099	13.29
534.444	13.52
534.788	13.74
535.133	13.95
535.477	14.21
535.822	14.45
536.166	14.68
536.51	14.94
536.855	15.2
537.199	15.52
537.543	15.84
537.887	16.15
538.231	16.47
538.576	16.78
538.92	17.09
539.264	17.39
539.608	17.66
539.951	17.93
540.295	18.2
540.639	18.46
540.983	18.72
541.327	18.96
541.671	19.17
542.014	19.4
542.358	19.6
542.701	19.84
543.045	20.07
543.389	20.3
543.732	20.55
544.075	20.82
544.419	21.07
544.762	21.32
545.105	21.56
545.449	21.81
545.792	22.1
546.135	22.4
546.478	22.7
546.821	23.04
547.165	23.36
547.508	23.68
547.851	23.99
548.194	24.29
548.536	24.64
548.879	24.99
549.222	25.34
549.565	25.73
549.908	26.02
550.25	26.37
550.593	26.73
550.936	27.03
551.278	27.35
551.621	27.7
551.963	28.03
552.306	28.38
552.648	28.67
552.991	29.04
553.333	29.3
553.675	29.58
554.017	29.89
554.36	30.12
554.702	30.41
555.044	30.7
555.386	31.01
555.728	31.28
556.07	31.56
556.412	31.84
556.754	32.14
557.096	32.42
557.438	32.73
557.78	33.04
558.121	33.35
558.463	33.63
558.805	33.89
559.147	34.2
559.488	34.48
559.83	34.79
560.171	35.02
560.513	35.32
560.854	35.6
561.196	35.86
561.537	36.14
561.878	36.35
562.22	36.58
562.561	36.82
562.902	37.05
563.243	37.29
563.584	37.56
563.925	37.71
564.266	38.04
564.607	38.23
564.948	38.43
565.289	38.66
565.63	38.87
565.971	39.08
566.312	39.2
566.653	39.37
566.993	39.56
567.334	39.74
567.675	39.92
568.015	40.1
568.356	40.32
568.696	40.52
569.037	40.69
569.377	40.84
569.718	40.99
570.058	41.16
570.398	41.38
570.739	41.52
571.079	41.74
571.419	41.8
571.759	42.01
572.099	42.12
572.439	42.24
572.779	42.35
573.119	42.46
573.459	42.63
573.799	42.78
574.139	42.93
574.479	43.01
574.819	43.1
575.158	43.23
575.498	43.34
575.838	43.48
576.177	43.69
576.517	43.85
576.856	44.01
577.196	44.17
577.535	44.24
577.875	44.34
578.214	44.49
578.553	44.7
578.893	44.79
579.232	44.99
579.571	45.14
579.91	45.28
580.25	45.42
580.589	45.53
580.928	45.66
581.267	45.84
581.606	46.03
581.945	46.18
582.283	46.34
582.622	46.4
582.961	46.46
583.3	46.56
583.639	46.67
583.977	46.77
584.316	46.87
584.654	46.98
584.993	47.13
585.332	47.18
585.67	47.22
586.008	47.29
586.347	47.31
586.685	47.41
587.024	47.55
587.362	47.67
587.7	47.72
588.038	47.76
588.376	47.81
588.715	47.83
589.053	47.91
589.391	47.97
589.729	48.04
590.067	48.17
590.404	48.18
590.742	48.25
591.08	48.27
591.418	48.32
591.756	48.49
592.093	48.51
592.431	48.62
592.769	48.81
593.106	48.83
593.444	48.91
593.781	48.96
594.119	48.92
594.456	48.99
594.793	49.08
595.131	49.12
595.468	49.07
595.805	49.16
596.143	49.19
596.48	49.21
596.817	49.23
597.154	49.26
597.491	49.39
597.828	49.45
598.165	49.57
598.502	49.63
598.839	49.58
599.176	49.64
599.512	49.7
599.849	49.72
600.186	49.81
600.523	49.88
600.859	49.9
601.196	50.06
601.532	50.08
601.869	50.17
602.205	50.3
602.542	50.38
602.878	50.41
603.215	50.46
603.551	50.55
603.887	50.59
604.223	50.66
604.56	50.62
604.896	50.67
605.232	50.67
605.568	50.63
605.904	50.68
606.24	50.75
606.576	50.71
606.912	50.72
607.248	50.76
607.583	50.85
607.919	50.91
608.255	50.91
608.591	50.97
608.926	50.93
609.262	50.93
609.597	51.04
609.933	51.08
610.268	51.13
610.604	51.09
610.939	51.14
611.275	51.15
611.61	51.17
611.945	51.13
612.281	51.2
612.616	51.34
612.951	51.42
613.286	51.46
613.621	51.58
613.956	51.63
614.291	51.71
614.626	51.71
614.961	51.78
615.296	51.78
615.631	51.82
615.966	51.94
616.3	52.1
616.635	52.08
616.97	52.03
617.304	52.06
617.639	52.12
617.973	52.19
618.308	52.18
618.642	52.24
618.977	52.27
619.311	52.35
619.646	52.29
619.98	52.23
620.314	52.34
620.648	52.32
620.983	52.36
621.317	52.35
621.651	52.4
621.985	52.51
622.319	52.54
622.653	52.51
622.987	52.52
623.321	52.45
623.655	52.48
623.988	52.59
624.322	52.6
624.656	52.66
624.99	52.69
625.323	52.74
625.657	52.75
625.99	52.76
626.324	52.76
626.657	52.81
626.991	52.9
627.324	52.83
627.658	52.92
627.991	52.88
628.324	52.9
628.657	52.83
628.991	52.84
629.324	52.89
629.657	52.93
629.99	52.94
630.323	52.96
630.656	52.94
630.989	53.03
631.322	53
631.655	52.99
631.987	52.99
632.32	52.98
632.653	53.04
632.986	53.14
633.318	53.15
633.651	53.18
633.984	53.16
634.316	53.26
634.649	53.16
634.981	53.33
635.313	53.37
635.646	53.46
635.978	53.42
636.31	53.37
636.643	53.4
636.975	53.41
637.307	53.5
637.639	53.58
637.971	53.55
638.303	53.65
638.635	53.67
638.967	53.64
639.299	53.75
639.631	53.72
639.963	53.7
640.295	53.69
640.626	53.78
640.958	53.74
641.29	53.67
641.621	53.76
641.953	53.69
642.285	53.68
642.616	53.62
642.948	53.63
643.279	53.69
643.61	53.7
643.942	53.7
644.273	53.67
644.604	53.71
644.936	53.59
645.267	53.62
645.598	53.63
645.929	53.73
646.26	53.63
646.591	53.72
646.922	53.75
647.253	53.86
647.584	53.76
647.915	53.84
648.245	53.88
648.576	53.91
648.907	53.92
649.238	53.95
649.568	54.08
649.899	54.01
650.229	54
650.56	54.03
650.89	54.15
651.221	54.13
651.551	54.12
651.882	54.25
652.212	54.29
652.542	54.24
652.872	54.16
653.203	54.2
653.533	54.23
653.863	54.26
654.193	54.12
654.523	54.16
654.853	54.2
655.183	54.16
655.513	54.07
655.843	54.09
656.172	54.11
656.502	54.03
656.832	54.15
657.162	54.26
657.491	54.27
657.821	54.12
658.15	53.98
658.48	53.99
658.809	53.94
659.139	53.97
659.468	54.09
659.798	54.24
660.127	54.38
660.456	54.36
660.785	54.36
661.115	54.49
661.444	54.49
661.773	54.47
662.102	54.63
662.431	54.63
662.76	54.61
663.089	54.65
663.418	54.82
663.747	54.78
664.076	54.83
664.404	54.75
664.733	54.9
665.062	55.1
665.39	55.12
665.719	55.22
666.048	55.11
666.376	55.15
666.705	55.08
667.033	54.94
667.362	54.98
667.69	55
668.018	54.86
