Data from BA57890_Reflection_00012.txt Node
Date: Mon Nov 18 15:06:21 EST 2019
User: vgr7
Spectrometer: USB2G7710
Scans to average: 3
Trigger mode: 4
Integration Time (sec): 2.000000E-2
Electric dark correction enabled: true
Boxcar width: 10
XAxis mode: Wavelengths
Number of Pixels in Spectrum: 2048
>>>>>Begin Spectral Data<<<<<
177.721	-32.6
178.105	50.74
178.488	110.11
178.871	83.29
179.254	128.38
179.636	129.41
180.019	208.51
180.402	264.29
180.785	-870.15
181.168	36.57
181.55	2.58
181.933	71.43
182.316	73.04
182.698	68.57
183.081	15.83
183.463	-13.33
183.846	13.5
184.228	6.13
184.611	19.56
184.993	-18.22
185.376	-20.41
185.758	-42.32
186.14	12.12
186.522	45.15
186.904	47.28
187.287	103.55
187.669	167
188.051	291.01
188.433	619.16
188.815	-4125.81
189.197	-191.14
189.579	-635.38
189.961	-445.71
190.342	-4413.51
190.724	-1377.06
191.106	624.93
191.488	489.83
191.869	1308.09
192.251	424.86
192.633	3888.73
193.014	370.38
193.396	353.53
193.777	218.78
194.159	214.38
194.54	338.2
194.922	267.63
195.303	271.09
195.684	153.01
196.065	107.08
196.447	82.65
196.828	120.62
197.209	84.07
197.59	151.94
197.971	189.25
198.352	270.78
198.733	689.54
199.114	1290.05
199.495	-1575.16
199.876	-195.54
200.257	-143.82
200.638	-100
201.018	-120.8
201.399	-95.64
201.78	-71.85
202.16	-129.19
202.541	-303.45
202.922	-376.6
203.302	-577.58
203.683	-278.5
204.063	-239.65
204.444	-106.63
204.824	-35.14
205.204	-41.21
205.585	-2.3
205.965	-59.27
206.345	-85.02
206.725	-100
207.106	-191.84
207.486	-738.07
207.866	-1729.02
208.246	2484.62
208.626	-1539
209.006	-1186.79
209.386	604.59
209.766	770.19
210.145	-514.42
210.525	-344.33
210.905	-172.99
211.285	-139.45
211.664	-126.05
212.044	-152.9
212.424	-162.3
212.803	-115.77
213.183	-84.24
213.562	-101.05
213.942	-46.35
214.321	-30.9
214.701	-29.41
215.08	-32.28
215.459	14.83
215.838	-4.93
216.218	-9.8
216.597	8.02
216.976	4.31
217.355	13.56
217.734	13.18
218.113	15.62
218.492	7.22
218.871	-5.89
219.25	-0.36
219.629	-3.74
220.008	7.42
220.387	1.44
220.766	-12.89
221.144	-30.36
221.523	-36.82
221.902	-48.7
222.28	-64.47
222.659	-50.19
223.037	-43.71
223.416	-54.33
223.794	-34.7
224.173	-30.46
224.551	-26.84
224.929	-21.89
225.308	-18.82
225.686	-18.03
226.064	-17.6
226.442	-13.78
226.821	-10.47
227.199	-12.23
227.577	-9.69
227.955	-14.05
228.333	-10.34
228.711	-7.42
229.089	-2.83
229.467	-2.92
229.845	-3.36
230.222	-2.58
230.6	-2.31
230.978	-1.94
231.356	-1.6
231.733	-3.49
232.111	-1.7
232.488	-0.26
232.866	-0.29
233.243	-0.55
233.621	-1.65
233.998	-0.1
234.376	0.08
234.753	1.88
235.13	2.69
235.508	2.36
235.885	3.36
236.262	3.21
236.639	3.96
237.016	3.73
237.393	5.15
237.77	5.03
238.147	7.08
238.524	6.1
238.901	6.3
239.278	6.87
239.655	7.09
240.032	6.92
240.409	5.08
240.785	4.9
241.162	4.94
241.539	5.14
241.915	4.77
242.292	4.45
242.668	4.04
243.045	3.77
243.421	3.96
243.798	3.85
244.174	3.38
244.551	3.3
244.927	3.23
245.303	3.2
245.679	3.34
246.056	3.07
246.432	3.09
246.808	2.89
247.184	2.56
247.56	2.3
247.936	2.2
248.312	2.23
248.688	2.34
249.064	2.19
249.44	2.23
249.815	2.34
250.191	2.64
250.567	2.75
250.943	2.77
251.318	2.68
251.694	2.62
252.069	2.82
252.445	2.77
252.82	2.68
253.196	2.89
253.571	3.01
253.947	3
254.322	3.22
254.697	3.43
255.073	3.26
255.448	3.24
255.823	3.15
256.198	3.59
256.573	3.54
256.948	3.84
257.323	3.81
257.698	3.7
258.073	3.6
258.448	3.55
258.823	3.58
259.198	3.41
259.573	3.51
259.948	3.55
260.322	3.58
260.697	3.54
261.072	3.39
261.446	3.31
261.821	3.32
262.195	3.36
262.57	3.33
262.944	3.36
263.319	3.23
263.693	3.33
264.067	3.29
264.442	3.32
264.816	3.17
265.19	3.12
265.564	3.03
265.938	2.98
266.313	2.95
266.687	3.02
267.061	3.31
267.435	3.35
267.809	3.23
268.183	3.24
268.556	3.13
268.93	3.03
269.304	3.06
269.678	3.25
270.051	3.18
270.425	3.17
270.799	3.34
271.172	3.5
271.546	3.24
271.919	3.13
272.293	3.02
272.666	3.09
273.04	3.12
273.413	3.15
273.787	3.04
274.16	2.94
274.533	2.92
274.906	2.81
275.279	2.67
275.653	2.86
276.026	2.78
276.399	2.92
276.772	3.02
277.145	2.88
277.518	2.82
277.891	2.84
278.263	2.75
278.636	2.55
279.009	2.74
279.382	2.9
279.755	3.04
280.127	3.14
280.5	3.2
280.872	3.21
281.245	3.15
281.617	3.36
281.99	3.58
282.362	3.65
282.735	3.55
283.107	3.64
283.479	3.62
283.852	3.58
284.224	3.6
284.596	3.64
284.968	3.66
285.34	3.69
285.713	3.6
286.085	3.61
286.457	3.83
286.829	3.65
287.201	3.7
287.572	3.68
287.944	3.58
288.316	3.55
288.688	3.57
289.06	3.53
289.431	3.47
289.803	3.42
290.175	3.36
290.546	3.53
290.918	3.54
291.289	3.48
291.661	3.71
292.032	3.69
292.403	3.67
292.775	3.75
293.146	3.63
293.517	3.6
293.889	3.72
294.26	3.67
294.631	3.76
295.002	3.67
295.373	3.63
295.744	3.78
296.115	3.85
296.486	3.78
296.857	3.94
297.228	3.99
297.599	3.93
297.97	4.02
298.34	3.95
298.711	3.95
299.082	3.9
299.452	3.89
299.823	4.06
300.194	4.1
300.564	4.13
300.935	4.27
301.305	4.37
301.676	4.51
302.046	4.46
302.416	4.53
302.787	4.72
303.157	4.78
303.527	4.76
303.897	4.81
304.267	5.19
304.637	5.34
305.008	5.47
305.378	5.68
305.748	5.76
306.117	5.81
306.487	5.89
306.857	6.06
307.227	6.08
307.597	6.07
307.967	6.13
308.336	6.25
308.706	6.36
309.076	6.53
309.445	6.4
309.815	6.45
310.184	6.45
310.554	6.48
310.923	6.55
311.293	6.65
311.662	6.58
312.031	6.38
312.401	6.35
312.77	6.42
313.139	6.48
313.508	6.49
313.877	6.55
314.246	6.65
314.616	6.71
314.985	6.72
315.353	6.79
315.722	6.91
316.091	6.98
316.46	6.91
316.829	6.86
317.198	6.99
317.567	7.08
317.935	7.2
318.304	7.32
318.672	7.3
319.041	7.43
319.41	7.56
319.778	7.76
320.147	7.87
320.515	7.78
320.883	7.78
321.252	7.95
321.62	8.11
321.988	8.07
322.357	8.21
322.725	8.27
323.093	8.34
323.461	8.37
323.829	8.38
324.197	8.58
324.565	8.71
324.933	8.97
325.301	9.09
325.669	9.07
326.037	9.18
326.405	9.36
326.772	9.32
327.14	9.53
327.508	9.55
327.875	9.55
328.243	9.82
328.61	9.76
328.978	9.76
329.346	9.87
329.713	9.83
330.08	9.81
330.448	9.8
330.815	9.7
331.182	9.67
331.55	9.78
331.917	9.7
332.284	9.81
332.651	9.68
333.018	9.75
333.385	9.87
333.752	9.8
334.119	9.82
334.486	9.85
334.853	9.75
335.22	9.74
335.587	9.82
335.954	9.82
336.32	9.94
336.687	9.94
337.054	9.93
337.42	10.09
337.787	10.15
338.153	10.22
338.52	10.33
338.886	10.39
339.253	10.31
339.619	10.38
339.986	10.33
340.352	10.41
340.718	10.4
341.084	10.43
341.451	10.52
341.817	10.59
342.183	10.58
342.549	10.6
342.915	10.78
343.281	10.74
343.647	10.68
344.013	10.6
344.379	10.55
344.745	10.61
345.11	10.66
345.476	10.74
345.842	10.8
346.208	10.79
346.573	10.95
346.939	11.06
347.304	11
347.67	11.09
348.035	11.05
348.401	11.05
348.766	11.07
349.132	11.15
349.497	11.13
349.862	11.25
350.228	11.27
350.593	11.14
350.958	11.19
351.323	11.23
351.688	11.43
352.053	11.59
352.418	11.61
352.783	11.63
353.148	11.5
353.513	11.56
353.878	11.59
354.243	11.56
354.608	11.51
354.972	11.64
355.337	11.57
355.702	11.6
356.066	11.58
356.431	11.52
356.795	11.47
357.16	11.39
357.524	11.25
357.889	11.16
358.253	11.17
358.618	11.11
358.982	11
359.346	10.89
359.71	10.8
360.075	10.79
360.439	10.71
360.803	10.78
361.167	10.68
361.531	10.6
361.895	10.49
362.259	10.45
362.623	10.39
362.987	10.34
363.351	10.3
363.714	10.3
364.078	10.33
364.442	10.26
364.806	10.28
365.169	10.26
365.533	10.25
365.896	10.23
366.26	10.26
366.623	10.33
366.987	10.32
367.35	10.36
367.714	10.28
368.077	10.23
368.44	10.15
368.803	10.15
369.167	10.15
369.53	10.13
369.893	10.11
370.256	10.05
370.619	9.97
370.982	9.9
371.345	9.76
371.708	9.73
372.071	9.66
372.434	9.58
372.797	9.53
373.159	9.45
373.522	9.39
373.885	9.32
374.247	9.18
374.61	9.1
374.973	8.96
375.335	8.89
375.698	8.92
376.06	8.85
376.423	8.77
376.785	8.7
377.147	8.71
377.51	8.65
377.872	8.59
378.234	8.6
378.596	8.54
378.958	8.54
379.321	8.42
379.683	8.41
380.045	8.33
380.407	8.23
380.769	8.18
381.13	8.1
381.492	7.99
381.854	7.94
382.216	7.91
382.578	7.81
382.939	7.72
383.301	7.63
383.663	7.56
384.024	7.49
384.386	7.47
384.747	7.37
385.109	7.34
385.47	7.26
385.832	7.23
386.193	7.21
386.554	7.13
386.916	7.08
387.277	7
387.638	6.97
387.999	6.93
388.36	6.9
388.721	6.87
389.082	6.84
389.443	6.78
389.804	6.68
390.165	6.65
390.526	6.58
390.887	6.49
391.248	6.43
391.609	6.37
391.969	6.29
392.33	6.25
392.691	6.21
393.051	6.17
393.412	6.1
393.772	6.01
394.133	5.99
394.493	5.92
394.854	5.85
395.214	5.79
395.574	5.77
395.935	5.72
396.295	5.66
396.655	5.58
397.015	5.56
397.376	5.5
397.736	5.44
398.096	5.41
398.456	5.37
398.816	5.31
399.176	5.26
399.535	5.2
399.895	5.13
400.255	5.07
400.615	5.02
400.975	4.96
401.334	4.94
401.694	4.9
402.054	4.88
402.413	4.86
402.773	4.81
403.132	4.77
403.492	4.75
403.851	4.74
404.211	4.7
404.57	4.66
404.929	4.68
405.288	4.67
405.648	4.65
406.007	4.67
406.366	4.66
406.725	4.66
407.084	4.69
407.443	4.66
407.802	4.65
408.161	4.64
408.52	4.57
408.879	4.55
409.238	4.53
409.596	4.51
409.955	4.51
410.314	4.55
410.673	4.53
411.031	4.49
411.39	4.48
411.748	4.49
412.107	4.51
412.465	4.48
412.824	4.46
413.182	4.43
413.54	4.38
413.899	4.38
414.257	4.38
414.615	4.34
414.974	4.35
415.332	4.31
415.69	4.31
416.048	4.33
416.406	4.29
416.764	4.26
417.122	4.24
417.48	4.19
417.838	4.15
418.195	4.13
418.553	4.11
418.911	4.08
419.269	4.06
419.626	4.03
419.984	4
420.342	3.98
420.699	3.97
421.057	3.94
421.414	3.91
421.772	3.88
422.129	3.87
422.486	3.84
422.844	3.84
423.201	3.82
423.558	3.8
423.915	3.8
424.273	3.78
424.63	3.77
424.987	3.76
425.344	3.75
425.701	3.72
426.058	3.71
426.415	3.7
426.772	3.69
427.128	3.67
427.485	3.68
427.842	3.65
428.199	3.64
428.555	3.63
428.912	3.63
429.269	3.64
429.625	3.62
429.982	3.59
430.338	3.58
430.695	3.58
431.051	3.58
431.407	3.56
431.764	3.57
432.12	3.56
432.476	3.55
432.832	3.55
433.189	3.56
433.545	3.57
433.901	3.58
434.257	3.58
434.613	3.57
434.969	3.57
435.325	3.58
435.681	3.59
436.036	3.6
436.392	3.59
436.748	3.58
437.104	3.57
437.459	3.57
437.815	3.56
438.171	3.54
438.526	3.55
438.882	3.56
439.237	3.56
439.593	3.55
439.948	3.56
440.304	3.55
440.659	3.55
441.014	3.55
441.369	3.52
441.725	3.5
442.08	3.51
442.435	3.49
442.79	3.49
443.145	3.47
443.5	3.46
443.855	3.45
444.21	3.44
444.565	3.44
444.92	3.44
445.275	3.43
445.629	3.44
445.984	3.42
446.339	3.4
446.693	3.38
447.048	3.37
447.403	3.36
447.757	3.35
448.112	3.33
448.466	3.31
448.82	3.31
449.175	3.32
449.529	3.31
449.883	3.29
450.238	3.26
450.592	3.27
450.946	3.25
451.3	3.25
451.654	3.23
452.008	3.23
452.362	3.21
452.716	3.2
453.07	3.19
453.424	3.19
453.778	3.18
454.132	3.19
454.486	3.2
454.839	3.19
455.193	3.2
455.547	3.2
455.9	3.21
456.254	3.21
456.607	3.21
456.961	3.21
457.314	3.23
457.668	3.24
458.021	3.24
458.375	3.25
458.728	3.25
459.081	3.26
459.434	3.27
459.787	3.27
460.141	3.29
460.494	3.3
460.847	3.3
461.2	3.32
461.553	3.33
461.906	3.33
462.259	3.34
462.611	3.34
462.964	3.37
463.317	3.37
463.67	3.4
464.022	3.4
464.375	3.39
464.728	3.39
465.08	3.43
465.433	3.44
465.785	3.45
466.138	3.44
466.49	3.46
466.843	3.46
467.195	3.49
467.547	3.51
467.899	3.51
468.252	3.52
468.604	3.54
468.956	3.56
469.308	3.57
469.66	3.61
470.012	3.62
470.364	3.63
470.716	3.64
471.068	3.65
471.42	3.66
471.772	3.68
472.123	3.72
472.475	3.72
472.827	3.72
473.178	3.75
473.53	3.77
473.882	3.77
474.233	3.81
474.585	3.78
474.936	3.76
475.288	3.74
475.639	3.75
475.99	3.73
476.342	3.72
476.693	3.7
477.044	3.69
477.395	3.7
477.746	3.68
478.097	3.65
478.448	3.64
478.8	3.62
479.15	3.59
479.501	3.57
479.852	3.55
480.203	3.55
480.554	3.53
480.905	3.54
481.255	3.51
481.606	3.5
481.957	3.51
482.307	3.51
482.658	3.51
483.009	3.5
483.359	3.5
483.709	3.5
484.06	3.5
484.41	3.5
484.761	3.5
485.111	3.5
485.461	3.5
485.811	3.51
486.162	3.52
486.512	3.54
486.862	3.54
487.212	3.55
487.562	3.56
487.912	3.57
488.262	3.57
488.612	3.58
488.961	3.61
489.311	3.61
489.661	3.61
490.011	3.62
490.36	3.63
490.71	3.65
491.06	3.67
491.409	3.69
491.759	3.7
492.108	3.72
492.458	3.75
492.807	3.76
493.157	3.77
493.506	3.79
493.855	3.8
494.204	3.82
494.554	3.85
494.903	3.86
495.252	3.88
495.601	3.91
495.95	3.95
496.299	3.95
496.648	4
496.997	4.04
497.346	4.09
497.695	4.14
498.043	4.17
498.392	4.2
498.741	4.26
499.09	4.29
499.438	4.35
499.787	4.4
500.135	4.47
500.484	4.54
500.832	4.61
501.181	4.68
501.529	4.73
501.878	4.83
502.226	4.92
502.574	5.03
502.923	5.11
503.271	5.19
503.619	5.28
503.967	5.37
504.315	5.45
504.663	5.55
505.011	5.68
505.359	5.77
505.707	5.87
506.055	5.96
506.403	6.08
506.751	6.16
507.098	6.27
507.446	6.37
507.794	6.47
508.141	6.59
508.489	6.7
508.837	6.83
509.184	6.94
509.531	7.03
509.879	7.16
510.226	7.29
510.574	7.42
510.921	7.55
511.268	7.67
511.616	7.79
511.963	7.94
512.31	8.06
512.657	8.25
513.004	8.42
513.351	8.58
513.698	8.77
514.045	8.94
514.392	9.11
514.739	9.29
515.086	9.49
515.432	9.64
515.779	9.8
516.126	10.01
516.473	10.18
516.819	10.38
517.166	10.51
517.512	10.66
517.859	10.82
518.205	10.99
518.552	11.17
518.898	11.33
519.245	11.47
519.591	11.63
519.937	11.77
520.283	11.95
520.629	12.12
520.976	12.29
521.322	12.53
521.668	12.76
522.014	12.98
522.36	13.21
522.706	13.49
523.052	13.77
523.398	14.05
523.743	14.33
524.089	14.65
524.435	14.96
524.781	15.22
525.126	15.46
525.472	15.69
525.817	15.89
526.163	16.11
526.509	16.31
526.854	16.49
527.199	16.66
527.545	16.84
527.89	17.02
528.235	17.21
528.581	17.37
528.926	17.54
529.271	17.72
529.616	17.88
529.961	18.05
530.306	18.24
530.651	18.43
530.996	18.64
531.341	18.83
531.686	19.02
532.031	19.26
532.376	19.52
532.721	19.76
533.065	20.02
533.41	20.3
533.755	20.56
534.099	20.83
534.444	21.1
534.788	21.37
535.133	21.61
535.477	21.87
535.822	22.15
536.166	22.45
536.51	22.75
536.855	23.1
537.199	23.43
537.543	23.76
537.887	24.09
538.231	24.41
538.576	24.73
538.92	25.05
539.264	25.36
539.608	25.63
539.951	25.91
540.295	26.18
540.639	26.46
540.983	26.69
541.327	26.95
541.671	27.21
542.014	27.44
542.358	27.68
542.701	27.91
543.045	28.16
543.389	28.39
543.732	28.63
544.075	28.86
544.419	29.13
544.762	29.38
545.105	29.65
545.449	29.92
545.792	30.2
546.135	30.53
546.478	30.87
546.821	31.19
547.165	31.5
547.508	31.82
547.851	32.11
548.194	32.42
548.536	32.77
548.879	33.11
549.222	33.4
549.565	33.71
549.908	34.01
550.25	34.25
550.593	34.57
550.936	34.89
551.278	35.17
551.621	35.45
551.963	35.73
552.306	36.01
552.648	36.31
552.991	36.65
553.333	36.88
553.675	37.06
554.017	37.32
554.36	37.6
554.702	37.81
555.044	38.01
555.386	38.27
555.728	38.45
556.07	38.61
556.412	38.86
556.754	39.1
557.096	39.37
557.438	39.62
557.78	39.87
558.121	40.09
558.463	40.38
558.805	40.57
559.147	40.81
559.488	41.01
559.83	41.21
560.171	41.38
560.513	41.58
560.854	41.79
561.196	42
561.537	42.14
561.878	42.32
562.22	42.5
562.561	42.67
562.902	42.85
563.243	43
563.584	43.15
563.925	43.29
564.266	43.43
564.607	43.62
564.948	43.78
565.289	43.89
565.63	44.01
565.971	44.13
566.312	44.24
566.653	44.35
566.993	44.45
567.334	44.57
567.675	44.65
568.015	44.78
568.356	44.86
568.696	45.01
569.037	45.08
569.377	45.21
569.718	45.31
570.058	45.39
570.398	45.52
570.739	45.64
571.079	45.71
571.419	45.8
571.759	45.9
572.099	45.98
572.439	46.1
572.779	46.21
573.119	46.32
573.459	46.45
573.799	46.6
574.139	46.74
574.479	46.84
574.819	47.03
575.158	47.11
575.498	47.23
575.838	47.33
576.177	47.41
576.517	47.47
576.856	47.6
577.196	47.77
577.535	47.93
577.875	48.04
578.214	48.25
578.553	48.38
578.893	48.53
579.232	48.68
579.571	48.82
579.91	48.97
580.25	49.14
580.589	49.26
580.928	49.32
581.267	49.35
581.606	49.49
581.945	49.56
582.283	49.67
582.622	49.82
582.961	49.84
583.3	50.05
583.639	50.25
583.977	50.35
584.316	50.45
584.654	50.45
584.993	50.52
585.332	50.49
585.67	50.58
586.008	50.59
586.347	50.61
586.685	50.69
587.024	50.7
587.362	50.73
587.7	50.83
588.038	50.93
588.376	51.03
588.715	51.07
589.053	51.09
589.391	51.15
589.729	51.2
590.067	51.26
590.404	51.3
590.742	51.35
591.08	51.36
591.418	51.42
591.756	51.49
592.093	51.6
592.431	51.7
592.769	51.72
593.106	51.81
593.444	51.82
593.781	51.74
594.119	51.75
594.456	51.84
594.793	51.81
595.131	51.88
595.468	51.93
595.805	51.93
596.143	52
596.48	52.08
596.817	52.12
597.154	52.15
597.491	52.12
597.828	52.02
598.165	52.06
598.502	52.03
598.839	52.11
599.176	52.1
599.512	52.13
599.849	52.25
600.186	52.22
600.523	52.25
600.859	52.4
601.196	52.47
601.532	52.44
601.869	52.49
602.205	52.47
602.542	52.51
602.878	52.54
603.215	52.5
603.551	52.53
603.887	52.46
604.223	52.51
604.56	52.56
604.896	52.71
605.232	52.82
605.568	52.83
605.904	52.83
606.24	52.94
606.576	52.93
606.912	52.86
607.248	52.92
607.583	53.01
607.919	53.01
608.255	53.03
608.591	53.09
608.926	53.07
609.262	53.12
609.597	53.11
609.933	53.19
610.268	53.3
610.604	53.34
610.939	53.39
611.275	53.45
611.61	53.53
611.945	53.55
612.281	53.47
612.616	53.55
612.951	53.58
613.286	53.56
613.621	53.69
613.956	53.84
614.291	53.88
614.626	53.93
614.961	54.05
615.296	54.12
615.631	54.25
615.966	54.37
616.3	54.34
616.635	54.45
616.97	54.41
617.304	54.38
617.639	54.43
617.973	54.47
618.308	54.52
618.642	54.52
618.977	54.57
619.311	54.67
619.646	54.69
619.98	54.66
620.314	54.67
620.648	54.66
620.983	54.62
621.317	54.7
621.651	54.72
621.985	54.71
622.319	54.66
622.653	54.65
622.987	54.68
623.321	54.76
623.655	54.74
623.988	54.8
624.322	54.72
624.656	54.69
624.99	54.81
625.323	54.85
625.657	54.89
625.99	54.87
626.324	54.93
626.657	54.91
626.991	54.98
627.324	54.98
627.658	55.03
627.991	55.09
628.324	55.08
628.657	55.04
628.991	55.03
629.324	55.17
629.657	55.17
629.99	55.12
630.323	55.16
630.656	55.28
630.989	55.26
631.322	55.29
631.655	55.28
631.987	55.19
632.32	55.21
632.653	55.16
632.986	55.11
633.318	55.03
633.651	55.13
633.984	55.12
634.316	55.12
634.649	55.13
634.981	55.06
635.313	55.07
635.646	55.14
635.978	55.03
636.31	54.97
636.643	54.89
636.975	54.98
637.307	55.02
637.639	54.9
637.971	55.14
638.303	55.27
638.635	55.32
638.967	55.38
639.299	55.42
639.631	55.52
639.963	55.62
640.295	55.72
640.626	55.67
640.958	55.75
641.29	55.82
641.621	55.87
641.953	55.94
642.285	55.99
642.616	55.99
642.948	56.16
643.279	56.2
643.61	56.35
643.942	56.31
644.273	56.26
644.604	56.29
644.936	56.09
645.267	56.03
645.598	56.01
645.929	56.03
646.26	56.04
646.591	55.94
646.922	55.87
647.253	55.73
647.584	55.9
647.915	55.86
648.245	55.86
648.576	55.85
648.907	55.92
649.238	55.81
649.568	55.78
649.899	55.82
650.229	55.8
650.56	55.79
650.89	55.85
651.221	55.95
651.551	56.02
651.882	56.13
652.212	56.21
652.542	56.27
652.872	56.32
653.203	56.25
653.533	56.34
653.863	56.49
654.193	56.49
654.523	56.31
654.853	56.38
655.183	56.32
655.513	56.36
655.843	56.34
656.172	56.43
656.502	56.49
656.832	56.42
657.162	56.45
657.491	56.49
657.821	56.52
658.15	56.49
658.48	56.46
658.809	56.41
659.139	56.41
659.468	56.39
659.798	56.34
660.127	56.39
660.456	56.47
660.785	56.41
661.115	56.59
661.444	56.73
661.773	56.74
662.102	56.81
662.431	56.8
662.76	56.74
663.089	56.73
663.418	56.75
663.747	56.84
664.076	56.86
664.404	56.8
