Data from BA57715_Reflection_00003.txt Node
Date: Mon Nov 18 15:25:48 EST 2019
User: vgr7
Spectrometer: USB2G7710
Scans to average: 3
Trigger mode: 4
Integration Time (sec): 2.000000E-2
Electric dark correction enabled: true
Boxcar width: 10
XAxis mode: Wavelengths
Number of Pixels in Spectrum: 2048
>>>>>Begin Spectral Data<<<<<
177.721	74.54
178.105	25.93
178.488	-19.97
178.871	-36.56
179.254	-180.37
179.636	-1.77
180.019	-319.16
180.402	41.67
180.785	23.44
181.168	-51.79
181.55	40.59
181.933	64.04
182.316	36.55
182.698	44.54
183.081	53.62
183.463	-43.65
183.846	-29.45
184.228	-165.06
184.611	-104.44
184.993	1062.96
185.376	152.91
185.758	82.3
186.14	-127.54
186.522	-326.23
186.904	544.44
187.287	188.15
187.669	-622.89
188.051	3814.29
188.433	969.57
188.815	1084.13
189.197	-628.68
189.579	-300
189.961	-593.88
190.342	-240.85
190.724	-171.51
191.106	-235.54
191.488	-221.36
191.869	-198.72
192.251	-226.04
192.633	-164.39
193.014	-254.31
193.396	-552.36
193.777	-736.16
194.159	1833.33
194.54	-579.43
194.922	-277.73
195.303	-161.32
195.684	-372.62
196.065	-266.75
196.447	-193.79
196.828	-225.48
197.209	-196.3
197.59	-315.43
197.971	-157.39
198.352	-106.1
198.733	-102.04
199.114	-71.16
199.495	-103.44
199.876	-52.7
200.257	-51.37
200.638	-64.93
201.018	-87.09
201.399	-114.07
201.78	-94.04
202.16	-101.29
202.541	-123.15
202.922	-161.47
203.302	-321.05
203.683	-152.32
204.063	-185.71
204.444	-245.78
204.824	-252.2
205.204	-261.29
205.585	-179.81
205.965	-153.79
206.345	-189.86
206.725	-294.52
207.106	-354.81
207.486	-533.2
207.866	-3115.69
208.246	1803.7
208.626	-3006.38
209.006	-306.78
209.386	-232.31
209.766	-179.64
210.145	-136.69
210.525	-116.36
210.905	-56.45
211.285	-31.15
211.664	-33.65
212.044	-38.56
212.424	-22.08
212.803	-19.66
213.183	-3.87
213.562	-9.47
213.942	-12.38
214.321	-3.64
214.701	-13.81
215.08	-14.06
215.459	-8.24
215.838	-10.68
216.218	-13.19
216.597	-6.59
216.976	-10.86
217.355	-5.4
217.734	-11.73
218.113	-13.05
218.492	-16.18
218.871	-18.19
219.25	-16.67
219.629	-19.22
220.008	-17.19
220.387	-22.12
220.766	-22.45
221.144	-27.64
221.523	-33.48
221.902	-38.17
222.28	-38.09
222.659	-31.07
223.037	-27.74
223.416	-24.92
223.794	-7.84
224.173	-12.49
224.551	-9.07
224.929	-13.39
225.308	-4.58
225.686	0.51
226.064	2.41
226.442	-1.04
226.821	3.1
227.199	-1.43
227.577	1.77
227.955	4.08
228.333	5.3
228.711	4.06
229.089	10.38
229.467	6.21
229.845	5.25
230.222	7.57
230.6	5.36
230.978	6.53
231.356	7.73
231.733	6.97
232.111	9.46
232.488	10.36
232.866	10.02
233.243	7.33
233.621	5.64
233.998	6.75
234.376	6.3
234.753	5.91
235.13	7.12
235.508	5.46
235.885	4.08
236.262	3.42
236.639	2.78
237.016	-0.08
237.393	2.48
237.77	4.1
238.147	3.6
238.524	4.46
238.901	4.33
239.278	4.21
239.655	4.27
240.032	4.18
240.409	3.16
240.785	3.5
241.162	4.36
241.539	5.19
241.915	5.04
242.292	5.09
242.668	5.6
243.045	5.57
243.421	5.75
243.798	5.86
244.174	5.83
244.551	6.11
244.927	6.49
245.303	6.44
245.679	6.29
246.056	6.28
246.432	6.42
246.808	6.39
247.184	6.52
247.56	6.62
247.936	6.26
248.312	6.49
248.688	6.48
249.064	6.58
249.44	6.34
249.815	6.4
250.191	6.76
250.567	6.41
250.943	6.33
251.318	6.47
251.694	6.55
252.069	6.88
252.445	6.87
252.82	6.64
253.196	6.46
253.571	6.59
253.947	6.43
254.322	6.43
254.697	6.54
255.073	6.4
255.448	6.26
255.823	6.62
256.198	6.66
256.573	6.47
256.948	6
257.323	6.07
257.698	6.25
258.073	6.29
258.448	6.34
258.823	6.36
259.198	6.08
259.573	6.23
259.948	5.88
260.322	5.82
260.697	5.84
261.072	5.79
261.446	5.78
261.821	5.71
262.195	5.68
262.57	5.47
262.944	5.32
263.319	5.34
263.693	5.28
264.067	5.24
264.442	5.12
264.816	5.28
265.19	5.39
265.564	5.42
265.938	5.06
266.313	4.95
266.687	5.15
267.061	5.42
267.435	5.37
267.809	5.48
268.183	5.56
268.556	5.58
268.93	5.7
269.304	5.6
269.678	5.81
270.051	5.88
270.425	6.04
270.799	6
271.172	6.01
271.546	5.92
271.919	5.94
272.293	6.13
272.666	6.24
273.04	6.24
273.413	6.3
273.787	6.43
274.16	6.39
274.533	6.38
274.906	6.22
275.279	6.23
275.653	6.25
276.026	6.25
276.399	6.34
276.772	6.36
277.145	6.39
277.518	6.41
277.891	6.38
278.263	6.33
278.636	6.38
279.009	6.33
279.382	6.64
279.755	6.55
280.127	6.52
280.5	6.49
280.872	6.53
281.245	6.36
281.617	6.5
281.99	6.82
282.362	6.65
282.735	6.56
283.107	6.46
283.479	6.47
283.852	6.58
284.224	6.57
284.596	6.66
284.968	6.72
285.34	6.73
285.713	6.65
286.085	6.72
286.457	6.89
286.829	6.92
287.201	6.9
287.572	6.92
287.944	6.91
288.316	6.98
288.688	6.87
289.06	6.83
289.431	6.78
289.803	6.71
290.175	6.8
290.546	7.17
290.918	7.21
291.289	7.19
291.661	7.21
292.032	7.22
292.403	7.11
292.775	7.24
293.146	7.3
293.517	7.35
293.889	7.45
294.26	7.5
294.631	7.51
295.002	7.48
295.373	7.55
295.744	7.62
296.115	7.65
296.486	7.62
296.857	7.64
297.228	7.68
297.599	7.6
297.97	7.66
298.34	7.63
298.711	7.68
299.082	7.83
299.452	7.86
299.823	8
300.194	8.13
300.564	8.07
300.935	8.06
301.305	8.04
301.676	7.92
302.046	7.8
302.416	7.84
302.787	7.81
303.157	7.88
303.527	7.78
303.897	7.87
304.267	8.01
304.637	8.17
305.008	8.12
305.378	8.27
305.748	8.19
306.117	8.01
306.487	8.07
306.857	8.13
307.227	8.11
307.597	7.99
307.967	8
308.336	8
308.706	8.06
309.076	8.12
309.445	8.1
309.815	8.18
310.184	8.2
310.554	8.26
310.923	8.17
311.293	8.32
311.662	8.16
312.031	8.18
312.401	8.07
312.77	8.14
313.139	8.17
313.508	8.07
313.877	8.2
314.246	8.07
314.616	7.97
314.985	7.89
315.353	7.9
315.722	7.91
316.091	7.88
316.46	7.62
316.829	7.58
317.198	7.82
317.567	7.62
317.935	7.6
318.304	7.64
318.672	7.61
319.041	7.51
319.41	7.41
319.778	7.34
320.147	7.44
320.515	7.41
320.883	7.28
321.252	7.48
321.62	7.47
321.988	7.57
322.357	7.56
322.725	7.58
323.093	7.51
323.461	7.47
323.829	7.56
324.197	7.86
324.565	7.82
324.933	7.68
325.301	7.87
325.669	7.92
326.037	7.86
326.405	8.01
326.772	8.13
327.14	8.18
327.508	8.31
327.875	8.29
328.243	8.31
328.61	8.23
328.978	8.06
329.346	8.01
329.713	7.94
330.08	7.94
330.448	7.91
330.815	7.85
331.182	7.88
331.55	7.87
331.917	7.83
332.284	8.11
332.651	8.07
333.018	8.04
333.385	7.99
333.752	7.97
334.119	7.88
334.486	7.86
334.853	7.74
335.22	7.63
335.587	7.61
335.954	7.54
336.32	7.63
336.687	7.73
337.054	7.75
337.42	7.78
337.787	7.81
338.153	7.84
338.52	7.99
338.886	7.8
339.253	7.74
339.619	7.7
339.986	7.56
340.352	7.68
340.718	7.65
341.084	7.76
341.451	7.81
341.817	7.86
342.183	7.72
342.549	7.8
342.915	7.79
343.281	7.82
343.647	7.76
344.013	7.78
344.379	7.74
344.745	7.72
345.11	7.79
345.476	7.74
345.842	7.76
346.208	7.8
346.573	7.91
346.939	8.07
347.304	8.02
347.67	7.96
348.035	7.94
348.401	7.9
348.766	7.84
349.132	7.84
349.497	7.76
349.862	7.83
350.228	7.83
350.593	7.73
350.958	7.7
351.323	7.82
351.688	7.83
352.053	7.92
352.418	7.91
352.783	7.94
353.148	7.96
353.513	7.91
353.878	7.94
354.243	7.97
354.608	7.94
354.972	8
355.337	8.03
355.702	7.98
356.066	8.07
356.431	8.12
356.795	8.08
357.16	8.1
357.524	8.16
357.889	8.16
358.253	8.34
358.618	8.34
358.982	8.29
359.346	8.27
359.71	8.25
360.075	8.23
360.439	8.19
360.803	8.19
361.167	8.23
361.531	8.17
361.895	8.17
362.259	8.05
362.623	8.01
362.987	8.01
363.351	8.04
363.714	8.06
364.078	8.03
364.442	8
364.806	7.98
365.169	7.99
365.533	8.04
365.896	7.95
366.26	8.03
366.623	7.99
366.987	8.04
367.35	8.03
367.714	8.05
368.077	7.96
368.44	7.96
368.803	7.94
369.167	7.88
369.53	7.89
369.893	7.95
370.256	8
370.619	8.04
370.982	7.99
371.345	7.9
371.708	7.92
372.071	7.94
372.434	7.93
372.797	7.87
373.159	7.8
373.522	7.73
373.885	7.69
374.247	7.73
374.61	7.69
374.973	7.71
375.335	7.7
375.698	7.73
376.06	7.7
376.423	7.68
376.785	7.73
377.147	7.71
377.51	7.71
377.872	7.75
378.234	7.7
378.596	7.7
378.958	7.68
379.321	7.63
379.683	7.69
380.045	7.78
380.407	7.79
380.769	7.88
381.13	7.95
381.492	7.97
381.854	8.01
382.216	7.98
382.578	7.96
382.939	7.95
383.301	7.99
383.663	8.05
384.024	8.04
384.386	8.08
384.747	8.1
385.109	8.05
385.47	7.99
385.832	7.99
386.193	8.01
386.554	8.05
386.916	8.05
387.277	8.02
387.638	7.94
387.999	7.96
388.36	7.93
388.721	7.92
389.082	7.91
389.443	7.83
389.804	7.83
390.165	7.82
390.526	7.8
390.887	7.79
391.248	7.79
391.609	7.81
391.969	7.77
392.33	7.74
392.691	7.77
393.051	7.82
393.412	7.83
393.772	7.82
394.133	7.8
394.493	7.83
394.854	7.85
395.214	7.85
395.574	7.88
395.935	7.87
396.295	7.89
396.655	7.87
397.015	7.89
397.376	7.92
397.736	7.94
398.096	7.93
398.456	7.91
398.816	7.92
399.176	7.9
399.535	7.89
399.895	7.86
400.255	7.87
400.615	7.84
400.975	7.87
401.334	7.87
401.694	7.87
402.054	7.85
402.413	7.83
402.773	7.78
403.132	7.76
403.492	7.76
403.851	7.74
404.211	7.74
404.57	7.72
404.929	7.71
405.288	7.71
405.648	7.74
406.007	7.77
406.366	7.74
406.725	7.78
407.084	7.77
407.443	7.79
407.802	7.8
408.161	7.78
408.52	7.73
408.879	7.72
409.238	7.73
409.596	7.74
409.955	7.77
410.314	7.82
410.673	7.82
411.031	7.81
411.39	7.8
411.748	7.8
412.107	7.83
412.465	7.82
412.824	7.8
413.182	7.81
413.54	7.78
413.899	7.79
414.257	7.78
414.615	7.79
414.974	7.79
415.332	7.76
415.69	7.74
416.048	7.74
416.406	7.74
416.764	7.71
417.122	7.7
417.48	7.67
417.838	7.66
418.195	7.67
418.553	7.66
418.911	7.66
419.269	7.66
419.626	7.67
419.984	7.67
420.342	7.67
420.699	7.66
421.057	7.67
421.414	7.65
421.772	7.63
422.129	7.62
422.486	7.62
422.844	7.64
423.201	7.64
423.558	7.64
423.915	7.64
424.273	7.65
424.63	7.62
424.987	7.64
425.344	7.64
425.701	7.62
426.058	7.61
426.415	7.6
426.772	7.6
427.128	7.59
427.485	7.58
427.842	7.57
428.199	7.56
428.555	7.54
428.912	7.53
429.269	7.54
429.625	7.53
429.982	7.53
430.338	7.52
430.695	7.5
431.051	7.48
431.407	7.5
431.764	7.5
432.12	7.49
432.476	7.46
432.832	7.45
433.189	7.45
433.545	7.46
433.901	7.45
434.257	7.43
434.613	7.43
434.969	7.43
435.325	7.43
435.681	7.41
436.036	7.42
436.392	7.43
436.748	7.43
437.104	7.45
437.459	7.44
437.815	7.42
438.171	7.45
438.526	7.48
438.882	7.47
439.237	7.48
439.593	7.49
439.948	7.51
440.304	7.5
440.659	7.49
441.014	7.5
441.369	7.48
441.725	7.49
442.08	7.48
442.435	7.47
442.79	7.47
443.145	7.49
443.5	7.5
443.855	7.49
444.21	7.46
444.565	7.45
444.92	7.46
445.275	7.44
445.629	7.41
445.984	7.39
446.339	7.38
446.693	7.37
447.048	7.37
447.403	7.35
447.757	7.34
448.112	7.34
448.466	7.31
448.82	7.32
449.175	7.32
449.529	7.31
449.883	7.29
450.238	7.28
450.592	7.26
450.946	7.24
451.3	7.23
451.654	7.24
452.008	7.22
452.362	7.21
452.716	7.2
453.07	7.23
453.424	7.23
453.778	7.22
454.132	7.22
454.486	7.21
454.839	7.23
455.193	7.25
455.547	7.24
455.9	7.26
456.254	7.27
456.607	7.27
456.961	7.28
457.314	7.3
457.668	7.31
458.021	7.3
458.375	7.31
458.728	7.33
459.081	7.32
459.434	7.32
459.787	7.32
460.141	7.32
460.494	7.31
460.847	7.33
461.2	7.32
461.553	7.32
461.906	7.34
462.259	7.32
462.611	7.32
462.964	7.34
463.317	7.35
463.67	7.34
464.022	7.35
464.375	7.32
464.728	7.33
465.08	7.35
465.433	7.37
465.785	7.39
466.138	7.38
466.49	7.38
466.843	7.37
467.195	7.4
467.547	7.44
467.899	7.45
468.252	7.44
468.604	7.47
468.956	7.47
469.308	7.45
469.66	7.47
470.012	7.47
470.364	7.46
470.716	7.46
471.068	7.46
471.42	7.46
471.772	7.51
472.123	7.51
472.475	7.51
472.827	7.52
473.178	7.52
473.53	7.53
473.882	7.56
474.233	7.58
474.585	7.55
474.936	7.5
475.288	7.52
475.639	7.52
475.99	7.51
476.342	7.52
476.693	7.52
477.044	7.52
477.395	7.51
477.746	7.52
478.097	7.51
478.448	7.54
478.8	7.55
479.15	7.52
479.501	7.52
479.852	7.53
480.203	7.53
480.554	7.55
480.905	7.57
481.255	7.58
481.606	7.58
481.957	7.6
482.307	7.61
482.658	7.61
483.009	7.62
483.359	7.63
483.709	7.63
484.06	7.64
484.41	7.65
484.761	7.66
485.111	7.67
485.461	7.68
485.811	7.67
486.162	7.68
486.512	7.7
486.862	7.7
487.212	7.7
487.562	7.69
487.912	7.69
488.262	7.69
488.612	7.68
488.961	7.7
489.311	7.69
489.661	7.69
490.011	7.7
490.36	7.7
490.71	7.7
491.06	7.69
491.409	7.7
491.759	7.68
492.108	7.68
492.458	7.67
492.807	7.66
493.157	7.67
493.506	7.67
493.855	7.67
494.204	7.66
494.554	7.67
494.903	7.68
495.252	7.69
495.601	7.7
495.95	7.7
496.299	7.7
496.648	7.72
496.997	7.73
497.346	7.75
497.695	7.77
498.043	7.79
498.392	7.81
498.741	7.82
499.09	7.84
499.438	7.85
499.787	7.87
500.135	7.9
500.484	7.91
500.832	7.93
501.181	7.95
501.529	7.97
501.878	8
502.226	8
502.574	8.02
502.923	8.01
503.271	8
503.619	8
503.967	8.02
504.315	8.04
504.663	8.05
505.011	8.05
505.359	8.05
505.707	8.09
506.055	8.1
506.403	8.14
506.751	8.16
507.098	8.19
507.446	8.21
507.794	8.22
508.141	8.22
508.489	8.23
508.837	8.26
509.184	8.28
509.531	8.31
509.879	8.31
510.226	8.33
510.574	8.35
510.921	8.37
511.268	8.38
511.616	8.38
511.963	8.38
512.31	8.38
512.657	8.41
513.004	8.39
513.351	8.39
513.698	8.39
514.045	8.37
514.392	8.37
514.739	8.37
515.086	8.37
515.432	8.39
515.779	8.4
516.126	8.4
516.473	8.39
516.819	8.39
517.166	8.38
517.512	8.39
517.859	8.41
518.205	8.43
518.552	8.43
518.898	8.44
519.245	8.43
519.591	8.43
519.937	8.4
520.283	8.42
520.629	8.42
520.976	8.42
521.322	8.43
521.668	8.45
522.014	8.46
522.36	8.48
522.706	8.5
523.052	8.5
523.398	8.5
523.743	8.52
524.089	8.52
524.435	8.55
524.781	8.59
525.126	8.62
525.472	8.63
525.817	8.64
526.163	8.64
526.509	8.66
526.854	8.68
527.199	8.71
527.545	8.71
527.89	8.73
528.235	8.73
528.581	8.75
528.926	8.75
529.271	8.77
529.616	8.76
529.961	8.76
530.306	8.77
530.651	8.77
530.996	8.78
531.341	8.79
531.686	8.79
532.031	8.77
532.376	8.75
532.721	8.75
533.065	8.75
533.41	8.76
533.755	8.75
534.099	8.73
534.444	8.72
534.788	8.71
535.133	8.7
535.477	8.69
535.822	8.65
536.166	8.67
536.51	8.65
536.855	8.66
537.199	8.67
537.543	8.67
537.887	8.69
538.231	8.69
538.576	8.69
538.92	8.69
539.264	8.69
539.608	8.72
539.951	8.73
540.295	8.74
540.639	8.76
540.983	8.76
541.327	8.8
541.671	8.79
542.014	8.8
542.358	8.81
542.701	8.84
543.045	8.85
543.389	8.87
543.732	8.88
544.075	8.89
544.419	8.89
544.762	8.89
545.105	8.88
545.449	8.88
545.792	8.88
546.135	8.89
546.478	8.88
546.821	8.86
547.165	8.86
547.508	8.87
547.851	8.85
548.194	8.84
548.536	8.83
548.879	8.87
549.222	8.86
549.565	8.88
549.908	8.88
550.25	8.87
550.593	8.86
550.936	8.84
551.278	8.83
551.621	8.83
551.963	8.85
552.306	8.85
552.648	8.83
552.991	8.86
553.333	8.87
553.675	8.9
554.017	8.89
554.36	8.88
554.702	8.85
555.044	8.9
555.386	8.95
555.728	8.96
556.07	8.97
556.412	8.99
556.754	8.98
557.096	8.98
557.438	9
557.78	8.99
558.121	9.03
558.463	9.05
558.805	9.04
559.147	9.03
559.488	9.04
559.83	9.07
560.171	9.04
560.513	9.01
560.854	9.02
561.196	9.04
561.537	9.07
561.878	9.08
562.22	9.04
562.561	9.04
562.902	9.02
563.243	9.01
563.584	9
563.925	9.03
564.266	9.03
564.607	9.04
564.948	9.05
565.289	9.02
565.63	9.05
565.971	9.05
566.312	9.05
566.653	9.07
566.993	9.05
567.334	9.05
567.675	9.09
568.015	9.08
568.356	9.09
568.696	9.11
569.037	9.11
569.377	9.13
569.718	9.12
570.058	9.13
570.398	9.11
570.739	9.14
571.079	9.14
571.419	9.13
571.759	9.13
572.099	9.13
572.439	9.14
572.779	9.11
573.119	9.15
573.459	9.19
573.799	9.19
574.139	9.24
574.479	9.24
574.819	9.24
575.158	9.26
575.498	9.27
575.838	9.25
576.177	9.24
576.517	9.23
576.856	9.23
577.196	9.2
577.535	9.2
577.875	9.18
578.214	9.17
578.553	9.19
578.893	9.2
579.232	9.19
579.571	9.17
579.91	9.16
580.25	9.15
580.589	9.14
580.928	9.14
581.267	9.07
581.606	9.05
581.945	9.05
582.283	9.02
582.622	8.99
582.961	9.02
583.3	9.03
583.639	9.04
583.977	9.07
584.316	9.08
584.654	9.1
584.993	9.09
585.332	9.12
585.67	9.09
586.008	9.08
586.347	9.07
586.685	9.08
587.024	9.13
587.362	9.11
587.7	9.06
588.038	9.08
588.376	9.11
588.715	9.13
589.053	9.15
589.391	9.18
589.729	9.19
590.067	9.14
590.404	9.16
590.742	9.2
591.08	9.19
591.418	9.21
591.756	9.19
592.093	9.21
592.431	9.22
592.769	9.27
593.106	9.25
593.444	9.27
593.781	9.25
594.119	9.23
594.456	9.21
594.793	9.23
595.131	9.22
595.468	9.24
595.805	9.25
596.143	9.25
596.48	9.26
596.817	9.27
597.154	9.32
597.491	9.31
597.828	9.28
598.165	9.28
598.502	9.24
598.839	9.24
599.176	9.22
599.512	9.19
599.849	9.18
600.186	9.22
600.523	9.27
600.859	9.32
601.196	9.34
601.532	9.36
601.869	9.39
602.205	9.38
602.542	9.42
602.878	9.4
603.215	9.41
603.551	9.42
603.887	9.41
604.223	9.39
604.56	9.44
604.896	9.45
605.232	9.49
605.568	9.53
605.904	9.55
606.24	9.6
606.576	9.6
606.912	9.59
607.248	9.59
607.583	9.56
607.919	9.55
608.255	9.54
608.591	9.56
608.926	9.55
609.262	9.56
609.597	9.55
609.933	9.55
610.268	9.5
610.604	9.53
610.939	9.54
611.275	9.55
611.61	9.51
611.945	9.54
612.281	9.47
612.616	9.49
612.951	9.53
613.286	9.53
613.621	9.51
613.956	9.54
614.291	9.55
614.626	9.55
614.961	9.5
615.296	9.51
615.631	9.49
615.966	9.48
616.3	9.49
616.635	9.47
616.97	9.45
617.304	9.5
617.639	9.41
617.973	9.44
618.308	9.41
618.642	9.39
618.977	9.36
619.311	9.37
619.646	9.35
619.98	9.31
620.314	9.27
620.648	9.32
620.983	9.29
621.317	9.33
621.651	9.39
621.985	9.42
622.319	9.42
622.653	9.44
622.987	9.5
623.321	9.47
623.655	9.52
623.988	9.61
624.322	9.64
624.656	9.73
624.99	9.73
625.323	9.76
625.657	9.79
625.99	9.83
626.324	9.82
626.657	9.82
626.991	9.85
627.324	9.85
627.658	9.89
627.991	9.93
628.324	9.93
628.657	9.88
628.991	9.9
629.324	9.92
629.657	9.9
629.99	9.83
630.323	9.86
630.656	9.82
630.989	9.82
631.322	9.84
631.655	9.81
631.987	9.79
632.32	9.76
632.653	9.73
632.986	9.75
633.318	9.79
633.651	9.83
633.984	9.81
634.316	9.87
634.649	9.79
634.981	9.79
635.313	9.74
635.646	9.8
635.978	9.81
636.31	9.83
636.643	9.82
636.975	9.87
637.307	9.89
637.639	9.88
637.971	9.85
638.303	9.81
638.635	9.76
638.967	9.73
639.299	9.76
639.631	9.8
639.963	9.71
640.295	9.73
640.626	9.71
640.958	9.73
641.29	9.69
641.621	9.72
641.953	9.7
642.285	9.76
642.616	9.79
642.948	9.73
643.279	9.73
643.61	9.74
643.942	9.72
644.273	9.72
644.604	9.75
644.936	9.65
645.267	9.68
645.598	9.74
645.929	9.8
646.26	9.89
646.591	9.87
646.922	9.94
647.253	9.91
647.584	9.9
647.915	9.96
648.245	9.94
648.576	9.92
648.907	9.93
649.238	9.93
649.568	9.82
649.899	9.87
650.229	9.88
650.56	9.94
650.89	9.95
651.221	9.96
651.551	9.91
651.882	9.98
652.212	9.95
652.542	9.93
652.872	9.86
653.203	9.8
653.533	9.76
653.863	9.75
654.193	9.77
654.523	9.8
654.853	9.72
655.183	9.8
655.513	9.82
655.843	9.82
656.172	9.73
656.502	9.76
656.832	9.71
657.162	9.72
657.491	9.72
657.821	9.71
658.15	9.67
658.48	9.72
658.809	9.8
659.139	9.88
659.468	9.86
659.798	9.89
660.127	9.91
660.456	9.96
660.785	9.95
661.115	9.98
661.444	9.95
661.773	10
662.102	9.91
662.431	9.9
662.76	9.94
663.089	9.97
663.418	10
663.747	10.08
664.076	10.08
664.404	10.03
664.733	10.14
665.062	10.19
665.39	10.17
665.719	10.1
666.048	9.98
666.376	9.95
666.705	9.93
667.033	9.92
667.362	10
667.69	10.03
668.018	10.03
668.347	10.06
668.675	10.02
669.003	10.12
669.331	10.21
669.659	10.17
669.987	10.18
670.315	10.13
670.643	10.05
670.971	10.1
671.299	10.2
671.627	10.05
671.955	10.09
672.283	10.12
672.61	10.12
672.938	10.25
673.266	10.26
673.593	10.4
673.921	10.32
674.249	10.28
674.576	10.22
674.904	10.17
675.231	10.18
675.558	10.26
675.886	10.17
676.213	10.12
