Data from BA57758_Reflection_00012.txt Node
Date: Mon Nov 18 15:11:47 EST 2019
User: vgr7
Spectrometer: USB2G7710
Scans to average: 3
Trigger mode: 4
Integration Time (sec): 2.000000E-2
Electric dark correction enabled: true
Boxcar width: 10
XAxis mode: Wavelengths
Number of Pixels in Spectrum: 2048
>>>>>Begin Spectral Data<<<<<
177.721	-976.92
178.105	-30.04
178.488	-142.82
178.871	-144.92
179.254	-126.91
179.636	451.69
180.019	1367.33
180.402	-620
180.785	-159.63
181.168	48.37
181.55	38.81
181.933	93.92
182.316	75.56
182.698	59.96
183.081	23.01
183.463	-128.29
183.846	-31.15
184.228	2.87
184.611	37.43
184.993	-36.87
185.376	-53.34
185.758	-68.36
186.14	-25.8
186.522	-34.42
186.904	-54.32
187.287	-34.06
187.669	-35.96
188.051	-2.71
188.433	20.69
188.815	42.81
189.197	76.55
189.579	130.77
189.961	78.24
190.342	326.15
190.724	659.24
191.106	619.34
191.488	1387.67
191.869	-478.4
192.251	-189.18
192.633	-177.05
193.014	-233.77
193.396	-313.35
193.777	-473.5
194.159	-564.35
194.54	-279.34
194.922	-266.18
195.303	-210.87
195.684	-186.59
196.065	-98.16
196.447	-95.87
196.828	-123.7
197.209	-91.41
197.59	-90.82
197.971	-67.55
198.352	-62.3
198.733	-64.88
199.114	-68.76
199.495	-77.48
199.876	-87.01
200.257	-79.09
200.638	-95.01
201.018	-106.35
201.399	-80.42
201.78	-50.77
202.16	-67.96
202.541	-67.93
202.922	-98.28
203.302	-129.2
203.683	-152.08
204.063	-279.67
204.444	-297.75
204.824	-236.59
205.204	-548.82
205.585	-362.76
205.965	-570.5
206.345	-442.16
206.725	-846.09
207.106	-1175.06
207.486	-908.98
207.866	-847.72
208.246	-1736.58
208.626	-2225.79
209.006	-658.62
209.386	19460
209.766	-1000.64
210.145	-691.74
210.525	-1199.68
210.905	-198.56
211.285	-122.32
211.664	-63.89
212.044	-60.56
212.424	-57.22
212.803	-65.8
213.183	-49.67
213.562	-41.04
213.942	-32.88
214.321	-21.03
214.701	-30.32
215.08	-31.86
215.459	-14.53
215.838	-7.66
216.218	-9.15
216.597	2.81
216.976	9.15
217.355	5.58
217.734	-2.37
218.113	3.18
218.492	-7.81
218.871	-7.02
219.25	2.02
219.629	-6.06
220.008	-10.24
220.387	-6.72
220.766	0.23
221.144	-9.12
221.523	-21.45
221.902	-30.31
222.28	-39.93
222.659	-20.26
223.037	-9.05
223.416	-9.37
223.794	-12.25
224.173	-12.38
224.551	-7.61
224.929	-10.51
225.308	-0.49
225.686	5.18
226.064	7.72
226.442	10.51
226.821	13.3
227.199	7.08
227.577	4.86
227.955	3.38
228.333	4.36
228.711	5.65
229.089	7.43
229.467	5.61
229.845	3.05
230.222	2.54
230.6	4.17
230.978	2.24
231.356	1.74
231.733	2.38
232.111	2.62
232.488	2.26
232.866	2.38
233.243	1.84
233.621	-1.27
233.998	0.04
234.376	-2.29
234.753	-4.78
235.13	-3.43
235.508	-1.86
235.885	-1.53
236.262	-2.67
236.639	-0.89
237.016	-0.71
237.393	1.57
237.77	3.95
238.147	5.26
238.524	5.36
238.901	5.35
239.278	5.62
239.655	6.01
240.032	5.96
240.409	5.49
240.785	5.21
241.162	5.59
241.539	6.31
241.915	5.73
242.292	5.54
242.668	6.07
243.045	6.11
243.421	6.21
243.798	6
244.174	6.29
244.551	5.82
244.927	5.29
245.303	5.1
245.679	4.83
246.056	4.62
246.432	4.28
246.808	4.5
247.184	4.33
247.56	3.99
247.936	3.87
248.312	3.97
248.688	3.94
249.064	3.73
249.44	3.78
249.815	3.99
250.191	4.15
250.567	4.11
250.943	3.76
251.318	3.61
251.694	3.92
252.069	3.86
252.445	3.86
252.82	4.12
253.196	4.04
253.571	4.15
253.947	4.15
254.322	4.39
254.697	4.02
255.073	3.94
255.448	3.83
255.823	3.98
256.198	3.84
256.573	3.94
256.948	4.1
257.323	3.84
257.698	3.72
258.073	3.85
258.448	3.79
258.823	3.97
259.198	3.91
259.573	3.69
259.948	3.5
260.322	3.47
260.697	3.45
261.072	3.44
261.446	3.36
261.821	3.37
262.195	3.46
262.57	3.48
262.944	3.48
263.319	3.54
263.693	3.31
264.067	3.43
264.442	3.3
264.816	3.09
265.19	3.17
265.564	2.98
265.938	2.89
266.313	2.77
266.687	2.79
267.061	2.88
267.435	2.95
267.809	2.96
268.183	2.99
268.556	3.09
268.93	3.18
269.304	3.26
269.678	3.28
270.051	3.14
270.425	3.36
270.799	3.46
271.172	3.37
271.546	3.63
271.919	3.47
272.293	3.58
272.666	3.62
273.04	3.69
273.413	3.76
273.787	3.84
274.16	3.98
274.533	3.94
274.906	4.01
275.279	3.93
275.653	3.86
276.026	3.81
276.399	3.77
276.772	3.86
277.145	3.76
277.518	3.7
277.891	3.59
278.263	3.27
278.636	3.19
279.009	3.41
279.382	3.36
279.755	3.47
280.127	3.74
280.5	3.96
280.872	3.85
281.245	3.75
281.617	3.79
281.99	3.78
282.362	3.74
282.735	3.48
283.107	3.61
283.479	3.83
283.852	3.93
284.224	3.99
284.596	3.83
284.968	3.79
285.34	3.86
285.713	3.94
286.085	4.16
286.457	4.22
286.829	4.13
287.201	4.08
287.572	4.09
287.944	3.93
288.316	3.79
288.688	3.79
289.06	3.88
289.431	3.82
289.803	3.89
290.175	3.94
290.546	4.05
290.918	4.02
291.289	4.02
291.661	3.96
292.032	3.91
292.403	4.07
292.775	4.27
293.146	4.36
293.517	4.53
293.889	4.4
294.26	4.38
294.631	4.43
295.002	4.46
295.373	4.5
295.744	4.52
296.115	4.62
296.486	4.55
296.857	4.63
297.228	4.71
297.599	4.6
297.97	4.62
298.34	4.78
298.711	4.77
299.082	4.8
299.452	4.95
299.823	5.06
300.194	5.08
300.564	5.05
300.935	5.04
301.305	4.97
301.676	5.17
302.046	5.28
302.416	5.41
302.787	5.45
303.157	5.53
303.527	5.58
303.897	5.61
304.267	5.84
304.637	5.77
305.008	5.93
305.378	6.22
305.748	6.39
306.117	6.21
306.487	6.45
306.857	6.51
307.227	6.55
307.597	6.55
307.967	6.61
308.336	6.73
308.706	6.76
309.076	6.86
309.445	6.78
309.815	6.74
310.184	6.6
310.554	6.7
310.923	6.78
311.293	6.92
311.662	7
312.031	7.11
312.401	7.17
312.77	7.07
313.139	7
313.508	6.99
313.877	7.01
314.246	7.05
314.616	7
314.985	6.95
315.353	7.09
315.722	7.23
316.091	7.16
316.46	7.3
316.829	7.34
317.198	7.45
317.567	7.5
317.935	7.63
318.304	7.66
318.672	7.57
319.041	7.55
319.41	7.52
319.778	7.47
320.147	7.63
320.515	7.75
320.883	7.74
321.252	7.79
321.62	8.18
321.988	8.21
322.357	8.3
322.725	8.32
323.093	8.27
323.461	8.19
323.829	8.24
324.197	8.31
324.565	8.27
324.933	8.42
325.301	8.47
325.669	8.51
326.037	8.57
326.405	8.63
326.772	8.69
327.14	8.64
327.508	8.63
327.875	8.58
328.243	8.62
328.61	8.74
328.978	8.78
329.346	8.62
329.713	8.48
330.08	8.47
330.448	8.43
330.815	8.37
331.182	8.45
331.55	8.55
331.917	8.46
332.284	8.64
332.651	8.66
333.018	8.66
333.385	8.7
333.752	8.81
334.119	8.86
334.486	8.74
334.853	8.82
335.22	8.8
335.587	8.85
335.954	8.9
336.32	8.81
336.687	8.91
337.054	8.98
337.42	9.11
337.787	9.3
338.153	9.45
338.52	9.61
338.886	9.49
339.253	9.41
339.619	9.39
339.986	9.32
340.352	9.25
340.718	9.27
341.084	9.21
341.451	9.24
341.817	9.34
342.183	9.42
342.549	9.43
342.915	9.59
343.281	9.48
343.647	9.43
344.013	9.47
344.379	9.33
344.745	9.33
345.11	9.28
345.476	9.15
345.842	9.15
346.208	9.08
346.573	9.13
346.939	9.25
347.304	9.28
347.67	9.26
348.035	9.29
348.401	9.3
348.766	9.39
349.132	9.27
349.497	9.23
349.862	9.27
350.228	9.33
350.593	9.19
350.958	9.35
351.323	9.28
351.688	9.23
352.053	9.34
352.418	9.31
352.783	9.29
353.148	9.32
353.513	9.36
353.878	9.39
354.243	9.39
354.608	9.34
354.972	9.35
355.337	9.35
355.702	9.38
356.066	9.38
356.431	9.29
356.795	9.38
357.16	9.33
357.524	9.27
357.889	9.17
358.253	9.25
358.618	9.2
358.982	9.16
359.346	9.13
359.71	9.04
360.075	9.02
360.439	8.92
360.803	8.87
361.167	8.81
361.531	8.77
361.895	8.74
362.259	8.65
362.623	8.63
362.987	8.56
363.351	8.47
363.714	8.45
364.078	8.46
364.442	8.38
364.806	8.32
365.169	8.29
365.533	8.27
365.896	8.15
366.26	8.12
366.623	8.12
366.987	8.11
367.35	8.09
367.714	8
368.077	8.03
368.44	8.04
368.803	7.98
369.167	7.93
369.53	7.88
369.893	7.95
370.256	7.91
370.619	7.91
370.982	7.84
371.345	7.77
371.708	7.67
372.071	7.58
372.434	7.56
372.797	7.49
373.159	7.42
373.522	7.39
373.885	7.35
374.247	7.33
374.61	7.31
374.973	7.21
375.335	7.22
375.698	7.14
376.06	7.07
376.423	7.03
376.785	7.02
377.147	6.97
377.51	6.79
377.872	6.76
378.234	6.66
378.596	6.65
378.958	6.6
379.321	6.6
379.683	6.54
380.045	6.48
380.407	6.46
380.769	6.43
381.13	6.36
381.492	6.28
381.854	6.19
382.216	6.11
382.578	6.11
382.939	6.03
383.301	6
383.663	5.91
384.024	5.84
384.386	5.8
384.747	5.77
385.109	5.81
385.47	5.72
385.832	5.7
386.193	5.67
386.554	5.59
386.916	5.58
387.277	5.57
387.638	5.5
387.999	5.39
388.36	5.35
388.721	5.32
389.082	5.27
389.443	5.22
389.804	5.17
390.165	5.1
390.526	5.08
390.887	5.04
391.248	5.04
391.609	5.02
391.969	4.99
392.33	4.94
392.691	4.87
393.051	4.85
393.412	4.84
393.772	4.78
394.133	4.77
394.493	4.71
394.854	4.65
395.214	4.64
395.574	4.65
395.935	4.63
396.295	4.62
396.655	4.6
397.015	4.58
397.376	4.57
397.736	4.55
398.096	4.52
398.456	4.48
398.816	4.43
399.176	4.36
399.535	4.3
399.895	4.29
400.255	4.27
400.615	4.23
400.975	4.21
401.334	4.2
401.694	4.19
402.054	4.16
402.413	4.14
402.773	4.1
403.132	4.05
403.492	4.03
403.851	4
404.211	3.98
404.57	3.97
404.929	3.95
405.288	3.94
405.648	3.9
406.007	3.92
406.366	3.92
406.725	3.98
407.084	3.99
407.443	3.96
407.802	3.97
408.161	3.93
408.52	3.89
408.879	3.87
409.238	3.84
409.596	3.84
409.955	3.84
410.314	3.87
410.673	3.86
411.031	3.82
411.39	3.8
411.748	3.79
412.107	3.78
412.465	3.75
412.824	3.74
413.182	3.7
413.54	3.68
413.899	3.66
414.257	3.62
414.615	3.61
414.974	3.6
415.332	3.57
415.69	3.58
416.048	3.57
416.406	3.56
416.764	3.55
417.122	3.54
417.48	3.5
417.838	3.48
418.195	3.46
418.553	3.45
418.911	3.44
419.269	3.44
419.626	3.43
419.984	3.42
420.342	3.42
420.699	3.41
421.057	3.4
421.414	3.39
421.772	3.37
422.129	3.36
422.486	3.35
422.844	3.34
423.201	3.31
423.558	3.32
423.915	3.3
424.273	3.28
424.63	3.26
424.987	3.28
425.344	3.27
425.701	3.28
426.058	3.26
426.415	3.26
426.772	3.26
427.128	3.24
427.485	3.23
427.842	3.21
428.199	3.2
428.555	3.19
428.912	3.19
429.269	3.2
429.625	3.16
429.982	3.14
430.338	3.14
430.695	3.17
431.051	3.15
431.407	3.16
431.764	3.18
432.12	3.16
432.476	3.14
432.832	3.12
433.189	3.12
433.545	3.14
433.901	3.13
434.257	3.1
434.613	3.11
434.969	3.13
435.325	3.13
435.681	3.15
436.036	3.16
436.392	3.16
436.748	3.15
437.104	3.15
437.459	3.15
437.815	3.17
438.171	3.16
438.526	3.15
438.882	3.15
439.237	3.15
439.593	3.18
439.948	3.18
440.304	3.2
440.659	3.19
441.014	3.19
441.369	3.19
441.725	3.18
442.08	3.2
442.435	3.18
442.79	3.18
443.145	3.17
443.5	3.15
443.855	3.14
444.21	3.13
444.565	3.14
444.92	3.15
445.275	3.12
445.629	3.1
445.984	3.1
446.339	3.09
446.693	3.06
447.048	3.03
447.403	3.03
447.757	3.01
448.112	3
448.466	2.98
448.82	2.98
449.175	2.97
449.529	2.95
449.883	2.94
450.238	2.93
450.592	2.93
450.946	2.91
451.3	2.89
451.654	2.89
452.008	2.88
452.362	2.86
452.716	2.88
453.07	2.89
453.424	2.9
453.778	2.92
454.132	2.93
454.486	2.91
454.839	2.9
455.193	2.9
455.547	2.91
455.9	2.92
456.254	2.91
456.607	2.92
456.961	2.92
457.314	2.92
457.668	2.94
458.021	2.92
458.375	2.93
458.728	2.94
459.081	2.95
459.434	2.96
459.787	2.98
460.141	2.97
460.494	2.97
460.847	2.96
461.2	2.96
461.553	2.98
461.906	3
462.259	3.01
462.611	3.02
462.964	3.02
463.317	3.02
463.67	3.01
464.022	3.01
464.375	3.01
464.728	3.02
465.08	3.02
465.433	3.04
465.785	3.05
466.138	3.06
466.49	3.08
466.843	3.07
467.195	3.08
467.547	3.11
467.899	3.13
468.252	3.11
468.604	3.11
468.956	3.08
469.308	3.1
469.66	3.08
470.012	3.09
470.364	3.1
470.716	3.1
471.068	3.13
471.42	3.12
471.772	3.15
472.123	3.16
472.475	3.16
472.827	3.17
473.178	3.19
473.53	3.18
473.882	3.16
474.233	3.16
474.585	3.12
474.936	3.09
475.288	3.07
475.639	3.11
475.99	3.11
476.342	3.13
476.693	3.12
477.044	3.14
477.395	3.14
477.746	3.13
478.097	3.12
478.448	3.11
478.8	3.13
479.15	3.1
479.501	3.1
479.852	3.1
480.203	3.08
480.554	3.09
480.905	3.1
481.255	3.12
481.606	3.11
481.957	3.13
482.307	3.13
482.658	3.13
483.009	3.13
483.359	3.12
483.709	3.12
484.06	3.13
484.41	3.12
484.761	3.12
485.111	3.12
485.461	3.13
485.811	3.13
486.162	3.13
486.512	3.14
486.862	3.15
487.212	3.15
487.562	3.16
487.912	3.16
488.262	3.16
488.612	3.15
488.961	3.16
489.311	3.16
489.661	3.18
490.011	3.19
490.36	3.18
490.71	3.19
491.06	3.2
491.409	3.2
491.759	3.21
492.108	3.23
492.458	3.23
492.807	3.23
493.157	3.23
493.506	3.25
493.855	3.24
494.204	3.23
494.554	3.26
494.903	3.26
495.252	3.27
495.601	3.28
495.95	3.31
496.299	3.34
496.648	3.35
496.997	3.34
497.346	3.37
497.695	3.42
498.043	3.44
498.392	3.46
498.741	3.51
499.09	3.51
499.438	3.56
499.787	3.62
500.135	3.67
500.484	3.72
500.832	3.75
501.181	3.81
501.529	3.87
501.878	3.89
502.226	3.95
502.574	4
502.923	4.04
503.271	4.08
503.619	4.14
503.967	4.19
504.315	4.26
504.663	4.3
505.011	4.35
505.359	4.4
505.707	4.46
506.055	4.51
506.403	4.58
506.751	4.62
507.098	4.67
507.446	4.74
507.794	4.79
508.141	4.86
508.489	4.93
508.837	4.99
509.184	5.06
509.531	5.13
509.879	5.19
510.226	5.28
510.574	5.34
510.921	5.4
511.268	5.48
511.616	5.55
511.963	5.64
512.31	5.71
512.657	5.81
513.004	5.91
513.351	6
513.698	6.09
514.045	6.18
514.392	6.28
514.739	6.36
515.086	6.48
515.432	6.57
515.779	6.66
516.126	6.76
516.473	6.88
516.819	6.99
517.166	7.08
517.512	7.17
517.859	7.29
518.205	7.38
518.552	7.48
518.898	7.58
519.245	7.69
519.591	7.79
519.937	7.88
520.283	7.99
520.629	8.12
520.976	8.27
521.322	8.42
521.668	8.54
522.014	8.68
522.36	8.81
522.706	8.99
523.052	9.19
523.398	9.39
523.743	9.57
524.089	9.76
524.435	9.96
524.781	10.17
525.126	10.34
525.472	10.51
525.817	10.66
526.163	10.81
526.509	10.95
526.854	11.09
527.199	11.25
527.545	11.37
527.89	11.51
528.235	11.65
528.581	11.79
528.926	11.94
529.271	12.09
529.616	12.23
529.961	12.36
530.306	12.5
530.651	12.66
530.996	12.83
531.341	13.01
531.686	13.18
532.031	13.35
532.376	13.55
532.721	13.74
533.065	13.95
533.41	14.16
533.755	14.38
534.099	14.58
534.444	14.81
534.788	15.03
535.133	15.22
535.477	15.44
535.822	15.68
536.166	15.96
536.51	16.24
536.855	16.55
537.199	16.85
537.543	17.19
537.887	17.53
538.231	17.84
538.576	18.16
538.92	18.5
539.264	18.8
539.608	19.07
539.951	19.38
540.295	19.66
540.639	19.95
540.983	20.21
541.327	20.48
541.671	20.7
542.014	20.94
542.358	21.22
542.701	21.47
543.045	21.7
543.389	21.95
543.732	22.21
544.075	22.48
544.419	22.76
544.762	23.02
545.105	23.28
545.449	23.6
545.792	23.91
546.135	24.23
546.478	24.58
546.821	24.93
547.165	25.26
547.508	25.6
547.851	25.94
548.194	26.29
548.536	26.7
548.879	27.07
549.222	27.44
549.565	27.8
549.908	28.15
550.25	28.52
550.593	28.87
550.936	29.26
551.278	29.64
551.621	30.05
551.963	30.43
552.306	30.83
552.648	31.16
552.991	31.54
553.333	31.89
553.675	32.21
554.017	32.55
554.36	32.84
554.702	33.17
555.044	33.49
555.386	33.78
555.728	34.06
556.07	34.42
556.412	34.78
556.754	35.12
557.096	35.44
557.438	35.81
557.78	36.15
558.121	36.4
558.463	36.67
558.805	36.96
559.147	37.23
559.488	37.51
559.83	37.85
560.171	38.14
560.513	38.39
560.854	38.73
561.196	39
561.537	39.33
561.878	39.6
562.22	39.89
562.561	40.16
562.902	40.43
563.243	40.69
563.584	40.96
563.925	41.22
564.266	41.52
564.607	41.72
564.948	41.95
565.289	42.24
565.63	42.5
565.971	42.67
566.312	42.89
566.653	43.11
566.993	43.24
567.334	43.51
567.675	43.75
568.015	43.93
568.356	44.21
568.696	44.39
569.037	44.56
569.377	44.79
569.718	45.05
570.058	45.22
570.398	45.42
570.739	45.59
571.079	45.71
571.419	45.86
571.759	46.06
572.099	46.21
572.439	46.31
572.779	46.43
573.119	46.64
573.459	46.8
573.799	46.98
574.139	47.17
574.479	47.29
574.819	47.45
575.158	47.66
575.498	47.76
575.838	47.9
576.177	48.1
576.517	48.25
576.856	48.34
577.196	48.55
577.535	48.68
577.875	48.87
578.214	49.09
578.553	49.26
578.893	49.41
579.232	49.61
579.571	49.82
579.91	50.03
580.25	50.16
580.589	50.34
580.928	50.46
581.267	50.6
581.606	50.74
581.945	50.83
582.283	50.96
582.622	51.11
582.961	51.27
583.3	51.4
583.639	51.49
583.977	51.73
584.316	51.8
584.654	52.01
584.993	52.14
585.332	52.2
585.67	52.27
586.008	52.36
586.347	52.46
586.685	52.58
587.024	52.71
587.362	52.8
587.7	52.87
588.038	52.95
588.376	53.07
588.715	53.22
589.053	53.29
589.391	53.39
589.729	53.52
590.067	53.57
590.404	53.59
590.742	53.66
591.08	53.69
591.418	53.8
591.756	53.9
592.093	53.98
592.431	54.13
592.769	54.31
593.106	54.41
593.444	54.52
593.781	54.6
594.119	54.71
594.456	54.8
594.793	54.89
595.131	55.02
595.468	55.1
595.805	55.15
596.143	55.24
596.48	55.22
596.817	55.28
597.154	55.42
597.491	55.56
597.828	55.7
598.165	55.8
598.502	55.87
598.839	55.87
599.176	55.91
599.512	55.96
599.849	55.98
600.186	56.06
600.523	56.12
600.859	56.15
601.196	56.19
601.532	56.31
601.869	56.41
602.205	56.48
602.542	56.47
602.878	56.51
603.215	56.51
603.551	56.61
603.887	56.64
604.223	56.65
604.56	56.68
604.896	56.71
605.232	56.7
605.568	56.74
605.904	56.79
606.24	56.87
606.576	56.96
606.912	57.05
607.248	57.16
607.583	57.23
607.919	57.27
608.255	57.32
608.591	57.37
608.926	57.36
609.262	57.34
609.597	57.49
609.933	57.53
610.268	57.62
610.604	57.71
610.939	57.73
611.275	57.77
611.61	57.8
611.945	57.82
612.281	57.93
612.616	57.99
612.951	58.05
613.286	58.08
613.621	58.11
613.956	58.19
614.291	58.16
614.626	58.25
614.961	58.33
615.296	58.23
615.631	58.25
615.966	58.38
616.3	58.41
616.635	58.45
616.97	58.44
617.304	58.54
617.639	58.62
617.973	58.71
618.308	58.84
618.642	58.97
618.977	59.08
619.311	59.11
619.646	59.12
619.98	59.16
620.314	59.22
620.648	59.22
620.983	59.18
621.317	59.15
621.651	59.13
621.985	59.18
622.319	59.31
622.653	59.28
622.987	59.34
623.321	59.41
623.655	59.36
623.988	59.51
624.322	59.49
624.656	59.44
624.99	59.44
625.323	59.43
625.657	59.44
625.99	59.39
626.324	59.34
626.657	59.36
626.991	59.41
627.324	59.4
627.658	59.49
627.991	59.55
628.324	59.64
628.657	59.62
628.991	59.72
629.324	59.74
629.657	59.86
629.99	59.86
630.323	59.85
630.656	59.95
630.989	59.99
631.322	59.95
631.655	60.09
631.987	60.21
632.32	60.23
632.653	60.22
632.986	60.27
633.318	60.29
633.651	60.27
633.984	60.27
634.316	60.35
634.649	60.21
634.981	60.32
635.313	60.27
635.646	60.36
635.978	60.27
636.31	60.32
636.643	60.25
636.975	60.3
637.307	60.43
637.639	60.36
637.971	60.28
638.303	60.37
638.635	60.22
638.967	60.14
639.299	60.15
639.631	60.11
639.963	60.09
640.295	60.19
640.626	60.23
640.958	60.16
641.29	60.14
641.621	60.29
641.953	60.08
642.285	60.22
642.616	60.24
642.948	60.28
643.279	60.28
643.61	60.22
643.942	60.2
644.273	60.23
644.604	60.23
644.936	60.23
645.267	60.26
645.598	60.2
645.929	60.23
646.26	60.21
646.591	60.29
646.922	60.34
647.253	60.26
647.584	60.32
647.915	60.43
648.245	60.48
648.576	60.46
648.907	60.49
649.238	60.52
649.568	60.59
649.899	60.55
650.229	60.64
650.56	60.78
650.89	60.72
651.221	60.72
651.551	60.78
651.882	60.88
652.212	60.86
652.542	60.92
652.872	60.94
653.203	60.95
653.533	60.97
653.863	61.1
654.193	61.14
654.523	61.19
654.853	61.29
655.183	61.3
655.513	61.22
655.843	61.36
656.172	61.25
656.502	61.24
656.832	61.31
657.162	61.34
657.491	61.33
657.821	61.37
658.15	61.31
658.48	61.31
658.809	61.32
659.139	61.45
659.468	61.58
659.798	61.64
660.127	61.77
660.456	61.73
660.785	61.6
661.115	61.61
661.444	61.58
661.773	61.42
662.102	61.36
662.431	61.52
662.76	61.47
663.089	61.54
663.418	61.52
663.747	61.55
664.076	61.45
664.404	61.37
664.733	61.46
665.062	61.5
665.39	61.52
665.719	61.43
666.048	61.32
666.376	61.29
666.705	61.19
667.033	61.01
