Data from BA57662_Reflection_00008.txt Node
Date: Mon Nov 18 15:34:37 EST 2019
User: vgr7
Spectrometer: USB2G7710
Scans to average: 3
Trigger mode: 4
Integration Time (sec): 2.000000E-2
Electric dark correction enabled: true
Boxcar width: 10
XAxis mode: Wavelengths
Number of Pixels in Spectrum: 2048
>>>>>Begin Spectral Data<<<<<
177.721	-122.67
178.105	-68.36
178.488	-22.99
178.871	-36.56
179.254	88.61
179.636	-5.26
180.019	282.36
180.402	182.35
180.785	-97.52
181.168	-191.78
181.55	-278.09
181.933	41.79
182.316	51.69
182.698	29.11
183.081	5.64
183.463	-63.09
183.846	-55.51
184.228	-26.49
184.611	-22.37
184.993	-91.56
185.376	-103.03
185.758	-60.05
186.14	-84.09
186.522	-4.21
186.904	30.02
187.287	-95.22
187.669	45.48
188.051	20.3
188.433	45.05
188.815	22.67
189.197	17.01
189.579	42.2
189.961	39.2
190.342	44.21
190.724	35.72
191.106	40.76
191.488	21.83
191.869	28.06
192.251	49.33
192.633	67.9
193.014	57.19
193.396	77.68
193.777	116.2
194.159	136.32
194.54	172.7
194.922	188.41
195.303	130.11
195.684	156.71
196.065	109.71
196.447	142.52
196.828	145.89
197.209	135.96
197.59	70.86
197.971	63.73
198.352	94
198.733	79.08
199.114	86.47
199.495	80.47
199.876	71.83
200.257	72.55
200.638	71.85
201.018	63.68
201.399	51.14
201.78	57.35
202.16	41.01
202.541	26.53
202.922	13.11
203.302	16.78
203.683	15.59
204.063	-8.9
204.444	-2.39
204.824	-14.93
205.204	-17.58
205.585	-2.1
205.965	9.22
206.345	-23.08
206.725	-25.72
207.106	-37.08
207.486	-49.46
207.866	-46.39
208.246	-64.69
208.626	-65.38
209.006	-27.21
209.386	-44.19
209.766	-44.75
210.145	-31.59
210.525	-32.87
210.905	-2.76
211.285	-5.6
211.664	-3.58
212.044	15.8
212.424	24
212.803	22.08
213.183	28.97
213.562	39.93
213.942	40.82
214.321	42.08
214.701	47.66
215.08	37.4
215.459	37.03
215.838	44.87
216.218	32.03
216.597	35.16
216.976	22.93
217.355	22.83
217.734	24.47
218.113	35.25
218.492	34.56
218.871	31.77
219.25	34.95
219.629	26.42
220.008	20.98
220.387	20.74
220.766	16.65
221.144	7.53
221.523	0.35
221.902	-5.03
222.28	-11.91
222.659	3.7
223.037	4.58
223.416	-3.77
223.794	-11.99
224.173	-2.73
224.551	3.58
224.929	1.33
225.308	4.4
225.686	3.96
226.064	4.77
226.442	4.64
226.821	6.49
227.199	3.36
227.577	5.07
227.955	6.56
228.333	7.63
228.711	9.55
229.089	14.41
229.467	13.52
229.845	13.2
230.222	15.46
230.6	12.5
230.978	10.99
231.356	14.05
231.733	14.51
232.111	16.55
232.488	14.93
232.866	14.45
233.243	14.61
233.621	15.41
233.998	14.52
234.376	14.13
234.753	11.72
235.13	12.48
235.508	12.57
235.885	11.77
236.262	10.83
236.639	9.41
237.016	8.48
237.393	8.33
237.77	9.12
238.147	8.97
238.524	8.86
238.901	8.85
239.278	7.95
239.655	7.69
240.032	7.35
240.409	6.77
240.785	6.43
241.162	6.79
241.539	5.98
241.915	5.84
242.292	5.91
242.668	6.05
243.045	6
243.421	5.33
243.798	4.97
244.174	4.57
244.551	4.78
244.927	4.51
245.303	4.41
245.679	4.13
246.056	4.08
246.432	4.26
246.808	4.2
247.184	3.94
247.56	3.71
247.936	3.32
248.312	3.41
248.688	3.57
249.064	3.33
249.44	3.5
249.815	3.46
250.191	3.4
250.567	3.33
250.943	3.32
251.318	3.67
251.694	3.84
252.069	4.03
252.445	4.21
252.82	4.43
253.196	4.45
253.571	4.6
253.947	4.44
254.322	4.41
254.697	4.64
255.073	4.56
255.448	4.63
255.823	4.81
256.198	4.86
256.573	4.57
256.948	4.67
257.323	4.54
257.698	4.37
258.073	4.41
258.448	4.42
258.823	4.31
259.198	4.2
259.573	4.11
259.948	3.98
260.322	3.88
260.697	3.81
261.072	3.75
261.446	3.86
261.821	3.9
262.195	3.81
262.57	3.73
262.944	3.86
263.319	3.87
263.693	3.84
264.067	3.88
264.442	4.17
264.816	4.06
265.19	4.12
265.564	4.29
265.938	3.98
266.313	4.18
266.687	4.31
267.061	4.32
267.435	4.26
267.809	4.48
268.183	4.42
268.556	4.39
268.93	4.69
269.304	4.43
269.678	4.42
270.051	4.48
270.425	4.38
270.799	4.35
271.172	4.47
271.546	4.55
271.919	4.36
272.293	4.23
272.666	4.35
273.04	4.27
273.413	4.24
273.787	4.34
274.16	4.27
274.533	4.19
274.906	4.15
275.279	4.12
275.653	4.08
276.026	4.1
276.399	4.02
276.772	3.85
277.145	3.94
277.518	3.95
277.891	4.03
278.263	4.09
278.636	4.23
279.009	4.09
279.382	4.12
279.755	4.01
280.127	3.99
280.5	3.92
280.872	3.92
281.245	3.8
281.617	3.98
281.99	3.91
282.362	3.95
282.735	3.87
283.107	3.85
283.479	3.8
283.852	3.75
284.224	3.81
284.596	3.74
284.968	3.73
285.34	3.57
285.713	3.46
286.085	3.47
286.457	3.5
286.829	3.43
287.201	3.28
287.572	3.31
287.944	3.31
288.316	3.23
288.688	3.1
289.06	3.14
289.431	3.14
289.803	3.25
290.175	3.25
290.546	3.42
290.918	3.45
291.289	3.41
291.661	3.54
292.032	3.63
292.403	3.71
292.775	3.71
293.146	3.76
293.517	3.78
293.889	3.81
294.26	3.67
294.631	3.85
295.002	3.88
295.373	3.97
295.744	3.91
296.115	3.9
296.486	3.94
296.857	3.97
297.228	3.91
297.599	3.79
297.97	3.79
298.34	3.68
298.711	3.65
299.082	3.67
299.452	3.67
299.823	3.8
300.194	3.82
300.564	3.74
300.935	3.88
301.305	3.89
301.676	3.93
302.046	3.96
302.416	4.03
302.787	4
303.157	3.99
303.527	4.14
303.897	4.26
304.267	4.51
304.637	4.52
305.008	4.72
305.378	4.78
305.748	4.83
306.117	4.83
306.487	5.01
306.857	5.07
307.227	5.21
307.597	5.06
307.967	5.05
308.336	5.23
308.706	5.29
309.076	5.34
309.445	5.3
309.815	5.33
310.184	5.21
310.554	5.36
310.923	5.34
311.293	5.3
311.662	5.27
312.031	5.19
312.401	5.33
312.77	5.34
313.139	5.4
313.508	5.43
313.877	5.61
314.246	5.72
314.616	5.74
314.985	5.66
315.353	5.73
315.722	5.88
316.091	5.91
316.46	5.78
316.829	5.78
317.198	5.94
317.567	6.09
317.935	6.2
318.304	6.28
318.672	6.35
319.041	6.52
319.41	6.58
319.778	6.67
320.147	6.63
320.515	6.5
320.883	6.56
321.252	6.61
321.62	6.58
321.988	6.39
322.357	6.51
322.725	6.4
323.093	6.45
323.461	6.43
323.829	6.44
324.197	6.66
324.565	6.73
324.933	6.66
325.301	6.71
325.669	6.79
326.037	6.73
326.405	6.82
326.772	6.82
327.14	6.87
327.508	6.93
327.875	6.86
328.243	7.01
328.61	7.04
328.978	7.18
329.346	7.26
329.713	7.36
330.08	7.39
330.448	7.52
330.815	7.37
331.182	7.47
331.55	7.52
331.917	7.46
332.284	7.6
332.651	7.73
333.018	7.72
333.385	7.66
333.752	7.8
334.119	7.8
334.486	7.75
334.853	7.74
335.22	7.61
335.587	7.79
335.954	7.76
336.32	7.76
336.687	7.63
337.054	7.7
337.42	7.82
337.787	7.86
338.153	7.93
338.52	8.11
338.886	8.01
339.253	7.95
339.619	8.04
339.986	7.91
340.352	8.06
340.718	8.04
341.084	8.21
341.451	8.24
341.817	8.28
342.183	8.31
342.549	8.37
342.915	8.59
343.281	8.54
343.647	8.49
344.013	8.54
344.379	8.64
344.745	8.61
345.11	8.61
345.476	8.63
345.842	8.63
346.208	8.66
346.573	8.81
346.939	8.99
347.304	8.87
347.67	8.94
348.035	8.71
348.401	8.74
348.766	8.73
349.132	8.69
349.497	8.64
349.862	8.84
350.228	8.84
350.593	8.75
350.958	8.83
351.323	8.9
351.688	8.89
352.053	8.87
352.418	8.87
352.783	8.81
353.148	8.79
353.513	8.85
353.878	8.77
354.243	8.75
354.608	8.69
354.972	8.75
355.337	8.8
355.702	8.92
356.066	8.93
356.431	8.91
356.795	8.9
357.16	8.87
357.524	8.69
357.889	8.77
358.253	8.81
358.618	8.83
358.982	8.84
359.346	8.79
359.71	8.73
360.075	8.75
360.439	8.71
360.803	8.66
361.167	8.59
361.531	8.58
361.895	8.55
362.259	8.52
362.623	8.54
362.987	8.48
363.351	8.43
363.714	8.45
364.078	8.44
364.442	8.4
364.806	8.46
365.169	8.51
365.533	8.45
365.896	8.4
366.26	8.33
366.623	8.3
366.987	8.27
367.35	8.25
367.714	8.22
368.077	8.2
368.44	8.21
368.803	8.2
369.167	8.13
369.53	8.01
369.893	7.96
370.256	7.92
370.619	7.91
370.982	7.86
371.345	7.76
371.708	7.67
372.071	7.64
372.434	7.49
372.797	7.45
373.159	7.38
373.522	7.26
373.885	7.25
374.247	7.22
374.61	7.22
374.973	7.24
375.335	7.15
375.698	7.15
376.06	7.05
376.423	7.02
376.785	7.06
377.147	7.12
377.51	7.09
377.872	7.05
378.234	7.01
378.596	7.03
378.958	7.03
379.321	7
379.683	6.95
380.045	6.97
380.407	6.9
380.769	6.83
381.13	6.82
381.492	6.74
381.854	6.69
382.216	6.62
382.578	6.56
382.939	6.49
383.301	6.46
383.663	6.4
384.024	6.34
384.386	6.33
384.747	6.23
385.109	6.25
385.47	6.17
385.832	6.12
386.193	6.05
386.554	6
386.916	5.97
387.277	5.94
387.638	5.94
387.999	5.96
388.36	5.95
388.721	5.95
389.082	5.93
389.443	5.9
389.804	5.88
390.165	5.82
390.526	5.8
390.887	5.76
391.248	5.81
391.609	5.76
391.969	5.71
392.33	5.69
392.691	5.63
393.051	5.61
393.412	5.56
393.772	5.47
394.133	5.44
394.493	5.38
394.854	5.33
395.214	5.26
395.574	5.18
395.935	5.16
396.295	5.14
396.655	5.07
397.015	5.01
397.376	4.98
397.736	4.95
398.096	4.94
398.456	4.91
398.816	4.85
399.176	4.79
399.535	4.73
399.895	4.67
400.255	4.63
400.615	4.63
400.975	4.56
401.334	4.55
401.694	4.54
402.054	4.5
402.413	4.5
402.773	4.49
403.132	4.45
403.492	4.4
403.851	4.35
404.211	4.32
404.57	4.29
404.929	4.27
405.288	4.22
405.648	4.16
406.007	4.11
406.366	4.09
406.725	4.1
407.084	4.1
407.443	4.11
407.802	4.07
408.161	4.02
408.52	4.02
408.879	4.02
409.238	3.99
409.596	3.99
409.955	3.93
410.314	3.92
410.673	3.9
411.031	3.91
411.39	3.88
411.748	3.87
412.107	3.91
412.465	3.89
412.824	3.91
413.182	3.89
413.54	3.88
413.899	3.87
414.257	3.82
414.615	3.77
414.974	3.75
415.332	3.74
415.69	3.73
416.048	3.7
416.406	3.68
416.764	3.67
417.122	3.67
417.48	3.68
417.838	3.67
418.195	3.66
418.553	3.62
418.911	3.59
419.269	3.59
419.626	3.56
419.984	3.55
420.342	3.54
420.699	3.53
421.057	3.53
421.414	3.52
421.772	3.52
422.129	3.52
422.486	3.5
422.844	3.48
423.201	3.46
423.558	3.46
423.915	3.45
424.273	3.43
424.63	3.4
424.987	3.39
425.344	3.38
425.701	3.36
426.058	3.37
426.415	3.38
426.772	3.36
427.128	3.33
427.485	3.33
427.842	3.3
428.199	3.29
428.555	3.29
428.912	3.27
429.269	3.26
429.625	3.27
429.982	3.27
430.338	3.29
430.695	3.32
431.051	3.31
431.407	3.3
431.764	3.31
432.12	3.31
432.476	3.29
432.832	3.27
433.189	3.28
433.545	3.24
433.901	3.24
434.257	3.24
434.613	3.26
434.969	3.25
435.325	3.25
435.681	3.26
436.036	3.23
436.392	3.23
436.748	3.22
437.104	3.19
437.459	3.18
437.815	3.18
438.171	3.15
438.526	3.15
438.882	3.15
439.237	3.13
439.593	3.15
439.948	3.13
440.304	3.14
440.659	3.13
441.014	3.14
441.369	3.12
441.725	3.11
442.08	3.09
442.435	3.09
442.79	3.08
443.145	3.06
443.5	3.07
443.855	3.07
444.21	3.06
444.565	3.07
444.92	3.06
445.275	3.04
445.629	3.05
445.984	3.04
446.339	3.03
446.693	3.02
447.048	3
447.403	3
447.757	3
448.112	3
448.466	3
448.82	3
449.175	3.01
449.529	3.02
449.883	3.03
450.238	3.03
450.592	3.03
450.946	3.02
451.3	3
451.654	3
452.008	3
452.362	2.98
452.716	2.99
453.07	2.99
453.424	2.97
453.778	2.96
454.132	2.96
454.486	2.95
454.839	2.94
455.193	2.93
455.547	2.92
455.9	2.93
456.254	2.93
456.607	2.9
456.961	2.89
457.314	2.87
457.668	2.86
458.021	2.85
458.375	2.86
458.728	2.86
459.081	2.86
459.434	2.84
459.787	2.85
460.141	2.84
460.494	2.83
460.847	2.85
461.2	2.86
461.553	2.85
461.906	2.87
462.259	2.89
462.611	2.9
462.964	2.89
463.317	2.88
463.67	2.87
464.022	2.9
464.375	2.89
464.728	2.93
465.08	2.95
465.433	2.97
465.785	2.97
466.138	2.99
466.49	2.99
466.843	3.01
467.195	3
467.547	3.03
467.899	3.04
468.252	3.05
468.604	3.07
468.956	3.06
469.308	3.06
469.66	3.04
470.012	3.05
470.364	3.08
470.716	3.09
471.068	3.13
471.42	3.11
471.772	3.15
472.123	3.14
472.475	3.15
472.827	3.15
473.178	3.15
473.53	3.14
473.882	3.14
474.233	3.13
474.585	3.13
474.936	3.12
475.288	3.13
475.639	3.13
475.99	3.14
476.342	3.15
476.693	3.15
477.044	3.17
477.395	3.15
477.746	3.14
478.097	3.13
478.448	3.12
478.8	3.1
479.15	3.07
479.501	3.06
479.852	3.04
480.203	3.03
480.554	3.02
480.905	3.03
481.255	3.04
481.606	3.06
481.957	3.07
482.307	3.08
482.658	3.07
483.009	3.06
483.359	3.06
483.709	3.06
484.06	3.06
484.41	3.06
484.761	3.06
485.111	3.05
485.461	3.05
485.811	3.05
486.162	3.05
486.512	3.06
486.862	3.06
487.212	3.07
487.562	3.08
487.912	3.08
488.262	3.08
488.612	3.08
488.961	3.07
489.311	3.07
489.661	3.07
490.011	3.08
490.36	3.08
490.71	3.08
491.06	3.08
491.409	3.09
491.759	3.1
492.108	3.11
492.458	3.12
492.807	3.13
493.157	3.13
493.506	3.14
493.855	3.15
494.204	3.17
494.554	3.18
494.903	3.18
495.252	3.2
495.601	3.24
495.95	3.26
496.299	3.28
496.648	3.29
496.997	3.3
497.346	3.31
497.695	3.33
498.043	3.36
498.392	3.36
498.741	3.39
499.09	3.4
499.438	3.42
499.787	3.44
500.135	3.46
500.484	3.49
500.832	3.52
501.181	3.54
501.529	3.59
501.878	3.61
502.226	3.64
502.574	3.65
502.923	3.66
503.271	3.68
503.619	3.71
503.967	3.73
504.315	3.77
504.663	3.79
505.011	3.81
505.359	3.8
505.707	3.85
506.055	3.87
506.403	3.93
506.751	3.95
507.098	3.97
507.446	4.01
507.794	4.02
508.141	4.06
508.489	4.07
508.837	4.07
509.184	4.09
509.531	4.12
509.879	4.15
510.226	4.19
510.574	4.22
510.921	4.23
511.268	4.27
511.616	4.31
511.963	4.36
512.31	4.38
512.657	4.45
513.004	4.5
513.351	4.54
513.698	4.56
514.045	4.6
514.392	4.66
514.739	4.7
515.086	4.75
515.432	4.78
515.779	4.82
516.126	4.87
516.473	4.93
516.819	4.99
517.166	5.01
517.512	5.05
517.859	5.1
518.205	5.14
518.552	5.17
518.898	5.2
519.245	5.24
519.591	5.27
519.937	5.3
520.283	5.32
520.629	5.36
520.976	5.41
521.322	5.47
521.668	5.51
522.014	5.58
522.36	5.64
522.706	5.72
523.052	5.79
523.398	5.87
523.743	5.94
524.089	6
524.435	6.09
524.781	6.17
525.126	6.25
525.472	6.33
525.817	6.4
526.163	6.47
526.509	6.54
526.854	6.61
527.199	6.67
527.545	6.73
527.89	6.79
528.235	6.85
528.581	6.91
528.926	6.98
529.271	7.06
529.616	7.12
529.961	7.19
530.306	7.27
530.651	7.35
530.996	7.44
531.341	7.53
531.686	7.63
532.031	7.72
532.376	7.81
532.721	7.92
533.065	8.05
533.41	8.17
533.755	8.29
534.099	8.41
534.444	8.55
534.788	8.7
535.133	8.84
535.477	8.99
535.822	9.14
536.166	9.32
536.51	9.48
536.855	9.68
537.199	9.89
537.543	10.1
537.887	10.32
538.231	10.53
538.576	10.78
538.92	11
539.264	11.22
539.608	11.44
539.951	11.62
540.295	11.79
540.639	11.99
540.983	12.18
541.327	12.38
541.671	12.56
542.014	12.74
542.358	12.91
542.701	13.12
543.045	13.33
543.389	13.53
543.732	13.76
544.075	13.98
544.419	14.19
544.762	14.41
545.105	14.65
545.449	14.91
545.792	15.16
546.135	15.45
546.478	15.74
546.821	16.04
547.165	16.38
547.508	16.73
547.851	17.07
548.194	17.42
548.536	17.77
548.879	18.15
549.222	18.49
549.565	18.86
549.908	19.21
550.25	19.57
550.593	19.94
550.936	20.25
551.278	20.62
551.621	21.04
551.963	21.44
552.306	21.79
552.648	22.14
552.991	22.47
553.333	22.87
553.675	23.23
554.017	23.55
554.36	23.92
554.702	24.26
555.044	24.56
555.386	24.89
555.728	25.26
556.07	25.59
556.412	25.96
556.754	26.34
557.096	26.71
557.438	27.1
557.78	27.46
558.121	27.9
558.463	28.28
558.805	28.63
559.147	28.99
559.488	29.36
559.83	29.75
560.171	30.11
560.513	30.39
560.854	30.72
561.196	31.07
561.537	31.38
561.878	31.67
562.22	31.98
562.561	32.27
562.902	32.54
563.243	32.84
563.584	33.16
563.925	33.45
564.266	33.67
564.607	33.96
564.948	34.27
565.289	34.54
565.63	34.77
565.971	35.02
566.312	35.27
566.653	35.55
566.993	35.77
567.334	36.03
567.675	36.29
568.015	36.53
568.356	36.77
568.696	37.01
569.037	37.24
569.377	37.51
569.718	37.82
570.058	38.09
570.398	38.33
570.739	38.53
571.079	38.75
571.419	39.06
571.759	39.29
572.099	39.46
572.439	39.66
572.779	39.91
573.119	40.12
573.459	40.3
573.799	40.51
574.139	40.71
574.479	40.88
574.819	41.14
575.158	41.32
575.498	41.59
575.838	41.79
576.177	41.98
576.517	42.19
576.856	42.33
577.196	42.52
577.535	42.74
577.875	42.9
578.214	43.1
578.553	43.18
578.893	43.39
579.232	43.53
579.571	43.71
579.91	43.84
580.25	44.07
580.589	44.23
580.928	44.33
581.267	44.49
581.606	44.71
581.945	44.82
582.283	44.95
582.622	45.05
582.961	45.2
583.3	45.36
583.639	45.54
583.977	45.68
584.316	45.78
584.654	45.87
584.993	46.07
585.332	46.2
585.67	46.32
586.008	46.4
586.347	46.57
586.685	46.68
587.024	46.83
587.362	46.81
587.7	46.88
588.038	47.03
588.376	47.11
588.715	47.21
589.053	47.26
589.391	47.38
589.729	47.44
590.067	47.5
590.404	47.57
590.742	47.6
591.08	47.58
591.418	47.66
591.756	47.8
592.093	47.83
592.431	47.91
592.769	47.98
593.106	47.98
593.444	48.05
593.781	48.15
594.119	48.26
594.456	48.43
594.793	48.49
595.131	48.5
595.468	48.64
595.805	48.68
596.143	48.77
596.48	48.86
596.817	48.95
597.154	49.03
597.491	49.12
597.828	49.1
598.165	49.32
598.502	49.36
598.839	49.4
599.176	49.49
599.512	49.56
599.849	49.63
600.186	49.79
600.523	49.89
600.859	49.99
601.196	50.01
601.532	50.05
601.869	50.17
602.205	50.22
602.542	50.28
602.878	50.33
603.215	50.3
603.551	50.39
603.887	50.48
604.223	50.51
604.56	50.54
604.896	50.64
605.232	50.64
605.568	50.72
605.904	50.77
606.24	50.83
606.576	50.88
606.912	50.96
607.248	50.98
607.583	50.99
607.919	50.93
608.255	50.91
608.591	50.96
608.926	50.97
609.262	51.07
609.597	51.06
609.933	51.11
610.268	51.27
610.604	51.19
610.939	51.15
611.275	51.19
611.61	51.28
611.945	51.37
612.281	51.35
612.616	51.41
612.951	51.49
613.286	51.55
613.621	51.62
613.956	51.68
614.291	51.77
614.626	51.81
614.961	51.95
615.296	52.08
615.631	52.16
615.966	52.25
616.3	52.29
616.635	52.28
616.97	52.3
617.304	52.24
617.639	52.35
617.973	52.45
618.308	52.43
618.642	52.44
618.977	52.47
619.311	52.57
619.646	52.62
619.98	52.67
620.314	52.71
620.648	52.73
620.983	52.71
621.317	52.67
621.651	52.75
621.985	52.72
622.319	52.74
622.653	52.78
622.987	52.82
623.321	52.76
623.655	52.89
623.988	52.88
624.322	52.94
624.656	52.99
624.99	52.97
625.323	53.04
625.657	53.04
625.99	53.06
626.324	53.1
626.657	53.08
626.991	53.02
627.324	53.03
627.658	53.05
627.991	53.11
628.324	53.2
628.657	53.27
628.991	53.31
629.324	53.34
629.657	53.39
629.99	53.39
630.323	53.47
630.656	53.47
630.989	53.47
631.322	53.52
631.655	53.6
631.987	53.59
632.32	53.61
632.653	53.65
632.986	53.73
633.318	53.69
633.651	53.71
633.984	53.84
634.316	53.78
634.649	53.82
634.981	53.91
635.313	53.93
635.646	53.93
635.978	53.95
636.31	53.91
636.643	53.92
636.975	53.9
637.307	53.92
637.639	53.84
637.971	53.77
638.303	53.78
638.635	53.68
638.967	53.76
639.299	53.82
639.631	53.83
639.963	53.79
640.295	53.83
640.626	53.96
640.958	53.96
641.29	54.1
641.621	54.02
641.953	54.03
642.285	53.93
642.616	53.92
642.948	54.03
643.279	54.18
643.61	54.1
643.942	54.11
644.273	54.18
644.604	54.22
644.936	54.36
645.267	54.37
645.598	54.43
645.929	54.43
646.26	54.5
646.591	54.54
646.922	54.53
647.253	54.56
647.584	54.52
647.915	54.46
648.245	54.39
648.576	54.4
648.907	54.4
649.238	54.49
649.568	54.45
649.899	54.36
650.229	54.24
650.56	54.36
650.89	54.44
651.221	54.37
651.551	54.45
651.882	54.47
652.212	54.46
652.542	54.51
652.872	54.57
653.203	54.63
653.533	54.66
653.863	54.7
654.193	54.7
654.523	54.69
654.853	54.65
655.183	54.81
655.513	54.93
655.843	55.04
656.172	54.92
656.502	54.93
656.832	54.99
657.162	55.12
657.491	55.11
657.821	55.09
658.15	55.15
658.48	55.25
658.809	55.29
659.139	55.41
659.468	55.34
659.798	55.23
660.127	55.21
660.456	55.19
660.785	55.14
661.115	55.18
661.444	55.26
661.773	55.39
662.102	55.33
662.431	55.41
662.76	55.46
663.089	55.7
663.418	55.78
663.747	55.73
664.076	55.79
664.404	55.76
664.733	55.87
665.062	55.94
665.39	55.92
665.719	55.89
666.048	55.82
666.376	55.91
666.705	56
667.033	55.95
667.362	55.89
667.69	55.95
668.018	56.11
668.347	56.08
668.675	56.12
669.003	56.14
669.331	56.08
669.659	55.9
669.987	55.88
670.315	55.73
