Data from BA57750_Reflection_00004.txt Node
Date: Mon Nov 18 15:46:31 EST 2019
User: vgr7
Spectrometer: USB2G7710
Scans to average: 3
Trigger mode: 4
Integration Time (sec): 2.000000E-2
Electric dark correction enabled: true
Boxcar width: 10
XAxis mode: Wavelengths
Number of Pixels in Spectrum: 2048
>>>>>Begin Spectral Data<<<<<
177.721	16.4
178.105	-67.19
178.488	-1686.89
178.871	105.49
179.254	105.82
179.636	70.59
180.019	91.85
180.402	143.75
180.785	92.33
181.168	47.6
181.55	-37.98
181.933	58.23
182.316	102.79
182.698	111.17
183.081	89.05
183.463	128.91
183.846	107.5
184.228	55.37
184.611	98.6
184.993	56.93
185.376	39.64
185.758	80.33
186.14	323.61
186.522	209.07
186.904	130.21
187.287	114.29
187.669	161.85
188.051	126.57
188.433	171.66
188.815	188.85
189.197	6946.15
189.579	1134.78
189.961	7310.53
190.342	2588.37
190.724	-64.01
191.106	-59.07
191.488	-148.58
191.869	-193.36
192.251	-193.5
192.633	-99.38
193.014	-68.57
193.396	-152.21
193.777	-141.95
194.159	-83.81
194.54	-53.92
194.922	-6.28
195.303	5
195.684	-32.24
196.065	10.67
196.447	24.16
196.828	3.96
197.209	-5.37
197.59	-15.85
197.971	-19.89
198.352	-14.83
198.733	-16.49
199.114	-18.81
199.495	-14.4
199.876	-4.21
200.257	-10.79
200.638	-6.68
201.018	-5.72
201.399	-4.13
201.78	12.32
202.16	6.6
202.541	3.59
202.922	-23.82
203.302	-25.46
203.683	-9.9
204.063	-24.25
204.444	-40.84
204.824	-41.78
205.204	-49.92
205.585	-65.75
205.965	-60.77
206.345	-67.67
206.725	-66.44
207.106	-77.54
207.486	-107.73
207.866	-140.28
208.246	-102.8
208.626	-98.97
209.006	-77.2
209.386	-76.67
209.766	-105.42
210.145	-101.31
210.525	-82.86
210.905	-66.73
211.285	-76.91
211.664	-38.67
212.044	-75.24
212.424	-43.79
212.803	-24.64
213.183	-1.21
213.562	17.68
213.942	41.14
214.321	8.46
214.701	3.51
215.08	-12.81
215.459	-9.64
215.838	-5.8
216.218	-17.14
216.597	-7.96
216.976	-11.06
217.355	-22.42
217.734	-22.58
218.113	-29.18
218.492	-39.45
218.871	-42.99
219.25	-45.55
219.629	-55.59
220.008	-49.81
220.387	-60.92
220.766	-70
221.144	-87.07
221.523	-96.65
221.902	-118.27
222.28	-148.21
222.659	-166.2
223.037	-131.32
223.416	-128.5
223.794	-124.82
224.173	-100.39
224.551	-81.41
224.929	-75.89
225.308	-53
225.686	-39.62
226.064	-34.65
226.442	-29.25
226.821	-23.95
227.199	-21.18
227.577	-18.08
227.955	-19.23
228.333	-12.76
228.711	-7.33
229.089	-1.36
229.467	0.63
229.845	-3.2
230.222	0.01
230.6	-1.99
230.978	-2.08
231.356	1.62
231.733	0.94
232.111	0.83
232.488	0.27
232.866	2.3
233.243	2.34
233.621	2.2
233.998	4.05
234.376	3.24
234.753	4.95
235.13	5.12
235.508	4.75
235.885	5
236.262	3.46
236.639	3.2
237.016	2.28
237.393	3.24
237.77	4.8
238.147	4.56
238.524	5.62
238.901	5.92
239.278	4.6
239.655	5.41
240.032	5.42
240.409	5.36
240.785	3.97
241.162	4.23
241.539	3.85
241.915	4.02
242.292	4.43
242.668	4.24
243.045	4.05
243.421	4.11
243.798	4.09
244.174	4.42
244.551	4.34
244.927	4.12
245.303	4.08
245.679	4.02
246.056	4.01
246.432	3.78
246.808	3.71
247.184	3.83
247.56	3.42
247.936	3.3
248.312	3.19
248.688	3.76
249.064	3.5
249.44	3.51
249.815	3.44
250.191	3.4
250.567	3.32
250.943	3.28
251.318	3.44
251.694	3.39
252.069	3.03
252.445	2.83
252.82	2.79
253.196	2.9
253.571	3.15
253.947	3.25
254.322	3.39
254.697	3.34
255.073	3.01
255.448	3.02
255.823	3.04
256.198	3.33
256.573	3.21
256.948	3.43
257.323	3.78
257.698	3.66
258.073	3.65
258.448	3.5
258.823	3.48
259.198	3.21
259.573	3.41
259.948	3.39
260.322	3.49
260.697	3.62
261.072	3.5
261.446	3.31
261.821	3.24
262.195	3.31
262.57	3.24
262.944	3.24
263.319	3.23
263.693	3.1
264.067	2.94
264.442	2.7
264.816	2.75
265.19	2.51
265.564	2.59
265.938	2.43
266.313	2.54
266.687	2.55
267.061	2.78
267.435	2.62
267.809	2.72
268.183	2.68
268.556	2.77
268.93	2.91
269.304	3.03
269.678	3.17
270.051	3.18
270.425	3.33
270.799	3.44
271.172	3.61
271.546	3.77
271.919	3.79
272.293	3.83
272.666	3.73
273.04	3.85
273.413	3.82
273.787	3.87
274.16	3.86
274.533	3.78
274.906	3.54
275.279	3.49
275.653	3.45
276.026	3.46
276.399	3.24
276.772	3.21
277.145	3.12
277.518	3.1
277.891	2.97
278.263	2.82
278.636	2.78
279.009	2.62
279.382	2.71
279.755	2.76
280.127	2.94
280.5	3.01
280.872	2.97
281.245	2.88
281.617	2.99
281.99	3.06
282.362	3.14
282.735	3.17
283.107	3.23
283.479	3.34
283.852	3.28
284.224	3.26
284.596	3.24
284.968	3.33
285.34	3.32
285.713	3.41
286.085	3.53
286.457	3.6
286.829	3.56
287.201	3.47
287.572	3.38
287.944	3.38
288.316	3.21
288.688	3.23
289.06	3.26
289.431	3.2
289.803	3.18
290.175	3.21
290.546	3.51
290.918	3.43
291.289	3.37
291.661	3.47
292.032	3.65
292.403	3.73
292.775	3.82
293.146	3.63
293.517	3.66
293.889	3.6
294.26	3.66
294.631	3.73
295.002	3.8
295.373	3.84
295.744	3.83
296.115	3.9
296.486	3.87
296.857	3.85
297.228	3.97
297.599	3.97
297.97	3.96
298.34	3.91
298.711	4.09
299.082	4.08
299.452	4.1
299.823	4.09
300.194	3.97
300.564	3.87
300.935	4.09
301.305	4.11
301.676	4.28
302.046	4.17
302.416	4.25
302.787	4.18
303.157	4.11
303.527	4.06
303.897	4.06
304.267	4.02
304.637	3.98
305.008	3.86
305.378	3.88
305.748	3.85
306.117	3.74
306.487	3.66
306.857	3.7
307.227	3.66
307.597	3.62
307.967	3.74
308.336	3.72
308.706	3.63
309.076	3.5
309.445	3.35
309.815	3.32
310.184	3.27
310.554	3.28
310.923	3.32
311.293	3.28
311.662	3.28
312.031	3.18
312.401	3.26
312.77	3.24
313.139	3.25
313.508	3.21
313.877	3.1
314.246	3.06
314.616	3
314.985	2.91
315.353	2.81
315.722	2.74
316.091	2.72
316.46	2.66
316.829	2.62
317.198	2.62
317.567	2.58
317.935	2.4
318.304	2.54
318.672	2.52
319.041	2.62
319.41	2.64
319.778	2.8
320.147	2.81
320.515	2.84
320.883	2.79
321.252	2.98
321.62	3.15
321.988	3.05
322.357	3.12
322.725	3.11
323.093	3.16
323.461	3.18
323.829	3.17
324.197	3.23
324.565	3.24
324.933	3.27
325.301	3.38
325.669	3.46
326.037	3.27
326.405	3.3
326.772	3.29
327.14	3.36
327.508	3.31
327.875	3.14
328.243	3.12
328.61	3.19
328.978	3.11
329.346	3.1
329.713	3.14
330.08	3.06
330.448	3.03
330.815	2.82
331.182	2.82
331.55	2.7
331.917	2.72
332.284	2.68
332.651	2.66
333.018	2.6
333.385	2.75
333.752	2.91
334.119	2.99
334.486	2.97
334.853	2.88
335.22	2.93
335.587	2.97
335.954	2.93
336.32	2.95
336.687	2.93
337.054	2.87
337.42	2.88
337.787	2.97
338.153	2.99
338.52	3.2
338.886	3.18
339.253	3.24
339.619	3.22
339.986	3.28
340.352	3.39
340.718	3.41
341.084	3.3
341.451	3.36
341.817	3.29
342.183	3.26
342.549	3.26
342.915	3.32
343.281	3.48
343.647	3.49
344.013	3.42
344.379	3.44
344.745	3.57
345.11	3.58
345.476	3.58
345.842	3.62
346.208	3.59
346.573	3.61
346.939	3.65
347.304	3.62
347.67	3.67
348.035	3.56
348.401	3.53
348.766	3.57
349.132	3.41
349.497	3.44
349.862	3.59
350.228	3.61
350.593	3.53
350.958	3.54
351.323	3.56
351.688	3.62
352.053	3.6
352.418	3.51
352.783	3.45
353.148	3.36
353.513	3.35
353.878	3.37
354.243	3.36
354.608	3.31
354.972	3.34
355.337	3.35
355.702	3.43
356.066	3.47
356.431	3.41
356.795	3.47
357.16	3.37
357.524	3.25
357.889	3.26
358.253	3.25
358.618	3.18
358.982	3.14
359.346	3.06
359.71	3.01
360.075	3.09
360.439	3.16
360.803	3.17
361.167	3.14
361.531	3.1
361.895	3.09
362.259	3.11
362.623	3.05
362.987	3.04
363.351	2.99
363.714	3
364.078	3
364.442	3.01
364.806	3.07
365.169	3.12
365.533	3.15
365.896	3.16
366.26	3.17
366.623	3.17
366.987	3.2
367.35	3.28
367.714	3.27
368.077	3.24
368.44	3.27
368.803	3.32
369.167	3.3
369.53	3.28
369.893	3.37
370.256	3.39
370.619	3.38
370.982	3.36
371.345	3.33
371.708	3.36
372.071	3.31
372.434	3.3
372.797	3.34
373.159	3.29
373.522	3.3
373.885	3.35
374.247	3.42
374.61	3.49
374.973	3.46
375.335	3.39
375.698	3.41
376.06	3.42
376.423	3.45
376.785	3.52
377.147	3.58
377.51	3.57
377.872	3.64
378.234	3.63
378.596	3.7
378.958	3.73
379.321	3.73
379.683	3.75
380.045	3.7
380.407	3.7
380.769	3.7
381.13	3.71
381.492	3.68
381.854	3.7
382.216	3.67
382.578	3.68
382.939	3.67
383.301	3.67
383.663	3.66
384.024	3.63
384.386	3.65
384.747	3.67
385.109	3.61
385.47	3.56
385.832	3.57
386.193	3.5
386.554	3.47
386.916	3.42
387.277	3.42
387.638	3.45
387.999	3.41
388.36	3.39
388.721	3.41
389.082	3.42
389.443	3.39
389.804	3.38
390.165	3.37
390.526	3.41
390.887	3.41
391.248	3.44
391.609	3.46
391.969	3.43
392.33	3.38
392.691	3.37
393.051	3.39
393.412	3.39
393.772	3.4
394.133	3.42
394.493	3.44
394.854	3.43
395.214	3.44
395.574	3.43
395.935	3.45
396.295	3.45
396.655	3.44
397.015	3.42
397.376	3.41
397.736	3.44
398.096	3.45
398.456	3.45
398.816	3.43
399.176	3.39
399.535	3.38
399.895	3.38
400.255	3.42
400.615	3.42
400.975	3.41
401.334	3.4
401.694	3.37
402.054	3.4
402.413	3.4
402.773	3.4
403.132	3.42
403.492	3.43
403.851	3.43
404.211	3.44
404.57	3.46
404.929	3.51
405.288	3.47
405.648	3.43
406.007	3.43
406.366	3.41
406.725	3.44
407.084	3.46
407.443	3.48
407.802	3.45
408.161	3.43
408.52	3.42
408.879	3.43
409.238	3.46
409.596	3.47
409.955	3.47
410.314	3.48
410.673	3.48
411.031	3.49
411.39	3.49
411.748	3.49
412.107	3.48
412.465	3.46
412.824	3.47
413.182	3.48
413.54	3.49
413.899	3.49
414.257	3.5
414.615	3.51
414.974	3.54
415.332	3.55
415.69	3.58
416.048	3.6
416.406	3.62
416.764	3.6
417.122	3.59
417.48	3.6
417.838	3.61
418.195	3.6
418.553	3.58
418.911	3.58
419.269	3.57
419.626	3.59
419.984	3.6
420.342	3.6
420.699	3.58
421.057	3.58
421.414	3.58
421.772	3.58
422.129	3.58
422.486	3.56
422.844	3.57
423.201	3.54
423.558	3.54
423.915	3.54
424.273	3.55
424.63	3.55
424.987	3.55
425.344	3.55
425.701	3.55
426.058	3.57
426.415	3.56
426.772	3.57
427.128	3.56
427.485	3.54
427.842	3.54
428.199	3.56
428.555	3.58
428.912	3.59
429.269	3.58
429.625	3.57
429.982	3.55
430.338	3.54
430.695	3.57
431.051	3.55
431.407	3.54
431.764	3.52
432.12	3.51
432.476	3.5
432.832	3.48
433.189	3.47
433.545	3.47
433.901	3.47
434.257	3.47
434.613	3.48
434.969	3.47
435.325	3.48
435.681	3.47
436.036	3.44
436.392	3.45
436.748	3.45
437.104	3.45
437.459	3.47
437.815	3.46
438.171	3.45
438.526	3.46
438.882	3.46
439.237	3.47
439.593	3.49
439.948	3.49
440.304	3.51
440.659	3.51
441.014	3.49
441.369	3.48
441.725	3.49
442.08	3.48
442.435	3.5
442.79	3.5
443.145	3.5
443.5	3.5
443.855	3.49
444.21	3.48
444.565	3.49
444.92	3.5
445.275	3.5
445.629	3.5
445.984	3.5
446.339	3.49
446.693	3.48
447.048	3.47
447.403	3.46
447.757	3.45
448.112	3.43
448.466	3.44
448.82	3.46
449.175	3.46
449.529	3.46
449.883	3.44
450.238	3.43
450.592	3.42
450.946	3.42
451.3	3.42
451.654	3.42
452.008	3.42
452.362	3.4
452.716	3.39
453.07	3.38
453.424	3.39
453.778	3.39
454.132	3.39
454.486	3.39
454.839	3.4
455.193	3.41
455.547	3.43
455.9	3.42
456.254	3.42
456.607	3.42
456.961	3.41
457.314	3.4
457.668	3.4
458.021	3.39
458.375	3.4
458.728	3.42
459.081	3.42
459.434	3.4
459.787	3.41
460.141	3.42
460.494	3.43
460.847	3.42
461.2	3.42
461.553	3.41
461.906	3.41
462.259	3.41
462.611	3.41
462.964	3.41
463.317	3.42
463.67	3.42
464.022	3.41
464.375	3.4
464.728	3.42
465.08	3.43
465.433	3.44
465.785	3.44
466.138	3.44
466.49	3.42
466.843	3.43
467.195	3.43
467.547	3.46
467.899	3.44
468.252	3.43
468.604	3.46
468.956	3.46
469.308	3.47
469.66	3.46
470.012	3.45
470.364	3.45
470.716	3.44
471.068	3.44
471.42	3.42
471.772	3.46
472.123	3.48
472.475	3.48
472.827	3.5
473.178	3.49
473.53	3.48
473.882	3.5
474.233	3.5
474.585	3.48
474.936	3.47
475.288	3.49
475.639	3.52
475.99	3.51
476.342	3.52
476.693	3.53
477.044	3.56
477.395	3.56
477.746	3.57
478.097	3.58
478.448	3.6
478.8	3.6
479.15	3.59
479.501	3.59
479.852	3.59
480.203	3.6
480.554	3.63
480.905	3.64
481.255	3.64
481.606	3.65
481.957	3.68
482.307	3.69
482.658	3.69
483.009	3.68
483.359	3.69
483.709	3.7
484.06	3.71
484.41	3.7
484.761	3.7
485.111	3.71
485.461	3.72
485.811	3.71
486.162	3.72
486.512	3.73
486.862	3.72
487.212	3.73
487.562	3.73
487.912	3.72
488.262	3.72
488.612	3.72
488.961	3.72
489.311	3.71
489.661	3.7
490.011	3.7
490.36	3.7
490.71	3.7
491.06	3.69
491.409	3.68
491.759	3.68
492.108	3.68
492.458	3.68
492.807	3.67
493.157	3.67
493.506	3.67
493.855	3.67
494.204	3.67
494.554	3.66
494.903	3.66
495.252	3.66
495.601	3.67
495.95	3.68
496.299	3.67
496.648	3.66
496.997	3.65
497.346	3.65
497.695	3.66
498.043	3.65
498.392	3.63
498.741	3.64
499.09	3.65
499.438	3.66
499.787	3.65
500.135	3.68
500.484	3.69
500.832	3.69
501.181	3.69
501.529	3.71
501.878	3.72
502.226	3.72
502.574	3.72
502.923	3.73
503.271	3.73
503.619	3.74
503.967	3.75
504.315	3.76
504.663	3.76
505.011	3.77
505.359	3.76
505.707	3.79
506.055	3.79
506.403	3.8
506.751	3.82
507.098	3.84
507.446	3.85
507.794	3.82
508.141	3.84
508.489	3.84
508.837	3.83
509.184	3.83
509.531	3.85
509.879	3.87
510.226	3.88
510.574	3.88
510.921	3.9
511.268	3.89
511.616	3.9
511.963	3.92
512.31	3.92
512.657	3.93
513.004	3.95
513.351	3.97
513.698	3.97
514.045	3.97
514.392	3.97
514.739	3.97
515.086	4
515.432	4.03
515.779	4.01
516.126	4.02
516.473	4.04
516.819	4.04
517.166	4.05
517.512	4.05
517.859	4.05
518.205	4.05
518.552	4.07
518.898	4.07
519.245	4.08
519.591	4.1
519.937	4.12
520.283	4.12
520.629	4.13
520.976	4.15
521.322	4.16
521.668	4.16
522.014	4.16
522.36	4.15
522.706	4.16
523.052	4.17
523.398	4.18
523.743	4.19
524.089	4.18
524.435	4.18
524.781	4.19
525.126	4.21
525.472	4.22
525.817	4.24
526.163	4.24
526.509	4.24
526.854	4.23
527.199	4.24
527.545	4.23
527.89	4.23
528.235	4.24
528.581	4.24
528.926	4.24
529.271	4.24
529.616	4.23
529.961	4.22
530.306	4.23
530.651	4.22
530.996	4.22
531.341	4.22
531.686	4.23
532.031	4.24
532.376	4.23
532.721	4.23
533.065	4.22
533.41	4.23
533.755	4.24
534.099	4.25
534.444	4.23
534.788	4.25
535.133	4.25
535.477	4.25
535.822	4.23
536.166	4.23
536.51	4.22
536.855	4.24
537.199	4.26
537.543	4.25
537.887	4.27
538.231	4.27
538.576	4.27
538.92	4.27
539.264	4.26
539.608	4.26
539.951	4.25
540.295	4.25
540.639	4.24
540.983	4.24
541.327	4.23
541.671	4.24
542.014	4.23
542.358	4.22
542.701	4.23
543.045	4.24
543.389	4.25
543.732	4.25
544.075	4.25
544.419	4.25
544.762	4.25
545.105	4.26
545.449	4.26
545.792	4.26
546.135	4.28
546.478	4.29
546.821	4.29
547.165	4.3
547.508	4.31
547.851	4.31
548.194	4.31
548.536	4.33
548.879	4.33
549.222	4.35
549.565	4.36
549.908	4.37
550.25	4.36
550.593	4.35
550.936	4.36
551.278	4.33
551.621	4.36
551.963	4.36
552.306	4.34
552.648	4.32
552.991	4.35
553.333	4.33
553.675	4.31
554.017	4.33
554.36	4.33
554.702	4.35
555.044	4.35
555.386	4.35
555.728	4.35
556.07	4.37
556.412	4.37
556.754	4.37
557.096	4.36
557.438	4.37
557.78	4.39
558.121	4.44
558.463	4.48
558.805	4.48
559.147	4.46
559.488	4.48
559.83	4.52
560.171	4.51
560.513	4.55
560.854	4.56
561.196	4.55
561.537	4.55
561.878	4.55
562.22	4.56
562.561	4.57
562.902	4.59
563.243	4.55
563.584	4.54
563.925	4.53
564.266	4.51
564.607	4.54
564.948	4.51
565.289	4.48
565.63	4.48
565.971	4.44
566.312	4.45
566.653	4.45
566.993	4.42
567.334	4.4
567.675	4.37
568.015	4.37
568.356	4.36
568.696	4.36
569.037	4.37
569.377	4.39
569.718	4.4
570.058	4.36
570.398	4.38
570.739	4.39
571.079	4.42
571.419	4.44
571.759	4.44
572.099	4.45
572.439	4.45
572.779	4.45
573.119	4.48
573.459	4.47
573.799	4.45
574.139	4.46
574.479	4.48
574.819	4.5
575.158	4.47
575.498	4.49
575.838	4.47
576.177	4.44
576.517	4.4
576.856	4.4
577.196	4.43
577.535	4.42
577.875	4.43
578.214	4.41
578.553	4.43
578.893	4.44
579.232	4.44
579.571	4.46
579.91	4.48
580.25	4.48
580.589	4.47
580.928	4.49
581.267	4.5
581.606	4.52
581.945	4.51
582.283	4.54
582.622	4.51
582.961	4.56
583.3	4.59
583.639	4.62
583.977	4.64
584.316	4.61
584.654	4.59
584.993	4.58
585.332	4.59
585.67	4.56
586.008	4.52
586.347	4.55
586.685	4.52
587.024	4.5
587.362	4.49
587.7	4.52
588.038	4.55
588.376	4.57
588.715	4.56
589.053	4.58
589.391	4.59
589.729	4.61
590.067	4.58
590.404	4.61
590.742	4.6
591.08	4.54
591.418	4.58
591.756	4.57
592.093	4.62
592.431	4.6
592.769	4.59
593.106	4.61
593.444	4.57
593.781	4.57
594.119	4.62
594.456	4.62
594.793	4.63
595.131	4.61
595.468	4.62
595.805	4.6
596.143	4.59
596.48	4.58
596.817	4.59
597.154	4.6
597.491	4.58
597.828	4.59
598.165	4.62
598.502	4.62
598.839	4.66
599.176	4.65
599.512	4.68
599.849	4.72
600.186	4.72
600.523	4.77
600.859	4.8
601.196	4.78
601.532	4.78
601.869	4.75
602.205	4.78
602.542	4.77
602.878	4.75
603.215	4.76
603.551	4.78
603.887	4.77
604.223	4.76
604.56	4.71
604.896	4.72
605.232	4.72
605.568	4.72
605.904	4.72
606.24	4.7
606.576	4.68
606.912	4.69
607.248	4.66
607.583	4.68
607.919	4.65
608.255	4.65
608.591	4.67
608.926	4.68
609.262	4.69
609.597	4.68
609.933	4.7
610.268	4.68
610.604	4.68
610.939	4.65
611.275	4.69
611.61	4.7
611.945	4.7
612.281	4.68
612.616	4.69
612.951	4.72
613.286	4.73
613.621	4.75
613.956	4.69
614.291	4.72
614.626	4.66
614.961	4.64
615.296	4.57
615.631	4.56
615.966	4.53
616.3	4.54
616.635	4.56
616.97	4.6
617.304	4.59
617.639	4.63
617.973	4.63
618.308	4.61
618.642	4.71
618.977	4.7
619.311	4.71
619.646	4.68
619.98	4.65
620.314	4.64
620.648	4.61
620.983	4.66
621.317	4.67
621.651	4.7
621.985	4.74
622.319	4.79
622.653	4.83
622.987	4.91
623.321	4.86
623.655	4.85
623.988	4.79
624.322	4.8
624.656	4.76
624.99	4.79
625.323	4.78
625.657	4.74
625.99	4.74
626.324	4.71
626.657	4.73
626.991	4.76
627.324	4.76
627.658	4.79
627.991	4.81
628.324	4.81
628.657	4.75
628.991	4.76
629.324	4.77
629.657	4.74
629.99	4.74
630.323	4.74
630.656	4.8
630.989	4.84
631.322	4.87
631.655	4.89
631.987	4.94
632.32	4.98
632.653	4.99
632.986	4.97
633.318	5.02
633.651	5.04
633.984	5.01
634.316	5.04
634.649	5.03
634.981	5.03
635.313	5.02
635.646	5.04
635.978	5.07
636.31	5.09
636.643	5.09
636.975	5.08
637.307	5.09
637.639	5.03
637.971	4.98
638.303	4.96
638.635	4.96
638.967	4.93
639.299	4.92
639.631	4.85
639.963	4.87
640.295	4.91
640.626	4.9
640.958	4.89
641.29	4.92
641.621	4.9
641.953	4.89
642.285	4.88
642.616	4.93
642.948	4.9
643.279	4.91
643.61	4.88
643.942	4.89
644.273	4.91
644.604	4.93
644.936	4.93
645.267	4.97
645.598	4.96
645.929	4.95
646.26	4.94
646.591	5.02
646.922	5.01
647.253	4.97
647.584	4.96
647.915	4.95
648.245	4.94
648.576	4.96
648.907	4.96
649.238	4.99
649.568	4.98
649.899	4.96
650.229	4.97
650.56	4.95
650.89	4.96
651.221	4.91
651.551	4.83
651.882	4.89
652.212	4.89
652.542	4.88
652.872	4.84
653.203	4.8
653.533	4.84
653.863	4.9
654.193	4.91
654.523	4.91
654.853	4.9
655.183	4.92
655.513	4.93
655.843	4.94
656.172	4.95
656.502	4.96
656.832	4.99
657.162	5.05
657.491	5.08
657.821	5.09
658.15	5.13
658.48	5.25
658.809	5.22
659.139	5.23
659.468	5.27
659.798	5.34
660.127	5.38
660.456	5.3
660.785	5.27
661.115	5.35
661.444	5.38
661.773	5.44
662.102	5.4
662.431	5.42
662.76	5.41
663.089	5.4
663.418	5.41
663.747	5.35
664.076	5.29
664.404	5.28
664.733	5.28
665.062	5.29
665.39	5.2
665.719	5.21
666.048	5.24
666.376	5.25
666.705	5.16
667.033	5.17
667.362	5.29
667.69	5.28
668.018	5.21
668.347	5.15
668.675	5.11
669.003	5.17
669.331	5.22
669.659	5.22
669.987	5.26
670.315	5.32
670.643	5.39
670.971	5.41
671.299	5.41
671.627	5.39
671.955	5.35
672.283	5.34
672.61	5.37
672.938	5.36
673.266	5.39
673.593	5.5
673.921	5.46
674.249	5.43
674.576	5.42
674.904	5.41
675.231	5.39
675.558	5.4
675.886	5.28
676.213	5.25
676.54	5.28
676.867	5.28
677.195	5.26
677.522	5.18
677.849	5.23
