Data from BA57758_Reflection_00009.txt Node
Date: Mon Nov 18 15:11:40 EST 2019
User: vgr7
Spectrometer: USB2G7710
Scans to average: 3
Trigger mode: 4
Integration Time (sec): 2.000000E-2
Electric dark correction enabled: true
Boxcar width: 10
XAxis mode: Wavelengths
Number of Pixels in Spectrum: 2048
>>>>>Begin Spectral Data<<<<<
177.721	43.32
178.105	91.03
178.488	57.37
178.871	140.61
179.254	268.87
179.636	-44.07
180.019	-414.85
180.402	-740
180.785	205.48
181.168	133.97
181.55	176.48
181.933	134.98
182.316	172.03
182.698	267.42
183.081	243.93
183.463	705.46
183.846	783.84
184.228	359.66
184.611	365.92
184.993	343.11
185.376	413.25
185.758	386.77
186.14	351.61
186.522	284.69
186.904	295.2
187.287	288.27
187.669	335.21
188.051	393.47
188.433	340.81
188.815	385.95
189.197	519.7
189.579	617.48
189.961	515.67
190.342	1704.24
190.724	2166.35
191.106	2508.84
191.488	5990.41
191.869	-1231.01
192.251	-346.92
192.633	-352.98
193.014	-398.04
193.396	-436.59
193.777	-625.95
194.159	-543.48
194.54	-285.3
194.922	-196.35
195.303	-194.86
195.684	-165.17
196.065	-75.61
196.447	-95.87
196.828	-88.05
197.209	-89.58
197.59	-110.35
197.971	-80.86
198.352	-79.35
198.733	-70.4
199.114	-57.99
199.495	-63.51
199.876	-84.94
200.257	-65.42
200.638	-55.07
201.018	-63.31
201.399	-34.36
201.78	-22.24
202.16	-39.38
202.541	-44.5
202.922	-84.89
203.302	-100.21
203.683	-131.49
204.063	-293.96
204.444	-302.57
204.824	-322.24
205.204	-614.96
205.585	-332.97
205.965	-510.07
206.345	-278.97
206.725	-574.78
207.106	-882.01
207.486	-779.71
207.866	-625.13
208.246	-1363.04
208.626	-1737.1
209.006	-451.72
209.386	15620
209.766	-910.71
210.145	-660.76
210.525	-1142.9
210.905	-161.09
211.285	-109.19
211.664	-68.97
212.044	-50.49
212.424	-42.61
212.803	-38.77
213.183	-21.93
213.562	-26.02
213.942	-14.87
214.321	-25.08
214.701	-32.79
215.08	-49.06
215.459	-42.65
215.838	-63.66
216.218	-68.68
216.597	-62.59
216.976	-77.31
217.355	-62.4
217.734	-58.53
218.113	-57.59
218.492	-64.2
218.871	-73.86
219.25	-72.47
219.629	-92.38
220.008	-93.32
220.387	-81.14
220.766	-110.24
221.144	-131.11
221.523	-124.64
221.902	-168.72
222.28	-156.05
222.659	-137.1
223.037	-86.57
223.416	-71.45
223.794	-55.05
224.173	-55.56
224.551	-32.26
224.929	-25.29
225.308	-24.21
225.686	-20.68
226.064	-20.03
226.442	-12.3
226.821	-9.25
227.199	-10.93
227.577	-11.33
227.955	-12.26
228.333	-14.92
228.711	-9.99
229.089	-5.76
229.467	-6.38
229.845	-3.2
230.222	-2.18
230.6	-4.49
230.978	-8.71
231.356	-6.28
231.733	-6.46
232.111	-3.62
232.488	-3.48
232.866	-2.29
233.243	-1.95
233.621	-2.96
233.998	1.12
234.376	1.14
234.753	2.13
235.13	3.16
235.508	4.92
235.885	5.13
236.262	4.1
236.639	3.89
237.016	1.03
237.393	2.76
237.77	0.9
238.147	1.43
238.524	2.91
238.901	4.46
239.278	4.31
239.655	5.42
240.032	4.85
240.409	4.71
240.785	3.94
241.162	4.34
241.539	4.17
241.915	3.39
242.292	2.44
242.668	2.04
243.045	1.64
243.421	1.51
243.798	1.48
244.174	1.99
244.551	2.27
244.927	2.56
245.303	2.63
245.679	2.77
246.056	2.59
246.432	2.42
246.808	2.34
247.184	1.98
247.56	1.67
247.936	1.67
248.312	1.59
248.688	1.93
249.064	1.69
249.44	1.53
249.815	1.37
250.191	1.56
250.567	1.65
250.943	1.6
251.318	1.86
251.694	2.14
252.069	1.97
252.445	1.78
252.82	1.54
253.196	1.19
253.571	1.42
253.947	1.35
254.322	1.74
254.697	1.53
255.073	1.84
255.448	1.73
255.823	1.73
256.198	1.9
256.573	1.64
256.948	2
257.323	2.41
257.698	2.64
258.073	2.69
258.448	2.67
258.823	2.6
259.198	2.28
259.573	2.21
259.948	2.23
260.322	2.29
260.697	2.42
261.072	2.47
261.446	2.46
261.821	2.37
262.195	2.19
262.57	2.2
262.944	2.07
263.319	2.15
263.693	2.21
264.067	2.06
264.442	2.07
264.816	1.92
265.19	1.73
265.564	1.58
265.938	1.55
266.313	1.68
266.687	1.93
267.061	2.11
267.435	2.07
267.809	2.16
268.183	2.1
268.556	2.01
268.93	2.03
269.304	1.86
269.678	2
270.051	2.05
270.425	2.02
270.799	1.99
271.172	2.08
271.546	2
271.919	1.83
272.293	1.86
272.666	1.8
273.04	1.79
273.413	1.69
273.787	1.75
274.16	1.58
274.533	1.66
274.906	1.71
275.279	1.57
275.653	1.57
276.026	1.54
276.399	1.66
276.772	1.72
277.145	1.82
277.518	1.87
277.891	1.97
278.263	1.99
278.636	2.12
279.009	2.1
279.382	2.29
279.755	2.43
280.127	2.4
280.5	2.6
280.872	2.77
281.245	2.85
281.617	3
281.99	3.17
282.362	3.07
282.735	2.89
283.107	3.02
283.479	2.9
283.852	2.91
284.224	2.84
284.596	2.67
284.968	2.71
285.34	2.81
285.713	2.89
286.085	2.94
286.457	2.97
286.829	2.94
287.201	2.85
287.572	2.88
287.944	2.86
288.316	2.78
288.688	2.72
289.06	2.83
289.431	2.8
289.803	2.63
290.175	2.63
290.546	2.74
290.918	2.8
291.289	2.89
291.661	2.95
292.032	3.01
292.403	3.17
292.775	3.25
293.146	3.13
293.517	3.16
293.889	3.33
294.26	3.31
294.631	3.38
295.002	3.38
295.373	3.5
295.744	3.58
296.115	3.58
296.486	3.53
296.857	3.5
297.228	3.49
297.599	3.6
297.97	3.64
298.34	3.67
298.711	3.67
299.082	3.73
299.452	3.74
299.823	3.9
300.194	3.96
300.564	3.96
300.935	4
301.305	3.88
301.676	3.9
302.046	4.07
302.416	4.04
302.787	4.06
303.157	4.03
303.527	4.12
303.897	4.27
304.267	4.46
304.637	4.51
305.008	4.54
305.378	4.58
305.748	4.7
306.117	4.71
306.487	4.66
306.857	4.7
307.227	4.77
307.597	4.74
307.967	4.84
308.336	4.96
308.706	4.95
309.076	5.04
309.445	4.98
309.815	5.04
310.184	5.18
310.554	5.32
310.923	5.38
311.293	5.44
311.662	5.4
312.031	5.33
312.401	5.43
312.77	5.57
313.139	5.75
313.508	5.74
313.877	5.79
314.246	5.93
314.616	5.98
314.985	6.06
315.353	6.08
315.722	6.09
316.091	6.12
316.46	6.15
316.829	6.18
317.198	6.34
317.567	6.35
317.935	6.33
318.304	6.46
318.672	6.54
319.041	6.62
319.41	6.75
319.778	6.96
320.147	6.99
320.515	7.03
320.883	6.96
321.252	7.16
321.62	7.24
321.988	7.33
322.357	7.37
322.725	7.45
323.093	7.4
323.461	7.47
323.829	7.57
324.197	7.77
324.565	8.03
324.933	8.09
325.301	8.12
325.669	8.3
326.037	8.32
326.405	8.37
326.772	8.38
327.14	8.36
327.508	8.4
327.875	8.34
328.243	8.41
328.61	8.41
328.978	8.44
329.346	8.53
329.713	8.46
330.08	8.56
330.448	8.46
330.815	8.5
331.182	8.48
331.55	8.46
331.917	8.52
332.284	8.44
332.651	8.44
333.018	8.47
333.385	8.38
333.752	8.48
334.119	8.58
334.486	8.58
334.853	8.77
335.22	8.76
335.587	8.9
335.954	8.91
336.32	8.9
336.687	8.9
337.054	8.86
337.42	8.99
337.787	8.98
338.153	9.16
338.52	9.33
338.886	9.36
339.253	9.36
339.619	9.45
339.986	9.53
340.352	9.53
340.718	9.54
341.084	9.52
341.451	9.45
341.817	9.43
342.183	9.57
342.549	9.54
342.915	9.63
343.281	9.67
343.647	9.6
344.013	9.6
344.379	9.52
344.745	9.55
345.11	9.64
345.476	9.67
345.842	9.56
346.208	9.51
346.573	9.62
346.939	9.62
347.304	9.56
347.67	9.46
348.035	9.47
348.401	9.45
348.766	9.57
349.132	9.57
349.497	9.52
349.862	9.5
350.228	9.45
350.593	9.42
350.958	9.48
351.323	9.5
351.688	9.6
352.053	9.68
352.418	9.79
352.783	9.76
353.148	9.75
353.513	9.85
353.878	9.86
354.243	9.82
354.608	9.86
354.972	9.86
355.337	9.95
355.702	9.96
356.066	9.92
356.431	9.8
356.795	9.78
357.16	9.79
357.524	9.75
357.889	9.7
358.253	9.66
358.618	9.61
358.982	9.6
359.346	9.54
359.71	9.44
360.075	9.37
360.439	9.36
360.803	9.36
361.167	9.29
361.531	9.27
361.895	9.19
362.259	9.11
362.623	9.07
362.987	9.02
363.351	8.96
363.714	8.98
364.078	8.97
364.442	8.94
364.806	8.88
365.169	8.83
365.533	8.81
365.896	8.81
366.26	8.79
366.623	8.66
366.987	8.63
367.35	8.65
367.714	8.6
368.077	8.5
368.44	8.41
368.803	8.38
369.167	8.24
369.53	8.14
369.893	8.2
370.256	8.1
370.619	8.02
370.982	7.98
371.345	7.88
371.708	7.86
372.071	7.73
372.434	7.63
372.797	7.52
373.159	7.44
373.522	7.31
373.885	7.2
374.247	7.25
374.61	7.24
374.973	7.18
375.335	7.08
375.698	6.98
376.06	6.91
376.423	6.81
376.785	6.83
377.147	6.82
377.51	6.68
377.872	6.7
378.234	6.62
378.596	6.56
378.958	6.48
379.321	6.4
379.683	6.4
380.045	6.32
380.407	6.27
380.769	6.2
381.13	6.13
381.492	6.08
381.854	5.98
382.216	5.87
382.578	5.8
382.939	5.73
383.301	5.7
383.663	5.65
384.024	5.61
384.386	5.59
384.747	5.58
385.109	5.54
385.47	5.46
385.832	5.44
386.193	5.43
386.554	5.38
386.916	5.33
387.277	5.31
387.638	5.34
387.999	5.31
388.36	5.32
388.721	5.31
389.082	5.26
389.443	5.24
389.804	5.19
390.165	5.15
390.526	5.11
390.887	5.08
391.248	5.08
391.609	5.06
391.969	5
392.33	4.91
392.691	4.85
393.051	4.81
393.412	4.79
393.772	4.71
394.133	4.72
394.493	4.7
394.854	4.63
395.214	4.54
395.574	4.52
395.935	4.42
396.295	4.39
396.655	4.31
397.015	4.26
397.376	4.26
397.736	4.24
398.096	4.24
398.456	4.19
398.816	4.13
399.176	4.03
399.535	3.98
399.895	3.99
400.255	3.95
400.615	3.93
400.975	3.9
401.334	3.88
401.694	3.81
402.054	3.75
402.413	3.73
402.773	3.74
403.132	3.7
403.492	3.69
403.851	3.67
404.211	3.66
404.57	3.66
404.929	3.65
405.288	3.57
405.648	3.51
406.007	3.49
406.366	3.46
406.725	3.5
407.084	3.49
407.443	3.46
407.802	3.48
408.161	3.43
408.52	3.4
408.879	3.37
409.238	3.36
409.596	3.36
409.955	3.33
410.314	3.31
410.673	3.3
411.031	3.28
411.39	3.27
411.748	3.25
412.107	3.23
412.465	3.19
412.824	3.22
413.182	3.24
413.54	3.24
413.899	3.26
414.257	3.24
414.615	3.22
414.974	3.2
415.332	3.16
415.69	3.15
416.048	3.12
416.406	3.12
416.764	3.09
417.122	3.08
417.48	3.05
417.838	3.03
418.195	3.02
418.553	3
418.911	2.99
419.269	2.98
419.626	2.95
419.984	2.96
420.342	2.94
420.699	2.92
421.057	2.91
421.414	2.87
421.772	2.84
422.129	2.83
422.486	2.81
422.844	2.8
423.201	2.78
423.558	2.77
423.915	2.73
424.273	2.74
424.63	2.73
424.987	2.74
425.344	2.73
425.701	2.72
426.058	2.72
426.415	2.7
426.772	2.69
427.128	2.68
427.485	2.64
427.842	2.63
428.199	2.62
428.555	2.61
428.912	2.61
429.269	2.63
429.625	2.62
429.982	2.63
430.338	2.63
430.695	2.64
431.051	2.64
431.407	2.66
431.764	2.67
432.12	2.65
432.476	2.63
432.832	2.62
433.189	2.61
433.545	2.63
433.901	2.62
434.257	2.61
434.613	2.61
434.969	2.61
435.325	2.6
435.681	2.61
436.036	2.59
436.392	2.6
436.748	2.59
437.104	2.6
437.459	2.59
437.815	2.59
438.171	2.59
438.526	2.59
438.882	2.59
439.237	2.58
439.593	2.58
439.948	2.58
440.304	2.58
440.659	2.57
441.014	2.56
441.369	2.57
441.725	2.56
442.08	2.56
442.435	2.57
442.79	2.56
443.145	2.57
443.5	2.56
443.855	2.55
444.21	2.54
444.565	2.52
444.92	2.51
445.275	2.49
445.629	2.48
445.984	2.47
446.339	2.45
446.693	2.45
447.048	2.43
447.403	2.44
447.757	2.44
448.112	2.42
448.466	2.41
448.82	2.39
449.175	2.4
449.529	2.41
449.883	2.39
450.238	2.38
450.592	2.38
450.946	2.39
451.3	2.37
451.654	2.38
452.008	2.39
452.362	2.38
452.716	2.39
453.07	2.39
453.424	2.4
453.778	2.39
454.132	2.38
454.486	2.39
454.839	2.37
455.193	2.36
455.547	2.37
455.9	2.39
456.254	2.41
456.607	2.41
456.961	2.4
457.314	2.42
457.668	2.42
458.021	2.39
458.375	2.39
458.728	2.4
459.081	2.4
459.434	2.38
459.787	2.38
460.141	2.39
460.494	2.39
460.847	2.4
461.2	2.4
461.553	2.4
461.906	2.41
462.259	2.45
462.611	2.46
462.964	2.48
463.317	2.48
463.67	2.48
464.022	2.48
464.375	2.47
464.728	2.46
465.08	2.46
465.433	2.49
465.785	2.49
466.138	2.48
466.49	2.49
466.843	2.51
467.195	2.51
467.547	2.51
467.899	2.53
468.252	2.53
468.604	2.54
468.956	2.54
469.308	2.54
469.66	2.51
470.012	2.5
470.364	2.5
470.716	2.5
471.068	2.5
471.42	2.5
471.772	2.51
472.123	2.53
472.475	2.55
472.827	2.57
473.178	2.59
473.53	2.6
473.882	2.6
474.233	2.61
474.585	2.6
474.936	2.58
475.288	2.57
475.639	2.57
475.99	2.58
476.342	2.6
476.693	2.6
477.044	2.59
477.395	2.61
477.746	2.61
478.097	2.59
478.448	2.6
478.8	2.59
479.15	2.6
479.501	2.59
479.852	2.57
480.203	2.57
480.554	2.57
480.905	2.59
481.255	2.59
481.606	2.6
481.957	2.61
482.307	2.61
482.658	2.61
483.009	2.62
483.359	2.62
483.709	2.62
484.06	2.62
484.41	2.63
484.761	2.63
485.111	2.63
485.461	2.63
485.811	2.63
486.162	2.64
486.512	2.64
486.862	2.65
487.212	2.66
487.562	2.67
487.912	2.66
488.262	2.66
488.612	2.66
488.961	2.66
489.311	2.66
489.661	2.67
490.011	2.67
490.36	2.67
490.71	2.68
491.06	2.68
491.409	2.68
491.759	2.68
492.108	2.7
492.458	2.71
492.807	2.72
493.157	2.74
493.506	2.76
493.855	2.77
494.204	2.77
494.554	2.77
494.903	2.78
495.252	2.8
495.601	2.83
495.95	2.86
496.299	2.88
496.648	2.9
496.997	2.93
497.346	2.98
497.695	3.01
498.043	3.04
498.392	3.07
498.741	3.12
499.09	3.14
499.438	3.17
499.787	3.21
500.135	3.24
500.484	3.28
500.832	3.32
501.181	3.36
501.529	3.41
501.878	3.48
502.226	3.54
502.574	3.59
502.923	3.63
503.271	3.69
503.619	3.77
503.967	3.84
504.315	3.9
504.663	3.97
505.011	4
505.359	4.08
505.707	4.16
506.055	4.24
506.403	4.33
506.751	4.41
507.098	4.5
507.446	4.6
507.794	4.66
508.141	4.76
508.489	4.86
508.837	4.95
509.184	5.02
509.531	5.12
509.879	5.22
510.226	5.34
510.574	5.42
510.921	5.51
511.268	5.6
511.616	5.71
511.963	5.79
512.31	5.93
512.657	6.05
513.004	6.15
513.351	6.29
513.698	6.41
514.045	6.53
514.392	6.65
514.739	6.78
515.086	6.93
515.432	7.07
515.779	7.19
516.126	7.34
516.473	7.49
516.819	7.61
517.166	7.72
517.512	7.85
517.859	7.98
518.205	8.1
518.552	8.25
518.898	8.36
519.245	8.5
519.591	8.62
519.937	8.77
520.283	8.92
520.629	9.05
520.976	9.19
521.322	9.36
521.668	9.51
522.014	9.69
522.36	9.88
522.706	10.03
523.052	10.26
523.398	10.47
523.743	10.69
524.089	10.91
524.435	11.13
524.781	11.33
525.126	11.52
525.472	11.71
525.817	11.86
526.163	12.03
526.509	12.17
526.854	12.33
527.199	12.45
527.545	12.57
527.89	12.72
528.235	12.87
528.581	13.03
528.926	13.18
529.271	13.33
529.616	13.47
529.961	13.63
530.306	13.78
530.651	13.95
530.996	14.12
531.341	14.3
531.686	14.47
532.031	14.68
532.376	14.89
532.721	15.11
533.065	15.32
533.41	15.54
533.755	15.79
534.099	16.02
534.444	16.26
534.788	16.5
535.133	16.71
535.477	16.95
535.822	17.17
536.166	17.44
536.51	17.71
536.855	18.03
537.199	18.34
537.543	18.62
537.887	18.92
538.231	19.25
538.576	19.56
538.92	19.91
539.264	20.2
539.608	20.46
539.951	20.73
540.295	20.98
540.639	21.22
540.983	21.47
541.327	21.69
541.671	21.94
542.014	22.19
542.358	22.4
542.701	22.63
543.045	22.88
543.389	23.11
543.732	23.37
544.075	23.59
544.419	23.83
544.762	24.1
545.105	24.39
545.449	24.64
545.792	24.94
546.135	25.23
546.478	25.55
546.821	25.86
547.165	26.17
547.508	26.49
547.851	26.82
548.194	27.13
548.536	27.46
548.879	27.74
549.222	28.06
549.565	28.4
549.908	28.74
550.25	29.05
550.593	29.39
550.936	29.72
551.278	30.09
551.621	30.47
551.963	30.79
552.306	31.08
552.648	31.36
552.991	31.66
553.333	31.93
553.675	32.16
554.017	32.46
554.36	32.74
554.702	33.05
555.044	33.31
555.386	33.61
555.728	33.89
556.07	34.23
556.412	34.52
556.754	34.82
557.096	35.05
557.438	35.32
557.78	35.54
558.121	35.77
558.463	35.97
558.805	36.17
559.147	36.44
559.488	36.72
559.83	37.02
560.171	37.26
560.513	37.48
560.854	37.71
561.196	37.92
561.537	38.09
561.878	38.25
562.22	38.46
562.561	38.63
562.902	38.83
563.243	39
563.584	39.22
563.925	39.41
564.266	39.63
564.607	39.82
564.948	40.01
565.289	40.18
565.63	40.31
565.971	40.45
566.312	40.62
566.653	40.76
566.993	40.87
567.334	41.01
567.675	41.21
568.015	41.32
568.356	41.5
568.696	41.73
569.037	41.88
569.377	42.01
569.718	42.19
570.058	42.31
570.398	42.49
570.739	42.59
571.079	42.72
571.419	42.8
571.759	42.94
572.099	43.08
572.439	43.22
572.779	43.36
573.119	43.47
573.459	43.58
573.799	43.69
574.139	43.83
574.479	43.96
574.819	44.04
575.158	44.19
575.498	44.29
575.838	44.34
576.177	44.5
576.517	44.63
576.856	44.66
577.196	44.76
577.535	44.81
577.875	44.92
578.214	45.04
578.553	45.23
578.893	45.33
579.232	45.42
579.571	45.54
579.91	45.7
580.25	45.84
580.589	45.92
580.928	46.09
581.267	46.15
581.606	46.26
581.945	46.31
582.283	46.4
582.622	46.49
582.961	46.62
583.3	46.68
583.639	46.8
583.977	46.94
584.316	47.06
584.654	47.18
584.993	47.26
585.332	47.35
585.67	47.39
586.008	47.45
586.347	47.52
586.685	47.54
587.024	47.61
587.362	47.65
587.7	47.67
588.038	47.71
588.376	47.76
588.715	47.82
589.053	47.92
589.391	47.96
589.729	47.97
590.067	47.94
590.404	47.93
590.742	48
591.08	48.11
591.418	48.17
591.756	48.26
592.093	48.25
592.431	48.25
592.769	48.27
593.106	48.27
593.444	48.34
593.781	48.36
594.119	48.35
594.456	48.36
594.793	48.4
595.131	48.4
595.468	48.45
595.805	48.41
596.143	48.45
596.48	48.53
596.817	48.54
597.154	48.66
597.491	48.73
597.828	48.71
598.165	48.73
598.502	48.79
598.839	48.73
599.176	48.74
599.512	48.8
599.849	48.87
600.186	48.89
600.523	48.88
600.859	48.95
601.196	48.99
601.532	49.02
601.869	49.1
602.205	49.17
602.542	49.22
602.878	49.27
603.215	49.31
603.551	49.33
603.887	49.45
604.223	49.46
604.56	49.52
604.896	49.55
605.232	49.54
605.568	49.54
605.904	49.55
606.24	49.63
606.576	49.61
606.912	49.62
607.248	49.72
607.583	49.85
607.919	49.86
608.255	49.93
608.591	50.06
608.926	50.05
609.262	50.01
609.597	50.08
609.933	50.09
610.268	50.11
610.604	50.15
610.939	50.14
611.275	50.18
611.61	50.17
611.945	50.2
612.281	50.26
612.616	50.32
612.951	50.46
613.286	50.57
613.621	50.68
613.956	50.76
614.291	50.81
614.626	50.79
614.961	50.81
615.296	50.77
615.631	50.81
615.966	50.86
616.3	51
616.635	51.04
616.97	51.07
617.304	51.06
617.639	51.13
617.973	51.15
618.308	51.16
618.642	51.2
618.977	51.16
619.311	51.17
619.646	51.15
619.98	51.18
620.314	51.16
620.648	51.16
620.983	51.11
621.317	51.04
621.651	51.02
621.985	51.05
622.319	51.12
622.653	50.97
622.987	50.98
623.321	50.99
623.655	50.97
623.988	51.09
624.322	51.07
624.656	51.06
624.99	51.15
625.323	51.1
625.657	51.16
625.99	51.21
626.324	51.19
626.657	51.19
626.991	51.16
627.324	51.15
627.658	51.19
627.991	51.25
628.324	51.35
628.657	51.37
628.991	51.41
629.324	51.28
629.657	51.38
629.99	51.42
630.323	51.39
630.656	51.36
630.989	51.38
631.322	51.4
631.655	51.4
631.987	51.34
632.32	51.46
632.653	51.47
632.986	51.48
633.318	51.48
633.651	51.59
633.984	51.62
634.316	51.61
634.649	51.61
634.981	51.71
635.313	51.66
635.646	51.77
635.978	51.72
636.31	51.89
636.643	51.87
636.975	51.88
637.307	51.98
637.639	51.97
637.971	51.93
638.303	52.02
638.635	52.08
638.967	52
639.299	51.92
639.631	51.88
639.963	51.87
640.295	51.88
640.626	51.83
640.958	51.8
641.29	51.84
641.621	51.88
641.953	51.73
642.285	51.75
642.616	51.6
642.948	51.6
643.279	51.56
643.61	51.56
643.942	51.48
644.273	51.41
644.604	51.52
644.936	51.37
645.267	51.4
645.598	51.32
645.929	51.33
646.26	51.41
646.591	51.39
646.922	51.43
647.253	51.51
647.584	51.5
647.915	51.48
648.245	51.43
648.576	51.41
648.907	51.48
649.238	51.49
649.568	51.66
649.899	51.75
650.229	51.81
650.56	51.88
650.89	52.07
651.221	52.07
651.551	52.07
651.882	52.23
652.212	52.22
652.542	52.2
652.872	52.26
653.203	52.23
653.533	52.3
653.863	52.32
654.193	52.31
654.523	52.29
654.853	52.37
655.183	52.39
655.513	52.36
655.843	52.31
656.172	52.27
656.502	52.2
656.832	52.18
657.162	52.21
657.491	52.22
657.821	52.1
658.15	52.03
658.48	52
658.809	51.95
659.139	52.04
659.468	52.08
659.798	52.08
660.127	52.13
660.456	52.15
660.785	52.04
661.115	51.99
661.444	51.97
661.773	51.85
662.102	51.93
662.431	51.98
662.76	52.1
663.089	52.06
663.418	52.11
663.747	52.09
664.076	52.1
664.404	52.05
664.733	52.09
665.062	52.25
665.39	52.27
665.719	52.34
666.048	52.22
666.376	52.22
