Data from BA57730_Reflection_00012.txt Node
Date: Mon Nov 18 15:59:55 EST 2019
User: vgr7
Spectrometer: USB2G7710
Scans to average: 3
Trigger mode: 4
Integration Time (sec): 2.000000E-2
Electric dark correction enabled: true
Boxcar width: 10
XAxis mode: Wavelengths
Number of Pixels in Spectrum: 2048
>>>>>Begin Spectral Data<<<<<
177.721	-407.94
178.105	-83.01
178.488	-108.5
178.871	-45.3
179.254	-28.94
179.636	-214.81
180.019	-82.82
180.402	74.42
180.785	-25.36
181.168	3.26
181.55	-26.87
181.933	255.15
182.316	184.08
182.698	189.63
183.081	155.64
183.463	203.33
183.846	174.57
184.228	318.22
184.611	512.4
184.993	803.96
185.376	700.41
185.758	582.33
186.14	357.62
186.522	368.85
186.904	342.02
187.287	221.81
187.669	261.93
188.051	355.79
188.433	3296.58
188.815	489.13
189.197	438.53
189.579	425.93
189.961	412.43
190.342	301.26
190.724	635.15
191.106	-4015.94
191.488	-813.17
191.869	-371.41
192.251	-755.46
192.633	-631.56
193.014	-365.23
193.396	1023.98
193.777	-384.85
194.159	-292.38
194.54	-211.45
194.922	-32.58
195.303	-75.29
195.684	-154.47
196.065	-82.98
196.447	-43.48
196.828	-109.69
197.209	-77.33
197.59	-109.99
197.971	-183.04
198.352	-72.93
198.733	-106.31
199.114	-187.66
199.495	-295.92
199.876	-257.22
200.257	-247.07
200.638	-209.18
201.018	-165.87
201.399	-133.75
201.78	-92.05
202.16	-122.22
202.541	-217.32
202.922	669.97
203.302	607.73
203.683	-4624.64
204.063	483.92
204.444	427.21
204.824	391.77
205.204	1458.73
205.585	1861.32
205.965	2079.49
206.345	976.96
206.725	760.74
207.106	476.56
207.486	442.25
207.866	463.97
208.246	473.76
208.626	414.31
209.006	659.48
209.386	519.32
209.766	1493.94
210.145	-5215.32
210.525	-786.21
210.905	-340.72
211.285	-247.04
211.664	-260.62
212.044	-178.64
212.424	-111.68
212.803	-110.75
213.183	-97.41
213.562	-119.66
213.942	-76.57
214.321	-76.99
214.701	-70.93
215.08	-63.1
215.459	-56.55
215.838	-65.37
216.218	-53.98
216.597	-30.83
216.976	-37.29
217.355	-37.49
217.734	-50.07
218.113	-55.99
218.492	-51.17
218.871	-50.64
219.25	-54.23
219.629	-82.55
220.008	-98.54
220.387	-104.6
220.766	-81.63
221.144	-121.4
221.523	-98.38
221.902	-130.44
222.28	-131.53
222.659	-98.99
223.037	-100.42
223.416	-84.52
223.794	-82.43
224.173	-74.88
224.551	-70.71
224.929	-64.49
225.308	-44.52
225.686	-34.21
226.064	-21.67
226.442	-25.16
226.821	-22.04
227.199	-17.96
227.577	-13.67
227.955	-11.22
228.333	-11.13
228.711	-9.8
229.089	-2.93
229.467	-0.79
229.845	-1.82
230.222	1.71
230.6	0.66
230.978	3.41
231.356	5.87
231.733	7.18
232.111	4.38
232.488	3.93
232.866	1.59
233.243	0.25
233.621	-0.26
233.998	-0.06
234.376	1.76
234.753	3.45
235.13	3.16
235.508	3.54
235.885	1.29
236.262	0.66
236.639	-1.02
237.016	-0.21
237.393	-0.52
237.77	0.9
238.147	1.73
238.524	1.79
238.901	2.61
239.278	3.19
239.655	2.98
240.032	3.77
240.409	3.18
240.785	3.88
241.162	4.24
241.539	4.25
241.915	4.28
242.292	3.87
242.668	3.38
243.045	3.33
243.421	3.58
243.798	4.1
244.174	4.27
244.551	4.23
244.927	3.98
245.303	4.19
245.679	4.04
246.056	3.63
246.432	3.47
246.808	2.91
247.184	2.21
247.56	2.18
247.936	1.98
248.312	2.18
248.688	2.22
249.064	2.44
249.44	2.53
249.815	2.44
250.191	2.64
250.567	2.63
250.943	2.49
251.318	2.45
251.694	2.3
252.069	2.14
252.445	2.45
252.82	2.22
253.196	1.81
253.571	1.73
253.947	1.87
254.322	2.1
254.697	2.36
255.073	2.9
255.448	2.62
255.823	2.77
256.198	2.96
256.573	3.05
256.948	2.95
257.323	3.1
257.698	3.23
258.073	3.13
258.448	3.31
258.823	3.41
259.198	3.33
259.573	3.43
259.948	3.27
260.322	3.26
260.697	3.39
261.072	3.43
261.446	3.46
261.821	3.42
262.195	3.46
262.57	3.57
262.944	3.49
263.319	3.62
263.693	3.59
264.067	3.48
264.442	3.48
264.816	3.39
265.19	3.25
265.564	3.2
265.938	3.22
266.313	3.12
266.687	3.08
267.061	3.08
267.435	3.08
267.809	3.25
268.183	3.31
268.556	3.4
268.93	3.36
269.304	3.32
269.678	3.3
270.051	3.18
270.425	3.1
270.799	3.21
271.172	3.36
271.546	3.37
271.919	3.3
272.293	3.45
272.666	3.54
273.04	3.61
273.413	3.59
273.787	3.65
274.16	3.53
274.533	3.63
274.906	3.65
275.279	3.69
275.653	3.69
276.026	3.73
276.399	3.41
276.772	3.51
277.145	3.47
277.518	3.56
277.891	3.65
278.263	3.63
278.636	3.51
279.009	3.28
279.382	3.44
279.755	3.4
280.127	3.39
280.5	3.5
280.872	3.73
281.245	3.67
281.617	3.49
281.99	3.6
282.362	3.51
282.735	3.48
283.107	3.3
283.479	3.31
283.852	3.18
284.224	3.34
284.596	3.39
284.968	3.46
285.34	3.49
285.713	3.56
286.085	3.67
286.457	3.86
286.829	4.02
287.201	3.88
287.572	4
287.944	3.87
288.316	3.7
288.688	3.5
289.06	3.53
289.431	3.55
289.803	3.6
290.175	3.66
290.546	3.85
290.918	3.97
291.289	4.09
291.661	4.22
292.032	4.22
292.403	4.09
292.775	4.03
293.146	3.96
293.517	3.88
293.889	3.85
294.26	3.68
294.631	3.67
295.002	3.74
295.373	3.66
295.744	3.72
296.115	3.71
296.486	3.72
296.857	3.78
297.228	3.86
297.599	3.79
297.97	3.74
298.34	3.65
298.711	3.71
299.082	3.62
299.452	3.62
299.823	3.75
300.194	3.83
300.564	3.86
300.935	3.97
301.305	4.05
301.676	4.09
302.046	4.24
302.416	4.24
302.787	4.24
303.157	4.41
303.527	4.42
303.897	4.62
304.267	4.66
304.637	4.74
305.008	4.89
305.378	5.03
305.748	5.05
306.117	5
306.487	4.94
306.857	5.05
307.227	5.05
307.597	5.03
307.967	5.22
308.336	5.35
308.706	5.32
309.076	5.27
309.445	5.33
309.815	5.33
310.184	5.32
310.554	5.4
310.923	5.27
311.293	5.34
311.662	5.21
312.031	5.24
312.401	5.22
312.77	5.17
313.139	5.21
313.508	5.37
313.877	5.5
314.246	5.52
314.616	5.61
314.985	5.72
315.353	5.73
315.722	5.76
316.091	5.76
316.46	5.77
316.829	5.82
317.198	5.8
317.567	5.79
317.935	5.85
318.304	5.95
318.672	5.93
319.041	5.91
319.41	6.24
319.778	6.32
320.147	6.34
320.515	6.46
320.883	6.43
321.252	6.4
321.62	6.35
321.988	6.43
322.357	6.41
322.725	6.3
323.093	6.42
323.461	6.34
323.829	6.47
324.197	6.6
324.565	6.83
324.933	6.84
325.301	6.9
325.669	7.05
326.037	6.93
326.405	7.13
326.772	7.29
327.14	7.32
327.508	7.34
327.875	7.32
328.243	7.34
328.61	7.44
328.978	7.53
329.346	7.73
329.713	7.75
330.08	7.75
330.448	7.73
330.815	7.67
331.182	7.72
331.55	7.78
331.917	7.78
332.284	7.8
332.651	7.88
333.018	7.96
333.385	7.89
333.752	7.94
334.119	8.07
334.486	8.05
334.853	7.95
335.22	8
335.587	8.23
335.954	8.24
336.32	8.2
336.687	8.13
337.054	8.07
337.42	8.1
337.787	8.23
338.153	8.23
338.52	8.38
338.886	8.34
339.253	8.26
339.619	8.4
339.986	8.4
340.352	8.51
340.718	8.65
341.084	8.76
341.451	9.01
341.817	8.96
342.183	9.05
342.549	9.14
342.915	9.29
343.281	9.27
343.647	9.3
344.013	9.38
344.379	9.43
344.745	9.51
345.11	9.52
345.476	9.47
345.842	9.67
346.208	9.67
346.573	9.78
346.939	9.87
347.304	9.81
347.67	9.79
348.035	9.78
348.401	9.66
348.766	9.65
349.132	9.52
349.497	9.56
349.862	9.56
350.228	9.56
350.593	9.42
350.958	9.41
351.323	9.47
351.688	9.48
352.053	9.48
352.418	9.52
352.783	9.55
353.148	9.61
353.513	9.58
353.878	9.54
354.243	9.56
354.608	9.61
354.972	9.57
355.337	9.66
355.702	9.74
356.066	9.91
356.431	9.93
356.795	9.98
357.16	9.93
357.524	9.85
357.889	9.89
358.253	9.93
358.618	9.93
358.982	9.85
359.346	9.81
359.71	9.77
360.075	9.71
360.439	9.68
360.803	9.6
361.167	9.6
361.531	9.64
361.895	9.6
362.259	9.5
362.623	9.55
362.987	9.46
363.351	9.4
363.714	9.31
364.078	9.18
364.442	9.04
364.806	9.05
365.169	9.06
365.533	8.96
365.896	8.9
366.26	8.83
366.623	8.84
366.987	8.82
367.35	8.83
367.714	8.84
368.077	8.84
368.44	8.87
368.803	8.83
369.167	8.73
369.53	8.68
369.893	8.7
370.256	8.62
370.619	8.59
370.982	8.49
371.345	8.41
371.708	8.45
372.071	8.47
372.434	8.4
372.797	8.36
373.159	8.29
373.522	8.26
373.885	8.26
374.247	8.22
374.61	8.2
374.973	8.17
375.335	8.03
375.698	7.96
376.06	7.9
376.423	7.82
376.785	7.83
377.147	7.72
377.51	7.64
377.872	7.64
378.234	7.6
378.596	7.56
378.958	7.55
379.321	7.48
379.683	7.47
380.045	7.42
380.407	7.36
380.769	7.29
381.13	7.19
381.492	7.12
381.854	7.06
382.216	6.95
382.578	6.93
382.939	6.94
383.301	6.92
383.663	6.87
384.024	6.8
384.386	6.78
384.747	6.77
385.109	6.79
385.47	6.71
385.832	6.66
386.193	6.63
386.554	6.56
386.916	6.56
387.277	6.54
387.638	6.5
387.999	6.47
388.36	6.45
388.721	6.43
389.082	6.37
389.443	6.31
389.804	6.3
390.165	6.19
390.526	6.16
390.887	6.08
391.248	6.04
391.609	6.03
391.969	5.98
392.33	5.96
392.691	5.88
393.051	5.85
393.412	5.79
393.772	5.73
394.133	5.71
394.493	5.63
394.854	5.57
395.214	5.52
395.574	5.49
395.935	5.49
396.295	5.49
396.655	5.43
397.015	5.38
397.376	5.34
397.736	5.31
398.096	5.29
398.456	5.27
398.816	5.23
399.176	5.15
399.535	5.08
399.895	5.05
400.255	5.04
400.615	5
400.975	4.97
401.334	4.96
401.694	4.9
402.054	4.86
402.413	4.82
402.773	4.77
403.132	4.71
403.492	4.66
403.851	4.62
404.211	4.6
404.57	4.6
404.929	4.6
405.288	4.58
405.648	4.52
406.007	4.57
406.366	4.53
406.725	4.57
407.084	4.55
407.443	4.54
407.802	4.52
408.161	4.5
408.52	4.47
408.879	4.45
409.238	4.43
409.596	4.45
409.955	4.41
410.314	4.43
410.673	4.42
411.031	4.4
411.39	4.38
411.748	4.37
412.107	4.34
412.465	4.29
412.824	4.26
413.182	4.22
413.54	4.2
413.899	4.19
414.257	4.16
414.615	4.15
414.974	4.15
415.332	4.11
415.69	4.07
416.048	4.05
416.406	4.02
416.764	4.01
417.122	4.01
417.48	3.98
417.838	3.99
418.195	3.98
418.553	3.96
418.911	3.96
419.269	3.95
419.626	3.93
419.984	3.93
420.342	3.93
420.699	3.91
421.057	3.87
421.414	3.85
421.772	3.83
422.129	3.82
422.486	3.81
422.844	3.8
423.201	3.79
423.558	3.79
423.915	3.8
424.273	3.8
424.63	3.77
424.987	3.77
425.344	3.74
425.701	3.73
426.058	3.72
426.415	3.71
426.772	3.69
427.128	3.69
427.485	3.68
427.842	3.67
428.199	3.68
428.555	3.68
428.912	3.69
429.269	3.68
429.625	3.64
429.982	3.63
430.338	3.63
430.695	3.64
431.051	3.63
431.407	3.6
431.764	3.58
432.12	3.57
432.476	3.57
432.832	3.58
433.189	3.58
433.545	3.58
433.901	3.57
434.257	3.56
434.613	3.56
434.969	3.55
435.325	3.57
435.681	3.55
436.036	3.54
436.392	3.54
436.748	3.53
437.104	3.54
437.459	3.52
437.815	3.52
438.171	3.51
438.526	3.51
438.882	3.52
439.237	3.52
439.593	3.54
439.948	3.52
440.304	3.51
440.659	3.5
441.014	3.51
441.369	3.51
441.725	3.51
442.08	3.52
442.435	3.52
442.79	3.5
443.145	3.51
443.5	3.52
443.855	3.53
444.21	3.52
444.565	3.53
444.92	3.54
445.275	3.53
445.629	3.53
445.984	3.53
446.339	3.51
446.693	3.49
447.048	3.48
447.403	3.48
447.757	3.48
448.112	3.48
448.466	3.46
448.82	3.44
449.175	3.44
449.529	3.44
449.883	3.42
450.238	3.42
450.592	3.42
450.946	3.4
451.3	3.36
451.654	3.35
452.008	3.34
452.362	3.32
452.716	3.3
453.07	3.31
453.424	3.3
453.778	3.28
454.132	3.28
454.486	3.28
454.839	3.27
455.193	3.26
455.547	3.27
455.9	3.27
456.254	3.29
456.607	3.29
456.961	3.28
457.314	3.3
457.668	3.28
458.021	3.28
458.375	3.28
458.728	3.28
459.081	3.29
459.434	3.3
459.787	3.29
460.141	3.29
460.494	3.3
460.847	3.31
461.2	3.32
461.553	3.33
461.906	3.34
462.259	3.34
462.611	3.36
462.964	3.35
463.317	3.34
463.67	3.33
464.022	3.34
464.375	3.33
464.728	3.32
465.08	3.33
465.433	3.35
465.785	3.34
466.138	3.34
466.49	3.35
466.843	3.34
467.195	3.35
467.547	3.36
467.899	3.36
468.252	3.38
468.604	3.4
468.956	3.4
469.308	3.4
469.66	3.4
470.012	3.39
470.364	3.42
470.716	3.45
471.068	3.45
471.42	3.45
471.772	3.48
472.123	3.5
472.475	3.51
472.827	3.5
473.178	3.5
473.53	3.52
473.882	3.52
474.233	3.52
474.585	3.49
474.936	3.51
475.288	3.5
475.639	3.49
475.99	3.48
476.342	3.5
476.693	3.53
477.044	3.54
477.395	3.54
477.746	3.53
478.097	3.51
478.448	3.5
478.8	3.5
479.15	3.51
479.501	3.51
479.852	3.51
480.203	3.5
480.554	3.52
480.905	3.53
481.255	3.52
481.606	3.54
481.957	3.56
482.307	3.55
482.658	3.54
483.009	3.54
483.359	3.54
483.709	3.54
484.06	3.52
484.41	3.52
484.761	3.52
485.111	3.52
485.461	3.52
485.811	3.52
486.162	3.52
486.512	3.52
486.862	3.52
487.212	3.53
487.562	3.54
487.912	3.53
488.262	3.53
488.612	3.53
488.961	3.52
489.311	3.51
489.661	3.51
490.011	3.52
490.36	3.53
490.71	3.53
491.06	3.54
491.409	3.54
491.759	3.55
492.108	3.56
492.458	3.58
492.807	3.58
493.157	3.61
493.506	3.62
493.855	3.62
494.204	3.61
494.554	3.61
494.903	3.62
495.252	3.63
495.601	3.65
495.95	3.67
496.299	3.67
496.648	3.69
496.997	3.71
497.346	3.73
497.695	3.75
498.043	3.75
498.392	3.76
498.741	3.79
499.09	3.8
499.438	3.83
499.787	3.85
500.135	3.9
500.484	3.91
500.832	3.94
501.181	3.98
501.529	4.03
501.878	4.07
502.226	4.12
502.574	4.17
502.923	4.22
503.271	4.28
503.619	4.34
503.967	4.39
504.315	4.44
504.663	4.49
505.011	4.55
505.359	4.61
505.707	4.66
506.055	4.69
506.403	4.74
506.751	4.8
507.098	4.84
507.446	4.89
507.794	4.94
508.141	4.98
508.489	5.04
508.837	5.09
509.184	5.15
509.531	5.2
509.879	5.24
510.226	5.31
510.574	5.36
510.921	5.43
511.268	5.48
511.616	5.55
511.963	5.61
512.31	5.65
512.657	5.73
513.004	5.8
513.351	5.87
513.698	5.93
514.045	5.97
514.392	6.04
514.739	6.1
515.086	6.17
515.432	6.26
515.779	6.33
516.126	6.42
516.473	6.47
516.819	6.53
517.166	6.6
517.512	6.63
517.859	6.69
518.205	6.73
518.552	6.79
518.898	6.88
519.245	6.92
519.591	7
519.937	7.05
520.283	7.11
520.629	7.21
520.976	7.31
521.322	7.41
521.668	7.51
522.014	7.62
522.36	7.72
522.706	7.83
523.052	7.95
523.398	8.08
523.743	8.22
524.089	8.35
524.435	8.47
524.781	8.6
525.126	8.73
525.472	8.85
525.817	8.96
526.163	9.06
526.509	9.17
526.854	9.25
527.199	9.36
527.545	9.46
527.89	9.54
528.235	9.65
528.581	9.74
528.926	9.85
529.271	9.95
529.616	10.06
529.961	10.16
530.306	10.28
530.651	10.41
530.996	10.54
531.341	10.67
531.686	10.83
532.031	10.99
532.376	11.15
532.721	11.34
533.065	11.5
533.41	11.68
533.755	11.84
534.099	12.04
534.444	12.25
534.788	12.44
535.133	12.66
535.477	12.85
535.822	13.08
536.166	13.32
536.51	13.58
536.855	13.84
537.199	14.15
537.543	14.42
537.887	14.71
538.231	14.99
538.576	15.3
538.92	15.56
539.264	15.86
539.608	16.14
539.951	16.38
540.295	16.63
540.639	16.9
540.983	17.16
541.327	17.4
541.671	17.64
542.014	17.88
542.358	18.12
542.701	18.37
543.045	18.59
543.389	18.87
543.732	19.13
544.075	19.39
544.419	19.65
544.762	19.95
545.105	20.22
545.449	20.54
545.792	20.88
546.135	21.26
546.478	21.6
546.821	21.95
547.165	22.31
547.508	22.72
547.851	23.11
548.194	23.5
548.536	23.89
548.879	24.29
549.222	24.72
549.565	25.1
549.908	25.56
550.25	25.97
550.593	26.3
550.936	26.72
551.278	27.12
551.621	27.56
551.963	27.99
552.306	28.46
552.648	28.88
552.991	29.29
553.333	29.63
553.675	30.03
554.017	30.42
554.36	30.81
554.702	31.17
555.044	31.51
555.386	31.84
555.728	32.21
556.07	32.54
556.412	32.9
556.754	33.33
557.096	33.71
557.438	34.11
557.78	34.58
558.121	34.93
558.463	35.36
558.805	35.75
559.147	36.11
559.488	36.44
559.83	36.8
560.171	37.19
560.513	37.6
560.854	37.94
561.196	38.32
561.537	38.71
561.878	39.11
562.22	39.43
562.561	39.82
562.902	40.21
563.243	40.57
563.584	40.9
563.925	41.16
564.266	41.4
564.607	41.75
564.948	42.04
565.289	42.33
565.63	42.59
565.971	42.88
566.312	43.15
566.653	43.44
566.993	43.67
567.334	43.91
567.675	44.13
568.015	44.43
568.356	44.68
568.696	44.96
569.037	45.18
569.377	45.46
569.718	45.7
570.058	45.92
570.398	46.17
570.739	46.47
571.079	46.75
571.419	47.03
571.759	47.22
572.099	47.42
572.439	47.66
572.779	47.92
573.119	48.18
573.459	48.39
573.799	48.58
574.139	48.85
574.479	49.05
574.819	49.27
575.158	49.42
575.498	49.6
575.838	49.78
576.177	50
576.517	50.17
576.856	50.39
577.196	50.62
577.535	50.83
577.875	50.93
578.214	51.1
578.553	51.24
578.893	51.43
579.232	51.59
579.571	51.76
579.91	51.88
580.25	51.94
580.589	52.1
580.928	52.32
581.267	52.4
581.606	52.6
581.945	52.75
582.283	52.92
582.622	53.1
582.961	53.26
583.3	53.33
583.639	53.62
583.977	53.75
584.316	53.84
584.654	53.94
584.993	54.1
585.332	54.24
585.67	54.46
586.008	54.64
586.347	54.77
586.685	54.83
587.024	54.98
587.362	55.09
587.7	55.21
588.038	55.34
588.376	55.49
588.715	55.55
589.053	55.63
589.391	55.74
589.729	55.85
590.067	55.95
590.404	56.12
590.742	56.14
591.08	56.33
591.418	56.52
591.756	56.66
592.093	56.79
592.431	56.87
592.769	56.95
593.106	57.02
593.444	57.13
593.781	57.25
594.119	57.33
594.456	57.4
594.793	57.46
595.131	57.55
595.468	57.62
595.805	57.68
596.143	57.83
596.48	57.91
596.817	57.95
597.154	58
597.491	58.09
597.828	58.2
598.165	58.21
598.502	58.24
598.839	58.32
599.176	58.37
599.512	58.43
599.849	58.52
600.186	58.66
600.523	58.73
600.859	58.88
601.196	59
601.532	59.13
601.869	59.31
602.205	59.34
602.542	59.37
602.878	59.49
603.215	59.5
603.551	59.55
603.887	59.6
604.223	59.62
604.56	59.65
604.896	59.59
605.232	59.62
605.568	59.62
605.904	59.71
606.24	59.81
606.576	59.91
606.912	59.92
607.248	59.91
607.583	59.98
607.919	60.02
608.255	60.02
608.591	60.08
608.926	60.01
609.262	60.04
609.597	60.12
609.933	60.09
610.268	60.16
610.604	60.24
610.939	60.29
611.275	60.35
611.61	60.38
611.945	60.45
612.281	60.5
612.616	60.61
612.951	60.61
613.286	60.64
613.621	60.7
613.956	60.8
614.291	60.91
614.626	61.01
614.961	60.99
615.296	61.07
615.631	61.11
615.966	61.27
616.3	61.39
616.635	61.4
616.97	61.54
617.304	61.56
617.639	61.64
617.973	61.76
618.308	61.83
618.642	61.85
618.977	61.95
619.311	62.04
619.646	62.05
619.98	62.09
620.314	62.07
620.648	62.07
620.983	62.01
621.317	62.05
621.651	62.02
621.985	62.11
622.319	62.07
622.653	62.06
622.987	62.07
623.321	62.13
623.655	62.22
623.988	62.24
624.322	62.27
624.656	62.28
624.99	62.32
625.323	62.35
625.657	62.38
625.99	62.41
626.324	62.41
626.657	62.41
626.991	62.45
627.324	62.55
627.658	62.67
627.991	62.79
628.324	62.73
628.657	62.82
628.991	62.83
629.324	62.93
629.657	63.02
629.99	63.04
630.323	62.96
630.656	62.96
630.989	62.96
631.322	63.01
631.655	62.94
631.987	62.97
632.32	63.01
632.653	63.09
632.986	63.03
633.318	63.04
633.651	63.1
633.984	63.1
634.316	63.1
634.649	63.1
634.981	63.13
635.313	63.26
635.646	63.2
635.978	63.22
636.31	63.3
636.643	63.26
636.975	63.26
637.307	63.33
637.639	63.41
637.971	63.5
638.303	63.63
638.635	63.62
638.967	63.48
639.299	63.48
639.631	63.44
639.963	63.55
640.295	63.66
640.626	63.65
640.958	63.61
641.29	63.71
641.621	63.79
641.953	63.73
642.285	63.68
642.616	63.78
642.948	63.84
643.279	63.74
643.61	63.84
643.942	63.79
644.273	63.82
644.604	63.76
644.936	63.74
645.267	63.56
645.598	63.64
645.929	63.67
646.26	63.75
646.591	63.83
646.922	63.86
647.253	63.83
647.584	63.95
647.915	64.06
648.245	63.98
648.576	63.94
648.907	64.03
649.238	64.12
649.568	64.13
649.899	64.08
650.229	64.23
650.56	64.11
650.89	64.27
651.221	64.25
651.551	64.27
651.882	64.28
652.212	64.31
652.542	64.47
652.872	64.55
653.203	64.55
653.533	64.47
653.863	64.59
654.193	64.58
654.523	64.52
654.853	64.53
655.183	64.54
655.513	64.54
655.843	64.47
656.172	64.49
656.502	64.47
656.832	64.6
657.162	64.41
657.491	64.51
657.821	64.52
658.15	64.62
658.48	64.66
658.809	64.65
659.139	64.68
659.468	64.62
659.798	64.76
660.127	64.9
660.456	64.93
660.785	64.87
661.115	64.92
661.444	64.89
661.773	64.92
662.102	64.91
662.431	64.92
662.76	64.94
663.089	64.85
663.418	64.81
663.747	64.72
664.076	64.81
664.404	64.88
664.733	64.83
665.062	64.82
665.39	64.8
665.719	64.83
666.048	64.94
666.376	64.84
