Data from BA57663_Reflection_00010.txt Node
Date: Mon Nov 18 15:44:07 EST 2019
User: vgr7
Spectrometer: USB2G7710
Scans to average: 3
Trigger mode: 4
Integration Time (sec): 2.000000E-2
Electric dark correction enabled: true
Boxcar width: 10
XAxis mode: Wavelengths
Number of Pixels in Spectrum: 2048
>>>>>Begin Spectral Data<<<<<
177.721	160.7
178.105	-131.21
178.488	-122.35
178.871	-58.48
179.254	63.79
179.636	316.81
180.019	185.87
180.402	160.71
180.785	38.43
181.168	36.45
181.55	5.69
181.933	63.74
182.316	61.5
182.698	19.64
183.081	11.16
183.463	0.93
183.846	36.88
184.228	67.95
184.611	74.93
184.993	102.69
185.376	117.98
185.758	112.1
186.14	77.92
186.522	94.17
186.904	104.55
187.287	118.01
187.669	124.34
188.051	112.59
188.433	107.31
188.815	123.39
189.197	131.06
189.579	201.21
189.961	195.57
190.342	274.55
190.724	5325.35
191.106	2665.22
191.488	940.19
191.869	6194.34
192.251	2107.63
192.633	-2367.89
193.014	-991.21
193.396	941.64
193.777	616.7
194.159	1218.03
194.54	1161.43
194.922	-1669.23
195.303	-893.73
195.684	-280900
196.065	-442.01
196.447	-382.98
196.828	-329.76
197.209	-203.26
197.59	-425.73
197.971	-272.76
198.352	-223.72
198.733	-956.54
199.114	-1792.09
199.495	-577.58
199.876	-435.18
200.257	-254.56
200.638	-253.02
201.018	-115.19
201.399	-74.43
201.78	-36.34
202.16	-50.42
202.541	-93.21
202.922	-139.78
203.302	-229.99
203.683	-402.21
204.063	-490.57
204.444	-894.55
204.824	-1430.81
205.204	-750.6
205.585	-392.59
205.965	-356.49
206.345	-558.75
206.725	-394.61
207.106	-485.04
207.486	-935.01
207.866	1892.95
208.246	837.57
208.626	375.76
209.006	466.87
209.386	426.83
209.766	248.3
210.145	173.08
210.525	241.46
210.905	153.01
211.285	289.4
211.664	801.36
212.044	281.18
212.424	1522.54
212.803	3587.8
213.183	207.05
213.562	109.49
213.942	3186.96
214.321	-363.41
214.701	-248.67
215.08	-445.76
215.459	-478.95
215.838	-132.72
216.218	-223.8
216.597	-112.16
216.976	-129.67
217.355	-224.86
217.734	-254.3
218.113	-196.32
218.492	-294.89
218.871	-270.77
219.25	-321.17
219.629	-364.49
220.008	-325.16
220.387	-297.75
220.766	-282.26
221.144	-938.53
221.523	-717.95
221.902	-1095.69
222.28	-1330.91
222.659	-2365.24
223.037	-923.09
223.416	-735.56
223.794	-494.16
224.173	-183.34
224.551	-90.1
224.929	-66.86
225.308	-27.91
225.686	-17.35
226.064	-10.34
226.442	-7.99
226.821	3.27
227.199	4.73
227.577	3.12
227.955	5.42
228.333	8.65
228.711	8.57
229.089	11.55
229.467	10.02
229.845	8.88
230.222	7.13
230.6	2.11
230.978	1.39
231.356	0.68
231.733	0.51
232.111	3.21
232.488	2.46
232.866	3.67
233.243	1.28
233.621	-0.29
233.998	0.95
234.376	2.14
234.753	0.7
235.13	2.02
235.508	2.2
235.885	1.36
236.262	-0.93
236.639	-0.93
237.016	-2.88
237.393	-1.45
237.77	0.31
238.147	0.67
238.524	2.92
238.901	3.74
239.278	4.49
239.655	4.34
240.032	3.8
240.409	3.26
240.785	2.92
241.162	3.48
241.539	4.24
241.915	3.95
242.292	3.28
242.668	3.52
243.045	3.71
243.421	3.9
243.798	3.75
244.174	4.13
244.551	4.17
244.927	4.63
245.303	4.7
245.679	4.54
246.056	4.7
246.432	4.71
246.808	4.36
247.184	3.98
247.56	4.02
247.936	4.14
248.312	4.51
248.688	4.75
249.064	4.69
249.44	4.71
249.815	4.7
250.191	4.68
250.567	4.7
250.943	4.51
251.318	4.55
251.694	4.43
252.069	4.46
252.445	4.23
252.82	4.17
253.196	4.01
253.571	4.12
253.947	4.08
254.322	4.02
254.697	4.4
255.073	4.26
255.448	4.09
255.823	3.99
256.198	3.68
256.573	3.34
256.948	3.54
257.323	3.86
257.698	3.93
258.073	4.06
258.448	3.91
258.823	3.93
259.198	3.8
259.573	3.98
259.948	3.9
260.322	4.05
260.697	3.85
261.072	3.8
261.446	3.83
261.821	3.82
262.195	3.88
262.57	3.85
262.944	4.15
263.319	4.25
263.693	4.21
264.067	4.48
264.442	4.64
264.816	4.49
265.19	4.12
265.564	4.11
265.938	4.07
266.313	4.07
266.687	4.07
267.061	4.07
267.435	4.06
267.809	4.29
268.183	4.12
268.556	4.29
268.93	4.35
269.304	4.31
269.678	4.36
270.051	4.18
270.425	4.07
270.799	3.87
271.172	3.91
271.546	3.85
271.919	3.57
272.293	3.66
272.666	3.73
273.04	3.83
273.413	3.83
273.787	3.91
274.16	4.03
274.533	4.06
274.906	4.11
275.279	4.13
275.653	3.91
276.026	4
276.399	4.02
276.772	4.07
277.145	4.07
277.518	4.08
277.891	4.13
278.263	4.16
278.636	4.14
279.009	4.25
279.382	4.27
279.755	4.44
280.127	4.42
280.5	4.46
280.872	4.52
281.245	4.33
281.617	4.45
281.99	4.47
282.362	4.57
282.735	4.53
283.107	4.4
283.479	4.53
283.852	4.45
284.224	4.41
284.596	4.33
284.968	4.35
285.34	4.4
285.713	4.39
286.085	4.57
286.457	4.66
286.829	4.49
287.201	4.57
287.572	4.5
287.944	4.42
288.316	4.28
288.688	4.2
289.06	4.27
289.431	4.24
289.803	4.31
290.175	4.24
290.546	4.3
290.918	4.5
291.289	4.54
291.661	4.77
292.032	4.79
292.403	4.86
292.775	4.97
293.146	4.9
293.517	4.97
293.889	4.98
294.26	5.07
294.631	5.15
295.002	5.23
295.373	5.36
295.744	5.41
296.115	5.6
296.486	5.56
296.857	5.77
297.228	5.74
297.599	5.76
297.97	5.85
298.34	5.89
298.711	5.89
299.082	5.94
299.452	5.84
299.823	5.99
300.194	6.1
300.564	6.04
300.935	6.22
301.305	6.18
301.676	6.28
302.046	6.29
302.416	6.51
302.787	6.58
303.157	6.66
303.527	6.76
303.897	6.78
304.267	6.98
304.637	7.01
305.008	7.23
305.378	7.34
305.748	7.46
306.117	7.63
306.487	7.69
306.857	7.7
307.227	7.86
307.597	7.97
307.967	8.04
308.336	8.13
308.706	8.08
309.076	8.26
309.445	8.19
309.815	8.25
310.184	8.14
310.554	8.11
310.923	8.23
311.293	8.26
311.662	8.3
312.031	8.36
312.401	8.39
312.77	8.51
313.139	8.56
313.508	8.55
313.877	8.6
314.246	8.66
314.616	8.7
314.985	8.81
315.353	8.74
315.722	8.73
316.091	8.93
316.46	9.05
316.829	9.08
317.198	9.17
317.567	9.23
317.935	9.41
318.304	9.47
318.672	9.42
319.041	9.73
319.41	9.84
319.778	9.85
320.147	9.85
320.515	9.68
320.883	9.62
321.252	9.74
321.62	9.84
321.988	10.02
322.357	10.14
322.725	10.23
323.093	10.47
323.461	10.68
323.829	10.75
324.197	10.92
324.565	11.04
324.933	11.12
325.301	11.32
325.669	11.41
326.037	11.49
326.405	11.61
326.772	11.52
327.14	11.67
327.508	11.79
327.875	11.83
328.243	12
328.61	12.19
328.978	12.32
329.346	12.44
329.713	12.35
330.08	12.43
330.448	12.56
330.815	12.43
331.182	12.33
331.55	12.36
331.917	12.26
332.284	12.48
332.651	12.55
333.018	12.54
333.385	12.59
333.752	12.76
334.119	12.9
334.486	12.92
334.853	12.91
335.22	13.02
335.587	13.15
335.954	13.25
336.32	13.18
336.687	13.2
337.054	13.28
337.42	13.39
337.787	13.51
338.153	13.46
338.52	13.53
338.886	13.7
339.253	13.79
339.619	13.91
339.986	13.93
340.352	13.96
340.718	13.98
341.084	13.91
341.451	13.98
341.817	14.04
342.183	14.14
342.549	14.12
342.915	14.13
343.281	14.15
343.647	14.15
344.013	14.25
344.379	14.24
344.745	14.25
345.11	14.35
345.476	14.37
345.842	14.39
346.208	14.53
346.573	14.53
346.939	14.53
347.304	14.54
347.67	14.44
348.035	14.57
348.401	14.64
348.766	14.66
349.132	14.68
349.497	14.61
349.862	14.68
350.228	14.82
350.593	14.83
350.958	14.89
351.323	14.94
351.688	14.97
352.053	14.97
352.418	15.01
352.783	15.02
353.148	14.95
353.513	15.02
353.878	14.96
354.243	15.04
354.608	15.04
354.972	15.02
355.337	15.1
355.702	15.02
356.066	15
356.431	15.07
356.795	14.97
357.16	14.98
357.524	14.82
357.889	14.84
358.253	14.85
358.618	14.81
358.982	14.72
359.346	14.7
359.71	14.75
360.075	14.67
360.439	14.6
360.803	14.57
361.167	14.55
361.531	14.52
361.895	14.41
362.259	14.35
362.623	14.32
362.987	14.24
363.351	14.26
363.714	14.21
364.078	14.18
364.442	14.15
364.806	14.16
365.169	14.17
365.533	14.15
365.896	14.07
366.26	14.09
366.623	14.11
366.987	13.99
367.35	13.9
367.714	13.86
368.077	13.8
368.44	13.71
368.803	13.64
369.167	13.48
369.53	13.46
369.893	13.43
370.256	13.45
370.619	13.4
370.982	13.27
371.345	13.29
371.708	13.22
372.071	13.19
372.434	13.04
372.797	12.99
373.159	12.82
373.522	12.74
373.885	12.6
374.247	12.47
374.61	12.44
374.973	12.34
375.335	12.26
375.698	12.2
376.06	12.17
376.423	12.04
376.785	12.1
377.147	12.02
377.51	11.93
377.872	11.84
378.234	11.75
378.596	11.67
378.958	11.54
379.321	11.48
379.683	11.38
380.045	11.34
380.407	11.33
380.769	11.29
381.13	11.22
381.492	11.18
381.854	11.09
382.216	11
382.578	10.97
382.939	10.85
383.301	10.78
383.663	10.73
384.024	10.66
384.386	10.62
384.747	10.56
385.109	10.47
385.47	10.37
385.832	10.27
386.193	10.27
386.554	10.21
386.916	10.1
387.277	10.05
387.638	9.98
387.999	9.9
388.36	9.83
388.721	9.8
389.082	9.72
389.443	9.68
389.804	9.63
390.165	9.49
390.526	9.44
390.887	9.34
391.248	9.29
391.609	9.27
391.969	9.16
392.33	9.1
392.691	9.06
393.051	9
393.412	9
393.772	8.88
394.133	8.83
394.493	8.8
394.854	8.74
395.214	8.67
395.574	8.61
395.935	8.52
396.295	8.44
396.655	8.35
397.015	8.3
397.376	8.23
397.736	8.21
398.096	8.16
398.456	8.15
398.816	8.14
399.176	8.02
399.535	7.95
399.895	7.89
400.255	7.82
400.615	7.78
400.975	7.7
401.334	7.67
401.694	7.6
402.054	7.53
402.413	7.44
402.773	7.37
403.132	7.3
403.492	7.27
403.851	7.23
404.211	7.2
404.57	7.17
404.929	7.14
405.288	7.1
405.648	7.09
406.007	7.02
406.366	6.94
406.725	6.97
407.084	6.96
407.443	6.93
407.802	6.93
408.161	6.88
408.52	6.84
408.879	6.76
409.238	6.76
409.596	6.71
409.955	6.72
410.314	6.71
410.673	6.66
411.031	6.65
411.39	6.62
411.748	6.59
412.107	6.57
412.465	6.56
412.824	6.53
413.182	6.47
413.54	6.45
413.899	6.42
414.257	6.38
414.615	6.32
414.974	6.28
415.332	6.21
415.69	6.19
416.048	6.13
416.406	6.1
416.764	6.01
417.122	6
417.48	5.95
417.838	5.9
418.195	5.87
418.553	5.81
418.911	5.77
419.269	5.75
419.626	5.71
419.984	5.66
420.342	5.61
420.699	5.59
421.057	5.57
421.414	5.54
421.772	5.5
422.129	5.48
422.486	5.44
422.844	5.42
423.201	5.39
423.558	5.39
423.915	5.37
424.273	5.38
424.63	5.35
424.987	5.35
425.344	5.32
425.701	5.32
426.058	5.31
426.415	5.3
426.772	5.27
427.128	5.25
427.485	5.24
427.842	5.23
428.199	5.22
428.555	5.19
428.912	5.19
429.269	5.18
429.625	5.17
429.982	5.17
430.338	5.16
430.695	5.16
431.051	5.14
431.407	5.13
431.764	5.11
432.12	5.09
432.476	5.06
432.832	5.06
433.189	5.05
433.545	5.03
433.901	5.03
434.257	5.05
434.613	5.06
434.969	5.05
435.325	5.06
435.681	5.05
436.036	5.05
436.392	5.04
436.748	5.02
437.104	5.02
437.459	5
437.815	5
438.171	4.99
438.526	5
438.882	5
439.237	5
439.593	5.02
439.948	5
440.304	4.99
440.659	4.99
441.014	4.98
441.369	4.95
441.725	4.91
442.08	4.9
442.435	4.89
442.79	4.89
443.145	4.86
443.5	4.86
443.855	4.83
444.21	4.82
444.565	4.81
444.92	4.81
445.275	4.78
445.629	4.76
445.984	4.73
446.339	4.72
446.693	4.7
447.048	4.67
447.403	4.67
447.757	4.64
448.112	4.61
448.466	4.61
448.82	4.6
449.175	4.61
449.529	4.56
449.883	4.55
450.238	4.51
450.592	4.51
450.946	4.49
451.3	4.5
451.654	4.48
452.008	4.47
452.362	4.45
452.716	4.44
453.07	4.45
453.424	4.46
453.778	4.45
454.132	4.42
454.486	4.41
454.839	4.4
455.193	4.42
455.547	4.42
455.9	4.41
456.254	4.42
456.607	4.42
456.961	4.43
457.314	4.44
457.668	4.46
458.021	4.46
458.375	4.45
458.728	4.47
459.081	4.49
459.434	4.48
459.787	4.5
460.141	4.51
460.494	4.5
460.847	4.49
461.2	4.47
461.553	4.48
461.906	4.52
462.259	4.54
462.611	4.57
462.964	4.59
463.317	4.61
463.67	4.61
464.022	4.63
464.375	4.66
464.728	4.65
465.08	4.68
465.433	4.7
465.785	4.74
466.138	4.73
466.49	4.76
466.843	4.78
467.195	4.8
467.547	4.83
467.899	4.86
468.252	4.91
468.604	4.94
468.956	4.96
469.308	4.96
469.66	4.98
470.012	4.98
470.364	5.01
470.716	5.02
471.068	5.05
471.42	5.05
471.772	5.1
472.123	5.12
472.475	5.13
472.827	5.13
473.178	5.12
473.53	5.12
473.882	5.1
474.233	5.1
474.585	5.09
474.936	5.09
475.288	5.09
475.639	5.09
475.99	5.08
476.342	5.09
476.693	5.09
477.044	5.09
477.395	5.09
477.746	5.06
478.097	5.03
478.448	5.01
478.8	5
479.15	4.96
479.501	4.95
479.852	4.94
480.203	4.93
480.554	4.95
480.905	4.95
481.255	4.94
481.606	4.94
481.957	4.95
482.307	4.94
482.658	4.94
483.009	4.92
483.359	4.93
483.709	4.93
484.06	4.93
484.41	4.93
484.761	4.93
485.111	4.94
485.461	4.95
485.811	4.96
486.162	4.96
486.512	4.99
486.862	5
487.212	5
487.562	5.02
487.912	5.03
488.262	5.05
488.612	5.07
488.961	5.08
489.311	5.09
489.661	5.11
490.011	5.13
490.36	5.15
490.71	5.16
491.06	5.19
491.409	5.21
491.759	5.22
492.108	5.24
492.458	5.27
492.807	5.29
493.157	5.32
493.506	5.34
493.855	5.37
494.204	5.4
494.554	5.43
494.903	5.46
495.252	5.5
495.601	5.53
495.95	5.57
496.299	5.61
496.648	5.63
496.997	5.69
497.346	5.75
497.695	5.81
498.043	5.86
498.392	5.92
498.741	6
499.09	6.05
499.438	6.11
499.787	6.17
500.135	6.26
500.484	6.33
500.832	6.4
501.181	6.44
501.529	6.51
501.878	6.6
502.226	6.67
502.574	6.74
502.923	6.84
503.271	6.9
503.619	7.01
503.967	7.15
504.315	7.23
504.663	7.32
505.011	7.41
505.359	7.51
505.707	7.59
506.055	7.68
506.403	7.8
506.751	7.91
507.098	8
507.446	8.1
507.794	8.19
508.141	8.31
508.489	8.43
508.837	8.56
509.184	8.67
509.531	8.81
509.879	8.95
510.226	9.05
510.574	9.16
510.921	9.26
511.268	9.34
511.616	9.47
511.963	9.62
512.31	9.75
512.657	9.89
513.004	10.05
513.351	10.2
513.698	10.36
514.045	10.51
514.392	10.68
514.739	10.82
515.086	10.99
515.432	11.15
515.779	11.29
516.126	11.44
516.473	11.58
516.819	11.72
517.166	11.85
517.512	12.02
517.859	12.17
518.205	12.33
518.552	12.51
518.898	12.64
519.245	12.76
519.591	12.92
519.937	13.05
520.283	13.19
520.629	13.35
520.976	13.49
521.322	13.68
521.668	13.9
522.014	14.12
522.36	14.34
522.706	14.55
523.052	14.79
523.398	15.07
523.743	15.35
524.089	15.62
524.435	15.85
524.781	16.06
525.126	16.33
525.472	16.55
525.817	16.74
526.163	16.93
526.509	17.1
526.854	17.26
527.199	17.42
527.545	17.57
527.89	17.74
528.235	17.93
528.581	18.09
528.926	18.27
529.271	18.44
529.616	18.63
529.961	18.82
530.306	19.04
530.651	19.22
530.996	19.42
531.341	19.62
531.686	19.86
532.031	20.1
532.376	20.34
532.721	20.58
533.065	20.84
533.41	21.1
533.755	21.37
534.099	21.66
534.444	21.97
534.788	22.28
535.133	22.55
535.477	22.81
535.822	23.12
536.166	23.42
536.51	23.75
536.855	24.08
537.199	24.44
537.543	24.8
537.887	25.17
538.231	25.57
538.576	25.95
538.92	26.33
539.264	26.67
539.608	27
539.951	27.32
540.295	27.6
540.639	27.9
540.983	28.17
541.327	28.44
541.671	28.71
542.014	28.99
542.358	29.27
542.701	29.55
543.045	29.82
543.389	30.08
543.732	30.35
544.075	30.63
544.419	30.91
544.762	31.18
545.105	31.49
545.449	31.74
545.792	32.07
546.135	32.39
546.478	32.75
546.821	33.08
547.165	33.43
547.508	33.82
547.851	34.21
548.194	34.62
548.536	35.03
548.879	35.41
549.222	35.78
549.565	36.11
549.908	36.49
550.25	36.88
550.593	37.27
550.936	37.62
551.278	37.95
551.621	38.32
551.963	38.7
552.306	39.02
552.648	39.38
552.991	39.68
553.333	40
553.675	40.3
554.017	40.62
554.36	40.93
554.702	41.25
555.044	41.46
555.386	41.72
555.728	41.93
556.07	42.2
556.412	42.44
556.754	42.75
557.096	43
557.438	43.22
557.78	43.5
558.121	43.78
558.463	44.11
558.805	44.36
559.147	44.65
559.488	44.9
559.83	45.18
560.171	45.47
560.513	45.77
560.854	46.03
561.196	46.26
561.537	46.5
561.878	46.73
562.22	47.08
562.561	47.26
562.902	47.57
563.243	47.79
563.584	48.04
563.925	48.28
564.266	48.56
564.607	48.78
564.948	48.95
565.289	49.14
565.63	49.34
565.971	49.53
566.312	49.71
566.653	49.9
566.993	50.1
567.334	50.24
567.675	50.4
568.015	50.6
568.356	50.76
568.696	50.93
569.037	51.16
569.377	51.33
569.718	51.55
570.058	51.72
570.398	51.88
570.739	52.03
571.079	52.17
571.419	52.26
571.759	52.46
572.099	52.63
572.439	52.81
572.779	52.9
573.119	53.01
573.459	53.17
573.799	53.37
574.139	53.48
574.479	53.62
574.819	53.72
575.158	53.82
575.498	53.98
575.838	54.11
576.177	54.18
576.517	54.25
576.856	54.4
577.196	54.48
577.535	54.64
577.875	54.83
578.214	54.92
578.553	55.08
578.893	55.19
579.232	55.37
579.571	55.5
579.91	55.65
580.25	55.82
580.589	55.85
580.928	55.93
581.267	56.04
581.606	56.22
581.945	56.27
582.283	56.39
582.622	56.5
582.961	56.6
583.3	56.72
583.639	56.81
583.977	56.81
584.316	56.86
584.654	56.93
584.993	56.97
585.332	57.08
585.67	57.11
586.008	57.24
586.347	57.28
586.685	57.36
587.024	57.5
587.362	57.6
587.7	57.8
588.038	57.87
588.376	57.93
588.715	57.94
589.053	58.08
589.391	58.19
589.729	58.23
590.067	58.25
590.404	58.32
590.742	58.41
591.08	58.57
591.418	58.66
591.756	58.76
592.093	58.77
592.431	58.85
592.769	58.91
593.106	58.94
593.444	58.95
593.781	58.93
594.119	58.94
594.456	58.91
594.793	58.85
595.131	58.9
595.468	58.97
595.805	59.07
596.143	59.06
596.48	59.13
596.817	59.23
597.154	59.31
597.491	59.34
597.828	59.32
598.165	59.32
598.502	59.41
598.839	59.4
599.176	59.46
599.512	59.48
599.849	59.5
600.186	59.55
600.523	59.61
600.859	59.68
601.196	59.74
601.532	59.78
601.869	59.83
602.205	59.85
602.542	59.89
602.878	59.92
603.215	60.02
603.551	60.01
603.887	60.01
604.223	60.03
604.56	60.07
604.896	60.14
605.232	60.16
605.568	60.12
605.904	60.22
606.24	60.23
606.576	60.28
606.912	60.41
607.248	60.41
607.583	60.44
607.919	60.43
608.255	60.46
608.591	60.53
608.926	60.6
609.262	60.61
609.597	60.7
609.933	60.73
610.268	60.78
610.604	60.78
610.939	60.83
611.275	60.85
611.61	60.86
611.945	60.86
612.281	60.93
612.616	61
612.951	61.06
613.286	61.14
613.621	61.23
613.956	61.12
614.291	61.14
614.626	61.24
614.961	61.33
615.296	61.28
615.631	61.28
615.966	61.23
616.3	61.27
616.635	61.26
616.97	61.24
617.304	61.26
617.639	61.34
617.973	61.33
618.308	61.44
618.642	61.52
618.977	61.73
619.311	61.75
619.646	61.8
619.98	61.74
620.314	61.86
620.648	61.89
620.983	61.92
621.317	62.04
621.651	62
621.985	62
622.319	62.13
622.653	62.28
622.987	62.44
623.321	62.48
623.655	62.46
623.988	62.41
624.322	62.35
624.656	62.33
624.99	62.36
625.323	62.36
625.657	62.26
625.99	62.17
626.324	62.23
626.657	62.21
626.991	62.14
627.324	62.14
627.658	62.13
627.991	62.22
628.324	62.22
628.657	62.28
628.991	62.3
629.324	62.34
629.657	62.3
629.99	62.28
630.323	62.26
630.656	62.28
630.989	62.31
631.322	62.45
631.655	62.53
631.987	62.45
632.32	62.46
632.653	62.58
632.986	62.62
633.318	62.54
633.651	62.71
633.984	62.78
634.316	62.68
634.649	62.7
634.981	62.84
635.313	62.81
635.646	62.79
635.978	62.78
636.31	62.72
636.643	62.66
636.975	62.63
637.307	62.7
637.639	62.76
637.971	62.78
638.303	62.76
638.635	62.69
638.967	62.76
639.299	62.76
639.631	62.77
639.963	62.81
640.295	62.87
640.626	62.74
640.958	62.86
641.29	62.89
641.621	62.85
641.953	62.63
642.285	62.7
642.616	62.68
642.948	62.84
643.279	62.8
643.61	62.85
643.942	62.84
644.273	62.79
644.604	62.71
644.936	62.9
645.267	62.83
645.598	62.88
645.929	62.94
646.26	62.98
646.591	63.07
646.922	63
647.253	63.07
647.584	62.98
647.915	62.96
648.245	63.05
648.576	63.18
648.907	63.26
649.238	63.24
649.568	63.27
649.899	63.25
650.229	63.28
650.56	63.26
650.89	63.34
651.221	63.44
651.551	63.47
651.882	63.51
652.212	63.62
652.542	63.6
652.872	63.62
653.203	63.61
653.533	63.59
653.863	63.75
654.193	63.68
654.523	63.78
654.853	63.78
655.183	63.66
655.513	63.6
655.843	63.68
656.172	63.81
656.502	63.87
656.832	63.86
657.162	63.86
657.491	63.98
657.821	63.97
658.15	63.89
658.48	63.94
658.809	63.8
659.139	63.84
659.468	63.92
659.798	63.94
660.127	64.08
660.456	64.05
660.785	64.03
661.115	64.09
661.444	64.1
661.773	64.05
662.102	64.19
662.431	64.21
