Data from BA57758_Reflection_00002.txt Node
Date: Mon Nov 18 15:11:18 EST 2019
User: vgr7
Spectrometer: USB2G7710
Scans to average: 3
Trigger mode: 4
Integration Time (sec): 2.000000E-2
Electric dark correction enabled: true
Boxcar width: 10
XAxis mode: Wavelengths
Number of Pixels in Spectrum: 2048
>>>>>Begin Spectral Data<<<<<
177.721	715.38
178.105	149.33
178.488	98.15
178.871	44.16
179.254	136.94
179.636	116.95
180.019	-1286.14
180.402	-620
180.785	55.38
181.168	-3.26
181.55	92.35
181.933	65.02
182.316	54.98
182.698	25.39
183.081	16.32
183.463	0.74
183.846	132.79
184.228	84.14
184.611	129.05
184.993	59.14
185.376	108.76
185.758	46.35
186.14	49.96
186.522	20.51
186.904	2.91
187.287	35.93
187.669	3.47
188.051	35.44
188.433	-19.68
188.815	-39.61
189.197	10.9
189.579	-132.17
189.961	10.77
190.342	1.06
190.724	-89.57
191.106	-319.89
191.488	-447.95
191.869	30.31
192.251	-11.22
192.633	-65.82
193.014	-238.98
193.396	-249.17
193.777	-480.76
194.159	-487.83
194.54	-259.48
194.922	-241.35
195.303	-229.55
195.684	-154.97
196.065	-93.37
196.447	-91.29
196.828	-135.58
197.209	-101.77
197.59	-115.56
197.971	-85.3
198.352	-78.72
198.733	-99.2
199.114	-86.71
199.495	-94.36
199.876	-80.13
200.257	-66.72
200.638	-50.42
201.018	-38.03
201.399	-20.65
201.78	-14.63
202.16	-20.83
202.541	-27.9
202.922	-38.35
203.302	-20.81
203.683	-56.94
204.063	-87.45
204.444	-103.69
204.824	-63.79
205.204	-54.33
205.585	-104.57
205.965	-101.44
206.345	-108.52
206.725	-216.52
207.106	-352.44
207.486	-291.38
207.866	-348.57
208.246	-818.29
208.626	-859.28
209.006	-258.62
209.386	9780
209.766	-546.68
210.145	-399.14
210.525	-455.21
210.905	-58.65
211.285	-21.66
211.664	-10.77
212.044	-33.15
212.424	-18.76
212.803	-1.82
213.183	-8.89
213.562	3.19
213.942	-2.46
214.321	-9.79
214.701	-11.41
215.08	-3.64
215.459	16.45
215.838	27.94
216.218	19.83
216.597	11.74
216.976	10.75
217.355	17.25
217.734	14.76
218.113	24.25
218.492	6.39
218.871	-0.66
219.25	-6.85
219.629	-10.58
220.008	6.6
220.387	-14.8
220.766	-39.27
221.144	-61.3
221.523	-71.29
221.902	-78.07
222.28	-45.89
222.659	-15.48
223.037	1.04
223.416	-17.65
223.794	-28.89
224.173	-24.45
224.551	-14.26
224.929	-11.13
225.308	-16.3
225.686	-7.86
226.064	-6.26
226.442	1.14
226.821	5.78
227.199	5.51
227.577	2.35
227.955	3.15
228.333	3.47
228.711	6.67
229.089	9.25
229.467	5.98
229.845	6
230.222	2.87
230.6	-2.3
230.978	-6.4
231.356	-5.99
231.733	-5.55
232.111	-6.37
232.488	-6.19
232.866	-5.54
233.243	-2.65
233.621	-2.15
233.998	-1.34
234.376	-2.96
234.753	-4.01
235.13	-4.06
235.508	-1.81
235.885	-3.64
236.262	-2.78
236.639	-2.84
237.016	-2.99
237.393	0.95
237.77	2.58
238.147	4.23
238.524	5.19
238.901	6.98
239.278	7.11
239.655	8.28
240.032	9.59
240.409	9.48
240.785	9.04
241.162	8.86
241.539	8.58
241.915	8.24
242.292	8.13
242.668	8.12
243.045	7.75
243.421	7.69
243.798	7.72
244.174	7.66
244.551	7.39
244.927	7.38
245.303	6.86
245.679	6.74
246.056	6.56
246.432	6.57
246.808	6.35
247.184	6.17
247.56	6.02
247.936	5.82
248.312	5.69
248.688	5.87
249.064	5.58
249.44	5.69
249.815	5.64
250.191	5.68
250.567	5.65
250.943	6.03
251.318	6.02
251.694	5.88
252.069	5.79
252.445	5.99
252.82	5.91
253.196	6.2
253.571	5.95
253.947	5.82
254.322	6.08
254.697	5.96
255.073	6.23
255.448	6.07
255.823	6.08
256.198	6.21
256.573	6.06
256.948	6.5
257.323	6.78
257.698	6.73
258.073	6.55
258.448	6.64
258.823	6.43
259.198	6.27
259.573	6.51
259.948	6.34
260.322	6.36
260.697	6.31
261.072	6.22
261.446	6.36
261.821	6.37
262.195	6.44
262.57	6.46
262.944	6.26
263.319	6.3
263.693	6.19
264.067	6.41
264.442	6.45
264.816	6.33
265.19	6.04
265.564	6.12
265.938	6.35
266.313	6.37
266.687	6.34
267.061	6.64
267.435	6.38
267.809	6.56
268.183	6.46
268.556	6.58
268.93	6.54
269.304	6.45
269.678	6.61
270.051	6.49
270.425	6.62
270.799	6.69
271.172	6.64
271.546	6.53
271.919	6.1
272.293	6.11
272.666	6.01
273.04	5.96
273.413	5.9
273.787	5.78
274.16	5.9
274.533	5.84
274.906	5.65
275.279	5.55
275.653	5.63
276.026	5.67
276.399	5.6
276.772	5.68
277.145	5.7
277.518	5.67
277.891	5.65
278.263	5.41
278.636	5.51
279.009	5.6
279.382	5.88
279.755	6.34
280.127	6.56
280.5	6.71
280.872	6.7
281.245	6.69
281.617	6.8
281.99	6.7
282.362	6.85
282.735	6.85
283.107	7.02
283.479	7.07
283.852	7.09
284.224	7.04
284.596	7.06
284.968	7.09
285.34	7.17
285.713	7.35
286.085	7.5
286.457	7.53
286.829	7.45
287.201	7.37
287.572	7.21
287.944	7.11
288.316	7.15
288.688	7.27
289.06	7.27
289.431	7.28
289.803	7.3
290.175	7.21
290.546	7.37
290.918	7.49
291.289	7.44
291.661	7.5
292.032	7.76
292.403	7.79
292.775	7.98
293.146	7.87
293.517	7.73
293.889	7.78
294.26	7.82
294.631	8.04
295.002	8.1
295.373	8.11
295.744	8.07
296.115	8.01
296.486	8.07
296.857	8.11
297.228	8.12
297.599	8.32
297.97	8.41
298.34	8.39
298.711	8.4
299.082	8.4
299.452	8.36
299.823	8.32
300.194	8.33
300.564	8.2
300.935	8.3
301.305	8.35
301.676	8.43
302.046	8.49
302.416	8.55
302.787	8.61
303.157	8.82
303.527	8.89
303.897	8.86
304.267	8.82
304.637	8.95
305.008	9.01
305.378	8.77
305.748	8.81
306.117	8.67
306.487	8.63
306.857	8.65
307.227	8.63
307.597	8.68
307.967	8.66
308.336	8.69
308.706	8.66
309.076	8.7
309.445	8.63
309.815	8.58
310.184	8.34
310.554	8.36
310.923	8.2
311.293	8.28
311.662	8.38
312.031	8.39
312.401	8.47
312.77	8.42
313.139	8.53
313.508	8.56
313.877	8.59
314.246	8.69
314.616	8.66
314.985	8.72
315.353	8.61
315.722	8.8
316.091	8.82
316.46	8.73
316.829	8.78
317.198	8.76
317.567	8.79
317.935	8.88
318.304	9.02
318.672	9.01
319.041	8.97
319.41	8.88
319.778	8.86
320.147	8.89
320.515	8.82
320.883	8.65
321.252	8.7
321.62	9.06
321.988	8.97
322.357	9.14
322.725	9.15
323.093	9.15
323.461	9.05
323.829	9.12
324.197	9.22
324.565	9.11
324.933	9.07
325.301	8.98
325.669	9.18
326.037	9.02
326.405	9.01
326.772	9.03
327.14	9.18
327.508	9.29
327.875	9.13
328.243	9.22
328.61	9.26
328.978	9.23
329.346	8.98
329.713	8.93
330.08	8.84
330.448	8.77
330.815	8.68
331.182	8.58
331.55	8.46
331.917	8.45
332.284	8.51
332.651	8.58
333.018	8.64
333.385	8.52
333.752	8.66
334.119	8.75
334.486	8.72
334.853	8.68
335.22	8.54
335.587	8.59
335.954	8.47
336.32	8.46
336.687	8.44
337.054	8.5
337.42	8.57
337.787	8.67
338.153	8.71
338.52	8.87
338.886	8.86
339.253	8.85
339.619	8.86
339.986	8.87
340.352	8.84
340.718	8.82
341.084	8.71
341.451	8.57
341.817	8.52
342.183	8.46
342.549	8.38
342.915	8.44
343.281	8.35
343.647	8.39
344.013	8.39
344.379	8.33
344.745	8.32
345.11	8.32
345.476	8.25
345.842	8.29
346.208	8.29
346.573	8.34
346.939	8.45
347.304	8.4
347.67	8.44
348.035	8.47
348.401	8.5
348.766	8.54
349.132	8.55
349.497	8.63
349.862	8.71
350.228	8.76
350.593	8.74
350.958	8.77
351.323	8.78
351.688	8.82
352.053	8.79
352.418	8.77
352.783	8.76
353.148	8.78
353.513	8.82
353.878	8.7
354.243	8.78
354.608	8.72
354.972	8.81
355.337	8.83
355.702	8.79
356.066	8.81
356.431	8.84
356.795	8.91
357.16	8.88
357.524	8.79
357.889	8.78
358.253	8.79
358.618	8.87
358.982	8.88
359.346	8.85
359.71	8.94
360.075	8.93
360.439	8.96
360.803	8.95
361.167	8.92
361.531	8.92
361.895	8.83
362.259	8.77
362.623	8.7
362.987	8.65
363.351	8.68
363.714	8.73
364.078	8.66
364.442	8.64
364.806	8.63
365.169	8.62
365.533	8.64
365.896	8.62
366.26	8.57
366.623	8.51
366.987	8.52
367.35	8.54
367.714	8.57
368.077	8.57
368.44	8.56
368.803	8.53
369.167	8.55
369.53	8.54
369.893	8.6
370.256	8.63
370.619	8.6
370.982	8.57
371.345	8.49
371.708	8.57
372.071	8.55
372.434	8.53
372.797	8.56
373.159	8.59
373.522	8.61
373.885	8.64
374.247	8.72
374.61	8.69
374.973	8.6
375.335	8.57
375.698	8.55
376.06	8.53
376.423	8.54
376.785	8.59
377.147	8.62
377.51	8.6
377.872	8.6
378.234	8.62
378.596	8.63
378.958	8.62
379.321	8.62
379.683	8.54
380.045	8.54
380.407	8.57
380.769	8.53
381.13	8.49
381.492	8.46
381.854	8.45
382.216	8.43
382.578	8.48
382.939	8.45
383.301	8.44
383.663	8.48
384.024	8.46
384.386	8.51
384.747	8.51
385.109	8.5
385.47	8.49
385.832	8.48
386.193	8.51
386.554	8.53
386.916	8.55
387.277	8.62
387.638	8.64
387.999	8.63
388.36	8.62
388.721	8.64
389.082	8.64
389.443	8.62
389.804	8.64
390.165	8.59
390.526	8.61
390.887	8.55
391.248	8.55
391.609	8.53
391.969	8.46
392.33	8.5
392.691	8.51
393.051	8.5
393.412	8.49
393.772	8.48
394.133	8.46
394.493	8.42
394.854	8.44
395.214	8.46
395.574	8.44
395.935	8.44
396.295	8.46
396.655	8.4
397.015	8.4
397.376	8.35
397.736	8.39
398.096	8.39
398.456	8.43
398.816	8.41
399.176	8.38
399.535	8.37
399.895	8.32
400.255	8.36
400.615	8.36
400.975	8.38
401.334	8.35
401.694	8.36
402.054	8.35
402.413	8.34
402.773	8.28
403.132	8.26
403.492	8.25
403.851	8.26
404.211	8.29
404.57	8.25
404.929	8.29
405.288	8.27
405.648	8.27
406.007	8.26
406.366	8.24
406.725	8.27
407.084	8.28
407.443	8.26
407.802	8.25
408.161	8.23
408.52	8.2
408.879	8.2
409.238	8.18
409.596	8.19
409.955	8.17
410.314	8.19
410.673	8.22
411.031	8.22
411.39	8.18
411.748	8.19
412.107	8.21
412.465	8.21
412.824	8.2
413.182	8.18
413.54	8.19
413.899	8.21
414.257	8.22
414.615	8.21
414.974	8.21
415.332	8.15
415.69	8.17
416.048	8.16
416.406	8.16
416.764	8.15
417.122	8.14
417.48	8.15
417.838	8.13
418.195	8.11
418.553	8.1
418.911	8.11
419.269	8.11
419.626	8.1
419.984	8.1
420.342	8.1
420.699	8.1
421.057	8.09
421.414	8.06
421.772	8.04
422.129	8.06
422.486	8.07
422.844	8.09
423.201	8.07
423.558	8.08
423.915	8.07
424.273	8.08
424.63	8.08
424.987	8.05
425.344	8.05
425.701	8.05
426.058	8.05
426.415	8.05
426.772	8.02
427.128	8.01
427.485	8
427.842	7.99
428.199	7.97
428.555	7.96
428.912	8
429.269	7.99
429.625	7.96
429.982	7.95
430.338	7.93
430.695	7.91
431.051	7.89
431.407	7.89
431.764	7.89
432.12	7.88
432.476	7.89
432.832	7.89
433.189	7.9
433.545	7.88
433.901	7.86
434.257	7.87
434.613	7.88
434.969	7.88
435.325	7.89
435.681	7.91
436.036	7.9
436.392	7.89
436.748	7.87
437.104	7.87
437.459	7.86
437.815	7.85
438.171	7.86
438.526	7.89
438.882	7.88
439.237	7.87
439.593	7.88
439.948	7.87
440.304	7.86
440.659	7.86
441.014	7.87
441.369	7.86
441.725	7.86
442.08	7.84
442.435	7.85
442.79	7.83
443.145	7.83
443.5	7.82
443.855	7.81
444.21	7.83
444.565	7.83
444.92	7.84
445.275	7.84
445.629	7.85
445.984	7.83
446.339	7.82
446.693	7.81
447.048	7.81
447.403	7.8
447.757	7.8
448.112	7.78
448.466	7.78
448.82	7.79
449.175	7.78
449.529	7.77
449.883	7.74
450.238	7.75
450.592	7.75
450.946	7.74
451.3	7.73
451.654	7.72
452.008	7.72
452.362	7.69
452.716	7.69
453.07	7.68
453.424	7.69
453.778	7.67
454.132	7.67
454.486	7.64
454.839	7.63
455.193	7.61
455.547	7.61
455.9	7.59
456.254	7.59
456.607	7.59
456.961	7.6
457.314	7.62
457.668	7.62
458.021	7.62
458.375	7.64
458.728	7.65
459.081	7.65
459.434	7.65
459.787	7.65
460.141	7.66
460.494	7.66
460.847	7.67
461.2	7.67
461.553	7.68
461.906	7.71
462.259	7.73
462.611	7.77
462.964	7.79
463.317	7.81
463.67	7.83
464.022	7.85
464.375	7.85
464.728	7.85
465.08	7.85
465.433	7.84
465.785	7.84
466.138	7.86
466.49	7.87
466.843	7.86
467.195	7.87
467.547	7.9
467.899	7.92
468.252	7.92
468.604	7.93
468.956	7.93
469.308	7.92
469.66	7.91
470.012	7.91
470.364	7.92
470.716	7.92
471.068	7.93
471.42	7.92
471.772	7.95
472.123	7.98
472.475	7.99
472.827	8.01
473.178	8.01
473.53	8
473.882	8
474.233	8.02
474.585	8.02
474.936	7.99
475.288	7.97
475.639	7.99
475.99	7.98
476.342	7.97
476.693	7.96
477.044	7.97
477.395	7.95
477.746	7.92
478.097	7.93
478.448	7.92
478.8	7.91
479.15	7.87
479.501	7.86
479.852	7.87
480.203	7.88
480.554	7.9
480.905	7.92
481.255	7.94
481.606	7.94
481.957	7.94
482.307	7.95
482.658	7.96
483.009	7.95
483.359	7.96
483.709	7.97
484.06	7.98
484.41	7.98
484.761	7.99
485.111	8
485.461	7.99
485.811	7.99
486.162	8
486.512	8.02
486.862	8.03
487.212	8.02
487.562	8.02
487.912	8.02
488.262	8.02
488.612	8.01
488.961	8.01
489.311	8.01
489.661	8.01
490.011	8.01
490.36	8.01
490.71	8.01
491.06	8
491.409	7.99
491.759	7.99
492.108	7.98
492.458	7.99
492.807	7.99
493.157	8
493.506	8
493.855	7.99
494.204	7.97
494.554	7.99
494.903	8
495.252	7.99
495.601	7.98
495.95	7.99
496.299	7.98
496.648	7.99
496.997	8.01
497.346	8.02
497.695	8.04
498.043	8.05
498.392	8.07
498.741	8.09
499.09	8.1
499.438	8.12
499.787	8.13
500.135	8.15
500.484	8.15
500.832	8.16
501.181	8.18
501.529	8.21
501.878	8.21
502.226	8.21
502.574	8.2
502.923	8.22
503.271	8.26
503.619	8.26
503.967	8.28
504.315	8.26
504.663	8.26
505.011	8.26
505.359	8.26
505.707	8.29
506.055	8.3
506.403	8.3
506.751	8.31
507.098	8.31
507.446	8.33
507.794	8.35
508.141	8.37
508.489	8.38
508.837	8.4
509.184	8.42
509.531	8.43
509.879	8.45
510.226	8.46
510.574	8.44
510.921	8.44
511.268	8.46
511.616	8.48
511.963	8.49
512.31	8.5
512.657	8.51
513.004	8.48
513.351	8.49
513.698	8.52
514.045	8.52
514.392	8.54
514.739	8.51
515.086	8.54
515.432	8.53
515.779	8.55
516.126	8.54
516.473	8.55
516.819	8.57
517.166	8.57
517.512	8.55
517.859	8.57
518.205	8.58
518.552	8.57
518.898	8.59
519.245	8.58
519.591	8.58
519.937	8.58
520.283	8.6
520.629	8.61
520.976	8.63
521.322	8.63
521.668	8.6
522.014	8.62
522.36	8.6
522.706	8.61
523.052	8.61
523.398	8.64
523.743	8.65
524.089	8.66
524.435	8.68
524.781	8.7
525.126	8.7
525.472	8.72
525.817	8.75
526.163	8.73
526.509	8.75
526.854	8.76
527.199	8.78
527.545	8.77
527.89	8.77
528.235	8.76
528.581	8.77
528.926	8.8
529.271	8.81
529.616	8.8
529.961	8.81
530.306	8.81
530.651	8.8
530.996	8.8
531.341	8.8
531.686	8.79
532.031	8.8
532.376	8.81
532.721	8.81
533.065	8.8
533.41	8.81
533.755	8.79
534.099	8.79
534.444	8.78
534.788	8.81
535.133	8.82
535.477	8.84
535.822	8.83
536.166	8.81
536.51	8.81
536.855	8.82
537.199	8.83
537.543	8.83
537.887	8.83
538.231	8.82
538.576	8.81
538.92	8.81
539.264	8.82
539.608	8.8
539.951	8.8
540.295	8.79
540.639	8.79
540.983	8.8
541.327	8.81
541.671	8.79
542.014	8.78
542.358	8.78
542.701	8.77
543.045	8.77
543.389	8.78
543.732	8.78
544.075	8.8
544.419	8.78
544.762	8.77
545.105	8.77
545.449	8.81
545.792	8.81
546.135	8.82
546.478	8.8
546.821	8.81
547.165	8.8
547.508	8.82
547.851	8.83
548.194	8.83
548.536	8.82
548.879	8.86
549.222	8.86
549.565	8.86
549.908	8.88
550.25	8.89
550.593	8.89
550.936	8.87
551.278	8.85
551.621	8.89
551.963	8.89
552.306	8.89
552.648	8.84
552.991	8.85
553.333	8.86
553.675	8.89
554.017	8.89
554.36	8.88
554.702	8.89
555.044	8.88
555.386	8.85
555.728	8.86
556.07	8.84
556.412	8.83
556.754	8.83
557.096	8.83
557.438	8.84
557.78	8.81
558.121	8.85
558.463	8.84
558.805	8.83
559.147	8.86
559.488	8.88
559.83	8.91
560.171	8.9
560.513	8.91
560.854	8.92
561.196	8.92
561.537	8.94
561.878	8.93
562.22	8.92
562.561	8.95
562.902	8.97
563.243	9.01
563.584	9.01
563.925	9.03
564.266	9.05
564.607	9.04
564.948	9.06
565.289	9.05
565.63	9.05
565.971	9.01
566.312	9.02
566.653	9.01
566.993	8.99
567.334	9
567.675	8.99
568.015	8.96
568.356	8.99
568.696	9.01
569.037	9
569.377	9.05
569.718	9.06
570.058	9.05
570.398	9.06
570.739	9.04
571.079	9
571.419	8.99
571.759	9.01
572.099	9.02
572.439	9.01
572.779	9.01
573.119	9.05
573.459	9.03
573.799	9.02
574.139	9.03
574.479	9.03
574.819	9.03
575.158	9.04
575.498	9.02
575.838	9
576.177	9
576.517	8.97
576.856	8.95
577.196	8.97
577.535	8.94
577.875	8.96
578.214	8.98
578.553	9.01
578.893	8.99
579.232	8.99
579.571	9
579.91	9.05
580.25	9.03
580.589	9.06
580.928	9.08
581.267	9.07
581.606	9.08
581.945	9.07
582.283	9.07
582.622	9.08
582.961	9.07
583.3	9.08
583.639	9.11
583.977	9.1
584.316	9.09
584.654	9.08
584.993	9.1
585.332	9.13
585.67	9.11
586.008	9.11
586.347	9.09
586.685	9.08
587.024	9.07
587.362	9.06
587.7	9.02
588.038	8.99
588.376	9.02
588.715	9.04
589.053	9.05
589.391	9.06
589.729	9.09
590.067	9.08
590.404	9.09
590.742	9.05
591.08	9.08
591.418	9.09
591.756	9.12
592.093	9.14
592.431	9.16
592.769	9.15
593.106	9.16
593.444	9.15
593.781	9.17
594.119	9.15
594.456	9.15
594.793	9.2
595.131	9.21
595.468	9.22
595.805	9.22
596.143	9.22
596.48	9.19
596.817	9.16
597.154	9.14
597.491	9.1
597.828	9.13
598.165	9.09
598.502	9.1
598.839	9.08
599.176	9.02
599.512	8.95
599.849	8.97
600.186	8.93
600.523	8.96
600.859	8.98
601.196	8.99
601.532	9
601.869	8.97
602.205	9
602.542	9.02
602.878	9.04
603.215	9.04
603.551	9.08
603.887	9.06
604.223	9.1
604.56	9.14
604.896	9.16
605.232	9.19
605.568	9.19
605.904	9.18
606.24	9.24
606.576	9.27
606.912	9.27
607.248	9.29
607.583	9.3
607.919	9.26
608.255	9.29
608.591	9.32
608.926	9.33
609.262	9.32
609.597	9.31
609.933	9.29
610.268	9.27
610.604	9.27
610.939	9.27
611.275	9.27
611.61	9.29
611.945	9.3
612.281	9.27
612.616	9.27
612.951	9.3
613.286	9.31
613.621	9.32
613.956	9.29
614.291	9.28
614.626	9.28
614.961	9.23
615.296	9.17
615.631	9.18
615.966	9.16
616.3	9.16
616.635	9.11
616.97	9.04
617.304	9.08
617.639	9.09
617.973	9.12
618.308	9.1
618.642	9.12
618.977	9.05
619.311	9.09
619.646	9.08
619.98	9.07
620.314	9.05
620.648	9.03
620.983	9.06
621.317	9.08
621.651	9.08
621.985	9.19
622.319	9.23
622.653	9.19
622.987	9.26
623.321	9.21
623.655	9.25
623.988	9.29
624.322	9.25
624.656	9.26
624.99	9.26
625.323	9.25
625.657	9.24
625.99	9.31
626.324	9.29
626.657	9.36
626.991	9.38
627.324	9.38
627.658	9.46
627.991	9.49
628.324	9.48
628.657	9.46
628.991	9.42
629.324	9.38
629.657	9.4
629.99	9.37
630.323	9.4
630.656	9.4
630.989	9.44
631.322	9.5
631.655	9.48
631.987	9.49
632.32	9.5
632.653	9.48
632.986	9.42
633.318	9.43
633.651	9.34
633.984	9.26
634.316	9.22
634.649	9.14
634.981	9.15
635.313	9.14
635.646	9.15
635.978	9.16
636.31	9.15
636.643	9.12
636.975	9.03
637.307	9.09
637.639	9.09
637.971	9.07
638.303	9.07
638.635	9.06
638.967	9.01
639.299	9.07
639.631	9.02
639.963	9.02
640.295	9.02
640.626	9.09
640.958	9.13
641.29	9.18
641.621	9.15
641.953	9.13
642.285	9.19
642.616	9.27
642.948	9.26
643.279	9.29
643.61	9.36
643.942	9.4
644.273	9.4
644.604	9.38
644.936	9.34
645.267	9.36
645.598	9.42
645.929	9.52
646.26	9.52
646.591	9.53
646.922	9.51
647.253	9.47
647.584	9.41
647.915	9.39
648.245	9.42
648.576	9.5
648.907	9.47
649.238	9.42
649.568	9.42
649.899	9.41
650.229	9.46
650.56	9.44
650.89	9.48
651.221	9.48
651.551	9.47
651.882	9.5
652.212	9.48
652.542	9.49
652.872	9.45
653.203	9.44
653.533	9.54
653.863	9.61
654.193	9.7
654.523	9.7
654.853	9.77
655.183	9.72
655.513	9.64
655.843	9.72
656.172	9.77
656.502	9.75
656.832	9.74
657.162	9.78
657.491	9.77
657.821	9.79
658.15	9.76
658.48	9.8
658.809	9.78
659.139	9.82
659.468	9.76
659.798	9.78
660.127	9.79
660.456	9.75
660.785	9.76
661.115	9.72
661.444	9.74
661.773	9.72
662.102	9.73
662.431	9.77
662.76	9.73
663.089	9.7
663.418	9.65
663.747	9.63
664.076	9.64
664.404	9.67
664.733	9.68
665.062	9.73
665.39	9.74
665.719	9.63
666.048	9.61
666.376	9.65
666.705	9.59
667.033	9.5
667.362	9.56
667.69	9.56
668.018	9.57
668.347	9.52
668.675	9.55
669.003	9.57
669.331	9.58
669.659	9.59
669.987	9.6
670.315	9.67
670.643	9.77
670.971	9.7
671.299	9.7
671.627	9.6
671.955	9.5
672.283	9.48
672.61	9.56
672.938	9.5
673.266	9.5
673.593	9.58
673.921	9.59
674.249	9.55
674.576	9.51
674.904	9.53
675.231	9.54
675.558	9.44
675.886	9.42
676.213	9.43
676.54	9.5
676.867	9.5
677.195	9.47
677.522	9.4
677.849	9.33
678.176	9.42
678.503	9.42
