Data from BA57715_Reflection_00004.txt Node
Date: Mon Nov 18 15:25:50 EST 2019
User: vgr7
Spectrometer: USB2G7710
Scans to average: 3
Trigger mode: 4
Integration Time (sec): 2.000000E-2
Electric dark correction enabled: true
Boxcar width: 10
XAxis mode: Wavelengths
Number of Pixels in Spectrum: 2048
>>>>>Begin Spectral Data<<<<<
177.721	26.59
178.105	29.45
178.488	26.86
178.871	3.82
179.254	-43.3
179.636	41.74
180.019	-219.36
180.402	120.83
180.785	74.48
181.168	201.19
181.55	172.61
181.933	103
182.316	74.25
182.698	105.44
183.081	115.46
183.463	129.47
183.846	71.95
184.228	357.03
184.611	132.59
184.993	-1356.79
185.376	-182.19
185.758	-212.68
186.14	-111.58
186.522	-158.65
186.904	376.09
187.287	131.22
187.669	-349.8
188.051	2353.97
188.433	612.08
188.815	1041.8
189.197	-545.99
189.579	-288.65
189.961	-412.47
190.342	-158.98
190.724	-82.28
191.106	-163.43
191.488	-136.93
191.869	-113.72
192.251	-105.43
192.633	-63.82
193.014	-140.87
193.396	-343.49
193.777	-449.91
194.159	1131.11
194.54	-337
194.922	-137.24
195.303	-82.84
195.684	-168.97
196.065	-123.31
196.447	-83.3
196.828	-35.62
197.209	12.99
197.59	24.83
197.971	-37.97
198.352	-26.75
198.733	-35.45
199.114	-11.76
199.495	-27.28
199.876	-39.27
200.257	-43.17
200.638	-51.03
201.018	-39.69
201.399	-42.05
201.78	-52.62
202.16	-63.74
202.541	-103.68
202.922	-143.86
203.302	-264.24
203.683	-183.31
204.063	-207.84
204.444	-287.69
204.824	-334.66
205.204	-328.67
205.585	-229.62
205.965	-185.98
206.345	-246.75
206.725	-407.76
207.106	-463.65
207.486	-584.68
207.866	-2788.89
208.246	1647.33
208.626	-2694.33
209.006	-406.21
209.386	-402.56
209.766	-366.06
210.145	-265.55
210.525	-294.02
210.905	-131.2
211.285	-102.55
211.664	-98.52
212.044	-134.42
212.424	-90.57
212.803	-87.4
213.183	-84.45
213.562	-83.61
213.942	-76.76
214.321	-59.78
214.701	-71.83
215.08	-77.78
215.459	-59.43
215.838	-51.67
216.218	-57.68
216.597	-52.1
216.976	-43.91
217.355	-31.89
217.734	-38.09
218.113	-26.61
218.492	-25.74
218.871	-33.95
219.25	-28.81
219.629	-24.12
220.008	-17.77
220.387	-23.69
220.766	-24.11
221.144	-24.37
221.523	-30.95
221.902	-26.27
222.28	-33.02
222.659	-26
223.037	-16.7
223.416	-38.94
223.794	-33.75
224.173	-33.77
224.551	-22.62
224.929	-30.22
225.308	-29.56
225.686	-15.04
226.064	-14.27
226.442	-12.15
226.821	-13.65
227.199	-17.66
227.577	-15.57
227.955	-15.73
228.333	-12.77
228.711	-9.54
229.089	-10.75
229.467	-12.22
229.845	-15.04
230.222	-11.04
230.6	-11.74
230.978	-12.51
231.356	-6.63
231.733	-7.9
232.111	-7.58
232.488	-7.19
232.866	-7.27
233.243	-5.79
233.621	-5.56
233.998	-3.61
234.376	-3.01
234.753	-1.43
235.13	-1.39
235.508	-0.38
235.885	-1.7
236.262	-3.29
236.639	-3.76
237.016	-2.14
237.393	-0.97
237.77	1.21
238.147	2.57
238.524	2.84
238.901	3.31
239.278	3.53
239.655	4.15
240.032	5.01
240.409	4.58
240.785	4.96
241.162	5
241.539	4.46
241.915	4
242.292	3.45
242.668	3.38
243.045	3.93
243.421	4.19
243.798	4.59
244.174	4.63
244.551	4.66
244.927	4.66
245.303	4.91
245.679	5.03
246.056	4.77
246.432	4.9
246.808	4.78
247.184	4.56
247.56	4.54
247.936	4.62
248.312	4.84
248.688	4.84
249.064	4.66
249.44	4.65
249.815	4.81
250.191	5.11
250.567	5.28
250.943	5.1
251.318	4.89
251.694	4.81
252.069	4.87
252.445	4.76
252.82	4.56
253.196	4.24
253.571	3.93
253.947	3.71
254.322	3.73
254.697	3.7
255.073	3.42
255.448	3.3
255.823	3.28
256.198	3.37
256.573	3.56
256.948	3.96
257.323	4.27
257.698	4.18
258.073	4.23
258.448	4.1
258.823	4.25
259.198	4.2
259.573	4.24
259.948	4.26
260.322	4.37
260.697	4.39
261.072	4.41
261.446	4.46
261.821	4.52
262.195	4.57
262.57	4.72
262.944	4.75
263.319	4.56
263.693	4.51
264.067	4.6
264.442	4.61
264.816	4.32
265.19	4.36
265.564	4.25
265.938	4.14
266.313	4.3
266.687	4.07
267.061	4.07
267.435	4.09
267.809	3.95
268.183	3.95
268.556	3.84
268.93	4.13
269.304	4.18
269.678	4.29
270.051	4.34
270.425	4.32
270.799	4.51
271.172	4.73
271.546	4.64
271.919	4.35
272.293	4.39
272.666	4.52
273.04	4.55
273.413	4.55
273.787	4.64
274.16	4.53
274.533	4.47
274.906	4.43
275.279	4.42
275.653	4.46
276.026	4.42
276.399	4.52
276.772	4.48
277.145	4.44
277.518	4.4
277.891	4.38
278.263	4.2
278.636	4.06
279.009	4.16
279.382	4.31
279.755	4.35
280.127	4.38
280.5	4.35
280.872	4.25
281.245	4.35
281.617	4.49
281.99	4.49
282.362	4.61
282.735	4.53
283.107	4.6
283.479	4.73
283.852	4.7
284.224	4.75
284.596	4.62
284.968	4.71
285.34	4.84
285.713	4.79
286.085	5.03
286.457	5.06
286.829	5.08
287.201	5.04
287.572	5.12
287.944	4.99
288.316	5.02
288.688	5.04
289.06	5.04
289.431	4.82
289.803	4.95
290.175	5
290.546	5.18
290.918	5.05
291.289	4.99
291.661	5.13
292.032	5.14
292.403	5.19
292.775	5.17
293.146	5.06
293.517	5.04
293.889	4.97
294.26	4.95
294.631	4.9
295.002	4.81
295.373	4.78
295.744	4.76
296.115	4.68
296.486	4.64
296.857	4.61
297.228	4.67
297.599	4.55
297.97	4.47
298.34	4.5
298.711	4.57
299.082	4.62
299.452	4.67
299.823	4.72
300.194	4.77
300.564	4.6
300.935	4.69
301.305	4.7
301.676	4.64
302.046	4.55
302.416	4.6
302.787	4.73
303.157	4.82
303.527	4.79
303.897	4.96
304.267	4.99
304.637	4.98
305.008	5.15
305.378	5.24
305.748	5.39
306.117	5.31
306.487	5.36
306.857	5.35
307.227	5.27
307.597	5.25
307.967	5.12
308.336	5.33
308.706	5.27
309.076	5.18
309.445	5.22
309.815	5.27
310.184	5.2
310.554	5.29
310.923	5.18
311.293	5.34
311.662	5.31
312.031	5.22
312.401	5.24
312.77	5.15
313.139	5.11
313.508	5.12
313.877	5.09
314.246	5.08
314.616	5
314.985	5.01
315.353	4.91
315.722	5.1
316.091	4.98
316.46	4.88
316.829	5.01
317.198	4.96
317.567	5.04
317.935	5.1
318.304	5.07
318.672	5.11
319.041	5.09
319.41	5.11
319.778	4.99
320.147	4.95
320.515	4.99
320.883	4.98
321.252	4.94
321.62	5.08
321.988	5.08
322.357	5.2
322.725	5.02
323.093	5.08
323.461	4.94
323.829	4.97
324.197	4.96
324.565	5
324.933	5.01
325.301	5.04
325.669	5.01
326.037	4.94
326.405	4.94
326.772	5.01
327.14	4.96
327.508	5.13
327.875	5.07
328.243	5.03
328.61	4.95
328.978	4.94
329.346	4.82
329.713	4.76
330.08	4.76
330.448	4.84
330.815	4.68
331.182	4.67
331.55	4.64
331.917	4.74
332.284	4.71
332.651	4.66
333.018	4.57
333.385	4.5
333.752	4.5
334.119	4.57
334.486	4.4
334.853	4.38
335.22	4.27
335.587	4.4
335.954	4.47
336.32	4.46
336.687	4.4
337.054	4.5
337.42	4.63
337.787	4.62
338.153	4.65
338.52	4.94
338.886	4.92
339.253	4.87
339.619	4.83
339.986	4.78
340.352	4.9
340.718	4.86
341.084	4.86
341.451	4.95
341.817	5.02
342.183	5.02
342.549	5.09
342.915	5.3
343.281	5.23
343.647	5.2
344.013	5.31
344.379	5.29
344.745	5.21
345.11	5.19
345.476	5.17
345.842	5.17
346.208	5.03
346.573	5.03
346.939	5.14
347.304	5.14
347.67	5.06
348.035	5.05
348.401	5.12
348.766	5.11
349.132	5.01
349.497	4.88
349.862	4.95
350.228	4.84
350.593	4.72
350.958	4.71
351.323	4.67
351.688	4.62
352.053	4.65
352.418	4.76
352.783	4.68
353.148	4.74
353.513	4.8
353.878	4.78
354.243	4.87
354.608	4.88
354.972	4.85
355.337	4.94
355.702	4.91
356.066	4.93
356.431	4.97
356.795	5.09
357.16	5.14
357.524	5.11
357.889	5.2
358.253	5.27
358.618	5.28
358.982	5.26
359.346	5.24
359.71	5.26
360.075	5.2
360.439	5.24
360.803	5.16
361.167	5.1
361.531	5.06
361.895	5.01
362.259	4.99
362.623	5.01
362.987	4.99
363.351	5.04
363.714	5.03
364.078	5.04
364.442	4.91
364.806	4.86
365.169	4.92
365.533	4.91
365.896	4.82
366.26	4.82
366.623	4.85
366.987	4.83
367.35	4.82
367.714	4.86
368.077	4.82
368.44	4.93
368.803	4.94
369.167	4.94
369.53	4.96
369.893	4.96
370.256	4.97
370.619	5.04
370.982	5.01
371.345	5.01
371.708	5.03
372.071	5.07
372.434	5.1
372.797	5.03
373.159	5.03
373.522	5.1
373.885	5.1
374.247	5.07
374.61	5.1
374.973	5.05
375.335	5.02
375.698	5.11
376.06	5.04
376.423	5.03
376.785	5.07
377.147	5.14
377.51	5.1
377.872	5.14
378.234	5.1
378.596	5.08
378.958	5.06
379.321	5.05
379.683	5.1
380.045	5.13
380.407	5.17
380.769	5.17
381.13	5.16
381.492	5.16
381.854	5.22
382.216	5.21
382.578	5.24
382.939	5.24
383.301	5.17
383.663	5.16
384.024	5.19
384.386	5.24
384.747	5.24
385.109	5.27
385.47	5.23
385.832	5.21
386.193	5.24
386.554	5.29
386.916	5.29
387.277	5.29
387.638	5.28
387.999	5.23
388.36	5.26
388.721	5.27
389.082	5.31
389.443	5.27
389.804	5.3
390.165	5.29
390.526	5.29
390.887	5.28
391.248	5.35
391.609	5.36
391.969	5.27
392.33	5.25
392.691	5.24
393.051	5.22
393.412	5.22
393.772	5.2
394.133	5.19
394.493	5.19
394.854	5.17
395.214	5.13
395.574	5.17
395.935	5.14
396.295	5.14
396.655	5.06
397.015	5.08
397.376	5.05
397.736	5.07
398.096	5.08
398.456	5.08
398.816	5.06
399.176	5.03
399.535	5.06
399.895	5
400.255	5.05
400.615	5.06
400.975	5.1
401.334	5.09
401.694	5.07
402.054	5.03
402.413	5.03
402.773	5.01
403.132	5.01
403.492	4.99
403.851	4.98
404.211	5.05
404.57	5.03
404.929	5.07
405.288	5.04
405.648	5.07
406.007	5.08
406.366	5.05
406.725	5.08
407.084	5.09
407.443	5.13
407.802	5.14
408.161	5.1
408.52	5.09
408.879	5.1
409.238	5.1
409.596	5.13
409.955	5.11
410.314	5.14
410.673	5.15
411.031	5.14
411.39	5.14
411.748	5.12
412.107	5.14
412.465	5.11
412.824	5.12
413.182	5.12
413.54	5.1
413.899	5.15
414.257	5.14
414.615	5.11
414.974	5.1
415.332	5.06
415.69	5.07
416.048	5.06
416.406	5.04
416.764	5.04
417.122	5.04
417.48	5.03
417.838	5.02
418.195	5.01
418.553	5
418.911	4.98
419.269	4.99
419.626	4.98
419.984	4.98
420.342	4.99
420.699	4.98
421.057	4.98
421.414	4.97
421.772	4.96
422.129	4.97
422.486	4.98
422.844	4.99
423.201	4.98
423.558	4.96
423.915	4.96
424.273	4.98
424.63	4.96
424.987	4.97
425.344	4.98
425.701	4.97
426.058	4.98
426.415	4.99
426.772	4.97
427.128	4.98
427.485	4.98
427.842	4.94
428.199	4.95
428.555	4.94
428.912	4.95
429.269	4.94
429.625	4.92
429.982	4.91
430.338	4.89
430.695	4.91
431.051	4.92
431.407	4.92
431.764	4.91
432.12	4.91
432.476	4.9
432.832	4.88
433.189	4.89
433.545	4.87
433.901	4.87
434.257	4.87
434.613	4.85
434.969	4.87
435.325	4.88
435.681	4.88
436.036	4.89
436.392	4.88
436.748	4.89
437.104	4.9
437.459	4.91
437.815	4.92
438.171	4.91
438.526	4.92
438.882	4.95
439.237	4.95
439.593	4.97
439.948	4.96
440.304	4.97
440.659	4.95
441.014	4.96
441.369	4.96
441.725	4.97
442.08	4.97
442.435	4.96
442.79	4.97
443.145	4.96
443.5	4.95
443.855	4.95
444.21	4.94
444.565	4.95
444.92	4.95
445.275	4.93
445.629	4.93
445.984	4.93
446.339	4.91
446.693	4.9
447.048	4.9
447.403	4.88
447.757	4.87
448.112	4.89
448.466	4.87
448.82	4.86
449.175	4.86
449.529	4.85
449.883	4.84
450.238	4.83
450.592	4.83
450.946	4.82
451.3	4.81
451.654	4.81
452.008	4.79
452.362	4.78
452.716	4.79
453.07	4.8
453.424	4.77
453.778	4.78
454.132	4.78
454.486	4.78
454.839	4.82
455.193	4.83
455.547	4.84
455.9	4.86
456.254	4.85
456.607	4.85
456.961	4.86
457.314	4.85
457.668	4.85
458.021	4.83
458.375	4.83
458.728	4.85
459.081	4.85
459.434	4.85
459.787	4.83
460.141	4.82
460.494	4.82
460.847	4.83
461.2	4.81
461.553	4.82
461.906	4.82
462.259	4.81
462.611	4.82
462.964	4.82
463.317	4.82
463.67	4.82
464.022	4.8
464.375	4.79
464.728	4.81
465.08	4.83
465.433	4.83
465.785	4.85
466.138	4.85
466.49	4.85
466.843	4.86
467.195	4.89
467.547	4.89
467.899	4.91
468.252	4.91
468.604	4.94
468.956	4.92
469.308	4.9
469.66	4.89
470.012	4.89
470.364	4.88
470.716	4.88
471.068	4.9
471.42	4.92
471.772	4.93
472.123	4.93
472.475	4.92
472.827	4.94
473.178	4.94
473.53	4.96
473.882	4.98
474.233	4.97
474.585	4.95
474.936	4.96
475.288	4.95
475.639	4.96
475.99	4.94
476.342	4.94
476.693	4.93
477.044	4.96
477.395	4.96
477.746	4.97
478.097	4.95
478.448	4.97
478.8	4.97
479.15	4.94
479.501	4.95
479.852	4.95
480.203	4.96
480.554	4.97
480.905	4.98
481.255	4.98
481.606	4.99
481.957	5.02
482.307	5.02
482.658	5.01
483.009	5.01
483.359	5.03
483.709	5.04
484.06	5.06
484.41	5.06
484.761	5.06
485.111	5.07
485.461	5.09
485.811	5.08
486.162	5.09
486.512	5.1
486.862	5.1
487.212	5.1
487.562	5.11
487.912	5.1
488.262	5.1
488.612	5.11
488.961	5.11
489.311	5.11
489.661	5.11
490.011	5.13
490.36	5.13
490.71	5.12
491.06	5.13
491.409	5.13
491.759	5.12
492.108	5.12
492.458	5.12
492.807	5.1
493.157	5.1
493.506	5.09
493.855	5.1
494.204	5.1
494.554	5.11
494.903	5.11
495.252	5.11
495.601	5.11
495.95	5.12
496.299	5.11
496.648	5.11
496.997	5.13
497.346	5.13
497.695	5.13
498.043	5.14
498.392	5.12
498.741	5.14
499.09	5.13
499.438	5.15
499.787	5.14
500.135	5.18
500.484	5.19
500.832	5.21
501.181	5.22
501.529	5.24
501.878	5.26
502.226	5.27
502.574	5.26
502.923	5.26
503.271	5.25
503.619	5.25
503.967	5.25
504.315	5.23
504.663	5.25
505.011	5.25
505.359	5.23
505.707	5.24
506.055	5.23
506.403	5.26
506.751	5.26
507.098	5.26
507.446	5.26
507.794	5.25
508.141	5.26
508.489	5.28
508.837	5.29
509.184	5.29
509.531	5.29
509.879	5.32
510.226	5.33
510.574	5.33
510.921	5.35
511.268	5.35
511.616	5.36
511.963	5.35
512.31	5.38
512.657	5.4
513.004	5.41
513.351	5.45
513.698	5.45
514.045	5.45
514.392	5.46
514.739	5.48
515.086	5.5
515.432	5.5
515.779	5.49
516.126	5.51
516.473	5.52
516.819	5.53
517.166	5.52
517.512	5.51
517.859	5.51
518.205	5.51
518.552	5.53
518.898	5.53
519.245	5.53
519.591	5.5
519.937	5.5
520.283	5.49
520.629	5.48
520.976	5.48
521.322	5.49
521.668	5.5
522.014	5.51
522.36	5.51
522.706	5.52
523.052	5.54
523.398	5.54
523.743	5.54
524.089	5.56
524.435	5.56
524.781	5.59
525.126	5.62
525.472	5.61
525.817	5.63
526.163	5.65
526.509	5.67
526.854	5.7
527.199	5.71
527.545	5.71
527.89	5.71
528.235	5.71
528.581	5.72
528.926	5.73
529.271	5.72
529.616	5.72
529.961	5.72
530.306	5.72
530.651	5.73
530.996	5.73
531.341	5.71
531.686	5.72
532.031	5.72
532.376	5.71
532.721	5.72
533.065	5.71
533.41	5.71
533.755	5.69
534.099	5.68
534.444	5.68
534.788	5.69
535.133	5.68
535.477	5.69
535.822	5.68
536.166	5.68
536.51	5.7
536.855	5.7
537.199	5.72
537.543	5.74
537.887	5.74
538.231	5.73
538.576	5.75
538.92	5.76
539.264	5.76
539.608	5.78
539.951	5.78
540.295	5.78
540.639	5.79
540.983	5.8
541.327	5.82
541.671	5.82
542.014	5.82
542.358	5.83
542.701	5.84
543.045	5.84
543.389	5.85
543.732	5.84
544.075	5.84
544.419	5.83
544.762	5.82
545.105	5.83
545.449	5.85
545.792	5.85
546.135	5.85
546.478	5.86
546.821	5.86
547.165	5.88
547.508	5.88
547.851	5.86
548.194	5.87
548.536	5.86
548.879	5.9
549.222	5.88
549.565	5.87
549.908	5.87
550.25	5.86
550.593	5.85
550.936	5.84
551.278	5.83
551.621	5.85
551.963	5.87
552.306	5.86
552.648	5.87
552.991	5.87
553.333	5.86
553.675	5.86
554.017	5.86
554.36	5.84
554.702	5.87
555.044	5.92
555.386	5.92
555.728	5.91
556.07	5.9
556.412	5.91
556.754	5.93
557.096	5.93
557.438	5.93
557.78	5.91
558.121	5.92
558.463	5.95
558.805	5.91
559.147	5.89
559.488	5.86
559.83	5.84
560.171	5.84
560.513	5.86
560.854	5.87
561.196	5.85
561.537	5.87
561.878	5.81
562.22	5.8
562.561	5.78
562.902	5.79
563.243	5.8
563.584	5.81
563.925	5.82
564.266	5.82
564.607	5.84
564.948	5.89
565.289	5.87
565.63	5.89
565.971	5.9
566.312	5.89
566.653	5.9
566.993	5.89
567.334	5.87
567.675	5.89
568.015	5.87
568.356	5.84
568.696	5.84
569.037	5.89
569.377	5.86
569.718	5.89
570.058	5.91
570.398	5.9
570.739	5.93
571.079	5.94
571.419	5.98
571.759	5.99
572.099	5.95
572.439	5.96
572.779	5.96
573.119	5.99
573.459	6.03
573.799	6.08
574.139	6.1
574.479	6.11
574.819	6.1
575.158	6.09
575.498	6.13
575.838	6.1
576.177	6.07
576.517	6.1
576.856	6.11
577.196	6.09
577.535	6.09
577.875	6.06
578.214	6.04
578.553	6.03
578.893	6.04
579.232	6.07
579.571	6.07
579.91	6.04
580.25	6.04
580.589	6.02
580.928	5.98
581.267	5.97
581.606	5.96
581.945	5.93
582.283	5.93
582.622	5.93
582.961	5.98
583.3	6.02
583.639	6.06
583.977	6.03
584.316	6.02
584.654	5.99
584.993	5.99
585.332	6.02
585.67	6.02
586.008	6.01
586.347	5.98
586.685	5.97
587.024	5.99
587.362	6.03
587.7	6.03
588.038	6.07
588.376	6.07
588.715	6.08
589.053	6.17
589.391	6.17
589.729	6.18
590.067	6.15
590.404	6.16
590.742	6.13
591.08	6.14
591.418	6.15
591.756	6.2
592.093	6.18
592.431	6.18
592.769	6.2
593.106	6.19
593.444	6.18
593.781	6.21
594.119	6.22
594.456	6.14
594.793	6.14
595.131	6.12
595.468	6.12
595.805	6.13
596.143	6.1
596.48	6.08
596.817	6.08
597.154	6.09
597.491	6.04
597.828	6.06
598.165	6.05
598.502	6.04
598.839	5.99
599.176	5.99
599.512	5.97
599.849	5.97
600.186	5.99
600.523	6.02
600.859	6.05
601.196	6.05
601.532	6.06
601.869	6.05
602.205	6.05
602.542	6.08
602.878	6.06
603.215	6.05
603.551	6.07
603.887	6.08
604.223	6.12
604.56	6.15
604.896	6.15
605.232	6.19
605.568	6.18
605.904	6.24
606.24	6.29
606.576	6.29
606.912	6.31
607.248	6.27
607.583	6.3
607.919	6.26
608.255	6.23
608.591	6.26
608.926	6.26
609.262	6.29
609.597	6.26
609.933	6.3
610.268	6.3
610.604	6.33
610.939	6.31
611.275	6.29
611.61	6.32
611.945	6.29
612.281	6.25
612.616	6.28
612.951	6.26
613.286	6.28
613.621	6.31
613.956	6.25
614.291	6.27
614.626	6.27
614.961	6.26
615.296	6.28
615.631	6.29
615.966	6.33
616.3	6.28
616.635	6.28
616.97	6.28
617.304	6.24
617.639	6.25
617.973	6.29
618.308	6.28
618.642	6.24
618.977	6.23
619.311	6.23
619.646	6.21
619.98	6.17
620.314	6.17
620.648	6.2
620.983	6.22
621.317	6.25
621.651	6.24
621.985	6.26
622.319	6.27
622.653	6.26
622.987	6.26
623.321	6.32
623.655	6.31
623.988	6.29
624.322	6.3
624.656	6.28
624.99	6.26
625.323	6.3
625.657	6.28
625.99	6.3
626.324	6.32
626.657	6.36
626.991	6.43
627.324	6.4
627.658	6.38
627.991	6.34
628.324	6.33
628.657	6.31
628.991	6.32
629.324	6.4
629.657	6.4
629.99	6.42
630.323	6.37
630.656	6.4
630.989	6.46
631.322	6.49
631.655	6.48
631.987	6.48
632.32	6.49
632.653	6.52
632.986	6.52
633.318	6.49
633.651	6.53
633.984	6.48
634.316	6.47
634.649	6.45
634.981	6.5
635.313	6.51
635.646	6.52
635.978	6.54
636.31	6.4
636.643	6.37
636.975	6.34
637.307	6.35
637.639	6.32
637.971	6.26
638.303	6.24
638.635	6.22
638.967	6.25
639.299	6.25
639.631	6.21
639.963	6.22
640.295	6.22
640.626	6.18
640.958	6.21
641.29	6.23
641.621	6.21
641.953	6.24
642.285	6.22
642.616	6.25
642.948	6.23
643.279	6.34
643.61	6.41
643.942	6.38
644.273	6.36
644.604	6.41
644.936	6.43
645.267	6.46
645.598	6.5
645.929	6.47
646.26	6.45
646.591	6.47
646.922	6.38
647.253	6.38
647.584	6.4
647.915	6.38
648.245	6.37
648.576	6.43
648.907	6.42
649.238	6.4
649.568	6.39
649.899	6.48
650.229	6.43
650.56	6.38
650.89	6.37
651.221	6.39
651.551	6.33
651.882	6.32
652.212	6.34
652.542	6.3
652.872	6.28
653.203	6.28
653.533	6.34
653.863	6.55
654.193	6.61
654.523	6.59
654.853	6.62
655.183	6.62
655.513	6.6
655.843	6.57
656.172	6.58
656.502	6.55
656.832	6.43
657.162	6.54
657.491	6.51
657.821	6.49
658.15	6.56
658.48	6.56
658.809	6.6
659.139	6.64
659.468	6.7
659.798	6.72
660.127	6.72
660.456	6.76
660.785	6.64
661.115	6.64
661.444	6.66
661.773	6.66
662.102	6.66
662.431	6.72
662.76	6.74
663.089	6.78
663.418	6.83
663.747	6.86
664.076	6.71
664.404	6.75
664.733	6.87
665.062	6.77
665.39	6.85
665.719	6.82
666.048	6.87
666.376	6.8
666.705	6.8
667.033	6.77
667.362	6.74
667.69	6.68
668.018	6.75
668.347	6.77
668.675	6.75
669.003	6.78
669.331	6.73
669.659	6.7
669.987	6.67
670.315	6.68
670.643	6.67
670.971	6.75
671.299	6.81
671.627	6.78
671.955	6.87
672.283	6.87
672.61	6.87
672.938	6.71
673.266	6.77
673.593	6.89
673.921	6.9
674.249	6.91
674.576	6.94
674.904	6.82
675.231	6.83
675.558	6.8
