Data from BA57890_Reflection_00003.txt Node
Date: Mon Nov 18 15:05:51 EST 2019
User: vgr7
Spectrometer: USB2G7710
Scans to average: 3
Trigger mode: 4
Integration Time (sec): 2.000000E-2
Electric dark correction enabled: true
Boxcar width: 10
XAxis mode: Wavelengths
Number of Pixels in Spectrum: 2048
>>>>>Begin Spectral Data<<<<<
177.721	-142.62
178.105	-264.53
178.488	-130.44
178.871	-108.83
179.254	-88.65
179.636	-338.5
180.019	-68.61
180.402	128.57
180.785	-2422.39
181.168	163.43
181.55	161.63
181.933	119.31
182.316	104.39
182.698	116.04
183.081	151.74
183.463	273.1
183.846	126.76
184.228	119.39
184.611	69.74
184.993	68.01
185.376	15.65
185.758	83.98
186.14	54.39
186.522	55.67
186.904	85.31
187.287	58.13
187.669	40.58
188.051	255.7
188.433	521.6
188.815	-3222.58
189.197	-128.82
189.579	-327.69
189.961	-285.04
190.342	-2683.78
190.724	-734.86
191.106	226.1
191.488	29.78
191.869	71.1
192.251	134.48
192.633	2395.77
193.014	287.58
193.396	225.35
193.777	128.67
194.159	158.15
194.54	226.97
194.922	140.46
195.303	203.08
195.684	147.05
196.065	127.69
196.447	140.85
196.828	108.34
197.209	73.69
197.59	123.51
197.971	135.83
198.352	166.14
198.733	379.68
199.114	728.96
199.495	-976.43
199.876	-125.57
200.257	-81.53
200.638	22.54
201.018	35.95
201.399	30.98
201.78	25.51
202.16	3.65
202.541	-52.28
202.922	-338.47
203.302	-537.28
203.683	-352.14
204.063	-364.14
204.444	-166.07
204.824	-153.3
205.204	-114.99
205.585	-96.57
205.965	-104.18
206.345	-121.92
206.725	-119.81
207.106	-168.29
207.486	-598.03
207.866	-1490.67
208.246	1659.44
208.626	-999.59
209.006	-900
209.386	476.15
209.766	584.14
210.145	-392.37
210.525	-225.98
210.905	-96.23
211.285	-104.38
211.664	-81.69
212.044	-39.68
212.424	-30.34
212.803	-27.6
213.183	-45.67
213.562	-26.04
213.942	-8.14
214.321	2.88
214.701	-50.12
215.08	-60.27
215.459	-14.35
215.838	-1.91
216.218	-24.59
216.597	-12.66
216.976	-7.04
217.355	2.63
217.734	10.85
218.113	27.95
218.492	26.46
218.871	32.9
219.25	48.97
219.629	61.53
220.008	43.74
220.387	36.97
220.766	37.24
221.144	35.84
221.523	13.51
221.902	-5.03
222.28	-15.63
222.659	9.34
223.037	4.25
223.416	-14.36
223.794	-24.35
224.173	-17.34
224.551	-20.52
224.929	-25.81
225.308	-28.73
225.686	-25.66
226.064	-28.53
226.442	-30.88
226.821	-19.06
227.199	-13.67
227.577	-15.9
227.955	-10.41
228.333	-7.08
228.711	-1.51
229.089	1.07
229.467	-0.56
229.845	1.68
230.222	3.17
230.6	1.31
230.978	1.29
231.356	4.25
231.733	4.22
232.111	4.79
232.488	5.39
232.866	5.9
233.243	5.74
233.621	5.66
233.998	6.53
234.376	5.34
234.753	3.68
235.13	3.29
235.508	3.55
235.885	2.24
236.262	0.78
236.639	-1.39
237.016	-1.33
237.393	0.68
237.77	2.36
238.147	3.34
238.524	4.43
238.901	4.95
239.278	5.19
239.655	6.18
240.032	6.2
240.409	5.89
240.785	5.94
241.162	6.43
241.539	6.01
241.915	6.23
242.292	6.28
242.668	6.18
243.045	6
243.421	6.27
243.798	6.48
244.174	7.01
244.551	7.28
244.927	7.06
245.303	7.26
245.679	6.89
246.056	6.49
246.432	6.53
246.808	6.7
247.184	6.6
247.56	6.32
247.936	6.41
248.312	6.5
248.688	6.35
249.064	6.1
249.44	6.14
249.815	5.96
250.191	6.17
250.567	6.3
250.943	6.27
251.318	6.21
251.694	6.17
252.069	5.64
252.445	5.7
252.82	5.9
253.196	5.73
253.571	5.86
253.947	6.11
254.322	5.91
254.697	5.36
255.073	5.14
255.448	5.31
255.823	5.02
256.198	4.75
256.573	4.94
256.948	5.17
257.323	5.31
257.698	5.49
258.073	5.35
258.448	5.2
258.823	5.22
259.198	5.12
259.573	5.08
259.948	5.43
260.322	5.25
260.697	5.13
261.072	5.12
261.446	5.16
261.821	5.19
262.195	5.23
262.57	5.29
262.944	5.34
263.319	5.23
263.693	5.29
264.067	5.46
264.442	5.38
264.816	5.26
265.19	5.25
265.564	5.09
265.938	5.06
266.313	5.05
266.687	5.1
267.061	5.24
267.435	5.38
267.809	5.25
268.183	5.38
268.556	5.52
268.93	5.63
269.304	5.62
269.678	5.56
270.051	5.6
270.425	5.73
270.799	5.81
271.172	5.75
271.546	5.79
271.919	5.66
272.293	5.66
272.666	5.81
273.04	5.8
273.413	5.94
273.787	5.8
274.16	5.84
274.533	5.81
274.906	5.84
275.279	5.78
275.653	5.64
276.026	5.5
276.399	5.36
276.772	5.21
277.145	5.15
277.518	5.09
277.891	5.04
278.263	4.87
278.636	4.83
279.009	5.03
279.382	5.05
279.755	4.99
280.127	5.16
280.5	5.1
280.872	5.2
281.245	4.93
281.617	5.11
281.99	5.25
282.362	5.26
282.735	5.13
283.107	5.12
283.479	5.21
283.852	5.29
284.224	5.36
284.596	5.45
284.968	5.6
285.34	5.69
285.713	5.75
286.085	5.85
286.457	5.98
286.829	5.88
287.201	5.92
287.572	5.96
287.944	5.94
288.316	6.02
288.688	5.98
289.06	5.98
289.431	6.02
289.803	6.05
290.175	6.21
290.546	6.39
290.918	6.5
291.289	6.54
291.661	6.64
292.032	6.66
292.403	6.73
292.775	6.58
293.146	6.59
293.517	6.63
293.889	6.77
294.26	6.79
294.631	6.89
295.002	6.82
295.373	6.92
295.744	6.99
296.115	6.96
296.486	6.92
296.857	7.1
297.228	7.07
297.599	6.88
297.97	6.74
298.34	6.7
298.711	6.73
299.082	6.71
299.452	6.71
299.823	6.76
300.194	6.71
300.564	6.77
300.935	6.76
301.305	6.52
301.676	6.43
302.046	6.36
302.416	6.42
302.787	6.67
303.157	6.62
303.527	6.62
303.897	6.61
304.267	6.65
304.637	6.67
305.008	6.77
305.378	6.93
305.748	7.23
306.117	7.23
306.487	7.21
306.857	7.24
307.227	7.36
307.597	7.38
307.967	7.52
308.336	7.57
308.706	7.53
309.076	7.75
309.445	7.75
309.815	7.78
310.184	7.68
310.554	7.66
310.923	7.69
311.293	7.61
311.662	7.7
312.031	7.77
312.401	7.65
312.77	7.68
313.139	7.7
313.508	7.45
313.877	7.39
314.246	7.34
314.616	7.38
314.985	7.3
315.353	7.28
315.722	7.17
316.091	7.13
316.46	7.08
316.829	7.13
317.198	7.3
317.567	7.08
317.935	6.99
318.304	6.94
318.672	6.95
319.041	7.07
319.41	7.14
319.778	7.15
320.147	7.31
320.515	7.22
320.883	7.26
321.252	7.38
321.62	7.44
321.988	7.45
322.357	7.48
322.725	7.41
323.093	7.46
323.461	7.56
323.829	7.61
324.197	7.77
324.565	7.75
324.933	7.54
325.301	7.73
325.669	7.8
326.037	7.75
326.405	7.91
326.772	7.82
327.14	7.72
327.508	7.69
327.875	7.6
328.243	7.73
328.61	7.76
328.978	7.86
329.346	8
329.713	8.06
330.08	7.95
330.448	8
330.815	7.85
331.182	7.77
331.55	7.69
331.917	7.59
332.284	7.58
332.651	7.59
333.018	7.66
333.385	7.74
333.752	7.74
334.119	7.71
334.486	7.8
334.853	7.72
335.22	7.74
335.587	7.92
335.954	7.79
336.32	7.82
336.687	7.7
337.054	7.6
337.42	7.49
337.787	7.53
338.153	7.49
338.52	7.58
338.886	7.54
339.253	7.64
339.619	7.76
339.986	7.76
340.352	7.88
340.718	7.74
341.084	7.67
341.451	7.71
341.817	7.61
342.183	7.64
342.549	7.69
342.915	7.68
343.281	7.54
343.647	7.59
344.013	7.5
344.379	7.54
344.745	7.54
345.11	7.63
345.476	7.66
345.842	7.67
346.208	7.73
346.573	7.83
346.939	7.75
347.304	7.71
347.67	7.7
348.035	7.56
348.401	7.6
348.766	7.7
349.132	7.69
349.497	7.65
349.862	7.65
350.228	7.65
350.593	7.62
350.958	7.64
351.323	7.6
351.688	7.61
352.053	7.65
352.418	7.69
352.783	7.75
353.148	7.77
353.513	7.77
353.878	7.76
354.243	7.74
354.608	7.74
354.972	7.75
355.337	7.8
355.702	7.85
356.066	7.79
356.431	7.69
356.795	7.68
357.16	7.66
357.524	7.59
357.889	7.64
358.253	7.67
358.618	7.71
358.982	7.72
359.346	7.71
359.71	7.72
360.075	7.68
360.439	7.7
360.803	7.71
361.167	7.68
361.531	7.69
361.895	7.67
362.259	7.63
362.623	7.64
362.987	7.64
363.351	7.64
363.714	7.73
364.078	7.75
364.442	7.74
364.806	7.78
365.169	7.8
365.533	7.74
365.896	7.73
366.26	7.75
366.623	7.72
366.987	7.7
367.35	7.65
367.714	7.71
368.077	7.63
368.44	7.61
368.803	7.65
369.167	7.57
369.53	7.58
369.893	7.7
370.256	7.75
370.619	7.76
370.982	7.79
371.345	7.73
371.708	7.74
372.071	7.74
372.434	7.76
372.797	7.77
373.159	7.8
373.522	7.83
373.885	7.85
374.247	7.9
374.61	7.98
374.973	8.03
375.335	7.95
375.698	7.98
376.06	7.96
376.423	7.94
376.785	8.02
377.147	8.04
377.51	7.97
377.872	7.94
378.234	7.96
378.596	7.98
378.958	7.97
379.321	7.98
379.683	8.01
380.045	8
380.407	7.98
380.769	7.99
381.13	7.99
381.492	8.01
381.854	8
382.216	7.95
382.578	7.92
382.939	7.96
383.301	7.94
383.663	7.95
384.024	7.92
384.386	7.94
384.747	7.97
385.109	8.04
385.47	8.06
385.832	8.02
386.193	8.04
386.554	8.07
386.916	8.06
387.277	8.02
387.638	8.03
387.999	8.01
388.36	8
388.721	7.97
389.082	7.93
389.443	7.93
389.804	7.93
390.165	7.89
390.526	7.9
390.887	7.92
391.248	7.96
391.609	7.97
391.969	7.96
392.33	7.9
392.691	7.85
393.051	7.84
393.412	7.84
393.772	7.81
394.133	7.84
394.493	7.87
394.854	7.89
395.214	7.9
395.574	7.94
395.935	7.92
396.295	7.95
396.655	7.94
397.015	7.97
397.376	8
397.736	8.04
398.096	8.07
398.456	8.06
398.816	8.02
399.176	8.05
399.535	8
399.895	8.02
400.255	8.08
400.615	8.07
400.975	8.05
401.334	8.08
401.694	8.07
402.054	8.06
402.413	8.06
402.773	8.03
403.132	8
403.492	8.08
403.851	8.04
404.211	8.03
404.57	8
404.929	8.02
405.288	8.05
405.648	8.01
406.007	8.03
406.366	8.04
406.725	8.07
407.084	8.1
407.443	8.11
407.802	8.09
408.161	8.1
408.52	8.13
408.879	8.09
409.238	8.09
409.596	8.1
409.955	8.07
410.314	8.1
410.673	8.09
411.031	8.07
411.39	8.09
411.748	8.11
412.107	8.14
412.465	8.09
412.824	8.08
413.182	8.1
413.54	8.09
413.899	8.09
414.257	8.1
414.615	8.09
414.974	8.09
415.332	8.1
415.69	8.07
416.048	8.06
416.406	8.08
416.764	8.11
417.122	8.11
417.48	8.14
417.838	8.15
418.195	8.17
418.553	8.17
418.911	8.19
419.269	8.18
419.626	8.17
419.984	8.17
420.342	8.16
420.699	8.16
421.057	8.16
421.414	8.14
421.772	8.13
422.129	8.15
422.486	8.15
422.844	8.14
423.201	8.14
423.558	8.13
423.915	8.14
424.273	8.13
424.63	8.12
424.987	8.11
425.344	8.09
425.701	8.07
426.058	8.06
426.415	8.07
426.772	8.06
427.128	8.06
427.485	8.07
427.842	8.08
428.199	8.09
428.555	8.08
428.912	8.11
429.269	8.12
429.625	8.1
429.982	8.11
430.338	8.13
430.695	8.17
431.051	8.18
431.407	8.19
431.764	8.19
432.12	8.2
432.476	8.2
432.832	8.18
433.189	8.2
433.545	8.2
433.901	8.18
434.257	8.17
434.613	8.17
434.969	8.16
435.325	8.16
435.681	8.15
436.036	8.15
436.392	8.16
436.748	8.14
437.104	8.12
437.459	8.09
437.815	8.09
438.171	8.08
438.526	8.08
438.882	8.06
439.237	8.06
439.593	8.07
439.948	8.07
440.304	8.09
440.659	8.11
441.014	8.12
441.369	8.13
441.725	8.13
442.08	8.15
442.435	8.16
442.79	8.15
443.145	8.16
443.5	8.17
443.855	8.14
444.21	8.16
444.565	8.19
444.92	8.2
445.275	8.18
445.629	8.17
445.984	8.17
446.339	8.16
446.693	8.13
447.048	8.11
447.403	8.11
447.757	8.1
448.112	8.08
448.466	8.06
448.82	8.05
449.175	8.07
449.529	8.05
449.883	8.03
450.238	8.03
450.592	8.02
450.946	7.98
451.3	7.99
451.654	7.99
452.008	7.99
452.362	7.97
452.716	8.01
453.07	8
453.424	8.03
453.778	8.04
454.132	8.07
454.486	8.1
454.839	8.1
455.193	8.1
455.547	8.09
455.9	8.11
456.254	8.13
456.607	8.12
456.961	8.11
457.314	8.14
457.668	8.14
458.021	8.14
458.375	8.17
458.728	8.18
459.081	8.18
459.434	8.17
459.787	8.18
460.141	8.16
460.494	8.18
460.847	8.18
461.2	8.17
461.553	8.16
461.906	8.15
462.259	8.15
462.611	8.16
462.964	8.17
463.317	8.15
463.67	8.17
464.022	8.19
464.375	8.19
464.728	8.19
465.08	8.18
465.433	8.17
465.785	8.17
466.138	8.18
466.49	8.19
466.843	8.19
467.195	8.17
467.547	8.18
467.899	8.17
468.252	8.14
468.604	8.16
468.956	8.18
469.308	8.17
469.66	8.19
470.012	8.21
470.364	8.21
470.716	8.23
471.068	8.24
471.42	8.22
471.772	8.26
472.123	8.26
472.475	8.29
472.827	8.32
473.178	8.33
473.53	8.32
473.882	8.3
474.233	8.33
474.585	8.33
474.936	8.33
475.288	8.3
475.639	8.33
475.99	8.35
476.342	8.35
476.693	8.35
477.044	8.34
477.395	8.32
477.746	8.34
478.097	8.34
478.448	8.33
478.8	8.33
479.15	8.31
479.501	8.33
479.852	8.33
480.203	8.33
480.554	8.34
480.905	8.35
481.255	8.37
481.606	8.38
481.957	8.4
482.307	8.43
482.658	8.45
483.009	8.44
483.359	8.44
483.709	8.45
484.06	8.45
484.41	8.46
484.761	8.47
485.111	8.48
485.461	8.48
485.811	8.48
486.162	8.48
486.512	8.49
486.862	8.48
487.212	8.49
487.562	8.49
487.912	8.49
488.262	8.49
488.612	8.5
488.961	8.49
489.311	8.48
489.661	8.46
490.011	8.45
490.36	8.44
490.71	8.45
491.06	8.44
491.409	8.44
491.759	8.44
492.108	8.42
492.458	8.42
492.807	8.41
493.157	8.41
493.506	8.42
493.855	8.41
494.204	8.41
494.554	8.42
494.903	8.41
495.252	8.41
495.601	8.41
495.95	8.4
496.299	8.4
496.648	8.41
496.997	8.41
497.346	8.43
497.695	8.45
498.043	8.45
498.392	8.44
498.741	8.44
499.09	8.45
499.438	8.48
499.787	8.46
500.135	8.46
500.484	8.48
500.832	8.47
501.181	8.5
501.529	8.5
501.878	8.51
502.226	8.51
502.574	8.5
502.923	8.49
503.271	8.5
503.619	8.49
503.967	8.5
504.315	8.47
504.663	8.49
505.011	8.47
505.359	8.47
505.707	8.47
506.055	8.49
506.403	8.47
506.751	8.47
507.098	8.51
507.446	8.53
507.794	8.52
508.141	8.53
508.489	8.53
508.837	8.54
509.184	8.52
509.531	8.51
509.879	8.55
510.226	8.58
510.574	8.58
510.921	8.6
511.268	8.59
511.616	8.62
511.963	8.64
512.31	8.65
512.657	8.66
513.004	8.65
513.351	8.68
513.698	8.69
514.045	8.69
514.392	8.67
514.739	8.69
515.086	8.69
515.432	8.67
515.779	8.66
516.126	8.66
516.473	8.68
516.819	8.7
517.166	8.7
517.512	8.68
517.859	8.71
518.205	8.72
518.552	8.73
518.898	8.73
519.245	8.71
519.591	8.71
519.937	8.72
520.283	8.73
520.629	8.72
520.976	8.7
521.322	8.71
521.668	8.73
522.014	8.72
522.36	8.72
522.706	8.75
523.052	8.77
523.398	8.79
523.743	8.78
524.089	8.79
524.435	8.78
524.781	8.8
525.126	8.79
525.472	8.8
525.817	8.8
526.163	8.8
526.509	8.81
526.854	8.81
527.199	8.8
527.545	8.82
527.89	8.82
528.235	8.83
528.581	8.84
528.926	8.84
529.271	8.84
529.616	8.85
529.961	8.85
530.306	8.84
530.651	8.83
530.996	8.83
531.341	8.82
531.686	8.83
532.031	8.83
532.376	8.82
532.721	8.82
533.065	8.82
533.41	8.82
533.755	8.81
534.099	8.82
534.444	8.83
534.788	8.83
535.133	8.83
535.477	8.84
535.822	8.84
536.166	8.84
536.51	8.86
536.855	8.84
537.199	8.84
537.543	8.86
537.887	8.88
538.231	8.88
538.576	8.88
538.92	8.87
539.264	8.86
539.608	8.85
539.951	8.85
540.295	8.84
540.639	8.85
540.983	8.84
541.327	8.84
541.671	8.85
542.014	8.84
542.358	8.85
542.701	8.84
543.045	8.83
543.389	8.81
543.732	8.8
544.075	8.82
544.419	8.83
544.762	8.83
545.105	8.83
545.449	8.82
545.792	8.81
546.135	8.83
546.478	8.84
546.821	8.85
547.165	8.83
547.508	8.88
547.851	8.88
548.194	8.88
548.536	8.86
548.879	8.87
549.222	8.88
549.565	8.85
549.908	8.87
550.25	8.88
550.593	8.9
550.936	8.92
551.278	8.89
551.621	8.88
551.963	8.89
552.306	8.88
552.648	8.89
552.991	8.92
553.333	8.91
553.675	8.91
554.017	8.94
554.36	8.98
554.702	8.97
555.044	8.97
555.386	8.99
555.728	9.01
556.07	9.02
556.412	9.01
556.754	9
557.096	8.98
557.438	8.99
557.78	8.99
558.121	9.01
558.463	9.04
558.805	9.05
559.147	9.05
559.488	9.05
559.83	9.08
560.171	9.09
560.513	9.08
560.854	9.07
561.196	9.03
561.537	9.04
561.878	9.02
562.22	9.06
562.561	9.08
562.902	9.11
563.243	9.1
563.584	9.11
563.925	9.12
564.266	9.13
564.607	9.16
564.948	9.15
565.289	9.11
565.63	9.15
565.971	9.16
566.312	9.16
566.653	9.17
566.993	9.14
567.334	9.13
567.675	9.13
568.015	9.12
568.356	9.12
568.696	9.09
569.037	9.1
569.377	9.1
569.718	9.07
570.058	9.07
570.398	9.08
570.739	9.08
571.079	9.11
571.419	9.1
571.759	9.1
572.099	9.1
572.439	9.1
572.779	9.05
573.119	9.05
573.459	9.06
573.799	9.07
574.139	9.08
574.479	9.1
574.819	9.11
575.158	9.14
575.498	9.15
575.838	9.16
576.177	9.14
576.517	9.14
576.856	9.15
577.196	9.15
577.535	9.14
577.875	9.15
578.214	9.16
578.553	9.2
578.893	9.2
579.232	9.23
579.571	9.28
579.91	9.3
580.25	9.27
580.589	9.28
580.928	9.29
581.267	9.29
581.606	9.28
581.945	9.27
582.283	9.27
582.622	9.25
582.961	9.27
583.3	9.32
583.639	9.33
583.977	9.35
584.316	9.37
584.654	9.36
584.993	9.37
585.332	9.36
585.67	9.31
586.008	9.3
586.347	9.3
586.685	9.25
587.024	9.26
587.362	9.26
587.7	9.26
588.038	9.26
588.376	9.25
588.715	9.25
589.053	9.29
589.391	9.31
589.729	9.37
590.067	9.33
590.404	9.35
590.742	9.36
591.08	9.32
591.418	9.33
591.756	9.36
592.093	9.32
592.431	9.31
592.769	9.33
593.106	9.38
593.444	9.33
593.781	9.33
594.119	9.34
594.456	9.36
594.793	9.33
595.131	9.33
595.468	9.35
595.805	9.34
596.143	9.32
596.48	9.3
596.817	9.28
597.154	9.33
597.491	9.31
597.828	9.3
598.165	9.3
598.502	9.27
598.839	9.26
599.176	9.32
599.512	9.32
599.849	9.38
600.186	9.35
600.523	9.42
600.859	9.42
601.196	9.42
601.532	9.42
601.869	9.4
602.205	9.41
602.542	9.45
602.878	9.42
603.215	9.44
603.551	9.49
603.887	9.49
604.223	9.52
604.56	9.54
604.896	9.55
605.232	9.58
605.568	9.58
605.904	9.61
606.24	9.63
606.576	9.64
606.912	9.59
607.248	9.6
607.583	9.6
607.919	9.61
608.255	9.61
608.591	9.63
608.926	9.67
609.262	9.68
609.597	9.66
609.933	9.68
610.268	9.7
610.604	9.68
610.939	9.7
611.275	9.64
611.61	9.63
611.945	9.61
612.281	9.6
612.616	9.67
612.951	9.64
613.286	9.58
613.621	9.61
613.956	9.62
614.291	9.59
614.626	9.55
614.961	9.59
615.296	9.62
615.631	9.6
615.966	9.57
616.3	9.5
616.635	9.51
616.97	9.53
617.304	9.51
617.639	9.54
617.973	9.51
618.308	9.59
618.642	9.61
618.977	9.61
619.311	9.61
619.646	9.54
619.98	9.53
620.314	9.6
620.648	9.65
620.983	9.7
621.317	9.73
621.651	9.77
621.985	9.76
622.319	9.71
622.653	9.74
622.987	9.79
623.321	9.83
623.655	9.85
623.988	9.88
624.322	9.85
624.656	9.84
624.99	9.83
625.323	9.84
625.657	9.85
625.99	9.86
626.324	9.87
626.657	9.87
626.991	9.88
627.324	9.81
627.658	9.76
627.991	9.73
628.324	9.74
628.657	9.72
628.991	9.73
629.324	9.73
629.657	9.74
629.99	9.74
630.323	9.77
630.656	9.83
630.989	9.85
631.322	9.89
631.655	9.87
631.987	9.88
632.32	9.87
632.653	9.83
632.986	9.87
633.318	9.89
633.651	9.92
633.984	9.95
634.316	9.99
634.649	9.97
634.981	9.93
635.313	9.9
635.646	9.9
635.978	9.9
636.31	9.91
636.643	9.85
636.975	9.87
637.307	9.83
637.639	9.78
637.971	9.71
638.303	9.71
638.635	9.63
638.967	9.64
639.299	9.61
639.631	9.64
639.963	9.55
640.295	9.55
640.626	9.56
640.958	9.59
641.29	9.62
641.621	9.63
641.953	9.69
642.285	9.75
642.616	9.82
642.948	9.81
643.279	9.84
643.61	9.96
643.942	9.98
644.273	9.99
644.604	10
644.936	10
645.267	10.01
645.598	10.09
645.929	10.14
646.26	10.13
646.591	10.13
646.922	10.22
647.253	10.21
647.584	10.21
647.915	10.1
648.245	10.08
648.576	10.15
648.907	10.2
649.238	10.18
649.568	10.16
649.899	10.18
650.229	10.22
650.56	10.16
650.89	10.09
651.221	10.13
651.551	10.1
651.882	10.11
652.212	10.1
652.542	10.09
652.872	10.04
653.203	10.08
653.533	10.09
653.863	10.07
654.193	10.1
654.523	10.1
654.853	10.22
655.183	10.23
655.513	10.16
655.843	10.13
656.172	10.13
656.502	10.09
656.832	10.04
657.162	10.04
657.491	10.07
657.821	10.14
658.15	10.16
658.48	10.17
658.809	10.22
659.139	10.24
659.468	10.26
659.798	10.3
660.127	10.3
660.456	10.35
660.785	10.36
661.115	10.37
661.444	10.39
661.773	10.32
662.102	10.35
662.431	10.42
662.76	10.44
663.089	10.48
663.418	10.58
663.747	10.6
664.076	10.61
664.404	10.59
664.733	10.63
665.062	10.65
665.39	10.69
665.719	10.64
666.048	10.6
666.376	10.63
666.705	10.6
667.033	10.55
667.362	10.49
667.69	10.48
668.018	10.43
668.347	10.39
668.675	10.4
669.003	10.37
669.331	10.34
669.659	10.35
669.987	10.28
670.315	10.27
670.643	10.24
670.971	10.25
671.299	10.28
671.627	10.23
671.955	10.17
672.283	10.16
672.61	10.14
672.938	10.19
673.266	10.25
673.593	10.24
673.921	10.28
674.249	10.32
674.576	10.36
674.904	10.43
675.231	10.53
675.558	10.61
