Data from BA57710_Reflection_00005.txt Node
Date: Mon Nov 18 15:31:46 EST 2019
User: vgr7
Spectrometer: USB2G7710
Scans to average: 3
Trigger mode: 4
Integration Time (sec): 2.000000E-2
Electric dark correction enabled: true
Boxcar width: 10
XAxis mode: Wavelengths
Number of Pixels in Spectrum: 2048
>>>>>Begin Spectral Data<<<<<
177.721	7.65
178.105	-7.72
178.488	-48.97
178.871	-93.28
179.254	-272.67
179.636	3.35
180.019	-109.79
180.402	77.78
180.785	114.07
181.168	140.76
181.55	146.66
181.933	97.05
182.316	174.18
182.698	270.5
183.081	346.73
183.463	-413.62
183.846	-473.38
184.228	-242.48
184.611	-414.29
184.993	-167.25
185.376	-153.38
185.758	-189.46
186.14	-238.44
186.522	-357.58
186.904	-407.04
187.287	-705.81
187.669	-367.14
188.051	-386.02
188.433	-552.37
188.815	-186.44
189.197	-143.2
189.579	-99.62
189.961	-75.09
190.342	-103.56
190.724	-74.37
191.106	-79.36
191.488	-100.76
191.869	-90.2
192.251	-115.81
192.633	-106.67
193.014	-115.4
193.396	-160.12
193.777	-118.11
194.159	-112.75
194.54	-99.02
194.922	-103.36
195.303	-105.32
195.684	-99.36
196.065	-84.26
196.447	-83.69
196.828	-117.03
197.209	-117.94
197.59	-157.39
197.971	-186.57
198.352	-115.52
198.733	-160.01
199.114	-146.08
199.495	-132.68
199.876	-158.93
200.257	-92.74
200.638	-79.45
201.018	-67.22
201.399	-50.41
201.78	-45.42
202.16	-77.66
202.541	-78.76
202.922	-88.15
203.302	-81.86
203.683	-76.87
204.063	-100.04
204.444	-99.28
204.824	-93.14
205.204	-85.27
205.585	-87.24
205.965	-85.99
206.345	-100.35
206.725	-88.26
207.106	-120.86
207.486	-151.43
207.866	-132.18
208.246	-166.51
208.626	-213.94
209.006	-176.48
209.386	-296.14
209.766	-311.12
210.145	-205.94
210.525	-252.5
210.905	-212.48
211.285	-239.8
211.664	-244.04
212.044	-216.26
212.424	-153.85
212.803	-164.36
213.183	-151.38
213.562	-115.42
213.942	-94.7
214.321	-90.07
214.701	-96.27
215.08	-105.29
215.459	-82.68
215.838	-75.56
216.218	-69.27
216.597	-49.51
216.976	-42
217.355	-30.19
217.734	-24.89
218.113	-27.57
218.492	-14.28
218.871	-8.32
219.25	-3.66
219.629	-4.55
220.008	-0.57
220.387	4.08
220.766	-7.7
221.144	-21.79
221.523	-30.1
221.902	-30.22
222.28	-31.05
222.659	-26.1
223.037	-7.96
223.416	-2.23
223.794	-8.75
224.173	-13.31
224.551	-8.54
224.929	-19.17
225.308	-14.21
225.686	-9.42
226.064	-8.52
226.442	-15.42
226.821	-14.21
227.199	-11.73
227.577	-13.42
227.955	-11.03
228.333	-13.13
228.711	-8.09
229.089	-6.02
229.467	-9.37
229.845	-8.8
230.222	-7.91
230.6	-8.54
230.978	-8.73
231.356	-7.76
231.733	-7.13
232.111	-4.69
232.488	-4.6
232.866	-3.81
233.243	-2.54
233.621	-1.58
233.998	-0.19
234.376	-0.34
234.753	-0.05
235.13	-1.17
235.508	0.26
235.885	-0.38
236.262	-0.58
236.639	0.71
237.016	1.76
237.393	3.61
237.77	3.64
238.147	3.53
238.524	3.45
238.901	4.14
239.278	4.22
239.655	4.17
240.032	4.04
240.409	3.27
240.785	3.63
241.162	3.87
241.539	3.65
241.915	3.62
242.292	3.91
242.668	4.27
243.045	4.86
243.421	4.47
243.798	4.31
244.174	4.48
244.551	4.04
244.927	3.98
245.303	4.19
245.679	4
246.056	4.02
246.432	4.27
246.808	4.19
247.184	4.08
247.56	4.11
247.936	3.98
248.312	4.17
248.688	4.26
249.064	4.08
249.44	4.16
249.815	4.24
250.191	4.54
250.567	4.45
250.943	4.22
251.318	4.21
251.694	4.36
252.069	4.23
252.445	4.56
252.82	4.58
253.196	4.25
253.571	4.23
253.947	4.01
254.322	3.87
254.697	3.81
255.073	3.96
255.448	3.95
255.823	3.85
256.198	4.03
256.573	3.94
256.948	4.19
257.323	4.1
257.698	4.08
258.073	3.82
258.448	3.84
258.823	3.79
259.198	3.71
259.573	3.72
259.948	3.68
260.322	3.52
260.697	3.29
261.072	3.3
261.446	3.25
261.821	3.41
262.195	3.49
262.57	3.58
262.944	3.49
263.319	3.45
263.693	3.62
264.067	3.56
264.442	3.7
264.816	3.51
265.19	3.41
265.564	3.3
265.938	3.3
266.313	3.04
266.687	3.11
267.061	3.35
267.435	3.31
267.809	3.52
268.183	3.78
268.556	3.98
268.93	3.91
269.304	3.92
269.678	3.85
270.051	3.77
270.425	3.75
270.799	3.74
271.172	3.8
271.546	3.72
271.919	3.5
272.293	3.3
272.666	3.47
273.04	3.64
273.413	3.61
273.787	3.62
274.16	3.84
274.533	3.86
274.906	3.82
275.279	3.83
275.653	3.77
276.026	3.63
276.399	3.57
276.772	3.69
277.145	3.77
277.518	3.81
277.891	4.01
278.263	3.8
278.636	3.81
279.009	3.69
279.382	3.79
279.755	3.85
280.127	4.03
280.5	3.95
280.872	4.05
281.245	4.05
281.617	4.13
281.99	3.99
282.362	3.94
282.735	3.73
283.107	3.74
283.479	3.72
283.852	3.63
284.224	3.6
284.596	3.61
284.968	3.67
285.34	3.74
285.713	3.54
286.085	3.68
286.457	3.75
286.829	3.87
287.201	3.77
287.572	3.8
287.944	3.65
288.316	3.53
288.688	3.38
289.06	3.53
289.431	3.56
289.803	3.57
290.175	3.66
290.546	3.89
290.918	3.92
291.289	3.86
291.661	3.91
292.032	4.1
292.403	3.98
292.775	4.03
293.146	3.94
293.517	3.97
293.889	4
294.26	4.05
294.631	4.04
295.002	4.07
295.373	4.15
295.744	4.25
296.115	4.32
296.486	4.26
296.857	4.21
297.228	4.23
297.599	4.31
297.97	4.22
298.34	4.25
298.711	4.25
299.082	4.25
299.452	4.24
299.823	4.22
300.194	4.32
300.564	4.28
300.935	4.23
301.305	4.22
301.676	4.24
302.046	4.27
302.416	4.28
302.787	4.28
303.157	4.31
303.527	4.26
303.897	4.3
304.267	4.46
304.637	4.45
305.008	4.4
305.378	4.44
305.748	4.64
306.117	4.46
306.487	4.59
306.857	4.69
307.227	4.8
307.597	4.75
307.967	4.8
308.336	4.76
308.706	4.8
309.076	4.89
309.445	4.79
309.815	4.7
310.184	4.66
310.554	4.69
310.923	4.61
311.293	4.51
311.662	4.44
312.031	4.37
312.401	4.47
312.77	4.54
313.139	4.56
313.508	4.48
313.877	4.4
314.246	4.27
314.616	4.16
314.985	4.1
315.353	4.01
315.722	4.07
316.091	3.9
316.46	3.91
316.829	3.94
317.198	3.9
317.567	3.86
317.935	3.69
318.304	3.62
318.672	3.77
319.041	4.04
319.41	4.09
319.778	4.11
320.147	3.95
320.515	3.92
320.883	3.9
321.252	3.94
321.62	4.13
321.988	4.09
322.357	4.22
322.725	4.16
323.093	4.21
323.461	4.13
323.829	4.34
324.197	4.33
324.565	4.26
324.933	4.26
325.301	4.36
325.669	4.52
326.037	4.55
326.405	4.48
326.772	4.36
327.14	4.39
327.508	4.35
327.875	4.26
328.243	4.28
328.61	4.21
328.978	4.29
329.346	4.4
329.713	4.34
330.08	4.34
330.448	4.38
330.815	4.27
331.182	4.29
331.55	4.33
331.917	4.4
332.284	4.42
332.651	4.48
333.018	4.36
333.385	4.31
333.752	4.45
334.119	4.44
334.486	4.46
334.853	4.47
335.22	4.53
335.587	4.68
335.954	4.58
336.32	4.61
336.687	4.54
337.054	4.37
337.42	4.4
337.787	4.36
338.153	4.31
338.52	4.5
338.886	4.37
339.253	4.36
339.619	4.23
339.986	4.23
340.352	4.32
340.718	4.34
341.084	4.42
341.451	4.46
341.817	4.62
342.183	4.59
342.549	4.6
342.915	4.63
343.281	4.61
343.647	4.62
344.013	4.67
344.379	4.6
344.745	4.67
345.11	4.71
345.476	4.82
345.842	4.91
346.208	4.93
346.573	5.02
346.939	5.12
347.304	5.21
347.67	5.14
348.035	5.11
348.401	5.18
348.766	5.06
349.132	5.01
349.497	4.87
349.862	4.99
350.228	4.95
350.593	4.95
350.958	4.93
351.323	4.95
351.688	4.99
352.053	5.03
352.418	5.14
352.783	5.27
353.148	5.12
353.513	5.05
353.878	5
354.243	4.96
354.608	4.89
354.972	4.91
355.337	4.99
355.702	5.02
356.066	5
356.431	5.02
356.795	5.07
357.16	5.08
357.524	4.94
357.889	4.97
358.253	5
358.618	5.04
358.982	5.04
359.346	4.99
359.71	4.96
360.075	4.83
360.439	4.79
360.803	4.85
361.167	4.89
361.531	4.92
361.895	4.94
362.259	4.92
362.623	4.89
362.987	4.85
363.351	4.83
363.714	4.84
364.078	4.86
364.442	4.75
364.806	4.66
365.169	4.75
365.533	4.76
365.896	4.74
366.26	4.7
366.623	4.59
366.987	4.64
367.35	4.67
367.714	4.72
368.077	4.61
368.44	4.63
368.803	4.6
369.167	4.52
369.53	4.53
369.893	4.58
370.256	4.61
370.619	4.65
370.982	4.62
371.345	4.61
371.708	4.67
372.071	4.7
372.434	4.78
372.797	4.73
373.159	4.72
373.522	4.74
373.885	4.8
374.247	4.89
374.61	4.81
374.973	4.79
375.335	4.79
375.698	4.89
376.06	4.86
376.423	4.87
376.785	4.94
377.147	4.96
377.51	4.96
377.872	4.99
378.234	4.99
378.596	5.02
378.958	4.99
379.321	5.01
379.683	5.01
380.045	5.02
380.407	5.01
380.769	4.99
381.13	4.99
381.492	4.96
381.854	4.97
382.216	4.97
382.578	5
382.939	4.98
383.301	4.94
383.663	4.89
384.024	4.88
384.386	4.82
384.747	4.81
385.109	4.81
385.47	4.73
385.832	4.72
386.193	4.78
386.554	4.8
386.916	4.73
387.277	4.73
387.638	4.77
387.999	4.77
388.36	4.8
388.721	4.76
389.082	4.74
389.443	4.71
389.804	4.73
390.165	4.76
390.526	4.79
390.887	4.78
391.248	4.82
391.609	4.81
391.969	4.82
392.33	4.8
392.691	4.77
393.051	4.79
393.412	4.76
393.772	4.69
394.133	4.71
394.493	4.76
394.854	4.74
395.214	4.68
395.574	4.72
395.935	4.7
396.295	4.71
396.655	4.73
397.015	4.74
397.376	4.73
397.736	4.65
398.096	4.65
398.456	4.65
398.816	4.67
399.176	4.67
399.535	4.64
399.895	4.64
400.255	4.65
400.615	4.66
400.975	4.66
401.334	4.64
401.694	4.58
402.054	4.54
402.413	4.55
402.773	4.55
403.132	4.55
403.492	4.55
403.851	4.54
404.211	4.54
404.57	4.55
404.929	4.55
405.288	4.59
405.648	4.58
406.007	4.6
406.366	4.57
406.725	4.59
407.084	4.59
407.443	4.61
407.802	4.62
408.161	4.6
408.52	4.61
408.879	4.64
409.238	4.67
409.596	4.67
409.955	4.66
410.314	4.68
410.673	4.64
411.031	4.66
411.39	4.66
411.748	4.65
412.107	4.62
412.465	4.62
412.824	4.62
413.182	4.62
413.54	4.63
413.899	4.65
414.257	4.65
414.615	4.68
414.974	4.67
415.332	4.66
415.69	4.67
416.048	4.65
416.406	4.66
416.764	4.67
417.122	4.67
417.48	4.7
417.838	4.71
418.195	4.72
418.553	4.7
418.911	4.7
419.269	4.71
419.626	4.72
419.984	4.72
420.342	4.71
420.699	4.71
421.057	4.69
421.414	4.69
421.772	4.69
422.129	4.67
422.486	4.67
422.844	4.68
423.201	4.66
423.558	4.66
423.915	4.65
424.273	4.64
424.63	4.64
424.987	4.62
425.344	4.6
425.701	4.6
426.058	4.59
426.415	4.59
426.772	4.58
427.128	4.58
427.485	4.56
427.842	4.54
428.199	4.53
428.555	4.53
428.912	4.52
429.269	4.53
429.625	4.51
429.982	4.51
430.338	4.5
430.695	4.52
431.051	4.51
431.407	4.54
431.764	4.54
432.12	4.55
432.476	4.56
432.832	4.56
433.189	4.56
433.545	4.55
433.901	4.58
434.257	4.59
434.613	4.59
434.969	4.61
435.325	4.64
435.681	4.64
436.036	4.65
436.392	4.64
436.748	4.64
437.104	4.62
437.459	4.6
437.815	4.6
438.171	4.61
438.526	4.63
438.882	4.61
439.237	4.62
439.593	4.61
439.948	4.6
440.304	4.6
440.659	4.6
441.014	4.6
441.369	4.56
441.725	4.54
442.08	4.53
442.435	4.53
442.79	4.52
443.145	4.52
443.5	4.51
443.855	4.51
444.21	4.48
444.565	4.51
444.92	4.53
445.275	4.53
445.629	4.51
445.984	4.5
446.339	4.49
446.693	4.47
447.048	4.45
447.403	4.45
447.757	4.44
448.112	4.44
448.466	4.43
448.82	4.45
449.175	4.45
449.529	4.46
449.883	4.45
450.238	4.44
450.592	4.44
450.946	4.43
451.3	4.42
451.654	4.42
452.008	4.4
452.362	4.38
452.716	4.37
453.07	4.37
453.424	4.35
453.778	4.36
454.132	4.36
454.486	4.36
454.839	4.35
455.193	4.37
455.547	4.38
455.9	4.39
456.254	4.37
456.607	4.37
456.961	4.37
457.314	4.38
457.668	4.39
458.021	4.37
458.375	4.39
458.728	4.39
459.081	4.39
459.434	4.4
459.787	4.41
460.141	4.43
460.494	4.44
460.847	4.43
461.2	4.43
461.553	4.44
461.906	4.44
462.259	4.45
462.611	4.46
462.964	4.46
463.317	4.47
463.67	4.51
464.022	4.51
464.375	4.5
464.728	4.5
465.08	4.5
465.433	4.5
465.785	4.5
466.138	4.52
466.49	4.54
466.843	4.53
467.195	4.53
467.547	4.52
467.899	4.52
468.252	4.53
468.604	4.54
468.956	4.54
469.308	4.57
469.66	4.55
470.012	4.57
470.364	4.55
470.716	4.57
471.068	4.58
471.42	4.6
471.772	4.61
472.123	4.62
472.475	4.62
472.827	4.63
473.178	4.63
473.53	4.63
473.882	4.61
474.233	4.62
474.585	4.62
474.936	4.62
475.288	4.61
475.639	4.63
475.99	4.63
476.342	4.62
476.693	4.62
477.044	4.64
477.395	4.62
477.746	4.62
478.097	4.6
478.448	4.59
478.8	4.59
479.15	4.59
479.501	4.58
479.852	4.57
480.203	4.6
480.554	4.62
480.905	4.63
481.255	4.64
481.606	4.67
481.957	4.68
482.307	4.69
482.658	4.7
483.009	4.7
483.359	4.7
483.709	4.7
484.06	4.7
484.41	4.7
484.761	4.69
485.111	4.69
485.461	4.7
485.811	4.7
486.162	4.69
486.512	4.69
486.862	4.7
487.212	4.7
487.562	4.7
487.912	4.69
488.262	4.7
488.612	4.7
488.961	4.69
489.311	4.68
489.661	4.68
490.011	4.67
490.36	4.67
490.71	4.67
491.06	4.67
491.409	4.68
491.759	4.68
492.108	4.68
492.458	4.69
492.807	4.7
493.157	4.7
493.506	4.72
493.855	4.73
494.204	4.75
494.554	4.76
494.903	4.76
495.252	4.79
495.601	4.78
495.95	4.78
496.299	4.78
496.648	4.79
496.997	4.78
497.346	4.8
497.695	4.81
498.043	4.82
498.392	4.84
498.741	4.86
499.09	4.86
499.438	4.88
499.787	4.88
500.135	4.88
500.484	4.9
500.832	4.91
501.181	4.92
501.529	4.93
501.878	4.94
502.226	4.93
502.574	4.92
502.923	4.94
503.271	4.95
503.619	4.95
503.967	4.98
504.315	5.02
504.663	5.02
505.011	5.03
505.359	5.05
505.707	5.07
506.055	5.08
506.403	5.14
506.751	5.15
507.098	5.16
507.446	5.17
507.794	5.17
508.141	5.18
508.489	5.18
508.837	5.17
509.184	5.19
509.531	5.22
509.879	5.26
510.226	5.26
510.574	5.28
510.921	5.29
511.268	5.28
511.616	5.29
511.963	5.32
512.31	5.33
512.657	5.34
513.004	5.36
513.351	5.38
513.698	5.37
514.045	5.37
514.392	5.4
514.739	5.41
515.086	5.43
515.432	5.45
515.779	5.46
516.126	5.46
516.473	5.47
516.819	5.47
517.166	5.48
517.512	5.51
517.859	5.52
518.205	5.54
518.552	5.56
518.898	5.56
519.245	5.56
519.591	5.56
519.937	5.56
520.283	5.55
520.629	5.55
520.976	5.56
521.322	5.57
521.668	5.57
522.014	5.6
522.36	5.6
522.706	5.59
523.052	5.61
523.398	5.62
523.743	5.61
524.089	5.61
524.435	5.61
524.781	5.62
525.126	5.64
525.472	5.65
525.817	5.65
526.163	5.66
526.509	5.66
526.854	5.66
527.199	5.67
527.545	5.67
527.89	5.68
528.235	5.69
528.581	5.7
528.926	5.71
529.271	5.71
529.616	5.71
529.961	5.73
530.306	5.73
530.651	5.73
530.996	5.75
531.341	5.76
531.686	5.77
532.031	5.77
532.376	5.76
532.721	5.77
533.065	5.77
533.41	5.78
533.755	5.78
534.099	5.79
534.444	5.79
534.788	5.81
535.133	5.81
535.477	5.82
535.822	5.81
536.166	5.8
536.51	5.78
536.855	5.78
537.199	5.78
537.543	5.79
537.887	5.8
538.231	5.81
538.576	5.8
538.92	5.82
539.264	5.84
539.608	5.85
539.951	5.83
540.295	5.84
540.639	5.84
540.983	5.86
541.327	5.86
541.671	5.87
542.014	5.87
542.358	5.87
542.701	5.86
543.045	5.88
543.389	5.9
543.732	5.92
544.075	5.95
544.419	5.96
544.762	5.96
545.105	5.97
545.449	5.97
545.792	5.98
546.135	5.98
546.478	5.97
546.821	5.97
547.165	5.98
547.508	6
547.851	6
548.194	5.99
548.536	5.98
548.879	5.98
549.222	5.97
549.565	5.99
549.908	5.98
550.25	5.97
550.593	5.95
550.936	5.93
551.278	5.91
551.621	5.91
551.963	5.9
552.306	5.91
552.648	5.92
552.991	5.94
553.333	5.92
553.675	5.92
554.017	5.93
554.36	5.92
554.702	5.93
555.044	5.92
555.386	5.91
555.728	5.92
556.07	5.94
556.412	5.95
556.754	5.96
557.096	5.99
557.438	6
557.78	6
558.121	6.03
558.463	6.03
558.805	6
559.147	6.01
559.488	6.03
559.83	6.05
560.171	6.04
560.513	6.07
560.854	6.07
561.196	6.06
561.537	6.06
561.878	6.05
562.22	6.08
562.561	6.09
562.902	6.1
563.243	6.07
563.584	6.09
563.925	6.09
564.266	6.08
564.607	6.08
564.948	6.09
565.289	6.12
565.63	6.13
565.971	6.15
566.312	6.14
566.653	6.14
566.993	6.11
567.334	6.13
567.675	6.14
568.015	6.16
568.356	6.18
568.696	6.16
569.037	6.18
569.377	6.17
569.718	6.19
570.058	6.2
570.398	6.22
570.739	6.22
571.079	6.24
571.419	6.24
571.759	6.26
572.099	6.23
572.439	6.22
572.779	6.23
573.119	6.25
573.459	6.27
573.799	6.3
574.139	6.31
574.479	6.28
574.819	6.28
575.158	6.27
575.498	6.26
575.838	6.3
576.177	6.27
576.517	6.27
576.856	6.28
577.196	6.29
577.535	6.31
577.875	6.3
578.214	6.3
578.553	6.32
578.893	6.32
579.232	6.38
579.571	6.38
579.91	6.37
580.25	6.32
580.589	6.32
580.928	6.28
581.267	6.26
581.606	6.26
581.945	6.27
582.283	6.3
582.622	6.3
582.961	6.27
583.3	6.3
583.639	6.36
583.977	6.35
584.316	6.31
584.654	6.25
584.993	6.25
585.332	6.23
585.67	6.26
586.008	6.27
586.347	6.24
586.685	6.22
587.024	6.22
587.362	6.23
587.7	6.26
588.038	6.28
588.376	6.3
588.715	6.33
589.053	6.33
589.391	6.36
589.729	6.4
590.067	6.4
590.404	6.4
590.742	6.38
591.08	6.35
591.418	6.39
591.756	6.42
592.093	6.45
592.431	6.48
592.769	6.42
593.106	6.39
593.444	6.4
593.781	6.4
594.119	6.45
594.456	6.47
594.793	6.45
595.131	6.4
595.468	6.38
595.805	6.37
596.143	6.37
596.48	6.38
596.817	6.38
597.154	6.41
597.491	6.36
597.828	6.37
598.165	6.4
598.502	6.39
598.839	6.42
599.176	6.44
599.512	6.41
599.849	6.42
600.186	6.47
600.523	6.49
600.859	6.54
601.196	6.49
601.532	6.52
601.869	6.53
602.205	6.6
602.542	6.65
602.878	6.65
603.215	6.65
603.551	6.62
603.887	6.61
604.223	6.57
604.56	6.62
604.896	6.64
605.232	6.65
605.568	6.66
605.904	6.65
606.24	6.63
606.576	6.62
606.912	6.66
607.248	6.63
607.583	6.62
607.919	6.62
608.255	6.61
608.591	6.63
608.926	6.66
609.262	6.69
609.597	6.64
609.933	6.65
610.268	6.66
610.604	6.67
610.939	6.66
611.275	6.75
611.61	6.75
611.945	6.78
612.281	6.8
612.616	6.78
612.951	6.76
613.286	6.76
613.621	6.78
613.956	6.77
614.291	6.79
614.626	6.79
614.961	6.77
615.296	6.73
615.631	6.69
615.966	6.68
616.3	6.62
616.635	6.69
616.97	6.66
617.304	6.65
617.639	6.68
617.973	6.71
618.308	6.67
618.642	6.67
618.977	6.58
619.311	6.55
619.646	6.64
619.98	6.66
620.314	6.69
620.648	6.71
620.983	6.71
621.317	6.7
621.651	6.73
621.985	6.72
622.319	6.74
622.653	6.78
622.987	6.75
623.321	6.73
623.655	6.74
623.988	6.8
624.322	6.83
624.656	6.82
624.99	6.83
625.323	6.82
625.657	6.84
625.99	6.91
626.324	6.97
626.657	6.93
626.991	6.94
627.324	6.92
627.658	6.93
627.991	6.98
628.324	7.01
628.657	6.97
628.991	6.94
629.324	7.03
629.657	7.05
629.99	7.08
630.323	7.1
630.656	7.1
630.989	7.08
631.322	7.1
631.655	7.1
631.987	7.04
632.32	7.03
632.653	7.02
632.986	6.99
633.318	6.92
633.651	6.98
633.984	6.95
634.316	6.91
634.649	6.89
634.981	6.84
635.313	6.8
635.646	6.81
635.978	6.9
636.31	6.89
636.643	6.84
636.975	6.82
637.307	6.83
637.639	6.74
637.971	6.73
638.303	6.75
638.635	6.73
638.967	6.75
639.299	6.8
639.631	6.79
639.963	6.76
640.295	6.82
640.626	6.74
640.958	6.78
641.29	6.84
641.621	6.84
641.953	6.87
642.285	6.93
642.616	6.98
642.948	6.99
643.279	7.04
643.61	7.11
643.942	7.12
644.273	7.17
644.604	7.31
644.936	7.34
645.267	7.34
645.598	7.34
645.929	7.36
646.26	7.29
646.591	7.32
646.922	7.36
647.253	7.37
647.584	7.35
647.915	7.36
648.245	7.36
648.576	7.41
648.907	7.39
649.238	7.33
649.568	7.31
649.899	7.28
650.229	7.21
650.56	7.14
650.89	7.18
651.221	7.19
651.551	7.12
651.882	7.1
652.212	7.11
652.542	7.14
652.872	7.15
653.203	7.18
653.533	7.19
653.863	7.2
654.193	7.23
654.523	7.29
654.853	7.34
655.183	7.41
655.513	7.41
655.843	7.42
656.172	7.46
656.502	7.48
656.832	7.43
657.162	7.45
657.491	7.46
657.821	7.47
658.15	7.43
658.48	7.48
658.809	7.53
659.139	7.47
659.468	7.47
659.798	7.44
660.127	7.44
660.456	7.5
660.785	7.51
661.115	7.4
661.444	7.37
661.773	7.3
662.102	7.21
662.431	7.18
662.76	7.22
663.089	7.23
663.418	7.23
663.747	7.27
664.076	7.26
664.404	7.24
664.733	7.23
665.062	7.2
665.39	7.09
665.719	7.04
666.048	7.15
666.376	7.15
666.705	7.17
667.033	7.18
667.362	7.19
667.69	7.13
668.018	7.25
668.347	7.24
668.675	7.3
669.003	7.37
669.331	7.43
669.659	7.4
669.987	7.43
670.315	7.42
670.643	7.48
670.971	7.45
671.299	7.5
671.627	7.53
671.955	7.59
672.283	7.72
672.61	7.78
672.938	7.72
673.266	7.75
673.593	7.77
673.921	7.76
674.249	7.72
674.576	7.72
674.904	7.76
675.231	7.75
675.558	7.75
675.886	7.71
676.213	7.67
676.54	7.66
