Data from BA57757_Reflection_00037.txt Node
Date: Mon Nov 18 15:02:18 EST 2019
User: vgr7
Spectrometer: USB2G7710
Scans to average: 3
Trigger mode: 4
Integration Time (sec): 2.000000E-2
Electric dark correction enabled: true
Boxcar width: 10
XAxis mode: Wavelengths
Number of Pixels in Spectrum: 2048
>>>>>Begin Spectral Data<<<<<
177.721	136.29
178.105	82.58
178.488	-33.89
178.871	-201.72
179.254	159.23
179.636	-589.66
180.019	773.37
180.402	43.9
180.785	-1488.79
181.168	95.58
181.55	983.72
181.933	105.82
182.316	73.09
182.698	40.84
183.081	39.07
183.463	80.93
183.846	89.79
184.228	60.36
184.611	68.72
184.993	102.95
185.376	-46.51
185.758	56.59
186.14	38.06
186.522	-105.66
186.904	12.52
187.287	558.72
187.669	-103.87
188.051	-68.13
188.433	-1.61
188.815	13.78
189.197	0.92
189.579	33.45
189.961	29.07
190.342	27.21
190.724	30.77
191.106	30.97
191.488	32.44
191.869	22.88
192.251	-17.19
192.633	-3.9
193.014	-6.6
193.396	-11.89
193.777	-23.91
194.159	-29.96
194.54	-7.84
194.922	-23.78
195.303	-15.77
195.684	-7.02
196.065	-6.5
196.447	-9.46
196.828	1.56
197.209	1.54
197.59	-10.74
197.971	-5.12
198.352	-4.8
198.733	-9.53
199.114	-7.14
199.495	3.46
199.876	18.25
200.257	37.66
200.638	20.53
201.018	26.07
201.399	30.66
201.78	41.45
202.16	45.48
202.541	41.78
202.922	49.71
203.302	45.3
203.683	35.1
204.063	48.28
204.444	71.5
204.824	51.4
205.204	61.01
205.585	47.42
205.965	43.85
206.345	43.18
206.725	29.63
207.106	26.36
207.486	10.49
207.866	-0.7
208.246	-16.14
208.626	2.26
209.006	5.43
209.386	-11.3
209.766	-18.51
210.145	-19.62
210.525	-14.62
210.905	-24.44
211.285	-10.56
211.664	-16.69
212.044	-16.47
212.424	-16.58
212.803	-23.77
213.183	-29.36
213.562	-18.79
213.942	-3.49
214.321	1.94
214.701	4.26
215.08	10.33
215.459	6.21
215.838	-0.61
216.218	-6.98
216.597	-2.9
216.976	1.02
217.355	3.27
217.734	6.39
218.113	17.6
218.492	4.87
218.871	18.24
219.25	16.65
219.629	18.31
220.008	5.04
220.387	2.51
220.766	-2.56
221.144	-3.11
221.523	-13.1
221.902	-31.76
222.28	-44.29
222.659	-31.11
223.037	-23.96
223.416	-19.3
223.794	-7.3
224.173	0.39
224.551	2.96
224.929	4.92
225.308	8.38
225.686	9.64
226.064	7.27
226.442	14.39
226.821	11.79
227.199	6.76
227.577	8.66
227.955	11.06
228.333	10.78
228.711	12.12
229.089	13.92
229.467	15.75
229.845	15.47
230.222	16.61
230.6	16.28
230.978	14.98
231.356	16.65
231.733	17.71
232.111	17.82
232.488	16.22
232.866	14.6
233.243	14.64
233.621	12.53
233.998	13.45
234.376	11.4
234.753	11.5
235.13	11.49
235.508	10.19
235.885	8.77
236.262	7.82
236.639	7.92
237.016	7.5
237.393	7.68
237.77	7.46
238.147	7.6
238.524	6.77
238.901	7.36
239.278	6.7
239.655	6.21
240.032	5.55
240.409	5.29
240.785	5.16
241.162	4.85
241.539	4.97
241.915	4.78
242.292	4.56
242.668	4.54
243.045	5.13
243.421	5.19
243.798	5.42
244.174	5.76
244.551	5.76
244.927	5.63
245.303	5.54
245.679	5.55
246.056	5.46
246.432	5.32
246.808	5.23
247.184	5.11
247.56	5.01
247.936	4.98
248.312	5.36
248.688	5.51
249.064	5.38
249.44	5.31
249.815	5.2
250.191	5.37
250.567	5.35
250.943	5.17
251.318	5.24
251.694	5.31
252.069	5.21
252.445	5.02
252.82	4.97
253.196	4.88
253.571	4.63
253.947	4.61
254.322	4.79
254.697	4.49
255.073	4.38
255.448	4.27
255.823	4.36
256.198	4.19
256.573	3.95
256.948	4.2
257.323	4.25
257.698	4.26
258.073	4.28
258.448	4.41
258.823	4.37
259.198	4.28
259.573	4.13
259.948	3.91
260.322	3.97
260.697	3.92
261.072	3.96
261.446	4.1
261.821	4.15
262.195	4.21
262.57	4.24
262.944	4.28
263.319	4.3
263.693	4.26
264.067	4.2
264.442	4.29
264.816	4.18
265.19	4.09
265.564	4.22
265.938	4.08
266.313	3.99
266.687	3.94
267.061	4.15
267.435	4.18
267.809	4.3
268.183	4.34
268.556	4.4
268.93	4.49
269.304	4.59
269.678	4.6
270.051	4.52
270.425	4.5
270.799	4.55
271.172	4.67
271.546	4.69
271.919	4.71
272.293	4.66
272.666	4.68
273.04	4.8
273.413	4.63
273.787	4.69
274.16	4.66
274.533	4.67
274.906	4.49
275.279	4.44
275.653	4.43
276.026	4.38
276.399	4.41
276.772	4.4
277.145	4.25
277.518	4.36
277.891	4.26
278.263	4.36
278.636	4.31
279.009	4.22
279.382	4.42
279.755	4.32
280.127	4.56
280.5	4.57
280.872	4.56
281.245	4.58
281.617	4.67
281.99	4.65
282.362	4.83
282.735	4.81
283.107	4.97
283.479	4.96
283.852	4.99
284.224	4.85
284.596	4.73
284.968	4.8
285.34	4.83
285.713	4.81
286.085	4.64
286.457	4.74
286.829	4.75
287.201	4.62
287.572	4.58
287.944	4.38
288.316	4.31
288.688	4.32
289.06	4.31
289.431	4.34
289.803	4.4
290.175	4.3
290.546	4.51
290.918	4.34
291.289	4.42
291.661	4.54
292.032	4.69
292.403	4.77
292.775	4.72
293.146	4.5
293.517	4.51
293.889	4.68
294.26	4.67
294.631	4.67
295.002	4.59
295.373	4.61
295.744	4.68
296.115	4.72
296.486	4.64
296.857	4.72
297.228	4.77
297.599	4.7
297.97	4.72
298.34	4.63
298.711	4.83
299.082	4.71
299.452	4.71
299.823	4.78
300.194	4.8
300.564	4.9
300.935	5.07
301.305	5.16
301.676	5.16
302.046	5.25
302.416	5.45
302.787	5.57
303.157	5.68
303.527	5.78
303.897	5.94
304.267	6.1
304.637	6.35
305.008	6.39
305.378	6.61
305.748	6.83
306.117	6.94
306.487	6.94
306.857	7.08
307.227	7.04
307.597	7.01
307.967	7.08
308.336	7.05
308.706	7.18
309.076	7.3
309.445	7.49
309.815	7.55
310.184	7.5
310.554	7.66
310.923	7.7
311.293	7.7
311.662	7.69
312.031	7.71
312.401	7.7
312.77	7.83
313.139	7.91
313.508	7.91
313.877	7.94
314.246	8.02
314.616	8.06
314.985	8.2
315.353	8.23
315.722	8.39
316.091	8.47
316.46	8.48
316.829	8.54
317.198	8.4
317.567	8.44
317.935	8.53
318.304	8.6
318.672	8.66
319.041	8.78
319.41	8.94
319.778	9.19
320.147	9.24
320.515	9.18
320.883	9.15
321.252	9.13
321.62	9.23
321.988	9.23
322.357	9.29
322.725	9.38
323.093	9.5
323.461	9.49
323.829	9.61
324.197	9.74
324.565	9.84
324.933	10.07
325.301	10.1
325.669	10.11
326.037	10.1
326.405	10.34
326.772	10.48
327.14	10.56
327.508	10.6
327.875	10.51
328.243	10.58
328.61	10.58
328.978	10.57
329.346	10.65
329.713	10.83
330.08	10.91
330.448	10.89
330.815	10.81
331.182	10.82
331.55	10.95
331.917	10.85
332.284	10.85
332.651	10.82
333.018	10.91
333.385	10.97
333.752	11.06
334.119	11.07
334.486	11.06
334.853	11.06
335.22	11.03
335.587	11.16
335.954	11.21
336.32	11.32
336.687	11.63
337.054	11.64
337.42	11.58
337.787	11.69
338.153	11.74
338.52	11.9
338.886	11.9
339.253	11.85
339.619	12.08
339.986	12.18
340.352	12.33
340.718	12.37
341.084	12.41
341.451	12.42
341.817	12.43
342.183	12.4
342.549	12.47
342.915	12.41
343.281	12.41
343.647	12.39
344.013	12.37
344.379	12.2
344.745	12.18
345.11	12.21
345.476	12.18
345.842	12.12
346.208	12.17
346.573	12.28
346.939	12.4
347.304	12.28
347.67	12.24
348.035	12.14
348.401	12.09
348.766	12.09
349.132	12.09
349.497	12.04
349.862	12.1
350.228	12.02
350.593	12.09
350.958	12.08
351.323	12.11
351.688	12.19
352.053	12.17
352.418	12.25
352.783	12.3
353.148	12.26
353.513	12.34
353.878	12.29
354.243	12.21
354.608	12.08
354.972	12.09
355.337	12.08
355.702	12.08
356.066	12.15
356.431	12.14
356.795	12.2
357.16	12.23
357.524	12.23
357.889	12.22
358.253	12.23
358.618	12.25
358.982	12.21
359.346	12.13
359.71	12.08
360.075	12.03
360.439	11.99
360.803	11.97
361.167	11.88
361.531	11.87
361.895	11.85
362.259	11.88
362.623	11.85
362.987	11.85
363.351	11.88
363.714	11.78
364.078	11.64
364.442	11.5
364.806	11.44
365.169	11.36
365.533	11.34
365.896	11.33
366.26	11.22
366.623	11.12
366.987	11.1
367.35	11.16
367.714	11.18
368.077	11.07
368.44	11.11
368.803	11.11
369.167	10.96
369.53	10.86
369.893	10.8
370.256	10.71
370.619	10.62
370.982	10.41
371.345	10.32
371.708	10.37
372.071	10.31
372.434	10.27
372.797	10.19
373.159	10.04
373.522	9.94
373.885	9.9
374.247	9.91
374.61	9.86
374.973	9.68
375.335	9.54
375.698	9.52
376.06	9.36
376.423	9.25
376.785	9.27
377.147	9.28
377.51	9.18
377.872	9.14
378.234	9.06
378.596	9.09
378.958	9.03
379.321	8.95
379.683	8.93
380.045	8.83
380.407	8.72
380.769	8.71
381.13	8.62
381.492	8.55
381.854	8.46
382.216	8.33
382.578	8.3
382.939	8.19
383.301	8.11
383.663	8.02
384.024	7.97
384.386	7.91
384.747	7.86
385.109	7.79
385.47	7.71
385.832	7.66
386.193	7.59
386.554	7.58
386.916	7.54
387.277	7.46
387.638	7.41
387.999	7.41
388.36	7.31
388.721	7.27
389.082	7.22
389.443	7.14
389.804	7.09
390.165	7.03
390.526	7.04
390.887	6.96
391.248	6.96
391.609	6.92
391.969	6.89
392.33	6.8
392.691	6.76
393.051	6.7
393.412	6.64
393.772	6.59
394.133	6.54
394.493	6.49
394.854	6.45
395.214	6.41
395.574	6.33
395.935	6.31
396.295	6.27
396.655	6.18
397.015	6.15
397.376	6.13
397.736	6.1
398.096	6.08
398.456	6.08
398.816	6.02
399.176	5.95
399.535	5.86
399.895	5.81
400.255	5.77
400.615	5.71
400.975	5.71
401.334	5.65
401.694	5.57
402.054	5.5
402.413	5.45
402.773	5.4
403.132	5.37
403.492	5.31
403.851	5.28
404.211	5.25
404.57	5.23
404.929	5.2
405.288	5.15
405.648	5.04
406.007	4.98
406.366	4.98
406.725	5
407.084	5
407.443	4.98
407.802	4.95
408.161	4.97
408.52	4.9
408.879	4.87
409.238	4.85
409.596	4.84
409.955	4.81
410.314	4.79
410.673	4.74
411.031	4.75
411.39	4.74
411.748	4.72
412.107	4.72
412.465	4.67
412.824	4.66
413.182	4.65
413.54	4.64
413.899	4.6
414.257	4.55
414.615	4.51
414.974	4.48
415.332	4.46
415.69	4.42
416.048	4.37
416.406	4.37
416.764	4.36
417.122	4.33
417.48	4.32
417.838	4.31
418.195	4.3
418.553	4.26
418.911	4.22
419.269	4.22
419.626	4.19
419.984	4.16
420.342	4.16
420.699	4.14
421.057	4.11
421.414	4.09
421.772	4.06
422.129	4.04
422.486	4.02
422.844	4
423.201	3.98
423.558	3.99
423.915	3.96
424.273	3.94
424.63	3.91
424.987	3.88
425.344	3.85
425.701	3.82
426.058	3.81
426.415	3.8
426.772	3.77
427.128	3.75
427.485	3.75
427.842	3.71
428.199	3.69
428.555	3.69
428.912	3.68
429.269	3.69
429.625	3.66
429.982	3.65
430.338	3.65
430.695	3.64
431.051	3.6
431.407	3.6
431.764	3.59
432.12	3.6
432.476	3.6
432.832	3.6
433.189	3.62
433.545	3.62
433.901	3.61
434.257	3.61
434.613	3.61
434.969	3.61
435.325	3.61
435.681	3.6
436.036	3.61
436.392	3.61
436.748	3.59
437.104	3.6
437.459	3.6
437.815	3.6
438.171	3.59
438.526	3.61
438.882	3.62
439.237	3.63
439.593	3.64
439.948	3.65
440.304	3.65
440.659	3.65
441.014	3.63
441.369	3.62
441.725	3.6
442.08	3.6
442.435	3.59
442.79	3.58
443.145	3.58
443.5	3.56
443.855	3.55
444.21	3.56
444.565	3.56
444.92	3.55
445.275	3.53
445.629	3.53
445.984	3.51
446.339	3.48
446.693	3.46
447.048	3.44
447.403	3.41
447.757	3.39
448.112	3.39
448.466	3.38
448.82	3.38
449.175	3.38
449.529	3.38
449.883	3.35
450.238	3.33
450.592	3.33
450.946	3.31
451.3	3.28
451.654	3.27
452.008	3.24
452.362	3.24
452.716	3.24
453.07	3.23
453.424	3.24
453.778	3.24
454.132	3.24
454.486	3.24
454.839	3.24
455.193	3.24
455.547	3.22
455.9	3.22
456.254	3.23
456.607	3.23
456.961	3.23
457.314	3.23
457.668	3.23
458.021	3.23
458.375	3.23
458.728	3.26
459.081	3.25
459.434	3.25
459.787	3.26
460.141	3.26
460.494	3.27
460.847	3.27
461.2	3.27
461.553	3.28
461.906	3.28
462.259	3.3
462.611	3.33
462.964	3.35
463.317	3.34
463.67	3.34
464.022	3.35
464.375	3.35
464.728	3.37
465.08	3.4
465.433	3.42
465.785	3.44
466.138	3.45
466.49	3.47
466.843	3.49
467.195	3.5
467.547	3.51
467.899	3.51
468.252	3.5
468.604	3.53
468.956	3.54
469.308	3.54
469.66	3.54
470.012	3.54
470.364	3.54
470.716	3.57
471.068	3.58
471.42	3.59
471.772	3.6
472.123	3.61
472.475	3.61
472.827	3.62
473.178	3.62
473.53	3.62
473.882	3.6
474.233	3.62
474.585	3.59
474.936	3.59
475.288	3.62
475.639	3.63
475.99	3.63
476.342	3.63
476.693	3.64
477.044	3.65
477.395	3.65
477.746	3.65
478.097	3.64
478.448	3.64
478.8	3.6
479.15	3.58
479.501	3.58
479.852	3.56
480.203	3.54
480.554	3.55
480.905	3.56
481.255	3.56
481.606	3.55
481.957	3.57
482.307	3.57
482.658	3.57
483.009	3.56
483.359	3.56
483.709	3.55
484.06	3.55
484.41	3.55
484.761	3.54
485.111	3.55
485.461	3.55
485.811	3.55
486.162	3.56
486.512	3.57
486.862	3.58
487.212	3.59
487.562	3.6
487.912	3.6
488.262	3.61
488.612	3.61
488.961	3.62
489.311	3.61
489.661	3.62
490.011	3.62
490.36	3.62
490.71	3.63
491.06	3.64
491.409	3.64
491.759	3.65
492.108	3.67
492.458	3.68
492.807	3.69
493.157	3.71
493.506	3.72
493.855	3.74
494.204	3.76
494.554	3.77
494.903	3.78
495.252	3.79
495.601	3.81
495.95	3.83
496.299	3.85
496.648	3.88
496.997	3.9
497.346	3.95
497.695	3.98
498.043	4.01
498.392	4.04
498.741	4.09
499.09	4.15
499.438	4.19
499.787	4.23
500.135	4.28
500.484	4.32
500.832	4.38
501.181	4.44
501.529	4.49
501.878	4.55
502.226	4.62
502.574	4.69
502.923	4.75
503.271	4.83
503.619	4.91
503.967	4.96
504.315	5.03
504.663	5.09
505.011	5.17
505.359	5.27
505.707	5.35
506.055	5.44
506.403	5.5
506.751	5.57
507.098	5.66
507.446	5.74
507.794	5.81
508.141	5.91
508.489	5.99
508.837	6.07
509.184	6.16
509.531	6.26
509.879	6.36
510.226	6.45
510.574	6.55
510.921	6.64
511.268	6.74
511.616	6.86
511.963	6.96
512.31	7.09
512.657	7.18
513.004	7.31
513.351	7.41
513.698	7.54
514.045	7.67
514.392	7.8
514.739	7.94
515.086	8.09
515.432	8.21
515.779	8.3
516.126	8.43
516.473	8.55
516.819	8.65
517.166	8.76
517.512	8.88
517.859	9
518.205	9.11
518.552	9.21
518.898	9.3
519.245	9.41
519.591	9.51
519.937	9.64
520.283	9.75
520.629	9.89
520.976	10.03
521.322	10.18
521.668	10.34
522.014	10.48
522.36	10.63
522.706	10.81
523.052	11.02
523.398	11.24
523.743	11.45
524.089	11.69
524.435	11.91
524.781	12.11
525.126	12.27
525.472	12.46
525.817	12.65
526.163	12.82
526.509	12.97
526.854	13.11
527.199	13.25
527.545	13.36
527.89	13.49
528.235	13.64
528.581	13.79
528.926	13.94
529.271	14.1
529.616	14.24
529.961	14.38
530.306	14.56
530.651	14.71
530.996	14.9
531.341	15.09
531.686	15.25
532.031	15.46
532.376	15.67
532.721	15.89
533.065	16.1
533.41	16.31
533.755	16.54
534.099	16.76
534.444	16.98
534.788	17.25
535.133	17.49
535.477	17.75
535.822	18
536.166	18.26
536.51	18.53
536.855	18.88
537.199	19.21
537.543	19.51
537.887	19.84
538.231	20.18
538.576	20.52
538.92	20.85
539.264	21.15
539.608	21.47
539.951	21.74
540.295	21.99
540.639	22.27
540.983	22.53
541.327	22.83
541.671	23.09
542.014	23.34
542.358	23.59
542.701	23.84
543.045	24.09
543.389	24.35
543.732	24.64
544.075	24.9
544.419	25.18
544.762	25.48
545.105	25.79
545.449	26.11
545.792	26.4
546.135	26.76
546.478	27.13
546.821	27.48
547.165	27.86
547.508	28.29
547.851	28.65
548.194	29.03
548.536	29.4
548.879	29.82
549.222	30.23
549.565	30.64
549.908	31.01
550.25	31.39
550.593	31.81
550.936	32.16
551.278	32.53
551.621	32.92
551.963	33.34
552.306	33.7
552.648	34.09
552.991	34.48
553.333	34.79
553.675	35.18
554.017	35.53
554.36	35.86
554.702	36.16
555.044	36.56
555.386	36.91
555.728	37.25
556.07	37.61
556.412	37.94
556.754	38.27
557.096	38.62
557.438	38.98
557.78	39.28
558.121	39.66
558.463	39.99
558.805	40.32
559.147	40.58
559.488	40.89
559.83	41.17
560.171	41.44
560.513	41.8
560.854	42.01
561.196	42.33
561.537	42.58
561.878	42.88
562.22	43.1
562.561	43.36
562.902	43.58
563.243	43.79
563.584	44.09
563.925	44.32
564.266	44.55
564.607	44.86
564.948	45.1
565.289	45.36
565.63	45.6
565.971	45.85
566.312	46.11
566.653	46.29
566.993	46.48
567.334	46.76
567.675	46.96
568.015	47.18
568.356	47.39
568.696	47.62
569.037	47.8
569.377	48.05
569.718	48.29
570.058	48.55
570.398	48.75
570.739	48.95
571.079	49.13
571.419	49.33
571.759	49.5
572.099	49.67
572.439	49.86
572.779	50.02
573.119	50.17
573.459	50.34
573.799	50.56
574.139	50.74
574.479	50.86
574.819	51.01
575.158	51.2
575.498	51.34
575.838	51.53
576.177	51.69
576.517	51.85
576.856	52.03
577.196	52.22
577.535	52.37
577.875	52.55
578.214	52.73
578.553	52.86
578.893	53.01
579.232	53.14
579.571	53.27
579.91	53.46
580.25	53.65
580.589	53.74
580.928	53.87
581.267	53.96
581.606	54.11
581.945	54.23
582.283	54.31
582.622	54.5
582.961	54.64
583.3	54.81
583.639	54.99
583.977	55.1
584.316	55.16
584.654	55.29
584.993	55.41
585.332	55.65
585.67	55.85
586.008	55.94
586.347	56.1
586.685	56.14
587.024	56.23
587.362	56.18
587.7	56.34
588.038	56.45
588.376	56.58
588.715	56.61
589.053	56.74
589.391	56.85
589.729	56.86
590.067	56.87
590.404	56.99
590.742	57.06
591.08	57.11
591.418	57.19
591.756	57.25
592.093	57.28
592.431	57.28
592.769	57.31
593.106	57.41
593.444	57.48
593.781	57.55
594.119	57.66
594.456	57.79
594.793	57.85
595.131	57.91
595.468	57.92
595.805	58.04
596.143	58.06
596.48	58.08
596.817	58.18
597.154	58.25
597.491	58.29
597.828	58.4
598.165	58.43
598.502	58.54
598.839	58.61
599.176	58.69
599.512	58.72
599.849	58.77
600.186	58.78
600.523	58.86
600.859	58.96
601.196	59.01
601.532	59.09
601.869	59.08
602.205	59.1
602.542	59.14
602.878	59.19
603.215	59.28
603.551	59.33
603.887	59.36
604.223	59.4
604.56	59.41
604.896	59.35
605.232	59.44
605.568	59.35
605.904	59.4
606.24	59.47
606.576	59.54
606.912	59.62
607.248	59.67
607.583	59.72
607.919	59.76
608.255	59.8
608.591	59.83
608.926	59.92
609.262	59.93
609.597	60.02
609.933	60.06
610.268	60.1
610.604	60.15
610.939	60.24
611.275	60.35
611.61	60.37
611.945	60.41
612.281	60.44
612.616	60.56
612.951	60.7
613.286	60.66
613.621	60.72
613.956	60.77
614.291	60.83
614.626	60.98
614.961	61.03
615.296	61.06
615.631	61.14
615.966	61.11
616.3	61.27
616.635	61.25
616.97	61.27
617.304	61.25
617.639	61.33
617.973	61.3
618.308	61.29
618.642	61.32
618.977	61.45
619.311	61.55
619.646	61.57
619.98	61.48
620.314	61.5
620.648	61.49
620.983	61.46
621.317	61.51
621.651	61.43
621.985	61.46
622.319	61.4
622.653	61.45
622.987	61.57
623.321	61.6
623.655	61.67
623.988	61.64
624.322	61.62
624.656	61.66
624.99	61.75
625.323	61.82
625.657	61.86
625.99	61.81
626.324	61.76
626.657	61.83
626.991	61.88
627.324	61.96
627.658	62
627.991	62.11
628.324	62.11
628.657	62.06
628.991	62.03
629.324	62.2
629.657	62.24
629.99	62.19
630.323	62.16
630.656	62.25
630.989	62.38
631.322	62.52
631.655	62.52
631.987	62.57
632.32	62.68
632.653	62.64
632.986	62.68
633.318	62.65
633.651	62.69
633.984	62.7
634.316	62.71
634.649	62.72
634.981	62.69
635.313	62.63
635.646	62.69
635.978	62.67
636.31	62.62
636.643	62.61
636.975	62.73
637.307	62.85
637.639	62.79
637.971	62.77
638.303	62.72
638.635	62.78
638.967	62.68
639.299	62.54
639.631	62.59
639.963	62.57
640.295	62.73
640.626	62.61
640.958	62.62
641.29	62.7
641.621	62.78
641.953	62.7
642.285	62.89
642.616	62.97
642.948	63.05
643.279	63.08
643.61	63.08
643.942	63.15
644.273	63.01
644.604	63
644.936	62.98
645.267	62.98
645.598	62.97
645.929	63.04
646.26	63.05
646.591	63.11
646.922	63.22
647.253	63.18
647.584	63.18
647.915	63.16
648.245	63.16
648.576	63.08
648.907	63.11
649.238	62.95
649.568	62.88
649.899	63.01
650.229	62.96
650.56	62.96
650.89	62.91
651.221	63.08
651.551	63.18
651.882	63.22
652.212	63.24
652.542	63.19
652.872	63.2
653.203	63.19
653.533	63.14
653.863	63.07
654.193	62.99
654.523	62.95
654.853	63.05
655.183	63.1
655.513	63.1
655.843	63.15
656.172	63.23
656.502	63.29
656.832	63.13
657.162	63.19
657.491	63.22
657.821	63.23
658.15	63.09
658.48	63.06
658.809	63.02
659.139	63.12
659.468	63.11
659.798	63.21
660.127	63.18
660.456	63.29
660.785	63.29
661.115	63.34
661.444	63.42
661.773	63.36
662.102	63.41
662.431	63.46
662.76	63.53
663.089	63.47
663.418	63.45
663.747	63.47
664.076	63.39
664.404	63.33
664.733	63.35
665.062	63.5
665.39	63.51
665.719	63.54
666.048	63.44
666.376	63.49
