Data from BA57748_Reflection_00014.txt Node
Date: Mon Nov 18 15:55:47 EST 2019
User: vgr7
Spectrometer: USB2G7710
Scans to average: 3
Trigger mode: 4
Integration Time (sec): 2.000000E-2
Electric dark correction enabled: true
Boxcar width: 10
XAxis mode: Wavelengths
Number of Pixels in Spectrum: 2048
>>>>>Begin Spectral Data<<<<<
177.721	-42.77
178.105	46.9
178.488	85.52
178.871	108.72
179.254	56.46
179.636	-277.95
180.019	-72.23
180.402	140.91
180.785	92.53
181.168	53.99
181.55	-118.62
181.933	115.34
182.316	115.58
182.698	108.7
183.081	113.75
183.463	66.54
183.846	167.75
184.228	155.61
184.611	210.04
184.993	639.85
185.376	713
185.758	-1746.15
186.14	396.4
186.522	618.23
186.904	404.12
187.287	235.8
187.669	292.69
188.051	296.5
188.433	564.04
188.815	436.11
189.197	392.98
189.579	341.05
189.961	408.87
190.342	384.3
190.724	744.91
191.106	591.8
191.488	-11413.51
191.869	-2345.86
192.251	9026.83
192.633	1014.96
193.014	399.02
193.396	344.42
193.777	252.77
194.159	217.45
194.54	309.96
194.922	778.73
195.303	-1606.42
195.684	613.01
196.065	-167.06
196.447	3276.47
196.828	-1641.94
197.209	-1641.94
197.59	100
197.971	-191.89
198.352	-710.81
198.733	-59.39
199.114	-724.43
199.495	-0.98
199.876	34.92
200.257	-469.83
200.638	212.15
201.018	296.47
201.399	93.16
201.78	38.6
202.16	19.15
202.541	-6757.14
202.922	201.31
203.302	175.55
203.683	853.93
204.063	368.26
204.444	787.31
204.824	1053.97
205.204	1188.37
205.585	804.96
205.965	-1685.37
206.345	-1578.76
206.725	-2382.76
207.106	-23268.42
207.486	-1921.39
207.866	2946.72
208.246	-2370.59
208.626	-3356.95
209.006	-1230.12
209.386	1801.82
209.766	1344.58
210.145	1661.34
210.525	3816.81
210.905	-1066.24
211.285	-470.63
211.664	-531.58
212.044	-390.51
212.424	-284.17
212.803	-475.46
213.183	-172.27
213.562	-158.93
213.942	-93.26
214.321	-93.08
214.701	-114
215.08	-142.82
215.459	-99.4
215.838	-51.61
216.218	-50.77
216.597	-13.34
216.976	-6.85
217.355	-16.04
217.734	-38.1
218.113	-41.67
218.492	-17.89
218.871	-33.86
219.25	-4.13
219.629	-11.95
220.008	-28.91
220.387	-30.39
220.766	-15.64
221.144	-65.42
221.523	-104.36
221.902	-123.85
222.28	-118.27
222.659	-68.02
223.037	-28.37
223.416	-89.05
223.794	-100.62
224.173	-102.21
224.551	-92.02
224.929	-71.02
225.308	-41.26
225.686	-40.36
226.064	-31.29
226.442	-45.13
226.821	-23.75
227.199	-30.51
227.577	-32.59
227.955	-29.66
228.333	-29.89
228.711	-28.55
229.089	-21.67
229.467	-20.87
229.845	-21.33
230.222	-21.78
230.6	-22.91
230.978	-21.59
231.356	-15.43
231.733	-17.63
232.111	-14.58
232.488	-13.99
232.866	-13.33
233.243	-12.85
233.621	-10.98
233.998	-8.79
234.376	-5.09
234.753	-7.52
235.13	-6.96
235.508	-4.66
235.885	-3.49
236.262	-3.06
236.639	-1.3
237.016	-0.06
237.393	2.06
237.77	1.84
238.147	3.67
238.524	4.38
238.901	5.1
239.278	5.28
239.655	6.47
240.032	6.11
240.409	5.99
240.785	5.75
241.162	5.76
241.539	6.25
241.915	6.2
242.292	5.86
242.668	6.05
243.045	5.78
243.421	5.41
243.798	5.37
244.174	5.35
244.551	5.36
244.927	5.17
245.303	5.16
245.679	5.17
246.056	4.82
246.432	4.65
246.808	4.35
247.184	3.67
247.56	3.45
247.936	3.35
248.312	3.34
248.688	3.65
249.064	3.54
249.44	3.18
249.815	3.02
250.191	3.09
250.567	3.05
250.943	3.16
251.318	3.31
251.694	3.16
252.069	3.3
252.445	3.2
252.82	3.22
253.196	2.91
253.571	2.86
253.947	3.1
254.322	2.92
254.697	2.79
255.073	3.02
255.448	3.09
255.823	3.3
256.198	3.4
256.573	3.24
256.948	3.31
257.323	3.41
257.698	3.59
258.073	3.68
258.448	3.63
258.823	3.82
259.198	3.59
259.573	3.49
259.948	3.37
260.322	3.32
260.697	3.18
261.072	3.19
261.446	3.4
261.821	3.15
262.195	3.36
262.57	3.38
262.944	3.44
263.319	3.44
263.693	3.36
264.067	3.47
264.442	3.53
264.816	3.45
265.19	3.39
265.564	3.41
265.938	3.29
266.313	3.21
266.687	3.08
267.061	3.57
267.435	3.71
267.809	3.67
268.183	3.72
268.556	3.7
268.93	3.81
269.304	3.76
269.678	4.11
270.051	4.21
270.425	4.26
270.799	4.17
271.172	4
271.546	3.95
271.919	3.76
272.293	3.62
272.666	3.76
273.04	3.89
273.413	3.89
273.787	3.89
274.16	4
274.533	3.92
274.906	3.53
275.279	3.57
275.653	3.6
276.026	3.58
276.399	3.61
276.772	3.6
277.145	3.36
277.518	3.13
277.891	3.06
278.263	3.04
278.636	3.02
279.009	3.17
279.382	3.13
279.755	3.11
280.127	3.29
280.5	3.18
280.872	3.06
281.245	2.91
281.617	3.07
281.99	3.26
282.362	3.34
282.735	3.35
283.107	3.29
283.479	3.32
283.852	3.37
284.224	3.45
284.596	3.43
284.968	3.55
285.34	3.7
285.713	3.67
286.085	3.64
286.457	3.81
286.829	3.91
287.201	4
287.572	3.97
287.944	3.84
288.316	3.76
288.688	3.83
289.06	3.86
289.431	3.69
289.803	3.62
290.175	3.54
290.546	3.81
290.918	3.98
291.289	4.06
291.661	4.12
292.032	4.2
292.403	4.28
292.775	4.45
293.146	4.41
293.517	4.42
293.889	4.66
294.26	4.73
294.631	4.71
295.002	4.73
295.373	4.78
295.744	4.88
296.115	5.16
296.486	5.14
296.857	5.22
297.228	5.28
297.599	5.15
297.97	5.14
298.34	5.07
298.711	5.03
299.082	5.05
299.452	5.08
299.823	5.15
300.194	5.16
300.564	4.95
300.935	4.95
301.305	4.97
301.676	4.9
302.046	4.87
302.416	4.95
302.787	4.97
303.157	5.02
303.527	5.05
303.897	4.87
304.267	5.14
304.637	5.12
305.008	5.39
305.378	5.71
305.748	5.76
306.117	5.75
306.487	5.83
306.857	5.9
307.227	5.97
307.597	5.93
307.967	5.93
308.336	6.14
308.706	6.35
309.076	6.54
309.445	6.49
309.815	6.62
310.184	6.52
310.554	6.67
310.923	6.84
311.293	6.83
311.662	6.96
312.031	6.83
312.401	6.92
312.77	6.92
313.139	6.95
313.508	7.12
313.877	7.23
314.246	7.41
314.616	7.4
314.985	7.48
315.353	7.53
315.722	7.76
316.091	7.91
316.46	8.01
316.829	8.05
317.198	8.33
317.567	8.33
317.935	8.56
318.304	8.63
318.672	8.61
319.041	8.96
319.41	9
319.778	9.14
320.147	9.16
320.515	9.23
320.883	9.14
321.252	9.27
321.62	9.15
321.988	8.89
322.357	8.92
322.725	8.88
323.093	9.08
323.461	9.1
323.829	9.03
324.197	9.02
324.565	9.11
324.933	9.16
325.301	9.15
325.669	9.16
326.037	9.15
326.405	9.29
326.772	9.13
327.14	9.31
327.508	9.27
327.875	9.1
328.243	9.2
328.61	9.32
328.978	9.23
329.346	9.56
329.713	9.69
330.08	9.76
330.448	9.75
330.815	9.77
331.182	9.81
331.55	9.95
331.917	9.99
332.284	10.06
332.651	9.95
333.018	10.1
333.385	10.13
333.752	10.32
334.119	10.38
334.486	10.51
334.853	10.52
335.22	10.57
335.587	10.85
335.954	10.8
336.32	10.82
336.687	10.96
337.054	10.87
337.42	10.88
337.787	11.03
338.153	11.08
338.52	11.18
338.886	11.1
339.253	11.07
339.619	11.03
339.986	10.98
340.352	11.2
340.718	11.15
341.084	11.17
341.451	11.21
341.817	11.15
342.183	11.09
342.549	11.07
342.915	11.2
343.281	11.24
343.647	11.31
344.013	11.26
344.379	11.31
344.745	11.4
345.11	11.5
345.476	11.49
345.842	11.57
346.208	11.5
346.573	11.57
346.939	11.63
347.304	11.75
347.67	11.75
348.035	11.56
348.401	11.54
348.766	11.59
349.132	11.48
349.497	11.54
349.862	11.57
350.228	11.61
350.593	11.58
350.958	11.6
351.323	11.63
351.688	11.67
352.053	11.64
352.418	11.57
352.783	11.52
353.148	11.48
353.513	11.46
353.878	11.44
354.243	11.58
354.608	11.63
354.972	11.61
355.337	11.63
355.702	11.74
356.066	11.82
356.431	11.76
356.795	11.81
357.16	11.69
357.524	11.64
357.889	11.61
358.253	11.6
358.618	11.56
358.982	11.44
359.346	11.34
359.71	11.34
360.075	11.35
360.439	11.37
360.803	11.35
361.167	11.36
361.531	11.31
361.895	11.18
362.259	11
362.623	10.91
362.987	10.82
363.351	10.73
363.714	10.71
364.078	10.67
364.442	10.61
364.806	10.63
365.169	10.63
365.533	10.6
365.896	10.53
366.26	10.45
366.623	10.36
366.987	10.37
367.35	10.29
367.714	10.19
368.077	10.1
368.44	10.03
368.803	9.89
369.167	9.83
369.53	9.76
369.893	9.8
370.256	9.76
370.619	9.79
370.982	9.7
371.345	9.52
371.708	9.5
372.071	9.44
372.434	9.33
372.797	9.22
373.159	9.08
373.522	9.05
373.885	9.02
374.247	9.05
374.61	9
374.973	8.94
375.335	8.9
375.698	8.82
376.06	8.74
376.423	8.75
376.785	8.76
377.147	8.7
377.51	8.62
377.872	8.58
378.234	8.45
378.596	8.45
378.958	8.44
379.321	8.4
379.683	8.32
380.045	8.27
380.407	8.32
380.769	8.3
381.13	8.22
381.492	8.15
381.854	8.09
382.216	7.99
382.578	7.92
382.939	7.84
383.301	7.8
383.663	7.76
384.024	7.65
384.386	7.59
384.747	7.55
385.109	7.5
385.47	7.41
385.832	7.4
386.193	7.4
386.554	7.36
386.916	7.31
387.277	7.27
387.638	7.23
387.999	7.12
388.36	7.09
388.721	7.05
389.082	7
389.443	6.89
389.804	6.84
390.165	6.75
390.526	6.72
390.887	6.64
391.248	6.61
391.609	6.6
391.969	6.55
392.33	6.5
392.691	6.48
393.051	6.47
393.412	6.39
393.772	6.27
394.133	6.19
394.493	6.11
394.854	6.08
395.214	6.05
395.574	6.02
395.935	5.93
396.295	5.89
396.655	5.81
397.015	5.79
397.376	5.75
397.736	5.71
398.096	5.67
398.456	5.67
398.816	5.61
399.176	5.53
399.535	5.47
399.895	5.4
400.255	5.34
400.615	5.27
400.975	5.22
401.334	5.21
401.694	5.19
402.054	5.14
402.413	5.13
402.773	5.08
403.132	5.02
403.492	5.01
403.851	4.96
404.211	4.95
404.57	4.92
404.929	4.91
405.288	4.89
405.648	4.86
406.007	4.81
406.366	4.77
406.725	4.74
407.084	4.7
407.443	4.68
407.802	4.69
408.161	4.66
408.52	4.62
408.879	4.61
409.238	4.57
409.596	4.56
409.955	4.49
410.314	4.48
410.673	4.47
411.031	4.46
411.39	4.45
411.748	4.45
412.107	4.43
412.465	4.41
412.824	4.39
413.182	4.37
413.54	4.36
413.899	4.35
414.257	4.33
414.615	4.32
414.974	4.33
415.332	4.28
415.69	4.25
416.048	4.24
416.406	4.22
416.764	4.21
417.122	4.2
417.48	4.18
417.838	4.15
418.195	4.12
418.553	4.1
418.911	4.07
419.269	4.05
419.626	4.04
419.984	4.02
420.342	4.01
420.699	3.97
421.057	3.95
421.414	3.94
421.772	3.92
422.129	3.9
422.486	3.87
422.844	3.86
423.201	3.86
423.558	3.84
423.915	3.83
424.273	3.82
424.63	3.79
424.987	3.78
425.344	3.76
425.701	3.74
426.058	3.72
426.415	3.69
426.772	3.67
427.128	3.66
427.485	3.65
427.842	3.62
428.199	3.63
428.555	3.63
428.912	3.64
429.269	3.64
429.625	3.62
429.982	3.61
430.338	3.6
430.695	3.61
431.051	3.6
431.407	3.58
431.764	3.57
432.12	3.59
432.476	3.56
432.832	3.54
433.189	3.56
433.545	3.56
433.901	3.58
434.257	3.59
434.613	3.58
434.969	3.56
435.325	3.55
435.681	3.54
436.036	3.53
436.392	3.52
436.748	3.51
437.104	3.5
437.459	3.51
437.815	3.5
438.171	3.49
438.526	3.5
438.882	3.51
439.237	3.5
439.593	3.48
439.948	3.48
440.304	3.49
440.659	3.47
441.014	3.48
441.369	3.46
441.725	3.43
442.08	3.44
442.435	3.44
442.79	3.44
443.145	3.44
443.5	3.43
443.855	3.42
444.21	3.42
444.565	3.42
444.92	3.42
445.275	3.4
445.629	3.38
445.984	3.36
446.339	3.35
446.693	3.34
447.048	3.34
447.403	3.33
447.757	3.31
448.112	3.31
448.466	3.29
448.82	3.29
449.175	3.3
449.529	3.29
449.883	3.27
450.238	3.26
450.592	3.24
450.946	3.22
451.3	3.2
451.654	3.18
452.008	3.18
452.362	3.16
452.716	3.16
453.07	3.16
453.424	3.16
453.778	3.14
454.132	3.12
454.486	3.12
454.839	3.14
455.193	3.14
455.547	3.15
455.9	3.16
456.254	3.15
456.607	3.14
456.961	3.15
457.314	3.15
457.668	3.15
458.021	3.14
458.375	3.15
458.728	3.16
459.081	3.17
459.434	3.16
459.787	3.17
460.141	3.17
460.494	3.19
460.847	3.19
461.2	3.19
461.553	3.21
461.906	3.19
462.259	3.2
462.611	3.21
462.964	3.22
463.317	3.23
463.67	3.25
464.022	3.24
464.375	3.23
464.728	3.24
465.08	3.24
465.433	3.28
465.785	3.3
466.138	3.3
466.49	3.31
466.843	3.32
467.195	3.33
467.547	3.37
467.899	3.37
468.252	3.37
468.604	3.38
468.956	3.39
469.308	3.42
469.66	3.42
470.012	3.44
470.364	3.45
470.716	3.45
471.068	3.44
471.42	3.48
471.772	3.49
472.123	3.52
472.475	3.55
472.827	3.54
473.178	3.54
473.53	3.54
473.882	3.54
474.233	3.55
474.585	3.55
474.936	3.53
475.288	3.53
475.639	3.55
475.99	3.55
476.342	3.54
476.693	3.53
477.044	3.53
477.395	3.52
477.746	3.49
478.097	3.49
478.448	3.5
478.8	3.48
479.15	3.47
479.501	3.48
479.852	3.47
480.203	3.47
480.554	3.49
480.905	3.51
481.255	3.51
481.606	3.5
481.957	3.49
482.307	3.5
482.658	3.51
483.009	3.5
483.359	3.52
483.709	3.52
484.06	3.52
484.41	3.52
484.761	3.52
485.111	3.53
485.461	3.54
485.811	3.54
486.162	3.55
486.512	3.55
486.862	3.54
487.212	3.55
487.562	3.55
487.912	3.55
488.262	3.54
488.612	3.54
488.961	3.55
489.311	3.56
489.661	3.56
490.011	3.57
490.36	3.57
490.71	3.56
491.06	3.57
491.409	3.58
491.759	3.58
492.108	3.59
492.458	3.58
492.807	3.59
493.157	3.6
493.506	3.6
493.855	3.62
494.204	3.62
494.554	3.64
494.903	3.65
495.252	3.67
495.601	3.7
495.95	3.72
496.299	3.74
496.648	3.76
496.997	3.78
497.346	3.81
497.695	3.84
498.043	3.86
498.392	3.89
498.741	3.92
499.09	3.94
499.438	4
499.787	4.04
500.135	4.09
500.484	4.13
500.832	4.18
501.181	4.23
501.529	4.29
501.878	4.35
502.226	4.4
502.574	4.45
502.923	4.48
503.271	4.5
503.619	4.57
503.967	4.66
504.315	4.71
504.663	4.76
505.011	4.85
505.359	4.92
505.707	4.98
506.055	5.06
506.403	5.15
506.751	5.23
507.098	5.3
507.446	5.37
507.794	5.45
508.141	5.53
508.489	5.62
508.837	5.71
509.184	5.8
509.531	5.88
509.879	5.99
510.226	6.11
510.574	6.23
510.921	6.33
511.268	6.4
511.616	6.53
511.963	6.64
512.31	6.74
512.657	6.87
513.004	7
513.351	7.13
513.698	7.27
514.045	7.39
514.392	7.57
514.739	7.71
515.086	7.85
515.432	8.01
515.779	8.13
516.126	8.26
516.473	8.4
516.819	8.55
517.166	8.67
517.512	8.79
517.859	8.93
518.205	9.07
518.552	9.19
518.898	9.3
519.245	9.46
519.591	9.62
519.937	9.77
520.283	9.95
520.629	10.15
520.976	10.33
521.322	10.5
521.668	10.69
522.014	10.9
522.36	11.13
522.706	11.35
523.052	11.62
523.398	11.9
523.743	12.17
524.089	12.44
524.435	12.7
524.781	12.98
525.126	13.22
525.472	13.43
525.817	13.66
526.163	13.87
526.509	14.04
526.854	14.21
527.199	14.38
527.545	14.5
527.89	14.64
528.235	14.82
528.581	15
528.926	15.19
529.271	15.37
529.616	15.55
529.961	15.73
530.306	15.94
530.651	16.13
530.996	16.35
531.341	16.57
531.686	16.8
532.031	17.02
532.376	17.27
532.721	17.54
533.065	17.79
533.41	18.06
533.755	18.34
534.099	18.62
534.444	18.91
534.788	19.22
535.133	19.52
535.477	19.8
535.822	20.1
536.166	20.4
536.51	20.74
536.855	21.1
537.199	21.48
537.543	21.83
537.887	22.22
538.231	22.58
538.576	22.96
538.92	23.32
539.264	23.64
539.608	23.97
539.951	24.27
540.295	24.57
540.639	24.87
540.983	25.12
541.327	25.39
541.671	25.66
542.014	25.95
542.358	26.19
542.701	26.45
543.045	26.7
543.389	26.96
543.732	27.23
544.075	27.49
544.419	27.74
544.762	28.01
545.105	28.28
545.449	28.59
545.792	28.91
546.135	29.26
546.478	29.64
546.821	29.95
547.165	30.29
547.508	30.64
547.851	30.97
548.194	31.36
548.536	31.72
548.879	32.09
549.222	32.41
549.565	32.78
549.908	33.1
550.25	33.46
550.593	33.82
550.936	34.1
551.278	34.46
551.621	34.83
551.963	35.16
552.306	35.48
552.648	35.77
552.991	36.14
553.333	36.39
553.675	36.7
554.017	36.95
554.36	37.31
554.702	37.61
555.044	37.89
555.386	38.06
555.728	38.28
556.07	38.49
556.412	38.77
556.754	39.03
557.096	39.28
557.438	39.55
557.78	39.77
558.121	40.09
558.463	40.29
558.805	40.53
559.147	40.79
559.488	41.01
559.83	41.25
560.171	41.4
560.513	41.61
560.854	41.8
561.196	42.08
561.537	42.2
561.878	42.4
562.22	42.56
562.561	42.8
562.902	43.05
563.243	43.3
563.584	43.46
563.925	43.65
564.266	43.85
564.607	43.99
564.948	44.17
565.289	44.33
565.63	44.44
565.971	44.53
566.312	44.68
566.653	44.78
566.993	44.93
567.334	45.07
567.675	45.22
568.015	45.34
568.356	45.47
568.696	45.66
569.037	45.79
569.377	45.99
569.718	46.18
570.058	46.33
570.398	46.43
570.739	46.58
571.079	46.76
571.419	46.84
571.759	46.99
572.099	47.14
572.439	47.24
572.779	47.47
573.119	47.68
573.459	47.8
573.799	48.02
574.139	48.13
574.479	48.28
574.819	48.38
575.158	48.49
575.498	48.65
575.838	48.71
576.177	48.83
576.517	48.97
576.856	49.09
577.196	49.18
577.535	49.28
577.875	49.39
578.214	49.47
578.553	49.69
578.893	49.79
579.232	49.84
579.571	50
579.91	50.07
580.25	50.14
580.589	50.22
580.928	50.3
581.267	50.44
581.606	50.48
581.945	50.57
582.283	50.7
582.622	50.76
582.961	50.87
583.3	51
583.639	51.04
583.977	51.14
584.316	51.21
584.654	51.36
584.993	51.53
585.332	51.52
585.67	51.56
586.008	51.67
586.347	51.77
586.685	51.76
587.024	51.82
587.362	51.88
587.7	51.99
588.038	51.98
588.376	52.03
588.715	52.09
589.053	52.17
589.391	52.24
589.729	52.29
590.067	52.36
590.404	52.39
590.742	52.43
591.08	52.46
591.418	52.56
591.756	52.54
592.093	52.57
592.431	52.69
592.769	52.68
593.106	52.68
593.444	52.72
593.781	52.76
594.119	52.82
594.456	52.9
594.793	52.94
595.131	52.99
595.468	53.03
595.805	53.09
596.143	53.14
596.48	53.15
596.817	53.18
597.154	53.22
597.491	53.24
597.828	53.34
598.165	53.34
598.502	53.34
598.839	53.48
599.176	53.48
599.512	53.53
599.849	53.68
600.186	53.76
600.523	53.88
600.859	53.99
601.196	53.95
601.532	53.96
601.869	53.94
602.205	54.02
602.542	54.04
602.878	54.05
603.215	54.1
603.551	54.06
603.887	54.09
604.223	54.11
604.56	54.23
604.896	54.25
605.232	54.28
605.568	54.33
605.904	54.26
606.24	54.28
606.576	54.28
606.912	54.27
607.248	54.32
607.583	54.29
607.919	54.35
608.255	54.47
608.591	54.52
608.926	54.57
609.262	54.6
609.597	54.66
609.933	54.78
610.268	54.86
610.604	55.01
610.939	55.04
611.275	55.07
611.61	55.03
611.945	55
612.281	55.11
612.616	55.14
612.951	55.27
613.286	55.38
613.621	55.44
613.956	55.44
614.291	55.51
614.626	55.59
614.961	55.62
615.296	55.61
615.631	55.7
615.966	55.77
616.3	55.78
616.635	55.73
616.97	55.72
617.304	55.7
617.639	55.67
617.973	55.76
618.308	55.8
618.642	55.87
618.977	55.94
619.311	55.94
619.646	55.99
619.98	55.89
620.314	55.91
620.648	55.95
620.983	56.1
621.317	56.02
621.651	56.02
621.985	55.94
622.319	56.01
622.653	56.03
622.987	56.07
623.321	56.1
623.655	56.23
623.988	56.13
624.322	56.02
624.656	56.09
624.99	56.05
625.323	56.09
625.657	56.15
625.99	56.27
626.324	56.22
626.657	56.21
626.991	56.31
627.324	56.24
627.658	56.3
627.991	56.32
628.324	56.42
628.657	56.43
628.991	56.45
629.324	56.51
629.657	56.45
629.99	56.4
630.323	56.45
630.656	56.49
630.989	56.64
631.322	56.8
631.655	56.8
631.987	56.84
632.32	56.86
632.653	56.89
632.986	56.79
633.318	56.98
633.651	57.04
633.984	57.05
634.316	57.03
634.649	56.93
634.981	56.92
635.313	56.89
635.646	56.84
635.978	56.92
636.31	56.97
636.643	57.01
636.975	57.18
637.307	57.21
637.639	57.11
637.971	57.16
638.303	57.17
638.635	57.24
638.967	57.31
639.299	57.35
639.631	57.27
639.963	57.3
640.295	57.14
640.626	57.15
640.958	57.12
641.29	57.27
641.621	57.39
641.953	57.37
642.285	57.54
642.616	57.69
642.948	57.67
643.279	57.6
643.61	57.71
643.942	57.74
644.273	57.72
644.604	57.76
644.936	57.72
645.267	57.78
645.598	57.77
645.929	57.71
646.26	57.73
646.591	57.81
646.922	57.81
647.253	57.82
647.584	57.83
647.915	57.87
648.245	57.85
648.576	57.85
648.907	57.86
649.238	57.72
649.568	57.78
649.899	57.83
650.229	58
650.56	57.98
650.89	57.84
651.221	57.92
651.551	58.01
651.882	58
652.212	57.98
652.542	57.91
652.872	57.96
653.203	57.96
653.533	57.86
653.863	57.9
654.193	57.96
654.523	58
654.853	58.03
655.183	58
655.513	57.96
655.843	57.95
656.172	58.03
656.502	57.96
656.832	57.88
657.162	57.85
657.491	57.78
657.821	57.75
658.15	57.64
658.48	57.54
658.809	57.59
659.139	57.54
659.468	57.63
659.798	57.65
660.127	57.61
660.456	57.62
660.785	57.64
661.115	57.67
661.444	57.62
661.773	57.73
662.102	57.75
662.431	57.8
662.76	57.86
663.089	57.84
663.418	57.79
