Data from BA57757_Reflection_00033.txt Node
Date: Mon Nov 18 15:02:03 EST 2019
User: vgr7
Spectrometer: USB2G7710
Scans to average: 3
Trigger mode: 4
Integration Time (sec): 2.000000E-2
Electric dark correction enabled: true
Boxcar width: 10
XAxis mode: Wavelengths
Number of Pixels in Spectrum: 2048
>>>>>Begin Spectral Data<<<<<
177.721	169.09
178.105	37.28
178.488	-314.23
178.871	-132.76
179.254	52.16
179.636	487.93
180.019	145.23
180.402	131.71
180.785	-320.56
181.168	100
181.55	448.84
181.933	71.64
182.316	54.06
182.698	43.89
183.081	57.25
183.463	17.55
183.846	17.68
184.228	1.88
184.611	29.61
184.993	-10.46
185.376	207.33
185.758	205.18
186.14	43.06
186.522	153.98
186.904	-1.39
187.287	237.61
187.669	126.36
188.051	36.01
188.433	30.07
188.815	19
189.197	-1.47
189.579	16.11
189.961	7.01
190.342	6.07
190.724	16.77
191.106	13.13
191.488	-3.19
191.869	-13.13
192.251	-21.4
192.633	-29.52
193.014	-32.94
193.396	-70.06
193.777	-57.98
194.159	-46.21
194.54	-33.51
194.922	-14.39
195.303	-9.36
195.684	-18.82
196.065	-10.63
196.447	-13.63
196.828	-12.48
197.209	-4.35
197.59	-14.46
197.971	-13.74
198.352	-7.09
198.733	-12.13
199.114	-6.2
199.495	-0.25
199.876	9.02
200.257	17.53
200.638	34.21
201.018	23.76
201.399	27.25
201.78	34.68
202.16	23.88
202.541	8.35
202.922	-16.92
203.302	-31.8
203.683	-34.86
204.063	-52.09
204.444	-31.46
204.824	-22.73
205.204	-24.03
205.585	-17.42
205.965	-24.17
206.345	-50.8
206.725	-48.58
207.106	-59.18
207.486	-54.64
207.866	-68.28
208.246	-88.65
208.626	-116.98
209.006	-90.35
209.386	-82.99
209.766	-92.53
210.145	-77.42
210.525	-43.92
210.905	-37.57
211.285	-21.03
211.664	-24.48
212.044	-13.3
212.424	-29.71
212.803	-47.29
213.183	-44.25
213.562	-41.12
213.942	-27.74
214.321	-18.22
214.701	-28.86
215.08	-35.63
215.459	-36.13
215.838	-17.31
216.218	-15.96
216.597	-10.65
216.976	-4.52
217.355	-8.82
217.734	0.22
218.113	-0.27
218.492	-10.45
218.871	-17.07
219.25	-31.35
219.629	-28.52
220.008	-53.64
220.387	-45.73
220.766	-31.79
221.144	-43.8
221.523	-56.38
221.902	-63.54
222.28	-59.82
222.659	-41.09
223.037	-33.32
223.416	-30.1
223.794	-36.62
224.173	-37.43
224.551	-22.52
224.929	-25.63
225.308	-18.54
225.686	-21.96
226.064	-20.72
226.442	-19.41
226.821	-16.69
227.199	-12.23
227.577	-10.6
227.955	-5.81
228.333	-5.08
228.711	-3.44
229.089	1.33
229.467	0.57
229.845	1.88
230.222	2.83
230.6	0.44
230.978	2.17
231.356	4.69
231.733	5.56
232.111	6.69
232.488	3.95
232.866	3.31
233.243	2.81
233.621	3.94
233.998	5.88
234.376	3.48
234.753	4.51
235.13	4.99
235.508	6.99
235.885	6.37
236.262	5.94
236.639	5.38
237.016	4.95
237.393	6.56
237.77	6.55
238.147	6.87
238.524	7.59
238.901	7.27
239.278	6.61
239.655	6.27
240.032	6.13
240.409	6.45
240.785	7.13
241.162	6.43
241.539	6.2
241.915	6.09
242.292	5.93
242.668	5.8
243.045	5.63
243.421	5.29
243.798	5.51
244.174	5.97
244.551	6.1
244.927	5.68
245.303	5.74
245.679	5.45
246.056	5.34
246.432	5.13
246.808	5.34
247.184	5.15
247.56	5.13
247.936	4.98
248.312	4.9
248.688	4.8
249.064	5.02
249.44	4.97
249.815	4.97
250.191	5.39
250.567	5.41
250.943	5.25
251.318	5.34
251.694	5.2
252.069	4.97
252.445	4.92
252.82	5.04
253.196	4.73
253.571	4.7
253.947	4.47
254.322	4.79
254.697	4.54
255.073	4.37
255.448	4.42
255.823	4.56
256.198	4.87
256.573	4.74
256.948	4.69
257.323	5
257.698	4.84
258.073	4.64
258.448	4.72
258.823	4.7
259.198	4.6
259.573	4.6
259.948	4.57
260.322	4.53
260.697	4.6
261.072	4.58
261.446	4.64
261.821	4.64
262.195	4.58
262.57	4.54
262.944	4.67
263.319	4.64
263.693	4.52
264.067	4.29
264.442	4.31
264.816	4.24
265.19	4.07
265.564	4.19
265.938	4.08
266.313	3.93
266.687	4.04
267.061	4.1
267.435	4.07
267.809	4.01
268.183	3.88
268.556	3.81
268.93	3.85
269.304	3.9
269.678	4.15
270.051	4.15
270.425	4.13
270.799	4.1
271.172	4.16
271.546	4.22
271.919	4.21
272.293	4.34
272.666	4.42
273.04	4.5
273.413	4.49
273.787	4.57
274.16	4.54
274.533	4.36
274.906	4.27
275.279	4.35
275.653	4.37
276.026	4.49
276.399	4.48
276.772	4.68
277.145	4.52
277.518	4.45
277.891	4.38
278.263	4.44
278.636	4.57
279.009	4.54
279.382	4.42
279.755	4.39
280.127	4.39
280.5	4.51
280.872	4.46
281.245	4.39
281.617	4.54
281.99	4.64
282.362	4.84
282.735	4.87
283.107	4.9
283.479	5.02
283.852	4.91
284.224	5
284.596	4.9
284.968	5
285.34	5.02
285.713	4.88
286.085	4.88
286.457	4.84
286.829	4.9
287.201	5.1
287.572	5
287.944	4.89
288.316	4.9
288.688	4.89
289.06	4.9
289.431	4.82
289.803	4.85
290.175	4.82
290.546	4.95
290.918	4.94
291.289	4.76
291.661	4.81
292.032	4.77
292.403	4.93
292.775	4.94
293.146	4.92
293.517	5.13
293.889	5.31
294.26	5.34
294.631	5.27
295.002	5.16
295.373	5.42
295.744	5.5
296.115	5.32
296.486	5.18
296.857	5.12
297.228	5.26
297.599	5.19
297.97	5.29
298.34	5.16
298.711	5.23
299.082	5.32
299.452	5.4
299.823	5.54
300.194	5.5
300.564	5.52
300.935	5.41
301.305	5.3
301.676	5.21
302.046	5.11
302.416	5.21
302.787	5.21
303.157	5.12
303.527	5.04
303.897	5.05
304.267	5.28
304.637	5.45
305.008	5.39
305.378	5.5
305.748	5.35
306.117	5.38
306.487	5.41
306.857	5.43
307.227	5.44
307.597	5.29
307.967	5.21
308.336	5.32
308.706	5.42
309.076	5.53
309.445	5.36
309.815	5.36
310.184	5.29
310.554	5.37
310.923	5.35
311.293	5.4
311.662	5.45
312.031	5.44
312.401	5.39
312.77	5.37
313.139	5.33
313.508	5.42
313.877	5.42
314.246	5.35
314.616	5.36
314.985	5.25
315.353	5.15
315.722	5.1
316.091	4.98
316.46	4.93
316.829	4.83
317.198	4.92
317.567	4.94
317.935	5
318.304	5.03
318.672	5.04
319.041	5.13
319.41	5.02
319.778	5.06
320.147	5.04
320.515	4.99
320.883	4.94
321.252	4.84
321.62	4.82
321.988	4.73
322.357	4.65
322.725	4.78
323.093	5.03
323.461	5.04
323.829	4.92
324.197	4.95
324.565	4.92
324.933	4.96
325.301	5.06
325.669	5.04
326.037	4.96
326.405	4.95
326.772	4.84
327.14	4.97
327.508	4.93
327.875	4.84
328.243	4.84
328.61	4.82
328.978	4.94
329.346	5.04
329.713	4.99
330.08	5.09
330.448	4.98
330.815	4.84
331.182	4.84
331.55	4.94
331.917	5.02
332.284	5.09
332.651	5
333.018	5.07
333.385	5.15
333.752	5.23
334.119	5.28
334.486	5.31
334.853	5.33
335.22	5.39
335.587	5.49
335.954	5.55
336.32	5.51
336.687	5.39
337.054	5.4
337.42	5.4
337.787	5.36
338.153	5.4
338.52	5.41
338.886	5.45
339.253	5.42
339.619	5.45
339.986	5.44
340.352	5.43
340.718	5.31
341.084	5.2
341.451	5.11
341.817	5.11
342.183	5.08
342.549	5.01
342.915	4.86
343.281	4.88
343.647	4.76
344.013	4.86
344.379	4.85
344.745	4.81
345.11	4.81
345.476	4.78
345.842	4.81
346.208	4.83
346.573	4.83
346.939	4.93
347.304	4.87
347.67	4.8
348.035	4.81
348.401	4.82
348.766	4.75
349.132	4.86
349.497	4.73
349.862	4.84
350.228	4.88
350.593	4.93
350.958	4.95
351.323	5.05
351.688	5
352.053	5.06
352.418	5.06
352.783	5.15
353.148	5.18
353.513	5.1
353.878	5.04
354.243	5.04
354.608	4.98
354.972	4.91
355.337	5.01
355.702	5.05
356.066	5.07
356.431	5.06
356.795	5.02
357.16	5
357.524	4.85
357.889	4.78
358.253	4.75
358.618	4.71
358.982	4.65
359.346	4.6
359.71	4.52
360.075	4.57
360.439	4.58
360.803	4.56
361.167	4.55
361.531	4.52
361.895	4.52
362.259	4.44
362.623	4.46
362.987	4.41
363.351	4.38
363.714	4.41
364.078	4.48
364.442	4.42
364.806	4.5
365.169	4.52
365.533	4.57
365.896	4.63
366.26	4.6
366.623	4.59
366.987	4.66
367.35	4.68
367.714	4.67
368.077	4.56
368.44	4.56
368.803	4.56
369.167	4.59
369.53	4.53
369.893	4.63
370.256	4.58
370.619	4.56
370.982	4.53
371.345	4.47
371.708	4.47
372.071	4.47
372.434	4.49
372.797	4.54
373.159	4.5
373.522	4.47
373.885	4.49
374.247	4.57
374.61	4.6
374.973	4.64
375.335	4.6
375.698	4.67
376.06	4.64
376.423	4.65
376.785	4.73
377.147	4.81
377.51	4.85
377.872	4.92
378.234	4.96
378.596	5.01
378.958	4.98
379.321	4.96
379.683	4.97
380.045	4.92
380.407	4.85
380.769	4.82
381.13	4.81
381.492	4.78
381.854	4.73
382.216	4.69
382.578	4.67
382.939	4.63
383.301	4.63
383.663	4.63
384.024	4.61
384.386	4.58
384.747	4.52
385.109	4.46
385.47	4.41
385.832	4.43
386.193	4.45
386.554	4.45
386.916	4.43
387.277	4.45
387.638	4.52
387.999	4.53
388.36	4.56
388.721	4.54
389.082	4.61
389.443	4.59
389.804	4.56
390.165	4.52
390.526	4.54
390.887	4.51
391.248	4.55
391.609	4.59
391.969	4.58
392.33	4.57
392.691	4.55
393.051	4.52
393.412	4.5
393.772	4.44
394.133	4.46
394.493	4.43
394.854	4.41
395.214	4.35
395.574	4.39
395.935	4.4
396.295	4.43
396.655	4.36
397.015	4.37
397.376	4.38
397.736	4.4
398.096	4.41
398.456	4.44
398.816	4.4
399.176	4.39
399.535	4.37
399.895	4.37
400.255	4.4
400.615	4.43
400.975	4.42
401.334	4.43
401.694	4.4
402.054	4.43
402.413	4.45
402.773	4.46
403.132	4.43
403.492	4.41
403.851	4.4
404.211	4.41
404.57	4.38
404.929	4.4
405.288	4.4
405.648	4.38
406.007	4.34
406.366	4.34
406.725	4.31
407.084	4.31
407.443	4.33
407.802	4.34
408.161	4.35
408.52	4.37
408.879	4.38
409.238	4.43
409.596	4.43
409.955	4.41
410.314	4.39
410.673	4.4
411.031	4.45
411.39	4.45
411.748	4.44
412.107	4.47
412.465	4.45
412.824	4.43
413.182	4.43
413.54	4.42
413.899	4.43
414.257	4.47
414.615	4.48
414.974	4.48
415.332	4.46
415.69	4.46
416.048	4.44
416.406	4.43
416.764	4.38
417.122	4.38
417.48	4.36
417.838	4.38
418.195	4.35
418.553	4.33
418.911	4.31
419.269	4.31
419.626	4.3
419.984	4.31
420.342	4.31
420.699	4.3
421.057	4.3
421.414	4.3
421.772	4.28
422.129	4.28
422.486	4.27
422.844	4.27
423.201	4.23
423.558	4.24
423.915	4.22
424.273	4.23
424.63	4.2
424.987	4.19
425.344	4.17
425.701	4.18
426.058	4.18
426.415	4.19
426.772	4.19
427.128	4.18
427.485	4.16
427.842	4.15
428.199	4.15
428.555	4.14
428.912	4.15
429.269	4.16
429.625	4.13
429.982	4.14
430.338	4.14
430.695	4.16
431.051	4.14
431.407	4.16
431.764	4.17
432.12	4.18
432.476	4.19
432.832	4.19
433.189	4.19
433.545	4.18
433.901	4.17
434.257	4.16
434.613	4.19
434.969	4.19
435.325	4.2
435.681	4.21
436.036	4.22
436.392	4.2
436.748	4.18
437.104	4.19
437.459	4.18
437.815	4.18
438.171	4.16
438.526	4.19
438.882	4.19
439.237	4.18
439.593	4.19
439.948	4.2
440.304	4.22
440.659	4.21
441.014	4.21
441.369	4.21
441.725	4.19
442.08	4.16
442.435	4.16
442.79	4.16
443.145	4.15
443.5	4.15
443.855	4.16
444.21	4.15
444.565	4.15
444.92	4.15
445.275	4.14
445.629	4.15
445.984	4.12
446.339	4.11
446.693	4.08
447.048	4.08
447.403	4.07
447.757	4.06
448.112	4.06
448.466	4.05
448.82	4.05
449.175	4.07
449.529	4.07
449.883	4.05
450.238	4.04
450.592	4.04
450.946	4.02
451.3	4.03
451.654	4.01
452.008	4
452.362	3.99
452.716	3.98
453.07	3.98
453.424	3.98
453.778	3.99
454.132	3.99
454.486	3.97
454.839	3.99
455.193	3.99
455.547	3.96
455.9	3.98
456.254	3.98
456.607	3.98
456.961	3.97
457.314	3.98
457.668	3.99
458.021	3.98
458.375	3.98
458.728	3.98
459.081	3.99
459.434	3.98
459.787	3.98
460.141	3.99
460.494	3.98
460.847	3.99
461.2	4
461.553	4.01
461.906	4.02
462.259	4
462.611	4.01
462.964	4.03
463.317	4.03
463.67	4.02
464.022	4.01
464.375	4.01
464.728	4.01
465.08	4.02
465.433	4.02
465.785	4.03
466.138	3.99
466.49	3.99
466.843	3.98
467.195	4
467.547	4
467.899	4
468.252	3.99
468.604	4
468.956	4
469.308	3.99
469.66	3.99
470.012	4.01
470.364	4.01
470.716	4
471.068	4.01
471.42	4.03
471.772	4.05
472.123	4.05
472.475	4.05
472.827	4.05
473.178	4.05
473.53	4.07
473.882	4.06
474.233	4.1
474.585	4.08
474.936	4.07
475.288	4.08
475.639	4.1
475.99	4.09
476.342	4.11
476.693	4.13
477.044	4.14
477.395	4.13
477.746	4.12
478.097	4.13
478.448	4.12
478.8	4.1
479.15	4.09
479.501	4.08
479.852	4.08
480.203	4.1
480.554	4.11
480.905	4.12
481.255	4.13
481.606	4.14
481.957	4.16
482.307	4.17
482.658	4.17
483.009	4.16
483.359	4.17
483.709	4.17
484.06	4.16
484.41	4.16
484.761	4.16
485.111	4.17
485.461	4.18
485.811	4.18
486.162	4.19
486.512	4.2
486.862	4.21
487.212	4.21
487.562	4.21
487.912	4.21
488.262	4.22
488.612	4.22
488.961	4.22
489.311	4.21
489.661	4.21
490.011	4.22
490.36	4.21
490.71	4.22
491.06	4.22
491.409	4.22
491.759	4.23
492.108	4.24
492.458	4.24
492.807	4.22
493.157	4.23
493.506	4.24
493.855	4.23
494.204	4.23
494.554	4.24
494.903	4.23
495.252	4.22
495.601	4.23
495.95	4.23
496.299	4.23
496.648	4.22
496.997	4.22
497.346	4.23
497.695	4.24
498.043	4.24
498.392	4.24
498.741	4.25
499.09	4.25
499.438	4.27
499.787	4.25
500.135	4.27
500.484	4.28
500.832	4.29
501.181	4.3
501.529	4.32
501.878	4.32
502.226	4.34
502.574	4.35
502.923	4.35
503.271	4.35
503.619	4.38
503.967	4.4
504.315	4.39
504.663	4.4
505.011	4.4
505.359	4.4
505.707	4.41
506.055	4.4
506.403	4.42
506.751	4.41
507.098	4.43
507.446	4.43
507.794	4.42
508.141	4.42
508.489	4.42
508.837	4.41
509.184	4.43
509.531	4.44
509.879	4.46
510.226	4.48
510.574	4.5
510.921	4.49
511.268	4.5
511.616	4.52
511.963	4.51
512.31	4.54
512.657	4.56
513.004	4.57
513.351	4.59
513.698	4.6
514.045	4.61
514.392	4.63
514.739	4.62
515.086	4.63
515.432	4.63
515.779	4.63
516.126	4.64
516.473	4.63
516.819	4.65
517.166	4.65
517.512	4.65
517.859	4.65
518.205	4.64
518.552	4.65
518.898	4.64
519.245	4.65
519.591	4.63
519.937	4.61
520.283	4.62
520.629	4.62
520.976	4.62
521.322	4.63
521.668	4.62
522.014	4.64
522.36	4.65
522.706	4.67
523.052	4.68
523.398	4.71
523.743	4.72
524.089	4.73
524.435	4.72
524.781	4.72
525.126	4.72
525.472	4.73
525.817	4.73
526.163	4.72
526.509	4.73
526.854	4.73
527.199	4.77
527.545	4.77
527.89	4.77
528.235	4.77
528.581	4.78
528.926	4.77
529.271	4.79
529.616	4.79
529.961	4.8
530.306	4.81
530.651	4.8
530.996	4.81
531.341	4.81
531.686	4.81
532.031	4.81
532.376	4.81
532.721	4.82
533.065	4.83
533.41	4.84
533.755	4.85
534.099	4.85
534.444	4.82
534.788	4.82
535.133	4.81
535.477	4.82
535.822	4.81
536.166	4.82
536.51	4.81
536.855	4.81
537.199	4.82
537.543	4.82
537.887	4.8
538.231	4.79
538.576	4.8
538.92	4.81
539.264	4.81
539.608	4.81
539.951	4.8
540.295	4.82
540.639	4.83
540.983	4.84
541.327	4.84
541.671	4.84
542.014	4.83
542.358	4.84
542.701	4.84
543.045	4.84
543.389	4.84
543.732	4.84
544.075	4.83
544.419	4.82
544.762	4.81
545.105	4.84
545.449	4.83
545.792	4.83
546.135	4.84
546.478	4.84
546.821	4.85
547.165	4.84
547.508	4.85
547.851	4.85
548.194	4.83
548.536	4.82
548.879	4.84
549.222	4.87
549.565	4.87
549.908	4.85
550.25	4.86
550.593	4.86
550.936	4.87
551.278	4.85
551.621	4.86
551.963	4.86
552.306	4.86
552.648	4.85
552.991	4.85
553.333	4.83
553.675	4.83
554.017	4.84
554.36	4.85
554.702	4.86
555.044	4.84
555.386	4.88
555.728	4.91
556.07	4.93
556.412	4.91
556.754	4.91
557.096	4.93
557.438	4.93
557.78	4.96
558.121	4.96
558.463	4.99
558.805	5
559.147	5.01
559.488	5
559.83	5.01
560.171	5.02
560.513	5.07
560.854	5.08
561.196	5.08
561.537	5.08
561.878	5.07
562.22	5.06
562.561	5.04
562.902	5.03
563.243	5.02
563.584	5.04
563.925	5.05
564.266	5.01
564.607	5
564.948	5
565.289	4.98
565.63	4.97
565.971	4.93
566.312	4.9
566.653	4.92
566.993	4.92
567.334	4.91
567.675	4.89
568.015	4.89
568.356	4.91
568.696	4.91
569.037	4.93
569.377	4.95
569.718	4.94
570.058	4.98
570.398	4.96
570.739	4.98
571.079	4.99
571.419	5.01
571.759	5.02
572.099	4.99
572.439	5
572.779	5.02
573.119	5.06
573.459	5.11
573.799	5.13
574.139	5.14
574.479	5.16
574.819	5.16
575.158	5.17
575.498	5.16
575.838	5.17
576.177	5.13
576.517	5.13
576.856	5.15
577.196	5.11
577.535	5.11
577.875	5.11
578.214	5.07
578.553	5.13
578.893	5.15
579.232	5.16
579.571	5.17
579.91	5.17
580.25	5.14
580.589	5.1
580.928	5.11
581.267	5.12
581.606	5.06
581.945	5.06
582.283	5.06
582.622	5.02
582.961	5.01
583.3	5.06
583.639	5.06
583.977	5.06
584.316	5.07
584.654	5.09
584.993	5.07
585.332	5.11
585.67	5.09
586.008	5.07
586.347	5.11
586.685	5.12
587.024	5.09
587.362	5.1
587.7	5.11
588.038	5.12
588.376	5.11
588.715	5.11
589.053	5.17
589.391	5.18
589.729	5.15
590.067	5.17
590.404	5.15
590.742	5.15
591.08	5.12
591.418	5.14
591.756	5.16
592.093	5.17
592.431	5.18
592.769	5.16
593.106	5.17
593.444	5.17
593.781	5.16
594.119	5.2
594.456	5.2
594.793	5.18
595.131	5.15
595.468	5.16
595.805	5.21
596.143	5.18
596.48	5.15
596.817	5.21
597.154	5.15
597.491	5.15
597.828	5.17
598.165	5.15
598.502	5.13
598.839	5.12
599.176	5.1
599.512	5.08
599.849	5.07
600.186	5.05
600.523	5.07
600.859	5.08
601.196	5.08
601.532	5.09
601.869	5.09
602.205	5.08
602.542	5.08
602.878	5.09
603.215	5.09
603.551	5.12
603.887	5.1
604.223	5.16
604.56	5.14
604.896	5.15
605.232	5.2
605.568	5.23
605.904	5.22
606.24	5.26
606.576	5.28
606.912	5.29
607.248	5.29
607.583	5.27
607.919	5.25
608.255	5.24
608.591	5.26
608.926	5.28
609.262	5.31
609.597	5.29
609.933	5.29
610.268	5.3
610.604	5.28
610.939	5.27
611.275	5.25
611.61	5.26
611.945	5.23
612.281	5.21
612.616	5.18
612.951	5.21
613.286	5.19
613.621	5.19
613.956	5.2
614.291	5.22
614.626	5.21
614.961	5.27
615.296	5.26
615.631	5.26
615.966	5.24
616.3	5.22
616.635	5.28
616.97	5.22
617.304	5.15
617.639	5.17
617.973	5.21
618.308	5.23
618.642	5.24
618.977	5.25
619.311	5.23
619.646	5.23
619.98	5.19
620.314	5.15
620.648	5.17
620.983	5.16
621.317	5.14
621.651	5.15
621.985	5.11
622.319	5.13
622.653	5.15
622.987	5.17
623.321	5.21
623.655	5.19
623.988	5.23
624.322	5.27
624.656	5.28
624.99	5.31
625.323	5.29
625.657	5.33
625.99	5.38
626.324	5.36
626.657	5.39
626.991	5.41
627.324	5.36
627.658	5.39
627.991	5.39
628.324	5.4
628.657	5.38
628.991	5.42
629.324	5.41
629.657	5.41
629.99	5.4
630.323	5.37
630.656	5.36
630.989	5.36
631.322	5.38
631.655	5.37
631.987	5.36
632.32	5.39
632.653	5.34
632.986	5.31
633.318	5.35
633.651	5.32
633.984	5.36
634.316	5.44
634.649	5.39
634.981	5.38
635.313	5.37
635.646	5.41
635.978	5.37
636.31	5.42
636.643	5.43
636.975	5.46
637.307	5.46
637.639	5.5
637.971	5.46
638.303	5.42
638.635	5.44
638.967	5.42
639.299	5.35
639.631	5.4
639.963	5.34
640.295	5.35
640.626	5.39
640.958	5.4
641.29	5.44
641.621	5.46
641.953	5.45
642.285	5.45
642.616	5.46
642.948	5.44
643.279	5.37
643.61	5.35
643.942	5.29
644.273	5.29
644.604	5.26
644.936	5.28
645.267	5.36
645.598	5.34
645.929	5.34
646.26	5.43
646.591	5.35
646.922	5.28
647.253	5.25
647.584	5.24
647.915	5.17
648.245	5.13
648.576	5.17
648.907	5.18
649.238	5.14
649.568	5.17
649.899	5.21
650.229	5.27
650.56	5.33
650.89	5.35
651.221	5.38
651.551	5.37
651.882	5.4
652.212	5.43
652.542	5.45
652.872	5.46
653.203	5.47
653.533	5.54
653.863	5.62
654.193	5.63
654.523	5.63
654.853	5.64
655.183	5.63
655.513	5.56
655.843	5.58
656.172	5.59
656.502	5.59
656.832	5.54
657.162	5.56
657.491	5.5
657.821	5.52
658.15	5.52
658.48	5.55
658.809	5.56
659.139	5.52
659.468	5.51
659.798	5.48
660.127	5.44
660.456	5.46
660.785	5.52
661.115	5.54
661.444	5.52
661.773	5.5
662.102	5.52
662.431	5.56
662.76	5.57
663.089	5.6
663.418	5.57
663.747	5.64
664.076	5.57
664.404	5.53
664.733	5.55
665.062	5.47
665.39	5.52
665.719	5.45
666.048	5.51
666.376	5.49
666.705	5.45
667.033	5.4
667.362	5.32
667.69	5.3
668.018	5.3
668.347	5.4
668.675	5.46
669.003	5.57
669.331	5.55
669.659	5.57
669.987	5.62
670.315	5.67
670.643	5.64
670.971	5.66
671.299	5.74
671.627	5.68
671.955	5.74
672.283	5.7
672.61	5.7
672.938	5.65
673.266	5.69
673.593	5.87
673.921	5.9
674.249	5.97
674.576	5.91
674.904	5.99
675.231	5.91
675.558	5.88
675.886	5.74
676.213	5.74
676.54	5.71
676.867	5.71
677.195	5.58
677.522	5.6
677.849	5.7
678.176	5.61
678.503	5.6
678.83	5.62
679.157	5.61
