Data from BA58010_Reflection_00010.txt Node
Date: Mon Nov 18 16:07:12 EST 2019
User: vgr7
Spectrometer: USB2G7710
Scans to average: 3
Trigger mode: 4
Integration Time (sec): 2.000000E-2
Electric dark correction enabled: true
Boxcar width: 10
XAxis mode: Wavelengths
Number of Pixels in Spectrum: 2048
>>>>>Begin Spectral Data<<<<<
177.721	88.2
178.105	-85.84
178.488	-190.32
178.871	-101.12
179.254	-383.87
179.636	146.08
180.019	0.37
180.402	-2350
180.785	-96.82
181.168	-145.8
181.55	-36.59
181.933	64.55
182.316	67.18
182.698	54.53
183.081	51.42
183.463	31.58
183.846	60.73
184.228	81.56
184.611	86.58
184.993	118.54
185.376	296.39
185.758	476.21
186.14	163.7
186.522	117.03
186.904	107.58
187.287	197.58
187.669	509.98
188.051	406.12
188.433	338.82
188.815	514.26
189.197	919.41
189.579	3052
189.961	-640.81
190.342	-5497.01
190.724	-414.39
191.106	-485.74
191.488	-310.92
191.869	-275.91
192.251	-373.34
192.633	-198.22
193.014	-361.8
193.396	-1511.35
193.777	-5063.93
194.159	9442.86
194.54	4618.07
194.922	-645.97
195.303	-243.47
195.684	-399.02
196.065	-92.34
196.447	-84.71
196.828	-125.41
197.209	-107.92
197.59	-126.25
197.971	1036
198.352	-92.37
198.733	-235.46
199.114	-235.24
199.495	-929.85
199.876	248.51
200.257	-834.43
200.638	-551.06
201.018	-1027.39
201.399	-530.57
201.78	-141.12
202.16	-156.87
202.541	-212.61
202.922	1560.18
203.302	584.42
203.683	22736.36
204.063	438.79
204.444	310.58
204.824	256.04
205.204	204.06
205.585	259.44
205.965	492.13
206.345	233.87
206.725	339.46
207.106	300.52
207.486	245.84
207.866	368.69
208.246	280.41
208.626	200.05
209.006	208.61
209.386	263.94
209.766	216.81
210.145	192.25
210.525	188.12
210.905	262.85
211.285	241.91
211.664	384.45
212.044	583.5
212.424	707.04
212.803	1372.25
213.183	-349.79
213.562	-444.93
213.942	-285.01
214.321	-105.57
214.701	-95.22
215.08	-83.6
215.459	-67.09
215.838	-86.95
216.218	-62.32
216.597	-55.52
216.976	-49.61
217.355	-33.22
217.734	-25.16
218.113	-27.94
218.492	-20.75
218.871	-24.36
219.25	-40.09
219.629	-45.67
220.008	-49.58
220.387	-57.63
220.766	-58.46
221.144	-59.11
221.523	-57.69
221.902	-66.42
222.28	-85.22
222.659	-81.17
223.037	-68.26
223.416	-69.81
223.794	-66.29
224.173	-58.93
224.551	-53.34
224.929	-49.52
225.308	-41.38
225.686	-44.08
226.064	-33.42
226.442	-31.62
226.821	-21.97
227.199	-22.09
227.577	-21.77
227.955	-23.79
228.333	-23.07
228.711	-17.54
229.089	-13.54
229.467	-14.39
229.845	-14.16
230.222	-12.8
230.6	-13.77
230.978	-11.86
231.356	-7.29
231.733	-7.69
232.111	-6.2
232.488	-6.44
232.866	-3.41
233.243	-1.38
233.621	-2.54
233.998	-2.1
234.376	-3.98
234.753	-5.17
235.13	-3.78
235.508	-1.27
235.885	0.28
236.262	1.24
236.639	-0.39
237.016	-0.12
237.393	2.14
237.77	3.88
238.147	3.71
238.524	3.99
238.901	3.86
239.278	3.7
239.655	5.15
240.032	4.87
240.409	4.19
240.785	3.73
241.162	3.7
241.539	4.12
241.915	4.16
242.292	4.41
242.668	4.14
243.045	4.35
243.421	3.94
243.798	3.77
244.174	3.56
244.551	3.91
244.927	3.48
245.303	3.42
245.679	3.34
246.056	3.43
246.432	3.3
246.808	3.18
247.184	2.95
247.56	2.69
247.936	2.69
248.312	2.83
248.688	2.87
249.064	2.76
249.44	2.94
249.815	2.79
250.191	2.82
250.567	2.83
250.943	2.57
251.318	2.83
251.694	2.95
252.069	3.12
252.445	2.77
252.82	3.04
253.196	2.91
253.571	2.72
253.947	2.57
254.322	2.81
254.697	2.89
255.073	2.8
255.448	2.51
255.823	2.67
256.198	2.87
256.573	2.87
256.948	2.96
257.323	2.99
257.698	3.01
258.073	2.88
258.448	3.03
258.823	3.25
259.198	3.06
259.573	2.97
259.948	2.99
260.322	3.01
260.697	2.92
261.072	2.87
261.446	2.99
261.821	2.84
262.195	2.84
262.57	2.98
262.944	3.02
263.319	3.13
263.693	3.24
264.067	3.27
264.442	3.36
264.816	3.23
265.19	3.01
265.564	3.05
265.938	3
266.313	2.98
266.687	2.88
267.061	2.98
267.435	3.16
267.809	3.07
268.183	3.26
268.556	3.03
268.93	3.03
269.304	3.02
269.678	3.17
270.051	3.13
270.425	3.07
270.799	3.12
271.172	3.05
271.546	2.94
271.919	2.84
272.293	2.61
272.666	2.86
273.04	2.89
273.413	2.75
273.787	2.87
274.16	2.84
274.533	2.88
274.906	2.66
275.279	2.63
275.653	2.78
276.026	2.8
276.399	3.07
276.772	3.19
277.145	3.1
277.518	3.16
277.891	3.15
278.263	3.22
278.636	3.04
279.009	3.12
279.382	3.36
279.755	3.43
280.127	3.77
280.5	3.7
280.872	3.78
281.245	4.02
281.617	4.17
281.99	4.22
282.362	4.13
282.735	4.26
283.107	4.33
283.479	4.3
283.852	4.23
284.224	4.09
284.596	3.98
284.968	4.09
285.34	4.13
285.713	4.16
286.085	4.08
286.457	4.18
286.829	4.25
287.201	3.98
287.572	4.03
287.944	3.89
288.316	3.86
288.688	3.8
289.06	3.74
289.431	3.68
289.803	3.83
290.175	3.87
290.546	3.96
290.918	3.9
291.289	3.89
291.661	3.92
292.032	4.07
292.403	4.08
292.775	3.99
293.146	3.89
293.517	3.91
293.889	3.9
294.26	4.02
294.631	3.95
295.002	4.03
295.373	3.95
295.744	4.07
296.115	4.07
296.486	4.01
296.857	3.85
297.228	3.87
297.599	3.61
297.97	3.58
298.34	3.58
298.711	3.63
299.082	3.58
299.452	3.74
299.823	3.78
300.194	3.87
300.564	3.87
300.935	3.93
301.305	3.88
301.676	3.94
302.046	3.88
302.416	3.9
302.787	3.92
303.157	3.92
303.527	3.76
303.897	3.75
304.267	3.97
304.637	4.12
305.008	4.16
305.378	4.3
305.748	4.34
306.117	4.27
306.487	4.24
306.857	4.24
307.227	4.1
307.597	4.12
307.967	4.12
308.336	4.2
308.706	4.31
309.076	4.3
309.445	4.15
309.815	4.11
310.184	4.13
310.554	4.14
310.923	4.22
311.293	4.38
311.662	4.45
312.031	4.37
312.401	4.39
312.77	4.34
313.139	4.44
313.508	4.45
313.877	4.55
314.246	4.58
314.616	4.66
314.985	4.68
315.353	4.51
315.722	4.57
316.091	4.62
316.46	4.55
316.829	4.65
317.198	4.79
317.567	4.88
317.935	4.98
318.304	5.02
318.672	5.08
319.041	4.96
319.41	5.03
319.778	5.12
320.147	5.18
320.515	5.33
320.883	5.34
321.252	5.35
321.62	5.43
321.988	5.56
322.357	5.58
322.725	5.65
323.093	5.88
323.461	5.84
323.829	5.9
324.197	6.03
324.565	6
324.933	6.09
325.301	6.1
325.669	6.09
326.037	5.98
326.405	5.93
326.772	6.11
327.14	6.13
327.508	6.18
327.875	6.23
328.243	6.23
328.61	6.29
328.978	6.44
329.346	6.5
329.713	6.48
330.08	6.49
330.448	6.46
330.815	6.37
331.182	6.45
331.55	6.45
331.917	6.48
332.284	6.57
332.651	6.71
333.018	6.75
333.385	6.76
333.752	7.02
334.119	7.15
334.486	7.1
334.853	7.15
335.22	7.14
335.587	7.15
335.954	7.23
336.32	7.18
336.687	7.12
337.054	7.02
337.42	6.98
337.787	7.01
338.153	7.04
338.52	7.05
338.886	6.95
339.253	6.8
339.619	6.67
339.986	6.64
340.352	6.67
340.718	6.64
341.084	6.7
341.451	6.59
341.817	6.68
342.183	6.63
342.549	6.61
342.915	6.75
343.281	6.79
343.647	6.69
344.013	6.78
344.379	6.69
344.745	6.84
345.11	6.86
345.476	6.96
345.842	6.99
346.208	7.1
346.573	7.26
346.939	7.49
347.304	7.66
347.67	7.73
348.035	7.68
348.401	7.75
348.766	7.77
349.132	7.88
349.497	7.74
349.862	7.9
350.228	7.85
350.593	7.74
350.958	7.81
351.323	7.88
351.688	7.95
352.053	8.14
352.418	8.07
352.783	8.2
353.148	8.12
353.513	8.15
353.878	8.11
354.243	8.08
354.608	7.99
354.972	7.93
355.337	8.04
355.702	8.04
356.066	8.11
356.431	8.05
356.795	8.02
357.16	8.05
357.524	7.96
357.889	7.89
358.253	7.9
358.618	7.87
358.982	7.82
359.346	7.75
359.71	7.7
360.075	7.73
360.439	7.72
360.803	7.67
361.167	7.64
361.531	7.64
361.895	7.6
362.259	7.58
362.623	7.56
362.987	7.49
363.351	7.46
363.714	7.37
364.078	7.38
364.442	7.33
364.806	7.33
365.169	7.32
365.533	7.4
365.896	7.35
366.26	7.31
366.623	7.26
366.987	7.2
367.35	7.19
367.714	7.07
368.077	6.99
368.44	7.02
368.803	6.95
369.167	6.84
369.53	6.77
369.893	6.74
370.256	6.75
370.619	6.68
370.982	6.59
371.345	6.54
371.708	6.49
372.071	6.47
372.434	6.35
372.797	6.29
373.159	6.17
373.522	6.14
373.885	6.06
374.247	6.03
374.61	5.98
374.973	5.93
375.335	5.89
375.698	5.83
376.06	5.81
376.423	5.76
376.785	5.77
377.147	5.81
377.51	5.76
377.872	5.73
378.234	5.73
378.596	5.71
378.958	5.66
379.321	5.62
379.683	5.6
380.045	5.62
380.407	5.58
380.769	5.61
381.13	5.61
381.492	5.58
381.854	5.6
382.216	5.57
382.578	5.53
382.939	5.53
383.301	5.53
383.663	5.47
384.024	5.4
384.386	5.38
384.747	5.32
385.109	5.33
385.47	5.28
385.832	5.22
386.193	5.24
386.554	5.25
386.916	5.21
387.277	5.16
387.638	5.1
387.999	5.07
388.36	5.05
388.721	5.01
389.082	5
389.443	4.94
389.804	4.91
390.165	4.88
390.526	4.86
390.887	4.84
391.248	4.79
391.609	4.8
391.969	4.76
392.33	4.75
392.691	4.73
393.051	4.71
393.412	4.71
393.772	4.63
394.133	4.61
394.493	4.58
394.854	4.53
395.214	4.51
395.574	4.48
395.935	4.42
396.295	4.41
396.655	4.4
397.015	4.35
397.376	4.32
397.736	4.28
398.096	4.25
398.456	4.21
398.816	4.22
399.176	4.22
399.535	4.16
399.895	4.1
400.255	4.07
400.615	4.05
400.975	4
401.334	4.01
401.694	3.98
402.054	3.97
402.413	3.98
402.773	3.96
403.132	3.96
403.492	3.93
403.851	3.9
404.211	3.88
404.57	3.9
404.929	3.95
405.288	3.96
405.648	3.92
406.007	3.92
406.366	3.87
406.725	3.83
407.084	3.86
407.443	3.87
407.802	3.84
408.161	3.82
408.52	3.79
408.879	3.79
409.238	3.79
409.596	3.78
409.955	3.76
410.314	3.75
410.673	3.73
411.031	3.73
411.39	3.75
411.748	3.75
412.107	3.76
412.465	3.69
412.824	3.66
413.182	3.64
413.54	3.59
413.899	3.61
414.257	3.59
414.615	3.58
414.974	3.57
415.332	3.55
415.69	3.53
416.048	3.5
416.406	3.49
416.764	3.46
417.122	3.45
417.48	3.44
417.838	3.43
418.195	3.44
418.553	3.42
418.911	3.4
419.269	3.38
419.626	3.36
419.984	3.36
420.342	3.38
420.699	3.38
421.057	3.39
421.414	3.38
421.772	3.37
422.129	3.37
422.486	3.37
422.844	3.37
423.201	3.37
423.558	3.36
423.915	3.35
424.273	3.34
424.63	3.33
424.987	3.32
425.344	3.31
425.701	3.29
426.058	3.28
426.415	3.28
426.772	3.27
427.128	3.27
427.485	3.27
427.842	3.24
428.199	3.24
428.555	3.23
428.912	3.23
429.269	3.24
429.625	3.21
429.982	3.21
430.338	3.19
430.695	3.19
431.051	3.19
431.407	3.2
431.764	3.2
432.12	3.19
432.476	3.19
432.832	3.19
433.189	3.19
433.545	3.19
433.901	3.18
434.257	3.19
434.613	3.19
434.969	3.16
435.325	3.16
435.681	3.16
436.036	3.16
436.392	3.16
436.748	3.14
437.104	3.13
437.459	3.12
437.815	3.11
438.171	3.11
438.526	3.13
438.882	3.12
439.237	3.14
439.593	3.15
439.948	3.15
440.304	3.15
440.659	3.15
441.014	3.16
441.369	3.16
441.725	3.16
442.08	3.16
442.435	3.16
442.79	3.16
443.145	3.15
443.5	3.14
443.855	3.14
444.21	3.14
444.565	3.15
444.92	3.17
445.275	3.15
445.629	3.15
445.984	3.14
446.339	3.12
446.693	3.09
447.048	3.08
447.403	3.08
447.757	3.08
448.112	3.06
448.466	3.03
448.82	3.01
449.175	3.01
449.529	3
449.883	2.99
450.238	2.97
450.592	2.97
450.946	2.96
451.3	2.96
451.654	2.95
452.008	2.93
452.362	2.92
452.716	2.93
453.07	2.95
453.424	2.95
453.778	2.97
454.132	2.97
454.486	2.98
454.839	2.98
455.193	2.97
455.547	2.98
455.9	3.01
456.254	3.04
456.607	3.04
456.961	3.03
457.314	3.04
457.668	3.04
458.021	3.03
458.375	3.04
458.728	3.04
459.081	3.04
459.434	3.03
459.787	3.04
460.141	3.05
460.494	3.03
460.847	3.02
461.2	3.02
461.553	3.04
461.906	3.05
462.259	3.07
462.611	3.08
462.964	3.1
463.317	3.11
463.67	3.08
464.022	3.08
464.375	3.1
464.728	3.11
465.08	3.14
465.433	3.16
465.785	3.16
466.138	3.17
466.49	3.15
466.843	3.16
467.195	3.16
467.547	3.18
467.899	3.19
468.252	3.19
468.604	3.21
468.956	3.22
469.308	3.21
469.66	3.2
470.012	3.2
470.364	3.19
470.716	3.17
471.068	3.2
471.42	3.22
471.772	3.24
472.123	3.24
472.475	3.23
472.827	3.24
473.178	3.25
473.53	3.23
473.882	3.25
474.233	3.24
474.585	3.22
474.936	3.18
475.288	3.18
475.639	3.19
475.99	3.19
476.342	3.17
476.693	3.17
477.044	3.18
477.395	3.19
477.746	3.19
478.097	3.2
478.448	3.2
478.8	3.17
479.15	3.14
479.501	3.13
479.852	3.13
480.203	3.12
480.554	3.12
480.905	3.12
481.255	3.12
481.606	3.13
481.957	3.14
482.307	3.16
482.658	3.16
483.009	3.16
483.359	3.15
483.709	3.16
484.06	3.16
484.41	3.16
484.761	3.15
485.111	3.15
485.461	3.15
485.811	3.15
486.162	3.15
486.512	3.17
486.862	3.17
487.212	3.18
487.562	3.19
487.912	3.19
488.262	3.19
488.612	3.2
488.961	3.21
489.311	3.22
489.661	3.22
490.011	3.22
490.36	3.23
490.71	3.24
491.06	3.23
491.409	3.24
491.759	3.24
492.108	3.26
492.458	3.26
492.807	3.26
493.157	3.27
493.506	3.29
493.855	3.29
494.204	3.3
494.554	3.3
494.903	3.31
495.252	3.33
495.601	3.36
495.95	3.37
496.299	3.37
496.648	3.37
496.997	3.38
497.346	3.4
497.695	3.42
498.043	3.43
498.392	3.46
498.741	3.49
499.09	3.51
499.438	3.55
499.787	3.57
500.135	3.61
500.484	3.62
500.832	3.65
501.181	3.67
501.529	3.7
501.878	3.75
502.226	3.78
502.574	3.8
502.923	3.8
503.271	3.83
503.619	3.89
503.967	3.92
504.315	3.94
504.663	3.98
505.011	4
505.359	4.04
505.707	4.07
506.055	4.11
506.403	4.14
506.751	4.16
507.098	4.2
507.446	4.24
507.794	4.28
508.141	4.31
508.489	4.33
508.837	4.37
509.184	4.4
509.531	4.44
509.879	4.49
510.226	4.54
510.574	4.59
510.921	4.62
511.268	4.67
511.616	4.74
511.963	4.78
512.31	4.84
512.657	4.89
513.004	4.95
513.351	5
513.698	5.09
514.045	5.15
514.392	5.23
514.739	5.3
515.086	5.37
515.432	5.44
515.779	5.52
516.126	5.59
516.473	5.67
516.819	5.72
517.166	5.8
517.512	5.86
517.859	5.91
518.205	5.99
518.552	6.05
518.898	6.11
519.245	6.18
519.591	6.24
519.937	6.29
520.283	6.37
520.629	6.45
520.976	6.52
521.322	6.62
521.668	6.68
522.014	6.78
522.36	6.88
522.706	6.98
523.052	7.09
523.398	7.22
523.743	7.35
524.089	7.5
524.435	7.62
524.781	7.77
525.126	7.92
525.472	8.02
525.817	8.13
526.163	8.24
526.509	8.33
526.854	8.44
527.199	8.53
527.545	8.61
527.89	8.7
528.235	8.8
528.581	8.9
528.926	9.02
529.271	9.12
529.616	9.22
529.961	9.33
530.306	9.45
530.651	9.57
530.996	9.7
531.341	9.83
531.686	9.96
532.031	10.07
532.376	10.21
532.721	10.38
533.065	10.56
533.41	10.72
533.755	10.89
534.099	11.05
534.444	11.25
534.788	11.43
535.133	11.63
535.477	11.81
535.822	12
536.166	12.2
536.51	12.44
536.855	12.69
537.199	12.94
537.543	13.2
537.887	13.47
538.231	13.72
538.576	13.98
538.92	14.27
539.264	14.57
539.608	14.85
539.951	15.07
540.295	15.29
540.639	15.51
540.983	15.72
541.327	15.97
541.671	16.2
542.014	16.44
542.358	16.64
542.701	16.85
543.045	17.1
543.389	17.32
543.732	17.54
544.075	17.78
544.419	18.06
544.762	18.34
545.105	18.59
545.449	18.88
545.792	19.2
546.135	19.49
546.478	19.78
546.821	20.06
547.165	20.4
547.508	20.74
547.851	21.09
548.194	21.49
548.536	21.86
548.879	22.2
549.222	22.54
549.565	22.91
549.908	23.31
550.25	23.69
550.593	24.06
550.936	24.48
551.278	24.9
551.621	25.24
551.963	25.58
552.306	25.95
552.648	26.29
552.991	26.66
553.333	27.03
553.675	27.38
554.017	27.74
554.36	28.1
554.702	28.42
555.044	28.78
555.386	29.1
555.728	29.43
556.07	29.77
556.412	30.12
556.754	30.42
557.096	30.76
557.438	31.05
557.78	31.42
558.121	31.77
558.463	32.08
558.805	32.45
559.147	32.79
559.488	33.18
559.83	33.53
560.171	33.83
560.513	34.17
560.854	34.47
561.196	34.84
561.537	35.18
561.878	35.51
562.22	35.86
562.561	36.16
562.902	36.46
563.243	36.82
563.584	37.08
563.925	37.41
564.266	37.69
564.607	37.95
564.948	38.24
565.289	38.46
565.63	38.72
565.971	38.91
566.312	39.18
566.653	39.38
566.993	39.59
567.334	39.87
567.675	40.09
568.015	40.35
568.356	40.55
568.696	40.79
569.037	41.05
569.377	41.29
569.718	41.55
570.058	41.77
570.398	41.97
570.739	42.23
571.079	42.5
571.419	42.74
571.759	43.04
572.099	43.22
572.439	43.47
572.779	43.66
573.119	43.9
573.459	44.08
573.799	44.29
574.139	44.51
574.479	44.67
574.819	44.91
575.158	45.14
575.498	45.31
575.838	45.44
576.177	45.59
576.517	45.74
576.856	45.87
577.196	46.06
577.535	46.26
577.875	46.41
578.214	46.6
578.553	46.72
578.893	46.86
579.232	47.07
579.571	47.27
579.91	47.47
580.25	47.66
580.589	47.85
580.928	48.02
581.267	48.2
581.606	48.43
581.945	48.53
582.283	48.62
582.622	48.84
582.961	49.05
583.3	49.2
583.639	49.3
583.977	49.45
584.316	49.57
584.654	49.66
584.993	49.8
585.332	49.88
585.67	50.06
586.008	50.18
586.347	50.32
586.685	50.38
587.024	50.5
587.362	50.61
587.7	50.73
588.038	50.84
588.376	50.92
588.715	50.95
589.053	51.13
589.391	51.24
589.729	51.3
590.067	51.43
590.404	51.56
590.742	51.72
591.08	51.83
591.418	52
591.756	52.11
592.093	52.22
592.431	52.31
592.769	52.35
593.106	52.42
593.444	52.47
593.781	52.52
594.119	52.62
594.456	52.61
594.793	52.72
595.131	52.77
595.468	52.8
595.805	52.91
596.143	52.94
596.48	53.05
596.817	53.1
597.154	53.03
597.491	53.1
597.828	53.19
598.165	53.32
598.502	53.33
598.839	53.38
599.176	53.4
599.512	53.45
599.849	53.54
600.186	53.55
600.523	53.66
600.859	53.8
601.196	53.95
601.532	54.1
601.869	54.17
602.205	54.31
602.542	54.43
602.878	54.47
603.215	54.49
603.551	54.5
603.887	54.6
604.223	54.68
604.56	54.73
604.896	54.79
605.232	54.77
605.568	54.79
605.904	54.92
606.24	55.1
606.576	55.21
606.912	55.3
607.248	55.45
607.583	55.52
607.919	55.5
608.255	55.49
608.591	55.55
608.926	55.57
609.262	55.62
609.597	55.78
609.933	55.8
610.268	55.86
610.604	55.97
610.939	55.98
611.275	56.08
611.61	56.1
611.945	56.13
612.281	56.18
612.616	56.33
612.951	56.33
613.286	56.22
613.621	56.22
613.956	56.24
614.291	56.27
614.626	56.25
614.961	56.41
615.296	56.41
615.631	56.47
615.966	56.5
616.3	56.55
616.635	56.53
616.97	56.71
617.304	56.85
617.639	56.91
617.973	56.93
618.308	56.97
618.642	56.99
618.977	57.02
619.311	57.14
619.646	57.15
619.98	57.12
620.314	57.23
620.648	57.25
620.983	57.29
621.317	57.36
621.651	57.52
621.985	57.55
622.319	57.63
622.653	57.64
622.987	57.72
623.321	57.72
623.655	57.64
623.988	57.63
624.322	57.54
624.656	57.54
624.99	57.59
625.323	57.63
625.657	57.69
625.99	57.71
626.324	57.69
626.657	57.63
626.991	57.71
627.324	57.71
627.658	57.86
627.991	57.9
628.324	57.78
628.657	57.7
628.991	57.68
629.324	57.63
629.657	57.65
629.99	57.65
630.323	57.66
630.656	57.81
630.989	57.76
631.322	57.83
631.655	57.87
631.987	57.91
632.32	57.9
632.653	57.88
632.986	57.93
633.318	58
633.651	58.14
633.984	58.14
634.316	58.16
634.649	58.1
634.981	58.11
635.313	58.22
635.646	58.32
635.978	58.43
636.31	58.49
636.643	58.57
636.975	58.63
637.307	58.61
637.639	58.61
637.971	58.66
638.303	58.74
638.635	58.83
638.967	58.87
639.299	58.92
639.631	58.86
639.963	58.88
640.295	58.88
640.626	58.85
640.958	58.96
641.29	59.02
641.621	59.11
641.953	59.16
642.285	59.27
642.616	59.21
642.948	59.11
643.279	59.22
643.61	59.2
643.942	59.15
644.273	59.22
644.604	59.23
644.936	59.22
645.267	59.15
645.598	59
645.929	59.06
646.26	59.08
646.591	59.19
646.922	59.17
647.253	59.23
647.584	59.23
647.915	59.19
648.245	59.15
648.576	59.02
648.907	59.01
649.238	58.89
649.568	58.96
649.899	59.06
650.229	59.1
650.56	59.12
650.89	59.22
651.221	59.19
651.551	59.23
651.882	59.14
652.212	59.18
652.542	59.24
652.872	59.13
653.203	59.15
653.533	59.22
653.863	59.21
654.193	59.17
654.523	59.24
654.853	59.31
655.183	59.4
655.513	59.43
655.843	59.51
656.172	59.79
656.502	59.77
656.832	59.82
657.162	59.7
657.491	59.68
657.821	59.73
658.15	59.74
658.48	59.66
658.809	59.8
659.139	59.76
659.468	59.79
659.798	59.84
660.127	59.87
660.456	59.94
660.785	60.01
661.115	60.02
661.444	60.06
661.773	60.05
662.102	60.09
662.431	60.22
662.76	60.14
663.089	59.9
663.418	59.96
663.747	59.88
664.076	60.04
664.404	59.97
664.733	59.94
665.062	60.13
665.39	60.18
665.719	60.12
666.048	60.27
666.376	60.33
