Data from BA58010_Reflection_00012.txt Node
Date: Mon Nov 18 16:07:16 EST 2019
User: vgr7
Spectrometer: USB2G7710
Scans to average: 3
Trigger mode: 4
Integration Time (sec): 2.000000E-2
Electric dark correction enabled: true
Boxcar width: 10
XAxis mode: Wavelengths
Number of Pixels in Spectrum: 2048
>>>>>Begin Spectral Data<<<<<
177.721	-190.96
178.105	392.04
178.488	578.78
178.871	560.89
179.254	-5512.9
179.636	-202.05
180.019	-586.35
180.402	-300
180.785	183.5
181.168	169.33
181.55	150.59
181.933	102.63
182.316	128.88
182.698	79.79
183.081	102.63
183.463	115.21
183.846	181.96
184.228	321.25
184.611	261.02
184.993	463.41
185.376	912.64
185.758	1373.31
186.14	512.54
186.522	610.78
186.904	428.56
187.287	540.37
187.669	1219.31
188.051	741.06
188.433	649.62
188.815	946.74
189.197	1373.14
189.579	4660
189.961	-1003.33
190.342	-7959.7
190.724	-643.43
191.106	-979.8
191.488	-496.24
191.869	-423.85
192.251	-533.3
192.633	-295
193.014	-590.99
193.396	-2441.48
193.777	-9736.07
194.159	15357.14
194.54	6678.31
194.922	-1102.15
195.303	-394.8
195.684	-1074.17
196.065	-337.73
196.447	-284.96
196.828	-327.58
197.209	-396.85
197.59	-446.52
197.971	3700
198.352	-711.09
198.733	-1414.38
199.114	-1069.05
199.495	-5362.69
199.876	3307.92
200.257	-5309.84
200.638	-1278.72
201.018	-1925.48
201.399	-1734.39
201.78	-483.18
202.16	-500.97
202.541	-623.95
202.922	3392.04
203.302	1408.78
203.683	37736.36
204.063	728.48
204.444	472.33
204.824	453.29
205.204	356.83
205.585	384.55
205.965	837.01
206.345	459.91
206.725	578.92
207.106	450.42
207.486	372.87
207.866	578.23
208.246	442.22
208.626	392.22
209.006	420.47
209.386	451.55
209.766	366.61
210.145	344.26
210.525	330.46
210.905	472.79
211.285	548.13
211.664	896.46
212.044	1311.65
212.424	1771.55
212.803	3021.47
213.183	-692.3
213.562	-943.98
213.942	-494.66
214.321	-204.18
214.701	-208.06
215.08	-187.7
215.459	-175.93
215.838	-197.03
216.218	-119.54
216.597	-89.95
216.976	-57.37
217.355	-28.21
217.734	-13.36
218.113	-9.84
218.492	-10.83
218.871	-22.52
219.25	-14.79
219.629	-18.07
220.008	-20.44
220.387	-23.09
220.766	-25.57
221.144	-42.65
221.523	-43.01
221.902	-49.34
222.28	-58.37
222.659	-58.25
223.037	-54.19
223.416	-45.71
223.794	-45.96
224.173	-42.69
224.551	-40.32
224.929	-43.45
225.308	-39.82
225.686	-36.6
226.064	-27.89
226.442	-29.78
226.821	-19.88
227.199	-22.31
227.577	-22.38
227.955	-19.55
228.333	-19.89
228.711	-15.17
229.089	-9.57
229.467	-10.64
229.845	-12.97
230.222	-10.91
230.6	-10.52
230.978	-11.03
231.356	-9.23
231.733	-8.02
232.111	-7.13
232.488	-6.14
232.866	-4.27
233.243	-5.27
233.621	-5.77
233.998	-6.82
234.376	-6.7
234.753	-6.64
235.13	-5.19
235.508	-4.07
235.885	-6.35
236.262	-6.33
236.639	-7.79
237.016	-8.77
237.393	-7.77
237.77	-6.64
238.147	-5.66
238.524	-5.09
238.901	-3.87
239.278	-3.31
239.655	-2.41
240.032	-2.36
240.409	-2.58
240.785	-2.39
241.162	-1.72
241.539	-1.63
241.915	-1.53
242.292	-1.28
242.668	-0.68
243.045	-0.37
243.421	-0.01
243.798	0.78
244.174	0.99
244.551	1.49
244.927	1.89
245.303	2.23
245.679	2.34
246.056	2.4
246.432	2.36
246.808	2.36
247.184	2.24
247.56	1.99
247.936	1.95
248.312	2.15
248.688	2.22
249.064	2.33
249.44	2.47
249.815	2.56
250.191	2.73
250.567	2.66
250.943	2.62
251.318	2.57
251.694	2.4
252.069	2.53
252.445	2.52
252.82	2.29
253.196	2.06
253.571	1.88
253.947	2.06
254.322	2.34
254.697	2.37
255.073	2.64
255.448	2.77
255.823	3.01
256.198	2.88
256.573	2.82
256.948	2.91
257.323	2.9
257.698	2.75
258.073	2.82
258.448	2.81
258.823	2.81
259.198	2.81
259.573	2.79
259.948	2.79
260.322	2.6
260.697	2.59
261.072	2.53
261.446	2.69
261.821	2.59
262.195	2.6
262.57	2.62
262.944	2.55
263.319	2.56
263.693	2.48
264.067	2.32
264.442	2.47
264.816	2.26
265.19	2.06
265.564	2.13
265.938	1.98
266.313	1.81
266.687	1.93
267.061	1.97
267.435	2
267.809	2.02
268.183	2.27
268.556	2.25
268.93	2.35
269.304	2.33
269.678	2.4
270.051	2.29
270.425	2.18
270.799	2.34
271.172	2.44
271.546	2.38
271.919	2.45
272.293	2.32
272.666	2.43
273.04	2.58
273.413	2.53
273.787	2.56
274.16	2.66
274.533	2.45
274.906	2.4
275.279	2.38
275.653	2.34
276.026	2.33
276.399	2.38
276.772	2.24
277.145	2.19
277.518	2.14
277.891	2.21
278.263	2.3
278.636	2.27
279.009	2.27
279.382	2.44
279.755	2.52
280.127	2.61
280.5	2.75
280.872	2.77
281.245	2.91
281.617	2.98
281.99	3.11
282.362	3.22
282.735	3.32
283.107	3.36
283.479	3.29
283.852	3.19
284.224	3.28
284.596	3.41
284.968	3.48
285.34	3.53
285.713	3.44
286.085	3.4
286.457	3.36
286.829	3.33
287.201	3.24
287.572	3.22
287.944	3.07
288.316	3.05
288.688	3.01
289.06	2.94
289.431	2.91
289.803	2.9
290.175	2.82
290.546	2.82
290.918	2.85
291.289	2.84
291.661	2.85
292.032	2.83
292.403	2.85
292.775	2.88
293.146	2.86
293.517	2.89
293.889	3
294.26	2.96
294.631	2.98
295.002	3.05
295.373	3.11
295.744	3.22
296.115	3.09
296.486	3.09
296.857	3.08
297.228	3.14
297.599	3.12
297.97	3.21
298.34	3.16
298.711	3.25
299.082	3.35
299.452	3.38
299.823	3.42
300.194	3.48
300.564	3.53
300.935	3.58
301.305	3.61
301.676	3.63
302.046	3.71
302.416	3.73
302.787	3.73
303.157	3.79
303.527	3.72
303.897	3.82
304.267	4
304.637	4.09
305.008	4.15
305.378	4.17
305.748	4.12
306.117	4.11
306.487	4.09
306.857	4.2
307.227	4.18
307.597	4.15
307.967	4.09
308.336	3.96
308.706	3.92
309.076	3.97
309.445	3.85
309.815	3.87
310.184	3.78
310.554	3.82
310.923	3.8
311.293	3.84
311.662	3.85
312.031	3.75
312.401	3.72
312.77	3.77
313.139	3.76
313.508	3.95
313.877	3.91
314.246	3.97
314.616	3.8
314.985	3.88
315.353	3.75
315.722	3.9
316.091	3.96
316.46	3.9
316.829	3.98
317.198	4.05
317.567	3.97
317.935	4.12
318.304	4.06
318.672	3.93
319.041	4.15
319.41	4.12
319.778	4.13
320.147	4.15
320.515	4.11
320.883	4.11
321.252	4.01
321.62	4.22
321.988	4.21
322.357	4.21
322.725	4.21
323.093	4.39
323.461	4.35
323.829	4.36
324.197	4.45
324.565	4.45
324.933	4.56
325.301	4.75
325.669	4.79
326.037	4.74
326.405	4.98
326.772	4.91
327.14	5.06
327.508	5.07
327.875	4.98
328.243	5.13
328.61	5.2
328.978	5.28
329.346	5.39
329.713	5.32
330.08	5.5
330.448	5.46
330.815	5.49
331.182	5.45
331.55	5.51
331.917	5.58
332.284	5.73
332.651	5.78
333.018	5.64
333.385	5.71
333.752	5.81
334.119	5.8
334.486	5.79
334.853	5.72
335.22	5.76
335.587	6.02
335.954	5.92
336.32	5.87
336.687	5.94
337.054	5.89
337.42	5.99
337.787	5.94
338.153	5.95
338.52	5.98
338.886	5.9
339.253	5.94
339.619	5.88
339.986	5.89
340.352	5.91
340.718	5.93
341.084	5.86
341.451	5.99
341.817	6.08
342.183	6.07
342.549	6.13
342.915	6.23
343.281	6.09
343.647	6.16
344.013	6.19
344.379	6.16
344.745	6.15
345.11	6.11
345.476	6.14
345.842	6.18
346.208	6.21
346.573	6.31
346.939	6.4
347.304	6.49
347.67	6.42
348.035	6.44
348.401	6.5
348.766	6.53
349.132	6.48
349.497	6.37
349.862	6.47
350.228	6.52
350.593	6.49
350.958	6.59
351.323	6.57
351.688	6.63
352.053	6.61
352.418	6.72
352.783	6.77
353.148	6.81
353.513	6.85
353.878	6.79
354.243	6.88
354.608	6.79
354.972	6.8
355.337	6.86
355.702	6.9
356.066	6.95
356.431	6.95
356.795	6.99
357.16	6.97
357.524	6.89
357.889	6.83
358.253	6.82
358.618	6.84
358.982	6.81
359.346	6.79
359.71	6.75
360.075	6.7
360.439	6.69
360.803	6.58
361.167	6.53
361.531	6.58
361.895	6.53
362.259	6.53
362.623	6.5
362.987	6.47
363.351	6.46
363.714	6.37
364.078	6.27
364.442	6.14
364.806	6.1
365.169	6.1
365.533	6.02
365.896	5.99
366.26	5.93
366.623	5.86
366.987	5.83
367.35	5.85
367.714	5.85
368.077	5.78
368.44	5.86
368.803	5.82
369.167	5.67
369.53	5.59
369.893	5.62
370.256	5.56
370.619	5.52
370.982	5.45
371.345	5.47
371.708	5.51
372.071	5.49
372.434	5.56
372.797	5.54
373.159	5.49
373.522	5.44
373.885	5.41
374.247	5.43
374.61	5.42
374.973	5.35
375.335	5.23
375.698	5.24
376.06	5.16
376.423	5.12
376.785	5.19
377.147	5.26
377.51	5.18
377.872	5.26
378.234	5.21
378.596	5.16
378.958	5.12
379.321	5.1
379.683	5.13
380.045	5.09
380.407	5.05
380.769	5.08
381.13	5.09
381.492	5.09
381.854	5.07
382.216	4.98
382.578	4.98
382.939	4.94
383.301	4.9
383.663	4.85
384.024	4.82
384.386	4.77
384.747	4.75
385.109	4.73
385.47	4.61
385.832	4.58
386.193	4.57
386.554	4.58
386.916	4.51
387.277	4.48
387.638	4.45
387.999	4.44
388.36	4.45
388.721	4.43
389.082	4.36
389.443	4.32
389.804	4.33
390.165	4.29
390.526	4.28
390.887	4.25
391.248	4.28
391.609	4.26
391.969	4.23
392.33	4.12
392.691	4.09
393.051	4.07
393.412	4.06
393.772	4.03
394.133	4
394.493	4.02
394.854	3.96
395.214	3.95
395.574	3.92
395.935	3.88
396.295	3.84
396.655	3.8
397.015	3.76
397.376	3.77
397.736	3.76
398.096	3.77
398.456	3.74
398.816	3.71
399.176	3.69
399.535	3.68
399.895	3.7
400.255	3.69
400.615	3.7
400.975	3.66
401.334	3.65
401.694	3.57
402.054	3.55
402.413	3.59
402.773	3.55
403.132	3.52
403.492	3.51
403.851	3.52
404.211	3.55
404.57	3.56
404.929	3.52
405.288	3.48
405.648	3.45
406.007	3.45
406.366	3.45
406.725	3.5
407.084	3.49
407.443	3.49
407.802	3.5
408.161	3.48
408.52	3.46
408.879	3.44
409.238	3.47
409.596	3.46
409.955	3.42
410.314	3.43
410.673	3.4
411.031	3.39
411.39	3.36
411.748	3.34
412.107	3.36
412.465	3.35
412.824	3.36
413.182	3.34
413.54	3.34
413.899	3.34
414.257	3.33
414.615	3.32
414.974	3.3
415.332	3.3
415.69	3.29
416.048	3.3
416.406	3.3
416.764	3.27
417.122	3.28
417.48	3.26
417.838	3.26
418.195	3.27
418.553	3.27
418.911	3.27
419.269	3.26
419.626	3.24
419.984	3.25
420.342	3.24
420.699	3.24
421.057	3.23
421.414	3.21
421.772	3.18
422.129	3.18
422.486	3.17
422.844	3.16
423.201	3.16
423.558	3.14
423.915	3.13
424.273	3.13
424.63	3.11
424.987	3.11
425.344	3.09
425.701	3.08
426.058	3.08
426.415	3.08
426.772	3.07
427.128	3.06
427.485	3.03
427.842	3.03
428.199	3.02
428.555	3
428.912	3
429.269	3.01
429.625	3.01
429.982	3
430.338	3.01
430.695	3
431.051	3
431.407	2.99
431.764	2.99
432.12	2.99
432.476	2.99
432.832	3
433.189	3.01
433.545	2.99
433.901	2.96
434.257	2.93
434.613	2.94
434.969	2.96
435.325	2.96
435.681	2.97
436.036	2.97
436.392	2.97
436.748	2.96
437.104	2.94
437.459	2.94
437.815	2.94
438.171	2.94
438.526	2.93
438.882	2.94
439.237	2.94
439.593	2.95
439.948	2.95
440.304	2.94
440.659	2.92
441.014	2.92
441.369	2.92
441.725	2.93
442.08	2.91
442.435	2.89
442.79	2.88
443.145	2.88
443.5	2.87
443.855	2.87
444.21	2.85
444.565	2.85
444.92	2.87
445.275	2.86
445.629	2.87
445.984	2.87
446.339	2.85
446.693	2.85
447.048	2.84
447.403	2.82
447.757	2.83
448.112	2.82
448.466	2.84
448.82	2.84
449.175	2.84
449.529	2.86
449.883	2.85
450.238	2.84
450.592	2.84
450.946	2.83
451.3	2.82
451.654	2.84
452.008	2.82
452.362	2.8
452.716	2.78
453.07	2.75
453.424	2.75
453.778	2.76
454.132	2.75
454.486	2.74
454.839	2.74
455.193	2.73
455.547	2.74
455.9	2.75
456.254	2.76
456.607	2.76
456.961	2.75
457.314	2.76
457.668	2.75
458.021	2.75
458.375	2.75
458.728	2.77
459.081	2.77
459.434	2.77
459.787	2.79
460.141	2.81
460.494	2.81
460.847	2.83
461.2	2.82
461.553	2.83
461.906	2.86
462.259	2.88
462.611	2.89
462.964	2.89
463.317	2.88
463.67	2.87
464.022	2.87
464.375	2.87
464.728	2.88
465.08	2.9
465.433	2.9
465.785	2.91
466.138	2.89
466.49	2.9
466.843	2.91
467.195	2.89
467.547	2.88
467.899	2.89
468.252	2.89
468.604	2.89
468.956	2.87
469.308	2.88
469.66	2.87
470.012	2.9
470.364	2.91
470.716	2.92
471.068	2.9
471.42	2.91
471.772	2.93
472.123	2.93
472.475	2.95
472.827	2.95
473.178	2.98
473.53	2.97
473.882	2.97
474.233	2.97
474.585	2.97
474.936	2.95
475.288	2.96
475.639	2.96
475.99	2.97
476.342	2.98
476.693	2.97
477.044	2.98
477.395	2.97
477.746	2.96
478.097	2.96
478.448	2.97
478.8	2.98
479.15	2.95
479.501	2.95
479.852	2.94
480.203	2.95
480.554	2.95
480.905	2.95
481.255	2.95
481.606	2.96
481.957	2.98
482.307	3
482.658	3
483.009	2.99
483.359	3
483.709	3.01
484.06	3.01
484.41	3.01
484.761	3
485.111	3.01
485.461	3.02
485.811	3.02
486.162	3.02
486.512	3.03
486.862	3.04
487.212	3.05
487.562	3.05
487.912	3.04
488.262	3.06
488.612	3.06
488.961	3.06
489.311	3.06
489.661	3.05
490.011	3.05
490.36	3.06
490.71	3.06
491.06	3.06
491.409	3.06
491.759	3.08
492.108	3.09
492.458	3.08
492.807	3.08
493.157	3.09
493.506	3.1
493.855	3.11
494.204	3.12
494.554	3.12
494.903	3.12
495.252	3.13
495.601	3.13
495.95	3.16
496.299	3.17
496.648	3.18
496.997	3.2
497.346	3.21
497.695	3.23
498.043	3.25
498.392	3.26
498.741	3.26
499.09	3.25
499.438	3.27
499.787	3.31
500.135	3.33
500.484	3.35
500.832	3.37
501.181	3.37
501.529	3.38
501.878	3.4
502.226	3.44
502.574	3.48
502.923	3.49
503.271	3.49
503.619	3.53
503.967	3.56
504.315	3.58
504.663	3.61
505.011	3.64
505.359	3.67
505.707	3.73
506.055	3.77
506.403	3.81
506.751	3.86
507.098	3.87
507.446	3.91
507.794	3.94
508.141	3.96
508.489	4.02
508.837	4.05
509.184	4.09
509.531	4.12
509.879	4.14
510.226	4.2
510.574	4.23
510.921	4.27
511.268	4.31
511.616	4.35
511.963	4.4
512.31	4.45
512.657	4.49
513.004	4.5
513.351	4.56
513.698	4.6
514.045	4.65
514.392	4.7
514.739	4.73
515.086	4.78
515.432	4.83
515.779	4.86
516.126	4.91
516.473	4.96
516.819	5.02
517.166	5.08
517.512	5.12
517.859	5.19
518.205	5.23
518.552	5.28
518.898	5.33
519.245	5.34
519.591	5.39
519.937	5.44
520.283	5.49
520.629	5.53
520.976	5.62
521.322	5.68
521.668	5.74
522.014	5.85
522.36	5.92
522.706	6.01
523.052	6.12
523.398	6.22
523.743	6.33
524.089	6.44
524.435	6.56
524.781	6.66
525.126	6.77
525.472	6.87
525.817	6.95
526.163	7.03
526.509	7.13
526.854	7.21
527.199	7.28
527.545	7.36
527.89	7.44
528.235	7.51
528.581	7.6
528.926	7.69
529.271	7.77
529.616	7.86
529.961	7.94
530.306	8.04
530.651	8.15
530.996	8.24
531.341	8.35
531.686	8.46
532.031	8.56
532.376	8.69
532.721	8.82
533.065	8.96
533.41	9.1
533.755	9.25
534.099	9.4
534.444	9.56
534.788	9.71
535.133	9.87
535.477	10.03
535.822	10.19
536.166	10.37
536.51	10.59
536.855	10.82
537.199	11.05
537.543	11.28
537.887	11.52
538.231	11.77
538.576	12.02
538.92	12.27
539.264	12.53
539.608	12.76
539.951	12.98
540.295	13.18
540.639	13.38
540.983	13.58
541.327	13.78
541.671	14
542.014	14.22
542.358	14.43
542.701	14.63
543.045	14.87
543.389	15.09
543.732	15.3
544.075	15.51
544.419	15.75
544.762	16.01
545.105	16.26
545.449	16.54
545.792	16.83
546.135	17.11
546.478	17.39
546.821	17.71
547.165	18.03
547.508	18.39
547.851	18.75
548.194	19.1
548.536	19.43
548.879	19.78
549.222	20.09
549.565	20.44
549.908	20.82
550.25	21.17
550.593	21.51
550.936	21.88
551.278	22.27
551.621	22.67
551.963	23.02
552.306	23.37
552.648	23.72
552.991	24.03
553.333	24.39
553.675	24.77
554.017	25.11
554.36	25.44
554.702	25.77
555.044	26.09
555.386	26.43
555.728	26.8
556.07	27.16
556.412	27.54
556.754	27.87
557.096	28.2
557.438	28.57
557.78	28.95
558.121	29.29
558.463	29.65
558.805	29.99
559.147	30.35
559.488	30.69
559.83	31.05
560.171	31.41
560.513	31.72
560.854	32.01
561.196	32.35
561.537	32.71
561.878	32.95
562.22	33.27
562.561	33.53
562.902	33.86
563.243	34.14
563.584	34.4
563.925	34.69
564.266	35.02
564.607	35.27
564.948	35.57
565.289	35.84
565.63	36.12
565.971	36.38
566.312	36.64
566.653	36.92
566.993	37.1
567.334	37.38
567.675	37.66
568.015	37.96
568.356	38.12
568.696	38.4
569.037	38.7
569.377	38.97
569.718	39.27
570.058	39.5
570.398	39.75
570.739	40.01
571.079	40.24
571.419	40.47
571.759	40.69
572.099	40.9
572.439	41.11
572.779	41.31
573.119	41.51
573.459	41.69
573.799	41.89
574.139	42.12
574.479	42.25
574.819	42.43
575.158	42.6
575.498	42.86
575.838	43.03
576.177	43.19
576.517	43.35
576.856	43.51
577.196	43.7
577.535	43.94
577.875	44.14
578.214	44.35
578.553	44.54
578.893	44.74
579.232	44.85
579.571	45.09
579.91	45.3
580.25	45.51
580.589	45.71
580.928	45.88
581.267	46.03
581.606	46.3
581.945	46.46
582.283	46.62
582.622	46.78
582.961	46.89
583.3	47.1
583.639	47.32
583.977	47.5
584.316	47.66
584.654	47.79
584.993	47.99
585.332	48.15
585.67	48.25
586.008	48.37
586.347	48.55
586.685	48.67
587.024	48.79
587.362	48.87
587.7	48.96
588.038	49.13
588.376	49.29
588.715	49.31
589.053	49.45
589.391	49.53
589.729	49.58
590.067	49.74
590.404	49.79
590.742	49.86
591.08	49.96
591.418	50.07
591.756	50.12
592.093	50.18
592.431	50.25
592.769	50.38
593.106	50.5
593.444	50.63
593.781	50.68
594.119	50.74
594.456	50.81
594.793	50.9
595.131	50.9
595.468	51
595.805	51.13
596.143	51.24
596.48	51.34
596.817	51.42
597.154	51.47
597.491	51.57
597.828	51.66
598.165	51.76
598.502	51.81
598.839	51.9
599.176	51.99
599.512	52.09
599.849	52.18
600.186	52.27
600.523	52.31
600.859	52.47
601.196	52.63
601.532	52.72
601.869	52.78
602.205	52.92
602.542	52.92
602.878	52.93
603.215	52.96
603.551	53.03
603.887	53.13
604.223	53.23
604.56	53.28
604.896	53.35
605.232	53.45
605.568	53.53
605.904	53.59
606.24	53.64
606.576	53.72
606.912	53.8
607.248	53.88
607.583	53.94
607.919	53.9
608.255	53.9
608.591	53.96
608.926	53.99
609.262	53.96
609.597	54.11
609.933	54.15
610.268	54.19
610.604	54.25
610.939	54.27
611.275	54.32
611.61	54.34
611.945	54.37
612.281	54.34
612.616	54.38
612.951	54.4
613.286	54.41
613.621	54.43
613.956	54.44
614.291	54.48
614.626	54.59
614.961	54.73
615.296	54.8
615.631	54.81
615.966	54.89
616.3	55.02
616.635	55.04
616.97	55.2
617.304	55.29
617.639	55.36
617.973	55.35
618.308	55.36
618.642	55.47
618.977	55.51
619.311	55.54
619.646	55.61
619.98	55.66
620.314	55.76
620.648	55.83
620.983	55.87
621.317	55.94
621.651	55.95
621.985	56.05
622.319	56.06
622.653	56.18
622.987	56.22
623.321	56.27
623.655	56.3
623.988	56.31
624.322	56.3
624.656	56.35
624.99	56.46
625.323	56.51
625.657	56.51
625.99	56.57
626.324	56.64
626.657	56.68
626.991	56.81
627.324	56.78
627.658	56.88
627.991	56.9
628.324	56.84
628.657	56.85
628.991	56.84
629.324	56.89
629.657	56.9
629.99	56.91
630.323	56.95
630.656	56.98
630.989	57.02
631.322	57.03
631.655	57.08
631.987	57.11
632.32	57.08
632.653	57.04
632.986	57.03
633.318	57.02
633.651	57.03
633.984	56.92
634.316	56.96
634.649	56.93
634.981	56.95
635.313	57.06
635.646	57.11
635.978	57.17
636.31	57.14
636.643	57.16
636.975	57.22
637.307	57.31
637.639	57.38
637.971	57.38
638.303	57.37
638.635	57.37
638.967	57.45
639.299	57.49
639.631	57.58
639.963	57.52
640.295	57.59
640.626	57.62
640.958	57.75
641.29	57.87
641.621	57.9
641.953	57.98
642.285	58.04
642.616	58.05
642.948	57.99
643.279	58.02
643.61	58.01
643.942	58.08
644.273	58.03
644.604	57.98
644.936	57.94
645.267	58.04
645.598	58.09
645.929	58.11
646.26	58.1
646.591	58.05
646.922	58.21
647.253	58.23
647.584	58.15
647.915	58.1
648.245	58
648.576	58.04
648.907	58.02
649.238	57.88
649.568	57.93
649.899	57.93
650.229	58
650.56	58.15
650.89	58.1
651.221	58.08
651.551	58.06
651.882	58.02
652.212	58.07
652.542	58.08
652.872	57.93
653.203	57.94
653.533	58.06
653.863	57.99
654.193	58.01
654.523	58.17
654.853	58.3
655.183	58.38
655.513	58.27
655.843	58.33
656.172	58.53
656.502	58.52
656.832	58.47
657.162	58.44
657.491	58.41
657.821	58.46
658.15	58.42
658.48	58.45
658.809	58.55
659.139	58.46
659.468	58.38
659.798	58.47
660.127	58.56
660.456	58.53
660.785	58.59
661.115	58.44
661.444	58.39
661.773	58.34
662.102	58.35
662.431	58.52
662.76	58.43
663.089	58.42
663.418	58.41
663.747	58.5
664.076	58.58
664.404	58.55
664.733	58.61
665.062	58.74
665.39	58.8
665.719	58.86
