Data from BA58010_Reflection_00008.txt Node
Date: Mon Nov 18 16:07:03 EST 2019
User: vgr7
Spectrometer: USB2G7710
Scans to average: 3
Trigger mode: 4
Integration Time (sec): 2.000000E-2
Electric dark correction enabled: true
Boxcar width: 10
XAxis mode: Wavelengths
Number of Pixels in Spectrum: 2048
>>>>>Begin Spectral Data<<<<<
177.721	90.83
178.105	108.85
178.488	139.05
178.871	155.87
179.254	-512.9
179.636	175.09
180.019	494.83
180.402	-1600
180.785	-76.94
181.168	-11.34
181.55	61.21
181.933	79.43
182.316	100.44
182.698	84.17
183.081	84.68
183.463	79.22
183.846	76.66
184.228	32.4
184.611	43.13
184.993	-113.84
185.376	-127.99
185.758	-70.42
186.14	64.61
186.522	67.08
186.904	75.57
187.287	50.79
187.669	-67.03
188.051	-6.84
188.433	22.57
188.815	65.1
189.197	61.63
189.579	-36
189.961	-6.83
190.342	443.28
190.724	83.73
191.106	118.68
191.488	56.13
191.869	2.18
192.251	-116.54
192.633	-82.36
193.014	-222.69
193.396	-664.19
193.777	-2080.33
194.159	3385.71
194.54	1340.96
194.922	-116.46
195.303	-49.72
195.684	-89.82
196.065	-11.27
196.447	-21.19
196.828	-3.02
197.209	-35.91
197.59	-18.51
197.971	396
198.352	-68.11
198.733	-267.41
199.114	-332.66
199.495	-362.69
199.876	228.71
200.257	1165.57
200.638	580.85
201.018	705.1
201.399	666.88
201.78	165.42
202.16	137.16
202.541	76.23
202.922	161.95
203.302	170.82
203.683	9463.64
204.063	199.84
204.444	149.85
204.824	201.08
205.204	145.02
205.585	159.69
205.965	271.65
206.345	153.4
206.725	181.61
207.106	143.48
207.486	163.25
207.866	238.87
208.246	182.46
208.626	157.7
209.006	164.69
209.386	161.41
209.766	116.95
210.145	105.63
210.525	84.18
210.905	57.49
211.285	31.12
211.664	10.24
212.044	-72.82
212.424	-213.78
212.803	-554.45
213.183	214.17
213.562	281.64
213.942	197.84
214.321	132.87
214.701	124.48
215.08	144.79
215.459	130.15
215.838	127.37
216.218	69.25
216.597	66.36
216.976	53.08
217.355	47.58
217.734	27.32
218.113	28.65
218.492	20.47
218.871	-10.48
219.25	-6.36
219.629	-10.59
220.008	-19.36
220.387	-20.79
220.766	-18.6
221.144	-18.47
221.523	-20.24
221.902	-12.85
222.28	-35.18
222.659	-15.6
223.037	-17.68
223.416	-13.39
223.794	-0.26
224.173	-10.38
224.551	0.71
224.929	7.1
225.308	10.41
225.686	8.24
226.064	8.05
226.442	7.96
226.821	19.07
227.199	10.24
227.577	8.55
227.955	5.85
228.333	8.86
228.711	8.13
229.089	8.89
229.467	7.06
229.845	1.61
230.222	4.17
230.6	1.24
230.978	3.4
231.356	4.64
231.733	4.24
232.111	7.93
232.488	6.08
232.866	3.36
233.243	2.48
233.621	3.06
233.998	4.01
234.376	3.27
234.753	1.27
235.13	1.92
235.508	3.89
235.885	4.29
236.262	3.34
236.639	3.88
237.016	2.47
237.393	4.58
237.77	6.54
238.147	6.23
238.524	6.44
238.901	5.73
239.278	4.95
239.655	5.44
240.032	5.52
240.409	5.97
240.785	6.28
241.162	6.13
241.539	6.11
241.915	5.86
242.292	6
242.668	6.36
243.045	6.63
243.421	6.44
243.798	6.67
244.174	6.61
244.551	6.49
244.927	6.39
245.303	6.2
245.679	6.08
246.056	6.25
246.432	6.15
246.808	6.35
247.184	6.42
247.56	6.02
247.936	5.92
248.312	5.79
248.688	5.69
249.064	5.91
249.44	5.84
249.815	5.93
250.191	6.02
250.567	5.89
250.943	5.85
251.318	5.8
251.694	5.52
252.069	5.52
252.445	5.64
252.82	5.78
253.196	5.65
253.571	5.71
253.947	5.54
254.322	5.74
254.697	5.78
255.073	5.63
255.448	5.63
255.823	5.39
256.198	5.28
256.573	5.31
256.948	5.37
257.323	5.56
257.698	5.28
258.073	5.11
258.448	5.04
258.823	4.92
259.198	4.95
259.573	4.98
259.948	4.81
260.322	4.83
260.697	4.68
261.072	4.72
261.446	4.68
261.821	4.6
262.195	4.64
262.57	4.37
262.944	4.35
263.319	4.51
263.693	4.42
264.067	4.44
264.442	4.55
264.816	4.24
265.19	4.21
265.564	4.43
265.938	4.42
266.313	4.34
266.687	4.37
267.061	4.27
267.435	4.38
267.809	4.46
268.183	4.42
268.556	4.65
268.93	4.66
269.304	4.72
269.678	4.83
270.051	4.87
270.425	5.08
270.799	5.04
271.172	5.06
271.546	5.24
271.919	5.18
272.293	5.03
272.666	5.18
273.04	5.1
273.413	5.04
273.787	5.01
274.16	5.09
274.533	5.22
274.906	5.22
275.279	5.24
275.653	5.31
276.026	5.3
276.399	5.11
276.772	5.13
277.145	5.08
277.518	4.98
277.891	4.91
278.263	4.83
278.636	4.76
279.009	4.59
279.382	4.69
279.755	4.7
280.127	4.95
280.5	4.98
280.872	4.97
281.245	4.87
281.617	4.92
281.99	5.04
282.362	4.95
282.735	4.86
283.107	4.8
283.479	4.86
283.852	4.79
284.224	4.87
284.596	4.79
284.968	4.74
285.34	4.82
285.713	4.81
286.085	4.86
286.457	4.94
286.829	5.04
287.201	5
287.572	5
287.944	4.91
288.316	4.94
288.688	4.96
289.06	5.01
289.431	5.09
289.803	5.08
290.175	5.27
290.546	5.36
290.918	5.38
291.289	5.35
291.661	5.45
292.032	5.67
292.403	5.72
292.775	5.89
293.146	5.89
293.517	5.93
293.889	5.95
294.26	5.97
294.631	6
295.002	5.99
295.373	5.98
295.744	5.96
296.115	6.01
296.486	5.87
296.857	6.05
297.228	6.11
297.599	6
297.97	5.93
298.34	6
298.711	6.17
299.082	6.22
299.452	6.24
299.823	6.18
300.194	6.3
300.564	6.26
300.935	6.34
301.305	6.3
301.676	6.3
302.046	6.48
302.416	6.63
302.787	6.76
303.157	6.83
303.527	6.99
303.897	7.01
304.267	7.36
304.637	7.38
305.008	7.43
305.378	7.76
305.748	7.85
306.117	7.84
306.487	7.9
306.857	7.99
307.227	8.07
307.597	8.23
307.967	8.3
308.336	8.45
308.706	8.48
309.076	8.72
309.445	8.79
309.815	8.73
310.184	8.7
310.554	8.71
310.923	8.83
311.293	8.87
311.662	8.86
312.031	8.85
312.401	8.92
312.77	8.99
313.139	8.91
313.508	9.02
313.877	9.28
314.246	9.24
314.616	9.27
314.985	9.25
315.353	9.17
315.722	9.4
316.091	9.47
316.46	9.44
316.829	9.46
317.198	9.62
317.567	9.76
317.935	9.92
318.304	10.02
318.672	10.09
319.041	10.19
319.41	10.32
319.778	10.36
320.147	10.33
320.515	10.3
320.883	10.33
321.252	10.38
321.62	10.26
321.988	10.32
322.357	10.43
322.725	10.69
323.093	10.73
323.461	10.72
323.829	10.73
324.197	11.03
324.565	11.08
324.933	11.26
325.301	11.28
325.669	11.26
326.037	11.26
326.405	11.39
326.772	11.39
327.14	11.48
327.508	11.49
327.875	11.42
328.243	11.64
328.61	11.84
328.978	11.88
329.346	12.02
329.713	12.08
330.08	12.2
330.448	12.11
330.815	12.16
331.182	12.23
331.55	12.26
331.917	12.24
332.284	12.25
332.651	12.21
333.018	12.34
333.385	12.38
333.752	12.55
334.119	12.53
334.486	12.73
334.853	12.77
335.22	12.9
335.587	13.04
335.954	13.06
336.32	13.01
336.687	12.99
337.054	13.01
337.42	13.12
337.787	13.15
338.153	13.2
338.52	13.44
338.886	13.39
339.253	13.45
339.619	13.47
339.986	13.45
340.352	13.5
340.718	13.46
341.084	13.43
341.451	13.58
341.817	13.65
342.183	13.66
342.549	13.67
342.915	13.88
343.281	13.97
343.647	13.96
344.013	14.05
344.379	14.07
344.745	14.2
345.11	14.2
345.476	14.29
345.842	14.34
346.208	14.19
346.573	14.23
346.939	14.29
347.304	14.3
347.67	14.37
348.035	14.33
348.401	14.36
348.766	14.5
349.132	14.45
349.497	14.49
349.862	14.44
350.228	14.53
350.593	14.35
350.958	14.31
351.323	14.28
351.688	14.24
352.053	14.35
352.418	14.37
352.783	14.34
353.148	14.19
353.513	14.25
353.878	14.25
354.243	14.22
354.608	14.14
354.972	14.22
355.337	14.17
355.702	14.21
356.066	14.23
356.431	14.14
356.795	14.07
357.16	14.04
357.524	14.03
357.889	14.02
358.253	14.13
358.618	14.18
358.982	14.19
359.346	14.18
359.71	14.12
360.075	14.07
360.439	14.09
360.803	14.08
361.167	13.96
361.531	13.99
361.895	13.95
362.259	13.97
362.623	13.95
362.987	14.03
363.351	14.06
363.714	14.05
364.078	14.13
364.442	14.06
364.806	13.97
365.169	13.95
365.533	13.9
365.896	13.73
366.26	13.66
366.623	13.63
366.987	13.63
367.35	13.63
367.714	13.59
368.077	13.53
368.44	13.55
368.803	13.57
369.167	13.51
369.53	13.46
369.893	13.42
370.256	13.31
370.619	13.16
370.982	13.04
371.345	13
371.708	12.84
372.071	12.82
372.434	12.8
372.797	12.75
373.159	12.65
373.522	12.68
373.885	12.59
374.247	12.55
374.61	12.47
374.973	12.43
375.335	12.35
375.698	12.28
376.06	12.21
376.423	12.16
376.785	12.11
377.147	12.11
377.51	12.05
377.872	12.05
378.234	12.04
378.596	12.02
378.958	11.94
379.321	11.9
379.683	11.88
380.045	11.84
380.407	11.78
380.769	11.72
381.13	11.64
381.492	11.64
381.854	11.6
382.216	11.55
382.578	11.5
382.939	11.44
383.301	11.42
383.663	11.35
384.024	11.33
384.386	11.31
384.747	11.27
385.109	11.24
385.47	11.14
385.832	11.03
386.193	10.99
386.554	10.95
386.916	10.88
387.277	10.85
387.638	10.85
387.999	10.79
388.36	10.76
388.721	10.73
389.082	10.66
389.443	10.55
389.804	10.52
390.165	10.47
390.526	10.42
390.887	10.37
391.248	10.37
391.609	10.34
391.969	10.31
392.33	10.23
392.691	10.16
393.051	10.15
393.412	10.17
393.772	10.08
394.133	10.02
394.493	10.01
394.854	9.93
395.214	9.84
395.574	9.83
395.935	9.76
396.295	9.71
396.655	9.66
397.015	9.65
397.376	9.57
397.736	9.5
398.096	9.44
398.456	9.38
398.816	9.3
399.176	9.2
399.535	9.14
399.895	9.09
400.255	9.05
400.615	8.98
400.975	8.9
401.334	8.89
401.694	8.86
402.054	8.8
402.413	8.8
402.773	8.77
403.132	8.72
403.492	8.72
403.851	8.68
404.211	8.67
404.57	8.61
404.929	8.62
405.288	8.58
405.648	8.58
406.007	8.54
406.366	8.48
406.725	8.49
407.084	8.46
407.443	8.47
407.802	8.45
408.161	8.43
408.52	8.42
408.879	8.42
409.238	8.4
409.596	8.37
409.955	8.33
410.314	8.31
410.673	8.29
411.031	8.24
411.39	8.2
411.748	8.16
412.107	8.13
412.465	8.08
412.824	8.07
413.182	8
413.54	7.99
413.899	7.99
414.257	7.94
414.615	7.87
414.974	7.79
415.332	7.76
415.69	7.72
416.048	7.65
416.406	7.6
416.764	7.56
417.122	7.53
417.48	7.47
417.838	7.44
418.195	7.4
418.553	7.38
418.911	7.35
419.269	7.32
419.626	7.3
419.984	7.26
420.342	7.22
420.699	7.19
421.057	7.17
421.414	7.14
421.772	7.12
422.129	7.1
422.486	7.08
422.844	7.04
423.201	7.03
423.558	7.04
423.915	7
424.273	6.97
424.63	6.95
424.987	6.94
425.344	6.91
425.701	6.88
426.058	6.87
426.415	6.86
426.772	6.85
427.128	6.81
427.485	6.81
427.842	6.81
428.199	6.81
428.555	6.79
428.912	6.77
429.269	6.75
429.625	6.74
429.982	6.74
430.338	6.75
430.695	6.72
431.051	6.7
431.407	6.69
431.764	6.68
432.12	6.66
432.476	6.65
432.832	6.66
433.189	6.67
433.545	6.65
433.901	6.63
434.257	6.61
434.613	6.65
434.969	6.65
435.325	6.65
435.681	6.64
436.036	6.63
436.392	6.62
436.748	6.61
437.104	6.63
437.459	6.6
437.815	6.59
438.171	6.58
438.526	6.6
438.882	6.6
439.237	6.59
439.593	6.59
439.948	6.57
440.304	6.56
440.659	6.54
441.014	6.54
441.369	6.53
441.725	6.53
442.08	6.51
442.435	6.5
442.79	6.46
443.145	6.44
443.5	6.41
443.855	6.4
444.21	6.38
444.565	6.36
444.92	6.37
445.275	6.34
445.629	6.32
445.984	6.3
446.339	6.26
446.693	6.25
447.048	6.22
447.403	6.22
447.757	6.19
448.112	6.17
448.466	6.15
448.82	6.14
449.175	6.13
449.529	6.11
449.883	6.07
450.238	6.08
450.592	6.08
450.946	6.08
451.3	6.07
451.654	6.06
452.008	6.03
452.362	6
452.716	5.99
453.07	5.99
453.424	5.99
453.778	6.03
454.132	6.02
454.486	6.03
454.839	6.05
455.193	6.05
455.547	6.06
455.9	6.07
456.254	6.06
456.607	6.07
456.961	6.06
457.314	6.08
457.668	6.07
458.021	6.08
458.375	6.08
458.728	6.08
459.081	6.09
459.434	6.11
459.787	6.12
460.141	6.13
460.494	6.15
460.847	6.13
461.2	6.14
461.553	6.16
461.906	6.18
462.259	6.19
462.611	6.2
462.964	6.22
463.317	6.24
463.67	6.25
464.022	6.26
464.375	6.28
464.728	6.3
465.08	6.33
465.433	6.35
465.785	6.37
466.138	6.39
466.49	6.4
466.843	6.39
467.195	6.42
467.547	6.47
467.899	6.47
468.252	6.5
468.604	6.51
468.956	6.49
469.308	6.51
469.66	6.51
470.012	6.54
470.364	6.53
470.716	6.53
471.068	6.54
471.42	6.55
471.772	6.55
472.123	6.55
472.475	6.53
472.827	6.53
473.178	6.56
473.53	6.56
473.882	6.57
474.233	6.59
474.585	6.59
474.936	6.56
475.288	6.56
475.639	6.58
475.99	6.56
476.342	6.57
476.693	6.52
477.044	6.52
477.395	6.5
477.746	6.5
478.097	6.49
478.448	6.46
478.8	6.46
479.15	6.47
479.501	6.47
479.852	6.46
480.203	6.46
480.554	6.44
480.905	6.45
481.255	6.45
481.606	6.47
481.957	6.49
482.307	6.48
482.658	6.47
483.009	6.48
483.359	6.48
483.709	6.48
484.06	6.5
484.41	6.51
484.761	6.51
485.111	6.51
485.461	6.52
485.811	6.54
486.162	6.55
486.512	6.56
486.862	6.57
487.212	6.59
487.562	6.61
487.912	6.63
488.262	6.64
488.612	6.64
488.961	6.64
489.311	6.63
489.661	6.65
490.011	6.68
490.36	6.68
490.71	6.7
491.06	6.73
491.409	6.74
491.759	6.76
492.108	6.78
492.458	6.82
492.807	6.84
493.157	6.86
493.506	6.89
493.855	6.91
494.204	6.94
494.554	6.96
494.903	6.97
495.252	7.01
495.601	7.05
495.95	7.09
496.299	7.14
496.648	7.19
496.997	7.25
497.346	7.31
497.695	7.37
498.043	7.42
498.392	7.47
498.741	7.52
499.09	7.56
499.438	7.63
499.787	7.67
500.135	7.73
500.484	7.79
500.832	7.83
501.181	7.89
501.529	7.95
501.878	8.01
502.226	8.1
502.574	8.17
502.923	8.23
503.271	8.31
503.619	8.4
503.967	8.46
504.315	8.52
504.663	8.56
505.011	8.62
505.359	8.69
505.707	8.77
506.055	8.84
506.403	8.93
506.751	8.98
507.098	9.05
507.446	9.12
507.794	9.2
508.141	9.27
508.489	9.35
508.837	9.41
509.184	9.49
509.531	9.55
509.879	9.62
510.226	9.71
510.574	9.76
510.921	9.82
511.268	9.89
511.616	9.96
511.963	10.04
512.31	10.12
512.657	10.23
513.004	10.3
513.351	10.42
513.698	10.49
514.045	10.57
514.392	10.67
514.739	10.78
515.086	10.89
515.432	10.98
515.779	11.06
516.126	11.16
516.473	11.27
516.819	11.35
517.166	11.45
517.512	11.52
517.859	11.62
518.205	11.73
518.552	11.85
518.898	11.95
519.245	12.05
519.591	12.12
519.937	12.18
520.283	12.29
520.629	12.38
520.976	12.5
521.322	12.64
521.668	12.75
522.014	12.87
522.36	13.01
522.706	13.14
523.052	13.32
523.398	13.47
523.743	13.64
524.089	13.8
524.435	13.96
524.781	14.13
525.126	14.3
525.472	14.44
525.817	14.57
526.163	14.7
526.509	14.84
526.854	14.97
527.199	15.08
527.545	15.18
527.89	15.29
528.235	15.4
528.581	15.51
528.926	15.65
529.271	15.75
529.616	15.87
529.961	16.01
530.306	16.14
530.651	16.28
530.996	16.43
531.341	16.58
531.686	16.75
532.031	16.9
532.376	17.06
532.721	17.22
533.065	17.41
533.41	17.59
533.755	17.76
534.099	17.96
534.444	18.18
534.788	18.38
535.133	18.6
535.477	18.81
535.822	19.04
536.166	19.28
536.51	19.58
536.855	19.83
537.199	20.12
537.543	20.4
537.887	20.71
538.231	20.99
538.576	21.3
538.92	21.57
539.264	21.88
539.608	22.18
539.951	22.43
540.295	22.65
540.639	22.9
540.983	23.13
541.327	23.37
541.671	23.59
542.014	23.85
542.358	24.08
542.701	24.3
543.045	24.55
543.389	24.77
543.732	24.98
544.075	25.27
544.419	25.51
544.762	25.8
545.105	26.07
545.449	26.4
545.792	26.69
546.135	27.01
546.478	27.31
546.821	27.62
547.165	28
547.508	28.37
547.851	28.74
548.194	29.12
548.536	29.48
548.879	29.85
549.222	30.19
549.565	30.54
549.908	30.93
550.25	31.3
550.593	31.7
550.936	32.07
551.278	32.43
551.621	32.82
551.963	33.18
552.306	33.52
552.648	33.88
552.991	34.28
553.333	34.66
553.675	35.05
554.017	35.35
554.36	35.68
554.702	36
555.044	36.31
555.386	36.61
555.728	36.95
556.07	37.31
556.412	37.66
556.754	38
557.096	38.35
557.438	38.65
557.78	38.98
558.121	39.31
558.463	39.6
558.805	39.91
559.147	40.26
559.488	40.58
559.83	40.83
560.171	41.07
560.513	41.34
560.854	41.63
561.196	42
561.537	42.3
561.878	42.56
562.22	42.87
562.561	43.16
562.902	43.43
563.243	43.7
563.584	43.94
563.925	44.22
564.266	44.38
564.607	44.61
564.948	44.82
565.289	45.1
565.63	45.33
565.971	45.53
566.312	45.71
566.653	45.93
566.993	46.14
567.334	46.36
567.675	46.56
568.015	46.76
568.356	46.94
568.696	47.2
569.037	47.46
569.377	47.7
569.718	47.92
570.058	48.11
570.398	48.29
570.739	48.45
571.079	48.62
571.419	48.91
571.759	49.14
572.099	49.34
572.439	49.55
572.779	49.69
573.119	49.89
573.459	50.09
573.799	50.3
574.139	50.49
574.479	50.61
574.819	50.78
575.158	50.9
575.498	51.03
575.838	51.13
576.177	51.32
576.517	51.4
576.856	51.53
577.196	51.7
577.535	51.85
577.875	52.05
578.214	52.26
578.553	52.32
578.893	52.44
579.232	52.57
579.571	52.67
579.91	52.85
580.25	52.96
580.589	53.06
580.928	53.17
581.267	53.27
581.606	53.48
581.945	53.59
582.283	53.69
582.622	53.86
582.961	53.93
583.3	54.01
583.639	54.11
583.977	54.24
584.316	54.32
584.654	54.44
584.993	54.56
585.332	54.69
585.67	54.84
586.008	54.92
586.347	54.99
586.685	55.05
587.024	55.19
587.362	55.3
587.7	55.37
588.038	55.53
588.376	55.64
588.715	55.67
589.053	55.85
589.391	55.91
589.729	55.99
590.067	56.09
590.404	56.15
590.742	56.27
591.08	56.39
591.418	56.55
591.756	56.65
592.093	56.68
592.431	56.66
592.769	56.76
593.106	56.85
593.444	57
593.781	57.05
594.119	57.2
594.456	57.26
594.793	57.42
595.131	57.34
595.468	57.4
595.805	57.53
596.143	57.5
596.48	57.65
596.817	57.64
597.154	57.67
597.491	57.69
597.828	57.69
598.165	57.72
598.502	57.68
598.839	57.64
599.176	57.65
599.512	57.75
599.849	57.83
600.186	57.89
600.523	57.94
600.859	58.04
601.196	58.02
601.532	58.06
601.869	58.13
602.205	58.22
602.542	58.24
602.878	58.24
603.215	58.34
603.551	58.33
603.887	58.4
604.223	58.5
604.56	58.54
604.896	58.61
605.232	58.67
605.568	58.74
605.904	58.85
606.24	58.93
606.576	58.93
606.912	58.91
607.248	58.96
607.583	58.98
607.919	58.98
608.255	59.05
608.591	59.07
608.926	59.06
609.262	59.09
609.597	59.19
609.933	59.24
610.268	59.21
610.604	59.31
610.939	59.42
611.275	59.36
611.61	59.44
611.945	59.51
612.281	59.53
612.616	59.61
612.951	59.65
613.286	59.63
613.621	59.75
613.956	59.9
614.291	59.95
614.626	59.96
614.961	60.03
615.296	59.99
615.631	59.99
615.966	60
616.3	60.02
616.635	60.1
616.97	60.17
617.304	60.26
617.639	60.29
617.973	60.18
618.308	60.31
618.642	60.27
618.977	60.3
619.311	60.35
619.646	60.33
619.98	60.33
620.314	60.5
620.648	60.47
620.983	60.48
621.317	60.56
621.651	60.66
621.985	60.79
622.319	60.92
622.653	60.94
622.987	61
623.321	60.96
623.655	60.91
623.988	60.99
624.322	60.99
624.656	61.04
624.99	61.08
625.323	61.14
625.657	61.13
625.99	61.18
626.324	61.15
626.657	61.22
626.991	61.29
627.324	61.26
627.658	61.33
627.991	61.33
628.324	61.33
628.657	61.26
628.991	61.21
629.324	61.19
629.657	61.34
629.99	61.33
630.323	61.51
630.656	61.58
630.989	61.45
631.322	61.47
631.655	61.51
631.987	61.58
632.32	61.55
632.653	61.57
632.986	61.58
633.318	61.61
633.651	61.63
633.984	61.61
634.316	61.68
634.649	61.67
634.981	61.73
635.313	61.71
635.646	61.75
635.978	61.7
636.31	61.65
636.643	61.57
636.975	61.65
637.307	61.66
637.639	61.67
637.971	61.78
638.303	61.9
638.635	61.84
638.967	61.93
639.299	61.91
639.631	62.02
639.963	61.98
640.295	61.97
640.626	61.94
640.958	61.96
641.29	61.91
641.621	61.84
641.953	61.87
642.285	61.94
642.616	62.04
642.948	62.08
643.279	62.05
643.61	61.98
643.942	61.99
644.273	61.98
644.604	61.95
644.936	61.91
645.267	61.79
645.598	61.88
645.929	61.8
646.26	61.97
646.591	61.97
646.922	62.06
647.253	62.09
647.584	62.12
647.915	62.22
648.245	62.28
648.576	62.4
648.907	62.34
649.238	62.34
649.568	62.3
649.899	62.31
650.229	62.46
650.56	62.56
650.89	62.52
651.221	62.5
651.551	62.53
651.882	62.51
652.212	62.57
652.542	62.46
652.872	62.42
653.203	62.32
653.533	62.39
653.863	62.34
654.193	62.43
654.523	62.44
654.853	62.36
655.183	62.41
655.513	62.31
655.843	62.33
656.172	62.46
656.502	62.44
656.832	62.53
657.162	62.46
657.491	62.44
657.821	62.51
658.15	62.5
658.48	62.49
658.809	62.57
659.139	62.51
659.468	62.48
659.798	62.62
660.127	62.63
660.456	62.52
660.785	62.52
661.115	62.46
661.444	62.37
661.773	62.44
662.102	62.4
662.431	62.43
662.76	62.39
663.089	62.31
