Data from BA58010_Reflection_00013.txt Node
Date: Mon Nov 18 16:07:19 EST 2019
User: vgr7
Spectrometer: USB2G7710
Scans to average: 3
Trigger mode: 4
Integration Time (sec): 2.000000E-2
Electric dark correction enabled: true
Boxcar width: 10
XAxis mode: Wavelengths
Number of Pixels in Spectrum: 2048
>>>>>Begin Spectral Data<<<<<
177.721	-87.42
178.105	223.89
178.488	325.81
178.871	-48.04
179.254	-1416.13
179.636	-46.76
180.019	-316.97
180.402	-850
180.785	-33.2
181.168	148.32
181.55	128.67
181.933	89.06
182.316	86.43
182.698	73.39
183.081	102.19
183.463	135.99
183.846	184.8
184.228	304.57
184.611	214.38
184.993	299.01
185.376	490.52
185.758	656.27
186.14	214.26
186.522	221.45
186.904	89.05
187.287	139.2
187.669	332.1
188.051	221.25
188.433	151.25
188.815	289.68
189.197	476.98
189.579	1532
189.961	-434.15
190.342	-3377.61
190.724	-199.12
191.106	-275.21
191.488	-113.97
191.869	-44.7
192.251	-36.02
192.633	-9.94
193.014	-76.74
193.396	-288.65
193.777	-2145.9
194.159	5214.29
194.54	2690.36
194.922	-306.08
195.303	-120.18
195.684	-226.81
196.065	-31.91
196.447	-19.9
196.828	-24.71
197.209	41.49
197.59	65.72
197.971	-1012
198.352	112.13
198.733	64.86
199.114	223.21
199.495	2174.63
199.876	-1098.02
200.257	2181.97
200.638	742.55
201.018	985.35
201.399	679.62
201.78	371.03
202.16	334.25
202.541	430.9
202.922	-1236.28
203.302	-276.77
203.683	-9809.09
204.063	9.98
204.444	7.43
204.824	4.81
205.204	6.27
205.585	45.22
205.965	145.67
206.345	42.21
206.725	72.2
207.106	95.46
207.486	121.43
207.866	202.71
208.246	158.9
208.626	147.11
209.006	145.7
209.386	119.72
209.766	118.78
210.145	117.76
210.525	129.37
210.905	158.21
211.285	198.76
211.664	333.88
212.044	389.32
212.424	607.33
212.803	974.35
213.183	-270.01
213.562	-311.09
213.942	-165.57
214.321	-66.57
214.701	-74.93
215.08	-100
215.459	-74.25
215.838	-81.13
216.218	-32.74
216.597	-27.82
216.976	-30.4
217.355	-25.88
217.734	-17.82
218.113	-12.13
218.492	-16.47
218.871	-14.97
219.25	-2.24
219.629	-16.58
220.008	-16.34
220.387	-16.6
220.766	-12.22
221.144	-24.16
221.523	-24.92
221.902	-41.53
222.28	-54.01
222.659	-52.08
223.037	-39.3
223.416	-36.56
223.794	-37.45
224.173	-48.43
224.551	-35.98
224.929	-28.35
225.308	-26.67
225.686	-23.32
226.064	-20.24
226.442	-17.61
226.821	-18.41
227.199	-21.38
227.577	-15.06
227.955	-10.63
228.333	-10.45
228.711	-8.18
229.089	-2.18
229.467	-2.83
229.845	-1.49
230.222	0.22
230.6	-0.85
230.978	0.4
231.356	1.75
231.733	3.01
232.111	5.73
232.488	5.16
232.866	5.92
233.243	5.76
233.621	4.04
233.998	5.85
234.376	5.79
234.753	5.64
235.13	6.78
235.508	7.61
235.885	6.78
236.262	6.47
236.639	6.89
237.016	6.54
237.393	6.91
237.77	7.55
238.147	7.05
238.524	7.28
238.901	7.76
239.278	6.94
239.655	7.41
240.032	6.47
240.409	6.05
240.785	5.53
241.162	5.48
241.539	5.84
241.915	5.37
242.292	5.42
242.668	5.54
243.045	5.51
243.421	5.14
243.798	4.99
244.174	4.97
244.551	4.71
244.927	4.62
245.303	4.74
245.679	4.59
246.056	4.69
246.432	4.6
246.808	4.43
247.184	4.44
247.56	4.38
247.936	4.24
248.312	4.31
248.688	4.55
249.064	4.59
249.44	4.42
249.815	4.44
250.191	4.45
250.567	4.45
250.943	4.27
251.318	4.36
251.694	4.31
252.069	4.29
252.445	4.32
252.82	4.15
253.196	3.75
253.571	3.69
253.947	3.75
254.322	3.79
254.697	3.6
255.073	3.47
255.448	3.17
255.823	3.49
256.198	3.55
256.573	3.14
256.948	3.24
257.323	3.41
257.698	3.46
258.073	3.38
258.448	3.45
258.823	3.36
259.198	3.27
259.573	3.25
259.948	3.36
260.322	3.39
260.697	3.39
261.072	3.55
261.446	3.48
261.821	3.41
262.195	3.42
262.57	3.39
262.944	3.39
263.319	3.4
263.693	3.46
264.067	3.48
264.442	3.7
264.816	3.53
265.19	3.46
265.564	3.41
265.938	3.25
266.313	3.11
266.687	3.25
267.061	3.19
267.435	3.25
267.809	3.05
268.183	3.02
268.556	3.13
268.93	2.98
269.304	3.05
269.678	3.08
270.051	3.03
270.425	2.98
270.799	3.1
271.172	3.22
271.546	2.96
271.919	2.8
272.293	2.66
272.666	2.8
273.04	2.84
273.413	2.84
273.787	3.11
274.16	3.14
274.533	3.11
274.906	3.2
275.279	3.15
275.653	3.34
276.026	3.24
276.399	3.22
276.772	3.38
277.145	3.34
277.518	3.32
277.891	3.38
278.263	3.53
278.636	3.42
279.009	3.29
279.382	3.44
279.755	3.45
280.127	3.59
280.5	3.71
280.872	3.78
281.245	3.77
281.617	3.67
281.99	3.78
282.362	3.82
282.735	3.7
283.107	3.71
283.479	3.53
283.852	3.57
284.224	3.44
284.596	3.39
284.968	3.48
285.34	3.58
285.713	3.57
286.085	3.49
286.457	3.48
286.829	3.55
287.201	3.58
287.572	3.48
287.944	3.49
288.316	3.36
288.688	3.35
289.06	3.4
289.431	3.48
289.803	3.32
290.175	3.38
290.546	3.54
290.918	3.56
291.289	3.68
291.661	3.8
292.032	3.99
292.403	3.99
292.775	4.02
293.146	3.93
293.517	3.99
293.889	4.21
294.26	4.22
294.631	4.29
295.002	4.21
295.373	4.32
295.744	4.31
296.115	4.41
296.486	4.33
296.857	4.22
297.228	4.19
297.599	4.19
297.97	4.07
298.34	4.08
298.711	4.16
299.082	4.2
299.452	4.1
299.823	4.16
300.194	4.24
300.564	4.28
300.935	4.31
301.305	4.36
301.676	4.33
302.046	4.39
302.416	4.44
302.787	4.53
303.157	4.6
303.527	4.66
303.897	4.58
304.267	4.7
304.637	4.95
305.008	5.05
305.378	5.36
305.748	5.4
306.117	5.37
306.487	5.35
306.857	5.24
307.227	5.38
307.597	5.35
307.967	5.38
308.336	5.52
308.706	5.68
309.076	5.7
309.445	5.69
309.815	5.67
310.184	5.62
310.554	5.83
310.923	5.87
311.293	5.93
311.662	5.97
312.031	5.99
312.401	5.92
312.77	5.94
313.139	6
313.508	6.16
313.877	6.32
314.246	6.5
314.616	6.58
314.985	6.72
315.353	6.9
315.722	7.02
316.091	7.1
316.46	7.1
316.829	7.25
317.198	7.44
317.567	7.51
317.935	7.61
318.304	7.43
318.672	7.61
319.041	7.7
319.41	7.94
319.778	7.86
320.147	7.92
320.515	7.91
320.883	7.9
321.252	8.09
321.62	8.08
321.988	8
322.357	8.23
322.725	8.27
323.093	8.33
323.461	8.4
323.829	8.41
324.197	8.38
324.565	8.42
324.933	8.46
325.301	8.59
325.669	8.77
326.037	8.93
326.405	8.97
326.772	9.12
327.14	9.18
327.508	9.35
327.875	9.38
328.243	9.51
328.61	9.56
328.978	9.49
329.346	9.56
329.713	9.56
330.08	9.56
330.448	9.52
330.815	9.44
331.182	9.52
331.55	9.51
331.917	9.59
332.284	9.69
332.651	9.63
333.018	9.7
333.385	9.66
333.752	9.68
334.119	9.81
334.486	9.78
334.853	9.78
335.22	9.92
335.587	10.09
335.954	10.18
336.32	10.18
336.687	10.33
337.054	10.36
337.42	10.58
337.787	10.59
338.153	10.76
338.52	10.86
338.886	10.79
339.253	10.76
339.619	10.93
339.986	11
340.352	11.25
340.718	11.45
341.084	11.48
341.451	11.67
341.817	11.68
342.183	11.68
342.549	11.71
342.915	11.65
343.281	11.65
343.647	11.55
344.013	11.7
344.379	11.58
344.745	11.71
345.11	11.68
345.476	11.7
345.842	11.61
346.208	11.62
346.573	11.72
346.939	11.82
347.304	11.75
347.67	11.62
348.035	11.45
348.401	11.39
348.766	11.51
349.132	11.57
349.497	11.46
349.862	11.56
350.228	11.62
350.593	11.71
350.958	11.78
351.323	11.85
351.688	11.79
352.053	11.89
352.418	11.92
352.783	11.89
353.148	11.88
353.513	11.98
353.878	12.04
354.243	11.98
354.608	11.95
354.972	11.95
355.337	12.02
355.702	12.15
356.066	12.13
356.431	12.01
356.795	11.95
357.16	12
357.524	11.86
357.889	11.79
358.253	11.76
358.618	11.72
358.982	11.7
359.346	11.62
359.71	11.57
360.075	11.51
360.439	11.48
360.803	11.49
361.167	11.44
361.531	11.38
361.895	11.33
362.259	11.27
362.623	11.23
362.987	11.19
363.351	11.09
363.714	11
364.078	10.94
364.442	10.84
364.806	10.82
365.169	10.89
365.533	10.88
365.896	10.85
366.26	10.75
366.623	10.67
366.987	10.57
367.35	10.51
367.714	10.47
368.077	10.38
368.44	10.3
368.803	10.17
369.167	10.09
369.53	10.02
369.893	10.08
370.256	10.08
370.619	10
370.982	9.95
371.345	9.93
371.708	9.94
372.071	9.9
372.434	9.76
372.797	9.62
373.159	9.48
373.522	9.43
373.885	9.37
374.247	9.35
374.61	9.4
374.973	9.32
375.335	9.25
375.698	9.21
376.06	9.13
376.423	9.11
376.785	9.07
377.147	9.06
377.51	8.94
377.872	8.95
378.234	8.88
378.596	8.76
378.958	8.67
379.321	8.57
379.683	8.46
380.045	8.44
380.407	8.38
380.769	8.32
381.13	8.29
381.492	8.2
381.854	8.14
382.216	8.05
382.578	7.97
382.939	7.89
383.301	7.83
383.663	7.78
384.024	7.7
384.386	7.66
384.747	7.62
385.109	7.55
385.47	7.39
385.832	7.3
386.193	7.27
386.554	7.21
386.916	7.17
387.277	7.15
387.638	7.11
387.999	7.01
388.36	6.96
388.721	6.85
389.082	6.83
389.443	6.75
389.804	6.67
390.165	6.66
390.526	6.62
390.887	6.57
391.248	6.57
391.609	6.53
391.969	6.44
392.33	6.37
392.691	6.35
393.051	6.31
393.412	6.29
393.772	6.24
394.133	6.2
394.493	6.14
394.854	6.06
395.214	6.01
395.574	5.97
395.935	5.97
396.295	5.94
396.655	5.86
397.015	5.83
397.376	5.77
397.736	5.74
398.096	5.67
398.456	5.64
398.816	5.54
399.176	5.45
399.535	5.42
399.895	5.38
400.255	5.34
400.615	5.29
400.975	5.25
401.334	5.22
401.694	5.21
402.054	5.16
402.413	5.13
402.773	5.08
403.132	5.05
403.492	5.01
403.851	4.95
404.211	4.94
404.57	4.88
404.929	4.86
405.288	4.81
405.648	4.76
406.007	4.72
406.366	4.69
406.725	4.72
407.084	4.71
407.443	4.66
407.802	4.63
408.161	4.59
408.52	4.56
408.879	4.52
409.238	4.49
409.596	4.47
409.955	4.49
410.314	4.47
410.673	4.44
411.031	4.39
411.39	4.37
411.748	4.36
412.107	4.33
412.465	4.3
412.824	4.26
413.182	4.23
413.54	4.21
413.899	4.22
414.257	4.17
414.615	4.13
414.974	4.1
415.332	4.05
415.69	4.04
416.048	4
416.406	3.99
416.764	3.97
417.122	3.95
417.48	3.87
417.838	3.85
418.195	3.84
418.553	3.82
418.911	3.81
419.269	3.79
419.626	3.77
419.984	3.76
420.342	3.76
420.699	3.74
421.057	3.71
421.414	3.68
421.772	3.67
422.129	3.65
422.486	3.64
422.844	3.63
423.201	3.61
423.558	3.6
423.915	3.57
424.273	3.56
424.63	3.54
424.987	3.53
425.344	3.53
425.701	3.51
426.058	3.51
426.415	3.51
426.772	3.5
427.128	3.48
427.485	3.46
427.842	3.44
428.199	3.46
428.555	3.45
428.912	3.46
429.269	3.44
429.625	3.44
429.982	3.42
430.338	3.44
430.695	3.43
431.051	3.41
431.407	3.43
431.764	3.41
432.12	3.43
432.476	3.43
432.832	3.41
433.189	3.42
433.545	3.4
433.901	3.38
434.257	3.37
434.613	3.39
434.969	3.39
435.325	3.37
435.681	3.36
436.036	3.36
436.392	3.35
436.748	3.34
437.104	3.34
437.459	3.33
437.815	3.32
438.171	3.35
438.526	3.36
438.882	3.34
439.237	3.34
439.593	3.34
439.948	3.32
440.304	3.32
440.659	3.3
441.014	3.31
441.369	3.29
441.725	3.27
442.08	3.27
442.435	3.26
442.79	3.25
443.145	3.22
443.5	3.2
443.855	3.2
444.21	3.18
444.565	3.18
444.92	3.2
445.275	3.16
445.629	3.13
445.984	3.12
446.339	3.12
446.693	3.09
447.048	3.07
447.403	3.08
447.757	3.06
448.112	3.05
448.466	3.01
448.82	3.01
449.175	3
449.529	3
449.883	2.97
450.238	2.98
450.592	3
450.946	2.98
451.3	2.96
451.654	2.96
452.008	2.93
452.362	2.9
452.716	2.91
453.07	2.91
453.424	2.91
453.778	2.9
454.132	2.91
454.486	2.9
454.839	2.89
455.193	2.89
455.547	2.9
455.9	2.93
456.254	2.94
456.607	2.95
456.961	2.94
457.314	2.96
457.668	2.96
458.021	2.94
458.375	2.95
458.728	2.96
459.081	2.98
459.434	2.98
459.787	3
460.141	3
460.494	3.02
460.847	3.01
461.2	3.01
461.553	3.02
461.906	3.02
462.259	3.02
462.611	3.05
462.964	3.06
463.317	3.06
463.67	3.07
464.022	3.07
464.375	3.07
464.728	3.08
465.08	3.08
465.433	3.12
465.785	3.14
466.138	3.14
466.49	3.15
466.843	3.18
467.195	3.15
467.547	3.19
467.899	3.17
468.252	3.16
468.604	3.2
468.956	3.21
469.308	3.22
469.66	3.23
470.012	3.23
470.364	3.25
470.716	3.26
471.068	3.25
471.42	3.27
471.772	3.28
472.123	3.29
472.475	3.3
472.827	3.3
473.178	3.32
473.53	3.32
473.882	3.31
474.233	3.32
474.585	3.34
474.936	3.31
475.288	3.33
475.639	3.36
475.99	3.34
476.342	3.34
476.693	3.33
477.044	3.33
477.395	3.32
477.746	3.29
478.097	3.28
478.448	3.27
478.8	3.26
479.15	3.23
479.501	3.22
479.852	3.2
480.203	3.19
480.554	3.19
480.905	3.21
481.255	3.2
481.606	3.2
481.957	3.2
482.307	3.2
482.658	3.19
483.009	3.2
483.359	3.2
483.709	3.21
484.06	3.21
484.41	3.22
484.761	3.22
485.111	3.22
485.461	3.23
485.811	3.24
486.162	3.24
486.512	3.26
486.862	3.27
487.212	3.28
487.562	3.29
487.912	3.29
488.262	3.29
488.612	3.3
488.961	3.32
489.311	3.32
489.661	3.34
490.011	3.35
490.36	3.35
490.71	3.36
491.06	3.38
491.409	3.39
491.759	3.41
492.108	3.42
492.458	3.44
492.807	3.46
493.157	3.47
493.506	3.49
493.855	3.52
494.204	3.54
494.554	3.57
494.903	3.57
495.252	3.6
495.601	3.65
495.95	3.67
496.299	3.68
496.648	3.71
496.997	3.74
497.346	3.8
497.695	3.85
498.043	3.87
498.392	3.89
498.741	3.92
499.09	3.94
499.438	3.97
499.787	4
500.135	4.06
500.484	4.11
500.832	4.16
501.181	4.19
501.529	4.23
501.878	4.3
502.226	4.35
502.574	4.4
502.923	4.43
503.271	4.47
503.619	4.56
503.967	4.6
504.315	4.65
504.663	4.71
505.011	4.77
505.359	4.83
505.707	4.9
506.055	4.96
506.403	5.06
506.751	5.12
507.098	5.18
507.446	5.24
507.794	5.3
508.141	5.34
508.489	5.41
508.837	5.48
509.184	5.54
509.531	5.62
509.879	5.7
510.226	5.78
510.574	5.86
510.921	5.93
511.268	6.01
511.616	6.09
511.963	6.17
512.31	6.23
512.657	6.32
513.004	6.39
513.351	6.47
513.698	6.53
514.045	6.63
514.392	6.74
514.739	6.83
515.086	6.93
515.432	7.04
515.779	7.13
516.126	7.25
516.473	7.36
516.819	7.44
517.166	7.49
517.512	7.57
517.859	7.67
518.205	7.73
518.552	7.82
518.898	7.92
519.245	7.99
519.591	8.09
519.937	8.19
520.283	8.3
520.629	8.41
520.976	8.54
521.322	8.67
521.668	8.79
522.014	8.92
522.36	9.07
522.706	9.2
523.052	9.37
523.398	9.52
523.743	9.69
524.089	9.87
524.435	10.06
524.781	10.24
525.126	10.41
525.472	10.58
525.817	10.71
526.163	10.85
526.509	11.01
526.854	11.12
527.199	11.23
527.545	11.35
527.89	11.48
528.235	11.6
528.581	11.73
528.926	11.87
529.271	12
529.616	12.13
529.961	12.28
530.306	12.43
530.651	12.59
530.996	12.75
531.341	12.91
531.686	13.09
532.031	13.28
532.376	13.46
532.721	13.67
533.065	13.88
533.41	14.09
533.755	14.28
534.099	14.55
534.444	14.79
534.788	15.03
535.133	15.26
535.477	15.5
535.822	15.74
536.166	15.99
536.51	16.3
536.855	16.62
537.199	16.93
537.543	17.25
537.887	17.57
538.231	17.88
538.576	18.24
538.92	18.55
539.264	18.86
539.608	19.17
539.951	19.43
540.295	19.73
540.639	20
540.983	20.26
541.327	20.5
541.671	20.75
542.014	21
542.358	21.26
542.701	21.51
543.045	21.81
543.389	22.1
543.732	22.36
544.075	22.64
544.419	22.92
544.762	23.22
545.105	23.53
545.449	23.88
545.792	24.21
546.135	24.6
546.478	24.94
546.821	25.31
547.165	25.71
547.508	26.1
547.851	26.48
548.194	26.88
548.536	27.27
548.879	27.71
549.222	28.11
549.565	28.5
549.908	28.9
550.25	29.28
550.593	29.7
550.936	30.11
551.278	30.52
551.621	30.96
551.963	31.32
552.306	31.73
552.648	32.1
552.991	32.52
553.333	32.83
553.675	33.2
554.017	33.56
554.36	33.9
554.702	34.29
555.044	34.63
555.386	34.98
555.728	35.33
556.07	35.65
556.412	35.99
556.754	36.36
557.096	36.7
557.438	37.03
557.78	37.32
558.121	37.63
558.463	37.99
558.805	38.28
559.147	38.63
559.488	38.97
559.83	39.32
560.171	39.64
560.513	39.96
560.854	40.27
561.196	40.61
561.537	40.92
561.878	41.16
562.22	41.47
562.561	41.74
562.902	42.04
563.243	42.35
563.584	42.61
563.925	42.89
564.266	43.17
564.607	43.43
564.948	43.73
565.289	43.99
565.63	44.26
565.971	44.49
566.312	44.79
566.653	45.03
566.993	45.17
567.334	45.36
567.675	45.65
568.015	45.91
568.356	46.12
568.696	46.41
569.037	46.63
569.377	46.9
569.718	47.17
570.058	47.43
570.398	47.58
570.739	47.84
571.079	48.05
571.419	48.3
571.759	48.53
572.099	48.72
572.439	48.94
572.779	49.08
573.119	49.28
573.459	49.37
573.799	49.55
574.139	49.82
574.479	49.95
574.819	50.09
575.158	50.27
575.498	50.47
575.838	50.57
576.177	50.78
576.517	50.92
576.856	51.04
577.196	51.21
577.535	51.44
577.875	51.59
578.214	51.77
578.553	51.86
578.893	51.95
579.232	52.08
579.571	52.24
579.91	52.42
580.25	52.61
580.589	52.84
580.928	52.98
581.267	53.08
581.606	53.31
581.945	53.51
582.283	53.57
582.622	53.72
582.961	53.89
583.3	54.02
583.639	54.15
583.977	54.31
584.316	54.34
584.654	54.51
584.993	54.6
585.332	54.76
585.67	54.9
586.008	55.02
586.347	55.12
586.685	55.19
587.024	55.34
587.362	55.43
587.7	55.52
588.038	55.67
588.376	55.83
588.715	55.83
589.053	55.92
589.391	56.03
589.729	56.11
590.067	56.19
590.404	56.18
590.742	56.31
591.08	56.35
591.418	56.53
591.756	56.52
592.093	56.56
592.431	56.56
592.769	56.63
593.106	56.74
593.444	56.85
593.781	56.88
594.119	56.89
594.456	57.02
594.793	57.07
595.131	57.06
595.468	57.08
595.805	57.22
596.143	57.29
596.48	57.4
596.817	57.46
597.154	57.46
597.491	57.6
597.828	57.59
598.165	57.73
598.502	57.67
598.839	57.74
599.176	57.81
599.512	57.87
599.849	57.92
600.186	57.92
600.523	57.99
600.859	58.07
601.196	58.21
601.532	58.22
601.869	58.2
602.205	58.33
602.542	58.3
602.878	58.31
603.215	58.34
603.551	58.33
603.887	58.37
604.223	58.47
604.56	58.46
604.896	58.55
605.232	58.56
605.568	58.64
605.904	58.65
606.24	58.7
606.576	58.75
606.912	58.78
607.248	58.93
607.583	58.99
607.919	59.03
608.255	59.03
608.591	59.11
608.926	59.21
609.262	59.23
609.597	59.37
609.933	59.4
610.268	59.37
610.604	59.39
610.939	59.43
611.275	59.43
611.61	59.43
611.945	59.42
612.281	59.48
612.616	59.62
612.951	59.72
613.286	59.76
613.621	59.86
613.956	59.93
614.291	59.88
614.626	59.97
614.961	60.08
615.296	60.18
615.631	60.13
615.966	60.23
616.3	60.3
616.635	60.36
616.97	60.49
617.304	60.57
617.639	60.68
617.973	60.59
618.308	60.68
618.642	60.79
618.977	60.85
619.311	60.9
619.646	60.89
619.98	60.92
620.314	61.06
620.648	60.96
620.983	61.02
621.317	61.08
621.651	61.01
621.985	61.13
622.319	61.13
622.653	61.21
622.987	61.18
623.321	61.22
623.655	61.15
623.988	61.15
624.322	61.19
624.656	61.16
624.99	61.21
625.323	61.15
625.657	61.18
625.99	61.2
626.324	61.24
626.657	61.26
626.991	61.3
627.324	61.27
627.658	61.47
627.991	61.53
628.324	61.52
628.657	61.57
628.991	61.47
629.324	61.52
629.657	61.51
629.99	61.51
630.323	61.5
630.656	61.63
630.989	61.57
631.322	61.57
631.655	61.67
631.987	61.8
632.32	61.87
632.653	61.84
632.986	61.98
633.318	61.95
633.651	61.95
633.984	61.92
634.316	61.94
634.649	61.92
634.981	61.95
635.313	61.95
635.646	61.93
635.978	61.93
636.31	61.83
636.643	61.86
636.975	61.91
637.307	61.96
637.639	61.97
637.971	62.04
638.303	62.19
638.635	62.2
638.967	62.11
639.299	62.11
639.631	62.13
639.963	62.03
640.295	62.04
640.626	62.08
640.958	62.17
641.29	62.23
641.621	62.26
641.953	62.27
642.285	62.38
642.616	62.47
642.948	62.63
643.279	62.68
643.61	62.75
643.942	62.81
644.273	62.79
644.604	62.74
644.936	62.73
645.267	62.49
645.598	62.38
645.929	62.54
646.26	62.58
646.591	62.61
646.922	62.54
647.253	62.6
647.584	62.64
647.915	62.58
648.245	62.52
648.576	62.5
648.907	62.51
649.238	62.45
649.568	62.42
649.899	62.41
650.229	62.51
650.56	62.39
650.89	62.22
651.221	62.15
651.551	62.12
651.882	62.07
652.212	62.27
652.542	62.35
652.872	62.28
653.203	62.25
653.533	62.31
653.863	62.39
654.193	62.42
654.523	62.29
654.853	62.37
655.183	62.38
655.513	62.37
655.843	62.35
656.172	62.4
656.502	62.4
656.832	62.36
657.162	62.22
657.491	62.27
657.821	62.4
658.15	62.47
658.48	62.52
658.809	62.57
659.139	62.44
659.468	62.37
659.798	62.32
660.127	62.36
660.456	62.34
660.785	62.31
661.115	62.2
661.444	62.21
661.773	62.29
662.102	62.38
662.431	62.38
662.76	62.33
663.089	62.35
663.418	62.35
663.747	62.44
664.076	62.56
664.404	62.6
664.733	62.58
665.062	62.68
665.39	62.72
