Data from BA58010_Reflection_00007.txt Node
Date: Mon Nov 18 16:06:59 EST 2019
User: vgr7
Spectrometer: USB2G7710
Scans to average: 3
Trigger mode: 4
Integration Time (sec): 2.000000E-2
Electric dark correction enabled: true
Boxcar width: 10
XAxis mode: Wavelengths
Number of Pixels in Spectrum: 2048
>>>>>Begin Spectral Data<<<<<
177.721	26.61
178.105	-174.34
178.488	-46.01
178.871	69.27
179.254	-1900
179.636	-82.59
180.019	-460.89
180.402	-700
180.785	8.55
181.168	3.36
181.55	62.9
181.933	93
182.316	82.49
182.698	50.15
183.081	53.61
183.463	55.4
183.846	56.74
184.228	107.02
184.611	78.27
184.993	139.56
185.376	267.04
185.758	415.11
186.14	83.82
186.522	115.89
186.904	162.34
187.287	221.77
187.669	546.85
188.051	260.86
188.433	219.96
188.815	312.44
189.197	470.2
189.579	1172
189.961	-29.6
190.342	159.7
190.724	-120.28
191.106	-270.12
191.488	-116.65
191.869	-115.04
192.251	-182.92
192.633	-83.02
193.014	-141.73
193.396	-851.97
193.777	-3277.05
194.159	6671.43
194.54	2509.64
194.922	-161.18
195.303	-88.95
195.684	-209.2
196.065	-104.86
196.447	-37.39
196.828	-96.75
197.209	-101.62
197.59	-166.41
197.971	2036
198.352	-423.4
198.733	-558.15
199.114	-318.34
199.495	-1183.58
199.876	654.46
200.257	-326.23
200.638	-189.36
201.018	-142.04
201.399	49.04
201.78	62.62
202.16	77.38
202.541	-46.25
202.922	1179.65
203.302	309.63
203.683	8463.64
204.063	211.29
204.444	242.42
204.824	172.62
205.204	114.76
205.585	135.98
205.965	358.27
206.345	206.8
206.725	257.85
207.106	225.89
207.486	207.68
207.866	308.71
208.246	209.11
208.626	139.17
209.006	136.8
209.386	141.69
209.766	128.4
210.145	139.84
210.525	130.73
210.905	148.4
211.285	161.41
211.664	261.82
212.044	395.15
212.424	440.18
212.803	864.4
213.183	-257.63
213.562	-305.35
213.942	-108.39
214.321	-54.87
214.701	-116.12
215.08	-132.18
215.459	-124.83
215.838	-142.28
216.218	-110.98
216.597	-128.73
216.976	-115.74
217.355	-117.03
217.734	-83.15
218.113	-51.45
218.492	-49.72
218.871	-62.14
219.25	-58.4
219.629	-69.84
220.008	-75.26
220.387	-69.98
220.766	-71.42
221.144	-94.27
221.523	-85.57
221.902	-90.26
222.28	-105.65
222.659	-95.71
223.037	-66.84
223.416	-49.45
223.794	-51.52
224.173	-54.83
224.551	-35.56
224.929	-37.98
225.308	-29.47
225.686	-30.2
226.064	-28.09
226.442	-26.81
226.821	-20.5
227.199	-23.31
227.577	-19.69
227.955	-10.08
228.333	-7.94
228.711	-3.92
229.089	1.49
229.467	-3.53
229.845	-5.88
230.222	-2.68
230.6	-3.13
230.978	-3.28
231.356	-3.61
231.733	-0.76
232.111	1.28
232.488	0.51
232.866	3.52
233.243	4.72
233.621	4.69
233.998	4.16
234.376	4.47
234.753	4.52
235.13	6.37
235.508	6.89
235.885	4.72
236.262	1.99
236.639	1.74
237.016	2.59
237.393	3.36
237.77	4.88
238.147	5.61
238.524	5.53
238.901	6.2
239.278	6.32
239.655	6.57
240.032	6.82
240.409	6.25
240.785	5.61
241.162	5.55
241.539	5.62
241.915	5.9
242.292	5.52
242.668	5.52
243.045	5.2
243.421	5.09
243.798	5.06
244.174	5.44
244.551	5.48
244.927	5.44
245.303	5.76
245.679	5.8
246.056	5.43
246.432	5.48
246.808	5.43
247.184	5.36
247.56	5.18
247.936	4.97
248.312	5
248.688	5.08
249.064	4.92
249.44	4.81
249.815	4.73
250.191	5.04
250.567	5.04
250.943	5.12
251.318	5.26
251.694	5.34
252.069	5.52
252.445	5.45
252.82	5.44
253.196	5.35
253.571	5.14
253.947	5.51
254.322	5.68
254.697	5.67
255.073	5.65
255.448	5.35
255.823	5.37
256.198	5.44
256.573	5.41
256.948	5.7
257.323	5.9
257.698	5.94
258.073	5.77
258.448	5.62
258.823	5.72
259.198	5.63
259.573	5.65
259.948	5.45
260.322	5.5
260.697	5.3
261.072	5.15
261.446	5.19
261.821	5.03
262.195	4.92
262.57	4.81
262.944	4.78
263.319	4.84
263.693	4.86
264.067	4.88
264.442	4.94
264.816	4.83
265.19	4.67
265.564	4.75
265.938	4.7
266.313	4.79
266.687	4.68
267.061	4.84
267.435	4.69
267.809	4.75
268.183	4.82
268.556	4.87
268.93	4.94
269.304	4.93
269.678	5.12
270.051	5.1
270.425	5.24
270.799	5.18
271.172	5.3
271.546	5.28
271.919	5.15
272.293	5.03
272.666	4.96
273.04	5.07
273.413	4.86
273.787	4.93
274.16	4.81
274.533	4.77
274.906	4.69
275.279	4.72
275.653	4.69
276.026	4.71
276.399	4.85
276.772	5.06
277.145	5.02
277.518	4.85
277.891	4.77
278.263	4.59
278.636	4.6
279.009	4.56
279.382	4.73
279.755	4.71
280.127	4.84
280.5	5.06
280.872	4.96
281.245	4.94
281.617	4.91
281.99	5.12
282.362	5.13
282.735	4.96
283.107	5.09
283.479	5.14
283.852	5.02
284.224	4.99
284.596	4.87
284.968	5.02
285.34	5.11
285.713	5.28
286.085	5.27
286.457	5.41
286.829	5.38
287.201	5.32
287.572	5.42
287.944	5.4
288.316	5.33
288.688	5.33
289.06	5.28
289.431	5.34
289.803	5.38
290.175	5.45
290.546	5.61
290.918	5.61
291.289	5.48
291.661	5.71
292.032	5.76
292.403	5.87
292.775	5.77
293.146	5.89
293.517	5.86
293.889	6.01
294.26	5.99
294.631	6.09
295.002	6.14
295.373	6.17
295.744	6.23
296.115	6.21
296.486	6.25
296.857	6.43
297.228	6.54
297.599	6.54
297.97	6.52
298.34	6.56
298.711	6.65
299.082	6.83
299.452	6.75
299.823	6.89
300.194	6.86
300.564	6.99
300.935	6.99
301.305	6.93
301.676	7.02
302.046	7.08
302.416	7.19
302.787	7.18
303.157	7.17
303.527	7.13
303.897	7.33
304.267	7.48
304.637	7.48
305.008	7.36
305.378	7.44
305.748	7.55
306.117	7.55
306.487	7.61
306.857	7.84
307.227	7.99
307.597	7.92
307.967	8.02
308.336	8.14
308.706	8.24
309.076	8.38
309.445	8.41
309.815	8.37
310.184	8.37
310.554	8.49
310.923	8.69
311.293	8.87
311.662	8.91
312.031	9.01
312.401	9.08
312.77	9.35
313.139	9.47
313.508	9.49
313.877	9.66
314.246	9.68
314.616	9.62
314.985	9.63
315.353	9.76
315.722	9.89
316.091	9.81
316.46	9.87
316.829	10.07
317.198	10.28
317.567	10.51
317.935	10.58
318.304	10.7
318.672	10.63
319.041	10.78
319.41	10.87
319.778	10.89
320.147	10.91
320.515	10.85
320.883	10.9
321.252	11.03
321.62	11.11
321.988	11.32
322.357	11.36
322.725	11.37
323.093	11.43
323.461	11.51
323.829	11.58
324.197	11.57
324.565	11.57
324.933	11.56
325.301	11.64
325.669	11.67
326.037	11.71
326.405	11.85
326.772	11.92
327.14	12.15
327.508	12.09
327.875	12.24
328.243	12.27
328.61	12.26
328.978	12.28
329.346	12.38
329.713	12.27
330.08	12.51
330.448	12.62
330.815	12.61
331.182	12.64
331.55	12.85
331.917	12.87
332.284	12.99
332.651	12.99
333.018	13.01
333.385	13.1
333.752	13.13
334.119	13.15
334.486	13.07
334.853	12.96
335.22	13.08
335.587	13.14
335.954	13.22
336.32	13.37
336.687	13.52
337.054	13.52
337.42	13.55
337.787	13.51
338.153	13.6
338.52	13.6
338.886	13.55
339.253	13.45
339.619	13.62
339.986	13.71
340.352	13.87
340.718	13.95
341.084	14.01
341.451	14.19
341.817	14.26
342.183	14.33
342.549	14.29
342.915	14.4
343.281	14.51
343.647	14.52
344.013	14.52
344.379	14.48
344.745	14.54
345.11	14.69
345.476	14.76
345.842	14.79
346.208	14.94
346.573	15.06
346.939	15.11
347.304	15.11
347.67	15.13
348.035	15.15
348.401	15.16
348.766	15.21
349.132	15.14
349.497	15.1
349.862	15.18
350.228	15.24
350.593	15.23
350.958	15.2
351.323	15.21
351.688	15.29
352.053	15.38
352.418	15.4
352.783	15.33
353.148	15.34
353.513	15.29
353.878	15.24
354.243	15.28
354.608	15.32
354.972	15.29
355.337	15.27
355.702	15.23
356.066	15.32
356.431	15.24
356.795	15.22
357.16	15.19
357.524	15.09
357.889	15.03
358.253	15.07
358.618	15.05
358.982	15.07
359.346	14.94
359.71	14.91
360.075	14.81
360.439	14.81
360.803	14.72
361.167	14.69
361.531	14.62
361.895	14.58
362.259	14.56
362.623	14.57
362.987	14.52
363.351	14.55
363.714	14.49
364.078	14.47
364.442	14.4
364.806	14.32
365.169	14.32
365.533	14.33
365.896	14.21
366.26	14.17
366.623	14.12
366.987	14.17
367.35	14.14
367.714	14.16
368.077	14.1
368.44	14.08
368.803	14.01
369.167	13.96
369.53	13.85
369.893	13.85
370.256	13.83
370.619	13.75
370.982	13.62
371.345	13.53
371.708	13.5
372.071	13.49
372.434	13.49
372.797	13.47
373.159	13.36
373.522	13.39
373.885	13.29
374.247	13.31
374.61	13.2
374.973	13.11
375.335	13.05
375.698	13.06
376.06	13.02
376.423	13.07
376.785	13.13
377.147	13.17
377.51	13.05
377.872	12.99
378.234	12.97
378.596	12.93
378.958	12.92
379.321	12.85
379.683	12.79
380.045	12.74
380.407	12.71
380.769	12.71
381.13	12.61
381.492	12.6
381.854	12.49
382.216	12.44
382.578	12.38
382.939	12.33
383.301	12.25
383.663	12.17
384.024	12.08
384.386	12.03
384.747	11.97
385.109	11.92
385.47	11.85
385.832	11.79
386.193	11.77
386.554	11.7
386.916	11.65
387.277	11.63
387.638	11.61
387.999	11.51
388.36	11.47
388.721	11.41
389.082	11.33
389.443	11.27
389.804	11.21
390.165	11.12
390.526	11.08
390.887	11.02
391.248	11.03
391.609	10.97
391.969	10.86
392.33	10.77
392.691	10.75
393.051	10.7
393.412	10.65
393.772	10.55
394.133	10.48
394.493	10.44
394.854	10.34
395.214	10.29
395.574	10.24
395.935	10.15
396.295	10.09
396.655	10.06
397.015	10.02
397.376	9.97
397.736	9.98
398.096	9.89
398.456	9.84
398.816	9.73
399.176	9.63
399.535	9.58
399.895	9.53
400.255	9.47
400.615	9.42
400.975	9.37
401.334	9.34
401.694	9.32
402.054	9.28
402.413	9.25
402.773	9.19
403.132	9.17
403.492	9.17
403.851	9.17
404.211	9.13
404.57	9.1
404.929	9.04
405.288	9
405.648	8.98
406.007	8.93
406.366	8.95
406.725	8.94
407.084	8.96
407.443	8.96
407.802	8.97
408.161	8.94
408.52	8.92
408.879	8.9
409.238	8.87
409.596	8.83
409.955	8.84
410.314	8.86
410.673	8.81
411.031	8.75
411.39	8.72
411.748	8.67
412.107	8.63
412.465	8.59
412.824	8.56
413.182	8.48
413.54	8.44
413.899	8.39
414.257	8.36
414.615	8.31
414.974	8.26
415.332	8.19
415.69	8.16
416.048	8.12
416.406	8.09
416.764	8.06
417.122	8.02
417.48	7.95
417.838	7.91
418.195	7.86
418.553	7.83
418.911	7.78
419.269	7.75
419.626	7.74
419.984	7.73
420.342	7.71
420.699	7.7
421.057	7.66
421.414	7.63
421.772	7.61
422.129	7.58
422.486	7.54
422.844	7.52
423.201	7.48
423.558	7.46
423.915	7.43
424.273	7.41
424.63	7.4
424.987	7.39
425.344	7.36
425.701	7.35
426.058	7.35
426.415	7.32
426.772	7.32
427.128	7.29
427.485	7.26
427.842	7.25
428.199	7.24
428.555	7.25
428.912	7.23
429.269	7.22
429.625	7.19
429.982	7.18
430.338	7.19
430.695	7.19
431.051	7.16
431.407	7.17
431.764	7.14
432.12	7.11
432.476	7.1
432.832	7.1
433.189	7.1
433.545	7.07
433.901	7.1
434.257	7.09
434.613	7.09
434.969	7.07
435.325	7.04
435.681	7.03
436.036	7.02
436.392	7.02
436.748	7.01
437.104	7.01
437.459	7.01
437.815	7
438.171	6.98
438.526	6.98
438.882	6.96
439.237	6.97
439.593	6.97
439.948	6.96
440.304	6.94
440.659	6.93
441.014	6.92
441.369	6.89
441.725	6.85
442.08	6.83
442.435	6.82
442.79	6.81
443.145	6.79
443.5	6.79
443.855	6.77
444.21	6.74
444.565	6.72
444.92	6.72
445.275	6.69
445.629	6.69
445.984	6.67
446.339	6.65
446.693	6.6
447.048	6.59
447.403	6.55
447.757	6.54
448.112	6.52
448.466	6.52
448.82	6.51
449.175	6.51
449.529	6.5
449.883	6.5
450.238	6.49
450.592	6.47
450.946	6.42
451.3	6.41
451.654	6.4
452.008	6.4
452.362	6.38
452.716	6.39
453.07	6.39
453.424	6.4
453.778	6.4
454.132	6.41
454.486	6.4
454.839	6.41
455.193	6.41
455.547	6.43
455.9	6.42
456.254	6.43
456.607	6.46
456.961	6.48
457.314	6.48
457.668	6.48
458.021	6.48
458.375	6.51
458.728	6.51
459.081	6.53
459.434	6.53
459.787	6.53
460.141	6.53
460.494	6.53
460.847	6.56
461.2	6.57
461.553	6.58
461.906	6.61
462.259	6.64
462.611	6.64
462.964	6.68
463.317	6.69
463.67	6.71
464.022	6.7
464.375	6.69
464.728	6.71
465.08	6.74
465.433	6.75
465.785	6.75
466.138	6.78
466.49	6.8
466.843	6.81
467.195	6.81
467.547	6.84
467.899	6.87
468.252	6.86
468.604	6.88
468.956	6.89
469.308	6.9
469.66	6.9
470.012	6.95
470.364	6.93
470.716	6.93
471.068	6.93
471.42	6.94
471.772	6.98
472.123	7
472.475	7
472.827	7.02
473.178	7.05
473.53	7.06
473.882	7.05
474.233	7.05
474.585	7.05
474.936	7.03
475.288	7.02
475.639	7.01
475.99	7
476.342	7
476.693	6.96
477.044	6.95
477.395	6.94
477.746	6.92
478.097	6.9
478.448	6.91
478.8	6.91
479.15	6.88
479.501	6.87
479.852	6.88
480.203	6.88
480.554	6.88
480.905	6.87
481.255	6.89
481.606	6.9
481.957	6.91
482.307	6.91
482.658	6.91
483.009	6.92
483.359	6.93
483.709	6.94
484.06	6.96
484.41	6.97
484.761	6.97
485.111	6.98
485.461	6.99
485.811	7
486.162	7
486.512	7.02
486.862	7.02
487.212	7.02
487.562	7.04
487.912	7.05
488.262	7.07
488.612	7.08
488.961	7.09
489.311	7.11
489.661	7.14
490.011	7.14
490.36	7.14
490.71	7.17
491.06	7.19
491.409	7.2
491.759	7.23
492.108	7.24
492.458	7.26
492.807	7.29
493.157	7.32
493.506	7.35
493.855	7.37
494.204	7.4
494.554	7.43
494.903	7.45
495.252	7.48
495.601	7.53
495.95	7.57
496.299	7.6
496.648	7.63
496.997	7.69
497.346	7.77
497.695	7.84
498.043	7.87
498.392	7.9
498.741	7.96
499.09	7.97
499.438	8.02
499.787	8.08
500.135	8.13
500.484	8.18
500.832	8.23
501.181	8.28
501.529	8.35
501.878	8.41
502.226	8.5
502.574	8.57
502.923	8.63
503.271	8.69
503.619	8.77
503.967	8.83
504.315	8.88
504.663	8.93
505.011	9.02
505.359	9.12
505.707	9.19
506.055	9.25
506.403	9.36
506.751	9.41
507.098	9.5
507.446	9.58
507.794	9.65
508.141	9.74
508.489	9.83
508.837	9.92
509.184	9.98
509.531	10.05
509.879	10.14
510.226	10.23
510.574	10.31
510.921	10.4
511.268	10.48
511.616	10.53
511.963	10.61
512.31	10.68
512.657	10.78
513.004	10.88
513.351	10.98
513.698	11.09
514.045	11.22
514.392	11.33
514.739	11.42
515.086	11.54
515.432	11.65
515.779	11.75
516.126	11.84
516.473	11.98
516.819	12.1
517.166	12.21
517.512	12.29
517.859	12.37
518.205	12.42
518.552	12.53
518.898	12.66
519.245	12.73
519.591	12.85
519.937	12.92
520.283	13.02
520.629	13.11
520.976	13.18
521.322	13.28
521.668	13.4
522.014	13.54
522.36	13.68
522.706	13.8
523.052	13.96
523.398	14.15
523.743	14.29
524.089	14.43
524.435	14.57
524.781	14.78
525.126	14.97
525.472	15.13
525.817	15.26
526.163	15.39
526.509	15.53
526.854	15.64
527.199	15.77
527.545	15.86
527.89	16
528.235	16.14
528.581	16.26
528.926	16.38
529.271	16.5
529.616	16.63
529.961	16.77
530.306	16.89
530.651	17.02
530.996	17.18
531.341	17.34
531.686	17.5
532.031	17.65
532.376	17.8
532.721	17.98
533.065	18.17
533.41	18.35
533.755	18.54
534.099	18.74
534.444	18.92
534.788	19.15
535.133	19.35
535.477	19.57
535.822	19.78
536.166	20.02
536.51	20.3
536.855	20.57
537.199	20.82
537.543	21.11
537.887	21.41
538.231	21.71
538.576	22.02
538.92	22.31
539.264	22.61
539.608	22.9
539.951	23.16
540.295	23.41
540.639	23.66
540.983	23.9
541.327	24.14
541.671	24.4
542.014	24.64
542.358	24.9
542.701	25.11
543.045	25.36
543.389	25.59
543.732	25.83
544.075	26.08
544.419	26.38
544.762	26.67
545.105	26.92
545.449	27.22
545.792	27.54
546.135	27.87
546.478	28.18
546.821	28.48
547.165	28.84
547.508	29.2
547.851	29.53
548.194	29.89
548.536	30.23
548.879	30.59
549.222	30.93
549.565	31.23
549.908	31.64
550.25	32.01
550.593	32.43
550.936	32.79
551.278	33.17
551.621	33.53
551.963	33.91
552.306	34.3
552.648	34.64
552.991	34.98
553.333	35.33
553.675	35.66
554.017	36.02
554.36	36.39
554.702	36.7
555.044	37.06
555.386	37.42
555.728	37.81
556.07	38.12
556.412	38.45
556.754	38.81
557.096	39.09
557.438	39.46
557.78	39.74
558.121	40.06
558.463	40.34
558.805	40.6
559.147	40.87
559.488	41.17
559.83	41.48
560.171	41.77
560.513	42
560.854	42.27
561.196	42.62
561.537	42.83
561.878	43.1
562.22	43.38
562.561	43.57
562.902	43.81
563.243	44.08
563.584	44.39
563.925	44.64
564.266	44.92
564.607	45.09
564.948	45.36
565.289	45.58
565.63	45.8
565.971	46.01
566.312	46.3
566.653	46.57
566.993	46.79
567.334	47.02
567.675	47.31
568.015	47.56
568.356	47.72
568.696	48.01
569.037	48.25
569.377	48.49
569.718	48.78
570.058	48.97
570.398	49.18
570.739	49.4
571.079	49.54
571.419	49.7
571.759	49.98
572.099	50.12
572.439	50.3
572.779	50.52
573.119	50.7
573.459	50.85
573.799	50.99
574.139	51.14
574.479	51.26
574.819	51.44
575.158	51.57
575.498	51.77
575.838	51.87
576.177	51.97
576.517	52.09
576.856	52.17
577.196	52.36
577.535	52.49
577.875	52.6
578.214	52.88
578.553	53.1
578.893	53.16
579.232	53.36
579.571	53.53
579.91	53.67
580.25	53.87
580.589	53.98
580.928	54.13
581.267	54.26
581.606	54.46
581.945	54.55
582.283	54.65
582.622	54.78
582.961	54.88
583.3	55.02
583.639	55.15
583.977	55.3
584.316	55.37
584.654	55.48
584.993	55.54
585.332	55.56
585.67	55.58
586.008	55.64
586.347	55.73
586.685	55.79
587.024	55.92
587.362	56.01
587.7	56.07
588.038	56.23
588.376	56.26
588.715	56.34
589.053	56.48
589.391	56.56
589.729	56.63
590.067	56.75
590.404	56.74
590.742	56.84
591.08	56.93
591.418	57.04
591.756	57.12
592.093	57.17
592.431	57.23
592.769	57.34
593.106	57.4
593.444	57.49
593.781	57.52
594.119	57.57
594.456	57.62
594.793	57.67
595.131	57.54
595.468	57.65
595.805	57.73
596.143	57.7
596.48	57.81
596.817	57.83
597.154	57.85
597.491	57.93
597.828	57.9
598.165	57.98
598.502	58.04
598.839	58.11
599.176	58.17
599.512	58.21
599.849	58.31
600.186	58.37
600.523	58.44
600.859	58.59
601.196	58.66
601.532	58.76
601.869	58.88
602.205	59.11
602.542	59.08
602.878	59.08
603.215	59.18
603.551	59.18
603.887	59.26
604.223	59.32
604.56	59.39
604.896	59.45
605.232	59.44
605.568	59.5
605.904	59.52
606.24	59.57
606.576	59.66
606.912	59.68
607.248	59.8
607.583	59.83
607.919	59.84
608.255	59.85
608.591	59.82
608.926	59.83
609.262	59.81
609.597	59.99
609.933	60.04
610.268	60.05
610.604	60.13
610.939	60.15
611.275	60.17
611.61	60.18
611.945	60.29
612.281	60.34
612.616	60.37
612.951	60.43
613.286	60.53
613.621	60.55
613.956	60.55
614.291	60.6
614.626	60.66
614.961	60.68
615.296	60.69
615.631	60.74
615.966	60.79
616.3	60.85
616.635	60.87
616.97	61.03
617.304	61.1
617.639	61.1
617.973	61
618.308	61.05
618.642	61.05
618.977	61.11
619.311	61.17
619.646	61.11
619.98	61.11
620.314	61.18
620.648	61.24
620.983	61.35
621.317	61.36
621.651	61.39
621.985	61.42
622.319	61.5
622.653	61.47
622.987	61.41
623.321	61.4
623.655	61.38
623.988	61.35
624.322	61.31
624.656	61.29
624.99	61.47
625.323	61.51
625.657	61.61
625.99	61.54
626.324	61.61
626.657	61.66
626.991	61.73
627.324	61.64
627.658	61.7
627.991	61.69
628.324	61.66
628.657	61.6
628.991	61.63
629.324	61.64
629.657	61.69
629.99	61.79
630.323	61.84
630.656	61.87
630.989	61.82
631.322	61.88
631.655	62.01
631.987	61.96
632.32	61.93
632.653	61.96
632.986	61.96
633.318	61.86
633.651	61.93
633.984	61.85
634.316	61.9
634.649	61.81
634.981	61.83
635.313	61.86
635.646	61.86
635.978	61.86
636.31	61.9
636.643	61.9
636.975	61.98
637.307	61.94
637.639	62
637.971	62.08
638.303	62.08
638.635	62.06
638.967	62.21
639.299	62.31
639.631	62.28
639.963	62.36
640.295	62.5
640.626	62.54
640.958	62.66
641.29	62.67
641.621	62.85
641.953	62.9
642.285	62.98
642.616	63.11
642.948	63.11
643.279	63.1
643.61	63.17
643.942	63.24
644.273	63.31
644.604	63.17
644.936	63.1
645.267	62.95
645.598	62.94
645.929	62.81
646.26	62.8
646.591	62.79
646.922	62.86
647.253	62.85
647.584	62.76
647.915	62.85
648.245	62.88
648.576	62.73
648.907	62.71
649.238	62.57
649.568	62.54
649.899	62.62
650.229	62.66
650.56	62.71
650.89	62.55
651.221	62.45
651.551	62.46
651.882	62.36
652.212	62.45
652.542	62.48
652.872	62.32
653.203	62.3
653.533	62.4
653.863	62.31
654.193	62.37
654.523	62.51
654.853	62.45
655.183	62.55
655.513	62.54
655.843	62.65
656.172	62.83
656.502	62.84
656.832	62.73
657.162	62.71
657.491	62.58
657.821	62.67
658.15	62.74
658.48	62.85
658.809	63.05
659.139	63.04
659.468	63.05
659.798	63.21
660.127	63.16
660.456	63.18
660.785	63.19
661.115	63.13
