Data from BA58010_Reflection_00001.txt Node
Date: Mon Nov 18 16:06:43 EST 2019
User: vgr7
Spectrometer: USB2G7710
Scans to average: 3
Trigger mode: 4
Integration Time (sec): 2.000000E-2
Electric dark correction enabled: true
Boxcar width: 10
XAxis mode: Wavelengths
Number of Pixels in Spectrum: 2048
>>>>>Begin Spectral Data<<<<<
177.721	-323.33
178.105	38.05
178.488	50.76
178.871	-48.04
179.254	132.26
179.636	60.75
180.019	-250.55
180.402	-850
180.785	145.73
181.168	167.23
181.55	138.79
181.933	104.81
182.316	136.32
182.698	117.85
183.081	136.32
183.463	151.19
183.846	177.97
184.228	283.49
184.611	260.38
184.993	432.51
185.376	734.31
185.758	1119.29
186.14	317.39
186.522	391.71
186.904	255.86
187.287	294.33
187.669	709.54
188.051	494.96
188.433	399.89
188.815	508.19
189.197	653.05
189.579	2108
189.961	-486.69
190.342	-4452.24
190.724	-266.71
191.106	-448.39
191.488	-253.63
191.869	-219.32
192.251	-303.7
192.633	-144.24
193.014	-220.41
193.396	-1048.47
193.777	-4113.11
194.159	8300
194.54	3196.39
194.922	-595.89
195.303	-273.9
195.684	-696.48
196.065	-226.46
196.447	-214.32
196.828	-303.56
197.209	-395.95
197.59	-433.79
197.971	3692
198.352	-792.55
198.733	-1583.71
199.114	-1306.88
199.495	-7138.81
199.876	4901.98
200.257	-8342.62
200.638	-2040.43
201.018	-3333.12
201.399	-3103.82
201.78	-817.76
202.16	-702.91
202.541	-907.31
202.922	3861.06
203.302	1286.97
203.683	42009.09
204.063	854.5
204.444	532.35
204.824	464.08
205.204	369.37
205.585	403.35
205.965	750.39
206.345	309.95
206.725	421.97
207.106	344.65
207.486	278.25
207.866	454.15
208.246	363.48
208.626	321.81
209.006	345.1
209.386	322.54
209.766	267.2
210.145	237.29
210.525	235.11
210.905	385.81
211.285	447.72
211.664	652.47
212.044	948.54
212.424	1434.31
212.803	2859.16
213.183	-600.14
213.562	-838.81
213.942	-569.63
214.321	-260.45
214.701	-275.52
215.08	-308.2
215.459	-218.34
215.838	-248.86
216.218	-144.84
216.597	-137.04
216.976	-158.96
217.355	-162.1
217.734	-143.77
218.113	-123.22
218.492	-116.8
218.871	-119.11
219.25	-124.44
219.629	-135.94
220.008	-127.71
220.387	-119.59
220.766	-100.72
221.144	-119.26
221.523	-127.07
221.902	-130.12
222.28	-151.78
222.659	-160.04
223.037	-120.07
223.416	-125.11
223.794	-110.43
224.173	-104.53
224.551	-94.79
224.929	-80.44
225.308	-58.98
225.686	-53.27
226.064	-44.66
226.442	-37.58
226.821	-30.02
227.199	-25.24
227.577	-25.93
227.955	-22.44
228.333	-21.17
228.711	-22.06
229.089	-16.87
229.467	-18.92
229.845	-17.97
230.222	-12.38
230.6	-10
230.978	-9.56
231.356	-8.97
231.733	-9.06
232.111	-9.99
232.488	-5.72
232.866	-4.81
233.243	-7.7
233.621	-8.14
233.998	-6.96
234.376	-8.25
234.753	-8.86
235.13	-7.65
235.508	-6.44
235.885	-7.7
236.262	-8.95
236.639	-7.63
237.016	-7.27
237.393	-4.75
237.77	-3.13
238.147	-3.17
238.524	-2.3
238.901	-1.45
239.278	-0.47
239.655	-0.18
240.032	0.47
240.409	-1.04
240.785	-1.01
241.162	-0.68
241.539	-0.46
241.915	-0.75
242.292	-0.51
242.668	-0.16
243.045	-0.15
243.421	0.03
243.798	0.22
244.174	0.53
244.551	0.47
244.927	0.37
245.303	0.42
245.679	0.57
246.056	0.44
246.432	0.21
246.808	0.25
247.184	0
247.56	-0.14
247.936	-0.25
248.312	-0.12
248.688	0.09
249.064	0.24
249.44	0.31
249.815	0.39
250.191	0.52
250.567	0.57
250.943	0.42
251.318	0.48
251.694	0.23
252.069	0.19
252.445	0.35
252.82	0.23
253.196	0.28
253.571	0.06
253.947	0.37
254.322	0.26
254.697	0.06
255.073	0.19
255.448	0.35
255.823	0.39
256.198	0.6
256.573	0.67
256.948	0.86
257.323	1.01
257.698	1.03
258.073	0.79
258.448	0.6
258.823	0.54
259.198	0.41
259.573	0.49
259.948	0.57
260.322	0.56
260.697	0.47
261.072	0.27
261.446	0.22
261.821	0.03
262.195	0.27
262.57	0.19
262.944	0.15
263.319	0.15
263.693	0.09
264.067	0.11
264.442	0.06
264.816	-0.22
265.19	-0.26
265.564	-0.41
265.938	-0.39
266.313	-0.36
266.687	-0.25
267.061	-0.09
267.435	-0.14
267.809	-0.21
268.183	-0.3
268.556	-0.19
268.93	0.08
269.304	0.22
269.678	0.18
270.051	0.16
270.425	0.38
270.799	0.55
271.172	0.54
271.546	0.52
271.919	0.49
272.293	0.46
272.666	0.57
273.04	0.56
273.413	0.66
273.787	0.85
274.16	0.97
274.533	1.02
274.906	0.94
275.279	0.87
275.653	0.81
276.026	0.8
276.399	0.79
276.772	0.65
277.145	0.55
277.518	0.65
277.891	0.65
278.263	0.42
278.636	0.28
279.009	0.24
279.382	0.42
279.755	0.28
280.127	0.33
280.5	0.26
280.872	0.31
281.245	0.3
281.617	0.37
281.99	0.25
282.362	0.24
282.735	0.24
283.107	0.48
283.479	0.45
283.852	0.53
284.224	0.52
284.596	0.64
284.968	0.7
285.34	0.73
285.713	0.75
286.085	0.95
286.457	1.06
286.829	1.17
287.201	1.09
287.572	1.11
287.944	1.01
288.316	1.07
288.688	0.99
289.06	1.07
289.431	0.92
289.803	1.03
290.175	0.91
290.546	1.02
290.918	1.03
291.289	1.11
291.661	1.14
292.032	1.22
292.403	1.11
292.775	1.17
293.146	1.12
293.517	1.05
293.889	0.95
294.26	0.9
294.631	0.9
295.002	0.98
295.373	0.97
295.744	1.02
296.115	0.99
296.486	1.01
296.857	0.89
297.228	1.03
297.599	0.97
297.97	1.09
298.34	1.12
298.711	1.1
299.082	1.17
299.452	1.11
299.823	1.14
300.194	1.23
300.564	1.24
300.935	1.31
301.305	1.33
301.676	1.29
302.046	1.33
302.416	1.29
302.787	1.31
303.157	1.42
303.527	1.45
303.897	1.44
304.267	1.55
304.637	1.62
305.008	1.49
305.378	1.59
305.748	1.58
306.117	1.51
306.487	1.58
306.857	1.63
307.227	1.72
307.597	1.68
307.967	1.61
308.336	1.58
308.706	1.5
309.076	1.46
309.445	1.47
309.815	1.49
310.184	1.44
310.554	1.35
310.923	1.35
311.293	1.45
311.662	1.45
312.031	1.36
312.401	1.32
312.77	1.33
313.139	1.28
313.508	1.33
313.877	1.31
314.246	1.2
314.616	1.2
314.985	1.13
315.353	0.98
315.722	0.99
316.091	0.87
316.46	0.88
316.829	0.85
317.198	0.92
317.567	0.94
317.935	1.01
318.304	0.97
318.672	0.89
319.041	0.81
319.41	0.73
319.778	0.72
320.147	0.77
320.515	0.71
320.883	0.66
321.252	0.64
321.62	0.63
321.988	0.5
322.357	0.33
322.725	0.33
323.093	0.41
323.461	0.33
323.829	0.46
324.197	0.56
324.565	0.66
324.933	0.67
325.301	0.55
325.669	0.5
326.037	0.6
326.405	0.62
326.772	0.64
327.14	0.8
327.508	0.88
327.875	0.85
328.243	0.92
328.61	0.89
328.978	0.79
329.346	0.78
329.713	0.94
330.08	1.01
330.448	0.98
330.815	0.97
331.182	1.01
331.55	0.97
331.917	0.88
332.284	0.93
332.651	0.92
333.018	1.03
333.385	1.1
333.752	1.12
334.119	1.09
334.486	1.08
334.853	0.97
335.22	0.84
335.587	0.86
335.954	0.96
336.32	0.95
336.687	1.11
337.054	1.09
337.42	1.05
337.787	1.04
338.153	1.12
338.52	1.28
338.886	1.23
339.253	1.19
339.619	1.31
339.986	1.19
340.352	1.18
340.718	1.05
341.084	0.98
341.451	0.98
341.817	1.04
342.183	1.03
342.549	1.07
342.915	1.14
343.281	1.12
343.647	1.04
344.013	1.09
344.379	0.99
344.745	1.04
345.11	1.11
345.476	1.16
345.842	1.11
346.208	0.99
346.573	1.06
346.939	1.12
347.304	1.06
347.67	1.13
348.035	1.13
348.401	1.21
348.766	1.25
349.132	1.23
349.497	1.22
349.862	1.29
350.228	1.18
350.593	1.19
350.958	1.18
351.323	1.22
351.688	1.28
352.053	1.37
352.418	1.46
352.783	1.5
353.148	1.48
353.513	1.49
353.878	1.56
354.243	1.66
354.608	1.68
354.972	1.69
355.337	1.72
355.702	1.79
356.066	1.78
356.431	1.81
356.795	1.82
357.16	1.83
357.524	1.76
357.889	1.8
358.253	1.81
358.618	1.82
358.982	1.8
359.346	1.79
359.71	1.73
360.075	1.66
360.439	1.68
360.803	1.65
361.167	1.65
361.531	1.62
361.895	1.58
362.259	1.55
362.623	1.53
362.987	1.53
363.351	1.48
363.714	1.52
364.078	1.47
364.442	1.42
364.806	1.41
365.169	1.41
365.533	1.43
365.896	1.43
366.26	1.47
366.623	1.47
366.987	1.41
367.35	1.44
367.714	1.43
368.077	1.32
368.44	1.32
368.803	1.31
369.167	1.29
369.53	1.25
369.893	1.35
370.256	1.38
370.619	1.37
370.982	1.35
371.345	1.34
371.708	1.31
372.071	1.26
372.434	1.25
372.797	1.28
373.159	1.25
373.522	1.25
373.885	1.26
374.247	1.29
374.61	1.33
374.973	1.3
375.335	1.32
375.698	1.35
376.06	1.35
376.423	1.39
376.785	1.4
377.147	1.44
377.51	1.34
377.872	1.35
378.234	1.29
378.596	1.39
378.958	1.34
379.321	1.4
379.683	1.46
380.045	1.5
380.407	1.52
380.769	1.52
381.13	1.52
381.492	1.54
381.854	1.56
382.216	1.56
382.578	1.55
382.939	1.52
383.301	1.52
383.663	1.5
384.024	1.49
384.386	1.55
384.747	1.53
385.109	1.55
385.47	1.55
385.832	1.59
386.193	1.55
386.554	1.6
386.916	1.61
387.277	1.66
387.638	1.63
387.999	1.59
388.36	1.64
388.721	1.63
389.082	1.6
389.443	1.56
389.804	1.56
390.165	1.59
390.526	1.6
390.887	1.56
391.248	1.62
391.609	1.6
391.969	1.58
392.33	1.57
392.691	1.58
393.051	1.55
393.412	1.53
393.772	1.5
394.133	1.47
394.493	1.46
394.854	1.43
395.214	1.46
395.574	1.51
395.935	1.49
396.295	1.49
396.655	1.5
397.015	1.5
397.376	1.51
397.736	1.5
398.096	1.5
398.456	1.51
398.816	1.49
399.176	1.48
399.535	1.47
399.895	1.45
400.255	1.44
400.615	1.44
400.975	1.44
401.334	1.44
401.694	1.46
402.054	1.47
402.413	1.5
402.773	1.44
403.132	1.4
403.492	1.41
403.851	1.44
404.211	1.44
404.57	1.44
404.929	1.45
405.288	1.46
405.648	1.46
406.007	1.53
406.366	1.52
406.725	1.55
407.084	1.6
407.443	1.64
407.802	1.67
408.161	1.71
408.52	1.71
408.879	1.72
409.238	1.73
409.596	1.71
409.955	1.68
410.314	1.72
410.673	1.74
411.031	1.71
411.39	1.68
411.748	1.7
412.107	1.71
412.465	1.71
412.824	1.7
413.182	1.71
413.54	1.69
413.899	1.71
414.257	1.69
414.615	1.66
414.974	1.64
415.332	1.62
415.69	1.61
416.048	1.61
416.406	1.61
416.764	1.61
417.122	1.64
417.48	1.64
417.838	1.64
418.195	1.66
418.553	1.68
418.911	1.68
419.269	1.68
419.626	1.69
419.984	1.68
420.342	1.69
420.699	1.69
421.057	1.69
421.414	1.7
421.772	1.7
422.129	1.71
422.486	1.71
422.844	1.71
423.201	1.72
423.558	1.74
423.915	1.74
424.273	1.74
424.63	1.73
424.987	1.74
425.344	1.74
425.701	1.73
426.058	1.71
426.415	1.71
426.772	1.7
427.128	1.7
427.485	1.71
427.842	1.7
428.199	1.71
428.555	1.71
428.912	1.7
429.269	1.72
429.625	1.73
429.982	1.72
430.338	1.72
430.695	1.71
431.051	1.68
431.407	1.7
431.764	1.68
432.12	1.67
432.476	1.66
432.832	1.67
433.189	1.67
433.545	1.66
433.901	1.69
434.257	1.69
434.613	1.69
434.969	1.69
435.325	1.71
435.681	1.69
436.036	1.69
436.392	1.68
436.748	1.66
437.104	1.65
437.459	1.66
437.815	1.68
438.171	1.68
438.526	1.72
438.882	1.7
439.237	1.69
439.593	1.71
439.948	1.71
440.304	1.69
440.659	1.68
441.014	1.7
441.369	1.69
441.725	1.67
442.08	1.67
442.435	1.67
442.79	1.65
443.145	1.66
443.5	1.66
443.855	1.66
444.21	1.67
444.565	1.67
444.92	1.67
445.275	1.64
445.629	1.64
445.984	1.63
446.339	1.63
446.693	1.62
447.048	1.62
447.403	1.62
447.757	1.63
448.112	1.63
448.466	1.63
448.82	1.63
449.175	1.65
449.529	1.64
449.883	1.65
450.238	1.65
450.592	1.63
450.946	1.62
451.3	1.61
451.654	1.6
452.008	1.61
452.362	1.6
452.716	1.62
453.07	1.64
453.424	1.63
453.778	1.65
454.132	1.65
454.486	1.64
454.839	1.64
455.193	1.64
455.547	1.65
455.9	1.65
456.254	1.64
456.607	1.65
456.961	1.65
457.314	1.66
457.668	1.67
458.021	1.67
458.375	1.67
458.728	1.67
459.081	1.68
459.434	1.67
459.787	1.67
460.141	1.67
460.494	1.65
460.847	1.64
461.2	1.62
461.553	1.63
461.906	1.64
462.259	1.65
462.611	1.66
462.964	1.65
463.317	1.63
463.67	1.63
464.022	1.62
464.375	1.61
464.728	1.6
465.08	1.59
465.433	1.59
465.785	1.6
466.138	1.61
466.49	1.58
466.843	1.57
467.195	1.58
467.547	1.59
467.899	1.61
468.252	1.62
468.604	1.65
468.956	1.64
469.308	1.66
469.66	1.65
470.012	1.64
470.364	1.64
470.716	1.65
471.068	1.65
471.42	1.64
471.772	1.66
472.123	1.66
472.475	1.65
472.827	1.66
473.178	1.68
473.53	1.67
473.882	1.71
474.233	1.72
474.585	1.71
474.936	1.69
475.288	1.68
475.639	1.68
475.99	1.66
476.342	1.67
476.693	1.66
477.044	1.67
477.395	1.69
477.746	1.7
478.097	1.7
478.448	1.71
478.8	1.71
479.15	1.7
479.501	1.72
479.852	1.72
480.203	1.73
480.554	1.73
480.905	1.74
481.255	1.73
481.606	1.73
481.957	1.74
482.307	1.75
482.658	1.76
483.009	1.76
483.359	1.77
483.709	1.77
484.06	1.77
484.41	1.77
484.761	1.77
485.111	1.78
485.461	1.79
485.811	1.79
486.162	1.79
486.512	1.8
486.862	1.79
487.212	1.8
487.562	1.8
487.912	1.8
488.262	1.81
488.612	1.81
488.961	1.81
489.311	1.82
489.661	1.81
490.011	1.81
490.36	1.81
490.71	1.82
491.06	1.82
491.409	1.82
491.759	1.82
492.108	1.81
492.458	1.8
492.807	1.79
493.157	1.8
493.506	1.8
493.855	1.8
494.204	1.79
494.554	1.79
494.903	1.77
495.252	1.78
495.601	1.77
495.95	1.78
496.299	1.78
496.648	1.78
496.997	1.77
497.346	1.78
497.695	1.79
498.043	1.79
498.392	1.77
498.741	1.77
499.09	1.76
499.438	1.78
499.787	1.78
500.135	1.8
500.484	1.78
500.832	1.79
501.181	1.79
501.529	1.8
501.878	1.81
502.226	1.82
502.574	1.82
502.923	1.81
503.271	1.8
503.619	1.8
503.967	1.8
504.315	1.82
504.663	1.8
505.011	1.8
505.359	1.8
505.707	1.84
506.055	1.84
506.403	1.84
506.751	1.84
507.098	1.84
507.446	1.84
507.794	1.85
508.141	1.86
508.489	1.86
508.837	1.85
509.184	1.85
509.531	1.85
509.879	1.88
510.226	1.89
510.574	1.9
510.921	1.89
511.268	1.87
511.616	1.87
511.963	1.88
512.31	1.89
512.657	1.9
513.004	1.88
513.351	1.9
513.698	1.9
514.045	1.89
514.392	1.9
514.739	1.91
515.086	1.92
515.432	1.91
515.779	1.91
516.126	1.93
516.473	1.95
516.819	1.95
517.166	1.93
517.512	1.93
517.859	1.95
518.205	1.96
518.552	1.98
518.898	1.96
519.245	1.96
519.591	1.96
519.937	1.94
520.283	1.94
520.629	1.93
520.976	1.92
521.322	1.93
521.668	1.92
522.014	1.92
522.36	1.92
522.706	1.93
523.052	1.93
523.398	1.93
523.743	1.91
524.089	1.92
524.435	1.93
524.781	1.93
525.126	1.92
525.472	1.92
525.817	1.93
526.163	1.94
526.509	1.96
526.854	1.96
527.199	1.98
527.545	1.99
527.89	1.99
528.235	2.01
528.581	2.02
528.926	2.02
529.271	2.02
529.616	2.02
529.961	2.02
530.306	2.02
530.651	2.01
530.996	2.03
531.341	2.02
531.686	2.02
532.031	2.03
532.376	2.03
532.721	2.04
533.065	2.03
533.41	2.04
533.755	2.03
534.099	2.02
534.444	2.02
534.788	2.02
535.133	2.02
535.477	2.01
535.822	1.99
536.166	1.99
536.51	2
536.855	1.98
537.199	1.99
537.543	2
537.887	2.01
538.231	2
538.576	2.01
538.92	2.02
539.264	2.02
539.608	2.03
539.951	2.02
540.295	2.03
540.639	2.03
540.983	2.04
541.327	2.04
541.671	2.03
542.014	2.03
542.358	2.03
542.701	2.03
543.045	2.05
543.389	2.05
543.732	2.05
544.075	2.06
544.419	2.06
544.762	2.05
545.105	2.06
545.449	2.06
545.792	2.06
546.135	2.05
546.478	2.03
546.821	2.01
547.165	2.02
547.508	2.03
547.851	2.01
548.194	1.99
548.536	1.99
548.879	1.99
549.222	1.98
549.565	1.98
549.908	1.97
550.25	1.97
550.593	1.95
550.936	1.95
551.278	1.94
551.621	1.95
551.963	1.95
552.306	1.94
552.648	1.95
552.991	1.96
553.333	1.96
553.675	1.98
554.017	2
554.36	2
554.702	2.01
555.044	2.04
555.386	2.03
555.728	2.03
556.07	2.04
556.412	2.05
556.754	2.02
557.096	2.02
557.438	2.01
557.78	2.01
558.121	2.04
558.463	2.03
558.805	2.02
559.147	2
559.488	2.01
559.83	1.99
560.171	1.94
560.513	1.96
560.854	1.93
561.196	1.93
561.537	1.92
561.878	1.89
562.22	1.88
562.561	1.89
562.902	1.9
563.243	1.89
563.584	1.88
563.925	1.93
564.266	1.92
564.607	1.93
564.948	1.93
565.289	1.9
565.63	1.88
565.971	1.87
566.312	1.88
566.653	1.88
566.993	1.9
567.334	1.92
567.675	1.92
568.015	1.94
568.356	1.94
568.696	1.98
569.037	2.01
569.377	2
569.718	2.02
570.058	2
570.398	2
570.739	2.01
571.079	1.99
571.419	2.01
571.759	1.99
572.099	2
572.439	2
572.779	2
573.119	2.04
573.459	2.04
573.799	2.03
574.139	2.02
574.479	2.02
574.819	2.02
575.158	2.02
575.498	2
575.838	1.99
576.177	1.94
576.517	1.95
576.856	1.94
577.196	1.95
577.535	1.95
577.875	1.93
578.214	1.93
578.553	1.94
578.893	1.96
579.232	1.99
579.571	2.01
579.91	2.02
580.25	2.03
580.589	2.02
580.928	2.05
581.267	2.04
581.606	2.03
581.945	2.01
582.283	1.98
582.622	1.98
582.961	1.96
583.3	1.99
583.639	2.02
583.977	2.06
584.316	2.05
584.654	2.05
584.993	2.07
585.332	2.11
585.67	2.08
586.008	2.06
586.347	2
586.685	1.98
587.024	1.99
587.362	1.95
587.7	1.95
588.038	1.95
588.376	1.96
588.715	1.96
589.053	1.99
589.391	2.05
589.729	2.06
590.067	2.05
590.404	2.03
590.742	2
591.08	1.96
591.418	1.99
591.756	2.01
592.093	2.01
592.431	2
592.769	2.01
593.106	2.03
593.444	2.05
593.781	2.05
594.119	2.06
594.456	2.07
594.793	2.09
595.131	2.07
595.468	2.1
595.805	2.08
596.143	2.05
596.48	2.02
596.817	2.02
597.154	2.01
597.491	2.04
597.828	2.03
598.165	2.05
598.502	2.03
598.839	2.04
599.176	2.02
599.512	2.02
599.849	2.05
600.186	2.04
600.523	2.08
600.859	2.13
601.196	2.14
601.532	2.15
601.869	2.13
602.205	2.14
602.542	2.12
602.878	2.18
603.215	2.21
603.551	2.2
603.887	2.22
604.223	2.2
604.56	2.2
604.896	2.19
605.232	2.2
605.568	2.21
605.904	2.19
606.24	2.22
606.576	2.19
606.912	2.18
607.248	2.19
607.583	2.17
607.919	2.14
608.255	2.11
608.591	2.09
608.926	2.1
609.262	2.12
609.597	2.15
609.933	2.14
610.268	2.14
610.604	2.14
610.939	2.14
611.275	2.18
611.61	2.17
611.945	2.2
612.281	2.18
612.616	2.2
612.951	2.26
613.286	2.26
613.621	2.26
613.956	2.28
614.291	2.26
614.626	2.25
614.961	2.21
615.296	2.2
615.631	2.21
615.966	2.21
616.3	2.17
616.635	2.11
616.97	2.09
617.304	2.09
617.639	2.13
617.973	2.1
618.308	2.05
618.642	2.07
618.977	2.07
619.311	2.06
619.646	2.07
619.98	1.97
620.314	1.95
620.648	2.01
620.983	2
621.317	2.04
621.651	2.05
621.985	2.07
622.319	2.11
622.653	2.13
622.987	2.16
623.321	2.17
623.655	2.13
623.988	2.19
624.322	2.18
624.656	2.17
624.99	2.18
625.323	2.18
625.657	2.16
625.99	2.17
626.324	2.16
626.657	2.21
626.991	2.25
627.324	2.21
627.658	2.19
627.991	2.17
628.324	2.12
628.657	2.12
628.991	2.14
629.324	2.13
629.657	2.1
629.99	2.09
630.323	2.13
630.656	2.2
630.989	2.16
631.322	2.15
631.655	2.1
631.987	2.11
632.32	2.14
632.653	2.17
632.986	2.19
633.318	2.19
633.651	2.13
633.984	2.14
634.316	2.14
634.649	2.12
634.981	2.13
635.313	2.19
635.646	2.23
635.978	2.24
636.31	2.25
636.643	2.27
636.975	2.24
637.307	2.21
637.639	2.16
637.971	2.14
638.303	2.17
638.635	2.19
638.967	2.19
639.299	2.2
639.631	2.17
639.963	2.12
640.295	2.15
640.626	2.17
640.958	2.21
641.29	2.24
641.621	2.23
641.953	2.2
642.285	2.17
642.616	2.12
642.948	2.11
643.279	2.12
643.61	2.1
643.942	2.08
644.273	2.11
644.604	2.17
644.936	2.15
645.267	2.14
645.598	2.11
645.929	2.17
646.26	2.17
646.591	2.22
646.922	2.23
647.253	2.24
647.584	2.22
647.915	2.16
648.245	2.17
648.576	2.22
648.907	2.25
649.238	2.26
649.568	2.28
649.899	2.31
650.229	2.31
650.56	2.27
650.89	2.28
651.221	2.16
651.551	2.1
651.882	2.13
652.212	2.13
652.542	2.18
652.872	2.05
653.203	2.01
653.533	1.96
653.863	1.97
654.193	1.95
654.523	1.96
654.853	1.98
655.183	1.96
655.513	1.96
655.843	1.95
656.172	1.95
656.502	1.97
656.832	1.94
657.162	1.98
657.491	2.03
657.821	2.05
658.15	2.07
658.48	2.07
658.809	2.03
659.139	2.01
659.468	2
659.798	2.07
660.127	2.11
660.456	2.14
660.785	2.15
661.115	2.17
661.444	2.1
661.773	2.09
662.102	2.08
662.431	2.07
662.76	2.07
663.089	2.05
663.418	1.94
663.747	1.97
664.076	1.9
664.404	1.89
664.733	1.91
665.062	1.96
665.39	2.02
665.719	2.11
666.048	2.13
666.376	2.07
666.705	2.08
667.033	2.05
667.362	2.01
667.69	1.96
668.018	1.96
668.347	2.04
668.675	2.03
669.003	2.07
669.331	2.05
669.659	1.98
669.987	1.98
670.315	2.05
670.643	1.98
670.971	2.01
671.299	2
671.627	1.97
671.955	1.98
672.283	1.99
672.61	1.9
672.938	1.88
673.266	1.95
673.593	1.94
673.921	1.88
674.249	1.88
674.576	1.88
