Data from BA58010_Reflection_00014.txt Node
Date: Mon Nov 18 16:07:21 EST 2019
User: vgr7
Spectrometer: USB2G7710
Scans to average: 3
Trigger mode: 4
Integration Time (sec): 2.000000E-2
Electric dark correction enabled: true
Boxcar width: 10
XAxis mode: Wavelengths
Number of Pixels in Spectrum: 2048
>>>>>Begin Spectral Data<<<<<
177.721	27.92
178.105	161.95
178.488	332.6
178.871	147.49
179.254	-1674.19
179.636	62.46
180.019	52.03
180.402	-1250
180.785	197.42
181.168	146.22
181.55	142.16
181.933	121.44
182.316	137.2
182.698	112.46
183.081	152.95
183.463	152.2
183.846	175.7
184.228	195.7
184.611	150.48
184.993	197.65
185.376	495.03
185.758	990.68
186.14	404.35
186.522	489.33
186.904	297.98
187.287	346.04
187.669	765.94
188.051	439.74
188.433	421.7
188.815	593.17
189.197	955.53
189.579	2892
189.961	-605.78
190.342	-4392.54
190.724	-269.21
191.106	-370.29
191.488	-207.07
191.869	-119.08
192.251	-214.47
192.633	-129.76
193.014	-284.26
193.396	-1109.61
193.777	-2572.13
194.159	4757.14
194.54	1702.41
194.922	-277.46
195.303	-83.35
195.684	-136.79
196.065	-2.43
196.447	17.69
196.828	43.45
197.209	77.5
197.59	34.38
197.971	-84
198.352	-88.91
198.733	-516.61
199.114	-401.43
199.495	-1705.97
199.876	1773.27
200.257	-3260.66
200.638	-951.06
201.018	-1549.68
201.399	-1473.25
201.78	-496.26
202.16	-473.51
202.541	-636.75
202.922	3719.47
203.302	1394.62
203.683	48190.91
204.063	1005.07
204.444	601.53
204.824	572.03
205.204	406.27
205.585	429.52
205.965	791.34
206.345	350.91
206.725	396.86
207.106	322.58
207.486	263.62
207.866	362.12
208.246	294.05
208.626	233.93
209.006	218.1
209.386	245.92
209.766	199.4
210.145	157.6
210.525	170.94
210.905	190.91
211.285	225.31
211.664	283.31
212.044	451.46
212.424	613.2
212.803	1613.09
213.183	-338.79
213.562	-590.25
213.942	-305.34
214.321	-124.51
214.701	-151.34
215.08	-127.76
215.459	-139.65
215.838	-173.15
216.218	-108.25
216.597	-90.34
216.976	-97.64
217.355	-62.6
217.734	-49.83
218.113	-42.5
218.492	-43.69
218.871	-66.84
219.25	-55.73
219.629	-68.34
220.008	-53.03
220.387	-59.72
220.766	-40.12
221.144	-62.37
221.523	-54.71
221.902	-72.33
222.28	-87.51
222.659	-96.94
223.037	-67.86
223.416	-43.66
223.794	-40.92
224.173	-26.13
224.551	-21.13
224.929	-17.88
225.308	-13.21
225.686	-12.73
226.064	-5.9
226.442	3.76
226.821	8.39
227.199	8.52
227.577	8.15
227.955	5.11
228.333	1.49
228.711	3.08
229.089	4.48
229.467	3.18
229.845	4.27
230.222	7.45
230.6	9.91
230.978	5.3
231.356	6.01
231.733	6.61
232.111	6.07
232.488	4.3
232.866	3.56
233.243	3.61
233.621	3.06
233.998	3.66
234.376	3.45
234.753	2.99
235.13	2.58
235.508	3.89
235.885	3.98
236.262	5.25
236.639	4.87
237.016	5.56
237.393	6.51
237.77	6.97
238.147	5.33
238.524	4.2
238.901	5.33
239.278	5.25
239.655	5.3
240.032	5.14
240.409	5.38
240.785	5.51
241.162	5.41
241.539	5.49
241.915	4.9
242.292	4.68
242.668	4.62
243.045	4.47
243.421	4.16
243.798	4.03
244.174	4
244.551	3.89
244.927	3.51
245.303	3.67
245.679	3.69
246.056	3.86
246.432	3.82
246.808	3.85
247.184	3.8
247.56	3.64
247.936	3.47
248.312	3.33
248.688	3.28
249.064	3.09
249.44	3.11
249.815	3.09
250.191	3.01
250.567	3.04
250.943	3.02
251.318	3.13
251.694	3.08
252.069	3.04
252.445	3.23
252.82	3.31
253.196	3.05
253.571	2.99
253.947	3.08
254.322	3.38
254.697	3.22
255.073	2.89
255.448	3.01
255.823	3.01
256.198	3.28
256.573	3.3
256.948	3.38
257.323	3.4
257.698	3.46
258.073	3.43
258.448	3.36
258.823	3.37
259.198	3.25
259.573	3.15
259.948	3.08
260.322	3
260.697	3.04
261.072	2.94
261.446	2.77
261.821	2.68
262.195	2.71
262.57	2.63
262.944	2.67
263.319	2.6
263.693	2.57
264.067	2.47
264.442	2.46
264.816	2.45
265.19	2.32
265.564	2.35
265.938	2.2
266.313	2.08
266.687	2.05
267.061	2.16
267.435	2.12
267.809	2.18
268.183	2.22
268.556	2.29
268.93	2.47
269.304	2.66
269.678	2.83
270.051	2.62
270.425	2.57
270.799	2.52
271.172	2.58
271.546	2.44
271.919	2.38
272.293	2.54
272.666	2.57
273.04	2.55
273.413	2.52
273.787	2.61
274.16	2.68
274.533	2.54
274.906	2.53
275.279	2.63
275.653	2.56
276.026	2.45
276.399	2.3
276.772	2.26
277.145	2.24
277.518	2.22
277.891	2.44
278.263	2.55
278.636	2.58
279.009	2.5
279.382	2.7
279.755	2.78
280.127	2.71
280.5	2.68
280.872	2.81
281.245	2.83
281.617	2.87
281.99	3.07
282.362	3.18
282.735	3.14
283.107	3.13
283.479	3.16
283.852	3.27
284.224	3.42
284.596	3.47
284.968	3.51
285.34	3.58
285.713	3.43
286.085	3.5
286.457	3.62
286.829	3.68
287.201	3.6
287.572	3.48
287.944	3.41
288.316	3.38
288.688	3.33
289.06	3.31
289.431	3.35
289.803	3.24
290.175	3.29
290.546	3.43
290.918	3.55
291.289	3.65
291.661	3.65
292.032	3.64
292.403	3.65
292.775	3.66
293.146	3.53
293.517	3.63
293.889	3.66
294.26	3.53
294.631	3.62
295.002	3.75
295.373	3.9
295.744	3.86
296.115	3.91
296.486	3.83
296.857	3.91
297.228	3.96
297.599	3.95
297.97	3.96
298.34	3.86
298.711	3.75
299.082	3.82
299.452	3.8
299.823	3.92
300.194	3.9
300.564	3.81
300.935	3.93
301.305	3.96
301.676	3.88
302.046	3.88
302.416	3.85
302.787	3.78
303.157	3.83
303.527	3.93
303.897	3.91
304.267	4.03
304.637	3.98
305.008	4.07
305.378	4.19
305.748	4.27
306.117	4.26
306.487	4.35
306.857	4.19
307.227	4.26
307.597	4.2
307.967	4.3
308.336	4.5
308.706	4.51
309.076	4.61
309.445	4.66
309.815	4.81
310.184	4.74
310.554	4.85
310.923	4.84
311.293	4.87
311.662	4.91
312.031	4.97
312.401	4.96
312.77	5.04
313.139	5.12
313.508	5.22
313.877	5.37
314.246	5.51
314.616	5.67
314.985	5.78
315.353	5.81
315.722	5.83
316.091	5.81
316.46	5.84
316.829	5.76
317.198	5.97
317.567	6.15
317.935	6.36
318.304	6.45
318.672	6.62
319.041	6.75
319.41	6.91
319.778	7.01
320.147	7.14
320.515	7.06
320.883	7.09
321.252	7.09
321.62	7.05
321.988	7.11
322.357	7.12
322.725	7.3
323.093	7.4
323.461	7.57
323.829	7.79
324.197	7.89
324.565	8.09
324.933	8.12
325.301	8.08
325.669	8.16
326.037	8.15
326.405	8.14
326.772	8.25
327.14	8.39
327.508	8.52
327.875	8.65
328.243	8.82
328.61	8.88
328.978	8.95
329.346	9.23
329.713	9.29
330.08	9.46
330.448	9.39
330.815	9.5
331.182	9.6
331.55	9.58
331.917	9.56
332.284	9.72
332.651	9.79
333.018	9.88
333.385	9.89
333.752	10.1
334.119	10.3
334.486	10.31
334.853	10.24
335.22	10.31
335.587	10.35
335.954	10.34
336.32	10.39
336.687	10.47
337.054	10.31
337.42	10.45
337.787	10.57
338.153	10.65
338.52	10.7
338.886	10.66
339.253	10.65
339.619	10.78
339.986	10.64
340.352	10.74
340.718	10.78
341.084	10.89
341.451	10.85
341.817	10.78
342.183	10.84
342.549	10.77
342.915	10.75
343.281	10.73
343.647	10.84
344.013	10.97
344.379	10.91
344.745	11.04
345.11	10.98
345.476	10.99
345.842	10.94
346.208	10.97
346.573	11.15
346.939	11.21
347.304	11.14
347.67	11.24
348.035	11.18
348.401	11.2
348.766	11.19
349.132	11.27
349.497	11.24
349.862	11.32
350.228	11.54
350.593	11.59
350.958	11.65
351.323	11.59
351.688	11.55
352.053	11.69
352.418	11.78
352.783	11.78
353.148	11.68
353.513	11.77
353.878	11.73
354.243	11.62
354.608	11.64
354.972	11.75
355.337	11.82
355.702	11.81
356.066	11.81
356.431	11.8
356.795	11.8
357.16	11.8
357.524	11.73
357.889	11.62
358.253	11.56
358.618	11.62
358.982	11.61
359.346	11.54
359.71	11.41
360.075	11.35
360.439	11.36
360.803	11.4
361.167	11.33
361.531	11.35
361.895	11.31
362.259	11.21
362.623	11.18
362.987	11.05
363.351	11.11
363.714	11.04
364.078	10.96
364.442	10.91
364.806	10.88
365.169	10.86
365.533	10.87
365.896	10.87
366.26	10.72
366.623	10.66
366.987	10.66
367.35	10.64
367.714	10.57
368.077	10.47
368.44	10.39
368.803	10.36
369.167	10.19
369.53	10.13
369.893	10.15
370.256	10.01
370.619	10.01
370.982	9.77
371.345	9.75
371.708	9.74
372.071	9.69
372.434	9.56
372.797	9.48
373.159	9.37
373.522	9.34
373.885	9.25
374.247	9.26
374.61	9.18
374.973	9.12
375.335	9.03
375.698	8.94
376.06	8.93
376.423	8.84
376.785	8.87
377.147	8.81
377.51	8.65
377.872	8.62
378.234	8.52
378.596	8.57
378.958	8.47
379.321	8.37
379.683	8.33
380.045	8.31
380.407	8.23
380.769	8.16
381.13	8.05
381.492	7.99
381.854	7.91
382.216	7.85
382.578	7.79
382.939	7.72
383.301	7.71
383.663	7.56
384.024	7.52
384.386	7.45
384.747	7.48
385.109	7.53
385.47	7.48
385.832	7.45
386.193	7.41
386.554	7.35
386.916	7.32
387.277	7.24
387.638	7.22
387.999	7.15
388.36	7.09
388.721	7.04
389.082	7.04
389.443	6.94
389.804	6.85
390.165	6.78
390.526	6.72
390.887	6.69
391.248	6.69
391.609	6.65
391.969	6.6
392.33	6.49
392.691	6.42
393.051	6.37
393.412	6.33
393.772	6.25
394.133	6.21
394.493	6.18
394.854	6.09
395.214	6.04
395.574	5.99
395.935	5.96
396.295	5.89
396.655	5.83
397.015	5.78
397.376	5.77
397.736	5.72
398.096	5.66
398.456	5.6
398.816	5.54
399.176	5.47
399.535	5.4
399.895	5.31
400.255	5.28
400.615	5.23
400.975	5.17
401.334	5.12
401.694	5.1
402.054	5.03
402.413	5.03
402.773	4.98
403.132	4.96
403.492	4.91
403.851	4.89
404.211	4.87
404.57	4.85
404.929	4.8
405.288	4.79
405.648	4.79
406.007	4.76
406.366	4.73
406.725	4.73
407.084	4.73
407.443	4.75
407.802	4.71
408.161	4.65
408.52	4.61
408.879	4.56
409.238	4.53
409.596	4.53
409.955	4.49
410.314	4.46
410.673	4.43
411.031	4.42
411.39	4.39
411.748	4.37
412.107	4.36
412.465	4.34
412.824	4.31
413.182	4.28
413.54	4.24
413.899	4.2
414.257	4.16
414.615	4.14
414.974	4.12
415.332	4.08
415.69	4.06
416.048	4.05
416.406	4.05
416.764	4.02
417.122	3.99
417.48	3.95
417.838	3.95
418.195	3.92
418.553	3.89
418.911	3.85
419.269	3.84
419.626	3.81
419.984	3.77
420.342	3.77
420.699	3.74
421.057	3.74
421.414	3.72
421.772	3.69
422.129	3.66
422.486	3.65
422.844	3.62
423.201	3.6
423.558	3.6
423.915	3.56
424.273	3.55
424.63	3.53
424.987	3.52
425.344	3.5
425.701	3.5
426.058	3.47
426.415	3.46
426.772	3.44
427.128	3.42
427.485	3.42
427.842	3.4
428.199	3.4
428.555	3.38
428.912	3.39
429.269	3.4
429.625	3.39
429.982	3.36
430.338	3.36
430.695	3.34
431.051	3.32
431.407	3.31
431.764	3.3
432.12	3.29
432.476	3.28
432.832	3.28
433.189	3.28
433.545	3.28
433.901	3.3
434.257	3.3
434.613	3.32
434.969	3.31
435.325	3.3
435.681	3.29
436.036	3.27
436.392	3.25
436.748	3.23
437.104	3.23
437.459	3.24
437.815	3.25
438.171	3.27
438.526	3.28
438.882	3.28
439.237	3.28
439.593	3.27
439.948	3.27
440.304	3.26
440.659	3.25
441.014	3.26
441.369	3.23
441.725	3.2
442.08	3.19
442.435	3.19
442.79	3.17
443.145	3.15
443.5	3.15
443.855	3.12
444.21	3.12
444.565	3.1
444.92	3.09
445.275	3.09
445.629	3.08
445.984	3.05
446.339	3.03
446.693	3.03
447.048	3.02
447.403	3
447.757	3
448.112	2.98
448.466	2.97
448.82	2.98
449.175	3
449.529	2.98
449.883	2.96
450.238	2.96
450.592	2.95
450.946	2.93
451.3	2.94
451.654	2.93
452.008	2.93
452.362	2.91
452.716	2.89
453.07	2.89
453.424	2.89
453.778	2.89
454.132	2.87
454.486	2.87
454.839	2.9
455.193	2.89
455.547	2.89
455.9	2.89
456.254	2.89
456.607	2.87
456.961	2.88
457.314	2.89
457.668	2.89
458.021	2.9
458.375	2.92
458.728	2.93
459.081	2.92
459.434	2.92
459.787	2.94
460.141	2.95
460.494	2.95
460.847	2.97
461.2	2.98
461.553	3.01
461.906	3.01
462.259	3.01
462.611	3.01
462.964	3.05
463.317	3.06
463.67	3.07
464.022	3.1
464.375	3.09
464.728	3.11
465.08	3.11
465.433	3.12
465.785	3.13
466.138	3.13
466.49	3.15
466.843	3.17
467.195	3.17
467.547	3.2
467.899	3.21
468.252	3.2
468.604	3.19
468.956	3.19
469.308	3.21
469.66	3.2
470.012	3.22
470.364	3.22
470.716	3.23
471.068	3.23
471.42	3.22
471.772	3.24
472.123	3.24
472.475	3.27
472.827	3.27
473.178	3.27
473.53	3.27
473.882	3.25
474.233	3.26
474.585	3.24
474.936	3.24
475.288	3.22
475.639	3.23
475.99	3.23
476.342	3.22
476.693	3.21
477.044	3.22
477.395	3.21
477.746	3.19
478.097	3.2
478.448	3.2
478.8	3.19
479.15	3.17
479.501	3.18
479.852	3.16
480.203	3.16
480.554	3.17
480.905	3.17
481.255	3.17
481.606	3.17
481.957	3.17
482.307	3.16
482.658	3.17
483.009	3.17
483.359	3.19
483.709	3.2
484.06	3.2
484.41	3.2
484.761	3.2
485.111	3.2
485.461	3.2
485.811	3.2
486.162	3.21
486.512	3.22
486.862	3.22
487.212	3.23
487.562	3.25
487.912	3.25
488.262	3.26
488.612	3.27
488.961	3.29
489.311	3.3
489.661	3.32
490.011	3.33
490.36	3.34
490.71	3.35
491.06	3.36
491.409	3.38
491.759	3.4
492.108	3.42
492.458	3.44
492.807	3.46
493.157	3.47
493.506	3.49
493.855	3.51
494.204	3.54
494.554	3.55
494.903	3.57
495.252	3.6
495.601	3.63
495.95	3.67
496.299	3.69
496.648	3.71
496.997	3.76
497.346	3.8
497.695	3.84
498.043	3.86
498.392	3.89
498.741	3.93
499.09	3.94
499.438	3.97
499.787	4.02
500.135	4.07
500.484	4.12
500.832	4.16
501.181	4.22
501.529	4.27
501.878	4.33
502.226	4.4
502.574	4.44
502.923	4.47
503.271	4.51
503.619	4.59
503.967	4.64
504.315	4.68
504.663	4.74
505.011	4.8
505.359	4.87
505.707	4.93
506.055	4.96
506.403	5.04
506.751	5.09
507.098	5.15
507.446	5.22
507.794	5.27
508.141	5.35
508.489	5.41
508.837	5.46
509.184	5.53
509.531	5.6
509.879	5.67
510.226	5.76
510.574	5.84
510.921	5.89
511.268	5.98
511.616	6.05
511.963	6.13
512.31	6.2
512.657	6.27
513.004	6.36
513.351	6.48
513.698	6.58
514.045	6.69
514.392	6.78
514.739	6.86
515.086	6.99
515.432	7.08
515.779	7.19
516.126	7.3
516.473	7.4
516.819	7.5
517.166	7.6
517.512	7.69
517.859	7.78
518.205	7.87
518.552	7.98
518.898	8.07
519.245	8.16
519.591	8.26
519.937	8.35
520.283	8.45
520.629	8.55
520.976	8.66
521.322	8.79
521.668	8.93
522.014	9.08
522.36	9.24
522.706	9.41
523.052	9.56
523.398	9.76
523.743	9.95
524.089	10.12
524.435	10.32
524.781	10.51
525.126	10.68
525.472	10.84
525.817	10.97
526.163	11.11
526.509	11.23
526.854	11.37
527.199	11.51
527.545	11.61
527.89	11.74
528.235	11.87
528.581	11.99
528.926	12.12
529.271	12.27
529.616	12.38
529.961	12.52
530.306	12.66
530.651	12.8
530.996	12.96
531.341	13.13
531.686	13.3
532.031	13.46
532.376	13.66
532.721	13.85
533.065	14.05
533.41	14.26
533.755	14.48
534.099	14.7
534.444	14.93
534.788	15.18
535.133	15.41
535.477	15.65
535.822	15.9
536.166	16.16
536.51	16.44
536.855	16.75
537.199	17.05
537.543	17.36
537.887	17.69
538.231	18.01
538.576	18.34
538.92	18.67
539.264	19
539.608	19.29
539.951	19.56
540.295	19.85
540.639	20.12
540.983	20.4
541.327	20.64
541.671	20.91
542.014	21.15
542.358	21.41
542.701	21.66
543.045	21.91
543.389	22.16
543.732	22.4
544.075	22.65
544.419	22.93
544.762	23.22
545.105	23.5
545.449	23.81
545.792	24.14
546.135	24.46
546.478	24.78
546.821	25.13
547.165	25.48
547.508	25.85
547.851	26.18
548.194	26.52
548.536	26.87
548.879	27.24
549.222	27.61
549.565	27.97
549.908	28.35
550.25	28.75
550.593	29.16
550.936	29.57
551.278	29.97
551.621	30.34
551.963	30.74
552.306	31.14
552.648	31.55
552.991	31.91
553.333	32.25
553.675	32.62
554.017	32.95
554.36	33.31
554.702	33.62
555.044	33.99
555.386	34.33
555.728	34.71
556.07	35.04
556.412	35.37
556.754	35.69
557.096	36.01
557.438	36.28
557.78	36.59
558.121	36.88
558.463	37.19
558.805	37.48
559.147	37.78
559.488	38.05
559.83	38.31
560.171	38.63
560.513	38.89
560.854	39.15
561.196	39.49
561.537	39.76
561.878	40.07
562.22	40.31
562.561	40.55
562.902	40.8
563.243	41.06
563.584	41.28
563.925	41.49
564.266	41.72
564.607	41.98
564.948	42.22
565.289	42.46
565.63	42.64
565.971	42.84
566.312	43.09
566.653	43.34
566.993	43.53
567.334	43.67
567.675	43.94
568.015	44.17
568.356	44.35
568.696	44.62
569.037	44.84
569.377	45.05
569.718	45.24
570.058	45.43
570.398	45.57
570.739	45.79
571.079	46.01
571.419	46.19
571.759	46.4
572.099	46.56
572.439	46.75
572.779	46.97
573.119	47.15
573.459	47.28
573.799	47.42
574.139	47.57
574.479	47.73
574.819	47.85
575.158	47.99
575.498	48.09
575.838	48.16
576.177	48.3
576.517	48.43
576.856	48.6
577.196	48.72
577.535	48.97
577.875	49.09
578.214	49.3
578.553	49.46
578.893	49.54
579.232	49.67
579.571	49.88
579.91	50.05
580.25	50.23
580.589	50.29
580.928	50.45
581.267	50.64
581.606	50.76
581.945	50.92
582.283	51.02
582.622	51.22
582.961	51.37
583.3	51.48
583.639	51.58
583.977	51.72
584.316	51.87
584.654	51.95
584.993	52.09
585.332	52.16
585.67	52.25
586.008	52.46
586.347	52.62
586.685	52.62
587.024	52.64
587.362	52.76
587.7	52.91
588.038	53.01
588.376	53.02
588.715	53.07
589.053	53.14
589.391	53.15
589.729	53.21
590.067	53.27
590.404	53.35
590.742	53.55
591.08	53.58
591.418	53.7
591.756	53.73
592.093	53.76
592.431	53.84
592.769	53.93
593.106	53.91
593.444	53.9
593.781	53.95
594.119	54
594.456	54
594.793	54.08
595.131	54.06
595.468	54.14
595.805	54.31
596.143	54.36
596.48	54.44
596.817	54.42
597.154	54.4
597.491	54.38
597.828	54.31
598.165	54.38
598.502	54.38
598.839	54.43
599.176	54.49
599.512	54.49
599.849	54.56
600.186	54.63
600.523	54.67
600.859	54.74
601.196	54.87
601.532	54.92
601.869	54.91
602.205	55.04
602.542	54.97
602.878	54.93
603.215	54.97
603.551	54.97
603.887	55.06
604.223	55.18
604.56	55.21
604.896	55.28
605.232	55.31
605.568	55.36
605.904	55.37
606.24	55.39
606.576	55.46
606.912	55.51
607.248	55.55
607.583	55.54
607.919	55.54
608.255	55.58
608.591	55.63
608.926	55.68
609.262	55.65
609.597	55.87
609.933	55.95
610.268	55.94
610.604	56.05
610.939	56.08
611.275	56.11
611.61	56.13
611.945	56.15
612.281	56.19
612.616	56.29
612.951	56.39
613.286	56.36
613.621	56.37
613.956	56.42
614.291	56.46
614.626	56.63
614.961	56.74
615.296	56.77
615.631	56.76
615.966	56.81
616.3	56.81
616.635	56.85
616.97	56.97
617.304	57
617.639	57.04
617.973	57.04
618.308	57.05
618.642	57.14
618.977	57.18
619.311	57.16
619.646	57.1
619.98	57.11
620.314	57.3
620.648	57.33
620.983	57.29
621.317	57.33
621.651	57.33
621.985	57.43
622.319	57.32
622.653	57.43
622.987	57.42
623.321	57.51
623.655	57.33
623.988	57.32
624.322	57.36
624.656	57.36
624.99	57.4
625.323	57.36
625.657	57.36
625.99	57.47
626.324	57.51
626.657	57.52
626.991	57.59
627.324	57.53
627.658	57.61
627.991	57.66
628.324	57.6
628.657	57.59
628.991	57.57
629.324	57.67
629.657	57.59
629.99	57.67
630.323	57.69
630.656	57.78
630.989	57.75
631.322	57.8
631.655	57.87
631.987	57.96
632.32	58
632.653	58.01
632.986	57.97
633.318	57.98
633.651	57.98
633.984	57.89
634.316	57.93
634.649	57.95
634.981	57.97
635.313	58.03
635.646	58.1
635.978	58.09
636.31	58.08
636.643	58.21
636.975	58.27
637.307	58.26
637.639	58.31
637.971	58.39
638.303	58.41
638.635	58.43
638.967	58.39
639.299	58.53
639.631	58.53
639.963	58.49
640.295	58.45
640.626	58.55
640.958	58.7
641.29	58.78
641.621	58.76
641.953	58.78
642.285	58.82
642.616	58.8
642.948	58.79
643.279	58.79
643.61	58.74
643.942	58.62
644.273	58.65
644.604	58.67
644.936	58.52
645.267	58.39
645.598	58.33
645.929	58.37
646.26	58.32
646.591	58.4
646.922	58.41
647.253	58.54
647.584	58.53
647.915	58.48
648.245	58.4
648.576	58.41
648.907	58.32
649.238	58.21
649.568	58.22
649.899	58.26
650.229	58.26
650.56	58.25
650.89	58.27
651.221	58.22
651.551	58.26
651.882	58.17
652.212	58.22
652.542	58.24
652.872	58.13
653.203	58.03
653.533	58.04
653.863	58.03
654.193	58.02
654.523	58.06
654.853	58.04
655.183	58.04
655.513	57.98
655.843	57.99
656.172	58.16
656.502	58.16
656.832	58.04
657.162	57.98
657.491	58.11
657.821	58.15
658.15	58.14
658.48	58.14
658.809	58.26
659.139	58.32
659.468	58.32
659.798	58.49
660.127	58.6
660.456	58.66
660.785	58.68
661.115	58.67
661.444	58.6
661.773	58.62
662.102	58.69
662.431	58.77
662.76	58.85
663.089	58.83
663.418	58.84
663.747	58.98
664.076	59.08
664.404	58.96
