Data from BA58010_Reflection_00005.txt Node
Date: Mon Nov 18 16:06:52 EST 2019
User: vgr7
Spectrometer: USB2G7710
Scans to average: 3
Trigger mode: 4
Integration Time (sec): 2.000000E-2
Electric dark correction enabled: true
Boxcar width: 10
XAxis mode: Wavelengths
Number of Pixels in Spectrum: 2048
>>>>>Begin Spectral Data<<<<<
177.721	-375.75
178.105	418.58
178.488	644.99
178.871	393.3
179.254	-2706.45
179.636	33.45
180.019	-243.17
180.402	-1350
180.785	177.53
181.168	-26.05
181.55	-56.83
181.933	54.05
182.316	93.44
182.698	78.78
183.081	111.82
183.463	98.48
183.846	101.71
184.228	150.04
184.611	155.59
184.993	318.79
185.376	621.44
185.758	1170.74
186.14	406.37
186.522	512.03
186.904	329.99
187.287	347.71
187.669	640.13
188.051	398.92
188.433	351.91
188.815	477.85
189.197	865.24
189.579	3532
189.961	-829.95
190.342	-6661.19
190.724	-564.58
191.106	-750.59
191.488	-455.95
191.869	-372.92
192.251	-549.62
192.633	-312.77
193.014	-614.94
193.396	-2402.18
193.777	-8014.75
194.159	14585.71
194.54	5846.99
194.922	-839.18
195.303	-344.36
195.684	-892.17
196.065	-313.41
196.447	-263.58
196.828	-306.66
197.209	-329.34
197.59	-296.67
197.971	1948
198.352	-362.74
198.733	-561.34
199.114	-389.97
199.495	-1288.06
199.876	1377.23
200.257	-3293.44
200.638	-882.98
201.018	-989.17
201.399	-912.74
201.78	-387.85
202.16	-311.95
202.541	-399.09
202.922	2303.54
203.302	856.37
203.683	29827.27
204.063	595.91
204.444	365.51
204.824	303.14
205.204	226.2
205.585	283.97
205.965	605.51
206.345	339.21
206.725	430.94
207.106	351.14
207.486	308.57
207.866	472.23
208.246	313.89
208.626	288.99
209.006	322.55
209.386	318.03
209.766	214.06
210.145	179.26
210.525	198.96
210.905	286.4
211.285	371.37
211.664	619.6
212.044	921.36
212.424	1322.87
212.803	2785.86
213.183	-663.41
213.562	-823.52
213.942	-498.48
214.321	-179.11
214.701	-141.79
215.08	-140.38
215.459	-106.95
215.838	-111.42
216.218	-62.32
216.597	-29.4
216.976	-18.58
217.355	-25.21
217.734	-33.04
218.113	-32.93
218.492	-17.25
218.871	-21.91
219.25	-11.71
219.629	5.67
220.008	3.52
220.387	-4.88
220.766	1.34
221.144	-23.76
221.523	-37.26
221.902	-43.64
222.28	-59.05
222.659	-85.61
223.037	-70.71
223.416	-63.09
223.794	-61.08
224.173	-59.91
224.551	-48.3
224.929	-39.53
225.308	-26.46
225.686	-23.12
226.064	-21.21
226.442	-19.54
226.821	-15.47
227.199	-19.95
227.577	-22.98
227.955	-20.1
228.333	-20.39
228.711	-17.85
229.089	-13.24
229.467	-14.11
229.845	-12.83
230.222	-9.27
230.6	-6.79
230.978	-5.45
231.356	-2.96
231.733	-1.23
232.111	1.24
232.488	-1.3
232.866	-1.49
233.243	-2.71
233.621	-3.28
233.998	-1.39
234.376	-2.23
234.753	-2.24
235.13	-2.62
235.508	-0.64
235.885	-1.55
236.262	-1.11
236.639	-1.8
237.016	-1.73
237.393	0.58
237.77	0.07
238.147	0.44
238.524	0.41
238.901	1.22
239.278	1.23
239.655	1.72
240.032	0.68
240.409	0.85
240.785	1.04
241.162	1.49
241.539	2.25
241.915	2.26
242.292	2.13
242.668	2.37
243.045	3.11
243.421	2.9
243.798	2.99
244.174	3.15
244.551	3.29
244.927	3.61
245.303	3.61
245.679	3.89
246.056	3.74
246.432	3.6
246.808	3.5
247.184	3.18
247.56	2.92
247.936	3.18
248.312	3.07
248.688	3.12
249.064	3.02
249.44	2.94
249.815	2.85
250.191	2.94
250.567	2.79
250.943	2.77
251.318	2.99
251.694	3.12
252.069	3.01
252.445	2.99
252.82	2.75
253.196	2.34
253.571	1.87
253.947	2.1
254.322	2.43
254.697	2.12
255.073	2.24
255.448	2.51
255.823	2.57
256.198	2.98
256.573	2.98
256.948	3.11
257.323	3.01
257.698	3.04
258.073	3.1
258.448	3.06
258.823	3.14
259.198	2.94
259.573	3.08
259.948	3.05
260.322	2.98
260.697	2.84
261.072	2.93
261.446	3.11
261.821	3.02
262.195	2.95
262.57	3.11
262.944	3.27
263.319	3.32
263.693	3.3
264.067	3.27
264.442	3.3
264.816	3.32
265.19	3.36
265.564	3.34
265.938	3.29
266.313	3.33
266.687	3.18
267.061	3.35
267.435	3.14
267.809	3.32
268.183	3.29
268.556	3.56
268.93	3.57
269.304	3.59
269.678	3.71
270.051	3.78
270.425	3.77
270.799	3.57
271.172	3.46
271.546	3.46
271.919	3.42
272.293	3.5
272.666	3.49
273.04	3.57
273.413	3.63
273.787	3.67
274.16	3.7
274.533	3.74
274.906	3.68
275.279	3.78
275.653	3.83
276.026	3.88
276.399	3.74
276.772	3.9
277.145	3.87
277.518	3.73
277.891	3.66
278.263	3.52
278.636	3.69
279.009	3.68
279.382	3.84
279.755	3.82
280.127	3.83
280.5	3.91
280.872	3.99
281.245	4.04
281.617	4.13
281.99	4.13
282.362	4.22
282.735	4.14
283.107	4.11
283.479	4.01
283.852	4.08
284.224	4.16
284.596	4.09
284.968	4.17
285.34	4.23
285.713	4.14
286.085	4.28
286.457	4.39
286.829	4.36
287.201	4.19
287.572	4.22
287.944	4.14
288.316	4.17
288.688	3.98
289.06	3.87
289.431	3.76
289.803	3.77
290.175	3.69
290.546	3.82
290.918	3.77
291.289	3.85
291.661	3.94
292.032	3.96
292.403	3.9
292.775	3.95
293.146	3.92
293.517	3.99
293.889	4.02
294.26	4.07
294.631	4.19
295.002	4.17
295.373	4.13
295.744	4.07
296.115	3.9
296.486	3.89
296.857	4.01
297.228	4.12
297.599	4.05
297.97	4.07
298.34	4.05
298.711	4.02
299.082	4.04
299.452	3.98
299.823	3.92
300.194	4
300.564	3.98
300.935	4.02
301.305	3.95
301.676	3.9
302.046	3.82
302.416	3.82
302.787	3.81
303.157	3.76
303.527	3.76
303.897	3.85
304.267	3.98
304.637	3.82
305.008	3.8
305.378	4.02
305.748	3.96
306.117	3.94
306.487	4
306.857	3.92
307.227	3.87
307.597	3.85
307.967	3.77
308.336	3.63
308.706	3.63
309.076	3.74
309.445	3.75
309.815	3.63
310.184	3.48
310.554	3.54
310.923	3.6
311.293	3.66
311.662	3.6
312.031	3.61
312.401	3.73
312.77	3.66
313.139	3.56
313.508	3.56
313.877	3.52
314.246	3.53
314.616	3.54
314.985	3.57
315.353	3.56
315.722	3.61
316.091	3.66
316.46	3.55
316.829	3.47
317.198	3.44
317.567	3.51
317.935	3.45
318.304	3.41
318.672	3.46
319.041	3.44
319.41	3.36
319.778	3.3
320.147	3.15
320.515	3.1
320.883	3.04
321.252	3.1
321.62	3.06
321.988	3
322.357	2.99
322.725	2.93
323.093	3
323.461	2.89
323.829	2.76
324.197	2.82
324.565	2.93
324.933	3
325.301	3.02
325.669	3.11
326.037	3.17
326.405	3.2
326.772	3.23
327.14	3.39
327.508	3.33
327.875	3.36
328.243	3.52
328.61	3.52
328.978	3.64
329.346	3.73
329.713	3.71
330.08	3.6
330.448	3.51
330.815	3.45
331.182	3.56
331.55	3.68
331.917	3.66
332.284	3.67
332.651	3.53
333.018	3.52
333.385	3.53
333.752	3.57
334.119	3.47
334.486	3.37
334.853	3.26
335.22	3.26
335.587	3.29
335.954	3.15
336.32	3.06
336.687	2.95
337.054	2.97
337.42	3.02
337.787	3.11
338.153	3.16
338.52	3.21
338.886	3.11
339.253	3.11
339.619	3.14
339.986	3.21
340.352	3.29
340.718	3.17
341.084	3.19
341.451	3.15
341.817	3.16
342.183	3.18
342.549	3.17
342.915	3.2
343.281	3.24
343.647	3.12
344.013	3.24
344.379	3.22
344.745	3.22
345.11	3.27
345.476	3.28
345.842	3.27
346.208	3.31
346.573	3.41
346.939	3.5
347.304	3.4
347.67	3.24
348.035	3.18
348.401	3.28
348.766	3.27
349.132	3.19
349.497	3.15
349.862	3.28
350.228	3.36
350.593	3.36
350.958	3.28
351.323	3.41
351.688	3.35
352.053	3.46
352.418	3.37
352.783	3.35
353.148	3.38
353.513	3.43
353.878	3.38
354.243	3.42
354.608	3.37
354.972	3.45
355.337	3.55
355.702	3.66
356.066	3.67
356.431	3.64
356.795	3.7
357.16	3.71
357.524	3.6
357.889	3.6
358.253	3.61
358.618	3.67
358.982	3.67
359.346	3.72
359.71	3.62
360.075	3.64
360.439	3.6
360.803	3.6
361.167	3.6
361.531	3.59
361.895	3.54
362.259	3.51
362.623	3.55
362.987	3.51
363.351	3.43
363.714	3.41
364.078	3.43
364.442	3.43
364.806	3.41
365.169	3.44
365.533	3.43
365.896	3.41
366.26	3.39
366.623	3.44
366.987	3.39
367.35	3.42
367.714	3.49
368.077	3.44
368.44	3.45
368.803	3.47
369.167	3.44
369.53	3.42
369.893	3.44
370.256	3.38
370.619	3.38
370.982	3.37
371.345	3.4
371.708	3.44
372.071	3.41
372.434	3.42
372.797	3.42
373.159	3.4
373.522	3.47
373.885	3.53
374.247	3.48
374.61	3.49
374.973	3.46
375.335	3.38
375.698	3.44
376.06	3.4
376.423	3.43
376.785	3.5
377.147	3.55
377.51	3.57
377.872	3.58
378.234	3.61
378.596	3.61
378.958	3.58
379.321	3.56
379.683	3.62
380.045	3.66
380.407	3.65
380.769	3.61
381.13	3.61
381.492	3.58
381.854	3.57
382.216	3.57
382.578	3.6
382.939	3.58
383.301	3.63
383.663	3.6
384.024	3.53
384.386	3.47
384.747	3.47
385.109	3.45
385.47	3.45
385.832	3.45
386.193	3.49
386.554	3.5
386.916	3.46
387.277	3.46
387.638	3.43
387.999	3.4
388.36	3.48
388.721	3.49
389.082	3.5
389.443	3.5
389.804	3.52
390.165	3.54
390.526	3.53
390.887	3.52
391.248	3.57
391.609	3.57
391.969	3.61
392.33	3.59
392.691	3.57
393.051	3.58
393.412	3.59
393.772	3.54
394.133	3.54
394.493	3.58
394.854	3.55
395.214	3.57
395.574	3.6
395.935	3.55
396.295	3.53
396.655	3.49
397.015	3.5
397.376	3.49
397.736	3.47
398.096	3.5
398.456	3.46
398.816	3.44
399.176	3.46
399.535	3.43
399.895	3.44
400.255	3.44
400.615	3.45
400.975	3.45
401.334	3.46
401.694	3.44
402.054	3.43
402.413	3.44
402.773	3.41
403.132	3.42
403.492	3.45
403.851	3.44
404.211	3.45
404.57	3.44
404.929	3.43
405.288	3.43
405.648	3.45
406.007	3.46
406.366	3.46
406.725	3.49
407.084	3.5
407.443	3.5
407.802	3.54
408.161	3.54
408.52	3.51
408.879	3.53
409.238	3.56
409.596	3.57
409.955	3.56
410.314	3.6
410.673	3.58
411.031	3.55
411.39	3.56
411.748	3.58
412.107	3.6
412.465	3.61
412.824	3.63
413.182	3.64
413.54	3.65
413.899	3.66
414.257	3.64
414.615	3.62
414.974	3.62
415.332	3.59
415.69	3.57
416.048	3.56
416.406	3.53
416.764	3.51
417.122	3.52
417.48	3.5
417.838	3.49
418.195	3.48
418.553	3.49
418.911	3.48
419.269	3.48
419.626	3.47
419.984	3.47
420.342	3.46
420.699	3.46
421.057	3.44
421.414	3.43
421.772	3.43
422.129	3.44
422.486	3.44
422.844	3.45
423.201	3.44
423.558	3.46
423.915	3.48
424.273	3.49
424.63	3.47
424.987	3.47
425.344	3.47
425.701	3.48
426.058	3.48
426.415	3.47
426.772	3.45
427.128	3.44
427.485	3.44
427.842	3.44
428.199	3.43
428.555	3.45
428.912	3.47
429.269	3.48
429.625	3.49
429.982	3.47
430.338	3.48
430.695	3.51
431.051	3.5
431.407	3.49
431.764	3.48
432.12	3.48
432.476	3.48
432.832	3.46
433.189	3.46
433.545	3.44
433.901	3.45
434.257	3.46
434.613	3.47
434.969	3.48
435.325	3.48
435.681	3.48
436.036	3.48
436.392	3.47
436.748	3.44
437.104	3.42
437.459	3.43
437.815	3.44
438.171	3.42
438.526	3.44
438.882	3.46
439.237	3.48
439.593	3.5
439.948	3.51
440.304	3.52
440.659	3.52
441.014	3.52
441.369	3.51
441.725	3.5
442.08	3.49
442.435	3.49
442.79	3.49
443.145	3.5
443.5	3.51
443.855	3.52
444.21	3.52
444.565	3.54
444.92	3.52
445.275	3.49
445.629	3.49
445.984	3.47
446.339	3.46
446.693	3.44
447.048	3.41
447.403	3.39
447.757	3.38
448.112	3.38
448.466	3.38
448.82	3.39
449.175	3.4
449.529	3.4
449.883	3.37
450.238	3.37
450.592	3.36
450.946	3.34
451.3	3.32
451.654	3.33
452.008	3.33
452.362	3.33
452.716	3.36
453.07	3.36
453.424	3.37
453.778	3.37
454.132	3.38
454.486	3.37
454.839	3.39
455.193	3.4
455.547	3.39
455.9	3.4
456.254	3.41
456.607	3.42
456.961	3.43
457.314	3.45
457.668	3.46
458.021	3.45
458.375	3.46
458.728	3.47
459.081	3.45
459.434	3.45
459.787	3.44
460.141	3.43
460.494	3.43
460.847	3.42
461.2	3.41
461.553	3.41
461.906	3.42
462.259	3.42
462.611	3.42
462.964	3.43
463.317	3.42
463.67	3.41
464.022	3.4
464.375	3.39
464.728	3.39
465.08	3.4
465.433	3.41
465.785	3.39
466.138	3.38
466.49	3.4
466.843	3.4
467.195	3.4
467.547	3.41
467.899	3.41
468.252	3.41
468.604	3.43
468.956	3.42
469.308	3.43
469.66	3.43
470.012	3.45
470.364	3.45
470.716	3.46
471.068	3.47
471.42	3.46
471.772	3.48
472.123	3.48
472.475	3.49
472.827	3.47
473.178	3.48
473.53	3.48
473.882	3.49
474.233	3.5
474.585	3.5
474.936	3.49
475.288	3.51
475.639	3.51
475.99	3.49
476.342	3.48
476.693	3.47
477.044	3.49
477.395	3.49
477.746	3.49
478.097	3.49
478.448	3.49
478.8	3.48
479.15	3.47
479.501	3.47
479.852	3.47
480.203	3.48
480.554	3.48
480.905	3.49
481.255	3.48
481.606	3.49
481.957	3.5
482.307	3.51
482.658	3.51
483.009	3.51
483.359	3.52
483.709	3.53
484.06	3.54
484.41	3.54
484.761	3.54
485.111	3.55
485.461	3.56
485.811	3.56
486.162	3.57
486.512	3.57
486.862	3.58
487.212	3.57
487.562	3.58
487.912	3.59
488.262	3.59
488.612	3.6
488.961	3.6
489.311	3.59
489.661	3.59
490.011	3.58
490.36	3.59
490.71	3.59
491.06	3.6
491.409	3.6
491.759	3.59
492.108	3.59
492.458	3.59
492.807	3.57
493.157	3.58
493.506	3.59
493.855	3.59
494.204	3.57
494.554	3.58
494.903	3.57
495.252	3.57
495.601	3.58
495.95	3.58
496.299	3.59
496.648	3.59
496.997	3.6
497.346	3.61
497.695	3.6
498.043	3.61
498.392	3.61
498.741	3.6
499.09	3.6
499.438	3.6
499.787	3.6
500.135	3.61
500.484	3.59
500.832	3.58
501.181	3.6
501.529	3.61
501.878	3.63
502.226	3.66
502.574	3.66
502.923	3.65
503.271	3.62
503.619	3.64
503.967	3.63
504.315	3.62
504.663	3.63
505.011	3.63
505.359	3.64
505.707	3.65
506.055	3.67
506.403	3.68
506.751	3.69
507.098	3.68
507.446	3.7
507.794	3.71
508.141	3.72
508.489	3.7
508.837	3.7
509.184	3.7
509.531	3.69
509.879	3.72
510.226	3.74
510.574	3.77
510.921	3.76
511.268	3.77
511.616	3.79
511.963	3.78
512.31	3.79
512.657	3.79
513.004	3.79
513.351	3.79
513.698	3.79
514.045	3.78
514.392	3.81
514.739	3.81
515.086	3.81
515.432	3.8
515.779	3.81
516.126	3.82
516.473	3.81
516.819	3.82
517.166	3.81
517.512	3.78
517.859	3.78
518.205	3.78
518.552	3.79
518.898	3.78
519.245	3.78
519.591	3.78
519.937	3.75
520.283	3.76
520.629	3.76
520.976	3.77
521.322	3.79
521.668	3.8
522.014	3.81
522.36	3.81
522.706	3.84
523.052	3.85
523.398	3.86
523.743	3.87
524.089	3.87
524.435	3.87
524.781	3.9
525.126	3.91
525.472	3.93
525.817	3.94
526.163	3.94
526.509	3.95
526.854	3.96
527.199	3.98
527.545	3.99
527.89	4
528.235	4
528.581	3.99
528.926	3.98
529.271	3.98
529.616	3.98
529.961	3.97
530.306	3.97
530.651	3.97
530.996	3.98
531.341	3.97
531.686	3.98
532.031	3.97
532.376	3.97
532.721	3.97
533.065	3.96
533.41	3.98
533.755	3.98
534.099	3.98
534.444	3.98
534.788	3.99
535.133	3.99
535.477	4
535.822	4.01
536.166	4.01
536.51	4.01
536.855	4.02
537.199	4.02
537.543	4.02
537.887	4.03
538.231	4.02
538.576	4.02
538.92	4.02
539.264	4.03
539.608	4.04
539.951	4.03
540.295	4.03
540.639	4.02
540.983	4.02
541.327	4.01
541.671	4.01
542.014	4
542.358	3.99
542.701	3.99
543.045	3.99
543.389	3.99
543.732	3.99
544.075	3.98
544.419	3.99
544.762	4
545.105	4
545.449	4.01
545.792	4.01
546.135	4.02
546.478	4.02
546.821	4
547.165	4
547.508	4.01
547.851	3.99
548.194	3.99
548.536	3.97
548.879	3.98
549.222	3.99
549.565	3.99
549.908	4
550.25	4.02
550.593	4.01
550.936	4.03
551.278	4.06
551.621	4.06
551.963	4.07
552.306	4.07
552.648	4.09
552.991	4.14
553.333	4.12
553.675	4.12
554.017	4.15
554.36	4.15
554.702	4.18
555.044	4.2
555.386	4.23
555.728	4.28
556.07	4.28
556.412	4.23
556.754	4.23
557.096	4.22
557.438	4.19
557.78	4.18
558.121	4.17
558.463	4.15
558.805	4.17
559.147	4.15
559.488	4.14
559.83	4.15
560.171	4.12
560.513	4.15
560.854	4.12
561.196	4.08
561.537	4.12
561.878	4.08
562.22	4.07
562.561	4.05
562.902	4.03
563.243	4.03
563.584	4.06
563.925	4.08
564.266	4.08
564.607	4.09
564.948	4.1
565.289	4.1
565.63	4.11
565.971	4.08
566.312	4.11
566.653	4.13
566.993	4.13
567.334	4.11
567.675	4.09
568.015	4.12
568.356	4.11
568.696	4.1
569.037	4.15
569.377	4.17
569.718	4.16
570.058	4.17
570.398	4.17
570.739	4.16
571.079	4.15
571.419	4.16
571.759	4.19
572.099	4.17
572.439	4.17
572.779	4.17
573.119	4.22
573.459	4.19
573.799	4.19
574.139	4.2
574.479	4.19
574.819	4.19
575.158	4.2
575.498	4.21
575.838	4.24
576.177	4.19
576.517	4.19
576.856	4.2
577.196	4.17
577.535	4.17
577.875	4.18
578.214	4.17
578.553	4.2
578.893	4.18
579.232	4.2
579.571	4.2
579.91	4.18
580.25	4.13
580.589	4.15
580.928	4.13
581.267	4.12
581.606	4.14
581.945	4.12
582.283	4.1
582.622	4.11
582.961	4.1
583.3	4.11
583.639	4.11
583.977	4.12
584.316	4.12
584.654	4.12
584.993	4.13
585.332	4.14
585.67	4.14
586.008	4.12
586.347	4.1
586.685	4.11
587.024	4.09
587.362	4.07
587.7	4.08
588.038	4.14
588.376	4.16
588.715	4.16
589.053	4.19
589.391	4.21
589.729	4.22
590.067	4.2
590.404	4.21
590.742	4.21
591.08	4.2
591.418	4.25
591.756	4.28
592.093	4.3
592.431	4.33
592.769	4.31
593.106	4.35
593.444	4.35
593.781	4.32
594.119	4.36
594.456	4.39
594.793	4.39
595.131	4.33
595.468	4.3
595.805	4.29
596.143	4.3
596.48	4.29
596.817	4.29
597.154	4.28
597.491	4.28
597.828	4.29
598.165	4.32
598.502	4.27
598.839	4.22
599.176	4.2
599.512	4.18
599.849	4.2
600.186	4.2
600.523	4.22
600.859	4.25
601.196	4.25
601.532	4.24
601.869	4.22
602.205	4.22
602.542	4.25
602.878	4.26
603.215	4.24
603.551	4.23
603.887	4.22
604.223	4.24
604.56	4.24
604.896	4.26
605.232	4.23
605.568	4.25
605.904	4.24
606.24	4.29
606.576	4.28
606.912	4.26
607.248	4.21
607.583	4.23
607.919	4.24
608.255	4.24
608.591	4.25
608.926	4.25
609.262	4.27
609.597	4.27
609.933	4.28
610.268	4.31
610.604	4.32
610.939	4.32
611.275	4.26
611.61	4.26
611.945	4.23
612.281	4.2
612.616	4.19
612.951	4.24
613.286	4.18
613.621	4.16
613.956	4.15
614.291	4.23
614.626	4.22
614.961	4.16
615.296	4.13
615.631	4.12
615.966	4.13
616.3	4.12
616.635	4.08
616.97	4.06
617.304	4.03
617.639	4.03
617.973	4.07
618.308	4.13
618.642	4.13
618.977	4.13
619.311	4.18
619.646	4.2
619.98	4.17
620.314	4.23
620.648	4.23
620.983	4.29
621.317	4.23
621.651	4.22
621.985	4.28
622.319	4.33
622.653	4.34
622.987	4.36
623.321	4.36
623.655	4.42
623.988	4.45
624.322	4.46
624.656	4.48
624.99	4.45
625.323	4.45
625.657	4.46
625.99	4.48
626.324	4.46
626.657	4.44
626.991	4.46
627.324	4.45
627.658	4.48
627.991	4.45
628.324	4.48
628.657	4.47
628.991	4.43
629.324	4.39
629.657	4.41
629.99	4.42
630.323	4.4
630.656	4.38
630.989	4.37
631.322	4.42
631.655	4.42
631.987	4.42
632.32	4.39
632.653	4.39
632.986	4.38
633.318	4.37
633.651	4.4
633.984	4.38
634.316	4.34
634.649	4.32
634.981	4.3
635.313	4.3
635.646	4.35
635.978	4.37
636.31	4.4
636.643	4.38
636.975	4.41
637.307	4.41
637.639	4.39
637.971	4.37
638.303	4.34
638.635	4.29
638.967	4.31
639.299	4.32
639.631	4.23
639.963	4.19
640.295	4.25
640.626	4.25
640.958	4.27
641.29	4.28
641.621	4.18
641.953	4.18
642.285	4.18
642.616	4.15
642.948	4.15
643.279	4.12
643.61	4.15
643.942	4.08
644.273	4.08
644.604	4.1
644.936	4.14
645.267	4.11
645.598	4.12
645.929	4.13
646.26	4.17
646.591	4.26
646.922	4.28
647.253	4.25
647.584	4.22
647.915	4.13
648.245	4.15
648.576	4.26
648.907	4.28
649.238	4.21
649.568	4.18
649.899	4.19
650.229	4.24
650.56	4.22
650.89	4.29
651.221	4.31
651.551	4.22
651.882	4.21
652.212	4.22
652.542	4.23
652.872	4.22
653.203	4.15
653.533	4.23
653.863	4.25
654.193	4.3
654.523	4.34
654.853	4.38
655.183	4.39
655.513	4.39
655.843	4.41
656.172	4.48
656.502	4.54
656.832	4.52
657.162	4.51
657.491	4.49
657.821	4.47
658.15	4.49
658.48	4.57
658.809	4.56
659.139	4.56
659.468	4.61
659.798	4.63
660.127	4.69
660.456	4.66
660.785	4.68
661.115	4.64
661.444	4.61
661.773	4.64
662.102	4.65
662.431	4.7
662.76	4.7
663.089	4.67
663.418	4.69
663.747	4.67
664.076	4.64
664.404	4.66
664.733	4.63
665.062	4.64
665.39	4.64
665.719	4.62
666.048	4.58
666.376	4.56
666.705	4.56
667.033	4.48
667.362	4.5
667.69	4.47
668.018	4.51
668.347	4.48
668.675	4.57
669.003	4.58
669.331	4.53
669.659	4.47
669.987	4.47
670.315	4.44
670.643	4.38
670.971	4.46
671.299	4.45
671.627	4.49
671.955	4.46
672.283	4.49
672.61	4.48
672.938	4.5
673.266	4.47
673.593	4.52
673.921	4.59
674.249	4.44
674.576	4.46
674.904	4.38
675.231	4.41
675.558	4.35
675.886	4.32
