Data from BU26849_Reflection_00011.txt Node
Date: Mon Nov 18 16:43:23 EST 2019
User: vgr7
Spectrometer: USB2G7710
Scans to average: 3
Trigger mode: 4
Integration Time (sec): 2.000000E-2
Electric dark correction enabled: true
Boxcar width: 10
XAxis mode: Wavelengths
Number of Pixels in Spectrum: 2048
>>>>>Begin Spectral Data<<<<<
177.721	-8.38
178.105	3.37
178.488	29.09
178.871	2.15
179.254	7
179.636	-37.47
180.019	10.1
180.402	183.87
180.785	-85.72
181.168	-584.47
181.55	-363.52
181.933	15.08
182.316	71.95
182.698	39.73
183.081	30.92
183.463	35.24
183.846	9.86
184.228	-24.31
184.611	19.49
184.993	-70.58
185.376	-111.88
185.758	-56.39
186.14	-35.93
186.522	-57.69
186.904	-74.45
187.287	-66.76
187.669	-586.22
188.051	1186.61
188.433	223.5
188.815	95.84
189.197	74.59
189.579	46.52
189.961	28.12
190.342	59.28
190.724	52.8
191.106	58.04
191.488	62.06
191.869	55.12
192.251	49.36
192.633	48.56
193.014	50.63
193.396	42.33
193.777	62.24
194.159	70.47
194.54	82.46
194.922	79.3
195.303	56.22
195.684	43.61
196.065	54.15
196.447	58.08
196.828	48.98
197.209	47.38
197.59	68.97
197.971	66.62
198.352	75.66
198.733	65.27
199.114	53.55
199.495	51.97
199.876	45.99
200.257	55.69
200.638	57.74
201.018	44.93
201.399	42.2
201.78	36.22
202.16	24.27
202.541	20.71
202.922	7.64
203.302	9.54
203.683	13.48
204.063	1.2
204.444	8.31
204.824	8.24
205.204	3.08
205.585	-1.53
205.965	7.51
206.345	-15.94
206.725	1.96
207.106	-1.19
207.486	-15.03
207.866	-7.83
208.246	-12.23
208.626	3.74
209.006	34.01
209.386	11.8
209.766	15.77
210.145	-12.05
210.525	-16.73
210.905	7.56
211.285	-2.05
211.664	3.09
212.044	5.39
212.424	9.38
212.803	19.73
213.183	50.11
213.562	45.97
213.942	43.89
214.321	42.11
214.701	24.03
215.08	20.9
215.459	40.73
215.838	26.85
216.218	11.7
216.597	9.11
216.976	6.39
217.355	11.82
217.734	18.73
218.113	36.94
218.492	37.73
218.871	34.55
219.25	36.85
219.629	27.94
220.008	28.89
220.387	29.82
220.766	26.65
221.144	14.03
221.523	18.65
221.902	17.44
222.28	19.89
222.659	16.24
223.037	21.77
223.416	21.5
223.794	19.79
224.173	20.07
224.551	19.87
224.929	16.84
225.308	19.19
225.686	17.38
226.064	17.72
226.442	15.21
226.821	20.08
227.199	18.46
227.577	18.63
227.955	14.91
228.333	10.21
228.711	12.22
229.089	14.72
229.467	13.65
229.845	12.08
230.222	9.15
230.6	7.92
230.978	7.45
231.356	5.54
231.733	6.46
232.111	5.86
232.488	4.15
232.866	5.59
233.243	4.7
233.621	4.67
233.998	7.79
234.376	8.12
234.753	5.86
235.13	7.47
235.508	9.92
235.885	11.57
236.262	11.14
236.639	8.17
237.016	7.04
237.393	7.75
237.77	8.04
238.147	10.07
238.524	9.23
238.901	9.01
239.278	9.32
239.655	9.05
240.032	9.05
240.409	8.66
240.785	8.56
241.162	8.53
241.539	8.23
241.915	6.65
242.292	5.97
242.668	6.09
243.045	5.74
243.421	5.04
243.798	4.49
244.174	4.28
244.551	4.74
244.927	4.79
245.303	4.61
245.679	4.73
246.056	4.17
246.432	4.5
246.808	4.46
247.184	4.18
247.56	4.16
247.936	4.18
248.312	4.17
248.688	4.14
249.064	3.94
249.44	3.76
249.815	4.09
250.191	4.4
250.567	4.18
250.943	3.93
251.318	4.06
251.694	4.2
252.069	4.46
252.445	4.26
252.82	4.13
253.196	3.95
253.571	3.74
253.947	4.05
254.322	3.84
254.697	3.72
255.073	3.73
255.448	3.73
255.823	3.74
256.198	3.78
256.573	3.63
256.948	3.72
257.323	3.83
257.698	3.84
258.073	3.64
258.448	3.57
258.823	3.65
259.198	3.57
259.573	3.64
259.948	3.61
260.322	3.62
260.697	3.66
261.072	3.69
261.446	3.8
261.821	3.74
262.195	3.89
262.57	3.78
262.944	3.87
263.319	3.87
263.693	3.79
264.067	3.83
264.442	3.83
264.816	3.78
265.19	3.73
265.564	3.64
265.938	3.62
266.313	3.63
266.687	3.59
267.061	3.54
267.435	3.62
267.809	3.55
268.183	3.35
268.556	3.46
268.93	3.6
269.304	3.6
269.678	3.7
270.051	3.53
270.425	3.53
270.799	3.4
271.172	3.42
271.546	3.4
271.919	3.26
272.293	3.35
272.666	3.42
273.04	3.37
273.413	3.36
273.787	3.43
274.16	3.45
274.533	3.6
274.906	3.69
275.279	3.61
275.653	3.51
276.026	3.83
276.399	3.56
276.772	3.48
277.145	3.09
277.518	2.95
277.891	3
278.263	3.23
278.636	3.19
279.009	3.11
279.382	3.23
279.755	3.27
280.127	3.47
280.5	3.51
280.872	3.67
281.245	3.59
281.617	3.6
281.99	3.65
282.362	3.52
282.735	3.34
283.107	3.37
283.479	3.5
283.852	3.32
284.224	3.45
284.596	3.43
284.968	3.64
285.34	3.68
285.713	3.75
286.085	3.66
286.457	3.86
286.829	3.99
287.201	4
287.572	3.97
287.944	3.69
288.316	3.74
288.688	3.64
289.06	3.79
289.431	3.8
289.803	3.78
290.175	3.78
290.546	4.04
290.918	3.98
291.289	4.01
291.661	4.1
292.032	4.16
292.403	4.3
292.775	4.42
293.146	4.37
293.517	4.26
293.889	4.3
294.26	4.18
294.631	4.14
295.002	4.14
295.373	4.24
295.744	4.3
296.115	4.28
296.486	4.27
296.857	4.16
297.228	4.22
297.599	4.19
297.97	4.37
298.34	4.29
298.711	4.44
299.082	4.36
299.452	4.27
299.823	4.31
300.194	4.26
300.564	4.14
300.935	4.2
301.305	4.28
301.676	4.28
302.046	4.3
302.416	4.38
302.787	4.46
303.157	4.49
303.527	4.54
303.897	4.62
304.267	4.73
304.637	4.98
305.008	4.91
305.378	5.05
305.748	5.08
306.117	5.02
306.487	4.98
306.857	5
307.227	5.12
307.597	5.04
307.967	5.03
308.336	5.17
308.706	5.13
309.076	5.1
309.445	5.06
309.815	5.1
310.184	4.91
310.554	4.95
310.923	5
311.293	5.21
311.662	5.03
312.031	5.18
312.401	5.04
312.77	5.12
313.139	5.21
313.508	5.15
313.877	5.25
314.246	5.22
314.616	5.28
314.985	5.43
315.353	5.53
315.722	5.66
316.091	5.61
316.46	5.74
316.829	5.82
317.198	5.93
317.567	6.15
317.935	6.45
318.304	6.48
318.672	6.52
319.041	6.43
319.41	6.52
319.778	6.45
320.147	6.63
320.515	6.56
320.883	6.6
321.252	6.72
321.62	6.76
321.988	6.86
322.357	6.79
322.725	6.55
323.093	6.61
323.461	6.62
323.829	6.81
324.197	6.87
324.565	6.9
324.933	6.95
325.301	6.93
325.669	6.93
326.037	6.86
326.405	6.93
326.772	6.99
327.14	7.15
327.508	7.14
327.875	7.08
328.243	7.17
328.61	7.17
328.978	7.21
329.346	7.24
329.713	7.23
330.08	7.32
330.448	7.49
330.815	7.28
331.182	7.39
331.55	7.26
331.917	7.21
332.284	7.19
332.651	7.3
333.018	7.35
333.385	7.3
333.752	7.46
334.119	7.45
334.486	7.46
334.853	7.39
335.22	7.36
335.587	7.48
335.954	7.52
336.32	7.49
336.687	7.44
337.054	7.39
337.42	7.45
337.787	7.59
338.153	7.6
338.52	7.78
338.886	7.68
339.253	7.76
339.619	7.87
339.986	7.97
340.352	8.01
340.718	7.88
341.084	7.95
341.451	7.88
341.817	7.85
342.183	7.8
342.549	7.77
342.915	7.8
343.281	7.74
343.647	7.76
344.013	7.81
344.379	7.79
344.745	7.86
345.11	7.85
345.476	7.79
345.842	7.74
346.208	7.78
346.573	7.75
346.939	7.78
347.304	7.74
347.67	7.66
348.035	7.57
348.401	7.62
348.766	7.6
349.132	7.61
349.497	7.64
349.862	7.68
350.228	7.79
350.593	7.74
350.958	7.77
351.323	7.8
351.688	7.74
352.053	7.79
352.418	7.91
352.783	7.97
353.148	8.03
353.513	8.12
353.878	8.09
354.243	8.17
354.608	8.18
354.972	8.19
355.337	8.3
355.702	8.27
356.066	8.24
356.431	8.18
356.795	8.17
357.16	8.06
357.524	8.04
357.889	7.93
358.253	8.05
358.618	8.08
358.982	8.01
359.346	7.97
359.71	7.95
360.075	7.92
360.439	7.87
360.803	7.84
361.167	7.75
361.531	7.77
361.895	7.7
362.259	7.58
362.623	7.56
362.987	7.52
363.351	7.55
363.714	7.57
364.078	7.56
364.442	7.47
364.806	7.48
365.169	7.48
365.533	7.54
365.896	7.43
366.26	7.4
366.623	7.43
366.987	7.43
367.35	7.35
367.714	7.27
368.077	7.14
368.44	7.13
368.803	7.12
369.167	6.97
369.53	6.94
369.893	7.02
370.256	6.91
370.619	6.85
370.982	6.78
371.345	6.72
371.708	6.65
372.071	6.67
372.434	6.64
372.797	6.63
373.159	6.56
373.522	6.51
373.885	6.43
374.247	6.32
374.61	6.27
374.973	6.28
375.335	6.21
375.698	6.25
376.06	6.17
376.423	6.12
376.785	6.19
377.147	6.13
377.51	6.05
377.872	6.08
378.234	6.04
378.596	5.99
378.958	5.92
379.321	5.88
379.683	5.84
380.045	5.8
380.407	5.69
380.769	5.64
381.13	5.63
381.492	5.55
381.854	5.56
382.216	5.49
382.578	5.47
382.939	5.43
383.301	5.37
383.663	5.3
384.024	5.25
384.386	5.21
384.747	5.2
385.109	5.19
385.47	5.1
385.832	5.07
386.193	5.02
386.554	4.96
386.916	4.94
387.277	4.94
387.638	4.94
387.999	4.93
388.36	4.93
388.721	4.89
389.082	4.87
389.443	4.79
389.804	4.79
390.165	4.69
390.526	4.65
390.887	4.63
391.248	4.61
391.609	4.62
391.969	4.57
392.33	4.54
392.691	4.5
393.051	4.48
393.412	4.46
393.772	4.45
394.133	4.44
394.493	4.4
394.854	4.33
395.214	4.28
395.574	4.25
395.935	4.2
396.295	4.16
396.655	4.15
397.015	4.16
397.376	4.12
397.736	4.15
398.096	4.15
398.456	4.11
398.816	4.12
399.176	4.06
399.535	4.02
399.895	3.97
400.255	3.9
400.615	3.87
400.975	3.79
401.334	3.76
401.694	3.76
402.054	3.77
402.413	3.77
402.773	3.71
403.132	3.68
403.492	3.67
403.851	3.66
404.211	3.63
404.57	3.59
404.929	3.6
405.288	3.55
405.648	3.51
406.007	3.52
406.366	3.48
406.725	3.54
407.084	3.56
407.443	3.57
407.802	3.61
408.161	3.64
408.52	3.66
408.879	3.65
409.238	3.65
409.596	3.64
409.955	3.65
410.314	3.68
410.673	3.64
411.031	3.62
411.39	3.6
411.748	3.61
412.107	3.65
412.465	3.62
412.824	3.62
413.182	3.6
413.54	3.59
413.899	3.59
414.257	3.54
414.615	3.51
414.974	3.48
415.332	3.44
415.69	3.39
416.048	3.35
416.406	3.33
416.764	3.31
417.122	3.28
417.48	3.22
417.838	3.22
418.195	3.23
418.553	3.24
418.911	3.23
419.269	3.23
419.626	3.2
419.984	3.18
420.342	3.17
420.699	3.17
421.057	3.15
421.414	3.13
421.772	3.1
422.129	3.09
422.486	3.08
422.844	3.08
423.201	3.08
423.558	3.08
423.915	3.08
424.273	3.07
424.63	3.06
424.987	3.07
425.344	3.06
425.701	3.06
426.058	3.04
426.415	3.03
426.772	3
427.128	2.99
427.485	2.99
427.842	2.99
428.199	2.99
428.555	3
428.912	3
429.269	3.02
429.625	3.02
429.982	3
430.338	3.01
430.695	3.01
431.051	3.01
431.407	3.01
431.764	3
432.12	3
432.476	2.99
432.832	2.98
433.189	2.96
433.545	2.95
433.901	2.95
434.257	2.94
434.613	2.95
434.969	2.94
435.325	2.94
435.681	2.93
436.036	2.92
436.392	2.93
436.748	2.92
437.104	2.92
437.459	2.93
437.815	2.91
438.171	2.9
438.526	2.91
438.882	2.91
439.237	2.92
439.593	2.93
439.948	2.92
440.304	2.92
440.659	2.93
441.014	2.94
441.369	2.93
441.725	2.94
442.08	2.94
442.435	2.95
442.79	2.95
443.145	2.95
443.5	2.93
443.855	2.93
444.21	2.93
444.565	2.93
444.92	2.93
445.275	2.93
445.629	2.93
445.984	2.93
446.339	2.93
446.693	2.91
447.048	2.91
447.403	2.93
447.757	2.93
448.112	2.91
448.466	2.91
448.82	2.9
449.175	2.91
449.529	2.9
449.883	2.87
450.238	2.88
450.592	2.87
450.946	2.86
451.3	2.86
451.654	2.86
452.008	2.85
452.362	2.82
452.716	2.82
453.07	2.83
453.424	2.81
453.778	2.8
454.132	2.8
454.486	2.8
454.839	2.78
455.193	2.78
455.547	2.78
455.9	2.79
456.254	2.8
456.607	2.78
456.961	2.79
457.314	2.82
457.668	2.81
458.021	2.82
458.375	2.84
458.728	2.83
459.081	2.84
459.434	2.84
459.787	2.86
460.141	2.85
460.494	2.84
460.847	2.84
461.2	2.85
461.553	2.87
461.906	2.86
462.259	2.88
462.611	2.88
462.964	2.89
463.317	2.89
463.67	2.89
464.022	2.89
464.375	2.89
464.728	2.89
465.08	2.89
465.433	2.87
465.785	2.86
466.138	2.86
466.49	2.89
466.843	2.91
467.195	2.94
467.547	2.97
467.899	2.98
468.252	2.98
468.604	3
468.956	3
469.308	3.03
469.66	3.02
470.012	3.04
470.364	3.04
470.716	3.04
471.068	3.07
471.42	3.09
471.772	3.14
472.123	3.15
472.475	3.16
472.827	3.17
473.178	3.18
473.53	3.18
473.882	3.16
474.233	3.17
474.585	3.14
474.936	3.14
475.288	3.15
475.639	3.17
475.99	3.16
476.342	3.16
476.693	3.15
477.044	3.16
477.395	3.15
477.746	3.15
478.097	3.16
478.448	3.13
478.8	3.11
479.15	3.08
479.501	3.07
479.852	3.06
480.203	3.07
480.554	3.08
480.905	3.08
481.255	3.07
481.606	3.06
481.957	3.05
482.307	3.05
482.658	3.04
483.009	3.04
483.359	3.03
483.709	3.04
484.06	3.03
484.41	3.03
484.761	3.03
485.111	3.04
485.461	3.04
485.811	3.04
486.162	3.03
486.512	3.04
486.862	3.04
487.212	3.04
487.562	3.04
487.912	3.03
488.262	3.03
488.612	3.04
488.961	3.04
489.311	3.05
489.661	3.07
490.011	3.07
490.36	3.06
490.71	3.07
491.06	3.07
491.409	3.07
491.759	3.08
492.108	3.08
492.458	3.08
492.807	3.08
493.157	3.09
493.506	3.11
493.855	3.11
494.204	3.11
494.554	3.14
494.903	3.13
495.252	3.15
495.601	3.16
495.95	3.18
496.299	3.2
496.648	3.21
496.997	3.19
497.346	3.23
497.695	3.26
498.043	3.28
498.392	3.3
498.741	3.35
499.09	3.36
499.438	3.4
499.787	3.43
500.135	3.47
500.484	3.5
500.832	3.54
501.181	3.58
501.529	3.64
501.878	3.67
502.226	3.72
502.574	3.74
502.923	3.78
503.271	3.84
503.619	3.89
503.967	3.95
504.315	4.02
504.663	4.08
505.011	4.13
505.359	4.17
505.707	4.25
506.055	4.29
506.403	4.37
506.751	4.42
507.098	4.47
507.446	4.54
507.794	4.62
508.141	4.69
508.489	4.76
508.837	4.85
509.184	4.95
509.531	5.06
509.879	5.18
510.226	5.27
510.574	5.35
510.921	5.43
511.268	5.51
511.616	5.62
511.963	5.71
512.31	5.84
512.657	5.96
513.004	6.07
513.351	6.21
513.698	6.32
514.045	6.46
514.392	6.6
514.739	6.73
515.086	6.87
515.432	7.03
515.779	7.14
516.126	7.25
516.473	7.38
516.819	7.49
517.166	7.59
517.512	7.72
517.859	7.86
518.205	8.01
518.552	8.15
518.898	8.26
519.245	8.39
519.591	8.49
519.937	8.59
520.283	8.71
520.629	8.85
520.976	9.02
521.322	9.15
521.668	9.31
522.014	9.46
522.36	9.62
522.706	9.76
523.052	9.95
523.398	10.15
523.743	10.35
524.089	10.56
524.435	10.73
524.781	10.9
525.126	11.06
525.472	11.2
525.817	11.34
526.163	11.47
526.509	11.58
526.854	11.7
527.199	11.83
527.545	11.94
527.89	12.04
528.235	12.15
528.581	12.27
528.926	12.4
529.271	12.53
529.616	12.66
529.961	12.79
530.306	12.91
530.651	13.03
530.996	13.18
531.341	13.32
531.686	13.48
532.031	13.65
532.376	13.81
532.721	13.98
533.065	14.16
533.41	14.35
533.755	14.54
534.099	14.74
534.444	14.96
534.788	15.15
535.133	15.34
535.477	15.55
535.822	15.75
536.166	15.98
536.51	16.24
536.855	16.47
537.199	16.74
537.543	17.02
537.887	17.29
538.231	17.56
538.576	17.87
538.92	18.12
539.264	18.39
539.608	18.61
539.951	18.86
540.295	19.07
540.639	19.29
540.983	19.53
541.327	19.72
541.671	19.94
542.014	20.16
542.358	20.38
542.701	20.59
543.045	20.8
543.389	21.03
543.732	21.25
544.075	21.49
544.419	21.74
544.762	21.98
545.105	22.27
545.449	22.51
545.792	22.76
546.135	23.05
546.478	23.32
546.821	23.64
547.165	23.96
547.508	24.3
547.851	24.64
548.194	24.93
548.536	25.26
548.879	25.56
549.222	25.91
549.565	26.25
549.908	26.57
550.25	26.91
550.593	27.23
550.936	27.51
551.278	27.83
551.621	28.18
551.963	28.51
552.306	28.82
552.648	29.15
552.991	29.46
553.333	29.78
553.675	30.1
554.017	30.39
554.36	30.69
554.702	30.98
555.044	31.24
555.386	31.5
555.728	31.83
556.07	32.15
556.412	32.4
556.754	32.72
557.096	33.04
557.438	33.32
557.78	33.61
558.121	33.96
558.463	34.25
558.805	34.54
559.147	34.83
559.488	35.08
559.83	35.34
560.171	35.56
560.513	35.81
560.854	36.07
561.196	36.44
561.537	36.68
561.878	36.93
562.22	37.17
562.561	37.43
562.902	37.66
563.243	37.87
563.584	38.16
563.925	38.32
564.266	38.52
564.607	38.76
564.948	38.98
565.289	39.18
565.63	39.42
565.971	39.56
566.312	39.76
566.653	39.98
566.993	40.15
567.334	40.41
567.675	40.61
568.015	40.83
568.356	40.9
568.696	41.11
569.037	41.36
569.377	41.57
569.718	41.81
570.058	41.98
570.398	42.19
570.739	42.3
571.079	42.56
571.419	42.73
571.759	42.91
572.099	43.02
572.439	43.19
572.779	43.31
573.119	43.49
573.459	43.6
573.799	43.75
574.139	43.92
574.479	44.06
574.819	44.16
575.158	44.22
575.498	44.41
575.838	44.58
576.177	44.68
576.517	44.83
576.856	44.98
577.196	45.15
577.535	45.3
577.875	45.47
578.214	45.64
578.553	45.76
578.893	45.93
579.232	46.1
579.571	46.26
579.91	46.4
580.25	46.55
580.589	46.71
580.928	46.85
581.267	47
581.606	47.08
581.945	47.25
582.283	47.43
582.622	47.57
582.961	47.74
583.3	47.87
583.639	48.03
583.977	48.09
584.316	48.24
584.654	48.38
584.993	48.48
585.332	48.56
585.67	48.73
586.008	48.8
586.347	48.86
586.685	48.92
587.024	49.01
587.362	49.15
587.7	49.28
588.038	49.34
588.376	49.5
588.715	49.62
589.053	49.78
589.391	49.87
589.729	49.98
590.067	49.96
590.404	49.99
590.742	50.06
591.08	50.19
591.418	50.22
591.756	50.31
592.093	50.42
592.431	50.43
592.769	50.51
593.106	50.6
593.444	50.7
593.781	50.8
594.119	50.9
594.456	50.87
594.793	50.93
595.131	51.03
595.468	51.08
595.805	51.14
596.143	51.15
596.48	51.26
596.817	51.26
597.154	51.32
597.491	51.42
597.828	51.4
598.165	51.5
598.502	51.58
598.839	51.62
599.176	51.69
599.512	51.77
599.849	51.83
600.186	51.88
600.523	51.92
600.859	51.95
601.196	52.05
601.532	52.11
601.869	52.16
602.205	52.17
602.542	52.2
602.878	52.33
603.215	52.4
603.551	52.4
603.887	52.49
604.223	52.55
604.56	52.54
604.896	52.61
605.232	52.6
605.568	52.65
605.904	52.69
606.24	52.78
606.576	52.81
606.912	52.89
607.248	52.95
607.583	53.08
607.919	53.22
608.255	53.25
608.591	53.39
608.926	53.46
609.262	53.55
609.597	53.64
609.933	53.62
610.268	53.63
610.604	53.66
610.939	53.69
611.275	53.73
611.61	53.9
611.945	53.95
612.281	53.96
612.616	53.94
612.951	54.02
613.286	54.12
613.621	54.18
613.956	54.1
614.291	54.16
614.626	54.23
614.961	54.24
615.296	54.25
615.631	54.23
615.966	54.23
616.3	54.34
616.635	54.36
616.97	54.51
617.304	54.58
617.639	54.64
617.973	54.72
618.308	54.78
618.642	54.64
618.977	54.74
619.311	54.82
619.646	54.96
619.98	54.97
620.314	54.95
620.648	55.04
620.983	55.13
621.317	55.11
621.651	55.1
621.985	55.13
622.319	55.16
622.653	55.21
622.987	55.3
623.321	55.3
623.655	55.26
623.988	55.26
624.322	55.33
624.656	55.42
624.99	55.41
625.323	55.39
625.657	55.45
625.99	55.49
626.324	55.41
626.657	55.41
626.991	55.34
627.324	55.31
627.658	55.35
627.991	55.44
628.324	55.53
628.657	55.57
628.991	55.68
629.324	55.78
629.657	55.78
629.99	55.76
630.323	55.74
630.656	55.82
630.989	55.79
631.322	55.82
631.655	55.81
631.987	55.9
632.32	56.08
632.653	56.13
632.986	56.13
633.318	56.26
633.651	56.27
633.984	56.4
634.316	56.42
634.649	56.36
634.981	56.35
635.313	56.36
635.646	56.39
635.978	56.3
636.31	56.19
636.643	56.21
636.975	56.28
637.307	56.41
637.639	56.41
637.971	56.44
638.303	56.43
638.635	56.46
638.967	56.39
639.299	56.35
639.631	56.35
639.963	56.28
640.295	56.33
640.626	56.32
640.958	56.33
641.29	56.36
641.621	56.43
641.953	56.43
642.285	56.44
642.616	56.38
642.948	56.45
643.279	56.53
643.61	56.65
643.942	56.54
644.273	56.55
644.604	56.66
644.936	56.65
645.267	56.64
645.598	56.56
645.929	56.59
646.26	56.48
646.591	56.56
646.922	56.66
647.253	56.71
647.584	56.7
647.915	56.72
648.245	56.82
648.576	56.76
648.907	56.85
649.238	56.8
649.568	56.86
649.899	56.9
650.229	56.89
650.56	56.85
650.89	56.9
651.221	56.85
651.551	56.84
651.882	56.89
652.212	56.86
652.542	56.93
652.872	56.99
653.203	56.93
653.533	56.97
653.863	57.05
654.193	57.05
654.523	57.11
654.853	57.15
655.183	57.18
655.513	57.21
655.843	57.21
656.172	57.12
656.502	57.22
656.832	57.18
657.162	57.22
657.491	57.17
657.821	57.25
658.15	57.4
658.48	57.42
658.809	57.28
659.139	57.32
659.468	57.38
659.798	57.44
660.127	57.64
660.456	57.66
660.785	57.57
661.115	57.56
661.444	57.56
661.773	57.56
662.102	57.44
662.431	57.52
662.76	57.5
663.089	57.53
663.418	57.46
663.747	57.41
664.076	57.4
664.404	57.51
664.733	57.6
665.062	57.53
665.39	57.46
665.719	57.71
666.048	57.84
666.376	57.74
666.705	57.72
667.033	57.61
667.362	57.46
667.69	57.59
668.018	57.62
668.347	57.7
668.675	57.72
669.003	57.84
669.331	57.9
669.659	57.89
669.987	58.04
