Data from BU26941_Reflection_00015.txt Node
Date: Tue Nov 19 11:03:52 EST 2019
User: vgr7
Spectrometer: USB2G7710
Scans to average: 3
Trigger mode: 4
Integration Time (sec): 2.000000E-2
Electric dark correction enabled: true
Boxcar width: 10
XAxis mode: Wavelengths
Number of Pixels in Spectrum: 2048
>>>>>Begin Spectral Data<<<<<
177.721	196.51
178.105	138.07
178.488	206.57
178.871	213.51
179.254	104.92
179.636	138.59
180.019	25.59
180.402	180
180.785	241.51
181.168	11725
181.55	-257.87
181.933	-1230.99
182.316	630.08
182.698	657.85
183.081	1518.92
183.463	-232.34
183.846	-290.76
184.228	681.63
184.611	-166.55
184.993	-137.31
185.376	-342.2
185.758	-139.56
186.14	-116.46
186.522	-19.34
186.904	-55.64
187.287	-93.76
187.669	-111.3
188.051	-179.96
188.433	-355.43
188.815	-227.88
189.197	-169.73
189.579	-309.71
189.961	-337.68
190.342	-230.73
190.724	-334.73
191.106	-445.82
191.488	-358.87
191.869	-224.25
192.251	-242.01
192.633	-325.73
193.014	-354.67
193.396	-337.68
193.777	-232.98
194.159	-321.11
194.54	-321.78
194.922	-811.48
195.303	-978.38
195.684	-539.93
196.065	-510.41
196.447	-225.49
196.828	-157.21
197.209	-226.09
197.59	-131.57
197.971	-96.41
198.352	-73.89
198.733	-71.47
199.114	-36.64
199.495	-36.63
199.876	-25.15
200.257	-33.84
200.638	-6.54
201.018	-7.04
201.399	8.65
201.78	11.89
202.16	16.25
202.541	15.63
202.922	39.13
203.302	60.83
203.683	32.34
204.063	44.22
204.444	77.87
204.824	88.19
205.204	88.41
205.585	158.44
205.965	186.63
206.345	210.89
206.725	128.4
207.106	84.07
207.486	113.04
207.866	103.34
208.246	126.52
208.626	52.43
209.006	21.45
209.386	11.41
209.766	57.14
210.145	67.31
210.525	113.43
210.905	55.27
211.285	-5.74
211.664	104.48
212.044	23.63
212.424	60.62
212.803	56.23
213.183	43.96
213.562	41.79
213.942	80.11
214.321	95.75
214.701	220.44
215.08	319.1
215.459	-1.29
215.838	14.45
216.218	-10.84
216.597	352.81
216.976	-249.62
217.355	-22400
217.734	-65.07
218.113	-122.77
218.492	-521.95
218.871	-89.8
219.25	-41.11
219.629	-103.79
220.008	-13.98
220.387	-56.88
220.766	-21.96
221.144	13.89
221.523	9.97
221.902	6.61
222.28	13.56
222.659	30.68
223.037	28.66
223.416	42.9
223.794	43.52
224.173	27.6
224.551	22.91
224.929	21.1
225.308	18.37
225.686	18.23
226.064	8.52
226.442	1.12
226.821	2.32
227.199	5.56
227.577	7.27
227.955	5.73
228.333	4.57
228.711	-0.23
229.089	-5.8
229.467	-6.76
229.845	-6.65
230.222	-7.2
230.6	-9.92
230.978	-9.29
231.356	-11.3
231.733	-8.99
232.111	-5.8
232.488	-5.28
232.866	-5.07
233.243	-2.53
233.621	1.37
233.998	0.36
234.376	1.53
234.753	3.63
235.13	3.08
235.508	1.49
235.885	3.4
236.262	3.19
236.639	3.67
237.016	5.28
237.393	4.72
237.77	5.27
238.147	4.03
238.524	5.16
238.901	4.26
239.278	4.64
239.655	4.14
240.032	4.51
240.409	4.18
240.785	4.51
241.162	4.12
241.539	3.43
241.915	3.52
242.292	3.62
242.668	3.69
243.045	3.53
243.421	4.04
243.798	3.52
244.174	3.7
244.551	4.02
244.927	3.86
245.303	4.12
245.679	4.09
246.056	4.17
246.432	4
246.808	4.53
247.184	4.63
247.56	4.35
247.936	4.41
248.312	4.53
248.688	4.43
249.064	4.54
249.44	4.41
249.815	4.77
250.191	5.01
250.567	5.02
250.943	5.34
251.318	5.35
251.694	5.33
252.069	5.76
252.445	5.7
252.82	5.82
253.196	5.83
253.571	5.96
253.947	6.36
254.322	6.53
254.697	6.14
255.073	5.81
255.448	5.89
255.823	6.02
256.198	5.84
256.573	5.64
256.948	5.53
257.323	5.63
257.698	5.53
258.073	5.23
258.448	5.2
258.823	5.02
259.198	4.92
259.573	4.94
259.948	4.66
260.322	4.59
260.697	4.68
261.072	4.63
261.446	4.49
261.821	4.28
262.195	4.19
262.57	4.24
262.944	4.38
263.319	4.53
263.693	4.31
264.067	4.19
264.442	4.21
264.816	4.09
265.19	3.96
265.564	3.95
265.938	4.12
266.313	3.89
266.687	4
267.061	3.97
267.435	4.04
267.809	3.99
268.183	4.09
268.556	3.94
268.93	4.02
269.304	4.03
269.678	4.18
270.051	4.23
270.425	4.24
270.799	4.09
271.172	3.93
271.546	3.81
271.919	3.82
272.293	3.87
272.666	3.91
273.04	3.98
273.413	3.89
273.787	3.77
274.16	3.73
274.533	3.65
274.906	3.74
275.279	3.72
275.653	3.72
276.026	3.85
276.399	3.73
276.772	3.76
277.145	3.78
277.518	3.63
277.891	3.66
278.263	3.63
278.636	3.77
279.009	3.94
279.382	4.16
279.755	4.19
280.127	4.28
280.5	4.32
280.872	4.43
281.245	4.43
281.617	4.44
281.99	4.64
282.362	4.7
282.735	4.5
283.107	4.45
283.479	4.43
283.852	4.3
284.224	4.47
284.596	4.41
284.968	4.29
285.34	4.4
285.713	4.41
286.085	4.3
286.457	4.21
286.829	4.28
287.201	4.24
287.572	4.28
287.944	4.31
288.316	4.38
288.688	4.33
289.06	4.36
289.431	4.49
289.803	4.46
290.175	4.4
290.546	4.55
290.918	4.66
291.289	4.69
291.661	4.83
292.032	4.85
292.403	5.03
292.775	5.17
293.146	5.33
293.517	5.36
293.889	5.39
294.26	5.48
294.631	5.46
295.002	5.47
295.373	5.46
295.744	5.41
296.115	5.41
296.486	5.49
296.857	5.59
297.228	5.61
297.599	5.5
297.97	5.58
298.34	5.69
298.711	5.6
299.082	5.79
299.452	5.75
299.823	5.8
300.194	5.71
300.564	5.83
300.935	5.81
301.305	5.86
301.676	6.07
302.046	6.17
302.416	6.19
302.787	6.4
303.157	6.54
303.527	6.8
303.897	6.97
304.267	6.97
304.637	7.05
305.008	7.16
305.378	7.41
305.748	7.57
306.117	7.6
306.487	7.93
306.857	7.93
307.227	8.17
307.597	8.24
307.967	8.36
308.336	8.36
308.706	8.46
309.076	8.81
309.445	8.86
309.815	9.01
310.184	9.11
310.554	9.01
310.923	9.08
311.293	9.1
311.662	9.18
312.031	9.31
312.401	9.38
312.77	9.43
313.139	9.5
313.508	9.53
313.877	9.65
314.246	9.72
314.616	9.86
314.985	9.79
315.353	10.02
315.722	10.18
316.091	10.31
316.46	10.37
316.829	10.11
317.198	10.39
317.567	10.51
317.935	10.53
318.304	10.86
318.672	11.08
319.041	11.17
319.41	11.18
319.778	11.11
320.147	11.33
320.515	11.39
320.883	11.52
321.252	11.65
321.62	11.66
321.988	11.82
322.357	11.93
322.725	12.14
323.093	12.16
323.461	12.13
323.829	12.2
324.197	12.3
324.565	12.44
324.933	12.39
325.301	12.33
325.669	12.55
326.037	12.65
326.405	12.57
326.772	12.62
327.14	12.6
327.508	12.74
327.875	12.73
328.243	12.95
328.61	12.91
328.978	12.73
329.346	12.85
329.713	12.84
330.08	12.79
330.448	12.64
330.815	12.6
331.182	12.71
331.55	12.76
331.917	12.76
332.284	12.76
332.651	12.75
333.018	12.84
333.385	12.8
333.752	12.77
334.119	12.85
334.486	12.82
334.853	12.97
335.22	12.99
335.587	13
335.954	12.86
336.32	13.01
336.687	13.28
337.054	13.29
337.42	13.17
337.787	13.27
338.153	13.44
338.52	13.58
338.886	13.78
339.253	13.88
339.619	13.89
339.986	13.84
340.352	13.89
340.718	13.91
341.084	14.02
341.451	14.13
341.817	14.08
342.183	14.13
342.549	14.24
342.915	14.36
343.281	14.35
343.647	14.44
344.013	14.38
344.379	14.28
344.745	14.22
345.11	14.38
345.476	14.47
345.842	14.42
346.208	14.42
346.573	14.28
346.939	14.27
347.304	14.39
347.67	14.5
348.035	14.54
348.401	14.61
348.766	14.51
349.132	14.41
349.497	14.52
349.862	14.57
350.228	14.43
350.593	14.35
350.958	14.4
351.323	14.33
351.688	14.35
352.053	14.44
352.418	14.47
352.783	14.42
353.148	14.29
353.513	14.29
353.878	14.23
354.243	14.18
354.608	14.14
354.972	14.09
355.337	14.08
355.702	14.01
356.066	13.97
356.431	14.01
356.795	14.03
357.16	13.96
357.524	13.97
357.889	13.95
358.253	13.97
358.618	14.02
358.982	14.03
359.346	13.92
359.71	13.86
360.075	13.94
360.439	13.95
360.803	14.03
361.167	14.03
361.531	14.01
361.895	14.06
362.259	14.03
362.623	13.97
362.987	13.91
363.351	13.84
363.714	13.77
364.078	13.76
364.442	13.74
364.806	13.72
365.169	13.65
365.533	13.66
365.896	13.64
366.26	13.49
366.623	13.41
366.987	13.51
367.35	13.53
367.714	13.44
368.077	13.31
368.44	13.23
368.803	13.19
369.167	13.21
369.53	13.15
369.893	13.13
370.256	13.09
370.619	13.1
370.982	13.07
371.345	13.06
371.708	13
372.071	12.88
372.434	12.78
372.797	12.68
373.159	12.59
373.522	12.46
373.885	12.39
374.247	12.39
374.61	12.28
374.973	12.18
375.335	12.1
375.698	12.05
376.06	11.96
376.423	11.89
376.785	11.77
377.147	11.64
377.51	11.61
377.872	11.54
378.234	11.47
378.596	11.42
378.958	11.37
379.321	11.25
379.683	11.23
380.045	11.18
380.407	11.16
380.769	11.1
381.13	11.04
381.492	10.97
381.854	10.85
382.216	10.79
382.578	10.74
382.939	10.64
383.301	10.64
383.663	10.56
384.024	10.46
384.386	10.47
384.747	10.38
385.109	10.31
385.47	10.29
385.832	10.18
386.193	10.14
386.554	10.01
386.916	9.98
387.277	9.9
387.638	9.84
387.999	9.78
388.36	9.69
388.721	9.68
389.082	9.66
389.443	9.64
389.804	9.6
390.165	9.53
390.526	9.52
390.887	9.44
391.248	9.39
391.609	9.4
391.969	9.26
392.33	9.19
392.691	9.1
393.051	8.99
393.412	8.97
393.772	8.92
394.133	8.87
394.493	8.76
394.854	8.71
395.214	8.64
395.574	8.56
395.935	8.52
396.295	8.45
396.655	8.37
397.015	8.27
397.376	8.22
397.736	8.12
398.096	8.05
398.456	7.94
398.816	7.89
399.176	7.75
399.535	7.71
399.895	7.71
400.255	7.66
400.615	7.65
400.975	7.56
401.334	7.51
401.694	7.47
402.054	7.44
402.413	7.37
402.773	7.35
403.132	7.32
403.492	7.26
403.851	7.18
404.211	7.15
404.57	7.12
404.929	7.07
405.288	7.07
405.648	7.01
406.007	6.98
406.366	6.95
406.725	6.93
407.084	6.91
407.443	6.89
407.802	6.84
408.161	6.81
408.52	6.81
408.879	6.78
409.238	6.79
409.596	6.8
409.955	6.77
410.314	6.74
410.673	6.71
411.031	6.71
411.39	6.76
411.748	6.73
412.107	6.7
412.465	6.65
412.824	6.58
413.182	6.55
413.54	6.54
413.899	6.51
414.257	6.51
414.615	6.47
414.974	6.43
415.332	6.4
415.69	6.37
416.048	6.32
416.406	6.24
416.764	6.2
417.122	6.13
417.48	6.11
417.838	6.06
418.195	6.02
418.553	5.96
418.911	5.89
419.269	5.85
419.626	5.83
419.984	5.81
420.342	5.79
420.699	5.74
421.057	5.72
421.414	5.7
421.772	5.67
422.129	5.63
422.486	5.59
422.844	5.57
423.201	5.53
423.558	5.5
423.915	5.49
424.273	5.47
424.63	5.46
424.987	5.44
425.344	5.43
425.701	5.39
426.058	5.38
426.415	5.37
426.772	5.35
427.128	5.32
427.485	5.31
427.842	5.28
428.199	5.3
428.555	5.27
428.912	5.24
429.269	5.2
429.625	5.19
429.982	5.19
430.338	5.17
430.695	5.17
431.051	5.17
431.407	5.15
431.764	5.13
432.12	5.11
432.476	5.09
432.832	5.09
433.189	5.1
433.545	5.11
433.901	5.13
434.257	5.14
434.613	5.14
434.969	5.13
435.325	5.14
435.681	5.14
436.036	5.13
436.392	5.13
436.748	5.16
437.104	5.16
437.459	5.19
437.815	5.22
438.171	5.22
438.526	5.22
438.882	5.24
439.237	5.24
439.593	5.25
439.948	5.25
440.304	5.25
440.659	5.24
441.014	5.23
441.369	5.21
441.725	5.19
442.08	5.19
442.435	5.19
442.79	5.17
443.145	5.15
443.5	5.14
443.855	5.13
444.21	5.1
444.565	5.07
444.92	5.05
445.275	5.01
445.629	4.99
445.984	4.97
446.339	4.94
446.693	4.94
447.048	4.9
447.403	4.89
447.757	4.87
448.112	4.85
448.466	4.84
448.82	4.81
449.175	4.8
449.529	4.8
449.883	4.78
450.238	4.78
450.592	4.75
450.946	4.74
451.3	4.72
451.654	4.71
452.008	4.72
452.362	4.71
452.716	4.7
453.07	4.68
453.424	4.67
453.778	4.66
454.132	4.64
454.486	4.64
454.839	4.63
455.193	4.63
455.547	4.63
455.9	4.64
456.254	4.64
456.607	4.66
456.961	4.66
457.314	4.66
457.668	4.67
458.021	4.69
458.375	4.67
458.728	4.68
459.081	4.68
459.434	4.7
459.787	4.7
460.141	4.72
460.494	4.74
460.847	4.76
461.2	4.78
461.553	4.82
461.906	4.85
462.259	4.86
462.611	4.88
462.964	4.91
463.317	4.93
463.67	4.94
464.022	4.96
464.375	4.98
464.728	5.01
465.08	5.03
465.433	5.07
465.785	5.12
466.138	5.16
466.49	5.23
466.843	5.25
467.195	5.27
467.547	5.3
467.899	5.35
468.252	5.41
468.604	5.45
468.956	5.49
469.308	5.51
469.66	5.57
470.012	5.59
470.364	5.61
470.716	5.63
471.068	5.7
471.42	5.74
471.772	5.77
472.123	5.79
472.475	5.81
472.827	5.82
473.178	5.83
473.53	5.83
473.882	5.8
474.233	5.8
474.585	5.79
474.936	5.8
475.288	5.78
475.639	5.77
475.99	5.74
476.342	5.72
476.693	5.7
477.044	5.66
477.395	5.65
477.746	5.63
478.097	5.6
478.448	5.55
478.8	5.53
479.15	5.49
479.501	5.45
479.852	5.43
480.203	5.41
480.554	5.41
480.905	5.4
481.255	5.41
481.606	5.4
481.957	5.4
482.307	5.41
482.658	5.4
483.009	5.38
483.359	5.38
483.709	5.37
484.06	5.38
484.41	5.38
484.761	5.37
485.111	5.37
485.461	5.38
485.811	5.39
486.162	5.37
486.512	5.38
486.862	5.4
487.212	5.41
487.562	5.41
487.912	5.41
488.262	5.42
488.612	5.42
488.961	5.43
489.311	5.43
489.661	5.43
490.011	5.44
490.36	5.46
490.71	5.47
491.06	5.49
491.409	5.5
491.759	5.53
492.108	5.57
492.458	5.61
492.807	5.63
493.157	5.66
493.506	5.72
493.855	5.78
494.204	5.83
494.554	5.88
494.903	5.94
495.252	6
495.601	6.07
495.95	6.17
496.299	6.26
496.648	6.37
496.997	6.45
497.346	6.55
497.695	6.66
498.043	6.78
498.392	6.89
498.741	6.99
499.09	7.09
499.438	7.19
499.787	7.31
500.135	7.43
500.484	7.56
500.832	7.69
501.181	7.84
501.529	7.97
501.878	8.13
502.226	8.29
502.574	8.47
502.923	8.65
503.271	8.8
503.619	8.99
503.967	9.17
504.315	9.35
504.663	9.54
505.011	9.73
505.359	9.94
505.707	10.14
506.055	10.36
506.403	10.56
506.751	10.79
507.098	10.99
507.446	11.21
507.794	11.45
508.141	11.66
508.489	11.9
508.837	12.14
509.184	12.36
509.531	12.62
509.879	12.85
510.226	13.05
510.574	13.26
510.921	13.49
511.268	13.7
511.616	13.95
511.963	14.19
512.31	14.43
512.657	14.64
513.004	14.89
513.351	15.15
513.698	15.44
514.045	15.69
514.392	15.96
514.739	16.24
515.086	16.5
515.432	16.78
515.779	17.01
516.126	17.27
516.473	17.51
516.819	17.71
517.166	17.92
517.512	18.14
517.859	18.35
518.205	18.53
518.552	18.74
518.898	18.93
519.245	19.14
519.591	19.34
519.937	19.54
520.283	19.76
520.629	19.94
520.976	20.13
521.322	20.36
521.668	20.56
522.014	20.75
522.36	20.97
522.706	21.19
523.052	21.45
523.398	21.67
523.743	21.94
524.089	22.22
524.435	22.49
524.781	22.75
525.126	22.98
525.472	23.19
525.817	23.37
526.163	23.54
526.509	23.71
526.854	23.87
527.199	24.04
527.545	24.16
527.89	24.27
528.235	24.4
528.581	24.53
528.926	24.67
529.271	24.81
529.616	24.97
529.961	25.11
530.306	25.25
530.651	25.4
530.996	25.55
531.341	25.69
531.686	25.83
532.031	25.98
532.376	26.14
532.721	26.32
533.065	26.5
533.41	26.68
533.755	26.84
534.099	26.99
534.444	27.15
534.788	27.3
535.133	27.48
535.477	27.69
535.822	27.89
536.166	28.11
536.51	28.34
536.855	28.55
537.199	28.76
537.543	28.97
537.887	29.2
538.231	29.41
538.576	29.66
538.92	29.86
539.264	30.06
539.608	30.22
539.951	30.4
540.295	30.56
540.639	30.71
540.983	30.86
541.327	30.99
541.671	31.17
542.014	31.34
542.358	31.5
542.701	31.63
543.045	31.73
543.389	31.85
543.732	31.97
544.075	32.07
544.419	32.21
544.762	32.35
545.105	32.48
545.449	32.61
545.792	32.76
546.135	32.93
546.478	33.06
546.821	33.24
547.165	33.39
547.508	33.54
547.851	33.69
548.194	33.86
548.536	34.04
548.879	34.15
549.222	34.29
549.565	34.44
549.908	34.56
550.25	34.74
550.593	34.92
550.936	35.04
551.278	35.17
551.621	35.3
551.963	35.43
552.306	35.59
552.648	35.74
552.991	35.8
553.333	35.92
553.675	36.05
554.017	36.16
554.36	36.28
554.702	36.39
555.044	36.47
555.386	36.59
555.728	36.72
556.07	36.8
556.412	36.95
556.754	37.03
557.096	37.18
557.438	37.22
557.78	37.23
558.121	37.33
558.463	37.44
558.805	37.57
559.147	37.66
559.488	37.71
559.83	37.81
560.171	37.96
560.513	38.06
560.854	38.14
561.196	38.23
561.537	38.3
561.878	38.41
562.22	38.54
562.561	38.58
562.902	38.66
563.243	38.72
563.584	38.76
563.925	38.82
564.266	38.86
564.607	38.94
564.948	39.02
565.289	39.1
565.63	39.2
565.971	39.28
566.312	39.37
566.653	39.44
566.993	39.44
567.334	39.45
567.675	39.57
568.015	39.61
568.356	39.66
568.696	39.72
569.037	39.72
569.377	39.76
569.718	39.87
570.058	39.91
570.398	40
570.739	40.07
571.079	40.13
571.419	40.2
571.759	40.28
572.099	40.38
572.439	40.42
572.779	40.49
573.119	40.51
573.459	40.56
573.799	40.67
574.139	40.78
574.479	40.86
574.819	40.88
575.158	41.02
575.498	41.04
575.838	41.08
576.177	41.17
576.517	41.23
576.856	41.27
577.196	41.33
577.535	41.36
577.875	41.44
578.214	41.52
578.553	41.57
578.893	41.64
579.232	41.69
579.571	41.79
579.91	41.82
580.25	41.89
580.589	41.86
580.928	41.84
581.267	41.9
581.606	41.92
581.945	41.95
582.283	41.87
582.622	41.96
582.961	42.03
583.3	42
583.639	42.07
583.977	42.09
584.316	42.06
584.654	42.15
584.993	42.14
585.332	42.19
585.67	42.22
586.008	42.32
586.347	42.34
586.685	42.4
587.024	42.39
587.362	42.44
587.7	42.56
588.038	42.66
588.376	42.66
588.715	42.73
589.053	42.79
589.391	42.87
589.729	42.9
590.067	42.9
590.404	43
590.742	42.94
591.08	42.96
591.418	43.01
591.756	43.03
592.093	43.07
592.431	43.18
592.769	43.25
593.106	43.25
593.444	43.31
593.781	43.27
594.119	43.37
594.456	43.37
594.793	43.39
595.131	43.38
595.468	43.45
595.805	43.49
596.143	43.48
596.48	43.52
596.817	43.59
597.154	43.68
597.491	43.69
597.828	43.84
598.165	43.89
598.502	43.93
598.839	43.97
599.176	44
599.512	43.97
599.849	44.04
600.186	44.07
600.523	44.05
600.859	44.11
601.196	44.17
601.532	44.15
601.869	44.14
602.205	44.15
602.542	44.16
602.878	44.14
603.215	44.23
603.551	44.26
603.887	44.27
604.223	44.21
604.56	44.27
604.896	44.25
605.232	44.3
605.568	44.33
605.904	44.36
606.24	44.43
606.576	44.47
606.912	44.46
607.248	44.45
607.583	44.49
607.919	44.53
608.255	44.49
608.591	44.55
608.926	44.65
609.262	44.72
609.597	44.72
609.933	44.77
610.268	44.77
610.604	44.76
610.939	44.76
611.275	44.83
611.61	44.81
611.945	44.85
612.281	44.81
612.616	44.9
612.951	44.97
613.286	44.95
613.621	44.95
613.956	44.99
614.291	45.07
614.626	45.15
614.961	45.15
615.296	45.22
615.631	45.31
615.966	45.3
616.3	45.31
616.635	45.33
616.97	45.42
617.304	45.38
617.639	45.4
617.973	45.46
618.308	45.5
618.642	45.58
618.977	45.61
619.311	45.71
619.646	45.63
619.98	45.58
620.314	45.58
620.648	45.59
620.983	45.64
621.317	45.65
621.651	45.6
621.985	45.59
622.319	45.57
622.653	45.54
622.987	45.56
623.321	45.58
623.655	45.67
623.988	45.67
624.322	45.7
624.656	45.76
624.99	45.74
625.323	45.74
625.657	45.77
625.99	45.8
626.324	45.75
626.657	45.81
626.991	45.84
627.324	45.88
627.658	45.93
627.991	45.95
628.324	45.91
628.657	46.01
628.991	46.11
629.324	46.1
629.657	46.16
629.99	46.11
630.323	46.1
630.656	46.02
630.989	45.93
631.322	45.99
631.655	46
631.987	46
632.32	46
632.653	45.99
632.986	45.99
633.318	46.06
633.651	46.06
633.984	46.04
634.316	46.12
634.649	46.13
634.981	46.08
635.313	46.2
635.646	46.14
635.978	46.16
636.31	46.19
636.643	46.16
636.975	46.28
637.307	46.3
637.639	46.38
637.971	46.4
638.303	46.36
638.635	46.37
638.967	46.4
639.299	46.43
639.631	46.46
639.963	46.4
640.295	46.47
640.626	46.51
640.958	46.62
641.29	46.52
641.621	46.46
641.953	46.59
642.285	46.57
642.616	46.62
642.948	46.59
643.279	46.62
643.61	46.77
643.942	46.71
644.273	46.79
644.604	46.87
644.936	46.98
645.267	47.04
645.598	47.12
645.929	47.11
646.26	47.22
646.591	47.19
646.922	47.29
647.253	47.34
647.584	47.37
647.915	47.33
648.245	47.38
648.576	47.38
648.907	47.31
649.238	47.23
649.568	47.28
649.899	47.28
650.229	47.35
650.56	47.3
650.89	47.27
651.221	47.29
651.551	47.19
651.882	47.17
652.212	47.15
652.542	47.23
652.872	47.36
653.203	47.37
653.533	47.44
653.863	47.45
654.193	47.31
654.523	47.27
654.853	47.32
655.183	47.36
655.513	47.45
655.843	47.42
656.172	47.53
656.502	47.48
656.832	47.59
657.162	47.67
657.491	47.71
657.821	47.8
658.15	47.77
658.48	47.89
658.809	47.94
659.139	47.98
659.468	47.99
659.798	48.03
660.127	47.94
660.456	47.91
660.785	47.97
661.115	48.03
661.444	48.11
661.773	48.18
