Data from BU26945_Reflection_00007.txt Node
Date: Tue Nov 19 10:49:31 EST 2019
User: vgr7
Spectrometer: USB2G7710
Scans to average: 3
Trigger mode: 4
Integration Time (sec): 2.000000E-2
Electric dark correction enabled: true
Boxcar width: 10
XAxis mode: Wavelengths
Number of Pixels in Spectrum: 2048
>>>>>Begin Spectral Data<<<<<
177.721	52.56
178.105	86.84
178.488	234.28
178.871	-75
179.254	-84
179.636	96.89
180.019	190.91
180.402	-280
180.785	17.65
181.168	-23.16
181.55	-35.59
181.933	-59.46
182.316	-94.26
182.698	-30.03
183.081	-26.74
183.463	-19.97
183.846	-32.73
184.228	-28.7
184.611	-30.9
184.993	-15.51
185.376	-24.95
185.758	-20.44
186.14	-20.75
186.522	-18.33
186.904	-22.56
187.287	-26.76
187.669	-25.66
188.051	-26.39
188.433	-32.76
188.815	-43.14
189.197	-29.13
189.579	-34.54
189.961	-26.81
190.342	-10.64
190.724	-39.99
191.106	-23.86
191.488	-27.39
191.869	-13.19
192.251	-18.83
192.633	-13.27
193.014	-20.6
193.396	-16.85
193.777	-17.75
194.159	-29.44
194.54	-37.71
194.922	-55.16
195.303	-84.53
195.684	-57.99
196.065	-54.27
196.447	-39.28
196.828	-12.4
197.209	-4.24
197.59	1.86
197.971	-8.14
198.352	-4.07
198.733	6.55
199.114	-2.15
199.495	5.41
199.876	-11.16
200.257	-13.42
200.638	-1.5
201.018	-0.91
201.399	7.95
201.78	10.25
202.16	22.52
202.541	25.79
202.922	26.23
203.302	33.4
203.683	33.01
204.063	35.33
204.444	30.52
204.824	28.39
205.204	11.58
205.585	8.44
205.965	9.47
206.345	12.15
206.725	8.49
207.106	11.06
207.486	16.63
207.866	33.8
208.246	47.28
208.626	36.9
209.006	35.85
209.386	32.6
209.766	37.85
210.145	31.61
210.525	25.36
210.905	37.79
211.285	43.14
211.664	37.59
212.044	35.51
212.424	39.58
212.803	23.19
213.183	5.21
213.562	9.4
213.942	12.05
214.321	5.1
214.701	5.04
215.08	15.67
215.459	17.73
215.838	13.21
216.218	-9.25
216.597	4.93
216.976	-16.14
217.355	-35.42
217.734	-61.8
218.113	-44.7
218.492	-50.25
218.871	-83.03
219.25	-86.95
219.629	-109.11
220.008	-94.96
220.387	-96.23
220.766	-61.98
221.144	-42.86
221.523	-28.19
221.902	-27.5
222.28	-24.04
222.659	-22.32
223.037	-30.7
223.416	-35.65
223.794	-35.22
224.173	-18.3
224.551	-25.81
224.929	-27.16
225.308	-25.69
225.686	-23.21
226.064	-24.17
226.442	-20.25
226.821	-9.46
227.199	-5.22
227.577	-0.46
227.955	3.65
228.333	1.53
228.711	-0.93
229.089	-4.25
229.467	-6.06
229.845	-4.48
230.222	-1.55
230.6	-2.63
230.978	-0.51
231.356	-1.37
231.733	-0.17
232.111	-4.06
232.488	0.68
232.866	4.99
233.243	5.18
233.621	5.43
233.998	6.73
234.376	5.63
234.753	2.75
235.13	0.9
235.508	0.33
235.885	-0.56
236.262	0.36
236.639	1.21
237.016	2.07
237.393	2.43
237.77	2.78
238.147	2.52
238.524	3.55
238.901	3.69
239.278	3.54
239.655	4.73
240.032	5.95
240.409	5.07
240.785	4.02
241.162	4.54
241.539	4.62
241.915	4.68
242.292	5.27
242.668	5.31
243.045	5.83
243.421	6.08
243.798	5.98
244.174	5.88
244.551	6.03
244.927	6.4
245.303	6.21
245.679	6.11
246.056	6.14
246.432	6.42
246.808	6.67
247.184	7.09
247.56	6.74
247.936	6.61
248.312	6.81
248.688	6.92
249.064	6.77
249.44	6.74
249.815	6.68
250.191	6.79
250.567	6.82
250.943	6.55
251.318	6.55
251.694	6.29
252.069	6.28
252.445	6.41
252.82	6.63
253.196	6.64
253.571	6.8
253.947	7.06
254.322	6.51
254.697	6.09
255.073	5.73
255.448	5.81
255.823	5.81
256.198	5.44
256.573	5.57
256.948	5.76
257.323	5.73
257.698	5.6
258.073	5.59
258.448	5.7
258.823	5.68
259.198	5.65
259.573	5.77
259.948	5.78
260.322	5.56
260.697	5.38
261.072	5.56
261.446	5.39
261.821	5.27
262.195	5.24
262.57	5.27
262.944	5.31
263.319	5.29
263.693	5.27
264.067	5.26
264.442	5.33
264.816	5.37
265.19	5.43
265.564	5.32
265.938	5.45
266.313	5.4
266.687	5.39
267.061	5.44
267.435	5.46
267.809	5.36
268.183	5.27
268.556	5.42
268.93	5.36
269.304	5.23
269.678	5.26
270.051	5.3
270.425	5.51
270.799	5.22
271.172	5.26
271.546	5.37
271.919	5.32
272.293	5.38
272.666	5.28
273.04	5.17
273.413	5.42
273.787	5.38
274.16	5.24
274.533	5.22
274.906	5.19
275.279	5.02
275.653	5.13
276.026	5.25
276.399	5.05
276.772	5.02
277.145	5.13
277.518	4.9
277.891	4.97
278.263	4.95
278.636	5.32
279.009	5.25
279.382	5.1
279.755	5.2
280.127	5.05
280.5	5.07
280.872	5.12
281.245	5.11
281.617	5.09
281.99	5.15
282.362	5.19
282.735	5.24
283.107	5.49
283.479	5.59
283.852	5.66
284.224	5.76
284.596	5.69
284.968	5.46
285.34	5.56
285.713	5.49
286.085	5.4
286.457	5.39
286.829	5.34
287.201	5.19
287.572	5.19
287.944	5.29
288.316	5.16
288.688	5.27
289.06	5.28
289.431	5.15
289.803	5.31
290.175	5.38
290.546	5.42
290.918	5.31
291.289	5.22
291.661	5.28
292.032	5.39
292.403	5.53
292.775	5.85
293.146	5.86
293.517	5.99
293.889	6
294.26	5.96
294.631	6.1
295.002	6.32
295.373	6.32
295.744	6.27
296.115	6.49
296.486	6.43
296.857	6.37
297.228	6.42
297.599	6.33
297.97	6.43
298.34	6.33
298.711	6.41
299.082	6.35
299.452	6.24
299.823	6.17
300.194	6.3
300.564	6.24
300.935	6.35
301.305	6.4
301.676	6.21
302.046	6.13
302.416	6.14
302.787	6.07
303.157	6.26
303.527	6.3
303.897	6.26
304.267	6.41
304.637	6.65
305.008	6.71
305.378	6.78
305.748	6.7
306.117	6.73
306.487	6.73
306.857	7.01
307.227	7.27
307.597	7.25
307.967	7.08
308.336	7.21
308.706	7.27
309.076	7.37
309.445	7.67
309.815	7.68
310.184	7.7
310.554	7.8
310.923	7.8
311.293	8
311.662	8.04
312.031	8.09
312.401	8.07
312.77	8.08
313.139	8.11
313.508	8.14
313.877	8.36
314.246	8.41
314.616	8.41
314.985	8.32
315.353	8.47
315.722	8.61
316.091	8.81
316.46	8.86
316.829	8.87
317.198	8.85
317.567	9.17
317.935	9.33
318.304	9.43
318.672	9.38
319.041	9.41
319.41	9.49
319.778	9.52
320.147	9.48
320.515	9.58
320.883	9.63
321.252	9.73
321.62	9.52
321.988	9.58
322.357	9.64
322.725	9.78
323.093	9.79
323.461	9.74
323.829	9.68
324.197	9.7
324.565	9.63
324.933	9.8
325.301	9.7
325.669	9.71
326.037	9.8
326.405	9.82
326.772	9.76
327.14	9.69
327.508	9.74
327.875	9.74
328.243	9.75
328.61	9.81
328.978	9.92
329.346	10.07
329.713	10.15
330.08	10.25
330.448	10.14
330.815	10.12
331.182	10.27
331.55	10.27
331.917	10.34
332.284	10.47
332.651	10.48
333.018	10.66
333.385	10.79
333.752	10.79
334.119	10.74
334.486	10.69
334.853	10.82
335.22	10.86
335.587	10.85
335.954	10.92
336.32	10.98
336.687	10.96
337.054	10.89
337.42	10.92
337.787	10.84
338.153	10.97
338.52	11.06
338.886	11
339.253	10.93
339.619	10.9
339.986	10.83
340.352	10.86
340.718	10.83
341.084	10.76
341.451	10.81
341.817	10.93
342.183	11.01
342.549	11.08
342.915	11.1
343.281	11.18
343.647	11.25
344.013	11.31
344.379	11.36
344.745	11.48
345.11	11.52
345.476	11.59
345.842	11.61
346.208	11.7
346.573	11.72
346.939	11.84
347.304	11.9
347.67	12.03
348.035	11.98
348.401	12.02
348.766	12.05
349.132	12.06
349.497	12.07
349.862	12.04
350.228	12.01
350.593	11.91
350.958	12.06
351.323	11.92
351.688	11.9
352.053	11.91
352.418	11.92
352.783	11.95
353.148	11.93
353.513	11.87
353.878	11.82
354.243	11.92
354.608	11.95
354.972	11.92
355.337	11.89
355.702	11.94
356.066	11.96
356.431	11.98
356.795	11.96
357.16	11.95
357.524	12.03
357.889	12.04
358.253	12.04
358.618	12.04
358.982	12.07
359.346	12.03
359.71	12.03
360.075	12.01
360.439	12.02
360.803	12.1
361.167	12.12
361.531	12.06
361.895	12.06
362.259	12.07
362.623	12.05
362.987	12.05
363.351	12.02
363.714	11.93
364.078	11.82
364.442	11.73
364.806	11.71
365.169	11.65
365.533	11.61
365.896	11.61
366.26	11.47
366.623	11.48
366.987	11.53
367.35	11.37
367.714	11.37
368.077	11.23
368.44	11.15
368.803	11.15
369.167	11.13
369.53	11
369.893	10.92
370.256	10.9
370.619	10.85
370.982	10.84
371.345	10.88
371.708	10.87
372.071	10.92
372.434	10.92
372.797	10.91
373.159	10.88
373.522	10.86
373.885	10.79
374.247	10.74
374.61	10.66
374.973	10.7
375.335	10.62
375.698	10.55
376.06	10.5
376.423	10.56
376.785	10.53
377.147	10.51
377.51	10.44
377.872	10.43
378.234	10.39
378.596	10.28
378.958	10.16
379.321	10.18
379.683	10.12
380.045	10.02
380.407	9.93
380.769	9.79
381.13	9.67
381.492	9.68
381.854	9.59
382.216	9.52
382.578	9.55
382.939	9.53
383.301	9.5
383.663	9.41
384.024	9.27
384.386	9.18
384.747	9.18
385.109	9.12
385.47	9.1
385.832	9.05
386.193	9.05
386.554	9.05
386.916	9
387.277	9
387.638	8.94
387.999	8.92
388.36	8.95
388.721	8.94
389.082	8.9
389.443	8.9
389.804	8.9
390.165	8.83
390.526	8.75
390.887	8.78
391.248	8.76
391.609	8.73
391.969	8.7
392.33	8.64
392.691	8.63
393.051	8.54
393.412	8.51
393.772	8.44
394.133	8.4
394.493	8.31
394.854	8.24
395.214	8.22
395.574	8.18
395.935	8.06
396.295	8.03
396.655	7.95
397.015	7.89
397.376	7.83
397.736	7.74
398.096	7.7
398.456	7.59
398.816	7.51
399.176	7.41
399.535	7.39
399.895	7.29
400.255	7.23
400.615	7.16
400.975	7.13
401.334	7.13
401.694	7.07
402.054	7.05
402.413	6.99
402.773	6.96
403.132	6.89
403.492	6.95
403.851	6.93
404.211	6.93
404.57	6.88
404.929	6.83
405.288	6.83
405.648	6.78
406.007	6.8
406.366	6.78
406.725	6.82
407.084	6.77
407.443	6.77
407.802	6.75
408.161	6.76
408.52	6.7
408.879	6.64
409.238	6.61
409.596	6.6
409.955	6.58
410.314	6.55
410.673	6.53
411.031	6.47
411.39	6.44
411.748	6.42
412.107	6.38
412.465	6.36
412.824	6.31
413.182	6.3
413.54	6.28
413.899	6.23
414.257	6.18
414.615	6.15
414.974	6.12
415.332	6.1
415.69	6.06
416.048	6.03
416.406	6.01
416.764	5.99
417.122	5.96
417.48	5.94
417.838	5.93
418.195	5.91
418.553	5.87
418.911	5.85
419.269	5.81
419.626	5.78
419.984	5.74
420.342	5.71
420.699	5.69
421.057	5.64
421.414	5.65
421.772	5.62
422.129	5.6
422.486	5.58
422.844	5.56
423.201	5.54
423.558	5.52
423.915	5.5
424.273	5.47
424.63	5.46
424.987	5.44
425.344	5.41
425.701	5.39
426.058	5.37
426.415	5.33
426.772	5.32
427.128	5.31
427.485	5.3
427.842	5.28
428.199	5.26
428.555	5.26
428.912	5.2
429.269	5.18
429.625	5.17
429.982	5.16
430.338	5.16
430.695	5.14
431.051	5.15
431.407	5.14
431.764	5.14
432.12	5.16
432.476	5.16
432.832	5.18
433.189	5.17
433.545	5.16
433.901	5.19
434.257	5.18
434.613	5.16
434.969	5.17
435.325	5.19
435.681	5.2
436.036	5.2
436.392	5.21
436.748	5.23
437.104	5.23
437.459	5.23
437.815	5.22
438.171	5.24
438.526	5.24
438.882	5.24
439.237	5.25
439.593	5.23
439.948	5.23
440.304	5.2
440.659	5.19
441.014	5.17
441.369	5.16
441.725	5.15
442.08	5.15
442.435	5.16
442.79	5.13
443.145	5.11
443.5	5.08
443.855	5.08
444.21	5.06
444.565	5.05
444.92	5.05
445.275	5.03
445.629	5.01
445.984	5
446.339	4.99
446.693	4.98
447.048	4.96
447.403	4.96
447.757	4.94
448.112	4.94
448.466	4.96
448.82	4.95
449.175	4.96
449.529	4.95
449.883	4.91
450.238	4.9
450.592	4.91
450.946	4.9
451.3	4.88
451.654	4.88
452.008	4.87
452.362	4.88
452.716	4.86
453.07	4.87
453.424	4.85
453.778	4.81
454.132	4.8
454.486	4.79
454.839	4.78
455.193	4.81
455.547	4.8
455.9	4.79
456.254	4.77
456.607	4.76
456.961	4.77
457.314	4.78
457.668	4.81
458.021	4.8
458.375	4.79
458.728	4.78
459.081	4.79
459.434	4.77
459.787	4.77
460.141	4.8
460.494	4.8
460.847	4.81
461.2	4.84
461.553	4.84
461.906	4.86
462.259	4.87
462.611	4.87
462.964	4.88
463.317	4.9
463.67	4.94
464.022	4.95
464.375	4.98
464.728	5.02
465.08	5.04
465.433	5.09
465.785	5.16
466.138	5.19
466.49	5.2
466.843	5.26
467.195	5.31
467.547	5.32
467.899	5.35
468.252	5.36
468.604	5.38
468.956	5.42
469.308	5.45
469.66	5.47
470.012	5.48
470.364	5.5
470.716	5.53
471.068	5.56
471.42	5.59
471.772	5.61
472.123	5.64
472.475	5.65
472.827	5.65
473.178	5.65
473.53	5.7
473.882	5.72
474.233	5.71
474.585	5.7
474.936	5.71
475.288	5.7
475.639	5.74
475.99	5.74
476.342	5.74
476.693	5.74
477.044	5.77
477.395	5.76
477.746	5.79
478.097	5.78
478.448	5.74
478.8	5.71
479.15	5.68
479.501	5.64
479.852	5.6
480.203	5.57
480.554	5.56
480.905	5.54
481.255	5.54
481.606	5.52
481.957	5.51
482.307	5.5
482.658	5.49
483.009	5.48
483.359	5.46
483.709	5.45
484.06	5.44
484.41	5.43
484.761	5.43
485.111	5.42
485.461	5.4
485.811	5.4
486.162	5.4
486.512	5.39
486.862	5.39
487.212	5.39
487.562	5.39
487.912	5.39
488.262	5.39
488.612	5.39
488.961	5.4
489.311	5.4
489.661	5.4
490.011	5.39
490.36	5.39
490.71	5.41
491.06	5.42
491.409	5.43
491.759	5.44
492.108	5.45
492.458	5.47
492.807	5.49
493.157	5.52
493.506	5.55
493.855	5.6
494.204	5.65
494.554	5.7
494.903	5.74
495.252	5.78
495.601	5.85
495.95	5.9
496.299	5.95
496.648	6.01
496.997	6.11
497.346	6.2
497.695	6.29
498.043	6.37
498.392	6.42
498.741	6.49
499.09	6.57
499.438	6.66
499.787	6.74
500.135	6.86
500.484	6.95
500.832	7.06
501.181	7.16
501.529	7.28
501.878	7.4
502.226	7.53
502.574	7.65
502.923	7.76
503.271	7.91
503.619	8.04
503.967	8.21
504.315	8.35
504.663	8.49
505.011	8.66
505.359	8.82
505.707	8.99
506.055	9.17
506.403	9.37
506.751	9.56
507.098	9.75
507.446	9.93
507.794	10.12
508.141	10.32
508.489	10.51
508.837	10.7
509.184	10.89
509.531	11.11
509.879	11.32
510.226	11.54
510.574	11.75
510.921	11.96
511.268	12.16
511.616	12.39
511.963	12.63
512.31	12.82
512.657	13.07
513.004	13.31
513.351	13.57
513.698	13.85
514.045	14.07
514.392	14.36
514.739	14.64
515.086	14.9
515.432	15.16
515.779	15.43
516.126	15.71
516.473	15.99
516.819	16.21
517.166	16.43
517.512	16.65
517.859	16.86
518.205	17.09
518.552	17.32
518.898	17.54
519.245	17.74
519.591	17.97
519.937	18.19
520.283	18.45
520.629	18.67
520.976	18.89
521.322	19.15
521.668	19.38
522.014	19.64
522.36	19.93
522.706	20.21
523.052	20.5
523.398	20.81
523.743	21.09
524.089	21.4
524.435	21.72
524.781	22.02
525.126	22.29
525.472	22.56
525.817	22.77
526.163	22.96
526.509	23.15
526.854	23.32
527.199	23.51
527.545	23.65
527.89	23.85
528.235	24.04
528.581	24.26
528.926	24.45
529.271	24.64
529.616	24.82
529.961	25.01
530.306	25.21
530.651	25.41
530.996	25.64
531.341	25.86
531.686	26.07
532.031	26.28
532.376	26.51
532.721	26.72
533.065	26.97
533.41	27.25
533.755	27.49
534.099	27.78
534.444	28
534.788	28.29
535.133	28.53
535.477	28.76
535.822	28.98
536.166	29.24
536.51	29.54
536.855	29.84
537.199	30.13
537.543	30.44
537.887	30.71
538.231	31
538.576	31.32
538.92	31.64
539.264	31.93
539.608	32.18
539.951	32.43
540.295	32.69
540.639	32.93
540.983	33.19
541.327	33.4
541.671	33.67
542.014	33.89
542.358	34.1
542.701	34.35
543.045	34.59
543.389	34.79
543.732	34.99
544.075	35.19
544.419	35.4
544.762	35.6
545.105	35.87
545.449	36.15
545.792	36.42
546.135	36.67
546.478	36.98
546.821	37.3
547.165	37.61
547.508	37.9
547.851	38.16
548.194	38.42
548.536	38.7
548.879	38.93
549.222	39.19
549.565	39.46
549.908	39.66
550.25	39.89
550.593	40.12
550.936	40.37
551.278	40.63
551.621	40.91
551.963	41.21
552.306	41.43
552.648	41.62
552.991	41.84
553.333	42.02
553.675	42.21
554.017	42.36
554.36	42.56
554.702	42.78
555.044	42.96
555.386	43.19
555.728	43.44
556.07	43.68
556.412	43.9
556.754	44.11
557.096	44.33
557.438	44.58
557.78	44.87
558.121	45.01
558.463	45.23
558.805	45.43
559.147	45.61
559.488	45.8
559.83	45.99
560.171	46.08
560.513	46.26
560.854	46.48
561.196	46.73
561.537	46.9
561.878	47.01
562.22	47.17
562.561	47.34
562.902	47.49
563.243	47.6
563.584	47.73
563.925	47.85
564.266	48.05
564.607	48.13
564.948	48.22
565.289	48.43
565.63	48.55
565.971	48.65
566.312	48.78
566.653	48.92
566.993	49.08
567.334	49.29
567.675	49.45
568.015	49.58
568.356	49.69
568.696	49.82
569.037	49.94
569.377	50.12
569.718	50.19
570.058	50.24
570.398	50.34
570.739	50.47
571.079	50.53
571.419	50.59
571.759	50.69
572.099	50.83
572.439	50.93
572.779	51.08
573.119	51.22
573.459	51.32
573.799	51.43
574.139	51.52
574.479	51.61
574.819	51.68
575.158	51.76
575.498	51.79
575.838	51.81
576.177	51.94
576.517	52.02
576.856	52.1
577.196	52.24
577.535	52.39
577.875	52.5
578.214	52.68
578.553	52.88
578.893	53.01
579.232	53.15
579.571	53.28
579.91	53.32
580.25	53.48
580.589	53.54
580.928	53.59
581.267	53.72
581.606	53.78
581.945	53.9
582.283	53.96
582.622	54.12
582.961	54.36
583.3	54.43
583.639	54.47
583.977	54.69
584.316	54.8
584.654	54.94
584.993	54.94
585.332	55.09
585.67	55.06
586.008	55.17
586.347	55.19
586.685	55.19
587.024	55.3
587.362	55.3
587.7	55.37
588.038	55.48
588.376	55.43
588.715	55.53
589.053	55.52
589.391	55.64
589.729	55.72
590.067	55.67
590.404	55.71
590.742	55.74
591.08	55.64
591.418	55.75
591.756	55.8
592.093	55.96
592.431	55.96
592.769	56.09
593.106	56.11
593.444	56.15
593.781	56.23
594.119	56.29
594.456	56.38
594.793	56.44
595.131	56.49
595.468	56.59
595.805	56.7
596.143	56.81
596.48	56.84
596.817	56.88
597.154	57
597.491	57.08
597.828	57.17
598.165	57.31
598.502	57.27
598.839	57.22
599.176	57.13
599.512	57.13
599.849	57.13
600.186	57.21
600.523	57.26
600.859	57.3
601.196	57.32
601.532	57.38
601.869	57.53
602.205	57.57
602.542	57.64
602.878	57.6
603.215	57.64
603.551	57.71
603.887	57.73
604.223	57.78
604.56	57.75
604.896	57.77
605.232	57.82
605.568	57.89
605.904	58
606.24	58.16
606.576	58.25
606.912	58.23
607.248	58.21
607.583	58.24
607.919	58.31
608.255	58.42
608.591	58.45
608.926	58.46
609.262	58.49
609.597	58.53
609.933	58.62
610.268	58.61
610.604	58.56
610.939	58.53
611.275	58.6
611.61	58.69
611.945	58.75
612.281	58.7
612.616	58.72
612.951	58.72
613.286	58.73
613.621	58.78
613.956	59
614.291	59.12
614.626	59.23
614.961	59.26
615.296	59.26
615.631	59.22
615.966	59.18
616.3	59.27
616.635	59.37
616.97	59.41
617.304	59.48
617.639	59.62
617.973	59.62
618.308	59.58
618.642	59.68
618.977	59.8
619.311	59.92
619.646	59.99
619.98	60.01
620.314	60.04
620.648	60.11
620.983	60.08
621.317	60.04
621.651	59.96
621.985	59.92
622.319	59.94
622.653	60.04
622.987	60.13
623.321	60.18
623.655	60.2
623.988	60.2
624.322	60.23
624.656	60.21
624.99	60.38
625.323	60.39
625.657	60.38
625.99	60.41
626.324	60.39
626.657	60.42
626.991	60.45
627.324	60.49
627.658	60.5
627.991	60.49
628.324	60.58
628.657	60.67
628.991	60.74
629.324	60.76
629.657	60.72
629.99	60.75
630.323	60.71
630.656	60.63
630.989	60.64
631.322	60.65
631.655	60.72
631.987	60.67
632.32	60.68
632.653	60.67
632.986	60.66
633.318	60.69
633.651	60.75
633.984	60.79
634.316	60.75
634.649	60.72
634.981	60.74
635.313	60.79
635.646	60.78
635.978	60.84
636.31	60.83
636.643	60.88
636.975	60.88
637.307	60.89
637.639	60.98
637.971	60.96
638.303	61.02
638.635	60.99
638.967	61.08
639.299	61.18
639.631	61.31
639.963	61.28
640.295	61.36
640.626	61.32
640.958	61.33
641.29	61.38
641.621	61.44
641.953	61.42
642.285	61.39
642.616	61.46
642.948	61.54
643.279	61.59
643.61	61.69
643.942	61.64
644.273	61.59
644.604	61.52
644.936	61.54
645.267	61.5
645.598	61.42
645.929	61.38
646.26	61.28
646.591	61.37
646.922	61.37
647.253	61.39
647.584	61.34
647.915	61.47
648.245	61.55
648.576	61.54
648.907	61.57
649.238	61.63
649.568	61.59
649.899	61.5
650.229	61.51
650.56	61.56
650.89	61.63
651.221	61.7
651.551	61.83
651.882	61.82
652.212	61.79
652.542	61.98
652.872	62.05
653.203	62.02
653.533	61.93
653.863	62.03
654.193	61.96
654.523	62.03
654.853	61.95
655.183	61.87
655.513	61.94
655.843	61.97
656.172	61.94
656.502	62
656.832	62.12
657.162	62.19
657.491	62.09
657.821	62.11
658.15	62.16
658.48	62.1
658.809	62.03
659.139	62.14
659.468	62.07
659.798	62.1
660.127	62.16
660.456	62.05
660.785	62.03
661.115	62.04
661.444	62.08
661.773	62.09
662.102	62.12
662.431	61.98
662.76	62.03
663.089	62.08
663.418	62.05
663.747	61.98
664.076	61.94
664.404	62.01
664.733	61.95
665.062	61.9
