Data from BU26943_Reflection_00009.txt Node
Date: Tue Nov 19 11:02:31 EST 2019
User: vgr7
Spectrometer: USB2G7710
Scans to average: 3
Trigger mode: 4
Integration Time (sec): 2.000000E-2
Electric dark correction enabled: true
Boxcar width: 10
XAxis mode: Wavelengths
Number of Pixels in Spectrum: 2048
>>>>>Begin Spectral Data<<<<<
177.721	-29.71
178.105	23.5
178.488	9.15
178.871	11.35
179.254	20.99
179.636	-320.29
180.019	605.38
180.402	420
180.785	-51.52
181.168	-146.79
181.55	-83.91
181.933	1510.26
182.316	-1233.33
182.698	816.05
183.081	-178.96
183.463	-197.54
183.846	-92.52
184.228	-110.59
184.611	-67.11
184.993	-57.06
185.376	-50.83
185.758	-9.56
186.14	-7.76
186.522	0.84
186.904	-3.63
187.287	8.1
187.669	15.05
188.051	22.96
188.433	5.32
188.815	-1.67
189.197	-3.4
189.579	-5.56
189.961	5.19
190.342	6.37
190.724	5.29
191.106	1.33
191.488	1.68
191.869	11.58
192.251	9.21
192.633	19.59
193.014	7.75
193.396	2.58
193.777	3.58
194.159	0.34
194.54	7.27
194.922	8.36
195.303	0.21
195.684	-6.22
196.065	-5.06
196.447	6.87
196.828	16.3
197.209	31.83
197.59	56.55
197.971	63.76
198.352	57.55
198.733	45.9
199.114	35.24
199.495	27.29
199.876	20.51
200.257	32.96
200.638	22.55
201.018	29.56
201.399	23.5
201.78	26.11
202.16	15.62
202.541	-8.23
202.922	1.13
203.302	-6.18
203.683	-14.67
204.063	-21.44
204.444	-23.18
204.824	-23.47
205.204	-28.76
205.585	-36.87
205.965	-47.2
206.345	-46.75
206.725	-48.11
207.106	-37.28
207.486	-24.44
207.866	-22.4
208.246	-27.15
208.626	-33.21
209.006	-30.42
209.386	-26.59
209.766	-33.92
210.145	-24.76
210.525	-26.37
210.905	-26.78
211.285	-22.39
211.664	-13.6
212.044	-22.81
212.424	-22.43
212.803	-25.48
213.183	-27.57
213.562	-24.49
213.942	-19.15
214.321	-25.99
214.701	-28.8
215.08	-32.45
215.459	-36.45
215.838	-47.44
216.218	-48.75
216.597	-44.65
216.976	-44.9
217.355	-51.54
217.734	-47.07
218.113	-40.42
218.492	-37.1
218.871	-42.56
219.25	-43.48
219.629	-45.04
220.008	-32.42
220.387	-36.54
220.766	-27.96
221.144	-29.79
221.523	-29.92
221.902	-35.79
222.28	-30.14
222.659	-22.44
223.037	-23.9
223.416	-25.86
223.794	-19.19
224.173	-16.68
224.551	-15.49
224.929	-21.3
225.308	-17.5
225.686	-12.37
226.064	-12.35
226.442	-7.82
226.821	-8.61
227.199	-9.25
227.577	-10.41
227.955	-9.74
228.333	-7.87
228.711	-5.31
229.089	-5.7
229.467	-9.55
229.845	-6.72
230.222	-5.78
230.6	-7.13
230.978	-6.3
231.356	-4.73
231.733	-6.71
232.111	-6.31
232.488	-6.08
232.866	-3.94
233.243	-3.92
233.621	-4.57
233.998	-5.06
234.376	-5.29
234.753	-4.98
235.13	-3.15
235.508	-2.84
235.885	-2.53
236.262	-2.75
236.639	-3.83
237.016	-2.84
237.393	-1.25
237.77	-0.1
238.147	0.08
238.524	1.4
238.901	2.13
239.278	1.71
239.655	2.65
240.032	2.22
240.409	2.25
240.785	2.27
241.162	3.23
241.539	3.2
241.915	3.23
242.292	3.55
242.668	3.8
243.045	3.88
243.421	3.95
243.798	4.21
244.174	4.38
244.551	4.41
244.927	4.22
245.303	4.03
245.679	3.91
246.056	4.07
246.432	3.91
246.808	3.68
247.184	4
247.56	4.05
247.936	4.26
248.312	4.36
248.688	4.61
249.064	4.23
249.44	4.1
249.815	4.19
250.191	4.09
250.567	4.01
250.943	3.79
251.318	4
251.694	3.72
252.069	3.74
252.445	3.92
252.82	4.17
253.196	4.27
253.571	4.09
253.947	4.18
254.322	4.22
254.697	4.21
255.073	3.88
255.448	3.68
255.823	3.48
256.198	3.57
256.573	3.4
256.948	3.41
257.323	3.59
257.698	3.49
258.073	3.26
258.448	3.19
258.823	3.26
259.198	3.32
259.573	3.29
259.948	3.35
260.322	3.28
260.697	3.24
261.072	3.36
261.446	3.44
261.821	3.47
262.195	3.4
262.57	3.5
262.944	3.51
263.319	3.54
263.693	3.48
264.067	3.5
264.442	3.46
264.816	3.56
265.19	3.35
265.564	3.29
265.938	3.58
266.313	3.59
266.687	3.62
267.061	3.56
267.435	3.44
267.809	3.07
268.183	2.89
268.556	2.8
268.93	2.8
269.304	2.82
269.678	2.81
270.051	2.97
270.425	2.96
270.799	2.72
271.172	2.84
271.546	2.97
271.919	2.86
272.293	2.97
272.666	2.94
273.04	2.93
273.413	2.99
273.787	2.94
274.16	3.14
274.533	3.16
274.906	3.03
275.279	3.14
275.653	3.44
276.026	3.49
276.399	3.43
276.772	3.49
277.145	3.39
277.518	3.19
277.891	3.25
278.263	3.32
278.636	3.58
279.009	3.51
279.382	3.47
279.755	3.55
280.127	3.33
280.5	3.27
280.872	3.33
281.245	3.32
281.617	3.29
281.99	3.13
282.362	3.12
282.735	3.15
283.107	3.13
283.479	3.07
283.852	3.16
284.224	3.36
284.596	3.34
284.968	3.27
285.34	3.25
285.713	3.28
286.085	3.18
286.457	3.15
286.829	3.14
287.201	3.05
287.572	3.06
287.944	3.2
288.316	3.33
288.688	3.55
289.06	3.61
289.431	3.64
289.803	3.7
290.175	3.65
290.546	3.6
290.918	3.61
291.289	3.55
291.661	3.48
292.032	3.49
292.403	3.36
292.775	3.47
293.146	3.56
293.517	3.49
293.889	3.61
294.26	3.67
294.631	3.7
295.002	3.86
295.373	3.85
295.744	3.84
296.115	3.82
296.486	3.66
296.857	3.69
297.228	3.64
297.599	3.66
297.97	3.78
298.34	3.78
298.711	3.91
299.082	3.96
299.452	3.93
299.823	4.02
300.194	4.17
300.564	4.15
300.935	4.24
301.305	4.32
301.676	4.16
302.046	4.11
302.416	4.07
302.787	4.02
303.157	3.97
303.527	4.03
303.897	4.01
304.267	4
304.637	3.91
305.008	3.92
305.378	3.93
305.748	3.85
306.117	3.87
306.487	3.87
306.857	3.91
307.227	4.1
307.597	3.97
307.967	3.99
308.336	4.1
308.706	4.09
309.076	4.17
309.445	4.29
309.815	4.38
310.184	4.44
310.554	4.5
310.923	4.56
311.293	4.5
311.662	4.54
312.031	4.63
312.401	4.6
312.77	4.65
313.139	4.73
313.508	4.8
313.877	4.98
314.246	4.98
314.616	5.09
314.985	5.07
315.353	5.07
315.722	5.05
316.091	4.96
316.46	4.87
316.829	4.73
317.198	4.84
317.567	4.95
317.935	5.03
318.304	5.1
318.672	5.21
319.041	5.29
319.41	5.34
319.778	5.47
320.147	5.58
320.515	5.56
320.883	5.62
321.252	5.61
321.62	5.55
321.988	5.59
322.357	5.45
322.725	5.44
323.093	5.54
323.461	5.61
323.829	5.75
324.197	5.95
324.565	6.09
324.933	6.04
325.301	5.84
325.669	5.85
326.037	5.73
326.405	5.63
326.772	5.59
327.14	5.64
327.508	5.58
327.875	5.63
328.243	5.52
328.61	5.47
328.978	5.42
329.346	5.41
329.713	5.46
330.08	5.55
330.448	5.61
330.815	5.63
331.182	5.63
331.55	5.6
331.917	5.62
332.284	5.63
332.651	5.61
333.018	5.76
333.385	5.79
333.752	5.88
334.119	5.97
334.486	6.14
334.853	6.08
335.22	6.09
335.587	5.94
335.954	6.01
336.32	6.08
336.687	6.2
337.054	6.28
337.42	6.3
337.787	6.22
338.153	6.24
338.52	6.31
338.886	6.32
339.253	6.22
339.619	6.24
339.986	6.25
340.352	6.36
340.718	6.41
341.084	6.49
341.451	6.54
341.817	6.56
342.183	6.57
342.549	6.62
342.915	6.61
343.281	6.76
343.647	6.83
344.013	6.87
344.379	6.83
344.745	6.81
345.11	6.72
345.476	6.88
345.842	6.79
346.208	6.77
346.573	6.78
346.939	7
347.304	7.05
347.67	7.03
348.035	6.9
348.401	6.88
348.766	6.82
349.132	6.84
349.497	6.87
349.862	6.8
350.228	6.8
350.593	6.82
350.958	6.84
351.323	6.89
351.688	6.88
352.053	6.81
352.418	6.86
352.783	6.82
353.148	6.68
353.513	6.71
353.878	6.68
354.243	6.58
354.608	6.57
354.972	6.41
355.337	6.4
355.702	6.44
356.066	6.4
356.431	6.35
356.795	6.28
357.16	6.28
357.524	6.34
357.889	6.34
358.253	6.33
358.618	6.35
358.982	6.29
359.346	6.3
359.71	6.34
360.075	6.29
360.439	6.33
360.803	6.38
361.167	6.47
361.531	6.46
361.895	6.51
362.259	6.45
362.623	6.49
362.987	6.5
363.351	6.53
363.714	6.51
364.078	6.45
364.442	6.42
364.806	6.35
365.169	6.34
365.533	6.3
365.896	6.3
366.26	6.26
366.623	6.24
366.987	6.22
367.35	6.25
367.714	6.21
368.077	6.18
368.44	6.17
368.803	6.05
369.167	6.03
369.53	5.98
369.893	5.91
370.256	5.84
370.619	5.79
370.982	5.71
371.345	5.68
371.708	5.71
372.071	5.72
372.434	5.7
372.797	5.59
373.159	5.53
373.522	5.46
373.885	5.38
374.247	5.35
374.61	5.29
374.973	5.14
375.335	5.11
375.698	5.03
376.06	4.99
376.423	4.94
376.785	4.86
377.147	4.87
377.51	4.86
377.872	4.86
378.234	4.84
378.596	4.84
378.958	4.88
379.321	4.84
379.683	4.77
380.045	4.75
380.407	4.75
380.769	4.72
381.13	4.73
381.492	4.7
381.854	4.69
382.216	4.71
382.578	4.7
382.939	4.67
383.301	4.68
383.663	4.69
384.024	4.67
384.386	4.69
384.747	4.63
385.109	4.63
385.47	4.6
385.832	4.52
386.193	4.49
386.554	4.43
386.916	4.43
387.277	4.44
387.638	4.41
387.999	4.44
388.36	4.42
388.721	4.41
389.082	4.44
389.443	4.42
389.804	4.34
390.165	4.34
390.526	4.34
390.887	4.34
391.248	4.32
391.609	4.33
391.969	4.28
392.33	4.24
392.691	4.17
393.051	4.16
393.412	4.16
393.772	4.16
394.133	4.11
394.493	4.04
394.854	4.01
395.214	4.01
395.574	3.92
395.935	3.9
396.295	3.85
396.655	3.79
397.015	3.77
397.376	3.74
397.736	3.73
398.096	3.68
398.456	3.65
398.816	3.64
399.176	3.54
399.535	3.52
399.895	3.52
400.255	3.54
400.615	3.53
400.975	3.51
401.334	3.43
401.694	3.46
402.054	3.49
402.413	3.5
402.773	3.49
403.132	3.52
403.492	3.54
403.851	3.54
404.211	3.53
404.57	3.49
404.929	3.5
405.288	3.45
405.648	3.46
406.007	3.42
406.366	3.38
406.725	3.4
407.084	3.41
407.443	3.39
407.802	3.36
408.161	3.34
408.52	3.36
408.879	3.4
409.238	3.36
409.596	3.37
409.955	3.35
410.314	3.32
410.673	3.31
411.031	3.27
411.39	3.28
411.748	3.26
412.107	3.28
412.465	3.28
412.824	3.3
413.182	3.28
413.54	3.3
413.899	3.31
414.257	3.31
414.615	3.29
414.974	3.33
415.332	3.32
415.69	3.34
416.048	3.32
416.406	3.34
416.764	3.35
417.122	3.32
417.48	3.31
417.838	3.3
418.195	3.29
418.553	3.29
418.911	3.27
419.269	3.28
419.626	3.27
419.984	3.27
420.342	3.27
420.699	3.27
421.057	3.27
421.414	3.27
421.772	3.27
422.129	3.28
422.486	3.26
422.844	3.26
423.201	3.24
423.558	3.24
423.915	3.22
424.273	3.21
424.63	3.21
424.987	3.2
425.344	3.19
425.701	3.18
426.058	3.18
426.415	3.17
426.772	3.16
427.128	3.15
427.485	3.14
427.842	3.11
428.199	3.11
428.555	3.09
428.912	3.05
429.269	3.05
429.625	3.03
429.982	3.02
430.338	3.01
430.695	3.02
431.051	3.03
431.407	3.01
431.764	3
432.12	3.01
432.476	3.02
432.832	3.03
433.189	3.03
433.545	3.02
433.901	3.01
434.257	3.01
434.613	3.02
434.969	3
435.325	3.03
435.681	3.02
436.036	3.02
436.392	3.04
436.748	3.05
437.104	3.05
437.459	3.06
437.815	3.06
438.171	3.06
438.526	3.06
438.882	3.08
439.237	3.08
439.593	3.07
439.948	3.07
440.304	3.05
440.659	3.05
441.014	3.06
441.369	3.08
441.725	3.08
442.08	3.09
442.435	3.1
442.79	3.08
443.145	3.08
443.5	3.07
443.855	3.07
444.21	3.07
444.565	3.06
444.92	3.06
445.275	3.06
445.629	3.05
445.984	3.05
446.339	3.05
446.693	3.04
447.048	3.04
447.403	3.03
447.757	3.04
448.112	3.01
448.466	3.01
448.82	3
449.175	3
449.529	2.99
449.883	3
450.238	2.99
450.592	2.98
450.946	2.98
451.3	2.99
451.654	2.96
452.008	2.95
452.362	2.93
452.716	2.91
453.07	2.9
453.424	2.9
453.778	2.87
454.132	2.85
454.486	2.86
454.839	2.86
455.193	2.84
455.547	2.88
455.9	2.87
456.254	2.88
456.607	2.86
456.961	2.87
457.314	2.86
457.668	2.86
458.021	2.87
458.375	2.86
458.728	2.85
459.081	2.86
459.434	2.87
459.787	2.9
460.141	2.9
460.494	2.92
460.847	2.93
461.2	2.94
461.553	2.95
461.906	2.94
462.259	2.94
462.611	2.96
462.964	2.97
463.317	2.97
463.67	2.96
464.022	2.97
464.375	2.95
464.728	2.98
465.08	2.99
465.433	2.99
465.785	3
466.138	3.02
466.49	3.04
466.843	3.03
467.195	3.03
467.547	3.04
467.899	3.03
468.252	3.04
468.604	3.04
468.956	3.05
469.308	3.06
469.66	3.06
470.012	3.08
470.364	3.09
470.716	3.1
471.068	3.12
471.42	3.14
471.772	3.16
472.123	3.17
472.475	3.17
472.827	3.19
473.178	3.21
473.53	3.2
473.882	3.19
474.233	3.21
474.585	3.2
474.936	3.19
475.288	3.18
475.639	3.17
475.99	3.18
476.342	3.18
476.693	3.19
477.044	3.19
477.395	3.18
477.746	3.16
478.097	3.16
478.448	3.14
478.8	3.14
479.15	3.14
479.501	3.11
479.852	3.11
480.203	3.12
480.554	3.13
480.905	3.15
481.255	3.14
481.606	3.15
481.957	3.16
482.307	3.16
482.658	3.18
483.009	3.17
483.359	3.17
483.709	3.17
484.06	3.17
484.41	3.17
484.761	3.17
485.111	3.17
485.461	3.16
485.811	3.17
486.162	3.17
486.512	3.17
486.862	3.17
487.212	3.18
487.562	3.17
487.912	3.16
488.262	3.15
488.612	3.16
488.961	3.15
489.311	3.15
489.661	3.15
490.011	3.14
490.36	3.14
490.71	3.14
491.06	3.14
491.409	3.15
491.759	3.16
492.108	3.17
492.458	3.17
492.807	3.19
493.157	3.2
493.506	3.2
493.855	3.21
494.204	3.21
494.554	3.21
494.903	3.23
495.252	3.24
495.601	3.25
495.95	3.26
496.299	3.27
496.648	3.29
496.997	3.3
497.346	3.33
497.695	3.35
498.043	3.4
498.392	3.4
498.741	3.42
499.09	3.44
499.438	3.45
499.787	3.49
500.135	3.52
500.484	3.52
500.832	3.54
501.181	3.58
501.529	3.66
501.878	3.71
502.226	3.74
502.574	3.81
502.923	3.87
503.271	3.9
503.619	3.98
503.967	4.02
504.315	4.06
504.663	4.12
505.011	4.18
505.359	4.19
505.707	4.25
506.055	4.29
506.403	4.38
506.751	4.47
507.098	4.56
507.446	4.64
507.794	4.73
508.141	4.79
508.489	4.9
508.837	4.95
509.184	5.04
509.531	5.12
509.879	5.18
510.226	5.26
510.574	5.37
510.921	5.45
511.268	5.56
511.616	5.68
511.963	5.78
512.31	5.89
512.657	6.02
513.004	6.13
513.351	6.27
513.698	6.41
514.045	6.55
514.392	6.7
514.739	6.84
515.086	7
515.432	7.19
515.779	7.33
516.126	7.5
516.473	7.64
516.819	7.8
517.166	7.96
517.512	8.12
517.859	8.27
518.205	8.39
518.552	8.53
518.898	8.65
519.245	8.8
519.591	8.96
519.937	9.14
520.283	9.33
520.629	9.5
520.976	9.66
521.322	9.84
521.668	10
522.014	10.19
522.36	10.34
522.706	10.54
523.052	10.74
523.398	10.96
523.743	11.24
524.089	11.5
524.435	11.73
524.781	11.97
525.126	12.15
525.472	12.36
525.817	12.55
526.163	12.74
526.509	12.91
526.854	13.07
527.199	13.24
527.545	13.38
527.89	13.54
528.235	13.68
528.581	13.84
528.926	14.02
529.271	14.17
529.616	14.34
529.961	14.5
530.306	14.69
530.651	14.86
530.996	15.02
531.341	15.21
531.686	15.42
532.031	15.61
532.376	15.86
532.721	16.06
533.065	16.29
533.41	16.5
533.755	16.73
534.099	16.96
534.444	17.17
534.788	17.39
535.133	17.63
535.477	17.86
535.822	18.09
536.166	18.36
536.51	18.64
536.855	18.96
537.199	19.28
537.543	19.58
537.887	19.91
538.231	20.26
538.576	20.59
538.92	20.9
539.264	21.2
539.608	21.47
539.951	21.77
540.295	22.01
540.639	22.27
540.983	22.52
541.327	22.77
541.671	23.03
542.014	23.27
542.358	23.51
542.701	23.78
543.045	24.03
543.389	24.26
543.732	24.52
544.075	24.74
544.419	25
544.762	25.27
545.105	25.53
545.449	25.75
545.792	26
546.135	26.27
546.478	26.57
546.821	26.88
547.165	27.19
547.508	27.51
547.851	27.84
548.194	28.17
548.536	28.47
548.879	28.78
549.222	29.1
549.565	29.41
549.908	29.67
550.25	29.98
550.593	30.27
550.936	30.62
551.278	30.96
551.621	31.22
551.963	31.48
552.306	31.78
552.648	32.14
552.991	32.44
553.333	32.71
553.675	32.99
554.017	33.23
554.36	33.52
554.702	33.84
555.044	34.08
555.386	34.37
555.728	34.61
556.07	34.87
556.412	35.15
556.754	35.37
557.096	35.68
557.438	35.93
557.78	36.2
558.121	36.42
558.463	36.65
558.805	36.88
559.147	37.16
559.488	37.38
559.83	37.59
560.171	37.77
560.513	38.05
560.854	38.22
561.196	38.46
561.537	38.65
561.878	38.83
562.22	39.05
562.561	39.25
562.902	39.4
563.243	39.65
563.584	39.83
563.925	40.01
564.266	40.15
564.607	40.33
564.948	40.52
565.289	40.62
565.63	40.79
565.971	40.98
566.312	41.15
566.653	41.37
566.993	41.46
567.334	41.68
567.675	41.85
568.015	42.04
568.356	42.16
568.696	42.34
569.037	42.5
569.377	42.62
569.718	42.76
570.058	42.96
570.398	43.12
570.739	43.25
571.079	43.41
571.419	43.57
571.759	43.72
572.099	43.85
572.439	44.05
572.779	44.18
573.119	44.33
573.459	44.44
573.799	44.55
574.139	44.77
574.479	44.89
574.819	44.99
575.158	45.12
575.498	45.26
575.838	45.39
576.177	45.54
576.517	45.68
576.856	45.83
577.196	45.94
577.535	46.04
577.875	46.17
578.214	46.3
578.553	46.47
578.893	46.61
579.232	46.74
579.571	46.92
579.91	47.07
580.25	47.17
580.589	47.32
580.928	47.43
581.267	47.51
581.606	47.58
581.945	47.72
582.283	47.88
582.622	48.01
582.961	48.12
583.3	48.22
583.639	48.34
583.977	48.44
584.316	48.53
584.654	48.63
584.993	48.74
585.332	48.83
585.67	48.91
586.008	48.99
586.347	49.12
586.685	49.16
587.024	49.25
587.362	49.42
587.7	49.53
588.038	49.63
588.376	49.72
588.715	49.89
589.053	49.9
589.391	49.9
589.729	49.98
590.067	50.07
590.404	50.09
590.742	50.16
591.08	50.24
591.418	50.36
591.756	50.51
592.093	50.61
592.431	50.77
592.769	50.94
593.106	51.02
593.444	51.13
593.781	51.22
594.119	51.3
594.456	51.4
594.793	51.45
595.131	51.52
595.468	51.67
595.805	51.72
596.143	51.81
596.48	51.91
596.817	51.99
597.154	52.07
597.491	52.16
597.828	52.33
598.165	52.38
598.502	52.41
598.839	52.44
599.176	52.56
599.512	52.62
599.849	52.64
600.186	52.69
600.523	52.73
600.859	52.83
601.196	52.94
601.532	52.97
601.869	53.05
602.205	53.13
602.542	53.18
602.878	53.23
603.215	53.32
603.551	53.43
603.887	53.48
604.223	53.55
604.56	53.57
604.896	53.58
605.232	53.63
605.568	53.73
605.904	53.82
606.24	53.84
606.576	53.93
606.912	53.95
607.248	54.01
607.583	54.08
607.919	54.12
608.255	54.13
608.591	54.15
608.926	54.17
609.262	54.23
609.597	54.26
609.933	54.33
610.268	54.38
610.604	54.41
610.939	54.44
611.275	54.49
611.61	54.54
611.945	54.51
612.281	54.61
612.616	54.67
612.951	54.68
613.286	54.73
613.621	54.73
613.956	54.84
614.291	54.95
614.626	54.94
614.961	55
615.296	55.03
615.631	55.1
615.966	55.24
616.3	55.31
616.635	55.35
616.97	55.44
617.304	55.55
617.639	55.62
617.973	55.7
618.308	55.69
618.642	55.83
618.977	55.93
619.311	55.89
619.646	55.94
619.98	56
620.314	55.95
620.648	55.99
620.983	55.92
621.317	55.89
621.651	55.92
621.985	56.04
622.319	56.01
622.653	56.11
622.987	56.1
623.321	56.11
623.655	56.11
623.988	56.04
624.322	56.06
624.656	56.13
624.99	56.2
625.323	56.17
625.657	56.13
625.99	56.2
626.324	56.36
626.657	56.28
626.991	56.32
627.324	56.46
627.658	56.45
627.991	56.56
628.324	56.65
628.657	56.68
628.991	56.61
629.324	56.73
629.657	56.69
629.99	56.65
630.323	56.63
630.656	56.65
630.989	56.76
631.322	56.77
631.655	56.76
631.987	56.78
632.32	56.88
632.653	56.92
632.986	56.95
633.318	56.83
633.651	56.96
633.984	56.91
634.316	56.99
634.649	57.07
634.981	57.14
635.313	57.18
635.646	57.27
635.978	57.28
636.31	57.34
636.643	57.34
636.975	57.45
637.307	57.54
637.639	57.64
637.971	57.59
638.303	57.61
638.635	57.57
638.967	57.63
639.299	57.66
639.631	57.67
639.963	57.72
640.295	57.89
640.626	57.92
640.958	57.91
641.29	57.84
641.621	57.75
641.953	57.71
642.285	57.73
642.616	57.77
642.948	57.88
643.279	57.79
643.61	57.83
643.942	57.82
644.273	57.78
644.604	57.65
644.936	57.74
645.267	57.72
645.598	57.82
645.929	57.8
646.26	57.88
646.591	58
646.922	57.98
647.253	57.89
647.584	57.89
647.915	58.01
648.245	58.02
648.576	58.18
648.907	58.22
649.238	58.16
649.568	58.12
649.899	58.09
650.229	58.11
650.56	58.22
650.89	58.29
651.221	58.33
651.551	58.34
651.882	58.39
652.212	58.52
652.542	58.56
652.872	58.59
653.203	58.69
653.533	58.75
653.863	58.76
654.193	58.74
654.523	58.69
654.853	58.76
655.183	58.85
655.513	58.86
655.843	58.91
656.172	58.97
656.502	59
656.832	59.21
657.162	59.27
657.491	59.16
657.821	59.13
658.15	59.2
658.48	59.31
658.809	59.23
659.139	59.18
659.468	59.17
659.798	59.18
660.127	59.09
660.456	58.96
660.785	59.13
661.115	59.25
661.444	59.38
661.773	59.4
662.102	59.35
662.431	59.3
662.76	59.2
663.089	59.25
663.418	59.24
663.747	59.15
664.076	59.16
664.404	59.3
664.733	59.34
665.062	59.35
665.39	59.29
665.719	59.34
666.048	59.34
666.376	59.16
666.705	59.2
667.033	59.21
667.362	59.3
667.69	59.24
668.018	59.19
668.347	59.21
