Data from BU26846_Reflection_00013.txt Node
Date: Mon Nov 18 16:33:46 EST 2019
User: vgr7
Spectrometer: USB2G7710
Scans to average: 3
Trigger mode: 4
Integration Time (sec): 2.000000E-2
Electric dark correction enabled: true
Boxcar width: 10
XAxis mode: Wavelengths
Number of Pixels in Spectrum: 2048
>>>>>Begin Spectral Data<<<<<
177.721	96.93
178.105	-333.96
178.488	176.34
178.871	-21.02
179.254	6.58
179.636	4.11
180.019	16.29
180.402	136.36
180.785	55.97
181.168	16.96
181.55	14.24
181.933	62
182.316	64.24
182.698	69.76
183.081	43.65
183.463	61.56
183.846	81.69
184.228	-23.54
184.611	-142.62
184.993	-798.88
185.376	1295.88
185.758	-2463.38
186.14	-236.22
186.522	-158.22
186.904	-79.7
187.287	-42.69
187.669	-68.33
188.051	-55.17
188.433	-81.27
188.815	-78.18
189.197	-81.29
189.579	-122.38
189.961	-304.72
190.342	-279.6
190.724	176.15
191.106	-327.48
191.488	-42.1
191.869	30.8
192.251	21.67
192.633	34.87
193.014	7.74
193.396	20.44
193.777	40.1
194.159	52.53
194.54	18.93
194.922	27.77
195.303	47.19
195.684	37.75
196.065	47
196.447	37.35
196.828	13.04
197.209	53.03
197.59	69.01
197.971	-5.66
198.352	-53.39
198.733	-50.48
199.114	-72.8
199.495	-251.88
199.876	1044.72
200.257	418.29
200.638	265.16
201.018	190.58
201.399	141.98
201.78	92.5
202.16	102.94
202.541	52.39
202.922	51.74
203.302	43.92
203.683	35.25
204.063	31.13
204.444	7.65
204.824	0.73
205.204	-2.48
205.585	-2.59
205.965	-16.05
206.345	-31.5
206.725	-51.19
207.106	-44.13
207.486	-72.76
207.866	-100.84
208.246	-144.12
208.626	-168.01
209.006	-119.4
209.386	-183.27
209.766	-267.16
210.145	-212.82
210.525	-170.94
210.905	-89.94
211.285	-62.74
211.664	-45.9
212.044	-23.66
212.424	21.81
212.803	19.02
213.183	135.28
213.562	106.14
213.942	209.28
214.321	196.74
214.701	166.95
215.08	208.03
215.459	159.65
215.838	80.3
216.218	34.35
216.597	180.28
216.976	164.12
217.355	219.07
217.734	181.42
218.113	196.46
218.492	244.96
218.871	5991.89
219.25	264.41
219.629	747.89
220.008	-1744.31
220.387	6964.86
220.766	442.23
221.144	3673.77
221.523	-1552.17
221.902	-590.81
222.28	-1214.69
222.659	300.94
223.037	98.13
223.416	107.47
223.794	127.86
224.173	98.54
224.551	59.9
224.929	44.54
225.308	22.01
225.686	24.47
226.064	8.77
226.442	7.91
226.821	8.73
227.199	2.86
227.577	0.34
227.955	-1.79
228.333	-1.14
228.711	0.8
229.089	2.79
229.467	1.21
229.845	2.48
230.222	3.46
230.6	2.48
230.978	4.21
231.356	6.96
231.733	4.7
232.111	6.95
232.488	8.65
232.866	7.66
233.243	9.07
233.621	8.33
233.998	11.17
234.376	12.69
234.753	9.83
235.13	12.35
235.508	12.09
235.885	10.31
236.262	9.15
236.639	7.22
237.016	6.59
237.393	7.64
237.77	6.39
238.147	6.68
238.524	7.43
238.901	7.22
239.278	7.15
239.655	7.88
240.032	7.17
240.409	6.77
240.785	7.06
241.162	7.01
241.539	7
241.915	6.47
242.292	5.89
242.668	6.33
243.045	6.16
243.421	5.96
243.798	5.81
244.174	5.72
244.551	5.72
244.927	5.56
245.303	5.32
245.679	5.6
246.056	5.36
246.432	5.2
246.808	5
247.184	4.65
247.56	4.5
247.936	4.19
248.312	4.19
248.688	4.19
249.064	4.1
249.44	3.9
249.815	4.01
250.191	4.06
250.567	4.06
250.943	3.77
251.318	3.95
251.694	4.14
252.069	4.28
252.445	4.2
252.82	4.26
253.196	4.26
253.571	4.32
253.947	4.35
254.322	4.27
254.697	4.19
255.073	4.17
255.448	4.2
255.823	4.58
256.198	4.57
256.573	4.36
256.948	4.52
257.323	4.51
257.698	4.56
258.073	4.46
258.448	4.38
258.823	4.51
259.198	4.33
259.573	4.21
259.948	3.93
260.322	4.09
260.697	3.97
261.072	3.94
261.446	3.84
261.821	3.92
262.195	3.79
262.57	3.9
262.944	3.98
263.319	4.05
263.693	3.92
264.067	3.99
264.442	4.17
264.816	3.89
265.19	3.97
265.564	3.88
265.938	3.76
266.313	3.66
266.687	3.62
267.061	3.74
267.435	3.77
267.809	3.94
268.183	3.97
268.556	4.01
268.93	4.08
269.304	4.15
269.678	3.95
270.051	4.15
270.425	4.16
270.799	4.21
271.172	4.18
271.546	4.26
271.919	4.17
272.293	4.08
272.666	4.18
273.04	4.2
273.413	4.07
273.787	4.3
274.16	4.32
274.533	4.28
274.906	4.12
275.279	4.18
275.653	4.22
276.026	3.99
276.399	4.01
276.772	3.92
277.145	3.79
277.518	3.93
277.891	3.97
278.263	3.8
278.636	3.71
279.009	3.55
279.382	3.67
279.755	3.61
280.127	3.65
280.5	3.53
280.872	3.57
281.245	3.61
281.617	3.61
281.99	3.67
282.362	3.77
282.735	3.88
283.107	3.68
283.479	3.75
283.852	3.92
284.224	3.88
284.596	3.84
284.968	3.93
285.34	3.88
285.713	3.87
286.085	3.98
286.457	4.08
286.829	4.32
287.201	4.21
287.572	4.23
287.944	4.15
288.316	4.25
288.688	4.21
289.06	4.27
289.431	4.29
289.803	4.31
290.175	4.35
290.546	4.41
290.918	4.63
291.289	4.58
291.661	4.55
292.032	4.64
292.403	4.83
292.775	4.8
293.146	4.9
293.517	4.83
293.889	4.92
294.26	4.88
294.631	4.75
295.002	4.9
295.373	4.83
295.744	4.94
296.115	4.89
296.486	4.84
296.857	4.77
297.228	4.79
297.599	4.84
297.97	4.8
298.34	4.84
298.711	4.93
299.082	4.98
299.452	5.03
299.823	5.03
300.194	5.01
300.564	4.98
300.935	5.03
301.305	5.13
301.676	5.06
302.046	5.16
302.416	5.29
302.787	5.24
303.157	5.4
303.527	5.44
303.897	5.65
304.267	5.82
304.637	5.99
305.008	5.92
305.378	6.09
305.748	6.19
306.117	6.17
306.487	6.09
306.857	6.11
307.227	6.08
307.597	6.16
307.967	6.16
308.336	6.27
308.706	6.42
309.076	6.42
309.445	6.41
309.815	6.33
310.184	6.27
310.554	6.31
310.923	6.43
311.293	6.51
311.662	6.55
312.031	6.44
312.401	6.39
312.77	6.62
313.139	6.63
313.508	6.64
313.877	6.72
314.246	6.87
314.616	6.94
314.985	7.1
315.353	7.16
315.722	7.31
316.091	7.31
316.46	7.25
316.829	7.29
317.198	7.38
317.567	7.58
317.935	7.71
318.304	7.93
318.672	7.8
319.041	8.03
319.41	8
319.778	8.2
320.147	8.56
320.515	8.52
320.883	8.33
321.252	8.4
321.62	8.48
321.988	8.55
322.357	8.63
322.725	8.63
323.093	8.75
323.461	8.75
323.829	8.95
324.197	8.96
324.565	9.23
324.933	9.49
325.301	9.57
325.669	9.52
326.037	9.4
326.405	9.61
326.772	9.45
327.14	9.47
327.508	9.43
327.875	9.2
328.243	9.2
328.61	9.38
328.978	9.46
329.346	9.54
329.713	9.43
330.08	9.47
330.448	9.49
330.815	9.3
331.182	9.34
331.55	9.36
331.917	9.57
332.284	9.47
332.651	9.26
333.018	9.2
333.385	9.29
333.752	9.41
334.119	9.38
334.486	9.41
334.853	9.53
335.22	9.58
335.587	9.68
335.954	9.73
336.32	9.79
336.687	9.7
337.054	9.62
337.42	9.63
337.787	9.55
338.153	9.63
338.52	9.75
338.886	9.72
339.253	9.65
339.619	9.6
339.986	9.65
340.352	9.71
340.718	9.64
341.084	9.61
341.451	9.68
341.817	9.77
342.183	9.82
342.549	9.71
342.915	9.77
343.281	9.84
343.647	9.86
344.013	9.82
344.379	9.86
344.745	9.95
345.11	9.96
345.476	10.01
345.842	10.04
346.208	10.05
346.573	10.08
346.939	10.06
347.304	9.98
347.67	9.95
348.035	9.9
348.401	9.95
348.766	9.98
349.132	9.92
349.497	9.76
349.862	9.74
350.228	9.84
350.593	9.76
350.958	9.68
351.323	9.62
351.688	9.65
352.053	9.62
352.418	9.65
352.783	9.72
353.148	9.68
353.513	9.65
353.878	9.6
354.243	9.65
354.608	9.79
354.972	9.8
355.337	9.85
355.702	10
356.066	10.02
356.431	10.03
356.795	10.03
357.16	10.05
357.524	9.96
357.889	9.86
358.253	9.91
358.618	9.96
358.982	9.94
359.346	9.87
359.71	9.85
360.075	9.77
360.439	9.72
360.803	9.69
361.167	9.61
361.531	9.58
361.895	9.49
362.259	9.42
362.623	9.35
362.987	9.26
363.351	9.18
363.714	9.14
364.078	9.11
364.442	9
364.806	8.98
365.169	8.98
365.533	8.93
365.896	8.83
366.26	8.76
366.623	8.73
366.987	8.72
367.35	8.7
367.714	8.7
368.077	8.59
368.44	8.6
368.803	8.53
369.167	8.5
369.53	8.45
369.893	8.38
370.256	8.4
370.619	8.36
370.982	8.27
371.345	8.16
371.708	8.12
372.071	8.11
372.434	7.95
372.797	7.94
373.159	7.88
373.522	7.86
373.885	7.85
374.247	7.75
374.61	7.7
374.973	7.59
375.335	7.48
375.698	7.52
376.06	7.41
376.423	7.4
376.785	7.31
377.147	7.27
377.51	7.2
377.872	7.13
378.234	7.05
378.596	7.03
378.958	6.96
379.321	6.93
379.683	6.86
380.045	6.85
380.407	6.74
380.769	6.71
381.13	6.64
381.492	6.49
381.854	6.48
382.216	6.41
382.578	6.41
382.939	6.33
383.301	6.2
383.663	6.1
384.024	5.99
384.386	6.02
384.747	5.97
385.109	5.94
385.47	5.91
385.832	5.87
386.193	5.83
386.554	5.84
386.916	5.72
387.277	5.72
387.638	5.68
387.999	5.65
388.36	5.64
388.721	5.64
389.082	5.69
389.443	5.62
389.804	5.57
390.165	5.51
390.526	5.54
390.887	5.53
391.248	5.59
391.609	5.6
391.969	5.53
392.33	5.51
392.691	5.49
393.051	5.44
393.412	5.43
393.772	5.35
394.133	5.32
394.493	5.31
394.854	5.28
395.214	5.27
395.574	5.25
395.935	5.21
396.295	5.18
396.655	5.1
397.015	5.05
397.376	5.06
397.736	5.06
398.096	5.01
398.456	5.01
398.816	4.92
399.176	4.83
399.535	4.8
399.895	4.79
400.255	4.76
400.615	4.71
400.975	4.69
401.334	4.68
401.694	4.65
402.054	4.61
402.413	4.58
402.773	4.52
403.132	4.48
403.492	4.42
403.851	4.37
404.211	4.36
404.57	4.37
404.929	4.33
405.288	4.28
405.648	4.26
406.007	4.21
406.366	4.23
406.725	4.26
407.084	4.24
407.443	4.21
407.802	4.18
408.161	4.19
408.52	4.15
408.879	4.15
409.238	4.12
409.596	4.1
409.955	4.1
410.314	4.12
410.673	4.11
411.031	4.14
411.39	4.13
411.748	4.08
412.107	4.07
412.465	4.05
412.824	4.06
413.182	4.07
413.54	4.1
413.899	4.09
414.257	4.06
414.615	4.07
414.974	4.06
415.332	4.04
415.69	4.02
416.048	3.99
416.406	3.97
416.764	3.95
417.122	3.94
417.48	3.88
417.838	3.88
418.195	3.86
418.553	3.85
418.911	3.85
419.269	3.87
419.626	3.84
419.984	3.82
420.342	3.82
420.699	3.79
421.057	3.77
421.414	3.74
421.772	3.73
422.129	3.71
422.486	3.7
422.844	3.68
423.201	3.67
423.558	3.66
423.915	3.66
424.273	3.65
424.63	3.66
424.987	3.68
425.344	3.66
425.701	3.67
426.058	3.66
426.415	3.65
426.772	3.63
427.128	3.61
427.485	3.63
427.842	3.61
428.199	3.62
428.555	3.6
428.912	3.61
429.269	3.61
429.625	3.59
429.982	3.58
430.338	3.6
430.695	3.62
431.051	3.62
431.407	3.62
431.764	3.62
432.12	3.6
432.476	3.59
432.832	3.59
433.189	3.59
433.545	3.58
433.901	3.57
434.257	3.58
434.613	3.6
434.969	3.58
435.325	3.58
435.681	3.58
436.036	3.58
436.392	3.57
436.748	3.56
437.104	3.57
437.459	3.57
437.815	3.57
438.171	3.56
438.526	3.56
438.882	3.57
439.237	3.57
439.593	3.58
439.948	3.56
440.304	3.56
440.659	3.54
441.014	3.55
441.369	3.55
441.725	3.55
442.08	3.54
442.435	3.54
442.79	3.54
443.145	3.54
443.5	3.53
443.855	3.52
444.21	3.51
444.565	3.51
444.92	3.5
445.275	3.49
445.629	3.5
445.984	3.5
446.339	3.47
446.693	3.47
447.048	3.46
447.403	3.47
447.757	3.46
448.112	3.46
448.466	3.45
448.82	3.44
449.175	3.44
449.529	3.43
449.883	3.42
450.238	3.4
450.592	3.4
450.946	3.38
451.3	3.37
451.654	3.38
452.008	3.38
452.362	3.36
452.716	3.37
453.07	3.34
453.424	3.35
453.778	3.34
454.132	3.31
454.486	3.3
454.839	3.3
455.193	3.29
455.547	3.3
455.9	3.29
456.254	3.29
456.607	3.3
456.961	3.3
457.314	3.31
457.668	3.32
458.021	3.33
458.375	3.34
458.728	3.34
459.081	3.35
459.434	3.35
459.787	3.36
460.141	3.36
460.494	3.37
460.847	3.37
461.2	3.38
461.553	3.39
461.906	3.4
462.259	3.4
462.611	3.43
462.964	3.44
463.317	3.43
463.67	3.43
464.022	3.44
464.375	3.44
464.728	3.47
465.08	3.45
465.433	3.44
465.785	3.45
466.138	3.46
466.49	3.46
466.843	3.46
467.195	3.47
467.547	3.49
467.899	3.5
468.252	3.52
468.604	3.53
468.956	3.54
469.308	3.56
469.66	3.57
470.012	3.57
470.364	3.59
470.716	3.64
471.068	3.67
471.42	3.65
471.772	3.69
472.123	3.68
472.475	3.71
472.827	3.73
473.178	3.75
473.53	3.75
473.882	3.77
474.233	3.79
474.585	3.78
474.936	3.78
475.288	3.78
475.639	3.77
475.99	3.75
476.342	3.76
476.693	3.75
477.044	3.74
477.395	3.74
477.746	3.72
478.097	3.71
478.448	3.69
478.8	3.7
479.15	3.68
479.501	3.68
479.852	3.68
480.203	3.67
480.554	3.66
480.905	3.66
481.255	3.66
481.606	3.65
481.957	3.64
482.307	3.64
482.658	3.65
483.009	3.63
483.359	3.63
483.709	3.64
484.06	3.63
484.41	3.64
484.761	3.63
485.111	3.64
485.461	3.64
485.811	3.64
486.162	3.64
486.512	3.65
486.862	3.64
487.212	3.63
487.562	3.62
487.912	3.62
488.262	3.62
488.612	3.62
488.961	3.62
489.311	3.63
489.661	3.63
490.011	3.63
490.36	3.63
490.71	3.64
491.06	3.64
491.409	3.65
491.759	3.65
492.108	3.66
492.458	3.66
492.807	3.65
493.157	3.67
493.506	3.67
493.855	3.67
494.204	3.7
494.554	3.72
494.903	3.73
495.252	3.75
495.601	3.76
495.95	3.78
496.299	3.81
496.648	3.83
496.997	3.85
497.346	3.87
497.695	3.92
498.043	3.96
498.392	3.98
498.741	4.03
499.09	4.06
499.438	4.1
499.787	4.13
500.135	4.2
500.484	4.26
500.832	4.31
501.181	4.39
501.529	4.45
501.878	4.54
502.226	4.61
502.574	4.7
502.923	4.78
503.271	4.87
503.619	4.99
503.967	5.05
504.315	5.14
504.663	5.25
505.011	5.38
505.359	5.48
505.707	5.61
506.055	5.72
506.403	5.86
506.751	6
507.098	6.11
507.446	6.26
507.794	6.4
508.141	6.53
508.489	6.67
508.837	6.85
509.184	6.99
509.531	7.17
509.879	7.35
510.226	7.55
510.574	7.71
510.921	7.86
511.268	8.05
511.616	8.26
511.963	8.46
512.31	8.66
512.657	8.89
513.004	9.14
513.351	9.4
513.698	9.65
514.045	9.94
514.392	10.24
514.739	10.54
515.086	10.84
515.432	11.12
515.779	11.41
516.126	11.69
516.473	11.99
516.819	12.29
517.166	12.54
517.512	12.8
517.859	13.06
518.205	13.31
518.552	13.6
518.898	13.85
519.245	14.12
519.591	14.38
519.937	14.66
520.283	14.94
520.629	15.25
520.976	15.55
521.322	15.86
521.668	16.18
522.014	16.51
522.36	16.88
522.706	17.26
523.052	17.64
523.398	18.08
523.743	18.49
524.089	18.87
524.435	19.29
524.781	19.64
525.126	20
525.472	20.33
525.817	20.61
526.163	20.89
526.509	21.15
526.854	21.41
527.199	21.63
527.545	21.84
527.89	22.03
528.235	22.26
528.581	22.46
528.926	22.68
529.271	22.91
529.616	23.13
529.961	23.35
530.306	23.58
530.651	23.78
530.996	24.03
531.341	24.28
531.686	24.52
532.031	24.78
532.376	25.03
532.721	25.34
533.065	25.62
533.41	25.9
533.755	26.18
534.099	26.45
534.444	26.74
534.788	27.04
535.133	27.33
535.477	27.61
535.822	27.94
536.166	28.24
536.51	28.56
536.855	28.88
537.199	29.22
537.543	29.56
537.887	29.91
538.231	30.23
538.576	30.57
538.92	30.92
539.264	31.24
539.608	31.53
539.951	31.77
540.295	32.04
540.639	32.27
540.983	32.53
541.327	32.77
541.671	33.01
542.014	33.23
542.358	33.45
542.701	33.67
543.045	33.87
543.389	34.1
543.732	34.32
544.075	34.52
544.419	34.77
544.762	35.02
545.105	35.26
545.449	35.54
545.792	35.83
546.135	36.08
546.478	36.37
546.821	36.67
547.165	36.96
547.508	37.27
547.851	37.59
548.194	37.86
548.536	38.16
548.879	38.43
549.222	38.72
549.565	39.01
549.908	39.26
550.25	39.54
550.593	39.81
550.936	40.05
551.278	40.32
551.621	40.57
551.963	40.83
552.306	41.1
552.648	41.26
552.991	41.52
553.333	41.69
553.675	41.92
554.017	42.13
554.36	42.27
554.702	42.43
555.044	42.59
555.386	42.76
555.728	42.95
556.07	43.09
556.412	43.31
556.754	43.54
557.096	43.71
557.438	43.88
557.78	44.12
558.121	44.35
558.463	44.57
558.805	44.75
559.147	44.87
559.488	45.04
559.83	45.26
560.171	45.39
560.513	45.55
560.854	45.67
561.196	45.84
561.537	46.07
561.878	46.2
562.22	46.4
562.561	46.51
562.902	46.62
563.243	46.8
563.584	46.94
563.925	47.07
564.266	47.21
564.607	47.37
564.948	47.44
565.289	47.53
565.63	47.7
565.971	47.77
566.312	47.91
566.653	48.01
566.993	48.09
567.334	48.14
567.675	48.29
568.015	48.44
568.356	48.48
568.696	48.53
569.037	48.69
569.377	48.81
569.718	49.02
570.058	49.13
570.398	49.27
570.739	49.37
571.079	49.47
571.419	49.61
571.759	49.7
572.099	49.8
572.439	49.91
572.779	49.94
573.119	50.08
573.459	50.15
573.799	50.28
574.139	50.41
574.479	50.52
574.819	50.58
575.158	50.64
575.498	50.8
575.838	50.95
576.177	51.03
576.517	51.09
576.856	51.11
577.196	51.22
577.535	51.3
577.875	51.43
578.214	51.51
578.553	51.6
578.893	51.68
579.232	51.79
579.571	51.87
579.91	51.95
580.25	52.04
580.589	52.16
580.928	52.21
581.267	52.31
581.606	52.37
581.945	52.49
582.283	52.58
582.622	52.63
582.961	52.73
583.3	52.78
583.639	52.92
583.977	53.03
584.316	53.14
584.654	53.22
584.993	53.17
585.332	53.21
585.67	53.31
586.008	53.4
586.347	53.41
586.685	53.52
587.024	53.64
587.362	53.73
587.7	53.85
588.038	53.91
588.376	53.91
588.715	54.05
589.053	54.1
589.391	54.14
589.729	54.24
590.067	54.27
590.404	54.38
590.742	54.41
591.08	54.44
591.418	54.56
591.756	54.62
592.093	54.72
592.431	54.81
592.769	54.9
593.106	54.97
593.444	55.04
593.781	55.11
594.119	55.15
594.456	55.22
594.793	55.19
595.131	55.26
595.468	55.34
595.805	55.41
596.143	55.47
596.48	55.57
596.817	55.63
597.154	55.7
597.491	55.72
597.828	55.65
598.165	55.71
598.502	55.73
598.839	55.82
599.176	55.86
599.512	56.02
599.849	56.05
600.186	56.11
600.523	56.22
600.859	56.3
601.196	56.34
601.532	56.32
601.869	56.36
602.205	56.39
602.542	56.43
602.878	56.45
603.215	56.47
603.551	56.54
603.887	56.57
604.223	56.59
604.56	56.62
604.896	56.7
605.232	56.72
605.568	56.73
605.904	56.76
606.24	56.87
606.576	56.85
606.912	56.85
607.248	56.83
607.583	56.87
607.919	56.83
608.255	56.87
608.591	56.93
608.926	57.02
609.262	57.09
609.597	57.21
609.933	57.28
610.268	57.36
610.604	57.33
610.939	57.37
611.275	57.38
611.61	57.45
611.945	57.55
612.281	57.67
612.616	57.77
612.951	57.77
613.286	57.78
613.621	57.75
613.956	57.87
614.291	57.99
614.626	58.04
614.961	58.12
615.296	58.16
615.631	58.17
615.966	58.23
616.3	58.22
616.635	58.16
616.97	58.18
617.304	58.17
617.639	58.28
617.973	58.33
618.308	58.36
618.642	58.42
618.977	58.47
619.311	58.37
619.646	58.37
619.98	58.38
620.314	58.46
620.648	58.49
620.983	58.54
621.317	58.48
621.651	58.58
621.985	58.55
622.319	58.63
622.653	58.7
622.987	58.66
623.321	58.68
623.655	58.63
623.988	58.68
624.322	58.78
624.656	58.76
624.99	58.74
625.323	58.83
625.657	58.9
625.99	58.93
626.324	58.95
626.657	59.05
626.991	59.17
627.324	59.12
627.658	59.22
627.991	59.21
628.324	59.3
628.657	59.29
628.991	59.31
629.324	59.32
629.657	59.38
629.99	59.38
630.323	59.44
630.656	59.54
630.989	59.44
631.322	59.34
631.655	59.38
631.987	59.4
632.32	59.4
632.653	59.38
632.986	59.31
633.318	59.36
633.651	59.16
633.984	58.93
634.316	58.97
634.649	58.92
634.981	58.94
635.313	58.93
635.646	58.86
635.978	59.03
636.31	59.07
636.643	59.06
636.975	59.14
637.307	59.04
637.639	59.06
637.971	59.27
638.303	59.33
638.635	59.28
638.967	59.25
639.299	59.29
639.631	59.24
639.963	59.38
640.295	59.45
640.626	59.55
640.958	59.77
641.29	59.69
641.621	59.71
641.953	59.61
642.285	59.72
642.616	59.82
642.948	59.7
643.279	59.75
643.61	59.79
643.942	59.85
644.273	59.93
644.604	59.87
644.936	59.81
645.267	59.82
645.598	59.9
645.929	60
646.26	59.87
646.591	59.91
646.922	59.79
647.253	59.83
647.584	59.92
647.915	59.92
648.245	60.08
648.576	60.11
648.907	60.09
649.238	59.97
649.568	60.06
649.899	60.2
650.229	60.14
650.56	60.04
650.89	60.05
651.221	60.13
651.551	60.3
651.882	60.24
652.212	60.32
652.542	60.4
652.872	60.47
653.203	60.6
653.533	60.66
653.863	60.68
654.193	60.64
654.523	60.7
654.853	60.78
655.183	60.73
655.513	60.84
655.843	61
656.172	61.11
656.502	61.09
656.832	60.99
657.162	60.95
657.491	60.93
657.821	60.84
658.15	60.76
658.48	60.77
658.809	60.81
659.139	60.84
659.468	60.85
659.798	60.81
660.127	60.87
660.456	60.89
660.785	60.98
661.115	61.04
661.444	61
661.773	61
662.102	61.05
662.431	61.03
662.76	61.02
663.089	60.99
663.418	60.94
663.747	61.08
664.076	61.18
664.404	61.2
664.733	61.32
665.062	61.41
665.39	61.37
665.719	61.48
666.048	61.41
666.376	61.34
666.705	61.32
667.033	61.2
