Data from BU26851_Reflection_00001.txt Node
Date: Mon Nov 18 16:48:04 EST 2019
User: vgr7
Spectrometer: USB2G7710
Scans to average: 3
Trigger mode: 4
Integration Time (sec): 2.000000E-2
Electric dark correction enabled: true
Boxcar width: 10
XAxis mode: Wavelengths
Number of Pixels in Spectrum: 2048
>>>>>Begin Spectral Data<<<<<
177.721	-442.5
178.105	586.49
178.488	441.77
178.871	-48.76
179.254	1066.1
179.636	-88.21
180.019	2388.14
180.402	52.78
180.785	-50.76
181.168	-151.87
181.55	-634.27
181.933	-31.55
182.316	18.59
182.698	21.37
183.081	-8.66
183.463	192.78
183.846	52.08
184.228	-1351.61
184.611	119.35
184.993	-154.24
185.376	70.55
185.758	106.51
186.14	564.44
186.522	727.01
186.904	-4574.42
187.287	1090.43
187.669	-947.34
188.051	1060.59
188.433	-1095.49
188.815	-129.52
189.197	-200.99
189.579	-213.71
189.961	-170.82
190.342	-101.18
190.724	-59.97
191.106	-129.83
191.488	-325.1
191.869	923.01
192.251	-242.56
192.633	9645.45
193.014	-1010.24
193.396	-99.07
193.777	-180.97
194.159	-133.9
194.54	92.97
194.922	-83.67
195.303	-135.11
195.684	-513.26
196.065	-163.84
196.447	-120.45
196.828	-240.72
197.209	-579.56
197.59	3513.79
197.971	854.84
198.352	-417.92
198.733	-334.13
199.114	-147.63
199.495	-167.8
199.876	-85.64
200.257	-72.22
200.638	-46.3
201.018	-21.92
201.399	-5.74
201.78	5.57
202.16	-9.74
202.541	-48.77
202.922	-37.92
203.302	-60.38
203.683	-67.75
204.063	-81.48
204.444	-80.47
204.824	-51.66
205.204	1.61
205.585	5.75
205.965	26.57
206.345	23.45
206.725	20.48
207.106	-166.27
207.486	439.9
207.866	319.51
208.246	130.75
208.626	57.64
209.006	235.48
209.386	343.24
209.766	949.06
210.145	6.92
210.525	-88.81
210.905	8.59
211.285	-11.5
211.664	51.03
212.044	33.73
212.424	15.72
212.803	-29.67
213.183	-44.31
213.562	-10.15
213.942	-9.65
214.321	-19.57
214.701	-28.78
215.08	-23.78
215.459	-3.96
215.838	-7.41
216.218	-12.11
216.597	-20.25
216.976	-25.37
217.355	-23.42
217.734	-11.69
218.113	-17.5
218.492	-7.93
218.871	-5.54
219.25	0.02
219.629	-4.37
220.008	-3.21
220.387	-0.44
220.766	11.43
221.144	18.34
221.523	-20.93
221.902	-33.6
222.28	-27.54
222.659	-23.53
223.037	-26.04
223.416	-22.97
223.794	-14.84
224.173	-18.67
224.551	-6.32
224.929	-6.64
225.308	0.75
225.686	-7.89
226.064	-11.14
226.442	-11.35
226.821	-11.52
227.199	-8.71
227.577	-9.25
227.955	-9.92
228.333	-9.48
228.711	-7.41
229.089	-0.89
229.467	0.2
229.845	-0.87
230.222	2.88
230.6	2.57
230.978	5.15
231.356	6.96
231.733	6.7
232.111	8.53
232.488	6.41
232.866	6.47
233.243	5.25
233.621	5.85
233.998	7.19
234.376	5.14
234.753	5.39
235.13	5.62
235.508	6.84
235.885	6.37
236.262	5.06
236.639	4.34
237.016	1.96
237.393	3.45
237.77	4.43
238.147	3.79
238.524	4.22
238.901	4.67
239.278	4.55
239.655	4.74
240.032	4.74
240.409	4.4
240.785	4.8
241.162	4.68
241.539	4.51
241.915	4.81
242.292	4.9
242.668	4.76
243.045	5.06
243.421	4.61
243.798	4.53
244.174	4.53
244.551	4.6
244.927	4.56
245.303	4.6
245.679	4.55
246.056	4.38
246.432	4.15
246.808	3.64
247.184	3.31
247.56	3.13
247.936	3.1
248.312	3.35
248.688	3.29
249.064	3.05
249.44	2.73
249.815	2.59
250.191	2.61
250.567	2.73
250.943	2.33
251.318	2.61
251.694	2.71
252.069	2.53
252.445	2.69
252.82	2.89
253.196	2.55
253.571	2.41
253.947	2.94
254.322	3.17
254.697	3.23
255.073	3.22
255.448	3.17
255.823	2.95
256.198	2.81
256.573	2.92
256.948	3.16
257.323	3.49
257.698	3.74
258.073	3.76
258.448	3.44
258.823	3.38
259.198	3.15
259.573	3.17
259.948	3.24
260.322	3.07
260.697	2.95
261.072	2.97
261.446	3.13
261.821	2.84
262.195	2.94
262.57	2.98
262.944	2.98
263.319	3
263.693	3.1
264.067	3.24
264.442	3.1
264.816	3.22
265.19	3.19
265.564	3.06
265.938	2.97
266.313	3.07
266.687	3.16
267.061	3.21
267.435	3.03
267.809	3.08
268.183	3.15
268.556	3.22
268.93	3.14
269.304	2.99
269.678	3.21
270.051	3.02
270.425	3.01
270.799	2.96
271.172	3.1
271.546	3.06
271.919	3.02
272.293	2.93
272.666	2.97
273.04	2.91
273.413	2.81
273.787	2.76
274.16	2.76
274.533	2.9
274.906	2.96
275.279	3.04
275.653	2.97
276.026	2.88
276.399	2.82
276.772	2.93
277.145	3.13
277.518	2.99
277.891	3.16
278.263	3.11
278.636	3.25
279.009	3.24
279.382	3.44
279.755	3.4
280.127	3.51
280.5	3.46
280.872	3.62
281.245	3.55
281.617	3.81
281.99	3.97
282.362	3.91
282.735	3.72
283.107	3.66
283.479	3.69
283.852	3.63
284.224	3.74
284.596	3.68
284.968	3.4
285.34	3.54
285.713	3.39
286.085	3.44
286.457	3.48
286.829	3.49
287.201	3.36
287.572	3.28
287.944	3.21
288.316	3.14
288.688	3.06
289.06	3.22
289.431	3.03
289.803	3.06
290.175	3.12
290.546	3.31
290.918	3.35
291.289	3.36
291.661	3.45
292.032	3.36
292.403	3.38
292.775	3.64
293.146	3.37
293.517	3.45
293.889	3.61
294.26	3.54
294.631	3.59
295.002	3.58
295.373	3.56
295.744	3.61
296.115	3.67
296.486	3.55
296.857	3.59
297.228	3.82
297.599	3.71
297.97	3.75
298.34	3.84
298.711	3.92
299.082	4.01
299.452	4.06
299.823	4.15
300.194	4.18
300.564	4.06
300.935	4.25
301.305	4.19
301.676	4.14
302.046	4.14
302.416	4.16
302.787	4.21
303.157	4.33
303.527	4.33
303.897	4.38
304.267	4.57
304.637	4.37
305.008	4.41
305.378	4.59
305.748	4.5
306.117	4.21
306.487	4.14
306.857	4.07
307.227	4.13
307.597	4.06
307.967	4.1
308.336	4.1
308.706	4.18
309.076	4.29
309.445	4.2
309.815	4.22
310.184	4.19
310.554	4.28
310.923	4.2
311.293	4.22
311.662	4.24
312.031	4.26
312.401	4.42
312.77	4.42
313.139	4.26
313.508	4.3
313.877	4.33
314.246	4.35
314.616	4.25
314.985	4.18
315.353	4.02
315.722	3.99
316.091	4.03
316.46	3.99
316.829	3.97
317.198	4.12
317.567	4.08
317.935	3.97
318.304	3.9
318.672	3.84
319.041	3.93
319.41	3.78
319.778	3.75
320.147	3.51
320.515	3.36
320.883	3.49
321.252	3.47
321.62	3.57
321.988	3.58
322.357	3.7
322.725	3.66
323.093	3.83
323.461	3.74
323.829	3.68
324.197	3.67
324.565	3.69
324.933	3.58
325.301	3.72
325.669	3.68
326.037	3.7
326.405	3.83
326.772	3.81
327.14	3.87
327.508	3.96
327.875	3.98
328.243	4.06
328.61	4.05
328.978	4.11
329.346	4.12
329.713	4.07
330.08	4.12
330.448	4.16
330.815	4.07
331.182	4.19
331.55	4.23
331.917	4.26
332.284	4.37
332.651	4.37
333.018	4.18
333.385	4.31
333.752	4.27
334.119	4.29
334.486	4.34
334.853	4.38
335.22	4.35
335.587	4.48
335.954	4.4
336.32	4.33
336.687	4.22
337.054	4.2
337.42	4.22
337.787	4.29
338.153	4.31
338.52	4.5
338.886	4.34
339.253	4.34
339.619	4.3
339.986	4.11
340.352	4.27
340.718	4.43
341.084	4.4
341.451	4.38
341.817	4.39
342.183	4.26
342.549	4.24
342.915	4.19
343.281	4.17
343.647	4.15
344.013	4.22
344.379	4.14
344.745	4.1
345.11	4.11
345.476	4.07
345.842	4
346.208	3.96
346.573	4.05
346.939	4.05
347.304	4.04
347.67	4.06
348.035	4.01
348.401	3.93
348.766	3.93
349.132	3.93
349.497	3.86
349.862	4.03
350.228	4
350.593	4.06
350.958	4
351.323	4.08
351.688	4
352.053	4.05
352.418	4.08
352.783	4.13
353.148	3.96
353.513	4.04
353.878	3.96
354.243	3.96
354.608	3.94
354.972	3.89
355.337	3.91
355.702	3.98
356.066	4.03
356.431	4.02
356.795	4.08
357.16	4.11
357.524	3.98
357.889	3.99
358.253	3.92
358.618	4
358.982	3.86
359.346	3.89
359.71	3.97
360.075	4.03
360.439	4.03
360.803	4.09
361.167	4.05
361.531	4.07
361.895	4.06
362.259	4.08
362.623	4.1
362.987	4.13
363.351	4.09
363.714	4.09
364.078	4.04
364.442	3.97
364.806	3.97
365.169	4.01
365.533	4.03
365.896	4.08
366.26	4.07
366.623	4.14
366.987	4.14
367.35	4.19
367.714	4.22
368.077	4.19
368.44	4.23
368.803	4.23
369.167	4.2
369.53	4.15
369.893	4.22
370.256	4.21
370.619	4.16
370.982	4.06
371.345	4.02
371.708	4.04
372.071	4.09
372.434	4.07
372.797	4.07
373.159	4.07
373.522	4.01
373.885	4.02
374.247	4.08
374.61	4.12
374.973	4.05
375.335	3.95
375.698	3.94
376.06	3.86
376.423	3.92
376.785	4.01
377.147	4.11
377.51	4.06
377.872	4.13
378.234	4.16
378.596	4.25
378.958	4.27
379.321	4.29
379.683	4.28
380.045	4.28
380.407	4.28
380.769	4.29
381.13	4.28
381.492	4.24
381.854	4.19
382.216	4.14
382.578	4.13
382.939	4.18
383.301	4.21
383.663	4.23
384.024	4.17
384.386	4.17
384.747	4.14
385.109	4.15
385.47	4.09
385.832	4.06
386.193	4
386.554	3.96
386.916	3.95
387.277	3.96
387.638	3.96
387.999	3.89
388.36	3.92
388.721	3.96
389.082	4.01
389.443	4.02
389.804	4.05
390.165	4.08
390.526	4.03
390.887	4.01
391.248	4.04
391.609	4.09
391.969	4.11
392.33	4.09
392.691	4.1
393.051	4.11
393.412	4.17
393.772	4.18
394.133	4.23
394.493	4.26
394.854	4.26
395.214	4.28
395.574	4.32
395.935	4.29
396.295	4.28
396.655	4.22
397.015	4.26
397.376	4.25
397.736	4.22
398.096	4.26
398.456	4.28
398.816	4.26
399.176	4.19
399.535	4.13
399.895	4.14
400.255	4.13
400.615	4.14
400.975	4.1
401.334	4.1
401.694	4.06
402.054	4.04
402.413	4.04
402.773	4.02
403.132	4.03
403.492	4.03
403.851	4.03
404.211	4.05
404.57	4
404.929	4.03
405.288	4.03
405.648	4.03
406.007	4.01
406.366	4.01
406.725	4.08
407.084	4.13
407.443	4.12
407.802	4.16
408.161	4.15
408.52	4.14
408.879	4.15
409.238	4.21
409.596	4.22
409.955	4.2
410.314	4.19
410.673	4.18
411.031	4.16
411.39	4.15
411.748	4.16
412.107	4.16
412.465	4.13
412.824	4.13
413.182	4.1
413.54	4.12
413.899	4.13
414.257	4.13
414.615	4.1
414.974	4.13
415.332	4.09
415.69	4.11
416.048	4.12
416.406	4.13
416.764	4.11
417.122	4.12
417.48	4.12
417.838	4.15
418.195	4.14
418.553	4.14
418.911	4.14
419.269	4.14
419.626	4.17
419.984	4.17
420.342	4.19
420.699	4.21
421.057	4.2
421.414	4.2
421.772	4.18
422.129	4.19
422.486	4.17
422.844	4.18
423.201	4.17
423.558	4.16
423.915	4.16
424.273	4.17
424.63	4.17
424.987	4.17
425.344	4.17
425.701	4.18
426.058	4.18
426.415	4.18
426.772	4.18
427.128	4.16
427.485	4.16
427.842	4.13
428.199	4.13
428.555	4.15
428.912	4.15
429.269	4.17
429.625	4.17
429.982	4.17
430.338	4.17
430.695	4.19
431.051	4.21
431.407	4.22
431.764	4.2
432.12	4.19
432.476	4.2
432.832	4.18
433.189	4.19
433.545	4.19
433.901	4.19
434.257	4.17
434.613	4.19
434.969	4.18
435.325	4.19
435.681	4.19
436.036	4.19
436.392	4.18
436.748	4.16
437.104	4.16
437.459	4.16
437.815	4.17
438.171	4.17
438.526	4.16
438.882	4.15
439.237	4.16
439.593	4.16
439.948	4.15
440.304	4.16
440.659	4.16
441.014	4.18
441.369	4.19
441.725	4.21
442.08	4.21
442.435	4.22
442.79	4.22
443.145	4.21
443.5	4.21
443.855	4.22
444.21	4.23
444.565	4.23
444.92	4.23
445.275	4.23
445.629	4.22
445.984	4.24
446.339	4.23
446.693	4.22
447.048	4.23
447.403	4.23
447.757	4.22
448.112	4.21
448.466	4.22
448.82	4.21
449.175	4.21
449.529	4.2
449.883	4.19
450.238	4.18
450.592	4.19
450.946	4.19
451.3	4.19
451.654	4.19
452.008	4.18
452.362	4.16
452.716	4.15
453.07	4.16
453.424	4.15
453.778	4.15
454.132	4.13
454.486	4.11
454.839	4.1
455.193	4.1
455.547	4.1
455.9	4.1
456.254	4.1
456.607	4.08
456.961	4.08
457.314	4.07
457.668	4.07
458.021	4.06
458.375	4.07
458.728	4.08
459.081	4.08
459.434	4.09
459.787	4.11
460.141	4.11
460.494	4.11
460.847	4.11
461.2	4.11
461.553	4.13
461.906	4.16
462.259	4.18
462.611	4.18
462.964	4.18
463.317	4.18
463.67	4.19
464.022	4.22
464.375	4.21
464.728	4.23
465.08	4.25
465.433	4.25
465.785	4.25
466.138	4.25
466.49	4.25
466.843	4.25
467.195	4.25
467.547	4.26
467.899	4.26
468.252	4.26
468.604	4.28
468.956	4.27
469.308	4.27
469.66	4.26
470.012	4.28
470.364	4.29
470.716	4.28
471.068	4.27
471.42	4.27
471.772	4.31
472.123	4.33
472.475	4.34
472.827	4.35
473.178	4.35
473.53	4.34
473.882	4.33
474.233	4.35
474.585	4.34
474.936	4.34
475.288	4.33
475.639	4.36
475.99	4.36
476.342	4.38
476.693	4.39
477.044	4.39
477.395	4.39
477.746	4.36
478.097	4.39
478.448	4.41
478.8	4.39
479.15	4.36
479.501	4.36
479.852	4.34
480.203	4.34
480.554	4.35
480.905	4.36
481.255	4.36
481.606	4.36
481.957	4.37
482.307	4.38
482.658	4.38
483.009	4.37
483.359	4.38
483.709	4.38
484.06	4.37
484.41	4.38
484.761	4.36
485.111	4.37
485.461	4.37
485.811	4.36
486.162	4.36
486.512	4.36
486.862	4.36
487.212	4.36
487.562	4.37
487.912	4.36
488.262	4.36
488.612	4.37
488.961	4.37
489.311	4.37
489.661	4.36
490.011	4.36
490.36	4.36
490.71	4.36
491.06	4.36
491.409	4.36
491.759	4.35
492.108	4.36
492.458	4.36
492.807	4.34
493.157	4.34
493.506	4.36
493.855	4.36
494.204	4.37
494.554	4.38
494.903	4.36
495.252	4.35
495.601	4.36
495.95	4.34
496.299	4.34
496.648	4.32
496.997	4.34
497.346	4.35
497.695	4.36
498.043	4.36
498.392	4.34
498.741	4.37
499.09	4.37
499.438	4.41
499.787	4.43
500.135	4.45
500.484	4.46
500.832	4.47
501.181	4.48
501.529	4.48
501.878	4.47
502.226	4.48
502.574	4.5
502.923	4.5
503.271	4.52
503.619	4.54
503.967	4.55
504.315	4.53
504.663	4.52
505.011	4.5
505.359	4.51
505.707	4.52
506.055	4.52
506.403	4.53
506.751	4.52
507.098	4.49
507.446	4.52
507.794	4.52
508.141	4.54
508.489	4.54
508.837	4.52
509.184	4.54
509.531	4.57
509.879	4.56
510.226	4.58
510.574	4.58
510.921	4.6
511.268	4.6
511.616	4.59
511.963	4.62
512.31	4.63
512.657	4.65
513.004	4.67
513.351	4.68
513.698	4.68
514.045	4.68
514.392	4.71
514.739	4.7
515.086	4.7
515.432	4.68
515.779	4.68
516.126	4.71
516.473	4.72
516.819	4.71
517.166	4.72
517.512	4.7
517.859	4.71
518.205	4.7
518.552	4.73
518.898	4.75
519.245	4.72
519.591	4.72
519.937	4.71
520.283	4.72
520.629	4.71
520.976	4.72
521.322	4.72
521.668	4.71
522.014	4.73
522.36	4.76
522.706	4.75
523.052	4.75
523.398	4.74
523.743	4.71
524.089	4.71
524.435	4.72
524.781	4.73
525.126	4.72
525.472	4.73
525.817	4.73
526.163	4.73
526.509	4.75
526.854	4.76
527.199	4.76
527.545	4.75
527.89	4.76
528.235	4.74
528.581	4.76
528.926	4.76
529.271	4.75
529.616	4.74
529.961	4.75
530.306	4.76
530.651	4.78
530.996	4.79
531.341	4.8
531.686	4.8
532.031	4.79
532.376	4.8
532.721	4.8
533.065	4.79
533.41	4.79
533.755	4.78
534.099	4.78
534.444	4.78
534.788	4.79
535.133	4.79
535.477	4.8
535.822	4.8
536.166	4.8
536.51	4.81
536.855	4.8
537.199	4.8
537.543	4.81
537.887	4.82
538.231	4.82
538.576	4.82
538.92	4.83
539.264	4.85
539.608	4.86
539.951	4.85
540.295	4.87
540.639	4.87
540.983	4.87
541.327	4.87
541.671	4.87
542.014	4.88
542.358	4.88
542.701	4.89
543.045	4.89
543.389	4.89
543.732	4.91
544.075	4.92
544.419	4.92
544.762	4.92
545.105	4.9
545.449	4.93
545.792	4.92
546.135	4.94
546.478	4.95
546.821	4.93
547.165	4.94
547.508	4.94
547.851	4.96
548.194	4.97
548.536	4.97
548.879	4.97
549.222	4.96
549.565	4.95
549.908	4.93
550.25	4.93
550.593	4.92
550.936	4.92
551.278	4.89
551.621	4.89
551.963	4.88
552.306	4.86
552.648	4.83
552.991	4.83
553.333	4.8
553.675	4.8
554.017	4.81
554.36	4.83
554.702	4.83
555.044	4.82
555.386	4.8
555.728	4.81
556.07	4.82
556.412	4.81
556.754	4.82
557.096	4.82
557.438	4.8
557.78	4.82
558.121	4.83
558.463	4.89
558.805	4.85
559.147	4.87
559.488	4.89
559.83	4.89
560.171	4.91
560.513	4.92
560.854	4.92
561.196	4.9
561.537	4.87
561.878	4.87
562.22	4.9
562.561	4.92
562.902	4.96
563.243	4.94
563.584	4.94
563.925	4.96
564.266	4.96
564.607	4.98
564.948	4.96
565.289	4.94
565.63	4.94
565.971	4.95
566.312	4.99
566.653	5.01
566.993	5
567.334	4.99
567.675	5.02
568.015	5.02
568.356	5.02
568.696	5.03
569.037	5.02
569.377	5
569.718	5
570.058	4.96
570.398	4.98
570.739	4.98
571.079	5
571.419	5
571.759	5.01
572.099	5.03
572.439	5.02
572.779	5
573.119	5.03
573.459	5.01
573.799	5.01
574.139	4.99
574.479	4.98
574.819	4.96
575.158	4.95
575.498	4.98
575.838	5
576.177	5.01
576.517	5.02
576.856	5.04
577.196	5.04
577.535	5.07
577.875	5.08
578.214	5.08
578.553	5.1
578.893	5.13
579.232	5.09
579.571	5.13
579.91	5.11
580.25	5.14
580.589	5.11
580.928	5.1
581.267	5.16
581.606	5.16
581.945	5.13
582.283	5.12
582.622	5.11
582.961	5.1
583.3	5.11
583.639	5.16
583.977	5.15
584.316	5.17
584.654	5.13
584.993	5.12
585.332	5.11
585.67	5.11
586.008	5.09
586.347	5.14
586.685	5.09
587.024	5.12
587.362	5.08
587.7	5.1
588.038	5.16
588.376	5.12
588.715	5.13
589.053	5.22
589.391	5.25
589.729	5.28
590.067	5.25
590.404	5.26
590.742	5.22
591.08	5.18
591.418	5.19
591.756	5.21
592.093	5.23
592.431	5.24
592.769	5.22
593.106	5.2
593.444	5.16
593.781	5.22
594.119	5.26
594.456	5.23
594.793	5.24
595.131	5.18
595.468	5.19
595.805	5.19
596.143	5.15
596.48	5.13
596.817	5.1
597.154	5.11
597.491	5.1
597.828	5.12
598.165	5.14
598.502	5.13
598.839	5.14
599.176	5.14
599.512	5.16
599.849	5.18
600.186	5.21
600.523	5.24
600.859	5.26
601.196	5.22
601.532	5.24
601.869	5.2
602.205	5.26
602.542	5.26
602.878	5.26
603.215	5.25
603.551	5.27
603.887	5.3
604.223	5.32
604.56	5.32
604.896	5.3
605.232	5.33
605.568	5.32
605.904	5.3
606.24	5.32
606.576	5.3
606.912	5.31
607.248	5.31
607.583	5.33
607.919	5.35
608.255	5.35
608.591	5.37
608.926	5.44
609.262	5.42
609.597	5.43
609.933	5.44
610.268	5.47
610.604	5.44
610.939	5.44
611.275	5.42
611.61	5.41
611.945	5.44
612.281	5.44
612.616	5.46
612.951	5.48
613.286	5.5
613.621	5.48
613.956	5.47
614.291	5.46
614.626	5.42
614.961	5.36
615.296	5.35
615.631	5.39
615.966	5.36
616.3	5.37
616.635	5.36
616.97	5.36
617.304	5.33
617.639	5.4
617.973	5.45
618.308	5.48
618.642	5.51
618.977	5.51
619.311	5.49
619.646	5.47
619.98	5.42
620.314	5.43
620.648	5.47
620.983	5.52
621.317	5.53
621.651	5.55
621.985	5.59
622.319	5.61
622.653	5.63
622.987	5.62
623.321	5.61
623.655	5.67
623.988	5.68
624.322	5.67
624.656	5.67
624.99	5.64
625.323	5.62
625.657	5.64
625.99	5.65
626.324	5.66
626.657	5.69
626.991	5.75
627.324	5.76
627.658	5.73
627.991	5.72
628.324	5.72
628.657	5.7
628.991	5.69
629.324	5.7
629.657	5.66
629.99	5.66
630.323	5.65
630.656	5.62
630.989	5.65
631.322	5.71
631.655	5.73
631.987	5.75
632.32	5.8
632.653	5.79
632.986	5.79
633.318	5.81
633.651	5.82
633.984	5.79
634.316	5.77
634.649	5.78
634.981	5.8
635.313	5.8
635.646	5.89
635.978	5.89
636.31	5.85
636.643	5.86
636.975	5.88
637.307	5.89
637.639	5.87
637.971	5.85
638.303	5.77
638.635	5.72
638.967	5.7
639.299	5.68
639.631	5.68
639.963	5.66
640.295	5.71
640.626	5.75
640.958	5.78
641.29	5.76
641.621	5.77
641.953	5.73
642.285	5.72
642.616	5.63
642.948	5.69
643.279	5.73
643.61	5.73
643.942	5.72
644.273	5.72
644.604	5.78
644.936	5.78
645.267	5.83
645.598	5.86
645.929	5.82
646.26	5.87
646.591	5.89
646.922	5.93
647.253	5.85
647.584	5.73
647.915	5.68
648.245	5.68
648.576	5.66
648.907	5.73
649.238	5.62
649.568	5.73
649.899	5.74
650.229	5.78
650.56	5.79
650.89	5.84
651.221	5.85
651.551	5.81
651.882	5.83
652.212	5.9
652.542	5.89
652.872	5.88
653.203	5.87
653.533	5.88
653.863	5.83
654.193	5.87
654.523	5.91
654.853	5.91
655.183	5.92
655.513	5.89
655.843	5.81
656.172	5.94
656.502	5.89
656.832	5.83
657.162	5.84
657.491	5.86
657.821	5.85
658.15	5.87
658.48	5.88
658.809	5.86
659.139	5.83
659.468	5.85
659.798	5.84
660.127	5.78
660.456	5.8
660.785	5.8
661.115	5.78
661.444	5.8
661.773	5.82
662.102	5.84
662.431	5.91
662.76	5.98
663.089	5.94
663.418	5.92
663.747	5.97
664.076	5.99
664.404	5.92
664.733	5.93
665.062	5.93
665.39	5.97
665.719	5.91
666.048	5.88
666.376	5.85
666.705	5.89
667.033	5.9
667.362	5.86
667.69	5.86
668.018	5.89
668.347	5.86
668.675	5.96
669.003	5.98
669.331	6.07
669.659	6.03
669.987	6.03
670.315	6.06
670.643	6.07
670.971	6.06
671.299	6.15
671.627	6.14
671.955	6.12
672.283	6.03
672.61	6.15
672.938	6.2
673.266	6.15
673.593	6.21
673.921	6.3
674.249	6.38
674.576	6.39
674.904	6.44
675.231	6.5
675.558	6.44
675.886	6.4
676.213	6.29
676.54	6.3
676.867	6.32
677.195	6.3
677.522	6.23
