Data from BU26848_Reflection_00012.txt Node
Date: Mon Nov 18 16:25:51 EST 2019
User: vgr7
Spectrometer: USB2G7710
Scans to average: 3
Trigger mode: 4
Integration Time (sec): 2.000000E-2
Electric dark correction enabled: true
Boxcar width: 10
XAxis mode: Wavelengths
Number of Pixels in Spectrum: 2048
>>>>>Begin Spectral Data<<<<<
177.721	9.83
178.105	-176.6
178.488	177.95
178.871	137.83
179.254	389.94
179.636	135.71
180.019	37.23
180.402	216.67
180.785	262.79
181.168	-144.68
181.55	-297.26
181.933	46.42
182.316	42.45
182.698	42.21
183.081	53.51
183.463	41.05
183.846	52.24
184.228	43.11
184.611	18.45
184.993	70.09
185.376	-137.35
185.758	-48.94
186.14	138.17
186.522	-119.92
186.904	265.78
187.287	292.61
187.669	-73.18
188.051	-343.61
188.433	183.48
188.815	104.71
189.197	10.29
189.579	-1.91
189.961	-8.27
190.342	-3.48
190.724	8.45
191.106	5.67
191.488	3.9
191.869	-1.76
192.251	-46.64
192.633	-57.6
193.014	-50.51
193.396	-137.11
193.777	-164.3
194.159	-180.43
194.54	-109.15
194.922	-89.56
195.303	-66.72
195.684	-76.62
196.065	-93.1
196.447	-102.57
196.828	-121.69
197.209	-181.55
197.59	-200.49
197.971	-362.25
198.352	-140.24
198.733	-356.31
199.114	-204.98
199.495	-119.28
199.876	-108.08
200.257	-84.73
200.638	-87.65
201.018	-73.47
201.399	-41.44
201.78	-20.96
202.16	-25.29
202.541	-59.33
202.922	-98.91
203.302	-96.8
203.683	-126.05
204.063	-178.69
204.444	-192.09
204.824	-148.11
205.204	-72.78
205.585	-85.21
205.965	-79.2
206.345	-120.72
206.725	-105.54
207.106	-166.06
207.486	-647.32
207.866	-228.14
208.246	-393.04
208.626	-324.21
209.006	-428.06
209.386	-889.04
209.766	-877.12
210.145	-465.22
210.525	-282.59
210.905	-136.14
211.285	-123.13
211.664	-93.71
212.044	-53.92
212.424	-54.72
212.803	-67.33
213.183	-71.07
213.562	-48.57
213.942	-32.54
214.321	-22.85
214.701	-9.65
215.08	-3.71
215.459	-0.99
215.838	13.19
216.218	3.59
216.597	10.13
216.976	16.34
217.355	15.89
217.734	21.22
218.113	29.44
218.492	33.71
218.871	19.87
219.25	14.97
219.629	7.68
220.008	0.76
220.387	-0.96
220.766	-4.03
221.144	-19.28
221.523	-22.03
221.902	-34.49
222.28	-36.32
222.659	-34.98
223.037	-35.64
223.416	-30.6
223.794	-39.51
224.173	-37.66
224.551	-36.7
224.929	-35.81
225.308	-27.25
225.686	-26.02
226.064	-26.31
226.442	-23.92
226.821	-15.7
227.199	-12.11
227.577	-11.14
227.955	-8.87
228.333	-9.07
228.711	-4.76
229.089	-0.63
229.467	-4.24
229.845	-3.12
230.222	-3.1
230.6	-2.67
230.978	-3.48
231.356	0
231.733	-0.38
232.111	-0.63
232.488	-1.15
232.866	0.45
233.243	0.33
233.621	0.04
233.998	1.88
234.376	1.14
234.753	0.53
235.13	0.91
235.508	3.42
235.885	2.98
236.262	1.04
236.639	1.29
237.016	1.04
237.393	2.27
237.77	2.67
238.147	3.5
238.524	3.99
238.901	4.18
239.278	3.08
239.655	3.63
240.032	3.94
240.409	3.99
240.785	3.66
241.162	3.7
241.539	3.79
241.915	3.73
242.292	3.46
242.668	3.95
243.045	3.89
243.421	3.81
243.798	3.88
244.174	3.92
244.551	4.11
244.927	4.34
245.303	4.62
245.679	4.8
246.056	4.73
246.432	4.6
246.808	4.52
247.184	4.33
247.56	4.28
247.936	4.24
248.312	4.25
248.688	4.4
249.064	4.21
249.44	4.29
249.815	4.12
250.191	4.25
250.567	4.09
250.943	3.82
251.318	3.8
251.694	3.68
252.069	4.01
252.445	3.73
252.82	3.31
253.196	3.25
253.571	2.83
253.947	2.74
254.322	2.69
254.697	2.62
255.073	2.88
255.448	2.81
255.823	2.88
256.198	3.24
256.573	2.99
256.948	3.02
257.323	3.11
257.698	3.02
258.073	2.94
258.448	3.03
258.823	3.14
259.198	2.9
259.573	2.84
259.948	2.72
260.322	2.86
260.697	3.01
261.072	2.81
261.446	2.84
261.821	2.79
262.195	2.95
262.57	3.05
262.944	2.89
263.319	3.05
263.693	2.91
264.067	2.76
264.442	2.8
264.816	2.76
265.19	2.68
265.564	2.59
265.938	2.63
266.313	2.61
266.687	2.55
267.061	2.65
267.435	2.58
267.809	2.69
268.183	2.39
268.556	2.28
268.93	2.4
269.304	2.48
269.678	2.63
270.051	2.18
270.425	2.16
270.799	2.22
271.172	2.06
271.546	2.12
271.919	2.02
272.293	2.05
272.666	2.08
273.04	2.14
273.413	2.3
273.787	2.27
274.16	2.24
274.533	2.19
274.906	2.1
275.279	2.18
275.653	2.13
276.026	2.27
276.399	2.31
276.772	2.54
277.145	2.46
277.518	2.41
277.891	2.8
278.263	2.66
278.636	2.66
279.009	2.81
279.382	2.89
279.755	2.93
280.127	3.1
280.5	3.31
280.872	3.34
281.245	3.35
281.617	3.42
281.99	3.41
282.362	3.57
282.735	3.49
283.107	3.57
283.479	3.61
283.852	3.56
284.224	3.44
284.596	3.27
284.968	3.36
285.34	3.42
285.713	3.34
286.085	3.34
286.457	3.53
286.829	3.4
287.201	3.45
287.572	3.4
287.944	3.3
288.316	3.23
288.688	3.14
289.06	3.19
289.431	3.21
289.803	3.23
290.175	3.27
290.546	3.46
290.918	3.44
291.289	3.41
291.661	3.45
292.032	3.63
292.403	3.72
292.775	3.74
293.146	3.68
293.517	3.73
293.889	3.81
294.26	3.78
294.631	3.82
295.002	3.76
295.373	3.83
295.744	3.8
296.115	3.8
296.486	3.74
296.857	3.74
297.228	3.83
297.599	3.88
297.97	3.86
298.34	3.85
298.711	3.83
299.082	3.83
299.452	3.85
299.823	3.88
300.194	3.9
300.564	3.92
300.935	3.92
301.305	3.89
301.676	3.88
302.046	3.89
302.416	4.04
302.787	4.04
303.157	4.11
303.527	4.11
303.897	4.03
304.267	4.31
304.637	4.21
305.008	4.11
305.378	4.19
305.748	4.12
306.117	4.13
306.487	4.18
306.857	4.28
307.227	4.39
307.597	4.42
307.967	4.46
308.336	4.45
308.706	4.51
309.076	4.66
309.445	4.68
309.815	4.66
310.184	4.61
310.554	4.68
310.923	4.6
311.293	4.7
311.662	4.82
312.031	4.72
312.401	4.75
312.77	4.9
313.139	4.9
313.508	5.06
313.877	5.13
314.246	5.27
314.616	5.27
314.985	5.23
315.353	5.15
315.722	5.13
316.091	5.17
316.46	5.13
316.829	5.04
317.198	4.99
317.567	5
317.935	4.99
318.304	4.93
318.672	5.01
319.041	5.02
319.41	5.1
319.778	5
320.147	5.07
320.515	5.01
320.883	4.9
321.252	4.93
321.62	5
321.988	4.92
322.357	4.98
322.725	5.04
323.093	5.22
323.461	5.28
323.829	5.39
324.197	5.51
324.565	5.61
324.933	5.75
325.301	5.92
325.669	5.93
326.037	6.08
326.405	6.23
326.772	6.39
327.14	6.36
327.508	6.43
327.875	6.47
328.243	6.49
328.61	6.52
328.978	6.57
329.346	6.52
329.713	6.63
330.08	6.77
330.448	6.67
330.815	6.6
331.182	6.54
331.55	6.48
331.917	6.64
332.284	6.65
332.651	6.79
333.018	6.83
333.385	6.87
333.752	6.97
334.119	6.98
334.486	6.89
334.853	6.9
335.22	7.03
335.587	7.07
335.954	7.07
336.32	7.06
336.687	7.03
337.054	7.1
337.42	7.06
337.787	6.99
338.153	7.12
338.52	7.24
338.886	7.23
339.253	7.23
339.619	7.12
339.986	7.12
340.352	7.04
340.718	6.88
341.084	6.94
341.451	6.91
341.817	7.11
342.183	7.06
342.549	7.1
342.915	7.07
343.281	7.13
343.647	7.22
344.013	7.36
344.379	7.41
344.745	7.41
345.11	7.5
345.476	7.53
345.842	7.55
346.208	7.57
346.573	7.66
346.939	7.69
347.304	7.72
347.67	7.62
348.035	7.69
348.401	7.79
348.766	7.76
349.132	7.76
349.497	7.52
349.862	7.59
350.228	7.55
350.593	7.59
350.958	7.54
351.323	7.57
351.688	7.53
352.053	7.55
352.418	7.55
352.783	7.5
353.148	7.53
353.513	7.56
353.878	7.53
354.243	7.56
354.608	7.58
354.972	7.55
355.337	7.72
355.702	7.8
356.066	7.89
356.431	7.87
356.795	7.94
357.16	8.01
357.524	8
357.889	7.93
358.253	7.91
358.618	7.94
358.982	7.81
359.346	7.72
359.71	7.68
360.075	7.7
360.439	7.69
360.803	7.72
361.167	7.66
361.531	7.58
361.895	7.58
362.259	7.51
362.623	7.47
362.987	7.41
363.351	7.34
363.714	7.27
364.078	7.33
364.442	7.2
364.806	7.15
365.169	7.12
365.533	7.15
365.896	7.17
366.26	7.09
366.623	7.09
366.987	7.12
367.35	7.06
367.714	6.99
368.077	6.88
368.44	6.76
368.803	6.72
369.167	6.67
369.53	6.59
369.893	6.61
370.256	6.64
370.619	6.58
370.982	6.5
371.345	6.35
371.708	6.22
372.071	6.17
372.434	6.08
372.797	6.08
373.159	6.05
373.522	5.95
373.885	5.93
374.247	5.87
374.61	5.89
374.973	5.82
375.335	5.78
375.698	5.79
376.06	5.72
376.423	5.7
376.785	5.7
377.147	5.7
377.51	5.69
377.872	5.64
378.234	5.6
378.596	5.58
378.958	5.61
379.321	5.58
379.683	5.6
380.045	5.54
380.407	5.5
380.769	5.46
381.13	5.38
381.492	5.37
381.854	5.4
382.216	5.32
382.578	5.29
382.939	5.24
383.301	5.22
383.663	5.15
384.024	5.15
384.386	5.12
384.747	5.1
385.109	5.04
385.47	4.96
385.832	4.9
386.193	4.92
386.554	4.85
386.916	4.86
387.277	4.81
387.638	4.81
387.999	4.8
388.36	4.77
388.721	4.77
389.082	4.77
389.443	4.7
389.804	4.71
390.165	4.68
390.526	4.67
390.887	4.64
391.248	4.66
391.609	4.61
391.969	4.6
392.33	4.53
392.691	4.5
393.051	4.51
393.412	4.53
393.772	4.46
394.133	4.49
394.493	4.43
394.854	4.39
395.214	4.39
395.574	4.35
395.935	4.34
396.295	4.34
396.655	4.28
397.015	4.25
397.376	4.17
397.736	4.17
398.096	4.17
398.456	4.14
398.816	4.14
399.176	4.1
399.535	4.07
399.895	4.05
400.255	4.02
400.615	3.99
400.975	3.96
401.334	3.94
401.694	3.86
402.054	3.89
402.413	3.9
402.773	3.86
403.132	3.82
403.492	3.81
403.851	3.77
404.211	3.8
404.57	3.79
404.929	3.81
405.288	3.78
405.648	3.75
406.007	3.76
406.366	3.73
406.725	3.75
407.084	3.75
407.443	3.74
407.802	3.77
408.161	3.75
408.52	3.74
408.879	3.76
409.238	3.77
409.596	3.72
409.955	3.69
410.314	3.7
410.673	3.72
411.031	3.73
411.39	3.73
411.748	3.73
412.107	3.72
412.465	3.69
412.824	3.68
413.182	3.68
413.54	3.67
413.899	3.66
414.257	3.66
414.615	3.61
414.974	3.65
415.332	3.6
415.69	3.61
416.048	3.56
416.406	3.53
416.764	3.51
417.122	3.54
417.48	3.53
417.838	3.53
418.195	3.5
418.553	3.47
418.911	3.46
419.269	3.44
419.626	3.42
419.984	3.41
420.342	3.41
420.699	3.4
421.057	3.37
421.414	3.37
421.772	3.35
422.129	3.35
422.486	3.32
422.844	3.33
423.201	3.31
423.558	3.32
423.915	3.33
424.273	3.33
424.63	3.3
424.987	3.29
425.344	3.26
425.701	3.27
426.058	3.25
426.415	3.25
426.772	3.22
427.128	3.22
427.485	3.22
427.842	3.22
428.199	3.21
428.555	3.22
428.912	3.21
429.269	3.21
429.625	3.23
429.982	3.21
430.338	3.19
430.695	3.21
431.051	3.19
431.407	3.17
431.764	3.14
432.12	3.13
432.476	3.16
432.832	3.16
433.189	3.15
433.545	3.14
433.901	3.13
434.257	3.15
434.613	3.17
434.969	3.18
435.325	3.18
435.681	3.18
436.036	3.21
436.392	3.2
436.748	3.18
437.104	3.15
437.459	3.15
437.815	3.17
438.171	3.16
438.526	3.18
438.882	3.2
439.237	3.21
439.593	3.22
439.948	3.21
440.304	3.23
440.659	3.24
441.014	3.25
441.369	3.24
441.725	3.24
442.08	3.22
442.435	3.2
442.79	3.19
443.145	3.18
443.5	3.15
443.855	3.15
444.21	3.16
444.565	3.19
444.92	3.2
445.275	3.18
445.629	3.17
445.984	3.17
446.339	3.15
446.693	3.14
447.048	3.13
447.403	3.12
447.757	3.09
448.112	3.07
448.466	3.07
448.82	3.09
449.175	3.1
449.529	3.1
449.883	3.1
450.238	3.09
450.592	3.08
450.946	3.06
451.3	3.07
451.654	3.05
452.008	3.03
452.362	3.02
452.716	3.02
453.07	3.04
453.424	3.03
453.778	3.04
454.132	3.03
454.486	3.04
454.839	3.03
455.193	3.02
455.547	3.03
455.9	3.04
456.254	3.02
456.607	2.99
456.961	2.99
457.314	3
457.668	3.01
458.021	3.01
458.375	3.02
458.728	3.02
459.081	3.03
459.434	3.02
459.787	3.04
460.141	3.04
460.494	3.04
460.847	3.04
461.2	3.04
461.553	3.05
461.906	3.05
462.259	3.07
462.611	3.1
462.964	3.12
463.317	3.12
463.67	3.12
464.022	3.14
464.375	3.15
464.728	3.15
465.08	3.17
465.433	3.18
465.785	3.18
466.138	3.17
466.49	3.16
466.843	3.16
467.195	3.16
467.547	3.17
467.899	3.2
468.252	3.19
468.604	3.21
468.956	3.2
469.308	3.21
469.66	3.19
470.012	3.19
470.364	3.18
470.716	3.17
471.068	3.2
471.42	3.21
471.772	3.24
472.123	3.25
472.475	3.23
472.827	3.25
473.178	3.27
473.53	3.28
473.882	3.31
474.233	3.34
474.585	3.32
474.936	3.31
475.288	3.28
475.639	3.31
475.99	3.31
476.342	3.32
476.693	3.3
477.044	3.33
477.395	3.34
477.746	3.32
478.097	3.31
478.448	3.28
478.8	3.27
479.15	3.25
479.501	3.25
479.852	3.25
480.203	3.25
480.554	3.25
480.905	3.25
481.255	3.25
481.606	3.24
481.957	3.25
482.307	3.25
482.658	3.27
483.009	3.26
483.359	3.24
483.709	3.24
484.06	3.25
484.41	3.26
484.761	3.25
485.111	3.26
485.461	3.26
485.811	3.26
486.162	3.26
486.512	3.27
486.862	3.28
487.212	3.28
487.562	3.28
487.912	3.27
488.262	3.28
488.612	3.28
488.961	3.29
489.311	3.3
489.661	3.3
490.011	3.28
490.36	3.28
490.71	3.3
491.06	3.31
491.409	3.31
491.759	3.32
492.108	3.32
492.458	3.34
492.807	3.35
493.157	3.37
493.506	3.39
493.855	3.4
494.204	3.42
494.554	3.44
494.903	3.46
495.252	3.48
495.601	3.52
495.95	3.54
496.299	3.54
496.648	3.56
496.997	3.6
497.346	3.64
497.695	3.69
498.043	3.69
498.392	3.71
498.741	3.73
499.09	3.75
499.438	3.79
499.787	3.82
500.135	3.87
500.484	3.92
500.832	3.97
501.181	4.01
501.529	4.08
501.878	4.14
502.226	4.24
502.574	4.3
502.923	4.37
503.271	4.44
503.619	4.56
503.967	4.65
504.315	4.73
504.663	4.82
505.011	4.93
505.359	5.06
505.707	5.19
506.055	5.32
506.403	5.45
506.751	5.6
507.098	5.75
507.446	5.89
507.794	6.03
508.141	6.18
508.489	6.34
508.837	6.5
509.184	6.66
509.531	6.81
509.879	7.02
510.226	7.2
510.574	7.39
510.921	7.56
511.268	7.75
511.616	7.97
511.963	8.22
512.31	8.45
512.657	8.69
513.004	8.93
513.351	9.21
513.698	9.47
514.045	9.74
514.392	10.03
514.739	10.3
515.086	10.6
515.432	10.9
515.779	11.16
516.126	11.46
516.473	11.74
516.819	12.01
517.166	12.25
517.512	12.52
517.859	12.79
518.205	13.03
518.552	13.29
518.898	13.52
519.245	13.76
519.591	14.01
519.937	14.25
520.283	14.52
520.629	14.77
520.976	15.08
521.322	15.37
521.668	15.67
522.014	16.01
522.36	16.35
522.706	16.68
523.052	17.05
523.398	17.41
523.743	17.81
524.089	18.18
524.435	18.55
524.781	18.89
525.126	19.24
525.472	19.53
525.817	19.82
526.163	20.08
526.509	20.29
526.854	20.5
527.199	20.71
527.545	20.9
527.89	21.14
528.235	21.32
528.581	21.53
528.926	21.74
529.271	21.92
529.616	22.11
529.961	22.32
530.306	22.52
530.651	22.73
530.996	22.95
531.341	23.2
531.686	23.44
532.031	23.69
532.376	23.92
532.721	24.19
533.065	24.44
533.41	24.7
533.755	25
534.099	25.28
534.444	25.56
534.788	25.83
535.133	26.04
535.477	26.33
535.822	26.58
536.166	26.86
536.51	27.2
536.855	27.54
537.199	27.86
537.543	28.21
537.887	28.49
538.231	28.81
538.576	29.11
538.92	29.4
539.264	29.69
539.608	29.96
539.951	30.21
540.295	30.46
540.639	30.72
540.983	30.93
541.327	31.12
541.671	31.33
542.014	31.55
542.358	31.79
542.701	32
543.045	32.22
543.389	32.46
543.732	32.66
544.075	32.86
544.419	33.05
544.762	33.26
545.105	33.55
545.449	33.8
545.792	34.03
546.135	34.31
546.478	34.6
546.821	34.87
547.165	35.12
547.508	35.38
547.851	35.62
548.194	35.91
548.536	36.27
548.879	36.54
549.222	36.79
549.565	37.06
549.908	37.33
550.25	37.61
550.593	37.81
550.936	38.05
551.278	38.29
551.621	38.56
551.963	38.82
552.306	39.02
552.648	39.26
552.991	39.49
553.333	39.7
553.675	39.88
554.017	40.09
554.36	40.28
554.702	40.51
555.044	40.67
555.386	40.81
555.728	40.97
556.07	41.18
556.412	41.41
556.754	41.58
557.096	41.7
557.438	41.9
557.78	42.04
558.121	42.25
558.463	42.46
558.805	42.63
559.147	42.78
559.488	42.94
559.83	43.09
560.171	43.29
560.513	43.44
560.854	43.5
561.196	43.65
561.537	43.86
561.878	43.93
562.22	44.12
562.561	44.26
562.902	44.41
563.243	44.54
563.584	44.7
563.925	44.83
564.266	44.98
564.607	45.04
564.948	45.22
565.289	45.29
565.63	45.38
565.971	45.48
566.312	45.64
566.653	45.75
566.993	45.87
567.334	45.94
567.675	46.01
568.015	46.21
568.356	46.32
568.696	46.35
569.037	46.44
569.377	46.54
569.718	46.66
570.058	46.71
570.398	46.77
570.739	46.83
571.079	46.94
571.419	46.99
571.759	47.15
572.099	47.2
572.439	47.3
572.779	47.39
573.119	47.51
573.459	47.59
573.799	47.7
574.139	47.76
574.479	47.82
574.819	47.96
575.158	48.08
575.498	48.13
575.838	48.31
576.177	48.46
576.517	48.54
576.856	48.67
577.196	48.83
577.535	48.95
577.875	49.04
578.214	49.16
578.553	49.35
578.893	49.43
579.232	49.62
579.571	49.76
579.91	49.91
580.25	50.02
580.589	50.12
580.928	50.21
581.267	50.31
581.606	50.46
581.945	50.52
582.283	50.46
582.622	50.57
582.961	50.59
583.3	50.62
583.639	50.75
583.977	50.83
584.316	50.84
584.654	50.88
584.993	50.95
585.332	51
585.67	51.1
586.008	51.13
586.347	51.11
586.685	51.11
587.024	51.11
587.362	51.16
587.7	51.19
588.038	51.23
588.376	51.35
588.715	51.38
589.053	51.45
589.391	51.56
589.729	51.64
590.067	51.69
590.404	51.77
590.742	51.83
591.08	51.85
591.418	51.9
591.756	51.95
592.093	52.11
592.431	52.16
592.769	52.19
593.106	52.28
593.444	52.34
593.781	52.47
594.119	52.55
594.456	52.6
594.793	52.66
595.131	52.66
595.468	52.74
595.805	52.77
596.143	52.83
596.48	52.85
596.817	52.92
597.154	53.03
597.491	53.15
597.828	53.13
598.165	53.2
598.502	53.34
598.839	53.44
599.176	53.42
599.512	53.47
599.849	53.52
600.186	53.53
600.523	53.67
600.859	53.69
601.196	53.77
601.532	53.8
601.869	53.79
602.205	53.91
602.542	53.88
602.878	53.93
603.215	53.96
603.551	54.03
603.887	53.97
604.223	53.98
604.56	53.94
604.896	54.03
605.232	54.02
605.568	53.96
605.904	54.04
606.24	54.03
606.576	54.12
606.912	54.13
607.248	54.19
607.583	54.17
607.919	54.25
608.255	54.22
608.591	54.31
608.926	54.43
609.262	54.5
609.597	54.58
609.933	54.65
610.268	54.68
610.604	54.74
610.939	54.88
611.275	54.88
611.61	54.88
611.945	54.87
612.281	55.05
612.616	55.21
612.951	55.13
613.286	55.26
613.621	55.31
613.956	55.37
614.291	55.44
614.626	55.53
614.961	55.5
615.296	55.58
615.631	55.53
615.966	55.47
616.3	55.52
616.635	55.55
616.97	55.58
617.304	55.66
617.639	55.69
617.973	55.57
618.308	55.64
618.642	55.71
618.977	55.83
619.311	55.81
619.646	55.86
619.98	55.99
620.314	55.9
620.648	55.83
620.983	55.85
621.317	55.89
621.651	55.87
621.985	55.97
622.319	55.96
622.653	56.01
622.987	56.1
623.321	56.1
623.655	56.09
623.988	56.15
624.322	56.21
624.656	56.23
624.99	56.42
625.323	56.37
625.657	56.44
625.99	56.42
626.324	56.37
626.657	56.38
626.991	56.4
627.324	56.41
627.658	56.48
627.991	56.48
628.324	56.44
628.657	56.49
628.991	56.45
629.324	56.52
629.657	56.58
629.99	56.56
630.323	56.59
630.656	56.56
630.989	56.56
631.322	56.66
631.655	56.73
631.987	56.68
632.32	56.74
632.653	56.75
632.986	56.7
633.318	56.74
633.651	56.77
633.984	56.74
634.316	56.87
634.649	56.96
634.981	56.99
635.313	57.04
635.646	57.07
635.978	57.12
636.31	57.25
636.643	57.25
636.975	57.33
637.307	57.4
637.639	57.42
637.971	57.29
638.303	57.18
638.635	57.14
638.967	57.23
639.299	57.28
639.631	57.21
639.963	57.22
640.295	57.26
640.626	57.31
640.958	57.43
641.29	57.48
641.621	57.48
641.953	57.59
642.285	57.49
642.616	57.48
642.948	57.55
643.279	57.48
643.61	57.4
643.942	57.5
644.273	57.43
644.604	57.55
644.936	57.73
645.267	57.78
645.598	57.77
645.929	57.62
646.26	57.59
646.591	57.74
646.922	57.82
647.253	57.86
647.584	57.76
647.915	57.73
648.245	57.71
648.576	57.74
648.907	57.63
649.238	57.74
649.568	57.8
649.899	57.84
650.229	57.8
650.56	57.99
650.89	57.9
651.221	57.96
651.551	57.88
651.882	57.78
652.212	57.72
652.542	57.74
652.872	57.83
653.203	57.84
653.533	57.79
653.863	57.9
654.193	57.81
654.523	57.91
654.853	58.02
655.183	58.03
655.513	58.02
655.843	58.17
656.172	58.16
656.502	58.18
656.832	58.11
657.162	58.14
657.491	58.18
657.821	58.17
658.15	57.99
658.48	58.09
658.809	58.11
659.139	58
659.468	57.99
659.798	57.97
660.127	58.03
660.456	57.98
660.785	57.92
661.115	58
661.444	57.94
661.773	57.73
662.102	57.77
662.431	57.73
662.76	57.76
663.089	57.91
663.418	58
663.747	58.06
664.076	57.99
664.404	57.93
664.733	57.99
665.062	58
665.39	57.97
665.719	58.03
666.048	58.25
666.376	58.26
666.705	58.22
