Data from BU26849_Reflection_00001.txt Node
Date: Mon Nov 18 16:43:03 EST 2019
User: vgr7
Spectrometer: USB2G7710
Scans to average: 3
Trigger mode: 4
Integration Time (sec): 2.000000E-2
Electric dark correction enabled: true
Boxcar width: 10
XAxis mode: Wavelengths
Number of Pixels in Spectrum: 2048
>>>>>Begin Spectral Data<<<<<
177.721	-4.53
178.105	18.01
178.488	2.85
178.871	20.68
179.254	30.01
179.636	21.83
180.019	56.98
180.402	25.81
180.785	43.78
181.168	279.61
181.55	233.05
181.933	78.46
182.316	69.35
182.698	57.01
183.081	56.93
183.463	32.54
183.846	1.35
184.228	21.68
184.611	-6.71
184.993	12.24
185.376	178.65
185.758	116.51
186.14	108.18
186.522	203.81
186.904	146.67
187.287	130.57
187.669	789.15
188.051	-2459.06
188.433	-375.13
188.815	-154.68
189.197	-175.94
189.579	-127.86
189.961	-104.79
190.342	-126.33
190.724	-107.64
191.106	-142.93
191.488	-136.18
191.869	-132.4
192.251	-168.52
192.633	-148.93
193.014	-153.34
193.396	-143.86
193.777	-149.17
194.159	-153.43
194.54	-148.08
194.922	-140.43
195.303	-121.04
195.684	-96.81
196.065	-59.97
196.447	-62.82
196.828	-64.33
197.209	-52.09
197.59	-64.03
197.971	-68.96
198.352	-41.47
198.733	-34.66
199.114	-10.21
199.495	-2.59
199.876	-7.02
200.257	5.51
200.638	9.73
201.018	-3.83
201.399	-5.63
201.78	-1.23
202.16	4.94
202.541	0.98
202.922	-14.01
203.302	-7.11
203.683	-12.84
204.063	-32.96
204.444	-28.91
204.824	-18.01
205.204	-25.19
205.585	-20.47
205.965	-13.76
206.345	-27.36
206.725	-39.7
207.106	-64.29
207.486	-88.05
207.866	-92.2
208.246	-104.02
208.626	-129.95
209.006	-120.37
209.386	-146.33
209.766	-141.93
210.145	-104.69
210.525	-104.1
210.905	-68.04
211.285	-62.83
211.664	-43.1
212.044	-42.18
212.424	-32.46
212.803	-37.12
213.183	-38.47
213.562	-47.77
213.942	-37.51
214.321	-14.47
214.701	-5.61
215.08	-1.26
215.459	10.77
215.838	17.45
216.218	2.47
216.597	19.14
216.976	32.39
217.355	24.73
217.734	23.67
218.113	10.44
218.492	7.55
218.871	-1.75
219.25	-0.16
219.629	-5.25
220.008	-3.13
220.387	-12.47
220.766	-16.94
221.144	-21.63
221.523	-23.49
221.902	-26.74
222.28	-36.91
222.659	-37.12
223.037	-39.48
223.416	-35.02
223.794	-43.08
224.173	-36.01
224.551	-44.62
224.929	-44.96
225.308	-34.79
225.686	-28.81
226.064	-21.43
226.442	-17.48
226.821	-12.69
227.199	-16.8
227.577	-15.41
227.955	-16.14
228.333	-15.72
228.711	-14.37
229.089	-7.85
229.467	-8.93
229.845	-9.07
230.222	-10.19
230.6	-9.75
230.978	-6.94
231.356	-6.09
231.733	-4.84
232.111	-2.78
232.488	-2.14
232.866	-1.62
233.243	-2.32
233.621	-2.56
233.998	-2.1
234.376	-3.05
234.753	-2.81
235.13	-1.97
235.508	-0.85
235.885	0.2
236.262	1.31
236.639	1.73
237.016	-0.24
237.393	1
237.77	2.41
238.147	3.52
238.524	3.21
238.901	3.29
239.278	3.37
239.655	3.11
240.032	3.12
240.409	3.44
240.785	3.08
241.162	3.97
241.539	3.89
241.915	3.98
242.292	3.59
242.668	3.95
243.045	4.16
243.421	3.86
243.798	3.76
244.174	3.53
244.551	3.57
244.927	3.75
245.303	3.85
245.679	3.98
246.056	4.01
246.432	4.07
246.808	4.04
247.184	3.78
247.56	3.86
247.936	4.06
248.312	4.07
248.688	4.02
249.064	3.77
249.44	3.83
249.815	3.81
250.191	4.14
250.567	3.85
250.943	3.69
251.318	3.84
251.694	3.85
252.069	3.9
252.445	3.59
252.82	3.55
253.196	3.35
253.571	2.88
253.947	2.82
254.322	3.21
254.697	3.1
255.073	3.43
255.448	3.27
255.823	3.17
256.198	3.17
256.573	3.13
256.948	3.15
257.323	3.25
257.698	3.31
258.073	3.21
258.448	3.4
258.823	3.61
259.198	3.63
259.573	3.64
259.948	3.61
260.322	3.83
260.697	3.85
261.072	3.92
261.446	4.19
261.821	4.24
262.195	4.11
262.57	4.21
262.944	3.96
263.319	3.88
263.693	3.77
264.067	3.84
264.442	4.03
264.816	4.16
265.19	3.98
265.564	3.92
265.938	4.2
266.313	4.19
266.687	4.04
267.061	3.94
267.435	4.07
267.809	4.09
268.183	3.89
268.556	3.69
268.93	3.76
269.304	3.61
269.678	3.59
270.051	3.69
270.425	3.73
270.799	3.88
271.172	4.04
271.546	3.98
271.919	3.82
272.293	3.76
272.666	3.74
273.04	3.66
273.413	3.57
273.787	3.48
274.16	3.37
274.533	3.5
274.906	3.36
275.279	3.22
275.653	3.17
276.026	3.22
276.399	3.29
276.772	3.21
277.145	3.18
277.518	3.36
277.891	3.43
278.263	3.16
278.636	3.24
279.009	3.27
279.382	3.41
279.755	3.39
280.127	3.61
280.5	3.5
280.872	3.62
281.245	3.59
281.617	3.54
281.99	3.65
282.362	3.55
282.735	3.53
283.107	3.58
283.479	3.61
283.852	3.76
284.224	3.72
284.596	3.7
284.968	3.7
285.34	3.66
285.713	3.56
286.085	3.72
286.457	3.74
286.829	3.81
287.201	3.8
287.572	3.76
287.944	3.66
288.316	3.71
288.688	3.74
289.06	3.8
289.431	3.84
289.803	3.79
290.175	3.73
290.546	3.89
290.918	4.08
291.289	4.14
291.661	4.06
292.032	4.27
292.403	4.37
292.775	4.38
293.146	4.26
293.517	4.22
293.889	4.23
294.26	4.19
294.631	4.15
295.002	4.06
295.373	4.15
295.744	4.18
296.115	4.16
296.486	4.06
296.857	4.14
297.228	4.13
297.599	4.14
297.97	4.2
298.34	4.29
298.711	4.21
299.082	4.13
299.452	4.14
299.823	4.11
300.194	4.12
300.564	4.18
300.935	4.23
301.305	4.24
301.676	4.3
302.046	4.33
302.416	4.51
302.787	4.6
303.157	4.59
303.527	4.52
303.897	4.52
304.267	4.7
304.637	4.62
305.008	4.56
305.378	4.66
305.748	4.7
306.117	4.45
306.487	4.48
306.857	4.59
307.227	4.62
307.597	4.54
307.967	4.51
308.336	4.55
308.706	4.43
309.076	4.4
309.445	4.4
309.815	4.31
310.184	4.09
310.554	4.14
310.923	4.09
311.293	4.11
311.662	4.17
312.031	4.13
312.401	4.21
312.77	4.33
313.139	4.41
313.508	4.38
313.877	4.46
314.246	4.31
314.616	4.29
314.985	4.22
315.353	4.12
315.722	4.19
316.091	4.04
316.46	4.16
316.829	4.26
317.198	4.26
317.567	4.33
317.935	4.26
318.304	4.2
318.672	4.24
319.041	4.19
319.41	4.06
319.778	4.17
320.147	4.14
320.515	3.88
320.883	3.55
321.252	3.69
321.62	3.65
321.988	3.78
322.357	3.77
322.725	3.75
323.093	3.9
323.461	3.85
323.829	3.93
324.197	3.88
324.565	3.83
324.933	3.86
325.301	3.89
325.669	4.06
326.037	4.04
326.405	4.07
326.772	4.1
327.14	4.2
327.508	4.17
327.875	4.07
328.243	4.19
328.61	4.27
328.978	4.17
329.346	4.11
329.713	4.07
330.08	4.08
330.448	4.11
330.815	4.11
331.182	4.04
331.55	4.07
331.917	4.17
332.284	4.27
332.651	4.11
333.018	4.2
333.385	4.19
333.752	4.27
334.119	4.31
334.486	4.26
334.853	4.22
335.22	4.06
335.587	4.15
335.954	4.11
336.32	4.14
336.687	4.2
337.054	4.44
337.42	4.42
337.787	4.33
338.153	4.29
338.52	4.3
338.886	4.22
339.253	4.06
339.619	3.97
339.986	3.92
340.352	4.09
340.718	3.92
341.084	3.82
341.451	3.75
341.817	3.63
342.183	3.64
342.549	3.61
342.915	3.8
343.281	3.79
343.647	3.78
344.013	3.8
344.379	3.74
344.745	3.7
345.11	3.75
345.476	3.87
345.842	3.93
346.208	3.94
346.573	3.98
346.939	4.17
347.304	4.18
347.67	4.14
348.035	4.08
348.401	4.18
348.766	4.33
349.132	4.41
349.497	4.45
349.862	4.58
350.228	4.61
350.593	4.53
350.958	4.51
351.323	4.55
351.688	4.55
352.053	4.5
352.418	4.5
352.783	4.45
353.148	4.39
353.513	4.42
353.878	4.48
354.243	4.57
354.608	4.45
354.972	4.5
355.337	4.55
355.702	4.5
356.066	4.5
356.431	4.43
356.795	4.48
357.16	4.51
357.524	4.46
357.889	4.44
358.253	4.45
358.618	4.49
358.982	4.47
359.346	4.43
359.71	4.48
360.075	4.41
360.439	4.49
360.803	4.52
361.167	4.44
361.531	4.36
361.895	4.33
362.259	4.34
362.623	4.36
362.987	4.3
363.351	4.33
363.714	4.33
364.078	4.32
364.442	4.2
364.806	4.24
365.169	4.23
365.533	4.25
365.896	4.2
366.26	4.15
366.623	4.16
366.987	4.22
367.35	4.21
367.714	4.24
368.077	4.14
368.44	4.13
368.803	4.24
369.167	4.18
369.53	4.19
369.893	4.24
370.256	4.28
370.619	4.3
370.982	4.26
371.345	4.26
371.708	4.27
372.071	4.23
372.434	4.14
372.797	4.17
373.159	4.2
373.522	4.29
373.885	4.36
374.247	4.38
374.61	4.34
374.973	4.31
375.335	4.32
375.698	4.34
376.06	4.35
376.423	4.3
376.785	4.36
377.147	4.39
377.51	4.33
377.872	4.28
378.234	4.35
378.596	4.36
378.958	4.29
379.321	4.3
379.683	4.39
380.045	4.42
380.407	4.41
380.769	4.42
381.13	4.38
381.492	4.31
381.854	4.28
382.216	4.28
382.578	4.31
382.939	4.28
383.301	4.32
383.663	4.3
384.024	4.3
384.386	4.32
384.747	4.31
385.109	4.34
385.47	4.35
385.832	4.31
386.193	4.35
386.554	4.39
386.916	4.35
387.277	4.35
387.638	4.4
387.999	4.39
388.36	4.37
388.721	4.37
389.082	4.4
389.443	4.4
389.804	4.42
390.165	4.39
390.526	4.4
390.887	4.36
391.248	4.35
391.609	4.38
391.969	4.38
392.33	4.38
392.691	4.37
393.051	4.33
393.412	4.33
393.772	4.31
394.133	4.35
394.493	4.37
394.854	4.32
395.214	4.31
395.574	4.32
395.935	4.34
396.295	4.38
396.655	4.37
397.015	4.36
397.376	4.35
397.736	4.37
398.096	4.4
398.456	4.42
398.816	4.41
399.176	4.38
399.535	4.33
399.895	4.31
400.255	4.32
400.615	4.35
400.975	4.37
401.334	4.36
401.694	4.31
402.054	4.31
402.413	4.35
402.773	4.33
403.132	4.31
403.492	4.29
403.851	4.26
404.211	4.26
404.57	4.29
404.929	4.28
405.288	4.28
405.648	4.25
406.007	4.21
406.366	4.24
406.725	4.28
407.084	4.31
407.443	4.31
407.802	4.28
408.161	4.24
408.52	4.19
408.879	4.2
409.238	4.23
409.596	4.27
409.955	4.28
410.314	4.3
410.673	4.3
411.031	4.29
411.39	4.29
411.748	4.31
412.107	4.31
412.465	4.32
412.824	4.35
413.182	4.32
413.54	4.35
413.899	4.36
414.257	4.36
414.615	4.36
414.974	4.35
415.332	4.35
415.69	4.39
416.048	4.41
416.406	4.41
416.764	4.41
417.122	4.38
417.48	4.35
417.838	4.36
418.195	4.34
418.553	4.33
418.911	4.34
419.269	4.32
419.626	4.31
419.984	4.31
420.342	4.29
420.699	4.31
421.057	4.31
421.414	4.3
421.772	4.29
422.129	4.29
422.486	4.29
422.844	4.3
423.201	4.28
423.558	4.28
423.915	4.28
424.273	4.27
424.63	4.27
424.987	4.28
425.344	4.27
425.701	4.28
426.058	4.27
426.415	4.27
426.772	4.27
427.128	4.27
427.485	4.27
427.842	4.26
428.199	4.27
428.555	4.26
428.912	4.26
429.269	4.26
429.625	4.25
429.982	4.25
430.338	4.25
430.695	4.28
431.051	4.3
431.407	4.31
431.764	4.3
432.12	4.28
432.476	4.27
432.832	4.26
433.189	4.27
433.545	4.27
433.901	4.26
434.257	4.26
434.613	4.27
434.969	4.27
435.325	4.29
435.681	4.29
436.036	4.28
436.392	4.29
436.748	4.29
437.104	4.3
437.459	4.3
437.815	4.3
438.171	4.29
438.526	4.28
438.882	4.29
439.237	4.31
439.593	4.33
439.948	4.34
440.304	4.34
440.659	4.33
441.014	4.34
441.369	4.35
441.725	4.34
442.08	4.35
442.435	4.35
442.79	4.34
443.145	4.33
443.5	4.32
443.855	4.31
444.21	4.3
444.565	4.29
444.92	4.3
445.275	4.31
445.629	4.31
445.984	4.31
446.339	4.29
446.693	4.27
447.048	4.26
447.403	4.25
447.757	4.25
448.112	4.25
448.466	4.26
448.82	4.26
449.175	4.28
449.529	4.27
449.883	4.26
450.238	4.24
450.592	4.26
450.946	4.25
451.3	4.24
451.654	4.25
452.008	4.27
452.362	4.26
452.716	4.24
453.07	4.24
453.424	4.26
453.778	4.26
454.132	4.26
454.486	4.24
454.839	4.25
455.193	4.24
455.547	4.26
455.9	4.27
456.254	4.28
456.607	4.27
456.961	4.28
457.314	4.28
457.668	4.29
458.021	4.29
458.375	4.3
458.728	4.31
459.081	4.31
459.434	4.29
459.787	4.29
460.141	4.29
460.494	4.29
460.847	4.28
461.2	4.28
461.553	4.3
461.906	4.31
462.259	4.32
462.611	4.33
462.964	4.32
463.317	4.31
463.67	4.3
464.022	4.3
464.375	4.3
464.728	4.3
465.08	4.3
465.433	4.29
465.785	4.3
466.138	4.31
466.49	4.32
466.843	4.34
467.195	4.35
467.547	4.37
467.899	4.36
468.252	4.37
468.604	4.39
468.956	4.37
469.308	4.36
469.66	4.36
470.012	4.36
470.364	4.36
470.716	4.35
471.068	4.36
471.42	4.36
471.772	4.38
472.123	4.39
472.475	4.41
472.827	4.42
473.178	4.42
473.53	4.43
473.882	4.41
474.233	4.43
474.585	4.42
474.936	4.43
475.288	4.43
475.639	4.42
475.99	4.41
476.342	4.41
476.693	4.43
477.044	4.44
477.395	4.46
477.746	4.47
478.097	4.48
478.448	4.47
478.8	4.49
479.15	4.47
479.501	4.47
479.852	4.48
480.203	4.48
480.554	4.49
480.905	4.5
481.255	4.51
481.606	4.51
481.957	4.5
482.307	4.49
482.658	4.49
483.009	4.49
483.359	4.5
483.709	4.51
484.06	4.5
484.41	4.5
484.761	4.49
485.111	4.49
485.461	4.5
485.811	4.49
486.162	4.49
486.512	4.5
486.862	4.5
487.212	4.5
487.562	4.5
487.912	4.49
488.262	4.48
488.612	4.48
488.961	4.48
489.311	4.49
489.661	4.5
490.011	4.5
490.36	4.5
490.71	4.5
491.06	4.48
491.409	4.49
491.759	4.49
492.108	4.5
492.458	4.51
492.807	4.49
493.157	4.49
493.506	4.49
493.855	4.48
494.204	4.48
494.554	4.49
494.903	4.48
495.252	4.5
495.601	4.51
495.95	4.53
496.299	4.53
496.648	4.52
496.997	4.53
497.346	4.52
497.695	4.53
498.043	4.55
498.392	4.57
498.741	4.58
499.09	4.56
499.438	4.56
499.787	4.57
500.135	4.59
500.484	4.59
500.832	4.6
501.181	4.62
501.529	4.63
501.878	4.63
502.226	4.63
502.574	4.63
502.923	4.63
503.271	4.62
503.619	4.63
503.967	4.64
504.315	4.64
504.663	4.65
505.011	4.67
505.359	4.68
505.707	4.7
506.055	4.71
506.403	4.73
506.751	4.74
507.098	4.72
507.446	4.74
507.794	4.76
508.141	4.76
508.489	4.75
508.837	4.74
509.184	4.77
509.531	4.75
509.879	4.78
510.226	4.79
510.574	4.77
510.921	4.79
511.268	4.81
511.616	4.81
511.963	4.84
512.31	4.83
512.657	4.83
513.004	4.82
513.351	4.84
513.698	4.84
514.045	4.83
514.392	4.85
514.739	4.85
515.086	4.84
515.432	4.86
515.779	4.86
516.126	4.89
516.473	4.88
516.819	4.92
517.166	4.91
517.512	4.9
517.859	4.93
518.205	4.93
518.552	4.92
518.898	4.92
519.245	4.92
519.591	4.93
519.937	4.94
520.283	4.94
520.629	4.95
520.976	4.96
521.322	4.99
521.668	4.99
522.014	5.01
522.36	5.02
522.706	5.02
523.052	5.03
523.398	5.03
523.743	5
524.089	4.99
524.435	5.01
524.781	5.01
525.126	5.01
525.472	5.02
525.817	5.03
526.163	5.04
526.509	5.05
526.854	5.06
527.199	5.06
527.545	5.05
527.89	5.04
528.235	5.04
528.581	5.03
528.926	5.02
529.271	5.03
529.616	5.02
529.961	5.01
530.306	5.01
530.651	5.02
530.996	5.04
531.341	5.05
531.686	5.04
532.031	5.04
532.376	5.04
532.721	5.03
533.065	5.03
533.41	5.03
533.755	5.02
534.099	5.01
534.444	5.03
534.788	5.05
535.133	5.05
535.477	5.06
535.822	5.07
536.166	5.07
536.51	5.06
536.855	5.07
537.199	5.07
537.543	5.07
537.887	5.06
538.231	5.05
538.576	5.05
538.92	5.07
539.264	5.08
539.608	5.08
539.951	5.09
540.295	5.08
540.639	5.09
540.983	5.09
541.327	5.08
541.671	5.09
542.014	5.09
542.358	5.09
542.701	5.09
543.045	5.08
543.389	5.09
543.732	5.1
544.075	5.11
544.419	5.11
544.762	5.11
545.105	5.14
545.449	5.17
545.792	5.15
546.135	5.15
546.478	5.16
546.821	5.15
547.165	5.16
547.508	5.16
547.851	5.18
548.194	5.17
548.536	5.2
548.879	5.21
549.222	5.21
549.565	5.2
549.908	5.21
550.25	5.21
550.593	5.23
550.936	5.2
551.278	5.2
551.621	5.22
551.963	5.24
552.306	5.19
552.648	5.17
552.991	5.18
553.333	5.2
553.675	5.2
554.017	5.21
554.36	5.22
554.702	5.21
555.044	5.19
555.386	5.2
555.728	5.18
556.07	5.18
556.412	5.17
556.754	5.19
557.096	5.19
557.438	5.18
557.78	5.18
558.121	5.22
558.463	5.22
558.805	5.21
559.147	5.21
559.488	5.22
559.83	5.22
560.171	5.22
560.513	5.24
560.854	5.26
561.196	5.28
561.537	5.25
561.878	5.22
562.22	5.23
562.561	5.22
562.902	5.24
563.243	5.2
563.584	5.26
563.925	5.23
564.266	5.24
564.607	5.27
564.948	5.28
565.289	5.28
565.63	5.29
565.971	5.28
566.312	5.29
566.653	5.3
566.993	5.3
567.334	5.28
567.675	5.24
568.015	5.26
568.356	5.21
568.696	5.26
569.037	5.29
569.377	5.27
569.718	5.28
570.058	5.24
570.398	5.25
570.739	5.21
571.079	5.22
571.419	5.22
571.759	5.22
572.099	5.2
572.439	5.19
572.779	5.19
573.119	5.23
573.459	5.23
573.799	5.25
574.139	5.25
574.479	5.27
574.819	5.28
575.158	5.25
575.498	5.27
575.838	5.24
576.177	5.24
576.517	5.29
576.856	5.29
577.196	5.32
577.535	5.31
577.875	5.34
578.214	5.35
578.553	5.35
578.893	5.3
579.232	5.3
579.571	5.31
579.91	5.3
580.25	5.26
580.589	5.28
580.928	5.29
581.267	5.29
581.606	5.29
581.945	5.28
582.283	5.29
582.622	5.31
582.961	5.32
583.3	5.33
583.639	5.3
583.977	5.29
584.316	5.28
584.654	5.3
584.993	5.27
585.332	5.29
585.67	5.3
586.008	5.33
586.347	5.35
586.685	5.35
587.024	5.38
587.362	5.38
587.7	5.39
588.038	5.38
588.376	5.4
588.715	5.39
589.053	5.43
589.391	5.43
589.729	5.44
590.067	5.44
590.404	5.44
590.742	5.46
591.08	5.47
591.418	5.48
591.756	5.47
592.093	5.48
592.431	5.47
592.769	5.49
593.106	5.5
593.444	5.51
593.781	5.48
594.119	5.49
594.456	5.48
594.793	5.46
595.131	5.46
595.468	5.46
595.805	5.46
596.143	5.46
596.48	5.47
596.817	5.44
597.154	5.45
597.491	5.47
597.828	5.46
598.165	5.47
598.502	5.48
598.839	5.47
599.176	5.45
599.512	5.46
599.849	5.44
600.186	5.44
600.523	5.43
600.859	5.46
601.196	5.45
601.532	5.47
601.869	5.46
602.205	5.49
602.542	5.53
602.878	5.58
603.215	5.58
603.551	5.58
603.887	5.59
604.223	5.62
604.56	5.65
604.896	5.63
605.232	5.64
605.568	5.6
605.904	5.63
606.24	5.7
606.576	5.73
606.912	5.76
607.248	5.78
607.583	5.82
607.919	5.83
608.255	5.83
608.591	5.84
608.926	5.86
609.262	5.84
609.597	5.79
609.933	5.77
610.268	5.77
610.604	5.78
610.939	5.78
611.275	5.71
611.61	5.68
611.945	5.74
612.281	5.71
612.616	5.77
612.951	5.76
613.286	5.69
613.621	5.65
613.956	5.62
614.291	5.58
614.626	5.55
614.961	5.54
615.296	5.54
615.631	5.55
615.966	5.52
616.3	5.53
616.635	5.56
616.97	5.52
617.304	5.52
617.639	5.55
617.973	5.53
618.308	5.55
618.642	5.56
618.977	5.54
619.311	5.52
619.646	5.53
619.98	5.55
620.314	5.64
620.648	5.63
620.983	5.65
621.317	5.63
621.651	5.69
621.985	5.71
622.319	5.71
622.653	5.71
622.987	5.75
623.321	5.74
623.655	5.73
623.988	5.79
624.322	5.76
624.656	5.77
624.99	5.85
625.323	5.9
625.657	5.91
625.99	5.92
626.324	5.93
626.657	5.92
626.991	5.91
627.324	5.85
627.658	5.88
627.991	5.92
628.324	5.96
628.657	5.94
628.991	5.94
629.324	6
629.657	6.03
629.99	6.03
630.323	6.06
630.656	6.09
630.989	6.06
631.322	6.11
631.655	6.06
631.987	6.08
632.32	6.08
632.653	6.07
632.986	6.11
633.318	6.12
633.651	6.18
633.984	6.16
634.316	6.21
634.649	6.16
634.981	6.13
635.313	6.1
635.646	6.11
635.978	6.08
636.31	6.04
636.643	5.98
636.975	6.02
637.307	5.95
637.639	5.92
637.971	5.94
638.303	5.94
638.635	5.97
638.967	5.9
639.299	5.9
639.631	5.91
639.963	5.83
640.295	5.91
640.626	5.88
640.958	5.95
641.29	5.96
641.621	6
641.953	6.01
642.285	6.07
642.616	6.07
642.948	6.12
643.279	6.13
643.61	6.21
643.942	6.2
644.273	6.23
644.604	6.21
644.936	6.21
645.267	6.23
645.598	6.18
645.929	6.26
646.26	6.22
646.591	6.25
646.922	6.18
647.253	6.11
647.584	6.06
647.915	6.06
648.245	6.01
648.576	6.02
648.907	6.03
649.238	5.97
649.568	5.95
649.899	5.97
650.229	6
650.56	5.99
650.89	5.98
651.221	5.99
651.551	6.03
651.882	5.99
652.212	5.97
652.542	5.99
652.872	5.93
653.203	5.93
653.533	5.89
653.863	6.09
654.193	6.09
654.523	6.11
654.853	6.12
655.183	6.21
655.513	6.19
655.843	6.18
656.172	6.23
656.502	6.26
656.832	6.28
657.162	6.25
657.491	6.21
657.821	6.17
658.15	6.2
658.48	6.19
658.809	6.19
659.139	6.25
659.468	6.23
659.798	6.24
660.127	6.32
660.456	6.36
660.785	6.34
661.115	6.42
661.444	6.47
661.773	6.46
662.102	6.42
662.431	6.46
662.76	6.45
663.089	6.44
663.418	6.38
663.747	6.31
664.076	6.34
664.404	6.38
664.733	6.44
665.062	6.46
665.39	6.56
665.719	6.6
666.048	6.59
666.376	6.63
666.705	6.7
667.033	6.64
667.362	6.63
667.69	6.58
668.018	6.48
668.347	6.47
668.675	6.49
669.003	6.5
669.331	6.52
669.659	6.54
669.987	6.55
670.315	6.62
670.643	6.58
670.971	6.56
671.299	6.63
671.627	6.58
671.955	6.55
672.283	6.45
672.61	6.46
672.938	6.55
673.266	6.65
673.593	6.57
673.921	6.57
674.249	6.59
674.576	6.59
674.904	6.57
675.231	6.5
675.558	6.47
675.886	6.47
676.213	6.48
676.54	6.52
676.867	6.58
