Data from BU26844_Reflection_00012.txt Node
Date: Mon Nov 18 16:36:26 EST 2019
User: vgr7
Spectrometer: USB2G7710
Scans to average: 3
Trigger mode: 4
Integration Time (sec): 2.000000E-2
Electric dark correction enabled: true
Boxcar width: 10
XAxis mode: Wavelengths
Number of Pixels in Spectrum: 2048
>>>>>Begin Spectral Data<<<<<
177.721	-514.68
178.105	6100
178.488	-215.96
178.871	-6900
179.254	112.88
179.636	-525
180.019	58.47
180.402	22.22
180.785	57.87
181.168	106.85
181.55	68.33
181.933	102.06
182.316	159.79
182.698	182.45
183.081	146.15
183.463	197.26
183.846	190.91
184.228	166.92
184.611	345.9
184.993	710.62
185.376	5463.64
185.758	-195.34
186.14	-268.42
186.522	-284.03
186.904	-523.76
187.287	738.55
187.669	-200.35
188.051	-174.13
188.433	-58.15
188.815	-16.69
189.197	-15.73
189.579	-7.69
189.961	-23.25
190.342	8.64
190.724	28.15
191.106	31.66
191.488	30.34
191.869	2.85
192.251	7.25
192.633	26.37
193.014	13.84
193.396	-2.82
193.777	-6.75
194.159	-7.47
194.54	1.17
194.922	-8.15
195.303	-8.96
195.684	-0.2
196.065	1.14
196.447	-6.8
196.828	-10.54
197.209	-0.19
197.59	-11.71
197.971	-4.89
198.352	-8.97
198.733	-19.27
199.114	-8.72
199.495	-0.93
199.876	28.19
200.257	43.63
200.638	37.79
201.018	44.4
201.399	78.07
201.78	109.63
202.16	146.76
202.541	126.6
202.922	115.54
203.302	78.81
203.683	56.91
204.063	70.51
204.444	136.14
204.824	96.63
205.204	126.09
205.585	232.53
205.965	217.81
206.345	211.11
206.725	196.3
207.106	208.91
207.486	271.55
207.866	490.73
208.246	383.02
208.626	688.79
209.006	152.87
209.386	92.59
209.766	92.29
210.145	54.88
210.525	75.88
210.905	104.94
211.285	106.45
211.664	108.4
212.044	127.62
212.424	102.82
212.803	102.65
213.183	96.09
213.562	91.48
213.942	69.06
214.321	48.61
214.701	33.33
215.08	32.6
215.459	14.59
215.838	0.87
216.218	4.97
216.597	3.45
216.976	8.72
217.355	17.65
217.734	18.15
218.113	20.29
218.492	20.81
218.871	17.63
219.25	21.92
219.629	10.93
220.008	-1.46
220.387	-7.39
220.766	-3.45
221.144	-21.56
221.523	-20.87
221.902	-27.81
222.28	-23.01
222.659	-13.5
223.037	-8.22
223.416	9.09
223.794	6.77
224.173	-0.07
224.551	8.09
224.929	13.19
225.308	15.07
225.686	6.98
226.064	5.63
226.442	4.55
226.821	4.53
227.199	6.48
227.577	7.4
227.955	12.31
228.333	11.75
228.711	10.37
229.089	13.33
229.467	11.08
229.845	11.39
230.222	10.64
230.6	8.75
230.978	9.73
231.356	9.58
231.733	10.94
232.111	12.31
232.488	13.04
232.866	12.1
233.243	12.62
233.621	13.22
233.998	13.65
234.376	11.17
234.753	11.28
235.13	9.47
235.508	9.47
235.885	8.38
236.262	7.58
236.639	6.33
237.016	4.73
237.393	5.24
237.77	4.92
238.147	5.01
238.524	5.9
238.901	5.25
239.278	5.05
239.655	5.38
240.032	4.62
240.409	4.15
240.785	3.84
241.162	3.59
241.539	4.04
241.915	4.18
242.292	4.35
242.668	4.4
243.045	4.6
243.421	4.54
243.798	4.46
244.174	4.64
244.551	4.73
244.927	5.03
245.303	5.04
245.679	5.04
246.056	5
246.432	4.94
246.808	5
247.184	4.79
247.56	4.49
247.936	4.4
248.312	4.27
248.688	4.45
249.064	4.46
249.44	4.32
249.815	4.29
250.191	4.64
250.567	4.41
250.943	4.31
251.318	4.56
251.694	4.56
252.069	4.74
252.445	4.97
252.82	4.88
253.196	4.79
253.571	4.98
253.947	5.09
254.322	5.51
254.697	5.5
255.073	5.38
255.448	5.39
255.823	5.41
256.198	5.29
256.573	4.86
256.948	4.63
257.323	4.56
257.698	4.46
258.073	4.28
258.448	4.42
258.823	4.29
259.198	3.96
259.573	3.89
259.948	3.85
260.322	3.75
260.697	3.69
261.072	3.55
261.446	3.48
261.821	3.35
262.195	3.35
262.57	3.19
262.944	3.16
263.319	3.02
263.693	2.87
264.067	2.89
264.442	2.95
264.816	2.88
265.19	2.86
265.564	2.67
265.938	2.57
266.313	2.53
266.687	2.77
267.061	2.95
267.435	2.88
267.809	2.8
268.183	2.82
268.556	2.75
268.93	3.05
269.304	3
269.678	3.15
270.051	2.86
270.425	3
270.799	3.25
271.172	3.47
271.546	3.58
271.919	3.62
272.293	3.55
272.666	3.6
273.04	3.52
273.413	3.57
273.787	3.68
274.16	3.61
274.533	3.52
274.906	3.51
275.279	3.59
275.653	3.68
276.026	3.69
276.399	3.67
276.772	3.58
277.145	3.58
277.518	3.52
277.891	3.66
278.263	3.58
278.636	3.41
279.009	3.47
279.382	3.67
279.755	3.54
280.127	3.89
280.5	3.92
280.872	4.03
281.245	4.12
281.617	4.09
281.99	4.2
282.362	4.07
282.735	3.98
283.107	3.9
283.479	3.8
283.852	3.68
284.224	3.7
284.596	3.72
284.968	3.78
285.34	3.83
285.713	3.83
286.085	3.93
286.457	4.09
286.829	4.02
287.201	3.88
287.572	3.88
287.944	3.6
288.316	3.58
288.688	3.59
289.06	3.49
289.431	3.47
289.803	3.47
290.175	3.61
290.546	3.66
290.918	3.71
291.289	3.7
291.661	3.8
292.032	3.89
292.403	3.88
292.775	3.95
293.146	3.87
293.517	3.86
293.889	3.91
294.26	3.79
294.631	3.87
295.002	3.84
295.373	3.84
295.744	4.05
296.115	4.06
296.486	4.05
296.857	4.23
297.228	4.23
297.599	4.25
297.97	4.2
298.34	4.22
298.711	4.26
299.082	4.38
299.452	4.34
299.823	4.4
300.194	4.37
300.564	4.22
300.935	4.35
301.305	4.36
301.676	4.3
302.046	4.41
302.416	4.38
302.787	4.52
303.157	4.62
303.527	4.64
303.897	4.72
304.267	4.8
304.637	4.77
305.008	4.96
305.378	5.18
305.748	5.13
306.117	5.33
306.487	5.39
306.857	5.39
307.227	5.41
307.597	5.41
307.967	5.54
308.336	5.65
308.706	5.61
309.076	5.65
309.445	5.68
309.815	5.66
310.184	5.53
310.554	5.53
310.923	5.55
311.293	5.54
311.662	5.53
312.031	5.55
312.401	5.58
312.77	5.55
313.139	5.48
313.508	5.6
313.877	5.5
314.246	5.53
314.616	5.45
314.985	5.62
315.353	5.55
315.722	5.65
316.091	5.71
316.46	5.66
316.829	5.61
317.198	5.69
317.567	5.73
317.935	5.9
318.304	5.93
318.672	6
319.041	6.17
319.41	6.39
319.778	6.46
320.147	6.43
320.515	6.44
320.883	6.38
321.252	6.49
321.62	6.58
321.988	6.71
322.357	6.93
322.725	6.96
323.093	7.13
323.461	7.07
323.829	7.33
324.197	7.64
324.565	7.81
324.933	7.9
325.301	8.02
325.669	8.03
326.037	8.12
326.405	8.09
326.772	8.16
327.14	7.99
327.508	8
327.875	8.08
328.243	8.11
328.61	8.11
328.978	8.13
329.346	8.17
329.713	8.13
330.08	8.17
330.448	8.1
330.815	8.08
331.182	8.07
331.55	7.93
331.917	7.88
332.284	7.92
332.651	7.81
333.018	7.85
333.385	7.94
333.752	7.98
334.119	8.11
334.486	7.94
334.853	8.13
335.22	8.09
335.587	8.16
335.954	8.14
336.32	8.11
336.687	8.09
337.054	8.16
337.42	8.13
337.787	8.23
338.153	8.36
338.52	8.46
338.886	8.58
339.253	8.64
339.619	8.71
339.986	8.7
340.352	8.8
340.718	8.76
341.084	8.78
341.451	8.78
341.817	8.78
342.183	8.84
342.549	8.81
342.915	8.89
343.281	8.88
343.647	8.88
344.013	8.89
344.379	8.95
344.745	8.94
345.11	9.05
345.476	8.97
345.842	8.97
346.208	9.08
346.573	9.04
346.939	9.03
347.304	8.95
347.67	8.93
348.035	8.87
348.401	8.78
348.766	8.81
349.132	8.77
349.497	8.82
349.862	8.9
350.228	8.96
350.593	8.93
350.958	8.98
351.323	9.08
351.688	9.14
352.053	9.16
352.418	9.14
352.783	9.05
353.148	9
353.513	8.95
353.878	8.82
354.243	8.87
354.608	8.94
354.972	8.99
355.337	9.01
355.702	9.04
356.066	9.13
356.431	9.09
356.795	9.09
357.16	9.02
357.524	8.83
357.889	8.79
358.253	8.72
358.618	8.62
358.982	8.52
359.346	8.44
359.71	8.35
360.075	8.37
360.439	8.36
360.803	8.37
361.167	8.3
361.531	8.24
361.895	8.22
362.259	8.17
362.623	8.08
362.987	8.07
363.351	8.08
363.714	8.02
364.078	7.94
364.442	7.88
364.806	7.79
365.169	7.86
365.533	7.81
365.896	7.85
366.26	7.86
366.623	7.86
366.987	7.87
367.35	7.97
367.714	7.89
368.077	7.83
368.44	7.8
368.803	7.84
369.167	7.78
369.53	7.66
369.893	7.58
370.256	7.53
370.619	7.43
370.982	7.3
371.345	7.21
371.708	7.19
372.071	7.13
372.434	7.2
372.797	7.14
373.159	7.09
373.522	6.98
373.885	6.95
374.247	6.87
374.61	6.8
374.973	6.71
375.335	6.71
375.698	6.74
376.06	6.67
376.423	6.57
376.785	6.53
377.147	6.49
377.51	6.42
377.872	6.46
378.234	6.37
378.596	6.37
378.958	6.31
379.321	6.3
379.683	6.25
380.045	6.15
380.407	6.11
380.769	6.04
381.13	6.03
381.492	5.98
381.854	5.97
382.216	5.92
382.578	5.83
382.939	5.72
383.301	5.62
383.663	5.55
384.024	5.56
384.386	5.6
384.747	5.56
385.109	5.55
385.47	5.47
385.832	5.48
386.193	5.46
386.554	5.47
386.916	5.4
387.277	5.41
387.638	5.41
387.999	5.34
388.36	5.33
388.721	5.28
389.082	5.25
389.443	5.18
389.804	5.14
390.165	5.11
390.526	5.09
390.887	5.09
391.248	5.08
391.609	5.04
391.969	4.97
392.33	4.97
392.691	4.91
393.051	4.87
393.412	4.87
393.772	4.81
394.133	4.77
394.493	4.75
394.854	4.69
395.214	4.62
395.574	4.62
395.935	4.56
396.295	4.53
396.655	4.49
397.015	4.48
397.376	4.49
397.736	4.44
398.096	4.44
398.456	4.4
398.816	4.36
399.176	4.29
399.535	4.24
399.895	4.18
400.255	4.17
400.615	4.14
400.975	4.12
401.334	4.07
401.694	4.05
402.054	4.03
402.413	4.01
402.773	3.99
403.132	3.95
403.492	3.94
403.851	3.91
404.211	3.87
404.57	3.85
404.929	3.81
405.288	3.8
405.648	3.76
406.007	3.75
406.366	3.77
406.725	3.78
407.084	3.78
407.443	3.79
407.802	3.79
408.161	3.74
408.52	3.71
408.879	3.75
409.238	3.76
409.596	3.75
409.955	3.75
410.314	3.77
410.673	3.77
411.031	3.78
411.39	3.79
411.748	3.82
412.107	3.82
412.465	3.83
412.824	3.83
413.182	3.81
413.54	3.79
413.899	3.75
414.257	3.72
414.615	3.7
414.974	3.67
415.332	3.66
415.69	3.68
416.048	3.66
416.406	3.67
416.764	3.64
417.122	3.64
417.48	3.6
417.838	3.58
418.195	3.55
418.553	3.53
418.911	3.51
419.269	3.49
419.626	3.46
419.984	3.44
420.342	3.43
420.699	3.43
421.057	3.42
421.414	3.41
421.772	3.4
422.129	3.4
422.486	3.4
422.844	3.4
423.201	3.37
423.558	3.36
423.915	3.33
424.273	3.33
424.63	3.31
424.987	3.33
425.344	3.31
425.701	3.31
426.058	3.31
426.415	3.3
426.772	3.29
427.128	3.29
427.485	3.3
427.842	3.28
428.199	3.31
428.555	3.31
428.912	3.33
429.269	3.33
429.625	3.32
429.982	3.3
430.338	3.27
430.695	3.28
431.051	3.28
431.407	3.3
431.764	3.29
432.12	3.3
432.476	3.28
432.832	3.26
433.189	3.27
433.545	3.26
433.901	3.26
434.257	3.28
434.613	3.29
434.969	3.3
435.325	3.29
435.681	3.28
436.036	3.27
436.392	3.27
436.748	3.28
437.104	3.26
437.459	3.28
437.815	3.29
438.171	3.28
438.526	3.29
438.882	3.27
439.237	3.28
439.593	3.28
439.948	3.27
440.304	3.28
440.659	3.29
441.014	3.3
441.369	3.3
441.725	3.27
442.08	3.27
442.435	3.26
442.79	3.27
443.145	3.26
443.5	3.25
443.855	3.23
444.21	3.21
444.565	3.22
444.92	3.25
445.275	3.24
445.629	3.24
445.984	3.23
446.339	3.22
446.693	3.19
447.048	3.19
447.403	3.18
447.757	3.19
448.112	3.18
448.466	3.16
448.82	3.16
449.175	3.17
449.529	3.17
449.883	3.18
450.238	3.17
450.592	3.18
450.946	3.19
451.3	3.2
451.654	3.19
452.008	3.18
452.362	3.15
452.716	3.16
453.07	3.15
453.424	3.17
453.778	3.19
454.132	3.21
454.486	3.18
454.839	3.18
455.193	3.17
455.547	3.15
455.9	3.17
456.254	3.16
456.607	3.17
456.961	3.17
457.314	3.16
457.668	3.16
458.021	3.15
458.375	3.14
458.728	3.15
459.081	3.16
459.434	3.16
459.787	3.15
460.141	3.16
460.494	3.16
460.847	3.16
461.2	3.16
461.553	3.15
461.906	3.19
462.259	3.2
462.611	3.22
462.964	3.23
463.317	3.24
463.67	3.25
464.022	3.27
464.375	3.26
464.728	3.27
465.08	3.27
465.433	3.3
465.785	3.32
466.138	3.33
466.49	3.35
466.843	3.35
467.195	3.37
467.547	3.38
467.899	3.4
468.252	3.4
468.604	3.41
468.956	3.42
469.308	3.42
469.66	3.45
470.012	3.47
470.364	3.47
470.716	3.47
471.068	3.5
471.42	3.49
471.772	3.51
472.123	3.52
472.475	3.53
472.827	3.54
473.178	3.56
473.53	3.55
473.882	3.54
474.233	3.55
474.585	3.54
474.936	3.52
475.288	3.53
475.639	3.55
475.99	3.56
476.342	3.55
476.693	3.55
477.044	3.53
477.395	3.52
477.746	3.51
478.097	3.5
478.448	3.49
478.8	3.49
479.15	3.46
479.501	3.45
479.852	3.44
480.203	3.44
480.554	3.42
480.905	3.42
481.255	3.42
481.606	3.41
481.957	3.4
482.307	3.41
482.658	3.39
483.009	3.37
483.359	3.37
483.709	3.37
484.06	3.38
484.41	3.39
484.761	3.39
485.111	3.39
485.461	3.39
485.811	3.38
486.162	3.38
486.512	3.38
486.862	3.39
487.212	3.38
487.562	3.37
487.912	3.38
488.262	3.38
488.612	3.39
488.961	3.4
489.311	3.39
489.661	3.4
490.011	3.41
490.36	3.42
490.71	3.42
491.06	3.43
491.409	3.42
491.759	3.42
492.108	3.42
492.458	3.43
492.807	3.42
493.157	3.44
493.506	3.46
493.855	3.48
494.204	3.49
494.554	3.5
494.903	3.52
495.252	3.54
495.601	3.58
495.95	3.6
496.299	3.62
496.648	3.66
496.997	3.69
497.346	3.73
497.695	3.76
498.043	3.78
498.392	3.81
498.741	3.86
499.09	3.89
499.438	3.95
499.787	4
500.135	4.08
500.484	4.12
500.832	4.14
501.181	4.21
501.529	4.26
501.878	4.33
502.226	4.4
502.574	4.49
502.923	4.55
503.271	4.63
503.619	4.73
503.967	4.83
504.315	4.92
504.663	5.04
505.011	5.18
505.359	5.31
505.707	5.45
506.055	5.58
506.403	5.71
506.751	5.84
507.098	6.01
507.446	6.15
507.794	6.32
508.141	6.49
508.489	6.66
508.837	6.84
509.184	7.03
509.531	7.22
509.879	7.41
510.226	7.61
510.574	7.81
510.921	8.02
511.268	8.23
511.616	8.45
511.963	8.67
512.31	8.91
512.657	9.17
513.004	9.44
513.351	9.7
513.698	9.99
514.045	10.25
514.392	10.55
514.739	10.87
515.086	11.17
515.432	11.47
515.779	11.76
516.126	12.06
516.473	12.36
516.819	12.64
517.166	12.92
517.512	13.19
517.859	13.48
518.205	13.72
518.552	13.98
518.898	14.25
519.245	14.52
519.591	14.77
519.937	15.01
520.283	15.27
520.629	15.58
520.976	15.91
521.322	16.26
521.668	16.59
522.014	16.93
522.36	17.32
522.706	17.68
523.052	18.09
523.398	18.51
523.743	18.9
524.089	19.33
524.435	19.71
524.781	20.09
525.126	20.43
525.472	20.73
525.817	21.02
526.163	21.31
526.509	21.55
526.854	21.78
527.199	22.02
527.545	22.25
527.89	22.46
528.235	22.66
528.581	22.86
528.926	23.06
529.271	23.25
529.616	23.45
529.961	23.68
530.306	23.91
530.651	24.13
530.996	24.38
531.341	24.61
531.686	24.86
532.031	25.12
532.376	25.37
532.721	25.68
533.065	25.97
533.41	26.25
533.755	26.53
534.099	26.83
534.444	27.13
534.788	27.43
535.133	27.73
535.477	28.04
535.822	28.34
536.166	28.67
536.51	29.03
536.855	29.38
537.199	29.71
537.543	30.05
537.887	30.43
538.231	30.77
538.576	31.13
538.92	31.45
539.264	31.75
539.608	32.07
539.951	32.35
540.295	32.6
540.639	32.85
540.983	33.09
541.327	33.35
541.671	33.55
542.014	33.76
542.358	33.97
542.701	34.16
543.045	34.35
543.389	34.56
543.732	34.74
544.075	34.92
544.419	35.12
544.762	35.35
545.105	35.54
545.449	35.77
545.792	35.99
546.135	36.28
546.478	36.53
546.821	36.75
547.165	37.02
547.508	37.24
547.851	37.5
548.194	37.74
548.536	37.97
548.879	38.27
549.222	38.54
549.565	38.8
549.908	39.06
550.25	39.37
550.593	39.68
550.936	39.93
551.278	40.24
551.621	40.54
551.963	40.78
552.306	41.05
552.648	41.28
552.991	41.51
553.333	41.72
553.675	41.93
554.017	42.16
554.36	42.29
554.702	42.51
555.044	42.72
555.386	42.94
555.728	43.14
556.07	43.29
556.412	43.47
556.754	43.65
557.096	43.84
557.438	44.02
557.78	44.14
558.121	44.41
558.463	44.58
558.805	44.76
559.147	44.88
559.488	45.07
559.83	45.23
560.171	45.34
560.513	45.55
560.854	45.74
561.196	45.85
561.537	46.02
561.878	46.2
562.22	46.36
562.561	46.53
562.902	46.67
563.243	46.85
563.584	46.98
563.925	47.11
564.266	47.2
564.607	47.3
564.948	47.42
565.289	47.48
565.63	47.58
565.971	47.71
566.312	47.85
566.653	47.86
566.993	47.98
567.334	48.13
567.675	48.21
568.015	48.31
568.356	48.45
568.696	48.56
569.037	48.69
569.377	48.76
569.718	48.86
570.058	48.95
570.398	49.05
570.739	49.1
571.079	49.22
571.419	49.35
571.759	49.46
572.099	49.54
572.439	49.62
572.779	49.69
573.119	49.77
573.459	49.88
573.799	50.01
574.139	50.09
574.479	50.19
574.819	50.23
575.158	50.34
575.498	50.43
575.838	50.57
576.177	50.64
576.517	50.77
576.856	50.85
577.196	50.96
577.535	51.05
577.875	51.18
578.214	51.25
578.553	51.36
578.893	51.46
579.232	51.6
579.571	51.7
579.91	51.82
580.25	51.89
580.589	51.94
580.928	52.1
581.267	52.24
581.606	52.26
581.945	52.31
582.283	52.35
582.622	52.41
582.961	52.4
583.3	52.43
583.639	52.48
583.977	52.61
584.316	52.66
584.654	52.68
584.993	52.76
585.332	52.86
585.67	52.89
586.008	52.91
586.347	52.96
586.685	52.98
587.024	52.98
587.362	53.06
587.7	53.13
588.038	53.13
588.376	53.12
588.715	53.22
589.053	53.35
589.391	53.46
589.729	53.58
590.067	53.67
590.404	53.73
590.742	53.8
591.08	53.8
591.418	53.88
591.756	53.97
592.093	54.05
592.431	54.09
592.769	54.13
593.106	54.19
593.444	54.26
593.781	54.41
594.119	54.51
594.456	54.53
594.793	54.55
595.131	54.58
595.468	54.67
595.805	54.7
596.143	54.76
596.48	54.75
596.817	54.74
597.154	54.74
597.491	54.82
597.828	54.83
598.165	54.9
598.502	54.96
598.839	55
599.176	54.99
599.512	55.06
599.849	55.16
600.186	55.23
600.523	55.24
600.859	55.28
601.196	55.38
601.532	55.41
601.869	55.48
602.205	55.6
602.542	55.59
602.878	55.6
603.215	55.6
603.551	55.67
603.887	55.77
604.223	55.75
604.56	55.82
604.896	55.96
605.232	56.03
605.568	56.05
605.904	56.12
606.24	56.18
606.576	56.13
606.912	56.16
607.248	56.25
607.583	56.44
607.919	56.49
608.255	56.49
608.591	56.55
608.926	56.62
609.262	56.71
609.597	56.87
609.933	56.96
610.268	57.03
610.604	57.06
610.939	57.04
611.275	57.15
611.61	57.17
611.945	57.12
612.281	57.05
612.616	57.1
612.951	57.18
613.286	57.27
613.621	57.41
613.956	57.34
614.291	57.29
614.626	57.21
614.961	57.22
615.296	57.29
615.631	57.31
615.966	57.28
616.3	57.26
616.635	57.24
616.97	57.28
617.304	57.36
617.639	57.35
617.973	57.39
618.308	57.38
618.642	57.45
618.977	57.43
619.311	57.47
619.646	57.5
619.98	57.41
620.314	57.41
620.648	57.46
620.983	57.63
621.317	57.63
621.651	57.59
621.985	57.61
622.319	57.6
622.653	57.68
622.987	57.74
623.321	57.61
623.655	57.5
623.988	57.51
624.322	57.45
624.656	57.51
624.99	57.56
625.323	57.65
625.657	57.65
625.99	57.74
626.324	57.74
626.657	57.71
626.991	57.75
627.324	57.81
627.658	57.83
627.991	57.74
628.324	57.77
628.657	57.83
628.991	57.85
629.324	57.93
629.657	57.98
629.99	58.05
630.323	58.05
630.656	58.15
630.989	58.23
631.322	58.25
631.655	58.27
631.987	58.36
632.32	58.5
632.653	58.5
632.986	58.45
633.318	58.46
633.651	58.51
633.984	58.65
634.316	58.6
634.649	58.62
634.981	58.75
635.313	58.86
635.646	58.88
635.978	58.97
636.31	58.88
636.643	58.94
636.975	58.93
637.307	59.02
637.639	59.04
637.971	59.05
638.303	59.16
638.635	59.21
638.967	59.19
639.299	59.11
639.631	59.18
639.963	59.22
640.295	59.28
640.626	59.33
640.958	59.28
641.29	59.4
641.621	59.32
641.953	59.34
642.285	59.3
642.616	59.31
642.948	59.26
643.279	59.34
643.61	59.24
643.942	59.33
644.273	59.39
644.604	59.33
644.936	59.3
645.267	59.27
645.598	59.26
645.929	59.38
646.26	59.3
646.591	59.17
646.922	59.17
647.253	59.24
647.584	59.21
647.915	59.24
648.245	59.2
648.576	59.35
648.907	59.37
649.238	59.44
649.568	59.44
649.899	59.49
650.229	59.48
650.56	59.51
650.89	59.51
651.221	59.57
651.551	59.67
651.882	59.63
652.212	59.71
652.542	59.7
652.872	59.58
653.203	59.44
653.533	59.7
653.863	59.69
654.193	59.68
654.523	59.74
654.853	59.74
655.183	59.83
655.513	59.81
655.843	59.83
656.172	59.79
656.502	59.77
656.832	59.84
657.162	59.91
657.491	59.83
657.821	59.83
658.15	59.9
658.48	59.97
658.809	60.01
659.139	59.92
659.468	59.88
659.798	59.9
660.127	60.03
660.456	59.93
660.785	59.98
661.115	60.03
661.444	60.08
661.773	60.02
662.102	59.97
662.431	59.95
662.76	59.9
663.089	59.9
663.418	60.05
663.747	59.95
664.076	59.9
664.404	60.1
664.733	60.08
665.062	60.01
665.39	59.95
665.719	60.08
666.048	60.19
666.376	60.31
666.705	60.3
667.033	60.28
667.362	60.32
667.69	60.32
668.018	60.21
