Data from BU26945_Reflection_00006.txt Node
Date: Tue Nov 19 10:49:28 EST 2019
User: vgr7
Spectrometer: USB2G7710
Scans to average: 3
Trigger mode: 4
Integration Time (sec): 2.000000E-2
Electric dark correction enabled: true
Boxcar width: 10
XAxis mode: Wavelengths
Number of Pixels in Spectrum: 2048
>>>>>Begin Spectral Data<<<<<
177.721	-123.03
178.105	-199.34
178.488	-354.06
178.871	-300
179.254	-48
179.636	13.04
180.019	-92.31
180.402	-100
180.785	-44.92
181.168	-64.02
181.55	-57.11
181.933	-57.23
182.316	-96.22
182.698	-73.19
183.081	-69.66
183.463	-55.71
183.846	-52.54
184.228	-80.78
184.611	-35.17
184.993	-28.31
185.376	-33.52
185.758	-31.16
186.14	-33.64
186.522	-23.1
186.904	-13.44
187.287	-7.39
187.669	-5.6
188.051	-12.58
188.433	-22.21
188.815	-17.73
189.197	-13.99
189.579	-1.73
189.961	-3.59
190.342	-0.32
190.724	-14.87
191.106	-18.58
191.488	-5.25
191.869	-9.4
192.251	-9.49
192.633	-9.63
193.014	-12.81
193.396	-29.61
193.777	-25.82
194.159	-28.54
194.54	-23.5
194.922	-88.91
195.303	-139.23
195.684	-106.97
196.065	-88.33
196.447	-53.04
196.828	-37.42
197.209	-29.46
197.59	-34.59
197.971	-26.43
198.352	-38.01
198.733	-37.9
199.114	-45.71
199.495	-73.12
199.876	-61.46
200.257	-71.03
200.638	-86.45
201.018	-88.61
201.399	-87.8
201.78	-80.53
202.16	-88.84
202.541	-104.56
202.922	-95.81
203.302	-80.48
203.683	-99.76
204.063	-91.45
204.444	-91.17
204.824	-87.47
205.204	-74.87
205.585	-96.53
205.965	-100.42
206.345	-93.89
206.725	-89.95
207.106	-65.3
207.486	-44.82
207.866	-65.49
208.246	-50.35
208.626	-56.79
209.006	-25.93
209.386	-15.34
209.766	-9.23
210.145	1.26
210.525	-15.74
210.905	-0.63
211.285	0.86
211.664	8.2
212.044	3.04
212.424	-0.29
212.803	-27.13
213.183	-58.06
213.562	-43.37
213.942	-52.77
214.321	-66.48
214.701	-60.1
215.08	-68.34
215.459	-64.27
215.838	-77
216.218	-82.17
216.597	-71.98
216.976	-93.66
217.355	-118.48
217.734	-178.15
218.113	-121.03
218.492	-126.82
218.871	-143.91
219.25	-136.38
219.629	-171.36
220.008	-162.79
220.387	-163.02
220.766	-135.07
221.144	-124.44
221.523	-145.08
221.902	-111.23
222.28	-80.12
222.659	-48.53
223.037	-49.67
223.416	-49.36
223.794	-37.44
224.173	-30.76
224.551	-27.07
224.929	-29.15
225.308	-27.49
225.686	-18.38
226.064	-24.49
226.442	-19.98
226.821	-16.01
227.199	-14.7
227.577	-12.36
227.955	-4.61
228.333	-7.19
228.711	-7.29
229.089	-5.38
229.467	-4.65
229.845	-4.63
230.222	-3.38
230.6	-6.83
230.978	-5.16
231.356	-5.12
231.733	-3.04
232.111	-4.92
232.488	-4.85
232.866	-1.5
233.243	-0.78
233.621	-0.76
233.998	1.03
234.376	1.58
234.753	2.85
235.13	1.99
235.508	1.98
235.885	1.27
236.262	3.3
236.639	3.28
237.016	1.3
237.393	2.51
237.77	0.86
238.147	0.34
238.524	1.19
238.901	1.12
239.278	1.36
239.655	0.97
240.032	1.59
240.409	2.5
240.785	2.01
241.162	2.36
241.539	2.76
241.915	2.64
242.292	3.14
242.668	3.23
243.045	3.67
243.421	4.23
243.798	3.94
244.174	4
244.551	3.99
244.927	4.14
245.303	3.96
245.679	4.39
246.056	4.43
246.432	4.13
246.808	4.25
247.184	4.51
247.56	4.36
247.936	4.29
248.312	4.15
248.688	4.06
249.064	4.04
249.44	3.77
249.815	3.85
250.191	3.69
250.567	3.47
250.943	3.51
251.318	3.15
251.694	3.21
252.069	2.86
252.445	2.83
252.82	2.98
253.196	2.97
253.571	2.86
253.947	2.86
254.322	2.93
254.697	2.85
255.073	2.74
255.448	2.88
255.823	3.07
256.198	2.79
256.573	3
256.948	3.33
257.323	3.69
257.698	3.85
258.073	3.84
258.448	4.04
258.823	3.86
259.198	3.87
259.573	3.71
259.948	3.93
260.322	3.81
260.697	3.74
261.072	3.84
261.446	3.83
261.821	3.64
262.195	3.68
262.57	3.66
262.944	3.68
263.319	3.69
263.693	3.75
264.067	3.89
264.442	3.89
264.816	3.72
265.19	3.66
265.564	3.4
265.938	3.35
266.313	3
266.687	2.9
267.061	3.14
267.435	3.38
267.809	3.27
268.183	3.36
268.556	3.29
268.93	3.2
269.304	3.13
269.678	3.29
270.051	3.28
270.425	3.46
270.799	3.41
271.172	3.52
271.546	3.58
271.919	3.76
272.293	3.63
272.666	3.59
273.04	3.33
273.413	3.28
273.787	3.14
274.16	3.21
274.533	3.41
274.906	3.45
275.279	3.27
275.653	3.46
276.026	3.6
276.399	3.75
276.772	3.86
277.145	3.88
277.518	3.96
277.891	4
278.263	3.87
278.636	3.98
279.009	3.85
279.382	3.72
279.755	3.51
280.127	3.61
280.5	3.65
280.872	3.95
281.245	3.98
281.617	4
281.99	4.18
282.362	4.07
282.735	3.8
283.107	3.96
283.479	3.85
283.852	3.81
284.224	3.74
284.596	3.6
284.968	3.54
285.34	3.57
285.713	3.65
286.085	3.57
286.457	3.61
286.829	3.64
287.201	3.71
287.572	3.84
287.944	3.94
288.316	3.98
288.688	3.92
289.06	4.06
289.431	4.29
289.803	4.29
290.175	4.29
290.546	4.42
290.918	4.31
291.289	4.21
291.661	4.19
292.032	4.23
292.403	4.33
292.775	4.53
293.146	4.37
293.517	4.3
293.889	4.38
294.26	4.24
294.631	4.3
295.002	4.43
295.373	4.29
295.744	4.1
296.115	4.18
296.486	4.16
296.857	4.18
297.228	4.02
297.599	3.92
297.97	3.99
298.34	4.02
298.711	4.1
299.082	4.18
299.452	4.06
299.823	3.94
300.194	3.92
300.564	3.76
300.935	3.83
301.305	3.9
301.676	3.92
302.046	3.95
302.416	3.96
302.787	3.72
303.157	4.02
303.527	4.24
303.897	4.12
304.267	4.22
304.637	4.16
305.008	4.02
305.378	4.17
305.748	4.1
306.117	4.11
306.487	4.05
306.857	4.03
307.227	4.26
307.597	4.29
307.967	4.25
308.336	4.3
308.706	4.48
309.076	4.6
309.445	4.64
309.815	4.57
310.184	4.58
310.554	4.6
310.923	4.39
311.293	4.45
311.662	4.33
312.031	4.3
312.401	4.41
312.77	4.58
313.139	4.47
313.508	4.61
313.877	4.63
314.246	4.67
314.616	4.83
314.985	4.67
315.353	4.8
315.722	5.07
316.091	5.06
316.46	4.93
316.829	4.78
317.198	4.73
317.567	4.78
317.935	4.7
318.304	4.83
318.672	4.86
319.041	4.53
319.41	4.59
319.778	4.6
320.147	4.51
320.515	4.46
320.883	4.43
321.252	4.37
321.62	4.39
321.988	4.34
322.357	4.11
322.725	4.17
323.093	4.12
323.461	3.76
323.829	3.79
324.197	3.81
324.565	3.87
324.933	3.74
325.301	3.63
325.669	3.53
326.037	3.43
326.405	3.47
326.772	3.6
327.14	3.65
327.508	3.57
327.875	3.47
328.243	3.38
328.61	3.54
328.978	3.62
329.346	3.58
329.713	3.69
330.08	3.83
330.448	3.85
330.815	3.93
331.182	4.07
331.55	4.05
331.917	4.03
332.284	4.07
332.651	4.24
333.018	4.38
333.385	4.5
333.752	4.46
334.119	4.4
334.486	4.42
334.853	4.39
335.22	4.47
335.587	4.48
335.954	4.53
336.32	4.4
336.687	4.29
337.054	4.29
337.42	4.27
337.787	4.24
338.153	4.23
338.52	4.27
338.886	4.27
339.253	4.1
339.619	4.23
339.986	4.06
340.352	4.1
340.718	4.09
341.084	4.15
341.451	4.24
341.817	4.31
342.183	4.27
342.549	4.28
342.915	4.34
343.281	4.5
343.647	4.59
344.013	4.73
344.379	4.73
344.745	4.72
345.11	4.71
345.476	4.63
345.842	4.61
346.208	4.49
346.573	4.57
346.939	4.73
347.304	4.69
347.67	4.71
348.035	4.67
348.401	4.68
348.766	4.62
349.132	4.65
349.497	4.55
349.862	4.66
350.228	4.81
350.593	4.73
350.958	4.7
351.323	4.75
351.688	4.63
352.053	4.63
352.418	4.62
352.783	4.73
353.148	4.87
353.513	4.82
353.878	4.78
354.243	4.71
354.608	4.79
354.972	4.75
355.337	4.84
355.702	4.91
356.066	4.92
356.431	4.96
356.795	5.01
357.16	5.01
357.524	5.03
357.889	4.86
358.253	4.87
358.618	4.8
358.982	4.72
359.346	4.75
359.71	4.76
360.075	4.84
360.439	4.78
360.803	4.76
361.167	4.83
361.531	4.88
361.895	4.9
362.259	4.9
362.623	4.91
362.987	4.91
363.351	4.82
363.714	4.81
364.078	4.85
364.442	4.76
364.806	4.81
365.169	4.72
365.533	4.77
365.896	4.76
366.26	4.73
366.623	4.72
366.987	4.74
367.35	4.73
367.714	4.69
368.077	4.65
368.44	4.65
368.803	4.6
369.167	4.6
369.53	4.65
369.893	4.58
370.256	4.6
370.619	4.54
370.982	4.51
371.345	4.47
371.708	4.45
372.071	4.45
372.434	4.39
372.797	4.46
373.159	4.44
373.522	4.45
373.885	4.52
374.247	4.53
374.61	4.48
374.973	4.5
375.335	4.51
375.698	4.45
376.06	4.4
376.423	4.39
376.785	4.44
377.147	4.4
377.51	4.36
377.872	4.32
378.234	4.35
378.596	4.39
378.958	4.45
379.321	4.43
379.683	4.44
380.045	4.47
380.407	4.48
380.769	4.49
381.13	4.54
381.492	4.47
381.854	4.5
382.216	4.6
382.578	4.54
382.939	4.52
383.301	4.5
383.663	4.51
384.024	4.49
384.386	4.46
384.747	4.43
385.109	4.45
385.47	4.5
385.832	4.49
386.193	4.49
386.554	4.44
386.916	4.45
387.277	4.4
387.638	4.4
387.999	4.35
388.36	4.4
388.721	4.34
389.082	4.41
389.443	4.43
389.804	4.37
390.165	4.4
390.526	4.4
390.887	4.48
391.248	4.48
391.609	4.51
391.969	4.49
392.33	4.51
392.691	4.53
393.051	4.51
393.412	4.5
393.772	4.53
394.133	4.53
394.493	4.49
394.854	4.57
395.214	4.56
395.574	4.57
395.935	4.54
396.295	4.54
396.655	4.5
397.015	4.48
397.376	4.48
397.736	4.46
398.096	4.45
398.456	4.41
398.816	4.43
399.176	4.41
399.535	4.44
399.895	4.43
400.255	4.43
400.615	4.43
400.975	4.42
401.334	4.41
401.694	4.44
402.054	4.44
402.413	4.42
402.773	4.44
403.132	4.42
403.492	4.41
403.851	4.4
404.211	4.42
404.57	4.41
404.929	4.4
405.288	4.43
405.648	4.47
406.007	4.46
406.366	4.45
406.725	4.42
407.084	4.4
407.443	4.44
407.802	4.43
408.161	4.43
408.52	4.45
408.879	4.47
409.238	4.45
409.596	4.47
409.955	4.45
410.314	4.46
410.673	4.48
411.031	4.5
411.39	4.5
411.748	4.48
412.107	4.46
412.465	4.45
412.824	4.46
413.182	4.43
413.54	4.44
413.899	4.43
414.257	4.45
414.615	4.48
414.974	4.47
415.332	4.49
415.69	4.47
416.048	4.46
416.406	4.43
416.764	4.45
417.122	4.44
417.48	4.45
417.838	4.41
418.195	4.4
418.553	4.39
418.911	4.38
419.269	4.38
419.626	4.39
419.984	4.4
420.342	4.38
420.699	4.37
421.057	4.38
421.414	4.38
421.772	4.38
422.129	4.37
422.486	4.37
422.844	4.35
423.201	4.35
423.558	4.35
423.915	4.36
424.273	4.36
424.63	4.37
424.987	4.36
425.344	4.37
425.701	4.38
426.058	4.39
426.415	4.4
426.772	4.39
427.128	4.39
427.485	4.39
427.842	4.39
428.199	4.4
428.555	4.39
428.912	4.4
429.269	4.39
429.625	4.38
429.982	4.37
430.338	4.39
430.695	4.38
431.051	4.39
431.407	4.35
431.764	4.34
432.12	4.36
432.476	4.39
432.832	4.4
433.189	4.42
433.545	4.41
433.901	4.41
434.257	4.41
434.613	4.43
434.969	4.42
435.325	4.43
435.681	4.42
436.036	4.43
436.392	4.41
436.748	4.42
437.104	4.42
437.459	4.41
437.815	4.41
438.171	4.42
438.526	4.43
438.882	4.44
439.237	4.45
439.593	4.44
439.948	4.44
440.304	4.41
440.659	4.39
441.014	4.38
441.369	4.39
441.725	4.4
442.08	4.4
442.435	4.41
442.79	4.4
443.145	4.42
443.5	4.42
443.855	4.41
444.21	4.41
444.565	4.4
444.92	4.4
445.275	4.38
445.629	4.36
445.984	4.35
446.339	4.33
446.693	4.32
447.048	4.29
447.403	4.27
447.757	4.28
448.112	4.28
448.466	4.28
448.82	4.26
449.175	4.25
449.529	4.25
449.883	4.21
450.238	4.19
450.592	4.17
450.946	4.16
451.3	4.16
451.654	4.15
452.008	4.16
452.362	4.15
452.716	4.16
453.07	4.18
453.424	4.2
453.778	4.22
454.132	4.22
454.486	4.23
454.839	4.26
455.193	4.25
455.547	4.24
455.9	4.24
456.254	4.26
456.607	4.27
456.961	4.26
457.314	4.28
457.668	4.3
458.021	4.28
458.375	4.3
458.728	4.29
459.081	4.29
459.434	4.29
459.787	4.3
460.141	4.31
460.494	4.3
460.847	4.3
461.2	4.3
461.553	4.32
461.906	4.33
462.259	4.33
462.611	4.33
462.964	4.35
463.317	4.36
463.67	4.37
464.022	4.36
464.375	4.36
464.728	4.35
465.08	4.36
465.433	4.39
465.785	4.38
466.138	4.39
466.49	4.42
466.843	4.45
467.195	4.47
467.547	4.47
467.899	4.48
468.252	4.48
468.604	4.46
468.956	4.46
469.308	4.45
469.66	4.45
470.012	4.46
470.364	4.46
470.716	4.45
471.068	4.45
471.42	4.46
471.772	4.49
472.123	4.51
472.475	4.51
472.827	4.52
473.178	4.52
473.53	4.56
473.882	4.56
474.233	4.53
474.585	4.52
474.936	4.52
475.288	4.52
475.639	4.53
475.99	4.54
476.342	4.56
476.693	4.57
477.044	4.61
477.395	4.59
477.746	4.59
478.097	4.6
478.448	4.59
478.8	4.58
479.15	4.55
479.501	4.55
479.852	4.54
480.203	4.54
480.554	4.54
480.905	4.52
481.255	4.52
481.606	4.53
481.957	4.54
482.307	4.54
482.658	4.55
483.009	4.54
483.359	4.53
483.709	4.53
484.06	4.53
484.41	4.52
484.761	4.52
485.111	4.53
485.461	4.52
485.811	4.53
486.162	4.53
486.512	4.54
486.862	4.54
487.212	4.54
487.562	4.53
487.912	4.53
488.262	4.52
488.612	4.53
488.961	4.53
489.311	4.53
489.661	4.53
490.011	4.51
490.36	4.52
490.71	4.53
491.06	4.51
491.409	4.5
491.759	4.51
492.108	4.51
492.458	4.51
492.807	4.52
493.157	4.52
493.506	4.52
493.855	4.51
494.204	4.52
494.554	4.53
494.903	4.55
495.252	4.57
495.601	4.58
495.95	4.6
496.299	4.59
496.648	4.61
496.997	4.62
497.346	4.64
497.695	4.65
498.043	4.68
498.392	4.7
498.741	4.75
499.09	4.76
499.438	4.76
499.787	4.78
500.135	4.78
500.484	4.81
500.832	4.83
501.181	4.86
501.529	4.88
501.878	4.91
502.226	4.93
502.574	4.94
502.923	4.95
503.271	4.95
503.619	4.98
503.967	4.96
504.315	4.95
504.663	4.96
505.011	4.98
505.359	4.93
505.707	4.95
506.055	4.94
506.403	4.95
506.751	4.96
507.098	4.97
507.446	4.99
507.794	4.99
508.141	5
508.489	5.01
508.837	5.01
509.184	5.02
509.531	5.03
509.879	5.02
510.226	5.02
510.574	5.02
510.921	5.01
511.268	5.02
511.616	5.03
511.963	5.06
512.31	5.05
512.657	5.09
513.004	5.09
513.351	5.09
513.698	5.08
514.045	5.09
514.392	5.1
514.739	5.1
515.086	5.13
515.432	5.12
515.779	5.11
516.126	5.12
516.473	5.11
516.819	5.11
517.166	5.11
517.512	5.12
517.859	5.14
518.205	5.13
518.552	5.15
518.898	5.15
519.245	5.14
519.591	5.15
519.937	5.14
520.283	5.16
520.629	5.17
520.976	5.19
521.322	5.21
521.668	5.21
522.014	5.2
522.36	5.18
522.706	5.21
523.052	5.24
523.398	5.24
523.743	5.26
524.089	5.27
524.435	5.28
524.781	5.3
525.126	5.32
525.472	5.35
525.817	5.35
526.163	5.36
526.509	5.36
526.854	5.35
527.199	5.36
527.545	5.36
527.89	5.37
528.235	5.38
528.581	5.38
528.926	5.38
529.271	5.39
529.616	5.41
529.961	5.42
530.306	5.41
530.651	5.41
530.996	5.43
531.341	5.44
531.686	5.46
532.031	5.46
532.376	5.47
532.721	5.47
533.065	5.47
533.41	5.46
533.755	5.45
534.099	5.47
534.444	5.47
534.788	5.47
535.133	5.46
535.477	5.47
535.822	5.47
536.166	5.47
536.51	5.46
536.855	5.45
537.199	5.44
537.543	5.43
537.887	5.44
538.231	5.43
538.576	5.4
538.92	5.4
539.264	5.4
539.608	5.39
539.951	5.39
540.295	5.39
540.639	5.41
540.983	5.42
541.327	5.41
541.671	5.42
542.014	5.44
542.358	5.44
542.701	5.42
543.045	5.43
543.389	5.45
543.732	5.44
544.075	5.45
544.419	5.45
544.762	5.47
545.105	5.48
545.449	5.48
545.792	5.5
546.135	5.5
546.478	5.5
546.821	5.51
547.165	5.5
547.508	5.5
547.851	5.48
548.194	5.51
548.536	5.53
548.879	5.54
549.222	5.53
549.565	5.54
549.908	5.53
550.25	5.5
550.593	5.5
550.936	5.49
551.278	5.49
551.621	5.5
551.963	5.51
552.306	5.46
552.648	5.45
552.991	5.46
553.333	5.46
553.675	5.45
554.017	5.46
554.36	5.48
554.702	5.48
555.044	5.5
555.386	5.48
555.728	5.46
556.07	5.45
556.412	5.45
556.754	5.45
557.096	5.49
557.438	5.5
557.78	5.51
558.121	5.54
558.463	5.56
558.805	5.57
559.147	5.58
559.488	5.66
559.83	5.65
560.171	5.64
560.513	5.66
560.854	5.64
561.196	5.62
561.537	5.63
561.878	5.65
562.22	5.65
562.561	5.65
562.902	5.66
563.243	5.68
563.584	5.68
563.925	5.7
564.266	5.69
564.607	5.72
564.948	5.69
565.289	5.72
565.63	5.72
565.971	5.7
566.312	5.71
566.653	5.67
566.993	5.68
567.334	5.7
567.675	5.69
568.015	5.68
568.356	5.68
568.696	5.69
569.037	5.65
569.377	5.67
569.718	5.65
570.058	5.66
570.398	5.63
570.739	5.61
571.079	5.61
571.419	5.6
571.759	5.58
572.099	5.6
572.439	5.56
572.779	5.56
573.119	5.56
573.459	5.54
573.799	5.55
574.139	5.54
574.479	5.54
574.819	5.56
575.158	5.59
575.498	5.6
575.838	5.6
576.177	5.63
576.517	5.58
576.856	5.6
577.196	5.59
577.535	5.6
577.875	5.56
578.214	5.54
578.553	5.54
578.893	5.56
579.232	5.53
579.571	5.57
579.91	5.56
580.25	5.57
580.589	5.54
580.928	5.52
581.267	5.56
581.606	5.49
581.945	5.46
582.283	5.43
582.622	5.44
582.961	5.44
583.3	5.43
583.639	5.49
583.977	5.45
584.316	5.5
584.654	5.53
584.993	5.57
585.332	5.61
585.67	5.6
586.008	5.58
586.347	5.58
586.685	5.58
587.024	5.63
587.362	5.61
587.7	5.67
588.038	5.71
588.376	5.67
588.715	5.72
589.053	5.7
589.391	5.75
589.729	5.74
590.067	5.75
590.404	5.75
590.742	5.73
591.08	5.74
591.418	5.74
591.756	5.75
592.093	5.71
592.431	5.7
592.769	5.74
593.106	5.75
593.444	5.8
593.781	5.8
594.119	5.75
594.456	5.74
594.793	5.71
595.131	5.65
595.468	5.69
595.805	5.69
596.143	5.7
596.48	5.69
596.817	5.73
597.154	5.7
597.491	5.71
597.828	5.71
598.165	5.72
598.502	5.64
598.839	5.62
599.176	5.67
599.512	5.7
599.849	5.67
600.186	5.65
600.523	5.68
600.859	5.67
601.196	5.66
601.532	5.66
601.869	5.69
602.205	5.74
602.542	5.73
602.878	5.75
603.215	5.76
603.551	5.79
603.887	5.74
604.223	5.73
604.56	5.77
604.896	5.78
605.232	5.78
605.568	5.81
605.904	5.8
606.24	5.78
606.576	5.78
606.912	5.78
607.248	5.8
607.583	5.77
607.919	5.75
608.255	5.77
608.591	5.79
608.926	5.77
609.262	5.78
609.597	5.76
609.933	5.78
610.268	5.77
610.604	5.72
610.939	5.78
611.275	5.77
611.61	5.77
611.945	5.75
612.281	5.79
612.616	5.85
612.951	5.85
613.286	5.89
613.621	5.89
613.956	5.9
614.291	5.86
614.626	5.86
614.961	5.85
615.296	5.86
615.631	5.88
615.966	5.86
616.3	5.84
616.635	5.85
616.97	5.8
617.304	5.78
617.639	5.81
617.973	5.76
618.308	5.81
618.642	5.72
618.977	5.71
619.311	5.73
619.646	5.66
619.98	5.76
620.314	5.74
620.648	5.72
620.983	5.72
621.317	5.79
621.651	5.83
621.985	5.85
622.319	5.8
622.653	5.82
622.987	5.8
623.321	5.81
623.655	5.81
623.988	5.89
624.322	5.94
624.656	5.92
624.99	5.92
625.323	5.87
625.657	5.91
625.99	5.93
626.324	5.89
626.657	5.88
626.991	5.83
627.324	5.83
627.658	5.85
627.991	5.86
628.324	5.82
628.657	5.81
628.991	5.84
629.324	5.89
629.657	5.87
629.99	5.9
630.323	5.9
630.656	5.92
630.989	5.89
631.322	5.87
631.655	5.9
631.987	5.88
632.32	5.9
632.653	5.89
632.986	5.9
633.318	5.95
633.651	5.99
633.984	5.98
634.316	6.01
634.649	6.02
634.981	6.07
635.313	6.1
635.646	6.05
635.978	6.06
636.31	6.06
636.643	6.01
636.975	6.04
637.307	6
637.639	5.95
637.971	5.9
638.303	5.91
638.635	5.93
638.967	5.98
639.299	5.97
639.631	6.01
639.963	5.98
640.295	5.97
640.626	6
640.958	6.03
641.29	5.99
641.621	5.98
641.953	5.88
642.285	5.93
642.616	5.92
642.948	5.9
643.279	5.91
643.61	5.93
643.942	5.98
644.273	6.05
644.604	6.05
644.936	6.06
645.267	6
645.598	6.02
645.929	5.92
646.26	5.94
646.591	5.97
646.922	5.98
647.253	5.93
647.584	5.89
647.915	5.92
648.245	5.94
648.576	5.93
648.907	5.94
649.238	5.82
649.568	5.85
649.899	5.78
650.229	5.76
650.56	5.85
650.89	5.76
651.221	5.7
651.551	5.72
651.882	5.69
652.212	5.74
652.542	5.74
652.872	5.77
653.203	5.78
653.533	5.77
653.863	5.8
654.193	5.82
654.523	5.83
654.853	5.85
655.183	5.85
655.513	5.84
655.843	5.87
656.172	5.95
656.502	5.97
656.832	6.01
657.162	6.01
657.491	5.97
657.821	6.05
658.15	6.05
658.48	6.14
658.809	6.23
659.139	6.28
659.468	6.29
659.798	6.32
660.127	6.24
660.456	6.2
660.785	6.22
661.115	6.29
661.444	6.23
661.773	6.19
662.102	6.21
662.431	6.23
662.76	6.22
663.089	6.24
663.418	6.22
663.747	6.27
664.076	6.26
664.404	6.28
664.733	6.22
665.062	6.25
665.39	6.15
665.719	6.02
666.048	6.01
666.376	6.02
666.705	6.03
667.033	6.15
667.362	6.24
667.69	6.2
668.018	6.06
668.347	6.05
668.675	6.02
669.003	6.04
669.331	6.02
669.659	5.94
669.987	5.96
670.315	6
670.643	5.99
670.971	6.03
671.299	6.04
671.627	6.12
671.955	6.13
672.283	6.13
672.61	6.27
672.938	6.26
673.266	6.24
673.593	6.18
673.921	6.15
674.249	6.14
674.576	6.14
674.904	6.25
675.231	6.4
675.558	6.46
675.886	6.41
676.213	6.41
676.54	6.6
676.867	6.51
677.195	6.59
677.522	6.58
677.849	6.57
