Data from BU26842_Reflection_00015.txt Node
Date: Mon Nov 18 16:38:59 EST 2019
User: vgr7
Spectrometer: USB2G7710
Scans to average: 3
Trigger mode: 4
Integration Time (sec): 2.000000E-2
Electric dark correction enabled: true
Boxcar width: 10
XAxis mode: Wavelengths
Number of Pixels in Spectrum: 2048
>>>>>Begin Spectral Data<<<<<
177.721	-167.37
178.105	-82.84
178.488	-106.09
178.871	-76.06
179.254	-30.53
179.636	-108.45
180.019	-243.68
180.402	69.77
180.785	54.26
181.168	15.67
181.55	58.41
181.933	274.55
182.316	-644.83
182.698	-495.04
183.081	-84.62
183.463	43.13
183.846	110.41
184.228	54.41
184.611	82.4
184.993	106.89
185.376	160.72
185.758	352.51
186.14	-552.72
186.522	-594.53
186.904	-935.53
187.287	-4244.83
187.669	110.63
188.051	57.06
188.433	19.39
188.815	9.13
189.197	3.84
189.579	-19.74
189.961	-5.22
190.342	-19.67
190.724	-25.48
191.106	-26.25
191.488	-43.4
191.869	-41.1
192.251	-32
192.633	-35.65
193.014	-14.78
193.396	-15.7
193.777	-21.45
194.159	-18.94
194.54	-18.66
194.922	-24.71
195.303	-27.33
195.684	-21.72
196.065	-6.68
196.447	-0.81
196.828	0.02
197.209	-6.31
197.59	12.8
197.971	3.48
198.352	26.99
198.733	38.42
199.114	42.43
199.495	54.87
199.876	58.35
200.257	60.69
200.638	74.74
201.018	58.25
201.399	56.46
201.78	50.34
202.16	46.45
202.541	36.64
202.922	20.29
203.302	38.44
203.683	9.94
204.063	-12.59
204.444	-3.52
204.824	-25.31
205.204	2
205.585	-36.4
205.965	-31.42
206.345	-52.76
206.725	-61.36
207.106	-117.78
207.486	-153.24
207.866	-197.42
208.246	-162.09
208.626	-149.89
209.006	-104.38
209.386	-180.09
209.766	-184.77
210.145	-121.66
210.525	-90.05
210.905	-59.96
211.285	-45.38
211.664	-38.58
212.044	-48.3
212.424	-65.74
212.803	-47.63
213.183	-51.48
213.562	-33.4
213.942	-26.33
214.321	-23.2
214.701	-25.26
215.08	-33.45
215.459	-38.61
215.838	-36.2
216.218	-63.35
216.597	-51.16
216.976	-48.48
217.355	-36.24
217.734	-38.36
218.113	-32.48
218.492	-35.41
218.871	-41.31
219.25	-45.12
219.629	-38.15
220.008	-26.85
220.387	-11.34
220.766	-14.65
221.144	-20.44
221.523	-22.1
221.902	-23.61
222.28	-14.3
222.659	-3.24
223.037	12.57
223.416	19.55
223.794	22.73
224.173	28.99
224.551	25.5
224.929	15.55
225.308	14.9
225.686	15.37
226.064	12.34
226.442	9.46
226.821	14.64
227.199	9.52
227.577	8.17
227.955	2.75
228.333	2.08
228.711	1.07
229.089	4.64
229.467	4.27
229.845	2.11
230.222	2.41
230.6	1.21
230.978	1.21
231.356	1.58
231.733	2.49
232.111	0.85
232.488	1.12
232.866	3.43
233.243	4.24
233.621	3.86
233.998	3.62
234.376	4.42
234.753	4.64
235.13	6.24
235.508	7.1
235.885	8.91
236.262	6.25
236.639	6.62
237.016	6.14
237.393	7.17
237.77	7.7
238.147	7.18
238.524	7.02
238.901	6.92
239.278	6.35
239.655	5.77
240.032	6.5
240.409	6.42
240.785	6.08
241.162	5.69
241.539	5.68
241.915	5.32
242.292	5.19
242.668	4.82
243.045	4.62
243.421	4.68
243.798	4.43
244.174	4.66
244.551	4.74
244.927	4.69
245.303	4.59
245.679	4.43
246.056	4.27
246.432	4.21
246.808	4.12
247.184	4.09
247.56	4.16
247.936	3.87
248.312	3.94
248.688	3.92
249.064	3.71
249.44	3.74
249.815	3.89
250.191	3.66
250.567	3.67
250.943	3.57
251.318	3.27
251.694	3.17
252.069	3.16
252.445	3.11
252.82	2.96
253.196	2.77
253.571	2.82
253.947	3.03
254.322	2.99
254.697	2.87
255.073	2.77
255.448	2.58
255.823	2.67
256.198	2.66
256.573	2.68
256.948	3.07
257.323	3.27
257.698	3.31
258.073	3.46
258.448	3.32
258.823	3.33
259.198	3.06
259.573	2.98
259.948	2.9
260.322	2.77
260.697	2.54
261.072	2.54
261.446	2.68
261.821	2.49
262.195	2.57
262.57	2.65
262.944	2.62
263.319	2.59
263.693	2.72
264.067	2.89
264.442	2.86
264.816	2.66
265.19	2.46
265.564	2.5
265.938	2.49
266.313	2.46
266.687	2.49
267.061	2.9
267.435	2.92
267.809	2.9
268.183	2.97
268.556	3.22
268.93	3.16
269.304	3.19
269.678	3.38
270.051	3.28
270.425	3.23
270.799	3.22
271.172	3.34
271.546	3.3
271.919	3.12
272.293	3.12
272.666	3.15
273.04	3.22
273.413	3.02
273.787	3.01
274.16	3.12
274.533	3.03
274.906	3.01
275.279	3.14
275.653	3.16
276.026	3.25
276.399	3.22
276.772	3.39
277.145	3.21
277.518	3.08
277.891	3.21
278.263	3.26
278.636	3.32
279.009	3.26
279.382	3.35
279.755	3.23
280.127	3.24
280.5	3.42
280.872	3.3
281.245	3.28
281.617	3.34
281.99	3.51
282.362	3.52
282.735	3.47
283.107	3.3
283.479	3.5
283.852	3.47
284.224	3.43
284.596	3.39
284.968	3.45
285.34	3.47
285.713	3.48
286.085	3.44
286.457	3.49
286.829	3.52
287.201	3.46
287.572	3.46
287.944	3.43
288.316	3.33
288.688	3.4
289.06	3.48
289.431	3.47
289.803	3.34
290.175	3.32
290.546	3.4
290.918	3.54
291.289	3.59
291.661	3.6
292.032	3.55
292.403	3.59
292.775	3.59
293.146	3.63
293.517	3.56
293.889	3.58
294.26	3.55
294.631	3.49
295.002	3.51
295.373	3.69
295.744	3.7
296.115	3.78
296.486	3.78
296.857	3.78
297.228	3.85
297.599	3.88
297.97	3.92
298.34	3.87
298.711	3.95
299.082	3.77
299.452	3.7
299.823	3.89
300.194	3.99
300.564	4
300.935	4.15
301.305	4.18
301.676	4.27
302.046	4.34
302.416	4.43
302.787	4.4
303.157	4.35
303.527	4.52
303.897	4.54
304.267	4.66
304.637	4.75
305.008	4.76
305.378	4.82
305.748	4.89
306.117	4.8
306.487	4.78
306.857	4.86
307.227	4.98
307.597	5.04
307.967	4.92
308.336	4.92
308.706	4.8
309.076	4.92
309.445	4.93
309.815	4.9
310.184	4.87
310.554	4.83
310.923	4.79
311.293	4.73
311.662	4.7
312.031	4.66
312.401	4.6
312.77	4.7
313.139	4.8
313.508	4.84
313.877	4.97
314.246	4.99
314.616	5.04
314.985	5.11
315.353	4.94
315.722	4.96
316.091	5
316.46	4.96
316.829	4.93
317.198	4.92
317.567	4.85
317.935	4.97
318.304	5.09
318.672	5.29
319.041	5.5
319.41	5.58
319.778	5.65
320.147	5.86
320.515	5.79
320.883	5.66
321.252	5.79
321.62	5.9
321.988	5.92
322.357	5.87
322.725	5.86
323.093	5.98
323.461	6.16
323.829	6.33
324.197	6.39
324.565	6.47
324.933	6.53
325.301	6.63
325.669	6.62
326.037	6.73
326.405	6.64
326.772	6.54
327.14	6.62
327.508	6.6
327.875	6.54
328.243	6.6
328.61	6.62
328.978	6.57
329.346	6.57
329.713	6.56
330.08	6.72
330.448	6.76
330.815	6.66
331.182	6.65
331.55	6.5
331.917	6.66
332.284	6.68
332.651	6.65
333.018	6.81
333.385	6.99
333.752	7.02
334.119	7.07
334.486	7.14
334.853	7.14
335.22	7.21
335.587	7.29
335.954	7.28
336.32	7.34
336.687	7.45
337.054	7.47
337.42	7.65
337.787	7.66
338.153	7.56
338.52	7.76
338.886	7.63
339.253	7.64
339.619	7.69
339.986	7.66
340.352	7.72
340.718	7.7
341.084	7.62
341.451	7.72
341.817	7.78
342.183	7.69
342.549	7.65
342.915	7.74
343.281	7.62
343.647	7.62
344.013	7.63
344.379	7.55
344.745	7.53
345.11	7.55
345.476	7.57
345.842	7.72
346.208	7.7
346.573	7.79
346.939	7.97
347.304	7.85
347.67	7.79
348.035	7.82
348.401	7.86
348.766	7.87
349.132	7.77
349.497	7.67
349.862	7.78
350.228	7.8
350.593	7.75
350.958	7.91
351.323	8
351.688	8.04
352.053	8.11
352.418	8.23
352.783	8.19
353.148	8.1
353.513	8.13
353.878	8.07
354.243	8.2
354.608	8.19
354.972	8.26
355.337	8.41
355.702	8.39
356.066	8.36
356.431	8.31
356.795	8.32
357.16	8.3
357.524	8.29
357.889	8.24
358.253	8.24
358.618	8.23
358.982	8.12
359.346	8.04
359.71	7.93
360.075	7.91
360.439	7.89
360.803	7.87
361.167	7.75
361.531	7.77
361.895	7.63
362.259	7.52
362.623	7.46
362.987	7.35
363.351	7.29
363.714	7.27
364.078	7.25
364.442	7.16
364.806	7.19
365.169	7.19
365.533	7.22
365.896	7.19
366.26	7.17
366.623	7.13
366.987	7.14
367.35	7.17
367.714	7.1
368.077	7.02
368.44	7.01
368.803	7.03
369.167	6.92
369.53	6.84
369.893	6.86
370.256	6.89
370.619	6.88
370.982	6.81
371.345	6.77
371.708	6.76
372.071	6.74
372.434	6.67
372.797	6.58
373.159	6.51
373.522	6.52
373.885	6.44
374.247	6.4
374.61	6.31
374.973	6.26
375.335	6.12
375.698	6.13
376.06	6.12
376.423	6.03
376.785	6.02
377.147	6.02
377.51	5.94
377.872	5.89
378.234	5.84
378.596	5.83
378.958	5.78
379.321	5.73
379.683	5.71
380.045	5.66
380.407	5.66
380.769	5.61
381.13	5.53
381.492	5.44
381.854	5.47
382.216	5.47
382.578	5.48
382.939	5.52
383.301	5.44
383.663	5.42
384.024	5.44
384.386	5.44
384.747	5.41
385.109	5.4
385.47	5.36
385.832	5.32
386.193	5.32
386.554	5.29
386.916	5.28
387.277	5.26
387.638	5.27
387.999	5.2
388.36	5.18
388.721	5.14
389.082	5.12
389.443	5.03
389.804	4.99
390.165	4.96
390.526	4.93
390.887	4.91
391.248	4.89
391.609	4.83
391.969	4.79
392.33	4.76
392.691	4.74
393.051	4.69
393.412	4.69
393.772	4.63
394.133	4.61
394.493	4.54
394.854	4.54
395.214	4.47
395.574	4.46
395.935	4.41
396.295	4.42
396.655	4.4
397.015	4.37
397.376	4.34
397.736	4.32
398.096	4.3
398.456	4.27
398.816	4.25
399.176	4.2
399.535	4.18
399.895	4.17
400.255	4.15
400.615	4.11
400.975	4.09
401.334	4.08
401.694	4.08
402.054	4.09
402.413	4.07
402.773	4.04
403.132	4.04
403.492	4.04
403.851	4.01
404.211	3.99
404.57	4
404.929	3.98
405.288	3.94
405.648	3.89
406.007	3.9
406.366	3.88
406.725	3.91
407.084	3.88
407.443	3.84
407.802	3.83
408.161	3.82
408.52	3.76
408.879	3.72
409.238	3.7
409.596	3.7
409.955	3.69
410.314	3.69
410.673	3.69
411.031	3.67
411.39	3.65
411.748	3.67
412.107	3.65
412.465	3.68
412.824	3.68
413.182	3.69
413.54	3.67
413.899	3.66
414.257	3.63
414.615	3.61
414.974	3.63
415.332	3.61
415.69	3.6
416.048	3.62
416.406	3.6
416.764	3.57
417.122	3.57
417.48	3.53
417.838	3.55
418.195	3.53
418.553	3.53
418.911	3.5
419.269	3.48
419.626	3.46
419.984	3.43
420.342	3.42
420.699	3.4
421.057	3.4
421.414	3.38
421.772	3.39
422.129	3.39
422.486	3.38
422.844	3.38
423.201	3.37
423.558	3.37
423.915	3.38
424.273	3.38
424.63	3.35
424.987	3.36
425.344	3.34
425.701	3.31
426.058	3.31
426.415	3.32
426.772	3.3
427.128	3.3
427.485	3.32
427.842	3.3
428.199	3.3
428.555	3.29
428.912	3.31
429.269	3.29
429.625	3.28
429.982	3.26
430.338	3.24
430.695	3.23
431.051	3.25
431.407	3.23
431.764	3.23
432.12	3.25
432.476	3.25
432.832	3.23
433.189	3.23
433.545	3.21
433.901	3.19
434.257	3.21
434.613	3.23
434.969	3.22
435.325	3.24
435.681	3.25
436.036	3.25
436.392	3.24
436.748	3.24
437.104	3.22
437.459	3.23
437.815	3.22
438.171	3.23
438.526	3.21
438.882	3.21
439.237	3.21
439.593	3.21
439.948	3.21
440.304	3.23
440.659	3.24
441.014	3.25
441.369	3.25
441.725	3.23
442.08	3.24
442.435	3.22
442.79	3.21
443.145	3.2
443.5	3.2
443.855	3.18
444.21	3.18
444.565	3.2
444.92	3.2
445.275	3.2
445.629	3.19
445.984	3.19
446.339	3.18
446.693	3.17
447.048	3.16
447.403	3.14
447.757	3.13
448.112	3.12
448.466	3.12
448.82	3.11
449.175	3.12
449.529	3.1
449.883	3.11
450.238	3.11
450.592	3.13
450.946	3.12
451.3	3.12
451.654	3.11
452.008	3.11
452.362	3.1
452.716	3.1
453.07	3.11
453.424	3.11
453.778	3.11
454.132	3.09
454.486	3.08
454.839	3.09
455.193	3.1
455.547	3.1
455.9	3.11
456.254	3.11
456.607	3.09
456.961	3.09
457.314	3.06
457.668	3.06
458.021	3.05
458.375	3.05
458.728	3.05
459.081	3.06
459.434	3.04
459.787	3.04
460.141	3.04
460.494	3.05
460.847	3.03
461.2	3.03
461.553	3.05
461.906	3.06
462.259	3.07
462.611	3.06
462.964	3.06
463.317	3.07
463.67	3.08
464.022	3.09
464.375	3.08
464.728	3.1
465.08	3.12
465.433	3.11
465.785	3.11
466.138	3.1
466.49	3.11
466.843	3.13
467.195	3.16
467.547	3.18
467.899	3.17
468.252	3.19
468.604	3.19
468.956	3.23
469.308	3.22
469.66	3.2
470.012	3.23
470.364	3.23
470.716	3.22
471.068	3.23
471.42	3.24
471.772	3.28
472.123	3.29
472.475	3.31
472.827	3.33
473.178	3.37
473.53	3.37
473.882	3.37
474.233	3.36
474.585	3.34
474.936	3.35
475.288	3.34
475.639	3.33
475.99	3.34
476.342	3.3
476.693	3.31
477.044	3.34
477.395	3.34
477.746	3.35
478.097	3.34
478.448	3.33
478.8	3.32
479.15	3.29
479.501	3.29
479.852	3.25
480.203	3.26
480.554	3.24
480.905	3.25
481.255	3.25
481.606	3.24
481.957	3.25
482.307	3.25
482.658	3.24
483.009	3.24
483.359	3.23
483.709	3.23
484.06	3.23
484.41	3.23
484.761	3.22
485.111	3.22
485.461	3.22
485.811	3.23
486.162	3.24
486.512	3.25
486.862	3.25
487.212	3.24
487.562	3.24
487.912	3.25
488.262	3.24
488.612	3.24
488.961	3.25
489.311	3.25
489.661	3.27
490.011	3.28
490.36	3.28
490.71	3.3
491.06	3.31
491.409	3.32
491.759	3.33
492.108	3.34
492.458	3.35
492.807	3.36
493.157	3.36
493.506	3.36
493.855	3.37
494.204	3.38
494.554	3.42
494.903	3.43
495.252	3.43
495.601	3.46
495.95	3.5
496.299	3.52
496.648	3.54
496.997	3.57
497.346	3.6
497.695	3.65
498.043	3.67
498.392	3.69
498.741	3.73
499.09	3.75
499.438	3.8
499.787	3.87
500.135	3.93
500.484	3.96
500.832	4.01
501.181	4.07
501.529	4.11
501.878	4.17
502.226	4.25
502.574	4.33
502.923	4.37
503.271	4.43
503.619	4.51
503.967	4.61
504.315	4.7
504.663	4.8
505.011	4.88
505.359	4.97
505.707	5.07
506.055	5.16
506.403	5.26
506.751	5.34
507.098	5.4
507.446	5.51
507.794	5.61
508.141	5.73
508.489	5.84
508.837	5.95
509.184	6.04
509.531	6.11
509.879	6.21
510.226	6.34
510.574	6.43
510.921	6.52
511.268	6.6
511.616	6.69
511.963	6.78
512.31	6.89
512.657	7.03
513.004	7.16
513.351	7.3
513.698	7.43
514.045	7.57
514.392	7.72
514.739	7.84
515.086	7.99
515.432	8.12
515.779	8.25
516.126	8.41
516.473	8.54
516.819	8.69
517.166	8.83
517.512	8.96
517.859	9.09
518.205	9.19
518.552	9.33
518.898	9.45
519.245	9.55
519.591	9.66
519.937	9.74
520.283	9.87
520.629	9.99
520.976	10.09
521.322	10.21
521.668	10.33
522.014	10.46
522.36	10.59
522.706	10.75
523.052	10.91
523.398	11.06
523.743	11.23
524.089	11.43
524.435	11.57
524.781	11.71
525.126	11.87
525.472	12.01
525.817	12.11
526.163	12.22
526.509	12.34
526.854	12.45
527.199	12.57
527.545	12.65
527.89	12.76
528.235	12.89
528.581	13.02
528.926	13.14
529.271	13.25
529.616	13.4
529.961	13.51
530.306	13.62
530.651	13.73
530.996	13.87
531.341	14
531.686	14.15
532.031	14.3
532.376	14.47
532.721	14.63
533.065	14.83
533.41	15.01
533.755	15.2
534.099	15.4
534.444	15.57
534.788	15.76
535.133	15.97
535.477	16.16
535.822	16.35
536.166	16.56
536.51	16.81
536.855	17.04
537.199	17.28
537.543	17.56
537.887	17.87
538.231	18.12
538.576	18.37
538.92	18.61
539.264	18.89
539.608	19.09
539.951	19.29
540.295	19.51
540.639	19.73
540.983	19.95
541.327	20.15
541.671	20.38
542.014	20.62
542.358	20.8
542.701	21.01
543.045	21.21
543.389	21.41
543.732	21.63
544.075	21.85
544.419	22.05
544.762	22.26
545.105	22.47
545.449	22.73
545.792	22.97
546.135	23.26
546.478	23.5
546.821	23.82
547.165	24.16
547.508	24.47
547.851	24.74
548.194	25.02
548.536	25.35
548.879	25.64
549.222	25.89
549.565	26.19
549.908	26.48
550.25	26.79
550.593	27.13
550.936	27.35
551.278	27.57
551.621	27.9
551.963	28.21
552.306	28.52
552.648	28.82
552.991	29.15
553.333	29.42
553.675	29.68
554.017	29.93
554.36	30.16
554.702	30.38
555.044	30.61
555.386	30.87
555.728	31.07
556.07	31.33
556.412	31.56
556.754	31.78
557.096	32.02
557.438	32.26
557.78	32.47
558.121	32.78
558.463	33.04
558.805	33.25
559.147	33.45
559.488	33.67
559.83	33.88
560.171	34.02
560.513	34.23
560.854	34.43
561.196	34.61
561.537	34.82
561.878	35.02
562.22	35.26
562.561	35.44
562.902	35.62
563.243	35.8
563.584	36.01
563.925	36.19
564.266	36.27
564.607	36.41
564.948	36.54
565.289	36.72
565.63	36.85
565.971	36.95
566.312	37.12
566.653	37.25
566.993	37.37
567.334	37.53
567.675	37.71
568.015	37.88
568.356	38.05
568.696	38.14
569.037	38.25
569.377	38.34
569.718	38.44
570.058	38.53
570.398	38.59
570.739	38.69
571.079	38.81
571.419	39.03
571.759	39.19
572.099	39.32
572.439	39.42
572.779	39.54
573.119	39.74
573.459	39.81
573.799	39.94
574.139	40
574.479	40.12
574.819	40.18
575.158	40.28
575.498	40.35
575.838	40.52
576.177	40.64
576.517	40.75
576.856	40.86
577.196	41.05
577.535	41.2
577.875	41.27
578.214	41.39
578.553	41.47
578.893	41.53
579.232	41.66
579.571	41.73
579.91	41.78
580.25	41.88
580.589	41.97
580.928	42.03
581.267	42.13
581.606	42.16
581.945	42.24
582.283	42.3
582.622	42.36
582.961	42.38
583.3	42.48
583.639	42.66
583.977	42.75
584.316	42.81
584.654	42.91
584.993	43.04
585.332	43.12
585.67	43.18
586.008	43.29
586.347	43.34
586.685	43.41
587.024	43.54
587.362	43.54
587.7	43.57
588.038	43.64
588.376	43.73
588.715	43.85
589.053	43.91
589.391	43.96
589.729	44.01
590.067	44.04
590.404	44.13
590.742	44.11
591.08	44.13
591.418	44.16
591.756	44.24
592.093	44.3
592.431	44.35
592.769	44.43
593.106	44.45
593.444	44.49
593.781	44.48
594.119	44.52
594.456	44.59
594.793	44.63
595.131	44.66
595.468	44.69
595.805	44.72
596.143	44.75
596.48	44.77
596.817	44.89
597.154	44.9
597.491	44.86
597.828	44.88
598.165	44.96
598.502	45.06
598.839	45.02
599.176	45.03
599.512	45.03
599.849	45.04
600.186	45.04
600.523	45.1
600.859	45.2
601.196	45.3
601.532	45.39
601.869	45.42
602.205	45.47
602.542	45.56
602.878	45.63
603.215	45.7
603.551	45.79
603.887	45.8
604.223	45.84
604.56	45.92
604.896	45.97
605.232	45.95
605.568	45.95
605.904	46.04
606.24	46.12
606.576	46.17
606.912	46.17
607.248	46.28
607.583	46.26
607.919	46.3
608.255	46.25
608.591	46.27
608.926	46.36
609.262	46.43
609.597	46.44
609.933	46.44
610.268	46.51
610.604	46.49
610.939	46.49
611.275	46.55
611.61	46.56
611.945	46.56
612.281	46.63
612.616	46.56
612.951	46.59
613.286	46.61
613.621	46.63
613.956	46.67
614.291	46.65
614.626	46.75
614.961	46.76
615.296	46.8
615.631	46.72
615.966	46.69
616.3	46.63
616.635	46.57
616.97	46.49
617.304	46.35
617.639	46.31
617.973	46.4
618.308	46.47
618.642	46.45
618.977	46.45
619.311	46.45
619.646	46.54
619.98	46.57
620.314	46.62
620.648	46.62
620.983	46.72
621.317	46.72
621.651	46.84
621.985	46.92
622.319	46.85
622.653	46.87
622.987	46.96
623.321	47.01
623.655	47.08
623.988	47.18
624.322	47.18
624.656	47.26
624.99	47.23
625.323	47.22
625.657	47.25
625.99	47.29
626.324	47.3
626.657	47.34
626.991	47.38
627.324	47.34
627.658	47.38
627.991	47.4
628.324	47.42
628.657	47.32
628.991	47.29
629.324	47.37
629.657	47.44
629.99	47.46
630.323	47.53
630.656	47.63
630.989	47.72
631.322	47.88
631.655	47.88
631.987	47.92
632.32	47.94
632.653	47.98
632.986	48.03
633.318	48.07
633.651	48.07
633.984	47.98
634.316	47.92
634.649	47.97
634.981	47.88
635.313	47.82
635.646	47.93
635.978	48
636.31	48.05
636.643	48.04
636.975	48.03
637.307	48.01
637.639	47.9
637.971	47.79
638.303	47.8
638.635	47.79
638.967	47.79
639.299	47.81
639.631	47.81
639.963	47.78
640.295	47.83
640.626	47.88
640.958	47.93
641.29	48.07
641.621	48.07
641.953	48.19
642.285	48.28
642.616	48.21
642.948	48.2
643.279	48.15
643.61	48.21
643.942	48.22
644.273	48.13
644.604	48.2
644.936	48.35
645.267	48.34
645.598	48.4
645.929	48.37
646.26	48.41
646.591	48.37
646.922	48.41
647.253	48.42
647.584	48.37
647.915	48.42
648.245	48.31
648.576	48.36
648.907	48.3
649.238	48.34
649.568	48.51
649.899	48.55
650.229	48.57
650.56	48.57
650.89	48.59
651.221	48.63
651.551	48.57
651.882	48.53
652.212	48.52
652.542	48.52
652.872	48.57
653.203	48.5
653.533	48.56
653.863	48.51
654.193	48.54
654.523	48.57
654.853	48.57
655.183	48.62
655.513	48.51
655.843	48.56
656.172	48.52
656.502	48.47
656.832	48.39
657.162	48.43
657.491	48.41
657.821	48.48
658.15	48.53
658.48	48.59
658.809	48.55
659.139	48.54
659.468	48.59
659.798	48.63
660.127	48.81
660.456	48.83
660.785	48.83
661.115	48.82
661.444	48.77
661.773	48.69
662.102	48.71
662.431	48.85
662.76	48.78
663.089	48.78
663.418	48.72
663.747	48.87
664.076	48.78
664.404	48.79
664.733	48.76
665.062	48.88
665.39	48.83
665.719	48.87
666.048	48.87
666.376	48.89
666.705	48.73
667.033	48.63
667.362	48.61
667.69	48.72
