Data from BU26946_Reflection_00005.txt Node
Date: Tue Nov 19 10:51:57 EST 2019
User: vgr7
Spectrometer: USB2G7710
Scans to average: 3
Trigger mode: 4
Integration Time (sec): 2.000000E-2
Electric dark correction enabled: true
Boxcar width: 10
XAxis mode: Wavelengths
Number of Pixels in Spectrum: 2048
>>>>>Begin Spectral Data<<<<<
177.721	135.61
178.105	-183.78
178.488	-20.74
178.871	-73.68
179.254	185.71
179.636	-83.96
180.019	169.77
180.402	92.86
180.785	53.85
181.168	85.65
181.55	186.71
181.933	107.16
182.316	142.49
182.698	94.24
183.081	245.37
183.463	-750.75
183.846	323.6
184.228	230.43
184.611	519.58
184.993	198.18
185.376	1121.28
185.758	-127.44
186.14	-158.46
186.522	-66.4
186.904	-93.55
187.287	-71.13
187.669	-40.67
188.051	-115.5
188.433	-103.1
188.815	-65.45
189.197	-72.92
189.579	-39.58
189.961	-35.95
190.342	-39.87
190.724	-37.04
191.106	-56.84
191.488	-55.58
191.869	-46.48
192.251	-29.62
192.633	-37.87
193.014	-35.87
193.396	-31.32
193.777	-38.48
194.159	-51.25
194.54	-55.71
194.922	-52.44
195.303	-65.4
195.684	-92.76
196.065	-67.55
196.447	-75.67
196.828	-90.7
197.209	-85.21
197.59	-105.62
197.971	-100.27
198.352	-109.98
198.733	-125.45
199.114	-108.85
199.495	-117.96
199.876	-118.73
200.257	-126.82
200.638	-109.5
201.018	-132.41
201.399	-156.02
201.78	-155.44
202.16	-170.66
202.541	-184.4
202.922	-178.04
203.302	-177.16
203.683	-175.88
204.063	-130.42
204.444	-115.84
204.824	-130.89
205.204	-121.81
205.585	-114.01
205.965	-132.68
206.345	-131.28
206.725	-105.73
207.106	-100.85
207.486	-100.4
207.866	-80.44
208.246	-81.04
208.626	-97.91
209.006	-87.43
209.386	-79.28
209.766	-77.15
210.145	-61.46
210.525	-42.08
210.905	-39.47
211.285	-33.41
211.664	-23.74
212.044	-27.79
212.424	-25.37
212.803	-18.47
213.183	-13.75
213.562	-11.26
213.942	-5.04
214.321	-7.69
214.701	-14.44
215.08	-11.89
215.459	-8.79
215.838	-10.17
216.218	-6.14
216.597	10.45
216.976	-2.45
217.355	-18.27
217.734	-7.2
218.113	-3.45
218.492	-13.39
218.871	-29.26
219.25	-45.32
219.629	-84.79
220.008	-77.03
220.387	-109.3
220.766	-86.74
221.144	-91.76
221.523	-114.91
221.902	-137.17
222.28	-63.88
222.659	-36.91
223.037	-29.51
223.416	-27.02
223.794	-9.86
224.173	-21.3
224.551	-30.27
224.929	-21.18
225.308	-19.09
225.686	-18.82
226.064	-21.73
226.442	-18.29
226.821	-19.34
227.199	-17.54
227.577	-13.72
227.955	-13.47
228.333	-12.68
228.711	-10.41
229.089	-11.53
229.467	-12.35
229.845	-14.64
230.222	-13.28
230.6	-12.57
230.978	-12.04
231.356	-12.11
231.733	-12.95
232.111	-9.98
232.488	-9.99
232.866	-8.32
233.243	-7.63
233.621	-7.29
233.998	-7.63
234.376	-6.88
234.753	-5.07
235.13	-5.32
235.508	-5.47
235.885	-4.77
236.262	-4.32
236.639	-4.61
237.016	-2.61
237.393	-0.51
237.77	1.4
238.147	0.37
238.524	0.74
238.901	0.91
239.278	0.85
239.655	1.07
240.032	1.06
240.409	2.08
240.785	2.2
241.162	2.63
241.539	2.57
241.915	2.84
242.292	2.58
242.668	2.97
243.045	3.19
243.421	3.43
243.798	3.62
244.174	3.97
244.551	3.72
244.927	3.49
245.303	2.98
245.679	2.67
246.056	3.05
246.432	3.07
246.808	3.39
247.184	3.64
247.56	3.5
247.936	3.5
248.312	3.41
248.688	3.26
249.064	3.27
249.44	3.16
249.815	3.13
250.191	3.08
250.567	2.99
250.943	2.88
251.318	2.77
251.694	2.55
252.069	2.37
252.445	2.42
252.82	2.55
253.196	2.85
253.571	2.91
253.947	2.68
254.322	2.78
254.697	2.41
255.073	2.29
255.448	2.47
255.823	2.39
256.198	2.33
256.573	2.38
256.948	2.52
257.323	2.69
257.698	2.86
258.073	3.04
258.448	2.85
258.823	2.84
259.198	2.8
259.573	2.87
259.948	2.8
260.322	2.88
260.697	2.99
261.072	3.14
261.446	3.2
261.821	3.08
262.195	2.85
262.57	2.91
262.944	2.97
263.319	3.02
263.693	2.96
264.067	2.99
264.442	2.92
264.816	2.9
265.19	2.96
265.564	2.95
265.938	2.7
266.313	2.86
266.687	2.82
267.061	2.87
267.435	2.94
267.809	3.03
268.183	2.98
268.556	2.72
268.93	2.75
269.304	2.82
269.678	3.13
270.051	3.33
270.425	3.33
270.799	3.14
271.172	3.07
271.546	3.19
271.919	3.19
272.293	3.29
272.666	3.18
273.04	3.1
273.413	3.06
273.787	2.99
274.16	2.78
274.533	3.02
274.906	3.06
275.279	2.94
275.653	3.06
276.026	2.92
276.399	2.93
276.772	2.88
277.145	2.83
277.518	2.63
277.891	2.53
278.263	2.55
278.636	2.73
279.009	2.62
279.382	2.55
279.755	2.41
280.127	2.4
280.5	2.43
280.872	2.57
281.245	2.6
281.617	2.68
281.99	2.99
282.362	2.95
282.735	2.95
283.107	2.87
283.479	2.91
283.852	3.11
284.224	3.21
284.596	3.15
284.968	3.15
285.34	3.17
285.713	3.29
286.085	3.2
286.457	3.12
286.829	3.24
287.201	3.2
287.572	3.3
287.944	3.31
288.316	3.33
288.688	3.28
289.06	3.29
289.431	3.48
289.803	3.3
290.175	3.32
290.546	3.23
290.918	3.3
291.289	3.15
291.661	3.14
292.032	3.11
292.403	3.13
292.775	3.26
293.146	3.48
293.517	3.41
293.889	3.52
294.26	3.63
294.631	3.67
295.002	3.71
295.373	3.6
295.744	3.61
296.115	3.61
296.486	3.62
296.857	3.69
297.228	3.4
297.599	3.46
297.97	3.52
298.34	3.54
298.711	3.57
299.082	3.54
299.452	3.44
299.823	3.41
300.194	3.36
300.564	3.17
300.935	2.93
301.305	2.85
301.676	2.82
302.046	2.72
302.416	2.72
302.787	2.79
303.157	2.93
303.527	3.1
303.897	3.14
304.267	3.18
304.637	3.12
305.008	3.29
305.378	3.37
305.748	3.21
306.117	3.24
306.487	3.26
306.857	3.38
307.227	3.58
307.597	3.56
307.967	3.63
308.336	3.69
308.706	3.7
309.076	3.9
309.445	3.91
309.815	3.92
310.184	3.94
310.554	3.76
310.923	3.75
311.293	3.58
311.662	3.65
312.031	3.56
312.401	3.51
312.77	3.45
313.139	3.39
313.508	3.31
313.877	3.37
314.246	3.32
314.616	3.31
314.985	3.14
315.353	3.27
315.722	3.31
316.091	3.25
316.46	3.24
316.829	3.05
317.198	3.03
317.567	3.17
317.935	3.06
318.304	3.32
318.672	3.31
319.041	3.45
319.41	3.31
319.778	3.41
320.147	3.34
320.515	3.31
320.883	3.28
321.252	3.53
321.62	3.52
321.988	3.51
322.357	3.52
322.725	3.61
323.093	3.51
323.461	3.49
323.829	3.62
324.197	3.71
324.565	3.81
324.933	3.78
325.301	3.51
325.669	3.49
326.037	3.48
326.405	3.48
326.772	3.3
327.14	3.27
327.508	3.12
327.875	3.27
328.243	3.37
328.61	3.34
328.978	3.31
329.346	3.37
329.713	3.52
330.08	3.55
330.448	3.44
330.815	3.35
331.182	3.4
331.55	3.35
331.917	3.25
332.284	3.22
332.651	3.09
333.018	3.22
333.385	3.31
333.752	3.22
334.119	3.29
334.486	3.38
334.853	3.41
335.22	3.47
335.587	3.34
335.954	3.19
336.32	3.28
336.687	3.15
337.054	3.02
337.42	2.91
337.787	2.8
338.153	2.88
338.52	3.03
338.886	2.93
339.253	2.86
339.619	2.96
339.986	2.95
340.352	3.15
340.718	3.15
341.084	3.08
341.451	3.08
341.817	3.01
342.183	2.92
342.549	2.97
342.915	3.02
343.281	3.18
343.647	3.29
344.013	3.33
344.379	3.47
344.745	3.52
345.11	3.55
345.476	3.62
345.842	3.57
346.208	3.47
346.573	3.44
346.939	3.49
347.304	3.47
347.67	3.39
348.035	3.28
348.401	3.31
348.766	3.3
349.132	3.38
349.497	3.45
349.862	3.49
350.228	3.41
350.593	3.36
350.958	3.31
351.323	3.3
351.688	3.26
352.053	3.18
352.418	3.24
352.783	3.3
353.148	3.4
353.513	3.41
353.878	3.5
354.243	3.56
354.608	3.57
354.972	3.59
355.337	3.74
355.702	3.64
356.066	3.55
356.431	3.55
356.795	3.57
357.16	3.53
357.524	3.57
357.889	3.59
358.253	3.61
358.618	3.6
358.982	3.65
359.346	3.67
359.71	3.66
360.075	3.6
360.439	3.59
360.803	3.53
361.167	3.5
361.531	3.53
361.895	3.55
362.259	3.5
362.623	3.45
362.987	3.41
363.351	3.49
363.714	3.58
364.078	3.57
364.442	3.47
364.806	3.49
365.169	3.48
365.533	3.49
365.896	3.54
366.26	3.58
366.623	3.52
366.987	3.47
367.35	3.55
367.714	3.63
368.077	3.6
368.44	3.61
368.803	3.61
369.167	3.54
369.53	3.5
369.893	3.55
370.256	3.54
370.619	3.54
370.982	3.58
371.345	3.59
371.708	3.59
372.071	3.64
372.434	3.59
372.797	3.6
373.159	3.59
373.522	3.55
373.885	3.53
374.247	3.54
374.61	3.62
374.973	3.61
375.335	3.56
375.698	3.51
376.06	3.46
376.423	3.52
376.785	3.62
377.147	3.62
377.51	3.68
377.872	3.65
378.234	3.65
378.596	3.63
378.958	3.61
379.321	3.66
379.683	3.64
380.045	3.58
380.407	3.55
380.769	3.57
381.13	3.56
381.492	3.5
381.854	3.53
382.216	3.48
382.578	3.48
382.939	3.5
383.301	3.55
383.663	3.62
384.024	3.62
384.386	3.56
384.747	3.54
385.109	3.46
385.47	3.54
385.832	3.53
386.193	3.52
386.554	3.49
386.916	3.5
387.277	3.52
387.638	3.6
387.999	3.65
388.36	3.64
388.721	3.65
389.082	3.7
389.443	3.68
389.804	3.66
390.165	3.66
390.526	3.67
390.887	3.63
391.248	3.59
391.609	3.57
391.969	3.58
392.33	3.6
392.691	3.61
393.051	3.57
393.412	3.56
393.772	3.58
394.133	3.58
394.493	3.56
394.854	3.54
395.214	3.5
395.574	3.48
395.935	3.5
396.295	3.5
396.655	3.51
397.015	3.5
397.376	3.49
397.736	3.44
398.096	3.38
398.456	3.43
398.816	3.42
399.176	3.41
399.535	3.37
399.895	3.36
400.255	3.37
400.615	3.4
400.975	3.44
401.334	3.44
401.694	3.48
402.054	3.48
402.413	3.52
402.773	3.55
403.132	3.53
403.492	3.52
403.851	3.52
404.211	3.51
404.57	3.5
404.929	3.51
405.288	3.54
405.648	3.57
406.007	3.54
406.366	3.55
406.725	3.57
407.084	3.61
407.443	3.61
407.802	3.62
408.161	3.6
408.52	3.59
408.879	3.59
409.238	3.55
409.596	3.56
409.955	3.53
410.314	3.5
410.673	3.53
411.031	3.51
411.39	3.53
411.748	3.52
412.107	3.56
412.465	3.55
412.824	3.55
413.182	3.52
413.54	3.54
413.899	3.53
414.257	3.52
414.615	3.49
414.974	3.51
415.332	3.51
415.69	3.52
416.048	3.51
416.406	3.5
416.764	3.53
417.122	3.52
417.48	3.52
417.838	3.53
418.195	3.53
418.553	3.54
418.911	3.55
419.269	3.57
419.626	3.57
419.984	3.58
420.342	3.58
420.699	3.6
421.057	3.6
421.414	3.6
421.772	3.6
422.129	3.6
422.486	3.59
422.844	3.58
423.201	3.59
423.558	3.6
423.915	3.61
424.273	3.61
424.63	3.62
424.987	3.64
425.344	3.64
425.701	3.62
426.058	3.61
426.415	3.58
426.772	3.56
427.128	3.57
427.485	3.57
427.842	3.56
428.199	3.55
428.555	3.55
428.912	3.54
429.269	3.56
429.625	3.55
429.982	3.55
430.338	3.57
430.695	3.54
431.051	3.53
431.407	3.52
431.764	3.52
432.12	3.51
432.476	3.5
432.832	3.48
433.189	3.5
433.545	3.51
433.901	3.51
434.257	3.51
434.613	3.48
434.969	3.48
435.325	3.49
435.681	3.48
436.036	3.5
436.392	3.51
436.748	3.51
437.104	3.53
437.459	3.54
437.815	3.53
438.171	3.54
438.526	3.55
438.882	3.55
439.237	3.54
439.593	3.55
439.948	3.55
440.304	3.57
440.659	3.59
441.014	3.59
441.369	3.6
441.725	3.6
442.08	3.62
442.435	3.63
442.79	3.62
443.145	3.62
443.5	3.61
443.855	3.6
444.21	3.59
444.565	3.57
444.92	3.57
445.275	3.57
445.629	3.57
445.984	3.58
446.339	3.58
446.693	3.6
447.048	3.57
447.403	3.57
447.757	3.56
448.112	3.54
448.466	3.54
448.82	3.53
449.175	3.54
449.529	3.53
449.883	3.52
450.238	3.52
450.592	3.52
450.946	3.51
451.3	3.52
451.654	3.53
452.008	3.54
452.362	3.54
452.716	3.56
453.07	3.56
453.424	3.54
453.778	3.54
454.132	3.52
454.486	3.53
454.839	3.54
455.193	3.57
455.547	3.58
455.9	3.58
456.254	3.6
456.607	3.59
456.961	3.58
457.314	3.59
457.668	3.6
458.021	3.59
458.375	3.6
458.728	3.59
459.081	3.59
459.434	3.59
459.787	3.6
460.141	3.61
460.494	3.63
460.847	3.63
461.2	3.63
461.553	3.64
461.906	3.64
462.259	3.63
462.611	3.63
462.964	3.64
463.317	3.65
463.67	3.64
464.022	3.64
464.375	3.64
464.728	3.65
465.08	3.64
465.433	3.65
465.785	3.66
466.138	3.67
466.49	3.66
466.843	3.67
467.195	3.67
467.547	3.65
467.899	3.63
468.252	3.64
468.604	3.62
468.956	3.63
469.308	3.64
469.66	3.67
470.012	3.67
470.364	3.66
470.716	3.66
471.068	3.68
471.42	3.69
471.772	3.69
472.123	3.68
472.475	3.69
472.827	3.69
473.178	3.7
473.53	3.7
473.882	3.71
474.233	3.7
474.585	3.69
474.936	3.69
475.288	3.69
475.639	3.7
475.99	3.7
476.342	3.7
476.693	3.7
477.044	3.67
477.395	3.66
477.746	3.65
478.097	3.65
478.448	3.63
478.8	3.63
479.15	3.64
479.501	3.65
479.852	3.66
480.203	3.66
480.554	3.68
480.905	3.68
481.255	3.68
481.606	3.69
481.957	3.71
482.307	3.72
482.658	3.73
483.009	3.74
483.359	3.76
483.709	3.76
484.06	3.76
484.41	3.77
484.761	3.78
485.111	3.78
485.461	3.77
485.811	3.78
486.162	3.79
486.512	3.79
486.862	3.79
487.212	3.8
487.562	3.79
487.912	3.79
488.262	3.79
488.612	3.78
488.961	3.78
489.311	3.78
489.661	3.77
490.011	3.78
490.36	3.77
490.71	3.76
491.06	3.76
491.409	3.76
491.759	3.76
492.108	3.75
492.458	3.75
492.807	3.75
493.157	3.76
493.506	3.75
493.855	3.75
494.204	3.76
494.554	3.77
494.903	3.78
495.252	3.79
495.601	3.79
495.95	3.8
496.299	3.8
496.648	3.81
496.997	3.83
497.346	3.84
497.695	3.83
498.043	3.81
498.392	3.82
498.741	3.84
499.09	3.85
499.438	3.86
499.787	3.89
500.135	3.89
500.484	3.89
500.832	3.9
501.181	3.92
501.529	3.93
501.878	3.94
502.226	3.94
502.574	3.94
502.923	3.95
503.271	3.94
503.619	3.98
503.967	3.97
504.315	3.98
504.663	3.97
505.011	3.98
505.359	4.01
505.707	4
506.055	3.98
506.403	3.98
506.751	3.96
507.098	3.96
507.446	3.97
507.794	3.97
508.141	3.98
508.489	3.98
508.837	3.97
509.184	3.97
509.531	3.97
509.879	3.97
510.226	3.98
510.574	3.99
510.921	3.98
511.268	4.01
511.616	4.01
511.963	4.03
512.31	4.03
512.657	4.03
513.004	4.04
513.351	4.06
513.698	4.05
514.045	4.06
514.392	4.08
514.739	4.09
515.086	4.11
515.432	4.12
515.779	4.1
516.126	4.12
516.473	4.14
516.819	4.14
517.166	4.16
517.512	4.13
517.859	4.14
518.205	4.13
518.552	4.12
518.898	4.12
519.245	4.1
519.591	4.11
519.937	4.12
520.283	4.12
520.629	4.12
520.976	4.12
521.322	4.13
521.668	4.13
522.014	4.15
522.36	4.15
522.706	4.16
523.052	4.18
523.398	4.19
523.743	4.18
524.089	4.19
524.435	4.21
524.781	4.23
525.126	4.25
525.472	4.26
525.817	4.26
526.163	4.25
526.509	4.26
526.854	4.27
527.199	4.27
527.545	4.29
527.89	4.3
528.235	4.31
528.581	4.31
528.926	4.3
529.271	4.29
529.616	4.3
529.961	4.29
530.306	4.29
530.651	4.27
530.996	4.28
531.341	4.29
531.686	4.29
532.031	4.29
532.376	4.29
532.721	4.29
533.065	4.29
533.41	4.31
533.755	4.31
534.099	4.3
534.444	4.28
534.788	4.26
535.133	4.27
535.477	4.27
535.822	4.26
536.166	4.28
536.51	4.27
536.855	4.25
537.199	4.27
537.543	4.27
537.887	4.29
538.231	4.29
538.576	4.28
538.92	4.27
539.264	4.27
539.608	4.28
539.951	4.28
540.295	4.28
540.639	4.27
540.983	4.27
541.327	4.28
541.671	4.29
542.014	4.3
542.358	4.29
542.701	4.3
543.045	4.31
543.389	4.3
543.732	4.31
544.075	4.33
544.419	4.33
544.762	4.33
545.105	4.33
545.449	4.32
545.792	4.33
546.135	4.34
546.478	4.34
546.821	4.35
547.165	4.33
547.508	4.32
547.851	4.33
548.194	4.31
548.536	4.29
548.879	4.29
549.222	4.28
549.565	4.28
549.908	4.26
550.25	4.25
550.593	4.25
550.936	4.26
551.278	4.26
551.621	4.24
551.963	4.27
552.306	4.26
552.648	4.24
552.991	4.25
553.333	4.25
553.675	4.25
554.017	4.25
554.36	4.27
554.702	4.28
555.044	4.27
555.386	4.31
555.728	4.31
556.07	4.31
556.412	4.33
556.754	4.29
557.096	4.29
557.438	4.29
557.78	4.3
558.121	4.28
558.463	4.26
558.805	4.25
559.147	4.24
559.488	4.23
559.83	4.25
560.171	4.22
560.513	4.19
560.854	4.18
561.196	4.16
561.537	4.18
561.878	4.21
562.22	4.23
562.561	4.23
562.902	4.25
563.243	4.26
563.584	4.27
563.925	4.32
564.266	4.31
564.607	4.33
564.948	4.34
565.289	4.35
565.63	4.35
565.971	4.38
566.312	4.38
566.653	4.38
566.993	4.37
567.334	4.41
567.675	4.43
568.015	4.44
568.356	4.44
568.696	4.44
569.037	4.43
569.377	4.41
569.718	4.41
570.058	4.38
570.398	4.38
570.739	4.38
571.079	4.36
571.419	4.36
571.759	4.36
572.099	4.34
572.439	4.33
572.779	4.31
573.119	4.34
573.459	4.31
573.799	4.31
574.139	4.32
574.479	4.32
574.819	4.3
575.158	4.29
575.498	4.3
575.838	4.32
576.177	4.29
576.517	4.33
576.856	4.3
577.196	4.31
577.535	4.32
577.875	4.32
578.214	4.32
578.553	4.33
578.893	4.31
579.232	4.34
579.571	4.35
579.91	4.39
580.25	4.37
580.589	4.38
580.928	4.43
581.267	4.43
581.606	4.43
581.945	4.44
582.283	4.45
582.622	4.42
582.961	4.36
583.3	4.39
583.639	4.39
583.977	4.4
584.316	4.41
584.654	4.41
584.993	4.4
585.332	4.42
585.67	4.43
586.008	4.44
586.347	4.44
586.685	4.41
587.024	4.42
587.362	4.39
587.7	4.42
588.038	4.4
588.376	4.38
588.715	4.36
589.053	4.37
589.391	4.38
589.729	4.39
590.067	4.36
590.404	4.36
590.742	4.34
591.08	4.35
591.418	4.36
591.756	4.33
592.093	4.34
592.431	4.32
592.769	4.29
593.106	4.3
593.444	4.3
593.781	4.33
594.119	4.29
594.456	4.32
594.793	4.3
595.131	4.31
595.468	4.34
595.805	4.36
596.143	4.36
596.48	4.37
596.817	4.39
597.154	4.43
597.491	4.43
597.828	4.46
598.165	4.46
598.502	4.44
598.839	4.47
599.176	4.47
599.512	4.47
599.849	4.49
600.186	4.51
600.523	4.53
600.859	4.54
601.196	4.57
601.532	4.55
601.869	4.55
602.205	4.54
602.542	4.53
602.878	4.53
603.215	4.55
603.551	4.51
603.887	4.5
604.223	4.49
604.56	4.5
604.896	4.52
605.232	4.53
605.568	4.54
605.904	4.51
606.24	4.52
606.576	4.52
606.912	4.51
607.248	4.53
607.583	4.5
607.919	4.45
608.255	4.44
608.591	4.45
608.926	4.46
609.262	4.45
609.597	4.43
609.933	4.42
610.268	4.42
610.604	4.46
610.939	4.46
611.275	4.53
611.61	4.51
611.945	4.46
612.281	4.44
612.616	4.48
612.951	4.53
613.286	4.51
613.621	4.56
613.956	4.58
614.291	4.58
614.626	4.62
614.961	4.67
615.296	4.71
615.631	4.73
615.966	4.72
616.3	4.75
616.635	4.8
616.97	4.82
617.304	4.79
617.639	4.79
617.973	4.75
618.308	4.69
618.642	4.7
618.977	4.73
619.311	4.74
619.646	4.72
619.98	4.68
620.314	4.74
620.648	4.69
620.983	4.7
621.317	4.73
621.651	4.73
621.985	4.71
622.319	4.66
622.653	4.68
622.987	4.66
623.321	4.62
623.655	4.59
623.988	4.58
624.322	4.58
624.656	4.61
624.99	4.64
625.323	4.64
625.657	4.63
625.99	4.62
626.324	4.62
626.657	4.58
626.991	4.56
627.324	4.5
627.658	4.54
627.991	4.54
628.324	4.48
628.657	4.46
628.991	4.48
629.324	4.51
629.657	4.46
629.99	4.51
630.323	4.53
630.656	4.48
630.989	4.48
631.322	4.43
631.655	4.41
631.987	4.41
632.32	4.44
632.653	4.45
632.986	4.44
633.318	4.42
633.651	4.5
633.984	4.55
634.316	4.6
634.649	4.57
634.981	4.55
635.313	4.59
635.646	4.61
635.978	4.64
636.31	4.6
636.643	4.61
636.975	4.58
637.307	4.62
637.639	4.64
637.971	4.6
638.303	4.62
638.635	4.59
638.967	4.59
639.299	4.55
639.631	4.51
639.963	4.45
640.295	4.52
640.626	4.47
640.958	4.45
641.29	4.39
641.621	4.36
641.953	4.29
642.285	4.29
642.616	4.27
642.948	4.26
643.279	4.25
643.61	4.26
643.942	4.29
644.273	4.3
644.604	4.37
644.936	4.37
645.267	4.5
645.598	4.52
645.929	4.53
646.26	4.5
646.591	4.6
646.922	4.69
647.253	4.63
647.584	4.64
647.915	4.67
648.245	4.67
648.576	4.7
648.907	4.77
649.238	4.72
649.568	4.76
649.899	4.72
650.229	4.79
650.56	4.81
650.89	4.82
651.221	4.79
651.551	4.81
651.882	4.81
652.212	4.74
652.542	4.76
652.872	4.76
653.203	4.8
653.533	4.79
653.863	4.77
654.193	4.73
654.523	4.75
654.853	4.72
655.183	4.78
655.513	4.83
655.843	4.8
656.172	4.84
656.502	4.83
656.832	4.85
657.162	4.8
657.491	4.79
657.821	4.75
658.15	4.81
658.48	4.82
658.809	4.86
659.139	4.88
659.468	4.88
659.798	4.86
660.127	4.91
660.456	4.83
660.785	4.81
661.115	4.86
661.444	4.82
661.773	4.87
662.102	4.81
662.431	4.77
662.76	4.76
663.089	4.8
663.418	4.76
663.747	4.78
664.076	4.84
664.404	4.85
664.733	4.88
665.062	4.83
665.39	4.8
665.719	4.78
666.048	4.76
666.376	4.76
666.705	4.73
667.033	4.64
667.362	4.67
667.69	4.72
668.018	4.72
668.347	4.7
668.675	4.64
669.003	4.68
669.331	4.72
669.659	4.67
669.987	4.66
670.315	4.7
670.643	4.64
670.971	4.69
671.299	4.64
671.627	4.58
671.955	4.6
672.283	4.58
672.61	4.55
672.938	4.51
673.266	4.48
673.593	4.49
673.921	4.49
674.249	4.54
674.576	4.59
674.904	4.55
675.231	4.59
675.558	4.65
