Data from BU26942_Reflection_00015.txt Node
Date: Mon Nov 18 16:50:59 EST 2019
User: vgr7
Spectrometer: USB2G7710
Scans to average: 3
Trigger mode: 4
Integration Time (sec): 2.000000E-2
Electric dark correction enabled: true
Boxcar width: 10
XAxis mode: Wavelengths
Number of Pixels in Spectrum: 2048
>>>>>Begin Spectral Data<<<<<
177.721	117.89
178.105	153.05
178.488	986.26
178.871	423.94
179.254	-142.6
179.636	2715.38
180.019	423.94
180.402	152.17
180.785	-44.82
181.168	-132.67
181.55	-56.32
181.933	264.04
182.316	361.54
182.698	381.17
183.081	352.83
183.463	3869.23
183.846	62.65
184.228	198.67
184.611	488.68
184.993	851.48
185.376	-246.5
185.758	-197.3
186.14	-98.59
186.522	157100
186.904	875.4
187.287	613.51
187.669	-643.02
188.051	-369.74
188.433	-247.26
188.815	-502.48
189.197	-160.32
189.579	-64.58
189.961	-60.32
190.342	-24.71
190.724	-5.15
191.106	-64.4
191.488	-39.59
191.869	17.05
192.251	47.3
192.633	53.75
193.014	59.07
193.396	13.02
193.777	42.61
194.159	-0.44
194.54	3.46
194.922	-9.78
195.303	-18.29
195.684	-27.07
196.065	-25.74
196.447	-35.56
196.828	-81.32
197.209	-73.51
197.59	-117.85
197.971	-86.72
198.352	-85.4
198.733	-65.84
199.114	-40.25
199.495	-57.34
199.876	-21.94
200.257	-36.27
200.638	-12.52
201.018	-39.43
201.399	-13.59
201.78	-39.44
202.16	-34.44
202.541	-57.71
202.922	-94.11
203.302	-102.08
203.683	-113.51
204.063	-140.03
204.444	-147.33
204.824	-66.77
205.204	-67.73
205.585	-74.73
205.965	-122.64
206.345	-117.68
206.725	-288.43
207.106	-231.11
207.486	-324.03
207.866	-285.6
208.246	-262.79
208.626	-293.52
209.006	-239.94
209.386	-194.38
209.766	-209.67
210.145	-237.25
210.525	-192.91
210.905	-174.7
211.285	-131.81
211.664	-94.93
212.044	-88.12
212.424	-88.16
212.803	-86.53
213.183	-65.14
213.562	-61.34
213.942	-51.23
214.321	-47.98
214.701	-48.55
215.08	-46.11
215.459	-28.86
215.838	-26.98
216.218	-23.5
216.597	-23.63
216.976	-1.65
217.355	14.55
217.734	16.88
218.113	29.46
218.492	27.07
218.871	16.97
219.25	21.65
219.629	16.86
220.008	4.96
220.387	7.91
220.766	1.36
221.144	-19.39
221.523	-23.9
221.902	-26.29
222.28	-30.47
222.659	-20.05
223.037	4
223.416	-2.01
223.794	-13.3
224.173	-0.96
224.551	2.38
224.929	-7.12
225.308	-10.6
225.686	-0.37
226.064	-2.63
226.442	-5.53
226.821	-4.55
227.199	-6.28
227.577	-5.74
227.955	-0.19
228.333	1.21
228.711	3.19
229.089	10.67
229.467	8.13
229.845	8.67
230.222	9.61
230.6	7.49
230.978	4.23
231.356	5.68
231.733	9.79
232.111	8.91
232.488	9.79
232.866	8.57
233.243	7.84
233.621	4.89
233.998	4.66
234.376	4.94
234.753	5.33
235.13	5.84
235.508	6.59
235.885	5.53
236.262	3.88
236.639	3.6
237.016	3.41
237.393	5.93
237.77	6.61
238.147	6.24
238.524	6.68
238.901	7.27
239.278	6.95
239.655	6.23
240.032	6.08
240.409	5.29
240.785	5.51
241.162	6.03
241.539	6.24
241.915	6.35
242.292	5.89
242.668	6.11
243.045	6.06
243.421	5.47
243.798	5.08
244.174	5
244.551	4.99
244.927	4.52
245.303	4.59
245.679	4.71
246.056	4.57
246.432	4.36
246.808	4.15
247.184	4.12
247.56	3.84
247.936	3.7
248.312	3.98
248.688	4.12
249.064	3.97
249.44	3.87
249.815	4.02
250.191	4.23
250.567	4.01
250.943	4.13
251.318	4.45
251.694	4.46
252.069	4.6
252.445	4.77
252.82	4.92
253.196	4.76
253.571	4.45
253.947	4.59
254.322	5.1
254.697	5.32
255.073	4.95
255.448	5.24
255.823	5.55
256.198	5.3
256.573	5.03
256.948	5.02
257.323	5.02
257.698	4.69
258.073	4.52
258.448	4.62
258.823	4.47
259.198	4.29
259.573	4.38
259.948	4.35
260.322	4.37
260.697	4.37
261.072	4.25
261.446	4.28
261.821	4.27
262.195	4.2
262.57	4.11
262.944	4.2
263.319	4.05
263.693	3.88
264.067	3.98
264.442	4.12
264.816	4.06
265.19	3.96
265.564	3.99
265.938	3.95
266.313	3.73
266.687	3.62
267.061	3.68
267.435	3.56
267.809	3.45
268.183	3.36
268.556	3.32
268.93	3.45
269.304	3.45
269.678	3.48
270.051	3.4
270.425	3.5
270.799	3.58
271.172	3.63
271.546	3.56
271.919	3.44
272.293	3.37
272.666	3.38
273.04	3.5
273.413	3.43
273.787	3.45
274.16	3.59
274.533	3.76
274.906	3.82
275.279	3.92
275.653	3.97
276.026	3.98
276.399	3.96
276.772	3.84
277.145	3.89
277.518	3.83
277.891	3.87
278.263	3.81
278.636	3.75
279.009	3.77
279.382	3.92
279.755	3.85
280.127	3.96
280.5	4.09
280.872	4.16
281.245	4.27
281.617	4.35
281.99	4.32
282.362	4.3
282.735	4.14
283.107	4.15
283.479	4.13
283.852	4.05
284.224	4.08
284.596	4.07
284.968	4.06
285.34	4.19
285.713	4.18
286.085	4.09
286.457	4.23
286.829	4.4
287.201	4.26
287.572	4.27
287.944	4.17
288.316	4.13
288.688	3.98
289.06	3.96
289.431	3.91
289.803	3.98
290.175	3.92
290.546	4.1
290.918	4.16
291.289	4.2
291.661	4.33
292.032	4.34
292.403	4.48
292.775	4.61
293.146	4.53
293.517	4.62
293.889	4.82
294.26	4.68
294.631	4.6
295.002	4.78
295.373	4.8
295.744	4.75
296.115	4.81
296.486	4.79
296.857	4.84
297.228	4.95
297.599	4.85
297.97	4.88
298.34	4.88
298.711	4.92
299.082	4.85
299.452	4.92
299.823	5.08
300.194	5.12
300.564	5.04
300.935	5.12
301.305	5.22
301.676	5.26
302.046	5.32
302.416	5.39
302.787	5.47
303.157	5.58
303.527	5.72
303.897	5.76
304.267	5.98
304.637	6.04
305.008	6.22
305.378	6.47
305.748	6.76
306.117	6.69
306.487	6.74
306.857	6.99
307.227	7.14
307.597	6.96
307.967	7.03
308.336	7.11
308.706	7.16
309.076	7.18
309.445	7.17
309.815	7.23
310.184	7.22
310.554	7.2
310.923	7.29
311.293	7.41
311.662	7.43
312.031	7.51
312.401	7.55
312.77	7.61
313.139	7.62
313.508	7.57
313.877	7.67
314.246	7.7
314.616	7.72
314.985	7.67
315.353	7.76
315.722	7.77
316.091	7.85
316.46	7.9
316.829	7.99
317.198	8.09
317.567	8.26
317.935	8.33
318.304	8.5
318.672	8.61
319.041	8.85
319.41	8.91
319.778	8.79
320.147	8.83
320.515	8.74
320.883	8.71
321.252	8.74
321.62	8.84
321.988	8.94
322.357	9.02
322.725	9
323.093	9.22
323.461	9.31
323.829	9.42
324.197	9.53
324.565	9.63
324.933	9.65
325.301	9.61
325.669	9.74
326.037	9.7
326.405	9.65
326.772	9.51
327.14	9.56
327.508	9.8
327.875	9.79
328.243	9.94
328.61	10.11
328.978	10.15
329.346	10.33
329.713	10.2
330.08	10.38
330.448	10.47
330.815	10.42
331.182	10.44
331.55	10.43
331.917	10.47
332.284	10.36
332.651	10.33
333.018	10.41
333.385	10.52
333.752	10.67
334.119	10.83
334.486	10.87
334.853	11.01
335.22	10.96
335.587	11.09
335.954	11
336.32	10.96
336.687	11.08
337.054	11.04
337.42	11.11
337.787	11.01
338.153	11.12
338.52	11.22
338.886	11.23
339.253	11.15
339.619	11.15
339.986	11.17
340.352	11.29
340.718	11.37
341.084	11.24
341.451	11.3
341.817	11.32
342.183	11.27
342.549	11.17
342.915	11.2
343.281	11.1
343.647	11.1
344.013	11.11
344.379	10.97
344.745	10.98
345.11	11.09
345.476	11.16
345.842	11.08
346.208	11.11
346.573	11.22
346.939	11.39
347.304	11.35
347.67	11.34
348.035	11.31
348.401	11.29
348.766	11.38
349.132	11.22
349.497	11.15
349.862	11.22
350.228	11.41
350.593	11.45
350.958	11.62
351.323	11.66
351.688	11.63
352.053	11.63
352.418	11.65
352.783	11.6
353.148	11.53
353.513	11.58
353.878	11.44
354.243	11.4
354.608	11.39
354.972	11.36
355.337	11.42
355.702	11.43
356.066	11.39
356.431	11.33
356.795	11.44
357.16	11.41
357.524	11.37
357.889	11.22
358.253	11.15
358.618	11.12
358.982	11.09
359.346	11.09
359.71	11.14
360.075	11.17
360.439	11.19
360.803	11.15
361.167	11.1
361.531	11.14
361.895	11.09
362.259	11.01
362.623	11.05
362.987	11.01
363.351	10.99
363.714	11.03
364.078	11.02
364.442	10.98
364.806	10.91
365.169	10.89
365.533	10.9
365.896	10.84
366.26	10.74
366.623	10.71
366.987	10.67
367.35	10.58
367.714	10.43
368.077	10.35
368.44	10.29
368.803	10.18
369.167	10.08
369.53	10
369.893	9.99
370.256	9.88
370.619	9.83
370.982	9.66
371.345	9.51
371.708	9.4
372.071	9.27
372.434	9.26
372.797	9.19
373.159	9.11
373.522	9.08
373.885	8.99
374.247	8.98
374.61	8.91
374.973	8.84
375.335	8.81
375.698	8.73
376.06	8.62
376.423	8.61
376.785	8.57
377.147	8.55
377.51	8.49
377.872	8.46
378.234	8.34
378.596	8.33
378.958	8.22
379.321	8.2
379.683	8.18
380.045	8.06
380.407	8.01
380.769	7.88
381.13	7.79
381.492	7.74
381.854	7.66
382.216	7.63
382.578	7.56
382.939	7.45
383.301	7.41
383.663	7.41
384.024	7.34
384.386	7.3
384.747	7.21
385.109	7.12
385.47	7.01
385.832	7.02
386.193	7
386.554	7
386.916	6.95
387.277	6.91
387.638	6.94
387.999	6.9
388.36	6.9
388.721	6.84
389.082	6.82
389.443	6.76
389.804	6.68
390.165	6.64
390.526	6.62
390.887	6.56
391.248	6.55
391.609	6.54
391.969	6.5
392.33	6.45
392.691	6.43
393.051	6.43
393.412	6.36
393.772	6.29
394.133	6.24
394.493	6.18
394.854	6.12
395.214	6.02
395.574	5.93
395.935	5.86
396.295	5.87
396.655	5.8
397.015	5.76
397.376	5.7
397.736	5.65
398.096	5.6
398.456	5.56
398.816	5.51
399.176	5.4
399.535	5.33
399.895	5.28
400.255	5.23
400.615	5.16
400.975	5.1
401.334	5.05
401.694	4.98
402.054	4.95
402.413	4.92
402.773	4.91
403.132	4.95
403.492	4.91
403.851	4.91
404.211	4.9
404.57	4.88
404.929	4.89
405.288	4.88
405.648	4.85
406.007	4.86
406.366	4.82
406.725	4.83
407.084	4.86
407.443	4.85
407.802	4.87
408.161	4.85
408.52	4.84
408.879	4.84
409.238	4.88
409.596	4.88
409.955	4.85
410.314	4.83
410.673	4.8
411.031	4.8
411.39	4.71
411.748	4.72
412.107	4.7
412.465	4.66
412.824	4.65
413.182	4.67
413.54	4.65
413.899	4.65
414.257	4.61
414.615	4.57
414.974	4.54
415.332	4.49
415.69	4.51
416.048	4.49
416.406	4.48
416.764	4.45
417.122	4.43
417.48	4.41
417.838	4.39
418.195	4.36
418.553	4.34
418.911	4.34
419.269	4.32
419.626	4.29
419.984	4.28
420.342	4.26
420.699	4.22
421.057	4.19
421.414	4.16
421.772	4.14
422.129	4.13
422.486	4.1
422.844	4.09
423.201	4.07
423.558	4.05
423.915	4.03
424.273	4.01
424.63	3.98
424.987	3.97
425.344	3.96
425.701	3.96
426.058	3.96
426.415	3.94
426.772	3.92
427.128	3.92
427.485	3.89
427.842	3.86
428.199	3.86
428.555	3.84
428.912	3.83
429.269	3.85
429.625	3.84
429.982	3.85
430.338	3.82
430.695	3.81
431.051	3.79
431.407	3.78
431.764	3.78
432.12	3.78
432.476	3.78
432.832	3.75
433.189	3.74
433.545	3.73
433.901	3.75
434.257	3.74
434.613	3.73
434.969	3.73
435.325	3.75
435.681	3.75
436.036	3.79
436.392	3.8
436.748	3.78
437.104	3.78
437.459	3.79
437.815	3.8
438.171	3.81
438.526	3.83
438.882	3.83
439.237	3.85
439.593	3.86
439.948	3.87
440.304	3.88
440.659	3.88
441.014	3.87
441.369	3.84
441.725	3.85
442.08	3.85
442.435	3.87
442.79	3.86
443.145	3.86
443.5	3.84
443.855	3.82
444.21	3.81
444.565	3.82
444.92	3.81
445.275	3.8
445.629	3.79
445.984	3.77
446.339	3.75
446.693	3.73
447.048	3.71
447.403	3.7
447.757	3.69
448.112	3.68
448.466	3.7
448.82	3.7
449.175	3.7
449.529	3.68
449.883	3.65
450.238	3.63
450.592	3.62
450.946	3.61
451.3	3.62
451.654	3.62
452.008	3.62
452.362	3.6
452.716	3.6
453.07	3.6
453.424	3.6
453.778	3.62
454.132	3.62
454.486	3.61
454.839	3.61
455.193	3.61
455.547	3.6
455.9	3.58
456.254	3.61
456.607	3.61
456.961	3.62
457.314	3.62
457.668	3.63
458.021	3.63
458.375	3.62
458.728	3.63
459.081	3.62
459.434	3.61
459.787	3.63
460.141	3.63
460.494	3.62
460.847	3.65
461.2	3.64
461.553	3.65
461.906	3.67
462.259	3.68
462.611	3.69
462.964	3.7
463.317	3.71
463.67	3.71
464.022	3.73
464.375	3.73
464.728	3.76
465.08	3.78
465.433	3.79
465.785	3.83
466.138	3.84
466.49	3.85
466.843	3.87
467.195	3.87
467.547	3.89
467.899	3.9
468.252	3.89
468.604	3.93
468.956	3.95
469.308	3.95
469.66	3.95
470.012	3.96
470.364	3.99
470.716	4.02
471.068	4.03
471.42	4.04
471.772	4.07
472.123	4.08
472.475	4.09
472.827	4.09
473.178	4.08
473.53	4.08
473.882	4.1
474.233	4.09
474.585	4.06
474.936	4.07
475.288	4.08
475.639	4.07
475.99	4.06
476.342	4.05
476.693	4.04
477.044	4.06
477.395	4.06
477.746	4.05
478.097	4.02
478.448	3.99
478.8	3.95
479.15	3.93
479.501	3.91
479.852	3.9
480.203	3.89
480.554	3.89
480.905	3.89
481.255	3.88
481.606	3.89
481.957	3.89
482.307	3.89
482.658	3.9
483.009	3.89
483.359	3.89
483.709	3.9
484.06	3.9
484.41	3.9
484.761	3.89
485.111	3.89
485.461	3.9
485.811	3.9
486.162	3.91
486.512	3.93
486.862	3.93
487.212	3.93
487.562	3.95
487.912	3.95
488.262	3.95
488.612	3.95
488.961	3.96
489.311	3.98
489.661	3.98
490.011	3.98
490.36	3.98
490.71	3.99
491.06	3.98
491.409	3.99
491.759	4
492.108	4.01
492.458	4.02
492.807	4.02
493.157	4.03
493.506	4.05
493.855	4.04
494.204	4.02
494.554	4.05
494.903	4.08
495.252	4.11
495.601	4.14
495.95	4.18
496.299	4.2
496.648	4.23
496.997	4.26
497.346	4.3
497.695	4.37
498.043	4.41
498.392	4.46
498.741	4.51
499.09	4.57
499.438	4.64
499.787	4.71
500.135	4.77
500.484	4.84
500.832	4.9
501.181	4.99
501.529	5.1
501.878	5.19
502.226	5.28
502.574	5.37
502.923	5.46
503.271	5.53
503.619	5.66
503.967	5.76
504.315	5.84
504.663	5.94
505.011	6.03
505.359	6.15
505.707	6.28
506.055	6.39
506.403	6.52
506.751	6.65
507.098	6.76
507.446	6.89
507.794	7.02
508.141	7.12
508.489	7.25
508.837	7.39
509.184	7.52
509.531	7.63
509.879	7.79
510.226	7.94
510.574	8.09
510.921	8.21
511.268	8.34
511.616	8.51
511.963	8.68
512.31	8.84
512.657	8.98
513.004	9.14
513.351	9.3
513.698	9.47
514.045	9.64
514.392	9.81
514.739	10
515.086	10.18
515.432	10.38
515.779	10.54
516.126	10.71
516.473	10.86
516.819	11.03
517.166	11.17
517.512	11.28
517.859	11.4
518.205	11.53
518.552	11.68
518.898	11.79
519.245	11.89
519.591	12.01
519.937	12.14
520.283	12.27
520.629	12.43
520.976	12.55
521.322	12.7
521.668	12.87
522.014	13.06
522.36	13.19
522.706	13.35
523.052	13.54
523.398	13.73
523.743	13.95
524.089	14.15
524.435	14.34
524.781	14.55
525.126	14.75
525.472	14.92
525.817	15.07
526.163	15.21
526.509	15.35
526.854	15.5
527.199	15.64
527.545	15.77
527.89	15.88
528.235	16.01
528.581	16.14
528.926	16.27
529.271	16.38
529.616	16.52
529.961	16.68
530.306	16.84
530.651	17.02
530.996	17.17
531.341	17.34
531.686	17.51
532.031	17.69
532.376	17.88
532.721	18.08
533.065	18.28
533.41	18.52
533.755	18.74
534.099	18.94
534.444	19.14
534.788	19.35
535.133	19.54
535.477	19.77
535.822	20
536.166	20.24
536.51	20.52
536.855	20.8
537.199	21.08
537.543	21.36
537.887	21.62
538.231	21.9
538.576	22.21
538.92	22.52
539.264	22.78
539.608	23.03
539.951	23.25
540.295	23.51
540.639	23.73
540.983	23.98
541.327	24.2
541.671	24.42
542.014	24.65
542.358	24.92
542.701	25.14
543.045	25.37
543.389	25.59
543.732	25.83
544.075	26.08
544.419	26.32
544.762	26.55
545.105	26.81
545.449	27.07
545.792	27.34
546.135	27.64
546.478	27.96
546.821	28.3
547.165	28.63
547.508	28.97
547.851	29.27
548.194	29.58
548.536	29.91
548.879	30.28
549.222	30.62
549.565	30.92
549.908	31.26
550.25	31.64
550.593	31.96
550.936	32.27
551.278	32.58
551.621	32.92
551.963	33.22
552.306	33.56
552.648	33.88
552.991	34.2
553.333	34.51
553.675	34.78
554.017	35.03
554.36	35.28
554.702	35.51
555.044	35.83
555.386	36.08
555.728	36.33
556.07	36.64
556.412	36.91
556.754	37.25
557.096	37.51
557.438	37.71
557.78	38.04
558.121	38.3
558.463	38.57
558.805	38.83
559.147	39.11
559.488	39.33
559.83	39.57
560.171	39.77
560.513	39.97
560.854	40.22
561.196	40.47
561.537	40.73
561.878	40.94
562.22	41.17
562.561	41.43
562.902	41.64
563.243	41.79
563.584	42.01
563.925	42.19
564.266	42.35
564.607	42.63
564.948	42.74
565.289	42.92
565.63	43.11
565.971	43.24
566.312	43.44
566.653	43.61
566.993	43.77
567.334	43.91
567.675	44.01
568.015	44.23
568.356	44.35
568.696	44.55
569.037	44.68
569.377	44.85
569.718	44.96
570.058	45.13
570.398	45.27
570.739	45.4
571.079	45.53
571.419	45.71
571.759	45.8
572.099	46
572.439	46.07
572.779	46.18
573.119	46.35
573.459	46.42
573.799	46.59
574.139	46.7
574.479	46.83
574.819	47.02
575.158	47.09
575.498	47.26
575.838	47.32
576.177	47.47
576.517	47.53
576.856	47.66
577.196	47.78
577.535	47.98
577.875	48.09
578.214	48.2
578.553	48.29
578.893	48.41
579.232	48.48
579.571	48.66
579.91	48.86
580.25	48.98
580.589	49.07
580.928	49.1
581.267	49.2
581.606	49.3
581.945	49.34
582.283	49.39
582.622	49.45
582.961	49.54
583.3	49.59
583.639	49.66
583.977	49.77
584.316	49.84
584.654	49.89
584.993	49.98
585.332	50.05
585.67	50.15
586.008	50.23
586.347	50.31
586.685	50.45
587.024	50.49
587.362	50.56
587.7	50.7
588.038	50.76
588.376	50.74
588.715	50.82
589.053	50.9
589.391	51
589.729	51.07
590.067	51.07
590.404	51.18
590.742	51.24
591.08	51.29
591.418	51.4
591.756	51.42
592.093	51.46
592.431	51.47
592.769	51.53
593.106	51.55
593.444	51.6
593.781	51.58
594.119	51.62
594.456	51.6
594.793	51.63
595.131	51.76
595.468	51.88
595.805	51.93
596.143	51.98
596.48	52.04
596.817	52.08
597.154	52.2
597.491	52.27
597.828	52.38
598.165	52.42
598.502	52.42
598.839	52.44
599.176	52.43
599.512	52.5
599.849	52.48
600.186	52.5
600.523	52.51
600.859	52.53
601.196	52.61
601.532	52.72
601.869	52.83
602.205	52.81
602.542	52.85
602.878	52.84
603.215	52.87
603.551	52.9
603.887	52.97
604.223	53.03
604.56	53.14
604.896	53.13
605.232	53.15
605.568	53.2
605.904	53.28
606.24	53.36
606.576	53.41
606.912	53.51
607.248	53.53
607.583	53.64
607.919	53.68
608.255	53.66
608.591	53.72
608.926	53.77
609.262	53.81
609.597	53.85
609.933	53.99
610.268	54.04
610.604	54.08
610.939	54.14
611.275	54.15
611.61	54.09
611.945	54.13
612.281	54.18
612.616	54.16
612.951	54.15
613.286	54.15
613.621	54.14
613.956	54.12
614.291	54.18
614.626	54.18
614.961	54.23
615.296	54.24
615.631	54.26
615.966	54.17
616.3	54.28
616.635	54.34
616.97	54.26
617.304	54.19
617.639	54.26
617.973	54.15
618.308	54.19
618.642	54.21
618.977	54.22
619.311	54.22
619.646	54.29
619.98	54.36
620.314	54.4
620.648	54.5
620.983	54.61
621.317	54.65
621.651	54.66
621.985	54.67
622.319	54.78
622.653	54.87
622.987	54.95
623.321	54.93
623.655	55.01
623.988	55.09
624.322	55.29
624.656	55.34
624.99	55.42
625.323	55.42
625.657	55.44
625.99	55.43
626.324	55.5
626.657	55.57
626.991	55.52
627.324	55.61
627.658	55.6
627.991	55.52
628.324	55.57
628.657	55.57
628.991	55.6
629.324	55.58
629.657	55.48
629.99	55.51
630.323	55.59
630.656	55.55
630.989	55.58
631.322	55.42
631.655	55.33
631.987	55.36
632.32	55.37
632.653	55.32
632.986	55.38
633.318	55.31
633.651	55.27
633.984	55.28
634.316	55.19
634.649	55.19
634.981	55.24
635.313	55.26
635.646	55.35
635.978	55.42
636.31	55.43
636.643	55.51
636.975	55.49
637.307	55.45
637.639	55.44
637.971	55.41
638.303	55.53
638.635	55.53
638.967	55.58
639.299	55.68
639.631	55.72
639.963	55.66
640.295	55.78
640.626	55.8
640.958	55.82
641.29	55.93
641.621	56.01
641.953	56.02
642.285	55.94
642.616	55.92
642.948	55.87
643.279	55.93
643.61	55.88
643.942	55.9
644.273	55.86
644.604	55.88
644.936	55.96
645.267	56.03
645.598	56.18
645.929	56.2
646.26	56.2
646.591	56.27
646.922	56.34
647.253	56.32
647.584	56.38
647.915	56.49
648.245	56.48
648.576	56.46
648.907	56.62
649.238	56.66
649.568	56.73
649.899	56.79
650.229	56.78
650.56	56.81
650.89	56.73
651.221	56.71
651.551	56.6
651.882	56.59
652.212	56.51
652.542	56.43
652.872	56.32
653.203	56.33
653.533	56.36
653.863	56.42
654.193	56.42
654.523	56.47
654.853	56.55
655.183	56.55
655.513	56.47
655.843	56.52
656.172	56.54
656.502	56.46
656.832	56.4
657.162	56.38
657.491	56.36
657.821	56.45
658.15	56.48
658.48	56.65
658.809	56.64
659.139	56.64
659.468	56.69
659.798	56.68
660.127	56.62
660.456	56.62
660.785	56.57
661.115	56.61
661.444	56.61
661.773	56.51
662.102	56.47
662.431	56.63
662.76	56.61
663.089	56.69
663.418	56.71
663.747	56.77
664.076	56.74
664.404	56.69
