Data from BU26843_Reflection_00010.txt Node
Date: Mon Nov 18 16:31:14 EST 2019
User: vgr7
Spectrometer: USB2G7710
Scans to average: 3
Trigger mode: 4
Integration Time (sec): 2.000000E-2
Electric dark correction enabled: true
Boxcar width: 10
XAxis mode: Wavelengths
Number of Pixels in Spectrum: 2048
>>>>>Begin Spectral Data<<<<<
177.721	27.57
178.105	-198.25
178.488	275.44
178.871	128.02
179.254	77.98
179.636	159.9
180.019	79.58
180.402	151.72
180.785	-18.23
181.168	-90.25
181.55	-51.82
181.933	56.55
182.316	36.51
182.698	20.27
183.081	9.18
183.463	-289.44
183.846	-383.09
184.228	-340.13
184.611	-118.67
184.993	276.25
185.376	82.1
185.758	-40.2
186.14	-59.8
186.522	-100.24
186.904	-101.11
187.287	-327.04
187.669	-131.94
188.051	-164.12
188.433	-31.76
188.815	-33.08
189.197	-55.49
189.579	-26.64
189.961	-35.72
190.342	-48.94
190.724	-20.6
191.106	-27.06
191.488	-35.94
191.869	-23.2
192.251	-28.57
192.633	-21.25
193.014	-32.52
193.396	-41.78
193.777	-25.42
194.159	-34.48
194.54	-12.62
194.922	16.57
195.303	42.95
195.684	35.94
196.065	61.36
196.447	45.85
196.828	53.24
197.209	60.45
197.59	46.47
197.971	17.63
198.352	39.87
198.733	12.08
199.114	24.75
199.495	24.07
199.876	25.08
200.257	19.35
200.638	28.72
201.018	39.39
201.399	67.83
201.78	35.01
202.16	25.66
202.541	4.76
202.922	-41.83
203.302	-39.5
203.683	-27.16
204.063	-45.26
204.444	-36.11
204.824	-48.77
205.204	-35.28
205.585	-33.54
205.965	-33.33
206.345	-101.45
206.725	-154.36
207.106	-183.9
207.486	-149.75
207.866	-61.12
208.246	-29.99
208.626	-29.06
209.006	-27.74
209.386	-70.51
209.766	-51.81
210.145	-23.7
210.525	-17.08
210.905	-4.64
211.285	-7.27
211.664	2.64
212.044	2.2
212.424	3.02
212.803	2.42
213.183	7.47
213.562	8.12
213.942	17.68
214.321	29.06
214.701	33.94
215.08	26.81
215.459	28.34
215.838	13.61
216.218	19.13
216.597	26.81
216.976	31.77
217.355	36.92
217.734	37.17
218.113	34.53
218.492	32.71
218.871	39.16
219.25	33.91
219.629	25.52
220.008	13.85
220.387	18.59
220.766	13.65
221.144	-5.91
221.523	-11.68
221.902	-19.89
222.28	-25.03
222.659	-24.41
223.037	-11.4
223.416	-8.2
223.794	-3.21
224.173	-7.62
224.551	-7.08
224.929	-3.59
225.308	1.73
225.686	-1.6
226.064	5.38
226.442	8.62
226.821	10.29
227.199	9.36
227.577	7.81
227.955	10.17
228.333	7.9
228.711	8.05
229.089	10.84
229.467	10.93
229.845	8.7
230.222	6.2
230.6	6.17
230.978	5.36
231.356	5.65
231.733	6.86
232.111	5.22
232.488	4.77
232.866	3.21
233.243	3.95
233.621	4.31
233.998	4.01
234.376	2.75
234.753	1.95
235.13	2.26
235.508	3.48
235.885	2.83
236.262	2.68
236.639	4.13
237.016	5.33
237.393	5.84
237.77	6.28
238.147	6.62
238.524	7.32
238.901	7.8
239.278	7.6
239.655	7.61
240.032	7.81
240.409	7.6
240.785	7.27
241.162	6.92
241.539	7.15
241.915	7.42
242.292	7.24
242.668	7.03
243.045	7.34
243.421	6.85
243.798	6.36
244.174	6.39
244.551	6.03
244.927	5.59
245.303	5.56
245.679	5.38
246.056	5.26
246.432	5.07
246.808	5
247.184	4.63
247.56	4.36
247.936	4.18
248.312	4.18
248.688	4.18
249.064	4.08
249.44	4.21
249.815	3.94
250.191	4.06
250.567	4.07
250.943	3.98
251.318	4.24
251.694	4.45
252.069	4.31
252.445	4.41
252.82	4.63
253.196	4.4
253.571	4.62
253.947	4.62
254.322	4.56
254.697	4.55
255.073	4.74
255.448	4.81
255.823	4.97
256.198	4.84
256.573	4.78
256.948	4.82
257.323	4.73
257.698	4.72
258.073	4.45
258.448	4.2
258.823	4.16
259.198	4.2
259.573	4.34
259.948	4.23
260.322	4.14
260.697	4.03
261.072	3.95
261.446	3.9
261.821	3.83
262.195	3.92
262.57	3.85
262.944	3.84
263.319	3.62
263.693	3.5
264.067	3.58
264.442	3.7
264.816	3.69
265.19	3.55
265.564	3.49
265.938	3.7
266.313	3.8
266.687	3.87
267.061	3.75
267.435	3.65
267.809	3.98
268.183	4.1
268.556	4.14
268.93	4.36
269.304	4.33
269.678	4.35
270.051	4.32
270.425	4.4
270.799	4.4
271.172	4.73
271.546	4.83
271.919	4.77
272.293	4.72
272.666	4.85
273.04	4.79
273.413	4.87
273.787	4.7
274.16	4.8
274.533	4.68
274.906	4.54
275.279	4.49
275.653	4.24
276.026	4.08
276.399	4.04
276.772	4.21
277.145	4.23
277.518	4.33
277.891	4.36
278.263	4.22
278.636	4.23
279.009	4.03
279.382	3.99
279.755	3.83
280.127	3.81
280.5	3.59
280.872	3.82
281.245	3.64
281.617	3.71
281.99	3.65
282.362	3.72
282.735	3.57
283.107	3.61
283.479	3.72
283.852	3.82
284.224	3.85
284.596	3.68
284.968	3.75
285.34	3.64
285.713	3.48
286.085	3.61
286.457	3.62
286.829	3.69
287.201	3.7
287.572	3.68
287.944	3.67
288.316	3.73
288.688	3.64
289.06	3.63
289.431	3.68
289.803	3.74
290.175	3.74
290.546	3.94
290.918	4.01
291.289	4.06
291.661	4.14
292.032	4.18
292.403	4.2
292.775	4.25
293.146	4.31
293.517	4.4
293.889	4.39
294.26	4.49
294.631	4.6
295.002	4.7
295.373	4.93
295.744	4.95
296.115	4.93
296.486	4.78
296.857	4.89
297.228	4.84
297.599	4.72
297.97	4.69
298.34	4.74
298.711	4.9
299.082	4.81
299.452	4.83
299.823	4.92
300.194	4.99
300.564	4.91
300.935	5.03
301.305	4.9
301.676	4.94
302.046	4.88
302.416	5.02
302.787	4.79
303.157	4.79
303.527	4.82
303.897	4.91
304.267	5.16
304.637	5.2
305.008	5.43
305.378	5.73
305.748	5.87
306.117	5.91
306.487	5.84
306.857	6.01
307.227	6.08
307.597	6.04
307.967	6.01
308.336	6.08
308.706	6.1
309.076	6.37
309.445	6.35
309.815	6.36
310.184	6.26
310.554	6.63
310.923	6.58
311.293	6.65
311.662	6.59
312.031	6.5
312.401	6.49
312.77	6.59
313.139	6.51
313.508	6.51
313.877	6.59
314.246	6.53
314.616	6.58
314.985	6.59
315.353	6.63
315.722	6.75
316.091	6.86
316.46	6.86
316.829	6.84
317.198	6.97
317.567	6.98
317.935	7.09
318.304	6.91
318.672	7.01
319.041	7.17
319.41	7.39
319.778	7.43
320.147	7.56
320.515	7.44
320.883	7.42
321.252	7.59
321.62	7.68
321.988	7.73
322.357	7.64
322.725	7.55
323.093	7.59
323.461	7.61
323.829	7.59
324.197	7.74
324.565	7.82
324.933	7.81
325.301	7.95
325.669	7.94
326.037	7.98
326.405	7.88
326.772	7.92
327.14	8.09
327.508	8.11
327.875	8.06
328.243	8.15
328.61	8.15
328.978	8.21
329.346	8.24
329.713	8.33
330.08	8.38
330.448	8.45
330.815	8.47
331.182	8.37
331.55	8.38
331.917	8.38
332.284	8.49
332.651	8.46
333.018	8.55
333.385	8.52
333.752	8.58
334.119	8.77
334.486	8.69
334.853	8.62
335.22	8.71
335.587	8.79
335.954	8.64
336.32	8.67
336.687	8.62
337.054	8.63
337.42	8.58
337.787	8.66
338.153	8.66
338.52	8.59
338.886	8.68
339.253	8.61
339.619	8.63
339.986	8.66
340.352	8.78
340.718	8.81
341.084	8.84
341.451	8.95
341.817	8.96
342.183	9.03
342.549	9.03
342.915	9.18
343.281	9.26
343.647	9.27
344.013	9.38
344.379	9.32
344.745	9.32
345.11	9.34
345.476	9.27
345.842	9.3
346.208	9.46
346.573	9.55
346.939	9.66
347.304	9.67
347.67	9.54
348.035	9.43
348.401	9.39
348.766	9.29
349.132	9.2
349.497	9.22
349.862	9.19
350.228	9.1
350.593	8.93
350.958	8.89
351.323	9.02
351.688	8.99
352.053	9.07
352.418	9.07
352.783	9.05
353.148	9.12
353.513	9.14
353.878	9.08
354.243	9.01
354.608	9.01
354.972	8.99
355.337	9.05
355.702	9.1
356.066	9.05
356.431	9.03
356.795	9.04
357.16	8.94
357.524	8.87
357.889	8.88
358.253	8.95
358.618	8.99
358.982	8.9
359.346	8.8
359.71	8.79
360.075	8.66
360.439	8.73
360.803	8.65
361.167	8.61
361.531	8.58
361.895	8.5
362.259	8.47
362.623	8.42
362.987	8.34
363.351	8.34
363.714	8.32
364.078	8.39
364.442	8.35
364.806	8.4
365.169	8.39
365.533	8.33
365.896	8.27
366.26	8.17
366.623	8.17
366.987	8.17
367.35	8.13
367.714	8.22
368.077	8.1
368.44	8.1
368.803	8.03
369.167	7.92
369.53	7.89
369.893	7.87
370.256	7.82
370.619	7.81
370.982	7.68
371.345	7.64
371.708	7.6
372.071	7.56
372.434	7.51
372.797	7.46
373.159	7.44
373.522	7.42
373.885	7.4
374.247	7.31
374.61	7.3
374.973	7.21
375.335	7.08
375.698	6.99
376.06	6.91
376.423	6.93
376.785	6.95
377.147	7.04
377.51	6.9
377.872	6.84
378.234	6.79
378.596	6.8
378.958	6.67
379.321	6.56
379.683	6.53
380.045	6.41
380.407	6.33
380.769	6.26
381.13	6.19
381.492	6.1
381.854	6.09
382.216	6.05
382.578	5.99
382.939	5.94
383.301	5.92
383.663	5.84
384.024	5.73
384.386	5.67
384.747	5.6
385.109	5.61
385.47	5.58
385.832	5.54
386.193	5.49
386.554	5.51
386.916	5.51
387.277	5.44
387.638	5.42
387.999	5.44
388.36	5.46
388.721	5.47
389.082	5.49
389.443	5.41
389.804	5.37
390.165	5.33
390.526	5.29
390.887	5.28
391.248	5.35
391.609	5.37
391.969	5.39
392.33	5.35
392.691	5.33
393.051	5.29
393.412	5.28
393.772	5.24
394.133	5.23
394.493	5.16
394.854	5.14
395.214	5.11
395.574	5.06
395.935	5.02
396.295	4.98
396.655	4.92
397.015	4.96
397.376	4.91
397.736	4.96
398.096	4.96
398.456	4.94
398.816	4.88
399.176	4.84
399.535	4.78
399.895	4.74
400.255	4.72
400.615	4.67
400.975	4.65
401.334	4.66
401.694	4.63
402.054	4.59
402.413	4.59
402.773	4.55
403.132	4.53
403.492	4.53
403.851	4.5
404.211	4.47
404.57	4.42
404.929	4.42
405.288	4.36
405.648	4.32
406.007	4.3
406.366	4.26
406.725	4.26
407.084	4.25
407.443	4.24
407.802	4.23
408.161	4.25
408.52	4.22
408.879	4.16
409.238	4.14
409.596	4.17
409.955	4.16
410.314	4.2
410.673	4.17
411.031	4.1
411.39	4.05
411.748	4.02
412.107	4.01
412.465	4.01
412.824	4
413.182	3.99
413.54	3.96
413.899	3.97
414.257	3.95
414.615	3.93
414.974	3.9
415.332	3.86
415.69	3.84
416.048	3.86
416.406	3.89
416.764	3.86
417.122	3.87
417.48	3.84
417.838	3.8
418.195	3.79
418.553	3.79
418.911	3.81
419.269	3.81
419.626	3.8
419.984	3.78
420.342	3.78
420.699	3.79
421.057	3.81
421.414	3.78
421.772	3.76
422.129	3.76
422.486	3.75
422.844	3.76
423.201	3.74
423.558	3.72
423.915	3.7
424.273	3.7
424.63	3.68
424.987	3.69
425.344	3.69
425.701	3.69
426.058	3.68
426.415	3.65
426.772	3.65
427.128	3.61
427.485	3.62
427.842	3.59
428.199	3.59
428.555	3.56
428.912	3.58
429.269	3.58
429.625	3.55
429.982	3.54
430.338	3.54
430.695	3.57
431.051	3.53
431.407	3.52
431.764	3.52
432.12	3.52
432.476	3.49
432.832	3.48
433.189	3.5
433.545	3.5
433.901	3.53
434.257	3.52
434.613	3.54
434.969	3.52
435.325	3.54
435.681	3.53
436.036	3.53
436.392	3.53
436.748	3.51
437.104	3.53
437.459	3.53
437.815	3.54
438.171	3.52
438.526	3.55
438.882	3.56
439.237	3.57
439.593	3.58
439.948	3.59
440.304	3.59
440.659	3.59
441.014	3.58
441.369	3.57
441.725	3.56
442.08	3.56
442.435	3.56
442.79	3.55
443.145	3.56
443.5	3.54
443.855	3.53
444.21	3.55
444.565	3.55
444.92	3.55
445.275	3.53
445.629	3.54
445.984	3.53
446.339	3.53
446.693	3.51
447.048	3.5
447.403	3.48
447.757	3.47
448.112	3.45
448.466	3.44
448.82	3.47
449.175	3.47
449.529	3.47
449.883	3.45
450.238	3.45
450.592	3.43
450.946	3.42
451.3	3.43
451.654	3.42
452.008	3.41
452.362	3.41
452.716	3.41
453.07	3.4
453.424	3.39
453.778	3.37
454.132	3.38
454.486	3.38
454.839	3.41
455.193	3.4
455.547	3.41
455.9	3.41
456.254	3.39
456.607	3.4
456.961	3.38
457.314	3.4
457.668	3.39
458.021	3.38
458.375	3.4
458.728	3.39
459.081	3.37
459.434	3.37
459.787	3.38
460.141	3.39
460.494	3.38
460.847	3.39
461.2	3.39
461.553	3.41
461.906	3.4
462.259	3.4
462.611	3.43
462.964	3.46
463.317	3.45
463.67	3.48
464.022	3.46
464.375	3.46
464.728	3.47
465.08	3.48
465.433	3.5
465.785	3.49
466.138	3.51
466.49	3.53
466.843	3.55
467.195	3.56
467.547	3.56
467.899	3.58
468.252	3.58
468.604	3.61
468.956	3.61
469.308	3.62
469.66	3.61
470.012	3.61
470.364	3.59
470.716	3.6
471.068	3.61
471.42	3.62
471.772	3.65
472.123	3.7
472.475	3.72
472.827	3.73
473.178	3.76
473.53	3.76
473.882	3.76
474.233	3.77
474.585	3.74
474.936	3.73
475.288	3.73
475.639	3.75
475.99	3.75
476.342	3.74
476.693	3.73
477.044	3.75
477.395	3.73
477.746	3.74
478.097	3.73
478.448	3.71
478.8	3.73
479.15	3.69
479.501	3.67
479.852	3.66
480.203	3.65
480.554	3.65
480.905	3.65
481.255	3.65
481.606	3.65
481.957	3.66
482.307	3.65
482.658	3.65
483.009	3.65
483.359	3.64
483.709	3.65
484.06	3.64
484.41	3.64
484.761	3.64
485.111	3.63
485.461	3.63
485.811	3.64
486.162	3.62
486.512	3.63
486.862	3.63
487.212	3.62
487.562	3.62
487.912	3.62
488.262	3.61
488.612	3.61
488.961	3.6
489.311	3.6
489.661	3.61
490.011	3.61
490.36	3.6
490.71	3.6
491.06	3.6
491.409	3.6
491.759	3.6
492.108	3.6
492.458	3.61
492.807	3.61
493.157	3.61
493.506	3.64
493.855	3.64
494.204	3.66
494.554	3.68
494.903	3.69
495.252	3.7
495.601	3.73
495.95	3.76
496.299	3.77
496.648	3.77
496.997	3.78
497.346	3.83
497.695	3.88
498.043	3.9
498.392	3.92
498.741	3.95
499.09	4
499.438	4.02
499.787	4.06
500.135	4.11
500.484	4.14
500.832	4.17
501.181	4.22
501.529	4.25
501.878	4.31
502.226	4.34
502.574	4.38
502.923	4.41
503.271	4.45
503.619	4.51
503.967	4.6
504.315	4.65
504.663	4.69
505.011	4.75
505.359	4.81
505.707	4.88
506.055	4.97
506.403	5.05
506.751	5.14
507.098	5.2
507.446	5.28
507.794	5.35
508.141	5.43
508.489	5.52
508.837	5.61
509.184	5.68
509.531	5.79
509.879	5.89
510.226	5.99
510.574	6.07
510.921	6.15
511.268	6.19
511.616	6.28
511.963	6.38
512.31	6.47
512.657	6.58
513.004	6.68
513.351	6.78
513.698	6.87
514.045	6.98
514.392	7.1
514.739	7.21
515.086	7.36
515.432	7.46
515.779	7.56
516.126	7.67
516.473	7.78
516.819	7.84
517.166	7.94
517.512	8.04
517.859	8.15
518.205	8.25
518.552	8.35
518.898	8.45
519.245	8.53
519.591	8.63
519.937	8.7
520.283	8.8
520.629	8.91
520.976	9.01
521.322	9.11
521.668	9.23
522.014	9.35
522.36	9.44
522.706	9.58
523.052	9.74
523.398	9.9
523.743	10.07
524.089	10.27
524.435	10.42
524.781	10.55
525.126	10.7
525.472	10.84
525.817	10.98
526.163	11.11
526.509	11.24
526.854	11.34
527.199	11.46
527.545	11.57
527.89	11.68
528.235	11.78
528.581	11.89
528.926	12.01
529.271	12.13
529.616	12.24
529.961	12.35
530.306	12.47
530.651	12.6
530.996	12.74
531.341	12.87
531.686	13.03
532.031	13.2
532.376	13.35
532.721	13.52
533.065	13.7
533.41	13.87
533.755	14.05
534.099	14.25
534.444	14.44
534.788	14.64
535.133	14.83
535.477	15.05
535.822	15.28
536.166	15.51
536.51	15.79
536.855	16.09
537.199	16.4
537.543	16.7
537.887	17
538.231	17.31
538.576	17.61
538.92	17.92
539.264	18.24
539.608	18.51
539.951	18.78
540.295	19.01
540.639	19.29
540.983	19.56
541.327	19.79
541.671	20.03
542.014	20.27
542.358	20.53
542.701	20.8
543.045	21.06
543.389	21.28
543.732	21.54
544.075	21.82
544.419	22.1
544.762	22.38
545.105	22.65
545.449	22.98
545.792	23.3
546.135	23.65
546.478	24
546.821	24.4
547.165	24.79
547.508	25.2
547.851	25.58
548.194	25.94
548.536	26.39
548.879	26.83
549.222	27.22
549.565	27.6
549.908	28
550.25	28.41
550.593	28.85
550.936	29.2
551.278	29.56
551.621	29.93
551.963	30.3
552.306	30.71
552.648	31.08
552.991	31.48
553.333	31.82
553.675	32.16
554.017	32.47
554.36	32.84
554.702	33.21
555.044	33.54
555.386	33.96
555.728	34.25
556.07	34.61
556.412	34.99
556.754	35.33
557.096	35.68
557.438	36.04
557.78	36.38
558.121	36.78
558.463	37.22
558.805	37.59
559.147	37.97
559.488	38.29
559.83	38.62
560.171	38.94
560.513	39.25
560.854	39.57
561.196	39.91
561.537	40.18
561.878	40.47
562.22	40.82
562.561	41.04
562.902	41.35
563.243	41.6
563.584	41.85
563.925	42.14
564.266	42.37
564.607	42.6
564.948	42.89
565.289	43.12
565.63	43.33
565.971	43.54
566.312	43.75
566.653	43.97
566.993	44.22
567.334	44.5
567.675	44.77
568.015	44.98
568.356	45.21
568.696	45.46
569.037	45.69
569.377	45.9
569.718	46.14
570.058	46.37
570.398	46.68
570.739	46.9
571.079	47.13
571.419	47.38
571.759	47.55
572.099	47.77
572.439	47.97
572.779	48.14
573.119	48.34
573.459	48.58
573.799	48.83
574.139	49.01
574.479	49.13
574.819	49.28
575.158	49.45
575.498	49.63
575.838	49.79
576.177	49.94
576.517	50.08
576.856	50.21
577.196	50.36
577.535	50.46
577.875	50.67
578.214	50.86
578.553	51.02
578.893	51.27
579.232	51.47
579.571	51.58
579.91	51.71
580.25	51.89
580.589	52
580.928	52.15
581.267	52.29
581.606	52.43
581.945	52.52
582.283	52.73
582.622	52.81
582.961	52.95
583.3	53.14
583.639	53.31
583.977	53.45
584.316	53.61
584.654	53.79
584.993	53.93
585.332	54.01
585.67	54.17
586.008	54.24
586.347	54.21
586.685	54.42
587.024	54.63
587.362	54.77
587.7	54.94
588.038	55.04
588.376	55.16
588.715	55.28
589.053	55.4
589.391	55.54
589.729	55.71
590.067	55.87
590.404	55.96
590.742	56.07
591.08	56.16
591.418	56.27
591.756	56.29
592.093	56.34
592.431	56.47
592.769	56.59
593.106	56.64
593.444	56.79
593.781	56.77
594.119	56.87
594.456	56.93
594.793	57.01
595.131	57.07
595.468	57.09
595.805	57.13
596.143	57.24
596.48	57.2
596.817	57.28
597.154	57.31
597.491	57.39
597.828	57.43
598.165	57.52
598.502	57.55
598.839	57.7
599.176	57.8
599.512	57.77
599.849	57.86
600.186	58.02
600.523	58.08
600.859	58.17
601.196	58.15
601.532	58.21
601.869	58.26
602.205	58.28
602.542	58.37
602.878	58.46
603.215	58.54
603.551	58.64
603.887	58.65
604.223	58.71
604.56	58.76
604.896	58.78
605.232	58.92
605.568	59.07
605.904	59.05
606.24	59.08
606.576	59.26
606.912	59.2
607.248	59.21
607.583	59.31
607.919	59.47
608.255	59.57
608.591	59.63
608.926	59.71
609.262	59.8
609.597	59.82
609.933	59.88
610.268	59.95
610.604	60.06
610.939	60.11
611.275	60.14
611.61	60.16
611.945	60.31
612.281	60.29
612.616	60.29
612.951	60.37
613.286	60.45
613.621	60.41
613.956	60.62
614.291	60.7
614.626	60.73
614.961	60.7
615.296	60.81
615.631	60.84
615.966	60.86
616.3	60.89
616.635	61.04
616.97	61.13
617.304	61.1
617.639	61.08
617.973	61.15
618.308	61.3
618.642	61.43
618.977	61.42
619.311	61.38
619.646	61.37
619.98	61.38
620.314	61.34
620.648	61.49
620.983	61.54
621.317	61.73
621.651	61.89
621.985	61.98
622.319	62
622.653	62.04
622.987	62.05
623.321	62.12
623.655	62.15
623.988	62.21
624.322	62.31
624.656	62.43
624.99	62.39
625.323	62.26
625.657	62.27
625.99	62.35
626.324	62.35
626.657	62.4
626.991	62.5
627.324	62.63
627.658	62.58
627.991	62.58
628.324	62.46
628.657	62.33
628.991	62.39
629.324	62.46
629.657	62.5
629.99	62.43
630.323	62.43
630.656	62.34
630.989	62.29
631.322	62.22
631.655	62.15
631.987	62.3
632.32	62.41
632.653	62.42
632.986	62.41
633.318	62.52
633.651	62.55
633.984	62.53
634.316	62.46
634.649	62.5
634.981	62.48
635.313	62.49
635.646	62.57
635.978	62.61
636.31	62.45
636.643	62.37
636.975	62.57
637.307	62.59
637.639	62.74
637.971	62.73
638.303	62.83
638.635	62.81
638.967	62.71
639.299	62.7
639.631	62.69
639.963	62.62
640.295	62.71
640.626	62.82
640.958	62.79
641.29	62.92
641.621	62.84
641.953	62.88
642.285	62.95
642.616	63.03
642.948	63.03
643.279	63.12
643.61	63.29
643.942	63.29
644.273	63.36
644.604	63.27
644.936	63.29
645.267	63.3
645.598	63.42
645.929	63.34
646.26	63.39
646.591	63.53
646.922	63.5
647.253	63.47
647.584	63.41
647.915	63.47
648.245	63.46
648.576	63.63
648.907	63.57
649.238	63.5
649.568	63.45
649.899	63.49
650.229	63.58
650.56	63.56
650.89	63.58
651.221	63.6
651.551	63.64
651.882	63.75
652.212	63.87
652.542	63.84
652.872	64.01
653.203	63.98
653.533	64
653.863	64.15
654.193	64.12
654.523	64.17
654.853	64.09
655.183	64.09
655.513	63.97
655.843	64.07
656.172	64.16
656.502	64.27
656.832	64.27
657.162	64.29
657.491	64.36
657.821	64.36
658.15	64.29
658.48	64.29
658.809	64.21
659.139	64.08
659.468	64.11
659.798	64.12
660.127	64.14
660.456	64.04
660.785	64
661.115	64.01
661.444	63.95
661.773	64.13
662.102	64.23
662.431	64.38
662.76	64.48
663.089	64.51
663.418	64.58
663.747	64.56
664.076	64.54
664.404	64.48
664.733	64.55
665.062	64.66
665.39	64.65
665.719	64.65
666.048	64.69
666.376	64.74
666.705	64.81
667.033	64.74
667.362	64.81
667.69	64.88
668.018	64.98
668.347	65.07
668.675	65.15
669.003	65.05
