Data from BU26941_Reflection_00005.txt Node
Date: Tue Nov 19 11:03:28 EST 2019
User: vgr7
Spectrometer: USB2G7710
Scans to average: 3
Trigger mode: 4
Integration Time (sec): 2.000000E-2
Electric dark correction enabled: true
Boxcar width: 10
XAxis mode: Wavelengths
Number of Pixels in Spectrum: 2048
>>>>>Begin Spectral Data<<<<<
177.721	32.93
178.105	54.31
178.488	60.23
178.871	95.95
179.254	95.08
179.636	162.7
180.019	127.42
180.402	480
180.785	-347.17
181.168	-14900
181.55	259.9
181.933	543.66
182.316	-91.73
182.698	38.02
183.081	59.46
183.463	-106.59
183.846	-89.08
184.228	681.63
184.611	42.51
184.993	5.97
185.376	-116.76
185.758	44.72
186.14	88.61
186.522	78.94
186.904	106.77
187.287	119.59
187.669	113.04
188.051	108.84
188.433	104.18
188.815	-5.85
189.197	-14.49
189.579	-86.23
189.961	-150.71
190.342	-63.7
190.724	9.92
191.106	-17.25
191.488	65.3
191.869	92.09
192.251	135.01
192.633	151.72
193.014	146.74
193.396	206.23
193.777	172.94
194.159	145.24
194.54	147.57
194.922	279.43
195.303	221.62
195.684	187.03
196.065	85.8
196.447	11.23
196.828	33.99
197.209	-13.27
197.59	18.64
197.971	32.21
198.352	43.12
198.733	11.95
199.114	43.19
199.495	41.04
199.876	-25.15
200.257	-30.36
200.638	-26.83
201.018	-20.95
201.399	-57.55
201.78	-59.9
202.16	-57.95
202.541	-118.78
202.922	-109.65
203.302	-98.4
203.683	-105.53
204.063	-115.58
204.444	-106.02
204.824	-143.31
205.204	-55.33
205.585	-136.55
205.965	-324.01
206.345	-582.88
206.725	-129.78
207.106	-166.31
207.486	-132.17
207.866	-130.51
208.246	-79.76
208.626	-213.95
209.006	-210.47
209.386	-129.12
209.766	-395.92
210.145	-208.72
210.525	-208.96
210.905	-123.66
211.285	-193.73
211.664	-92.54
212.044	-31.36
212.424	-46.78
212.803	-71.09
213.183	-81.32
213.562	-47.76
213.942	0.53
214.321	36.26
214.701	-305.11
215.08	-355.06
215.459	-165.27
215.838	-190.87
216.218	-350.74
216.597	-523.6
216.976	246.62
217.355	16600
217.734	-108.13
218.113	-182.18
218.492	-448.78
218.871	-138.78
219.25	-41.11
219.629	-123.83
220.008	-114.29
220.387	-23.85
220.766	16.05
221.144	-10.15
221.523	22.18
221.902	29.67
222.28	40
222.659	66.85
223.037	45.34
223.416	39.27
223.794	40.59
224.173	46.61
224.551	45.27
224.929	33.54
225.308	38.19
225.686	48.51
226.064	42.08
226.442	41.34
226.821	38.99
227.199	31.5
227.577	33.1
227.955	27.43
228.333	19.86
228.711	11.59
229.089	12.06
229.467	8.52
229.845	8.97
230.222	7.65
230.6	6.44
230.978	9.15
231.356	9.49
231.733	8.69
232.111	6.92
232.488	6.07
232.866	7.53
233.243	5.33
233.621	3.63
233.998	4.21
234.376	3
234.753	2.19
235.13	2.69
235.508	0.35
235.885	-0.32
236.262	1.6
236.639	1.99
237.016	2.74
237.393	3.57
237.77	2.48
238.147	1.85
238.524	1.46
238.901	2.07
239.278	1.64
239.655	2.15
240.032	2.28
240.409	1.96
240.785	1.95
241.162	1.8
241.539	2.02
241.915	1.86
242.292	2.28
242.668	2.97
243.045	3.7
243.421	4.36
243.798	4.29
244.174	4.35
244.551	4.53
244.927	4.1
245.303	3.97
245.679	4.01
246.056	4.27
246.432	4.2
246.808	4.04
247.184	4.05
247.56	3.96
247.936	4.12
248.312	4.41
248.688	4.13
249.064	4.3
249.44	4.15
249.815	4.13
250.191	3.99
250.567	3.83
250.943	3.41
251.318	3.11
251.694	3.09
252.069	2.99
252.445	3.04
252.82	3.47
253.196	3.57
253.571	3.86
253.947	3.9
254.322	3.77
254.697	3.73
255.073	3.91
255.448	3.99
255.823	3.89
256.198	3.78
256.573	3.82
256.948	3.82
257.323	3.8
257.698	4.05
258.073	3.85
258.448	3.78
258.823	3.72
259.198	3.82
259.573	3.73
259.948	3.7
260.322	3.53
260.697	3.39
261.072	3.44
261.446	3.43
261.821	3.24
262.195	3.2
262.57	3.33
262.944	3.38
263.319	3.33
263.693	3.17
264.067	3.07
264.442	3.18
264.816	3.17
265.19	3.31
265.564	3.03
265.938	3.16
266.313	3.19
266.687	3.27
267.061	3.25
267.435	3.4
267.809	3.37
268.183	3.37
268.556	3.23
268.93	3.13
269.304	3
269.678	3.13
270.051	3.16
270.425	3.06
270.799	2.92
271.172	2.88
271.546	3.07
271.919	3.07
272.293	2.95
272.666	2.98
273.04	2.95
273.413	3.01
273.787	3
274.16	2.88
274.533	2.92
274.906	2.87
275.279	2.82
275.653	2.78
276.026	2.95
276.399	3.22
276.772	3.22
277.145	3.2
277.518	3.19
277.891	3.22
278.263	3.21
278.636	3.27
279.009	3.48
279.382	3.2
279.755	3.42
280.127	3.39
280.5	3.38
280.872	3.4
281.245	3.5
281.617	3.56
281.99	3.67
282.362	3.65
282.735	3.55
283.107	3.45
283.479	3.44
283.852	3.44
284.224	3.32
284.596	3.43
284.968	3.33
285.34	3.41
285.713	3.46
286.085	3.41
286.457	3.48
286.829	3.3
287.201	3.41
287.572	3.35
287.944	3.52
288.316	3.52
288.688	3.49
289.06	3.41
289.431	3.37
289.803	3.36
290.175	3.33
290.546	3.39
290.918	3.43
291.289	3.56
291.661	3.6
292.032	3.59
292.403	3.5
292.775	3.68
293.146	3.69
293.517	3.66
293.889	3.67
294.26	3.58
294.631	3.73
295.002	3.74
295.373	3.59
295.744	3.48
296.115	3.29
296.486	3.33
296.857	3.37
297.228	3.28
297.599	3.28
297.97	3.43
298.34	3.43
298.711	3.51
299.082	3.37
299.452	3.39
299.823	3.36
300.194	3.33
300.564	3.17
300.935	3.09
301.305	2.94
301.676	2.89
302.046	2.92
302.416	2.96
302.787	2.97
303.157	3
303.527	3.02
303.897	3.11
304.267	3.04
304.637	2.97
305.008	3.22
305.378	3.26
305.748	3.11
306.117	3.1
306.487	3.09
306.857	3.14
307.227	3.07
307.597	3.04
307.967	3.07
308.336	3.2
308.706	3.14
309.076	3.28
309.445	3.43
309.815	3.36
310.184	3.3
310.554	3.28
310.923	3.21
311.293	3.21
311.662	3.18
312.031	3.18
312.401	3.17
312.77	3.06
313.139	2.96
313.508	2.92
313.877	2.92
314.246	2.92
314.616	2.91
314.985	2.8
315.353	2.87
315.722	2.98
316.091	2.97
316.46	3.05
316.829	3.18
317.198	3.11
317.567	3.25
317.935	3.27
318.304	3.39
318.672	3.4
319.041	3.3
319.41	3.31
319.778	3.26
320.147	3.26
320.515	3.22
320.883	3.34
321.252	3.49
321.62	3.61
321.988	3.58
322.357	3.61
322.725	3.64
323.093	3.55
323.461	3.34
323.829	3.27
324.197	3.19
324.565	3.13
324.933	3.23
325.301	3.09
325.669	2.93
326.037	2.86
326.405	3.02
326.772	3.13
327.14	3.23
327.508	3.23
327.875	3.31
328.243	3.24
328.61	3.14
328.978	3.01
329.346	2.97
329.713	2.93
330.08	3.04
330.448	3.06
330.815	3.02
331.182	3
331.55	3.12
331.917	3.11
332.284	3.13
332.651	2.96
333.018	2.97
333.385	3.02
333.752	2.87
334.119	2.86
334.486	2.87
334.853	2.92
335.22	3.03
335.587	2.93
335.954	3.02
336.32	3.08
336.687	3.22
337.054	3.21
337.42	3.23
337.787	3.06
338.153	3.1
338.52	3.19
338.886	3.28
339.253	3.21
339.619	3.27
339.986	3.28
340.352	3.42
340.718	3.45
341.084	3.5
341.451	3.64
341.817	3.6
342.183	3.53
342.549	3.49
342.915	3.42
343.281	3.47
343.647	3.49
344.013	3.53
344.379	3.43
344.745	3.53
345.11	3.6
345.476	3.7
345.842	3.6
346.208	3.6
346.573	3.62
346.939	3.56
347.304	3.6
347.67	3.6
348.035	3.46
348.401	3.51
348.766	3.36
349.132	3.35
349.497	3.4
349.862	3.35
350.228	3.33
350.593	3.42
350.958	3.55
351.323	3.5
351.688	3.52
352.053	3.66
352.418	3.54
352.783	3.44
353.148	3.45
353.513	3.48
353.878	3.45
354.243	3.35
354.608	3.5
354.972	3.49
355.337	3.4
355.702	3.43
356.066	3.45
356.431	3.54
356.795	3.58
357.16	3.5
357.524	3.55
357.889	3.61
358.253	3.52
358.618	3.44
358.982	3.44
359.346	3.42
359.71	3.35
360.075	3.4
360.439	3.45
360.803	3.4
361.167	3.43
361.531	3.5
361.895	3.53
362.259	3.48
362.623	3.5
362.987	3.54
363.351	3.54
363.714	3.55
364.078	3.56
364.442	3.5
364.806	3.54
365.169	3.52
365.533	3.45
365.896	3.47
366.26	3.42
366.623	3.44
366.987	3.37
367.35	3.35
367.714	3.36
368.077	3.34
368.44	3.34
368.803	3.24
369.167	3.15
369.53	3.18
369.893	3.17
370.256	3.16
370.619	3.17
370.982	3.16
371.345	3.12
371.708	3.07
372.071	3.06
372.434	3.03
372.797	3.1
373.159	3.1
373.522	3.12
373.885	3.17
374.247	3.17
374.61	3.25
374.973	3.26
375.335	3.26
375.698	3.26
376.06	3.22
376.423	3.27
376.785	3.3
377.147	3.3
377.51	3.24
377.872	3.2
378.234	3.13
378.596	3.16
378.958	3.13
379.321	3.16
379.683	3.16
380.045	3.19
380.407	3.14
380.769	3.13
381.13	3.13
381.492	3.1
381.854	3.09
382.216	3.08
382.578	3.08
382.939	3.06
383.301	3.05
383.663	3.1
384.024	3.1
384.386	3.1
384.747	3.06
385.109	3.09
385.47	3.08
385.832	3.12
386.193	3.09
386.554	3.07
386.916	3.05
387.277	3.02
387.638	3
387.999	3.01
388.36	3.01
388.721	3.02
389.082	3.06
389.443	3.11
389.804	3.07
390.165	3.1
390.526	3.09
390.887	3.08
391.248	3.04
391.609	3.07
391.969	3.06
392.33	3.06
392.691	3.07
393.051	3.09
393.412	3.1
393.772	3.18
394.133	3.2
394.493	3.17
394.854	3.23
395.214	3.27
395.574	3.27
395.935	3.29
396.295	3.27
396.655	3.24
397.015	3.19
397.376	3.23
397.736	3.18
398.096	3.17
398.456	3.17
398.816	3.21
399.176	3.17
399.535	3.14
399.895	3.15
400.255	3.16
400.615	3.13
400.975	3.12
401.334	3.05
401.694	3.05
402.054	3.09
402.413	3.06
402.773	3.02
403.132	3.01
403.492	3.01
403.851	3.02
404.211	3.01
404.57	3.03
404.929	3.01
405.288	3.04
405.648	3.07
406.007	3.07
406.366	3.05
406.725	3.08
407.084	3.1
407.443	3.11
407.802	3.06
408.161	3.1
408.52	3.08
408.879	3.09
409.238	3.1
409.596	3.11
409.955	3.11
410.314	3.13
410.673	3.14
411.031	3.13
411.39	3.13
411.748	3.14
412.107	3.14
412.465	3.13
412.824	3.12
413.182	3.1
413.54	3.11
413.899	3.11
414.257	3.1
414.615	3.11
414.974	3.1
415.332	3.13
415.69	3.1
416.048	3.12
416.406	3.11
416.764	3.12
417.122	3.11
417.48	3.11
417.838	3.11
418.195	3.12
418.553	3.11
418.911	3.1
419.269	3.1
419.626	3.08
419.984	3.08
420.342	3.09
420.699	3.08
421.057	3.08
421.414	3.09
421.772	3.09
422.129	3.08
422.486	3.1
422.844	3.1
423.201	3.11
423.558	3.11
423.915	3.12
424.273	3.1
424.63	3.11
424.987	3.12
425.344	3.11
425.701	3.1
426.058	3.1
426.415	3.1
426.772	3.09
427.128	3.1
427.485	3.1
427.842	3.09
428.199	3.09
428.555	3.09
428.912	3.09
429.269	3.08
429.625	3.06
429.982	3.05
430.338	3.03
430.695	3.03
431.051	3.04
431.407	3.03
431.764	3.03
432.12	3.02
432.476	3
432.832	3
433.189	2.99
433.545	2.99
433.901	3
434.257	3
434.613	3.01
434.969	3.02
435.325	3.04
435.681	3.04
436.036	3.04
436.392	3.04
436.748	3.04
437.104	3.06
437.459	3.04
437.815	3.05
438.171	3.06
438.526	3.05
438.882	3.07
439.237	3.07
439.593	3.08
439.948	3.08
440.304	3.06
440.659	3.09
441.014	3.09
441.369	3.1
441.725	3.11
442.08	3.09
442.435	3.1
442.79	3.09
443.145	3.09
443.5	3.09
443.855	3.09
444.21	3.09
444.565	3.1
444.92	3.11
445.275	3.12
445.629	3.12
445.984	3.13
446.339	3.14
446.693	3.14
447.048	3.11
447.403	3.11
447.757	3.12
448.112	3.11
448.466	3.12
448.82	3.1
449.175	3.11
449.529	3.12
449.883	3.11
450.238	3.11
450.592	3.11
450.946	3.12
451.3	3.1
451.654	3.09
452.008	3.1
452.362	3.08
452.716	3.06
453.07	3.04
453.424	3.05
453.778	3.03
454.132	3.02
454.486	3.04
454.839	3.04
455.193	3.05
455.547	3.06
455.9	3.08
456.254	3.09
456.607	3.09
456.961	3.09
457.314	3.08
457.668	3.09
458.021	3.09
458.375	3.09
458.728	3.1
459.081	3.12
459.434	3.12
459.787	3.13
460.141	3.15
460.494	3.16
460.847	3.15
461.2	3.15
461.553	3.17
461.906	3.17
462.259	3.17
462.611	3.15
462.964	3.15
463.317	3.14
463.67	3.15
464.022	3.14
464.375	3.11
464.728	3.11
465.08	3.1
465.433	3.12
465.785	3.12
466.138	3.12
466.49	3.1
466.843	3.1
467.195	3.11
467.547	3.11
467.899	3.1
468.252	3.12
468.604	3.12
468.956	3.12
469.308	3.12
469.66	3.14
470.012	3.15
470.364	3.15
470.716	3.14
471.068	3.13
471.42	3.15
471.772	3.18
472.123	3.2
472.475	3.2
472.827	3.18
473.178	3.19
473.53	3.19
473.882	3.17
474.233	3.18
474.585	3.18
474.936	3.16
475.288	3.15
475.639	3.15
475.99	3.16
476.342	3.16
476.693	3.17
477.044	3.16
477.395	3.16
477.746	3.14
478.097	3.16
478.448	3.15
478.8	3.15
479.15	3.14
479.501	3.13
479.852	3.14
480.203	3.17
480.554	3.18
480.905	3.19
481.255	3.2
481.606	3.21
481.957	3.22
482.307	3.22
482.658	3.23
483.009	3.23
483.359	3.23
483.709	3.22
484.06	3.23
484.41	3.24
484.761	3.24
485.111	3.26
485.461	3.25
485.811	3.25
486.162	3.26
486.512	3.26
486.862	3.27
487.212	3.26
487.562	3.25
487.912	3.25
488.262	3.25
488.612	3.26
488.961	3.24
489.311	3.23
489.661	3.24
490.011	3.24
490.36	3.24
490.71	3.24
491.06	3.24
491.409	3.23
491.759	3.24
492.108	3.23
492.458	3.22
492.807	3.22
493.157	3.23
493.506	3.22
493.855	3.22
494.204	3.22
494.554	3.23
494.903	3.23
495.252	3.24
495.601	3.24
495.95	3.23
496.299	3.24
496.648	3.26
496.997	3.27
497.346	3.27
497.695	3.26
498.043	3.27
498.392	3.28
498.741	3.28
499.09	3.28
499.438	3.3
499.787	3.31
500.135	3.32
500.484	3.34
500.832	3.36
501.181	3.38
501.529	3.41
501.878	3.41
502.226	3.43
502.574	3.44
502.923	3.43
503.271	3.45
503.619	3.45
503.967	3.45
504.315	3.48
504.663	3.49
505.011	3.5
505.359	3.49
505.707	3.51
506.055	3.52
506.403	3.52
506.751	3.5
507.098	3.5
507.446	3.52
507.794	3.5
508.141	3.49
508.489	3.51
508.837	3.5
509.184	3.51
509.531	3.52
509.879	3.52
510.226	3.53
510.574	3.54
510.921	3.55
511.268	3.55
511.616	3.55
511.963	3.55
512.31	3.56
512.657	3.58
513.004	3.56
513.351	3.56
513.698	3.57
514.045	3.59
514.392	3.6
514.739	3.62
515.086	3.63
515.432	3.64
515.779	3.65
516.126	3.67
516.473	3.67
516.819	3.69
517.166	3.7
517.512	3.71
517.859	3.72
518.205	3.71
518.552	3.72
518.898	3.71
519.245	3.71
519.591	3.7
519.937	3.69
520.283	3.72
520.629	3.72
520.976	3.74
521.322	3.75
521.668	3.75
522.014	3.75
522.36	3.75
522.706	3.74
523.052	3.73
523.398	3.71
523.743	3.71
524.089	3.72
524.435	3.71
524.781	3.71
525.126	3.7
525.472	3.73
525.817	3.74
526.163	3.75
526.509	3.76
526.854	3.76
527.199	3.77
527.545	3.77
527.89	3.78
528.235	3.77
528.581	3.78
528.926	3.79
529.271	3.79
529.616	3.79
529.961	3.81
530.306	3.81
530.651	3.81
530.996	3.82
531.341	3.83
531.686	3.84
532.031	3.85
532.376	3.86
532.721	3.86
533.065	3.86
533.41	3.85
533.755	3.85
534.099	3.84
534.444	3.84
534.788	3.84
535.133	3.83
535.477	3.83
535.822	3.82
536.166	3.81
536.51	3.8
536.855	3.81
537.199	3.79
537.543	3.81
537.887	3.82
538.231	3.82
538.576	3.81
538.92	3.82
539.264	3.8
539.608	3.81
539.951	3.8
540.295	3.8
540.639	3.81
540.983	3.82
541.327	3.83
541.671	3.83
542.014	3.85
542.358	3.87
542.701	3.89
543.045	3.88
543.389	3.9
543.732	3.89
544.075	3.89
544.419	3.89
544.762	3.88
545.105	3.9
545.449	3.89
545.792	3.89
546.135	3.88
546.478	3.88
546.821	3.88
547.165	3.9
547.508	3.91
547.851	3.91
548.194	3.91
548.536	3.9
548.879	3.9
549.222	3.89
549.565	3.87
549.908	3.83
550.25	3.83
550.593	3.81
550.936	3.82
551.278	3.84
551.621	3.83
551.963	3.84
552.306	3.81
552.648	3.85
552.991	3.87
553.333	3.88
553.675	3.91
554.017	3.91
554.36	3.94
554.702	3.92
555.044	3.96
555.386	3.96
555.728	3.98
556.07	3.98
556.412	3.97
556.754	3.97
557.096	3.98
557.438	3.98
557.78	3.97
558.121	3.99
558.463	3.99
558.805	4.01
559.147	3.98
559.488	3.97
559.83	3.97
560.171	3.94
560.513	3.95
560.854	3.91
561.196	3.91
561.537	3.89
561.878	3.91
562.22	3.9
562.561	3.89
562.902	3.9
563.243	3.89
563.584	3.91
563.925	3.92
564.266	3.94
564.607	3.95
564.948	3.97
565.289	4
565.63	3.97
565.971	3.99
566.312	3.98
566.653	4.02
566.993	4.01
567.334	4.02
567.675	4.02
568.015	4.04
568.356	4.01
568.696	4.02
569.037	4.03
569.377	4.03
569.718	4.03
570.058	4.04
570.398	4.04
570.739	4.01
571.079	4.01
571.419	4.01
571.759	3.98
572.099	3.97
572.439	3.95
572.779	3.98
573.119	3.95
573.459	3.96
573.799	3.94
574.139	3.94
574.479	3.95
574.819	3.95
575.158	3.96
575.498	3.98
575.838	3.94
576.177	3.93
576.517	3.9
576.856	3.9
577.196	3.88
577.535	3.89
577.875	3.89
578.214	3.9
578.553	3.87
578.893	3.88
579.232	3.9
579.571	3.86
579.91	3.84
580.25	3.87
580.589	3.87
580.928	3.86
581.267	3.85
581.606	3.85
581.945	3.86
582.283	3.87
582.622	3.84
582.961	3.86
583.3	3.84
583.639	3.87
583.977	3.85
584.316	3.86
584.654	3.86
584.993	3.84
585.332	3.86
585.67	3.9
586.008	3.91
586.347	3.9
586.685	3.92
587.024	3.92
587.362	3.89
587.7	3.94
588.038	3.96
588.376	3.96
588.715	3.93
589.053	3.92
589.391	3.89
589.729	3.88
590.067	3.9
590.404	3.91
590.742	3.88
591.08	3.89
591.418	3.92
591.756	3.93
592.093	3.93
592.431	3.93
592.769	3.94
593.106	3.95
593.444	4
593.781	3.99
594.119	4.03
594.456	4.05
594.793	3.99
595.131	3.98
595.468	3.99
595.805	4.02
596.143	4
596.48	4.01
596.817	4.01
597.154	4
597.491	3.97
597.828	3.97
598.165	3.97
598.502	3.93
598.839	3.94
599.176	3.95
599.512	3.95
599.849	3.93
600.186	3.92
600.523	3.91
600.859	3.95
601.196	3.92
601.532	3.9
601.869	3.94
602.205	3.92
602.542	3.91
602.878	3.9
603.215	3.93
603.551	3.95
603.887	3.95
604.223	3.95
604.56	3.99
604.896	4.01
605.232	4
605.568	4.04
605.904	4.04
606.24	4.05
606.576	4.06
606.912	4.07
607.248	4.13
607.583	4.14
607.919	4.11
608.255	4.11
608.591	4.12
608.926	4.09
609.262	4.08
609.597	4.07
609.933	4.09
610.268	4.07
610.604	4.05
610.939	4.08
611.275	4.09
611.61	4.07
611.945	4.05
612.281	4.09
612.616	4.11
612.951	4.13
613.286	4.15
613.621	4.14
613.956	4.16
614.291	4.07
614.626	4.04
614.961	4.07
615.296	4.09
615.631	4.08
615.966	4.11
616.3	4.14
616.635	4.15
616.97	4.13
617.304	4.11
617.639	4.15
617.973	4.12
618.308	4.11
618.642	4.12
618.977	4.1
619.311	4.09
619.646	4.04
619.98	4.02
620.314	3.98
620.648	3.98
620.983	3.96
621.317	3.99
621.651	4.01
621.985	3.98
622.319	3.97
622.653	3.96
622.987	3.95
623.321	3.99
623.655	4.01
623.988	4.05
624.322	4.08
624.656	4.06
624.99	4.07
625.323	4.05
625.657	4.08
625.99	4.1
626.324	4.08
626.657	4.1
626.991	4.1
627.324	4.1
627.658	4.09
627.991	4.11
628.324	4.13
628.657	4.14
628.991	4.15
629.324	4.16
629.657	4.18
629.99	4.2
630.323	4.15
630.656	4.12
630.989	4.08
631.322	4.08
631.655	4.07
631.987	4.09
632.32	4.13
632.653	4.06
632.986	4.07
633.318	4.1
633.651	4.11
633.984	4.08
634.316	4.12
634.649	4.1
634.981	4.07
635.313	4.08
635.646	4.1
635.978	4.19
636.31	4.2
636.643	4.2
636.975	4.16
637.307	4.18
637.639	4.22
637.971	4.21
638.303	4.26
638.635	4.27
638.967	4.24
639.299	4.26
639.631	4.33
639.963	4.36
640.295	4.34
640.626	4.27
640.958	4.31
641.29	4.35
641.621	4.39
641.953	4.38
642.285	4.33
642.616	4.3
642.948	4.24
643.279	4.21
643.61	4.23
643.942	4.27
644.273	4.29
644.604	4.22
644.936	4.26
645.267	4.21
645.598	4.2
645.929	4.22
646.26	4.17
646.591	4.2
646.922	4.15
647.253	4.1
647.584	4.16
647.915	4.13
648.245	4.07
648.576	4.05
648.907	4.05
649.238	4.03
649.568	4.01
649.899	3.97
650.229	4.03
650.56	4.08
650.89	4.09
651.221	4.05
651.551	4.12
651.882	4.08
652.212	4.03
652.542	4.08
652.872	4.07
653.203	4.15
653.533	4.11
653.863	4.18
654.193	4.2
654.523	4.18
654.853	4.23
655.183	4.22
655.513	4.27
655.843	4.31
656.172	4.39
656.502	4.39
656.832	4.31
657.162	4.3
657.491	4.29
657.821	4.27
658.15	4.28
658.48	4.3
658.809	4.32
659.139	4.35
659.468	4.36
659.798	4.38
660.127	4.3
660.456	4.28
660.785	4.21
661.115	4.24
661.444	4.29
661.773	4.27
662.102	4.27
662.431	4.22
662.76	4.24
663.089	4.19
663.418	4.27
663.747	4.33
664.076	4.38
664.404	4.33
664.733	4.32
665.062	4.3
665.39	4.26
665.719	4.31
666.048	4.34
666.376	4.29
666.705	4.31
667.033	4.34
667.362	4.35
667.69	4.41
668.018	4.45
668.347	4.36
668.675	4.34
669.003	4.4
669.331	4.37
669.659	4.37
669.987	4.4
670.315	4.33
670.643	4.32
670.971	4.27
671.299	4.34
671.627	4.32
671.955	4.37
672.283	4.42
672.61	4.41
672.938	4.42
673.266	4.47
673.593	4.38
673.921	4.27
674.249	4.29
674.576	4.29
674.904	4.25
675.231	4.27
675.558	4.37
675.886	4.43
676.213	4.51
676.54	4.53
676.867	4.48
677.195	4.51
677.522	4.59
677.849	4.59
678.176	4.49
678.503	4.49
