Data from BU26843_Reflection_00002.txt Node
Date: Mon Nov 18 16:30:54 EST 2019
User: vgr7
Spectrometer: USB2G7710
Scans to average: 3
Trigger mode: 4
Integration Time (sec): 2.000000E-2
Electric dark correction enabled: true
Boxcar width: 10
XAxis mode: Wavelengths
Number of Pixels in Spectrum: 2048
>>>>>Begin Spectral Data<<<<<
177.721	-69.99
178.105	-724.56
178.488	666.42
178.871	265.19
179.254	41.94
179.636	-129.17
180.019	-36.8
180.402	103.45
180.785	20.52
181.168	60.69
181.55	7.59
181.933	92.51
182.316	139.37
182.698	244.19
183.081	258.45
183.463	997.69
183.846	1327.05
184.228	960.84
184.611	857.33
184.993	-1309.96
185.376	-696.42
185.758	-495.14
186.14	-584.14
186.522	-559.6
186.904	-371.89
187.287	-649.62
187.669	-219.42
188.051	-297.77
188.433	-149.91
188.815	-137.15
189.197	-169.01
189.579	-167.28
189.961	-184.67
190.342	-170.48
190.724	-135.56
191.106	-137.36
191.488	-112.69
191.869	-106.48
192.251	-97.07
192.633	-77.72
193.014	-81.53
193.396	-86.94
193.777	-97.89
194.159	-91.13
194.54	-73.47
194.922	-124.38
195.303	-107.11
195.684	-103.45
196.065	-62.98
196.447	-58.01
196.828	-70.09
197.209	-25.85
197.59	-18.78
197.971	0.87
198.352	29.96
198.733	17.2
199.114	53.96
199.495	74.13
199.876	99.05
200.257	75.98
200.638	96.65
201.018	83.12
201.399	94.37
201.78	101.34
202.16	108.7
202.541	96.07
202.922	58.29
203.302	40.09
203.683	42.96
204.063	12.46
204.444	15.91
204.824	40.49
205.204	20.19
205.585	3.44
205.965	-52.16
206.345	-113.91
206.725	-98.97
207.106	-145.88
207.486	-220.55
207.866	-216.33
208.246	-158.8
208.626	-165.89
209.006	-128.34
209.386	-131.11
209.766	-136.85
210.145	-77.63
210.525	-53.47
210.905	-26.39
211.285	-4.67
211.664	-0.78
212.044	4.49
212.424	-0.2
212.803	5.56
213.183	8.45
213.562	12.52
213.942	19.24
214.321	29.06
214.701	28.82
215.08	21.43
215.459	20.49
215.838	33.02
216.218	40.56
216.597	46.3
216.976	47.38
217.355	46.29
217.734	35.36
218.113	37.28
218.492	44.53
218.871	33.3
219.25	29.86
219.629	27.7
220.008	15.87
220.387	9.36
220.766	7.85
221.144	2.71
221.523	-2.51
221.902	-26.31
222.28	-46.23
222.659	-56.33
223.037	-52.65
223.416	-42.83
223.794	-46.16
224.173	-65.62
224.551	-62.15
224.929	-56.07
225.308	-40.49
225.686	-32.51
226.064	-40.42
226.442	-37.5
226.821	-32.83
227.199	-31.97
227.577	-30.99
227.955	-29.29
228.333	-23.51
228.711	-20.84
229.089	-14.3
229.467	-15.1
229.845	-9.99
230.222	-7.15
230.6	-7.04
230.978	-3.05
231.356	-0.73
231.733	-2.26
232.111	-0.65
232.488	2.43
232.866	0.64
233.243	-2.72
233.621	-3.67
233.998	-1.95
234.376	-3.36
234.753	-3
235.13	-1.85
235.508	-1.32
235.885	-0.98
236.262	-2.55
236.639	-2.31
237.016	-2.78
237.393	-1.3
237.77	-1.1
238.147	-0.49
238.524	0.64
238.901	1.07
239.278	1.44
239.655	2.4
240.032	2.6
240.409	2.04
240.785	2.14
241.162	3
241.539	3.4
241.915	3.75
242.292	3.56
242.668	3.39
243.045	3.31
243.421	3.43
243.798	3.4
244.174	3.66
244.551	3.59
244.927	3.58
245.303	3.63
245.679	3.91
246.056	3.69
246.432	3.7
246.808	3.76
247.184	3.66
247.56	3.38
247.936	3.19
248.312	3.41
248.688	3.62
249.064	3.32
249.44	3.2
249.815	3.34
250.191	3.55
250.567	3.8
250.943	4.14
251.318	4.15
251.694	4.23
252.069	4.11
252.445	4.07
252.82	3.82
253.196	3.67
253.571	3.28
253.947	3.36
254.322	3.49
254.697	3.07
255.073	2.85
255.448	2.85
255.823	2.94
256.198	3.25
256.573	3.11
256.948	3.49
257.323	3.63
257.698	3.3
258.073	3.28
258.448	3.13
258.823	2.81
259.198	2.76
259.573	2.8
259.948	2.8
260.322	2.94
260.697	2.92
261.072	3.02
261.446	3.18
261.821	3.18
262.195	3.21
262.57	3.21
262.944	3.13
263.319	3.25
263.693	3.22
264.067	2.98
264.442	3.14
264.816	3.01
265.19	2.84
265.564	2.97
265.938	2.78
266.313	2.82
266.687	2.71
267.061	2.77
267.435	2.81
267.809	2.87
268.183	2.89
268.556	3.09
268.93	3.21
269.304	3
269.678	3.12
270.051	3.18
270.425	3.29
270.799	3.4
271.172	3.42
271.546	3.46
271.919	3.3
272.293	3.16
272.666	3.23
273.04	3.39
273.413	3.26
273.787	3.35
274.16	3.41
274.533	3.53
274.906	3.44
275.279	3.36
275.653	3.45
276.026	3.32
276.399	3.38
276.772	3.37
277.145	3.33
277.518	3.29
277.891	2.97
278.263	2.95
278.636	2.99
279.009	3.05
279.382	3.37
279.755	3.42
280.127	3.61
280.5	3.61
280.872	3.55
281.245	3.64
281.617	3.86
281.99	3.84
282.362	3.84
282.735	3.91
283.107	3.94
283.479	3.86
283.852	3.81
284.224	3.74
284.596	3.74
284.968	3.94
285.34	4.08
285.713	4.31
286.085	4.33
286.457	4.41
286.829	4.45
287.201	4.18
287.572	4.16
287.944	4.11
288.316	4.03
288.688	4
289.06	3.96
289.431	3.83
289.803	3.84
290.175	3.91
290.546	3.94
290.918	4.13
291.289	4.09
291.661	4.17
292.032	4.16
292.403	4.11
292.775	4.03
293.146	3.82
293.517	3.79
293.889	3.82
294.26	3.77
294.631	3.7
295.002	3.69
295.373	3.76
295.744	3.71
296.115	3.7
296.486	3.59
296.857	3.61
297.228	3.68
297.599	3.63
297.97	3.63
298.34	3.64
298.711	3.53
299.082	3.46
299.452	3.54
299.823	3.61
300.194	3.61
300.564	3.7
300.935	3.8
301.305	3.6
301.676	3.55
302.046	3.57
302.416	3.72
302.787	3.83
303.157	3.95
303.527	3.84
303.897	3.81
304.267	3.99
304.637	4.01
305.008	4.1
305.378	4.14
305.748	4.19
306.117	4.15
306.487	4.12
306.857	4.23
307.227	4.25
307.597	4.1
307.967	4.15
308.336	4.04
308.706	4.05
309.076	4.14
309.445	4.21
309.815	4.09
310.184	3.85
310.554	3.87
310.923	3.73
311.293	3.93
311.662	3.92
312.031	3.94
312.401	3.89
312.77	3.75
313.139	3.79
313.508	3.82
313.877	3.74
314.246	3.78
314.616	3.91
314.985	3.79
315.353	3.92
315.722	4
316.091	4.08
316.46	3.93
316.829	4.06
317.198	4
317.567	4.03
317.935	4.18
318.304	4.21
318.672	4.07
319.041	4.01
319.41	4.16
319.778	4.15
320.147	4.2
320.515	4.25
320.883	4.21
321.252	4.28
321.62	4.38
321.988	4.34
322.357	4.24
322.725	4.28
323.093	4.2
323.461	4.12
323.829	4.07
324.197	4.21
324.565	3.99
324.933	4.08
325.301	4.1
325.669	4.07
326.037	4
326.405	4.06
326.772	3.97
327.14	4
327.508	4.07
327.875	3.95
328.243	3.94
328.61	3.93
328.978	3.84
329.346	3.86
329.713	3.79
330.08	3.76
330.448	3.7
330.815	3.53
331.182	3.45
331.55	3.42
331.917	3.42
332.284	3.58
332.651	3.42
333.018	3.42
333.385	3.45
333.752	3.47
334.119	3.6
334.486	3.64
334.853	3.62
335.22	3.37
335.587	3.57
335.954	3.54
336.32	3.48
336.687	3.41
337.054	3.36
337.42	3.38
337.787	3.42
338.153	3.38
338.52	3.62
338.886	3.7
339.253	3.71
339.619	3.7
339.986	3.7
340.352	3.85
340.718	3.91
341.084	3.78
341.451	3.84
341.817	3.93
342.183	3.86
342.549	3.84
342.915	4.06
343.281	4
343.647	4.02
344.013	4.09
344.379	4.05
344.745	4.16
345.11	4.22
345.476	4.2
345.842	4.23
346.208	4.05
346.573	3.96
346.939	3.98
347.304	3.92
347.67	3.79
348.035	3.69
348.401	3.62
348.766	3.7
349.132	3.69
349.497	3.6
349.862	3.76
350.228	3.73
350.593	3.68
350.958	3.67
351.323	3.69
351.688	3.64
352.053	3.67
352.418	3.61
352.783	3.56
353.148	3.43
353.513	3.51
353.878	3.6
354.243	3.65
354.608	3.75
354.972	3.85
355.337	3.96
355.702	3.97
356.066	4.03
356.431	4.09
356.795	4.14
357.16	4.12
357.524	4
357.889	3.95
358.253	3.95
358.618	4.04
358.982	4.01
359.346	3.96
359.71	4.04
360.075	4.06
360.439	4.04
360.803	4.14
361.167	4.11
361.531	4.1
361.895	4.08
362.259	3.96
362.623	3.86
362.987	3.82
363.351	3.89
363.714	3.92
364.078	3.86
364.442	3.78
364.806	3.77
365.169	3.77
365.533	3.8
365.896	3.78
366.26	3.74
366.623	3.78
366.987	3.81
367.35	3.73
367.714	3.73
368.077	3.75
368.44	3.72
368.803	3.69
369.167	3.65
369.53	3.63
369.893	3.75
370.256	3.81
370.619	3.84
370.982	3.72
371.345	3.63
371.708	3.71
372.071	3.73
372.434	3.71
372.797	3.75
373.159	3.72
373.522	3.74
373.885	3.69
374.247	3.68
374.61	3.64
374.973	3.7
375.335	3.66
375.698	3.68
376.06	3.67
376.423	3.69
376.785	3.73
377.147	3.77
377.51	3.76
377.872	3.73
378.234	3.72
378.596	3.73
378.958	3.74
379.321	3.73
379.683	3.68
380.045	3.64
380.407	3.63
380.769	3.68
381.13	3.65
381.492	3.7
381.854	3.7
382.216	3.77
382.578	3.75
382.939	3.76
383.301	3.72
383.663	3.73
384.024	3.75
384.386	3.8
384.747	3.81
385.109	3.81
385.47	3.8
385.832	3.79
386.193	3.89
386.554	3.89
386.916	3.84
387.277	3.91
387.638	3.96
387.999	3.96
388.36	3.93
388.721	3.94
389.082	3.92
389.443	3.9
389.804	3.88
390.165	3.87
390.526	3.89
390.887	3.92
391.248	3.95
391.609	3.96
391.969	3.93
392.33	3.9
392.691	3.9
393.051	3.92
393.412	3.93
393.772	3.86
394.133	3.89
394.493	3.89
394.854	3.89
395.214	3.85
395.574	3.86
395.935	3.9
396.295	3.92
396.655	3.91
397.015	3.94
397.376	3.96
397.736	3.96
398.096	3.96
398.456	3.96
398.816	3.94
399.176	3.89
399.535	3.9
399.895	3.88
400.255	3.88
400.615	3.87
400.975	3.9
401.334	3.92
401.694	3.89
402.054	3.89
402.413	3.88
402.773	3.88
403.132	3.85
403.492	3.83
403.851	3.82
404.211	3.83
404.57	3.82
404.929	3.82
405.288	3.81
405.648	3.79
406.007	3.78
406.366	3.77
406.725	3.8
407.084	3.81
407.443	3.82
407.802	3.81
408.161	3.81
408.52	3.77
408.879	3.76
409.238	3.77
409.596	3.75
409.955	3.75
410.314	3.79
410.673	3.8
411.031	3.8
411.39	3.8
411.748	3.79
412.107	3.78
412.465	3.79
412.824	3.78
413.182	3.75
413.54	3.76
413.899	3.78
414.257	3.76
414.615	3.76
414.974	3.79
415.332	3.77
415.69	3.77
416.048	3.77
416.406	3.81
416.764	3.83
417.122	3.83
417.48	3.81
417.838	3.81
418.195	3.81
418.553	3.81
418.911	3.79
419.269	3.8
419.626	3.81
419.984	3.79
420.342	3.8
420.699	3.81
421.057	3.82
421.414	3.81
421.772	3.82
422.129	3.81
422.486	3.8
422.844	3.8
423.201	3.81
423.558	3.8
423.915	3.77
424.273	3.76
424.63	3.76
424.987	3.78
425.344	3.78
425.701	3.79
426.058	3.8
426.415	3.81
426.772	3.81
427.128	3.8
427.485	3.82
427.842	3.83
428.199	3.84
428.555	3.83
428.912	3.84
429.269	3.85
429.625	3.84
429.982	3.84
430.338	3.87
430.695	3.88
431.051	3.88
431.407	3.88
431.764	3.89
432.12	3.88
432.476	3.88
432.832	3.87
433.189	3.84
433.545	3.84
433.901	3.83
434.257	3.82
434.613	3.82
434.969	3.79
435.325	3.79
435.681	3.77
436.036	3.78
436.392	3.78
436.748	3.77
437.104	3.79
437.459	3.79
437.815	3.77
438.171	3.75
438.526	3.76
438.882	3.77
439.237	3.79
439.593	3.81
439.948	3.82
440.304	3.84
440.659	3.85
441.014	3.84
441.369	3.84
441.725	3.84
442.08	3.83
442.435	3.83
442.79	3.82
443.145	3.83
443.5	3.83
443.855	3.81
444.21	3.84
444.565	3.83
444.92	3.83
445.275	3.83
445.629	3.86
445.984	3.86
446.339	3.87
446.693	3.84
447.048	3.83
447.403	3.83
447.757	3.82
448.112	3.81
448.466	3.81
448.82	3.82
449.175	3.82
449.529	3.81
449.883	3.82
450.238	3.82
450.592	3.82
450.946	3.81
451.3	3.83
451.654	3.82
452.008	3.83
452.362	3.82
452.716	3.82
453.07	3.79
453.424	3.78
453.778	3.77
454.132	3.77
454.486	3.76
454.839	3.77
455.193	3.76
455.547	3.79
455.9	3.79
456.254	3.77
456.607	3.78
456.961	3.8
457.314	3.79
457.668	3.79
458.021	3.79
458.375	3.8
458.728	3.79
459.081	3.78
459.434	3.75
459.787	3.77
460.141	3.76
460.494	3.78
460.847	3.8
461.2	3.8
461.553	3.8
461.906	3.81
462.259	3.79
462.611	3.8
462.964	3.79
463.317	3.81
463.67	3.82
464.022	3.83
464.375	3.82
464.728	3.82
465.08	3.82
465.433	3.81
465.785	3.79
466.138	3.8
466.49	3.81
466.843	3.81
467.195	3.81
467.547	3.85
467.899	3.83
468.252	3.82
468.604	3.82
468.956	3.83
469.308	3.82
469.66	3.83
470.012	3.82
470.364	3.81
470.716	3.8
471.068	3.81
471.42	3.82
471.772	3.83
472.123	3.85
472.475	3.86
472.827	3.9
473.178	3.93
473.53	3.94
473.882	3.91
474.233	3.94
474.585	3.93
474.936	3.92
475.288	3.93
475.639	3.93
475.99	3.96
476.342	3.97
476.693	3.99
477.044	3.99
477.395	3.99
477.746	3.99
478.097	3.97
478.448	3.94
478.8	3.94
479.15	3.9
479.501	3.91
479.852	3.9
480.203	3.9
480.554	3.92
480.905	3.93
481.255	3.94
481.606	3.95
481.957	3.97
482.307	3.96
482.658	3.97
483.009	3.96
483.359	3.96
483.709	3.96
484.06	3.96
484.41	3.97
484.761	3.96
485.111	3.96
485.461	3.97
485.811	3.98
486.162	3.98
486.512	4
486.862	4
487.212	4.01
487.562	4.02
487.912	4
488.262	3.99
488.612	3.99
488.961	3.98
489.311	3.98
489.661	3.99
490.011	3.98
490.36	3.99
490.71	4
491.06	4
491.409	3.99
491.759	3.98
492.108	3.99
492.458	3.99
492.807	3.98
493.157	3.98
493.506	3.99
493.855	3.99
494.204	3.97
494.554	3.97
494.903	3.95
495.252	3.96
495.601	3.95
495.95	3.96
496.299	3.96
496.648	3.96
496.997	3.96
497.346	3.97
497.695	3.98
498.043	3.97
498.392	3.97
498.741	3.99
499.09	4
499.438	4.01
499.787	4.02
500.135	4.04
500.484	4.04
500.832	4.04
501.181	4.05
501.529	4.04
501.878	4.05
502.226	4.1
502.574	4.1
502.923	4.12
503.271	4.11
503.619	4.11
503.967	4.09
504.315	4.07
504.663	4.08
505.011	4.1
505.359	4.11
505.707	4.13
506.055	4.13
506.403	4.14
506.751	4.14
507.098	4.15
507.446	4.18
507.794	4.17
508.141	4.19
508.489	4.21
508.837	4.23
509.184	4.26
509.531	4.26
509.879	4.26
510.226	4.27
510.574	4.28
510.921	4.29
511.268	4.31
511.616	4.36
511.963	4.35
512.31	4.34
512.657	4.32
513.004	4.32
513.351	4.34
513.698	4.36
514.045	4.35
514.392	4.34
514.739	4.34
515.086	4.37
515.432	4.38
515.779	4.36
516.126	4.38
516.473	4.37
516.819	4.39
517.166	4.38
517.512	4.39
517.859	4.41
518.205	4.41
518.552	4.4
518.898	4.38
519.245	4.38
519.591	4.38
519.937	4.39
520.283	4.41
520.629	4.41
520.976	4.41
521.322	4.42
521.668	4.45
522.014	4.45
522.36	4.44
522.706	4.43
523.052	4.45
523.398	4.45
523.743	4.45
524.089	4.44
524.435	4.44
524.781	4.47
525.126	4.46
525.472	4.46
525.817	4.48
526.163	4.5
526.509	4.52
526.854	4.53
527.199	4.53
527.545	4.52
527.89	4.53
528.235	4.53
528.581	4.54
528.926	4.53
529.271	4.54
529.616	4.54
529.961	4.55
530.306	4.56
530.651	4.56
530.996	4.56
531.341	4.56
531.686	4.56
532.031	4.56
532.376	4.56
532.721	4.59
533.065	4.59
533.41	4.58
533.755	4.6
534.099	4.6
534.444	4.61
534.788	4.63
535.133	4.62
535.477	4.62
535.822	4.63
536.166	4.63
536.51	4.62
536.855	4.62
537.199	4.62
537.543	4.63
537.887	4.63
538.231	4.63
538.576	4.64
538.92	4.64
539.264	4.64
539.608	4.65
539.951	4.63
540.295	4.63
540.639	4.65
540.983	4.63
541.327	4.63
541.671	4.65
542.014	4.64
542.358	4.65
542.701	4.65
543.045	4.66
543.389	4.67
543.732	4.66
544.075	4.67
544.419	4.66
544.762	4.65
545.105	4.64
545.449	4.64
545.792	4.64
546.135	4.65
546.478	4.67
546.821	4.68
547.165	4.68
547.508	4.66
547.851	4.65
548.194	4.64
548.536	4.63
548.879	4.62
549.222	4.62
549.565	4.6
549.908	4.59
550.25	4.59
550.593	4.61
550.936	4.6
551.278	4.62
551.621	4.65
551.963	4.67
552.306	4.69
552.648	4.72
552.991	4.73
553.333	4.74
553.675	4.7
554.017	4.7
554.36	4.7
554.702	4.74
555.044	4.76
555.386	4.78
555.728	4.79
556.07	4.78
556.412	4.76
556.754	4.79
557.096	4.81
557.438	4.78
557.78	4.77
558.121	4.82
558.463	4.8
558.805	4.78
559.147	4.77
559.488	4.78
559.83	4.76
560.171	4.74
560.513	4.74
560.854	4.78
561.196	4.78
561.537	4.8
561.878	4.77
562.22	4.78
562.561	4.79
562.902	4.8
563.243	4.81
563.584	4.82
563.925	4.8
564.266	4.8
564.607	4.81
564.948	4.81
565.289	4.81
565.63	4.82
565.971	4.82
566.312	4.82
566.653	4.79
566.993	4.82
567.334	4.84
567.675	4.85
568.015	4.84
568.356	4.86
568.696	4.87
569.037	4.88
569.377	4.87
569.718	4.88
570.058	4.88
570.398	4.87
570.739	4.86
571.079	4.87
571.419	4.88
571.759	4.89
572.099	4.86
572.439	4.86
572.779	4.88
573.119	4.92
573.459	4.95
573.799	4.95
574.139	4.91
574.479	4.91
574.819	4.92
575.158	4.9
575.498	4.9
575.838	4.88
576.177	4.89
576.517	4.89
576.856	4.92
577.196	4.91
577.535	4.92
577.875	4.93
578.214	4.95
578.553	4.94
578.893	4.93
579.232	4.94
579.571	4.97
579.91	4.95
580.25	4.93
580.589	4.91
580.928	4.92
581.267	4.96
581.606	4.97
581.945	4.95
582.283	4.99
582.622	4.95
582.961	4.97
583.3	4.97
583.639	5
583.977	4.97
584.316	4.95
584.654	4.97
584.993	4.96
585.332	4.94
585.67	4.98
586.008	4.99
586.347	5.01
586.685	5
587.024	4.98
587.362	4.98
587.7	4.98
588.038	5.03
588.376	5.01
588.715	5.01
589.053	5.05
589.391	5.06
589.729	5.05
590.067	5.05
590.404	5.04
590.742	5.05
591.08	5.04
591.418	5.06
591.756	5.09
592.093	5.11
592.431	5.12
592.769	5.13
593.106	5.14
593.444	5.12
593.781	5.12
594.119	5.15
594.456	5.16
594.793	5.17
595.131	5.19
595.468	5.19
595.805	5.19
596.143	5.18
596.48	5.15
596.817	5.18
597.154	5.18
597.491	5.21
597.828	5.17
598.165	5.17
598.502	5.17
598.839	5.17
599.176	5.18
599.512	5.17
599.849	5.14
600.186	5.16
600.523	5.19
600.859	5.19
601.196	5.21
601.532	5.21
601.869	5.19
602.205	5.15
602.542	5.16
602.878	5.18
603.215	5.16
603.551	5.19
603.887	5.21
604.223	5.22
604.56	5.23
604.896	5.22
605.232	5.27
605.568	5.26
605.904	5.23
606.24	5.24
606.576	5.26
606.912	5.25
607.248	5.26
607.583	5.27
607.919	5.23
608.255	5.17
608.591	5.22
608.926	5.23
609.262	5.26
609.597	5.27
609.933	5.29
610.268	5.29
610.604	5.29
610.939	5.25
611.275	5.25
611.61	5.22
611.945	5.26
612.281	5.21
612.616	5.26
612.951	5.31
613.286	5.32
613.621	5.3
613.956	5.31
614.291	5.26
614.626	5.23
614.961	5.23
615.296	5.25
615.631	5.21
615.966	5.18
616.3	5.21
616.635	5.2
616.97	5.18
617.304	5.18
617.639	5.17
617.973	5.19
618.308	5.18
618.642	5.22
618.977	5.19
619.311	5.24
619.646	5.21
619.98	5.16
620.314	5.16
620.648	5.16
620.983	5.22
621.317	5.26
621.651	5.27
621.985	5.28
622.319	5.34
622.653	5.35
622.987	5.38
623.321	5.3
623.655	5.32
623.988	5.33
624.322	5.32
624.656	5.39
624.99	5.43
625.323	5.46
625.657	5.49
625.99	5.53
626.324	5.53
626.657	5.57
626.991	5.57
627.324	5.58
627.658	5.63
627.991	5.59
628.324	5.61
628.657	5.63
628.991	5.63
629.324	5.63
629.657	5.66
629.99	5.65
630.323	5.68
630.656	5.7
630.989	5.72
631.322	5.75
631.655	5.68
631.987	5.69
632.32	5.66
632.653	5.64
632.986	5.63
633.318	5.63
633.651	5.63
633.984	5.63
634.316	5.59
634.649	5.55
634.981	5.64
635.313	5.66
635.646	5.65
635.978	5.71
636.31	5.72
636.643	5.65
636.975	5.71
637.307	5.7
637.639	5.69
637.971	5.67
638.303	5.7
638.635	5.7
638.967	5.65
639.299	5.73
639.631	5.73
639.963	5.69
640.295	5.72
640.626	5.77
640.958	5.79
641.29	5.84
641.621	5.84
641.953	5.79
642.285	5.79
642.616	5.82
642.948	5.78
643.279	5.76
643.61	5.82
643.942	5.73
644.273	5.78
644.604	5.74
644.936	5.69
645.267	5.66
645.598	5.7
645.929	5.77
646.26	5.65
646.591	5.64
646.922	5.64
647.253	5.64
647.584	5.57
647.915	5.55
648.245	5.49
648.576	5.52
648.907	5.48
649.238	5.41
649.568	5.37
649.899	5.41
650.229	5.5
650.56	5.54
650.89	5.6
651.221	5.6
651.551	5.6
651.882	5.67
652.212	5.69
652.542	5.66
652.872	5.58
653.203	5.56
653.533	5.63
653.863	5.64
654.193	5.56
654.523	5.63
654.853	5.65
655.183	5.7
655.513	5.65
655.843	5.68
656.172	5.83
656.502	5.83
656.832	5.77
657.162	5.73
657.491	5.66
657.821	5.67
658.15	5.66
658.48	5.7
658.809	5.62
659.139	5.65
659.468	5.62
659.798	5.65
660.127	5.68
660.456	5.7
660.785	5.77
661.115	5.86
661.444	5.77
661.773	5.79
662.102	5.77
662.431	5.81
662.76	5.83
663.089	5.73
663.418	5.73
663.747	5.86
664.076	5.82
664.404	5.88
664.733	5.87
665.062	5.87
665.39	5.85
665.719	5.91
666.048	5.89
666.376	5.98
666.705	6
667.033	5.98
667.362	5.94
667.69	5.89
668.018	5.84
668.347	5.86
668.675	5.91
669.003	5.98
669.331	6.05
669.659	6.1
669.987	6.12
670.315	6.21
670.643	6.21
670.971	6.26
671.299	6.3
671.627	6.34
671.955	6.32
672.283	6.35
672.61	6.3
672.938	6.26
673.266	6.29
673.593	6.39
673.921	6.51
674.249	6.51
674.576	6.47
674.904	6.47
675.231	6.43
675.558	6.39
675.886	6.42
676.213	6.4
676.54	6.37
676.867	6.38
677.195	6.34
677.522	6.31
677.849	6.35
