Data from BU26939_Reflection_00001.txt Node
Date: Tue Nov 19 10:56:32 EST 2019
User: vgr7
Spectrometer: USB2G7710
Scans to average: 3
Trigger mode: 4
Integration Time (sec): 2.000000E-2
Electric dark correction enabled: true
Boxcar width: 10
XAxis mode: Wavelengths
Number of Pixels in Spectrum: 2048
>>>>>Begin Spectral Data<<<<<
177.721	89.77
178.105	69.86
178.488	97.34
178.871	75.76
179.254	-18.52
179.636	-54.23
180.019	-136.56
180.402	76.47
180.785	-63.52
181.168	-128.24
181.55	-2603.7
181.933	807.07
182.316	-532.77
182.698	779.01
183.081	-1201.59
183.463	-911.49
183.846	-907.75
184.228	-244.73
184.611	-155.73
184.993	-73.52
185.376	-81.14
185.758	-95.54
186.14	-112.21
186.522	-222.5
186.904	-199.49
187.287	-198.3
187.669	-191.32
188.051	-150.18
188.433	-192.93
188.815	-220.3
189.197	-168.59
189.579	-105.79
189.961	-127.13
190.342	-131.91
190.724	-131.57
191.106	-106.37
191.488	-101.18
191.869	-66.89
192.251	-64.08
192.633	-47
193.014	-33.17
193.396	-33.56
193.777	-31.14
194.159	-28.87
194.54	-8.23
194.922	-16.47
195.303	-30.09
195.684	-40.21
196.065	-58.54
196.447	-57.15
196.828	-44.83
197.209	-36.04
197.59	-41.9
197.971	-34.47
198.352	-33.58
198.733	-31.92
199.114	-39.12
199.495	-41.77
199.876	-44.25
200.257	-63.27
200.638	-77.14
201.018	-104.23
201.399	-106.96
201.78	-110.24
202.16	-124.95
202.541	-139.74
202.922	-117.77
203.302	-139.96
203.683	-127.29
204.063	-116.34
204.444	-93.95
204.824	-104.19
205.204	-86.86
205.585	-69.93
205.965	-71.82
206.345	-68.88
206.725	-62.97
207.106	-56.84
207.486	-51.71
207.866	-61.45
208.246	-38.54
208.626	-42.26
209.006	-37.04
209.386	-27.26
209.766	-22.16
210.145	-16.06
210.525	-18.2
210.905	-28.37
211.285	-19.15
211.664	-8.99
212.044	-15.14
212.424	-20.14
212.803	-28.72
213.183	-51.43
213.562	-55.15
213.942	-60.27
214.321	-75.67
214.701	-88.29
215.08	-82.49
215.459	-88.19
215.838	-92.46
216.218	-108.48
216.597	-110.48
216.976	-114.81
217.355	-113.37
217.734	-126.75
218.113	-141.88
218.492	-143.38
218.871	-133.06
219.25	-147.47
219.629	-198.69
220.008	-196.11
220.387	-190.64
220.766	-117.88
221.144	-78.36
221.523	-85
221.902	-82.9
222.28	-45.41
222.659	-29.89
223.037	-32.9
223.416	-16.75
223.794	-13.25
224.173	-14.48
224.551	-12.23
224.929	-17.48
225.308	-18.92
225.686	-20.88
226.064	-19.04
226.442	-17.2
226.821	-20.88
227.199	-16.27
227.577	-16.97
227.955	-15.08
228.333	-11.56
228.711	-12.41
229.089	-11.57
229.467	-11.11
229.845	-9.16
230.222	-12.3
230.6	-12.9
230.978	-10.18
231.356	-11.38
231.733	-10.26
232.111	-9.21
232.488	-7.24
232.866	-8.12
233.243	-7.78
233.621	-7.3
233.998	-5.05
234.376	-5.08
234.753	-4.38
235.13	-5.89
235.508	-5.44
235.885	-4.92
236.262	-5.73
236.639	-5.37
237.016	-6.16
237.393	-5.4
237.77	-4.25
238.147	-3.3
238.524	-2.2
238.901	-3.07
239.278	-3.17
239.655	-2.87
240.032	-2.26
240.409	-2
240.785	-1.06
241.162	-0.17
241.539	-0.23
241.915	-0.31
242.292	0.09
242.668	0.96
243.045	1.8
243.421	2.07
243.798	2.08
244.174	2.31
244.551	2.24
244.927	2.02
245.303	1.94
245.679	1.94
246.056	1.89
246.432	1.87
246.808	2.17
247.184	2.14
247.56	2.17
247.936	2.33
248.312	2.46
248.688	2.46
249.064	2.16
249.44	2.25
249.815	2.35
250.191	2.44
250.567	1.99
250.943	1.96
251.318	2
251.694	2.05
252.069	1.84
252.445	1.51
252.82	1.8
253.196	1.94
253.571	1.77
253.947	1.65
254.322	1.67
254.697	1.69
255.073	1.8
255.448	1.73
255.823	1.53
256.198	1.31
256.573	1.45
256.948	1.66
257.323	1.47
257.698	1.43
258.073	1.51
258.448	1.56
258.823	1.28
259.198	1.34
259.573	1.18
259.948	1.21
260.322	1.34
260.697	1.35
261.072	1.49
261.446	1.6
261.821	1.59
262.195	1.57
262.57	1.49
262.944	1.58
263.319	1.66
263.693	1.64
264.067	1.77
264.442	1.64
264.816	1.68
265.19	1.75
265.564	1.68
265.938	1.54
266.313	1.68
266.687	1.82
267.061	1.85
267.435	2.05
267.809	2.24
268.183	2.35
268.556	2.23
268.93	2.19
269.304	2.18
269.678	2.18
270.051	2.25
270.425	2.23
270.799	2.06
271.172	2.24
271.546	2.33
271.919	2.23
272.293	2.5
272.666	2.48
273.04	2.48
273.413	2.52
273.787	2.55
274.16	2.39
274.533	2.37
274.906	2.25
275.279	2.09
275.653	2.06
276.026	2.12
276.399	2.14
276.772	1.89
277.145	1.88
277.518	1.91
277.891	1.78
278.263	1.99
278.636	2.11
279.009	2.03
279.382	1.81
279.755	1.75
280.127	1.59
280.5	1.55
280.872	1.64
281.245	1.73
281.617	1.7
281.99	1.79
282.362	1.9
282.735	1.86
283.107	1.91
283.479	1.91
283.852	1.82
284.224	1.83
284.596	1.82
284.968	1.87
285.34	1.93
285.713	2.02
286.085	1.86
286.457	1.88
286.829	1.82
287.201	1.96
287.572	2.02
287.944	1.98
288.316	2.01
288.688	2.01
289.06	2.02
289.431	2.16
289.803	2.2
290.175	2.12
290.546	2.19
290.918	2.3
291.289	2.23
291.661	2.17
292.032	2.22
292.403	2.38
292.775	2.5
293.146	2.48
293.517	2.47
293.889	2.49
294.26	2.46
294.631	2.56
295.002	2.51
295.373	2.46
295.744	2.52
296.115	2.59
296.486	2.56
296.857	2.51
297.228	2.39
297.599	2.31
297.97	2.39
298.34	2.38
298.711	2.32
299.082	2.33
299.452	2.34
299.823	2.31
300.194	2.35
300.564	2.23
300.935	2.21
301.305	2.21
301.676	2.15
302.046	2.16
302.416	2.06
302.787	2.02
303.157	2.12
303.527	2.25
303.897	2.13
304.267	2.19
304.637	2.19
305.008	2.25
305.378	2.36
305.748	2.34
306.117	2.34
306.487	2.28
306.857	2.31
307.227	2.45
307.597	2.45
307.967	2.34
308.336	2.25
308.706	2.29
309.076	2.33
309.445	2.36
309.815	2.36
310.184	2.34
310.554	2.34
310.923	2.24
311.293	2.13
311.662	2.17
312.031	2.1
312.401	2.06
312.77	1.96
313.139	1.91
313.508	1.82
313.877	1.87
314.246	1.9
314.616	1.88
314.985	1.79
315.353	1.86
315.722	1.87
316.091	1.9
316.46	1.94
316.829	1.82
317.198	1.87
317.567	2.01
317.935	1.89
318.304	2.13
318.672	2.27
319.041	2.27
319.41	2.28
319.778	2.36
320.147	2.49
320.515	2.57
320.883	2.58
321.252	2.57
321.62	2.48
321.988	2.43
322.357	2.43
322.725	2.4
323.093	2.35
323.461	2.34
323.829	2.48
324.197	2.46
324.565	2.37
324.933	2.14
325.301	1.91
325.669	2.03
326.037	1.85
326.405	1.72
326.772	1.85
327.14	1.9
327.508	1.82
327.875	1.74
328.243	1.8
328.61	1.86
328.978	1.89
329.346	1.9
329.713	2.04
330.08	2.2
330.448	2.31
330.815	2.32
331.182	2.4
331.55	2.25
331.917	2.19
332.284	2.42
332.651	2.53
333.018	2.57
333.385	2.63
333.752	2.73
334.119	2.79
334.486	2.68
334.853	2.62
335.22	2.54
335.587	2.5
335.954	2.5
336.32	2.42
336.687	2.52
337.054	2.48
337.42	2.43
337.787	2.32
338.153	2.32
338.52	2.35
338.886	2.34
339.253	2.3
339.619	2.39
339.986	2.27
340.352	2.29
340.718	2.25
341.084	2.13
341.451	2.06
341.817	2.09
342.183	2.1
342.549	2.12
342.915	2.27
343.281	2.27
343.647	2.26
344.013	2.28
344.379	2.26
344.745	2.36
345.11	2.43
345.476	2.49
345.842	2.45
346.208	2.49
346.573	2.45
346.939	2.49
347.304	2.46
347.67	2.48
348.035	2.51
348.401	2.61
348.766	2.54
349.132	2.58
349.497	2.57
349.862	2.57
350.228	2.59
350.593	2.57
350.958	2.69
351.323	2.68
351.688	2.7
352.053	2.68
352.418	2.7
352.783	2.58
353.148	2.56
353.513	2.59
353.878	2.45
354.243	2.42
354.608	2.41
354.972	2.41
355.337	2.49
355.702	2.5
356.066	2.49
356.431	2.6
356.795	2.6
357.16	2.62
357.524	2.63
357.889	2.61
358.253	2.63
358.618	2.53
358.982	2.52
359.346	2.49
359.71	2.53
360.075	2.57
360.439	2.62
360.803	2.63
361.167	2.57
361.531	2.6
361.895	2.62
362.259	2.68
362.623	2.59
362.987	2.57
363.351	2.59
363.714	2.6
364.078	2.61
364.442	2.61
364.806	2.61
365.169	2.61
365.533	2.6
365.896	2.66
366.26	2.72
366.623	2.74
366.987	2.78
367.35	2.73
367.714	2.62
368.077	2.66
368.44	2.64
368.803	2.66
369.167	2.67
369.53	2.71
369.893	2.7
370.256	2.77
370.619	2.7
370.982	2.67
371.345	2.68
371.708	2.7
372.071	2.7
372.434	2.67
372.797	2.68
373.159	2.69
373.522	2.62
373.885	2.63
374.247	2.57
374.61	2.55
374.973	2.62
375.335	2.71
375.698	2.67
376.06	2.78
376.423	2.8
376.785	2.81
377.147	2.79
377.51	2.8
377.872	2.75
378.234	2.84
378.596	2.88
378.958	2.88
379.321	2.89
379.683	2.89
380.045	2.9
380.407	2.92
380.769	2.88
381.13	2.88
381.492	2.84
381.854	2.89
382.216	2.99
382.578	2.96
382.939	2.94
383.301	2.93
383.663	2.85
384.024	2.88
384.386	2.91
384.747	2.89
385.109	2.93
385.47	3.03
385.832	3.01
386.193	3
386.554	2.97
386.916	2.96
387.277	2.93
387.638	2.95
387.999	2.93
388.36	2.99
388.721	2.99
389.082	3.02
389.443	3.03
389.804	2.98
390.165	2.97
390.526	2.95
390.887	2.97
391.248	2.96
391.609	2.95
391.969	2.93
392.33	2.94
392.691	2.89
393.051	2.85
393.412	2.86
393.772	2.82
394.133	2.84
394.493	2.84
394.854	2.86
395.214	2.82
395.574	2.81
395.935	2.79
396.295	2.78
396.655	2.78
397.015	2.78
397.376	2.76
397.736	2.75
398.096	2.79
398.456	2.77
398.816	2.81
399.176	2.8
399.535	2.8
399.895	2.84
400.255	2.84
400.615	2.83
400.975	2.83
401.334	2.79
401.694	2.79
402.054	2.79
402.413	2.82
402.773	2.86
403.132	2.87
403.492	2.87
403.851	2.9
404.211	2.9
404.57	2.9
404.929	2.92
405.288	2.93
405.648	2.91
406.007	2.93
406.366	2.91
406.725	2.9
407.084	2.9
407.443	2.88
407.802	2.88
408.161	2.9
408.52	2.89
408.879	2.92
409.238	2.93
409.596	2.92
409.955	2.89
410.314	2.87
410.673	2.87
411.031	2.87
411.39	2.88
411.748	2.91
412.107	2.92
412.465	2.9
412.824	2.88
413.182	2.89
413.54	2.91
413.899	2.92
414.257	2.93
414.615	2.92
414.974	2.94
415.332	2.97
415.69	2.99
416.048	3.02
416.406	3.04
416.764	3.06
417.122	3.07
417.48	3.07
417.838	3.07
418.195	3.09
418.553	3.08
418.911	3.08
419.269	3.06
419.626	3.04
419.984	3.06
420.342	3.07
420.699	3.07
421.057	3.07
421.414	3.08
421.772	3.08
422.129	3.08
422.486	3.07
422.844	3.05
423.201	3.05
423.558	3.04
423.915	3.04
424.273	3.03
424.63	3.04
424.987	3.06
425.344	3.07
425.701	3.07
426.058	3.07
426.415	3.07
426.772	3.06
427.128	3.07
427.485	3.07
427.842	3.07
428.199	3.06
428.555	3.05
428.912	3.03
429.269	3.05
429.625	3.06
429.982	3.09
430.338	3.09
430.695	3.07
431.051	3.07
431.407	3.08
431.764	3.09
432.12	3.1
432.476	3.07
432.832	3.09
433.189	3.07
433.545	3.08
433.901	3.06
434.257	3.08
434.613	3.07
434.969	3.06
435.325	3.08
435.681	3.1
436.036	3.1
436.392	3.1
436.748	3.09
437.104	3.09
437.459	3.09
437.815	3.09
438.171	3.1
438.526	3.11
438.882	3.11
439.237	3.11
439.593	3.08
439.948	3.1
440.304	3.08
440.659	3.08
441.014	3.09
441.369	3.09
441.725	3.09
442.08	3.12
442.435	3.13
442.79	3.13
443.145	3.13
443.5	3.13
443.855	3.14
444.21	3.14
444.565	3.15
444.92	3.14
445.275	3.15
445.629	3.15
445.984	3.16
446.339	3.16
446.693	3.15
447.048	3.16
447.403	3.14
447.757	3.14
448.112	3.14
448.466	3.12
448.82	3.15
449.175	3.15
449.529	3.14
449.883	3.14
450.238	3.13
450.592	3.14
450.946	3.11
451.3	3.12
451.654	3.11
452.008	3.1
452.362	3.11
452.716	3.11
453.07	3.11
453.424	3.1
453.778	3.1
454.132	3.12
454.486	3.14
454.839	3.17
455.193	3.2
455.547	3.2
455.9	3.22
456.254	3.2
456.607	3.2
456.961	3.21
457.314	3.22
457.668	3.22
458.021	3.23
458.375	3.24
458.728	3.25
459.081	3.26
459.434	3.27
459.787	3.27
460.141	3.27
460.494	3.26
460.847	3.27
461.2	3.28
461.553	3.27
461.906	3.27
462.259	3.24
462.611	3.25
462.964	3.26
463.317	3.27
463.67	3.26
464.022	3.29
464.375	3.28
464.728	3.28
465.08	3.28
465.433	3.27
465.785	3.28
466.138	3.27
466.49	3.29
466.843	3.29
467.195	3.29
467.547	3.29
467.899	3.3
468.252	3.31
468.604	3.29
468.956	3.29
469.308	3.29
469.66	3.3
470.012	3.29
470.364	3.27
470.716	3.25
471.068	3.27
471.42	3.26
471.772	3.27
472.123	3.27
472.475	3.26
472.827	3.25
473.178	3.26
473.53	3.25
473.882	3.24
474.233	3.23
474.585	3.24
474.936	3.24
475.288	3.23
475.639	3.22
475.99	3.21
476.342	3.24
476.693	3.25
477.044	3.26
477.395	3.27
477.746	3.27
478.097	3.27
478.448	3.27
478.8	3.26
479.15	3.28
479.501	3.28
479.852	3.28
480.203	3.31
480.554	3.32
480.905	3.33
481.255	3.33
481.606	3.35
481.957	3.36
482.307	3.37
482.658	3.38
483.009	3.38
483.359	3.38
483.709	3.38
484.06	3.38
484.41	3.38
484.761	3.39
485.111	3.4
485.461	3.41
485.811	3.42
486.162	3.43
486.512	3.44
486.862	3.44
487.212	3.45
487.562	3.45
487.912	3.45
488.262	3.45
488.612	3.46
488.961	3.47
489.311	3.47
489.661	3.47
490.011	3.47
490.36	3.47
490.71	3.48
491.06	3.47
491.409	3.47
491.759	3.48
492.108	3.47
492.458	3.47
492.807	3.46
493.157	3.46
493.506	3.45
493.855	3.43
494.204	3.42
494.554	3.42
494.903	3.43
495.252	3.43
495.601	3.43
495.95	3.41
496.299	3.42
496.648	3.41
496.997	3.41
497.346	3.41
497.695	3.41
498.043	3.4
498.392	3.42
498.741	3.42
499.09	3.42
499.438	3.43
499.787	3.46
500.135	3.45
500.484	3.45
500.832	3.43
501.181	3.44
501.529	3.46
501.878	3.47
502.226	3.46
502.574	3.47
502.923	3.45
503.271	3.44
503.619	3.45
503.967	3.46
504.315	3.48
504.663	3.47
505.011	3.48
505.359	3.49
505.707	3.5
506.055	3.5
506.403	3.5
506.751	3.49
507.098	3.49
507.446	3.5
507.794	3.51
508.141	3.52
508.489	3.53
508.837	3.53
509.184	3.54
509.531	3.55
509.879	3.55
510.226	3.58
510.574	3.6
510.921	3.59
511.268	3.61
511.616	3.58
511.963	3.6
512.31	3.6
512.657	3.6
513.004	3.61
513.351	3.6
513.698	3.6
514.045	3.6
514.392	3.59
514.739	3.6
515.086	3.6
515.432	3.62
515.779	3.61
516.126	3.62
516.473	3.58
516.819	3.59
517.166	3.59
517.512	3.59
517.859	3.59
518.205	3.57
518.552	3.56
518.898	3.59
519.245	3.59
519.591	3.59
519.937	3.59
520.283	3.58
520.629	3.59
520.976	3.6
521.322	3.59
521.668	3.6
522.014	3.6
522.36	3.59
522.706	3.59
523.052	3.59
523.398	3.59
523.743	3.62
524.089	3.62
524.435	3.62
524.781	3.63
525.126	3.62
525.472	3.65
525.817	3.65
526.163	3.65
526.509	3.64
526.854	3.66
527.199	3.66
527.545	3.67
527.89	3.67
528.235	3.67
528.581	3.68
528.926	3.68
529.271	3.69
529.616	3.7
529.961	3.71
530.306	3.71
530.651	3.71
530.996	3.71
531.341	3.72
531.686	3.72
532.031	3.73
532.376	3.74
532.721	3.72
533.065	3.74
533.41	3.73
533.755	3.74
534.099	3.75
534.444	3.76
534.788	3.75
535.133	3.75
535.477	3.77
535.822	3.78
536.166	3.78
536.51	3.78
536.855	3.79
537.199	3.78
537.543	3.78
537.887	3.78
538.231	3.79
538.576	3.78
538.92	3.79
539.264	3.8
539.608	3.81
539.951	3.81
540.295	3.8
540.639	3.8
540.983	3.81
541.327	3.81
541.671	3.81
542.014	3.81
542.358	3.83
542.701	3.81
543.045	3.81
543.389	3.83
543.732	3.84
544.075	3.85
544.419	3.85
544.762	3.85
545.105	3.87
545.449	3.86
545.792	3.87
546.135	3.87
546.478	3.86
546.821	3.84
547.165	3.85
547.508	3.86
547.851	3.87
548.194	3.87
548.536	3.86
548.879	3.85
549.222	3.85
549.565	3.84
549.908	3.85
550.25	3.85
550.593	3.82
550.936	3.81
551.278	3.79
551.621	3.79
551.963	3.79
552.306	3.8
552.648	3.82
552.991	3.83
553.333	3.82
553.675	3.82
554.017	3.83
554.36	3.82
554.702	3.81
555.044	3.78
555.386	3.78
555.728	3.78
556.07	3.76
556.412	3.79
556.754	3.79
557.096	3.79
557.438	3.78
557.78	3.79
558.121	3.81
558.463	3.81
558.805	3.81
559.147	3.84
559.488	3.83
559.83	3.82
560.171	3.78
560.513	3.75
560.854	3.74
561.196	3.77
561.537	3.79
561.878	3.8
562.22	3.83
562.561	3.83
562.902	3.84
563.243	3.86
563.584	3.86
563.925	3.87
564.266	3.87
564.607	3.9
564.948	3.91
565.289	3.91
565.63	3.9
565.971	3.92
566.312	3.9
566.653	3.88
566.993	3.88
567.334	3.93
567.675	3.93
568.015	3.96
568.356	3.95
568.696	3.96
569.037	3.96
569.377	3.95
569.718	3.94
570.058	3.96
570.398	3.96
570.739	3.94
571.079	3.93
571.419	3.95
571.759	3.95
572.099	3.92
572.439	3.9
572.779	3.93
573.119	3.94
573.459	3.93
573.799	3.95
574.139	3.95
574.479	3.93
574.819	3.98
575.158	3.96
575.498	3.97
575.838	3.97
576.177	3.97
576.517	3.99
576.856	3.99
577.196	3.99
577.535	3.98
577.875	4.01
578.214	4
578.553	3.98
578.893	3.99
579.232	4.02
579.571	4.05
579.91	4.04
580.25	4.02
580.589	4.01
580.928	3.99
581.267	4
581.606	3.98
581.945	3.93
582.283	3.95
582.622	3.93
582.961	3.96
583.3	3.93
583.639	3.92
583.977	3.9
584.316	3.91
584.654	3.93
584.993	3.92
585.332	3.94
585.67	3.95
586.008	3.95
586.347	3.94
586.685	3.91
587.024	3.91
587.362	3.91
587.7	3.96
588.038	4.02
588.376	4.03
588.715	4.07
589.053	4.1
589.391	4.1
589.729	4.11
590.067	4.11
590.404	4.16
590.742	4.16
591.08	4.17
591.418	4.17
591.756	4.15
592.093	4.16
592.431	4.15
592.769	4.15
593.106	4.16
593.444	4.17
593.781	4.17
594.119	4.2
594.456	4.21
594.793	4.18
595.131	4.18
595.468	4.17
595.805	4.18
596.143	4.19
596.48	4.18
596.817	4.18
597.154	4.18
597.491	4.18
597.828	4.18
598.165	4.2
598.502	4.17
598.839	4.2
599.176	4.2
599.512	4.19
599.849	4.21
600.186	4.18
600.523	4.2
600.859	4.18
601.196	4.17
601.532	4.14
601.869	4.13
602.205	4.11
602.542	4.1
602.878	4.14
603.215	4.13
603.551	4.14
603.887	4.13
604.223	4.12
604.56	4.1
604.896	4.1
605.232	4.11
605.568	4.11
605.904	4.11
606.24	4.13
606.576	4.13
606.912	4.11
607.248	4.11
607.583	4.11
607.919	4.13
608.255	4.12
608.591	4.17
608.926	4.19
609.262	4.17
609.597	4.17
609.933	4.12
610.268	4.14
610.604	4.13
610.939	4.15
611.275	4.17
611.61	4.19
611.945	4.18
612.281	4.18
612.616	4.23
612.951	4.25
613.286	4.21
613.621	4.22
613.956	4.25
614.291	4.23
614.626	4.22
614.961	4.23
615.296	4.27
615.631	4.26
615.966	4.26
616.3	4.32
616.635	4.32
616.97	4.32
617.304	4.29
617.639	4.32
617.973	4.34
618.308	4.32
618.642	4.31
618.977	4.32
619.311	4.34
619.646	4.3
619.98	4.25
620.314	4.29
620.648	4.24
620.983	4.26
621.317	4.3
621.651	4.28
621.985	4.3
622.319	4.26
622.653	4.24
622.987	4.22
623.321	4.21
623.655	4.17
623.988	4.15
624.322	4.17
624.656	4.16
624.99	4.16
625.323	4.17
625.657	4.21
625.99	4.21
626.324	4.18
626.657	4.21
626.991	4.22
627.324	4.2
627.658	4.25
627.991	4.26
628.324	4.19
628.657	4.17
628.991	4.2
629.324	4.22
629.657	4.24
629.99	4.28
630.323	4.28
630.656	4.33
630.989	4.38
631.322	4.38
631.655	4.36
631.987	4.33
632.32	4.31
632.653	4.32
632.986	4.34
633.318	4.35
633.651	4.37
633.984	4.4
634.316	4.42
634.649	4.41
634.981	4.38
635.313	4.47
635.646	4.51
635.978	4.5
636.31	4.54
636.643	4.51
636.975	4.47
637.307	4.5
637.639	4.49
637.971	4.48
638.303	4.5
638.635	4.5
638.967	4.5
639.299	4.51
639.631	4.56
639.963	4.54
640.295	4.6
640.626	4.54
640.958	4.54
641.29	4.52
641.621	4.55
641.953	4.51
642.285	4.5
642.616	4.47
642.948	4.48
643.279	4.41
643.61	4.46
643.942	4.49
644.273	4.44
644.604	4.45
644.936	4.42
645.267	4.42
645.598	4.49
645.929	4.46
646.26	4.4
646.591	4.3
646.922	4.34
647.253	4.27
647.584	4.28
647.915	4.27
648.245	4.32
648.576	4.26
648.907	4.39
649.238	4.38
649.568	4.46
649.899	4.43
650.229	4.5
650.56	4.49
650.89	4.57
651.221	4.62
651.551	4.6
651.882	4.6
652.212	4.62
652.542	4.63
652.872	4.68
653.203	4.77
653.533	4.83
653.863	4.82
654.193	4.83
654.523	4.8
654.853	4.83
655.183	4.77
655.513	4.83
655.843	4.82
656.172	4.85
656.502	4.79
656.832	4.74
657.162	4.68
657.491	4.62
657.821	4.52
658.15	4.53
658.48	4.55
658.809	4.61
659.139	4.58
659.468	4.53
659.798	4.55
660.127	4.49
660.456	4.43
660.785	4.43
661.115	4.46
661.444	4.52
661.773	4.5
662.102	4.53
662.431	4.5
662.76	4.49
663.089	4.48
663.418	4.51
663.747	4.61
664.076	4.67
664.404	4.79
664.733	4.86
665.062	4.87
665.39	4.83
665.719	4.85
666.048	4.78
666.376	4.78
666.705	4.74
667.033	4.84
667.362	4.89
667.69	4.94
668.018	4.86
668.347	4.81
668.675	4.77
669.003	4.83
669.331	4.86
669.659	4.79
669.987	4.75
670.315	4.78
670.643	4.75
670.971	4.74
671.299	4.66
671.627	4.61
671.955	4.59
672.283	4.58
672.61	4.56
672.938	4.67
673.266	4.68
673.593	4.65
673.921	4.55
674.249	4.57
674.576	4.58
674.904	4.65
675.231	4.69
