Data from BU26941_Reflection_00006.txt Node
Date: Tue Nov 19 11:03:30 EST 2019
User: vgr7
Spectrometer: USB2G7710
Scans to average: 3
Trigger mode: 4
Integration Time (sec): 2.000000E-2
Electric dark correction enabled: true
Boxcar width: 10
XAxis mode: Wavelengths
Number of Pixels in Spectrum: 2048
>>>>>Begin Spectral Data<<<<<
177.721	-27.04
178.105	-11.68
178.488	19.94
178.871	50
179.254	72.13
179.636	135.37
180.019	281.46
180.402	260
180.785	7.55
181.168	-400
181.55	-49.75
181.933	-569.01
182.316	209.02
182.698	95.87
183.081	735.14
183.463	-166.47
183.846	-500.84
184.228	1436.73
184.611	-253.66
184.993	-122.39
185.376	-521.39
185.758	-208.35
186.14	-194.94
186.522	-114.51
186.904	-84.21
187.287	-73.44
187.669	-81.74
188.051	-69.94
188.433	-232.87
188.815	-116.01
189.197	-77.88
189.579	-129.12
189.961	-196.03
190.342	-146.1
190.724	-219.84
191.106	-238.27
191.488	-207.2
191.869	-125.83
192.251	-103.77
192.633	-81.7
193.014	-187.54
193.396	-153.54
193.777	-114.59
194.159	-107.66
194.54	-89.22
194.922	-328.23
195.303	-578.38
195.684	-379.52
196.065	-362.15
196.447	-122.31
196.828	-172.38
197.209	-338.22
197.59	-199.72
197.971	-104.52
198.352	-120.48
198.733	-100.31
199.114	-120.57
199.495	-123.87
199.876	-156.95
200.257	-146.23
200.638	-153.1
201.018	-144.21
201.399	-108.74
201.78	-104.13
202.16	-115.9
202.541	-176.93
202.922	-143.01
203.302	-106.82
203.683	-106.38
204.063	-131.66
204.444	-141.2
204.824	-159.06
205.204	-117.16
205.585	-138.4
205.965	-354.41
206.345	-411.67
206.725	-172.81
207.106	-131.41
207.486	-102.61
207.866	-132.74
208.246	-181.93
208.626	-247.78
209.006	-257.86
209.386	-265.58
209.766	-400
210.145	-261.99
210.525	-247.76
210.905	-233
211.285	-353
211.664	-400
212.044	-253.36
212.424	-357.04
212.803	-431.83
213.183	-400
213.562	-543.28
213.942	-471.62
214.321	-442.49
214.701	-1122.63
215.08	-1714.61
215.459	-515.76
215.838	-685.17
216.218	-872.91
216.597	-1613.48
216.976	1178.95
217.355	128600
217.734	-758.85
218.113	-1499.01
218.492	-3985.37
218.871	-534.69
219.25	-400
219.629	-286.41
220.008	-400
220.387	-179.82
220.766	-121.22
221.144	-147.66
221.523	-103.97
221.902	-63.34
222.28	-58.31
222.659	-40.32
223.037	-29.4
223.416	-17.52
223.794	-2.44
224.173	-9.46
224.551	-4.55
224.929	-4.08
225.308	-9.31
225.686	-11.48
226.064	-10.12
226.442	-8.49
226.821	-9.27
227.199	-7.59
227.577	-1.69
227.955	1.06
228.333	-10.42
228.711	-6.27
229.089	-5.93
229.467	-7.25
229.845	-10.32
230.222	-9.68
230.6	-9.71
230.978	-9.39
231.356	-9.95
231.733	-4.94
232.111	-0.95
232.488	-1.83
232.866	1.63
233.243	1.79
233.621	3.78
233.998	4.78
234.376	4.2
234.753	1.71
235.13	-0.52
235.508	-2.18
235.885	-3.55
236.262	-0.75
236.639	-1.25
237.016	-0.33
237.393	1.08
237.77	2.3
238.147	1.57
238.524	0.45
238.901	-0.44
239.278	-1.57
239.655	-2.94
240.032	-2.44
240.409	-2.3
240.785	-2.77
241.162	-2.3
241.539	-1.93
241.915	-1.97
242.292	-0.98
242.668	-0.04
243.045	0.66
243.421	1.41
243.798	1.73
244.174	1.87
244.551	2.04
244.927	2.04
245.303	1.76
245.679	1.69
246.056	1.7
246.432	1.91
246.808	2.21
247.184	2.36
247.56	2.31
247.936	2.23
248.312	2.57
248.688	2.85
249.064	2.89
249.44	2.83
249.815	3.02
250.191	2.99
250.567	2.9
250.943	3.12
251.318	2.84
251.694	2.59
252.069	2.47
252.445	2.32
252.82	2.28
253.196	2.37
253.571	2.35
253.947	2.34
254.322	2.21
254.697	2.09
255.073	2.17
255.448	2.5
255.823	2.77
256.198	2.37
256.573	2.14
256.948	2.05
257.323	2.27
257.698	2.34
258.073	2.09
258.448	2.3
258.823	2.1
259.198	2.18
259.573	2.13
259.948	2.07
260.322	2.14
260.697	2.22
261.072	2.23
261.446	2.27
261.821	2.35
262.195	2.38
262.57	2.46
262.944	2.56
263.319	2.6
263.693	2.38
264.067	2.38
264.442	2.41
264.816	2.38
265.19	2.2
265.564	2.15
265.938	2.13
266.313	2.01
266.687	1.99
267.061	2.04
267.435	2.33
267.809	2.36
268.183	2.29
268.556	2.23
268.93	2.3
269.304	2.25
269.678	2.3
270.051	2.3
270.425	2.23
270.799	2.07
271.172	2.08
271.546	2.24
271.919	2.28
272.293	2.31
272.666	2.3
273.04	2.52
273.413	2.43
273.787	2.54
274.16	2.49
274.533	2.63
274.906	2.61
275.279	2.6
275.653	2.68
276.026	2.74
276.399	2.63
276.772	2.66
277.145	2.75
277.518	2.51
277.891	2.67
278.263	2.75
278.636	2.92
279.009	2.88
279.382	2.73
279.755	2.74
280.127	2.92
280.5	2.88
280.872	2.91
281.245	2.92
281.617	2.97
281.99	3.04
282.362	2.9
282.735	2.83
283.107	2.83
283.479	2.87
283.852	2.92
284.224	3.04
284.596	2.98
284.968	2.95
285.34	3.09
285.713	2.98
286.085	2.94
286.457	2.91
286.829	2.87
287.201	2.86
287.572	2.83
287.944	2.8
288.316	2.96
288.688	2.84
289.06	2.76
289.431	2.87
289.803	2.91
290.175	2.97
290.546	2.97
290.918	2.92
291.289	2.88
291.661	2.88
292.032	2.91
292.403	2.83
292.775	2.95
293.146	3
293.517	3.04
293.889	3
294.26	2.9
294.631	2.94
295.002	2.97
295.373	3.02
295.744	2.95
296.115	2.98
296.486	3.09
296.857	3.2
297.228	3.11
297.599	2.93
297.97	2.93
298.34	3.01
298.711	3.01
299.082	2.99
299.452	2.96
299.823	2.91
300.194	3.11
300.564	3.06
300.935	3.03
301.305	3.01
301.676	3.1
302.046	3.09
302.416	3.11
302.787	3.18
303.157	3.12
303.527	3.17
303.897	3.04
304.267	3
304.637	2.9
305.008	2.76
305.378	2.91
305.748	2.93
306.117	2.94
306.487	2.94
306.857	3.07
307.227	3.2
307.597	3.18
307.967	3.03
308.336	2.89
308.706	2.8
309.076	2.86
309.445	2.84
309.815	2.82
310.184	2.7
310.554	2.61
310.923	2.59
311.293	2.6
311.662	2.53
312.031	2.39
312.401	2.41
312.77	2.48
313.139	2.35
313.508	2.31
313.877	2.2
314.246	2.24
314.616	2.13
314.985	2.09
315.353	2.17
315.722	2.3
316.091	2.36
316.46	2.54
316.829	2.42
317.198	2.46
317.567	2.65
317.935	2.72
318.304	2.97
318.672	3.01
319.041	3.05
319.41	3.07
319.778	3.12
320.147	3.08
320.515	3.16
320.883	3.27
321.252	3.34
321.62	3.4
321.988	3.5
322.357	3.54
322.725	3.64
323.093	3.45
323.461	3.43
323.829	3.5
324.197	3.37
324.565	3.5
324.933	3.51
325.301	3.32
325.669	3.4
326.037	3.2
326.405	3.26
326.772	3.23
327.14	3.19
327.508	3.2
327.875	3.26
328.243	3.17
328.61	3.2
328.978	3.29
329.346	3.19
329.713	3.2
330.08	3.16
330.448	3
330.815	3.02
331.182	2.88
331.55	2.9
331.917	2.89
332.284	2.77
332.651	2.67
333.018	2.74
333.385	2.65
333.752	2.65
334.119	2.67
334.486	2.66
334.853	2.77
335.22	2.7
335.587	2.75
335.954	2.77
336.32	2.73
336.687	2.68
337.054	2.72
337.42	2.61
337.787	2.64
338.153	2.71
338.52	2.85
338.886	2.93
339.253	2.92
339.619	2.89
339.986	2.89
340.352	2.99
340.718	3.04
341.084	3.14
341.451	3.23
341.817	3.25
342.183	3.23
342.549	3.18
342.915	3.21
343.281	3.23
343.647	3.31
344.013	3.39
344.379	3.36
344.745	3.45
345.11	3.48
345.476	3.49
345.842	3.39
346.208	3.39
346.573	3.28
346.939	3.31
347.304	3.41
347.67	3.34
348.035	3.29
348.401	3.22
348.766	3.13
349.132	3.12
349.497	3.09
349.862	3.04
350.228	3.09
350.593	3.12
350.958	3.09
351.323	2.99
351.688	3.02
352.053	3.01
352.418	3.07
352.783	3.06
353.148	3.06
353.513	3.03
353.878	3.01
354.243	3.16
354.608	3.16
354.972	3.09
355.337	3.18
355.702	3.19
356.066	3.29
356.431	3.37
356.795	3.33
357.16	3.34
357.524	3.41
357.889	3.31
358.253	3.34
358.618	3.33
358.982	3.36
359.346	3.3
359.71	3.36
360.075	3.32
360.439	3.29
360.803	3.28
361.167	3.35
361.531	3.34
361.895	3.26
362.259	3.27
362.623	3.32
362.987	3.35
363.351	3.37
363.714	3.34
364.078	3.33
364.442	3.33
364.806	3.38
365.169	3.31
365.533	3.3
365.896	3.3
366.26	3.31
366.623	3.31
366.987	3.33
367.35	3.26
367.714	3.25
368.077	3.31
368.44	3.33
368.803	3.27
369.167	3.27
369.53	3.34
369.893	3.31
370.256	3.27
370.619	3.28
370.982	3.17
371.345	3.2
371.708	3.25
372.071	3.24
372.434	3.18
372.797	3.27
373.159	3.32
373.522	3.27
373.885	3.25
374.247	3.18
374.61	3.2
374.973	3.22
375.335	3.15
375.698	3.09
376.06	3.05
376.423	3.07
376.785	3.09
377.147	3
377.51	2.96
377.872	3
378.234	3
378.596	3.09
378.958	3.08
379.321	3.02
379.683	3.1
380.045	3.1
380.407	3.12
380.769	3.13
381.13	3.15
381.492	3.14
381.854	3.19
382.216	3.23
382.578	3.18
382.939	3.2
383.301	3.21
383.663	3.25
384.024	3.25
384.386	3.26
384.747	3.31
385.109	3.34
385.47	3.38
385.832	3.35
386.193	3.33
386.554	3.35
386.916	3.35
387.277	3.28
387.638	3.3
387.999	3.25
388.36	3.27
388.721	3.31
389.082	3.32
389.443	3.35
389.804	3.32
390.165	3.38
390.526	3.42
390.887	3.4
391.248	3.38
391.609	3.38
391.969	3.33
392.33	3.33
392.691	3.34
393.051	3.29
393.412	3.27
393.772	3.27
394.133	3.24
394.493	3.21
394.854	3.22
395.214	3.21
395.574	3.22
395.935	3.21
396.295	3.19
396.655	3.18
397.015	3.18
397.376	3.16
397.736	3.15
398.096	3.11
398.456	3.1
398.816	3.11
399.176	3.11
399.535	3.12
399.895	3.12
400.255	3.11
400.615	3.11
400.975	3.13
401.334	3.13
401.694	3.14
402.054	3.16
402.413	3.16
402.773	3.14
403.132	3.11
403.492	3.11
403.851	3.11
404.211	3.13
404.57	3.15
404.929	3.16
405.288	3.18
405.648	3.2
406.007	3.19
406.366	3.19
406.725	3.16
407.084	3.17
407.443	3.15
407.802	3.15
408.161	3.18
408.52	3.15
408.879	3.17
409.238	3.15
409.596	3.16
409.955	3.15
410.314	3.16
410.673	3.16
411.031	3.14
411.39	3.16
411.748	3.15
412.107	3.13
412.465	3.13
412.824	3.13
413.182	3.13
413.54	3.15
413.899	3.14
414.257	3.17
414.615	3.17
414.974	3.19
415.332	3.19
415.69	3.18
416.048	3.2
416.406	3.18
416.764	3.2
417.122	3.21
417.48	3.21
417.838	3.21
418.195	3.21
418.553	3.21
418.911	3.19
419.269	3.19
419.626	3.18
419.984	3.17
420.342	3.16
420.699	3.16
421.057	3.15
421.414	3.16
421.772	3.16
422.129	3.15
422.486	3.15
422.844	3.14
423.201	3.14
423.558	3.14
423.915	3.12
424.273	3.12
424.63	3.12
424.987	3.12
425.344	3.12
425.701	3.11
426.058	3.12
426.415	3.12
426.772	3.11
427.128	3.12
427.485	3.13
427.842	3.12
428.199	3.12
428.555	3.12
428.912	3.1
429.269	3.11
429.625	3.13
429.982	3.13
430.338	3.16
430.695	3.13
431.051	3.14
431.407	3.16
431.764	3.14
432.12	3.16
432.476	3.15
432.832	3.15
433.189	3.14
433.545	3.15
433.901	3.15
434.257	3.15
434.613	3.15
434.969	3.15
435.325	3.16
435.681	3.16
436.036	3.17
436.392	3.16
436.748	3.16
437.104	3.16
437.459	3.14
437.815	3.15
438.171	3.16
438.526	3.15
438.882	3.15
439.237	3.16
439.593	3.14
439.948	3.14
440.304	3.13
440.659	3.14
441.014	3.13
441.369	3.13
441.725	3.14
442.08	3.13
442.435	3.12
442.79	3.12
443.145	3.13
443.5	3.12
443.855	3.13
444.21	3.14
444.565	3.14
444.92	3.13
445.275	3.13
445.629	3.14
445.984	3.15
446.339	3.14
446.693	3.14
447.048	3.12
447.403	3.12
447.757	3.12
448.112	3.14
448.466	3.14
448.82	3.14
449.175	3.13
449.529	3.14
449.883	3.14
450.238	3.13
450.592	3.12
450.946	3.11
451.3	3.11
451.654	3.09
452.008	3.08
452.362	3.07
452.716	3.06
453.07	3.05
453.424	3.03
453.778	3.03
454.132	3.02
454.486	3.05
454.839	3.04
455.193	3.05
455.547	3.04
455.9	3.05
456.254	3.05
456.607	3.07
456.961	3.06
457.314	3.06
457.668	3.06
458.021	3.05
458.375	3.06
458.728	3.05
459.081	3.06
459.434	3.07
459.787	3.08
460.141	3.07
460.494	3.08
460.847	3.09
461.2	3.09
461.553	3.11
461.906	3.1
462.259	3.09
462.611	3.1
462.964	3.1
463.317	3.08
463.67	3.09
464.022	3.09
464.375	3.09
464.728	3.11
465.08	3.11
465.433	3.11
465.785	3.13
466.138	3.14
466.49	3.15
466.843	3.14
467.195	3.14
467.547	3.14
467.899	3.15
468.252	3.18
468.604	3.19
468.956	3.17
469.308	3.19
469.66	3.2
470.012	3.21
470.364	3.23
470.716	3.25
471.068	3.27
471.42	3.27
471.772	3.28
472.123	3.28
472.475	3.27
472.827	3.3
473.178	3.31
473.53	3.31
473.882	3.31
474.233	3.32
474.585	3.35
474.936	3.36
475.288	3.37
475.639	3.36
475.99	3.35
476.342	3.37
476.693	3.37
477.044	3.36
477.395	3.34
477.746	3.33
478.097	3.34
478.448	3.31
478.8	3.3
479.15	3.28
479.501	3.28
479.852	3.27
480.203	3.26
480.554	3.26
480.905	3.25
481.255	3.25
481.606	3.26
481.957	3.26
482.307	3.26
482.658	3.27
483.009	3.26
483.359	3.26
483.709	3.26
484.06	3.27
484.41	3.27
484.761	3.28
485.111	3.28
485.461	3.29
485.811	3.29
486.162	3.29
486.512	3.3
486.862	3.3
487.212	3.32
487.562	3.32
487.912	3.32
488.262	3.32
488.612	3.32
488.961	3.32
489.311	3.31
489.661	3.31
490.011	3.3
490.36	3.31
490.71	3.32
491.06	3.32
491.409	3.31
491.759	3.31
492.108	3.29
492.458	3.29
492.807	3.29
493.157	3.3
493.506	3.29
493.855	3.29
494.204	3.29
494.554	3.27
494.903	3.28
495.252	3.29
495.601	3.29
495.95	3.3
496.299	3.32
496.648	3.33
496.997	3.33
497.346	3.35
497.695	3.35
498.043	3.35
498.392	3.36
498.741	3.35
499.09	3.37
499.438	3.4
499.787	3.42
500.135	3.42
500.484	3.43
500.832	3.44
501.181	3.45
501.529	3.45
501.878	3.48
502.226	3.47
502.574	3.46
502.923	3.47
503.271	3.48
503.619	3.47
503.967	3.47
504.315	3.48
504.663	3.49
505.011	3.5
505.359	3.5
505.707	3.5
506.055	3.52
506.403	3.55
506.751	3.56
507.098	3.57
507.446	3.57
507.794	3.57
508.141	3.58
508.489	3.6
508.837	3.61
509.184	3.61
509.531	3.64
509.879	3.67
510.226	3.7
510.574	3.71
510.921	3.72
511.268	3.7
511.616	3.72
511.963	3.7
512.31	3.69
512.657	3.69
513.004	3.69
513.351	3.69
513.698	3.69
514.045	3.7
514.392	3.72
514.739	3.74
515.086	3.76
515.432	3.77
515.779	3.77
516.126	3.79
516.473	3.8
516.819	3.8
517.166	3.8
517.512	3.79
517.859	3.79
518.205	3.8
518.552	3.83
518.898	3.84
519.245	3.87
519.591	3.89
519.937	3.91
520.283	3.92
520.629	3.93
520.976	3.93
521.322	3.93
521.668	3.92
522.014	3.92
522.36	3.91
522.706	3.9
523.052	3.9
523.398	3.9
523.743	3.93
524.089	3.94
524.435	3.95
524.781	3.95
525.126	3.95
525.472	3.97
525.817	3.97
526.163	3.97
526.509	3.96
526.854	3.96
527.199	3.97
527.545	3.98
527.89	3.98
528.235	3.99
528.581	3.99
528.926	4
529.271	4.01
529.616	4.02
529.961	4.02
530.306	4.03
530.651	4.03
530.996	4.03
531.341	4.04
531.686	4.02
532.031	4.03
532.376	4.04
532.721	4.04
533.065	4.05
533.41	4.06
533.755	4.07
534.099	4.08
534.444	4.08
534.788	4.08
535.133	4.08
535.477	4.08
535.822	4.08
536.166	4.09
536.51	4.07
536.855	4.05
537.199	4.05
537.543	4.08
537.887	4.09
538.231	4.09
538.576	4.09
538.92	4.11
539.264	4.11
539.608	4.1
539.951	4.11
540.295	4.1
540.639	4.1
540.983	4.09
541.327	4.1
541.671	4.1
542.014	4.12
542.358	4.13
542.701	4.13
543.045	4.14
543.389	4.13
543.732	4.15
544.075	4.16
544.419	4.17
544.762	4.16
545.105	4.15
545.449	4.15
545.792	4.15
546.135	4.14
546.478	4.13
546.821	4.15
547.165	4.14
547.508	4.14
547.851	4.14
548.194	4.15
548.536	4.14
548.879	4.14
549.222	4.13
549.565	4.11
549.908	4.09
550.25	4.08
550.593	4.1
550.936	4.08
551.278	4.1
551.621	4.07
551.963	4.07
552.306	4.06
552.648	4.06
552.991	4.04
553.333	4.07
553.675	4.09
554.017	4.09
554.36	4.08
554.702	4.08
555.044	4.07
555.386	4.07
555.728	4.07
556.07	4.05
556.412	4.04
556.754	4.04
557.096	4.06
557.438	4.06
557.78	4.03
558.121	4.02
558.463	3.99
558.805	4.02
559.147	4.03
559.488	4.02
559.83	4.04
560.171	4.05
560.513	4.03
560.854	4.02
561.196	4.01
561.537	4.02
561.878	4.06
562.22	4.08
562.561	4.08
562.902	4.08
563.243	4.07
563.584	4.08
563.925	4.09
564.266	4.08
564.607	4.11
564.948	4.13
565.289	4.16
565.63	4.14
565.971	4.16
566.312	4.15
566.653	4.16
566.993	4.14
567.334	4.15
567.675	4.18
568.015	4.16
568.356	4.14
568.696	4.15
569.037	4.12
569.377	4.12
569.718	4.13
570.058	4.14
570.398	4.15
570.739	4.17
571.079	4.17
571.419	4.18
571.759	4.16
572.099	4.18
572.439	4.17
572.779	4.18
573.119	4.18
573.459	4.18
573.799	4.16
574.139	4.19
574.479	4.19
574.819	4.18
575.158	4.21
575.498	4.22
575.838	4.21
576.177	4.21
576.517	4.23
576.856	4.2
577.196	4.22
577.535	4.22
577.875	4.17
578.214	4.19
578.553	4.15
578.893	4.15
579.232	4.1
579.571	4.14
579.91	4.16
580.25	4.12
580.589	4.12
580.928	4.12
581.267	4.09
581.606	4.08
581.945	4.08
582.283	4.08
582.622	4.06
582.961	4.08
583.3	4.08
583.639	4.04
583.977	4.01
584.316	4
584.654	4
584.993	4.02
585.332	3.99
585.67	4
586.008	4.02
586.347	4.05
586.685	3.99
587.024	3.99
587.362	4.01
587.7	4.01
588.038	4.05
588.376	4.04
588.715	4.06
589.053	4.03
589.391	4.05
589.729	4.07
590.067	4.07
590.404	4.07
590.742	4.06
591.08	4.12
591.418	4.15
591.756	4.18
592.093	4.18
592.431	4.21
592.769	4.22
593.106	4.21
593.444	4.2
593.781	4.25
594.119	4.26
594.456	4.26
594.793	4.28
595.131	4.3
595.468	4.35
595.805	4.32
596.143	4.33
596.48	4.33
596.817	4.35
597.154	4.37
597.491	4.36
597.828	4.37
598.165	4.36
598.502	4.35
598.839	4.33
599.176	4.32
599.512	4.31
599.849	4.34
600.186	4.3
600.523	4.31
600.859	4.27
601.196	4.27
601.532	4.29
601.869	4.3
602.205	4.27
602.542	4.24
602.878	4.29
603.215	4.29
603.551	4.23
603.887	4.2
604.223	4.18
604.56	4.19
604.896	4.19
605.232	4.17
605.568	4.13
605.904	4.11
606.24	4.16
606.576	4.17
606.912	4.16
607.248	4.19
607.583	4.19
607.919	4.2
608.255	4.19
608.591	4.2
608.926	4.18
609.262	4.18
609.597	4.19
609.933	4.18
610.268	4.18
610.604	4.23
610.939	4.28
611.275	4.3
611.61	4.31
611.945	4.29
612.281	4.32
612.616	4.37
612.951	4.44
613.286	4.39
613.621	4.39
613.956	4.37
614.291	4.36
614.626	4.34
614.961	4.38
615.296	4.4
615.631	4.38
615.966	4.38
616.3	4.43
616.635	4.43
616.97	4.4
617.304	4.39
617.639	4.34
617.973	4.29
618.308	4.26
618.642	4.26
618.977	4.24
619.311	4.24
619.646	4.21
619.98	4.13
620.314	4.13
620.648	4.11
620.983	4.11
621.317	4.16
621.651	4.14
621.985	4.14
622.319	4.13
622.653	4.15
622.987	4.15
623.321	4.11
623.655	4.09
623.988	4.15
624.322	4.2
624.656	4.24
624.99	4.24
625.323	4.25
625.657	4.25
625.99	4.3
626.324	4.3
626.657	4.31
626.991	4.36
627.324	4.37
627.658	4.38
627.991	4.4
628.324	4.4
628.657	4.41
628.991	4.41
629.324	4.41
629.657	4.41
629.99	4.4
630.323	4.37
630.656	4.38
630.989	4.32
631.322	4.28
631.655	4.32
631.987	4.33
632.32	4.33
632.653	4.33
632.986	4.34
633.318	4.34
633.651	4.35
633.984	4.34
634.316	4.34
634.649	4.34
634.981	4.35
635.313	4.37
635.646	4.4
635.978	4.37
636.31	4.37
636.643	4.36
636.975	4.35
637.307	4.37
637.639	4.36
637.971	4.29
638.303	4.34
638.635	4.27
638.967	4.25
639.299	4.21
639.631	4.23
639.963	4.21
640.295	4.26
640.626	4.22
640.958	4.22
641.29	4.22
641.621	4.22
641.953	4.17
642.285	4.12
642.616	4.14
642.948	4.1
643.279	4.09
643.61	4.12
643.942	4.16
644.273	4.16
644.604	4.21
644.936	4.3
645.267	4.34
645.598	4.37
645.929	4.39
646.26	4.37
646.591	4.32
646.922	4.36
647.253	4.26
647.584	4.29
647.915	4.3
648.245	4.29
648.576	4.31
648.907	4.35
649.238	4.33
649.568	4.3
649.899	4.34
650.229	4.38
650.56	4.3
650.89	4.34
651.221	4.36
651.551	4.37
651.882	4.39
652.212	4.31
652.542	4.33
652.872	4.32
653.203	4.39
653.533	4.48
653.863	4.46
654.193	4.51
654.523	4.47
654.853	4.53
655.183	4.54
655.513	4.56
655.843	4.53
656.172	4.57
656.502	4.52
656.832	4.54
657.162	4.53
657.491	4.57
657.821	4.52
658.15	4.55
658.48	4.58
658.809	4.56
659.139	4.56
659.468	4.52
659.798	4.55
660.127	4.52
660.456	4.46
660.785	4.47
661.115	4.48
661.444	4.53
661.773	4.41
662.102	4.43
662.431	4.43
662.76	4.47
663.089	4.52
663.418	4.58
663.747	4.52
664.076	4.43
664.404	4.47
664.733	4.52
665.062	4.47
665.39	4.39
665.719	4.4
666.048	4.37
666.376	4.4
666.705	4.38
667.033	4.43
667.362	4.46
667.69	4.46
668.018	4.49
668.347	4.44
668.675	4.62
669.003	4.57
669.331	4.53
669.659	4.55
669.987	4.56
670.315	4.59
670.643	4.69
670.971	4.8
671.299	4.76
671.627	4.69
671.955	4.72
672.283	4.68
672.61	4.68
672.938	4.75
673.266	4.77
673.593	4.75
673.921	4.76
674.249	4.75
674.576	4.73
674.904	4.66
675.231	4.71
675.558	4.65
