Data from BU26939_Reflection_00010.txt Node
Date: Tue Nov 19 10:56:53 EST 2019
User: vgr7
Spectrometer: USB2G7710
Scans to average: 3
Trigger mode: 4
Integration Time (sec): 2.000000E-2
Electric dark correction enabled: true
Boxcar width: 10
XAxis mode: Wavelengths
Number of Pixels in Spectrum: 2048
>>>>>Begin Spectral Data<<<<<
177.721	10.88
178.105	-2.84
178.488	-46.75
178.871	-148.48
179.254	7.41
179.636	119.9
180.019	868.82
180.402	88.24
180.785	-25.16
181.168	-63.48
181.55	-585.19
181.933	317.17
182.316	-140.11
182.698	-4.94
183.081	568.25
183.463	335.63
183.846	165.89
184.228	124.22
184.611	88.54
184.993	63.93
185.376	48.02
185.758	41.74
186.14	23.47
186.522	19.98
186.904	7.18
187.287	48.45
187.669	63.93
188.051	55.48
188.433	49.95
188.815	60.37
189.197	49.69
189.579	25.75
189.961	15.23
190.342	24.61
190.724	-0.13
191.106	-4
191.488	-1.39
191.869	1.55
192.251	2.44
192.633	-0.32
193.014	6.01
193.396	12.13
193.777	14.35
194.159	18.32
194.54	15.92
194.922	7.81
195.303	-1.8
195.684	-13.39
196.065	-4.3
196.447	3.81
196.828	7.99
197.209	11.07
197.59	14.62
197.971	10.42
198.352	-0.08
198.733	5.05
199.114	-2.73
199.495	2.9
199.876	2.85
200.257	-2.97
200.638	-0.28
201.018	0.15
201.399	-1.21
201.78	-4.53
202.16	3.01
202.541	7.1
202.922	10.52
203.302	11.22
203.683	21.92
204.063	22.96
204.444	3.03
204.824	-2.1
205.204	9.2
205.585	13.17
205.965	17.08
206.345	17.09
206.725	17.46
207.106	15.15
207.486	10.09
207.866	16.38
208.246	28.46
208.626	24.9
209.006	18.78
209.386	21.38
209.766	22.72
210.145	14.77
210.525	8.05
210.905	3.57
211.285	14.59
211.664	20.19
212.044	18.92
212.424	27.46
212.803	24.8
213.183	14.78
213.562	20.58
213.942	19.4
214.321	15.22
214.701	9.94
215.08	15.47
215.459	30.45
215.838	28.47
216.218	32.03
216.597	37.37
216.976	31.75
217.355	35.04
217.734	25.84
218.113	24.79
218.492	24.79
218.871	44.44
219.25	37.09
219.629	28.02
220.008	15.22
220.387	27.72
220.766	43.69
221.144	47.53
221.523	38.8
221.902	48.74
222.28	51.45
222.659	55.91
223.037	45.05
223.416	32.17
223.794	27.06
224.173	16.73
224.551	18.76
224.929	18.95
225.308	18.39
225.686	21.03
226.064	17.74
226.442	20.91
226.821	14.73
227.199	13.03
227.577	15.17
227.955	17.78
228.333	10.58
228.711	9.77
229.089	9.76
229.467	5.32
229.845	2.62
230.222	2.29
230.6	-0.23
230.978	1
231.356	-1.07
231.733	-0.9
232.111	0.75
232.488	0.59
232.866	2.62
233.243	0.96
233.621	0.92
233.998	1.76
234.376	1.07
234.753	0.59
235.13	-0.29
235.508	-1.41
235.885	-3.1
236.262	-1.77
236.639	-1.43
237.016	0.13
237.393	2.66
237.77	3.84
238.147	4.25
238.524	4.9
238.901	5.07
239.278	5.65
239.655	5.52
240.032	4.64
240.409	4.3
240.785	3.6
241.162	3.85
241.539	3.66
241.915	3.81
242.292	4.02
242.668	3.76
243.045	3.98
243.421	4.5
243.798	4.47
244.174	4.41
244.551	4.2
244.927	4.01
245.303	3.8
245.679	3.55
246.056	3.67
246.432	3.5
246.808	3.68
247.184	3.94
247.56	3.89
247.936	4.14
248.312	4.14
248.688	4.17
249.064	4.17
249.44	4.04
249.815	4.11
250.191	4.27
250.567	4.66
250.943	4.85
251.318	4.5
251.694	4.43
252.069	4.51
252.445	4.51
252.82	4.54
253.196	4.51
253.571	5.03
253.947	4.79
254.322	4.72
254.697	4.49
255.073	4.19
255.448	4.21
255.823	4.13
256.198	4.05
256.573	4.1
256.948	4.09
257.323	4.48
257.698	4.27
258.073	3.91
258.448	3.92
258.823	3.68
259.198	3.75
259.573	3.79
259.948	3.82
260.322	3.87
260.697	4.04
261.072	4.11
261.446	4
261.821	3.94
262.195	4
262.57	4.1
262.944	4.06
263.319	4.24
263.693	4.05
264.067	4.02
264.442	4.09
264.816	4.11
265.19	3.93
265.564	4.01
265.938	4.35
266.313	4.11
266.687	4.17
267.061	4.06
267.435	4.16
267.809	4.06
268.183	4.05
268.556	3.71
268.93	3.86
269.304	3.67
269.678	3.82
270.051	3.76
270.425	3.83
270.799	3.85
271.172	3.68
271.546	3.85
271.919	3.84
272.293	3.78
272.666	3.76
273.04	3.74
273.413	3.77
273.787	3.46
274.16	3.53
274.533	3.71
274.906	3.91
275.279	3.86
275.653	3.92
276.026	3.98
276.399	4.02
276.772	4.14
277.145	4.37
277.518	4.29
277.891	4.25
278.263	4.12
278.636	4.24
279.009	4.15
279.382	4
279.755	3.97
280.127	4.04
280.5	3.91
280.872	3.98
281.245	3.85
281.617	4.23
281.99	4.26
282.362	4.07
282.735	3.85
283.107	3.75
283.479	3.72
283.852	3.61
284.224	3.64
284.596	3.31
284.968	3.18
285.34	3.23
285.713	3.36
286.085	3.36
286.457	3.14
286.829	3.25
287.201	3.34
287.572	3.5
287.944	3.45
288.316	3.5
288.688	3.37
289.06	3.44
289.431	3.33
289.803	3.29
290.175	3.42
290.546	3.49
290.918	3.57
291.289	3.55
291.661	3.65
292.032	3.62
292.403	3.83
292.775	3.97
293.146	3.93
293.517	3.85
293.889	3.83
294.26	4.03
294.631	3.92
295.002	3.98
295.373	3.85
295.744	3.87
296.115	3.96
296.486	4.06
296.857	4.08
297.228	3.97
297.599	4.02
297.97	4.06
298.34	4.14
298.711	4.15
299.082	4.19
299.452	4.23
299.823	4.25
300.194	4.24
300.564	4.15
300.935	4.28
301.305	4.25
301.676	4.17
302.046	4.21
302.416	4.27
302.787	4.33
303.157	4.37
303.527	4.46
303.897	4.43
304.267	4.51
304.637	4.61
305.008	4.74
305.378	4.87
305.748	4.79
306.117	4.77
306.487	4.65
306.857	4.75
307.227	4.75
307.597	4.85
307.967	4.81
308.336	4.87
308.706	4.83
309.076	5.03
309.445	5.31
309.815	5.32
310.184	5.35
310.554	5.4
310.923	5.46
311.293	5.48
311.662	5.64
312.031	5.58
312.401	5.46
312.77	5.44
313.139	5.43
313.508	5.41
313.877	5.44
314.246	5.65
314.616	5.67
314.985	5.65
315.353	5.66
315.722	5.73
316.091	5.72
316.46	5.73
316.829	5.7
317.198	5.54
317.567	5.57
317.935	5.62
318.304	5.7
318.672	5.82
319.041	5.79
319.41	5.64
319.778	5.85
320.147	5.98
320.515	6.13
320.883	6.09
321.252	6.29
321.62	6.34
321.988	6.34
322.357	6.38
322.725	6.41
323.093	6.47
323.461	6.7
323.829	6.84
324.197	6.93
324.565	6.98
324.933	7.07
325.301	7.04
325.669	7.07
326.037	7.16
326.405	7.04
326.772	7
327.14	6.94
327.508	6.9
327.875	6.88
328.243	6.85
328.61	6.9
328.978	6.77
329.346	6.74
329.713	6.8
330.08	6.8
330.448	6.82
330.815	6.86
331.182	6.71
331.55	6.62
331.917	6.66
332.284	6.64
332.651	6.74
333.018	6.77
333.385	6.82
333.752	6.76
334.119	6.9
334.486	6.92
334.853	7.02
335.22	6.94
335.587	7.04
335.954	7.1
336.32	7.16
336.687	7.2
337.054	7.33
337.42	7.24
337.787	7.19
338.153	7.32
338.52	7.44
338.886	7.48
339.253	7.48
339.619	7.52
339.986	7.53
340.352	7.6
340.718	7.65
341.084	7.62
341.451	7.57
341.817	7.59
342.183	7.68
342.549	7.68
342.915	7.82
343.281	7.76
343.647	7.72
344.013	7.73
344.379	7.79
344.745	7.79
345.11	7.8
345.476	8.02
345.842	7.93
346.208	7.87
346.573	7.79
346.939	7.81
347.304	7.75
347.67	7.81
348.035	7.71
348.401	7.8
348.766	7.87
349.132	7.93
349.497	7.93
349.862	7.98
350.228	8.09
350.593	8.01
350.958	8.13
351.323	8.14
351.688	8.2
352.053	8.26
352.418	8.2
352.783	8.33
353.148	8.2
353.513	8.13
353.878	8.02
354.243	8.11
354.608	8.18
354.972	8.19
355.337	8.17
355.702	8.19
356.066	8.14
356.431	8.1
356.795	8.15
357.16	8.12
357.524	8.12
357.889	8.04
358.253	8.07
358.618	8.04
358.982	8.05
359.346	7.99
359.71	7.99
360.075	7.98
360.439	7.91
360.803	7.96
361.167	7.97
361.531	8.05
361.895	7.99
362.259	7.97
362.623	7.89
362.987	7.9
363.351	7.79
363.714	7.72
364.078	7.72
364.442	7.59
364.806	7.6
365.169	7.53
365.533	7.53
365.896	7.54
366.26	7.42
366.623	7.42
366.987	7.44
367.35	7.39
367.714	7.39
368.077	7.41
368.44	7.34
368.803	7.38
369.167	7.31
369.53	7.25
369.893	7.21
370.256	7.27
370.619	7.18
370.982	7.2
371.345	7.16
371.708	7.13
372.071	7.12
372.434	7.05
372.797	7.03
373.159	6.95
373.522	6.86
373.885	6.91
374.247	6.84
374.61	6.78
374.973	6.81
375.335	6.79
375.698	6.67
376.06	6.61
376.423	6.53
376.785	6.46
377.147	6.4
377.51	6.35
377.872	6.23
378.234	6.26
378.596	6.24
378.958	6.22
379.321	6.16
379.683	6.16
380.045	6.1
380.407	6.04
380.769	6.01
381.13	5.92
381.492	5.88
381.854	5.83
382.216	5.76
382.578	5.67
382.939	5.63
383.301	5.63
383.663	5.62
384.024	5.6
384.386	5.59
384.747	5.58
385.109	5.56
385.47	5.6
385.832	5.55
386.193	5.52
386.554	5.45
386.916	5.48
387.277	5.43
387.638	5.42
387.999	5.4
388.36	5.39
388.721	5.42
389.082	5.4
389.443	5.4
389.804	5.38
390.165	5.32
390.526	5.29
390.887	5.26
391.248	5.21
391.609	5.19
391.969	5.18
392.33	5.2
392.691	5.17
393.051	5.12
393.412	5.09
393.772	5.08
394.133	5.09
394.493	5
394.854	4.96
395.214	4.94
395.574	4.9
395.935	4.86
396.295	4.81
396.655	4.75
397.015	4.73
397.376	4.71
397.736	4.68
398.096	4.61
398.456	4.6
398.816	4.56
399.176	4.5
399.535	4.45
399.895	4.38
400.255	4.37
400.615	4.34
400.975	4.28
401.334	4.21
401.694	4.19
402.054	4.18
402.413	4.15
402.773	4.13
403.132	4.12
403.492	4.12
403.851	4.11
404.211	4.07
404.57	4.05
404.929	4.01
405.288	4.03
405.648	4.04
406.007	4.02
406.366	4.04
406.725	4.04
407.084	4.01
407.443	4.03
407.802	4
408.161	3.97
408.52	4
408.879	4.01
409.238	4.01
409.596	4.01
409.955	4.02
410.314	4
410.673	3.99
411.031	3.95
411.39	3.93
411.748	3.95
412.107	3.91
412.465	3.94
412.824	3.9
413.182	3.89
413.54	3.91
413.899	3.88
414.257	3.9
414.615	3.91
414.974	3.91
415.332	3.93
415.69	3.94
416.048	3.93
416.406	3.9
416.764	3.88
417.122	3.87
417.48	3.86
417.838	3.86
418.195	3.84
418.553	3.83
418.911	3.82
419.269	3.8
419.626	3.79
419.984	3.77
420.342	3.77
420.699	3.75
421.057	3.72
421.414	3.72
421.772	3.7
422.129	3.67
422.486	3.66
422.844	3.64
423.201	3.63
423.558	3.62
423.915	3.62
424.273	3.6
424.63	3.6
424.987	3.59
425.344	3.58
425.701	3.58
426.058	3.58
426.415	3.57
426.772	3.57
427.128	3.57
427.485	3.57
427.842	3.56
428.199	3.56
428.555	3.54
428.912	3.51
429.269	3.51
429.625	3.54
429.982	3.54
430.338	3.53
430.695	3.53
431.051	3.51
431.407	3.48
431.764	3.47
432.12	3.47
432.476	3.46
432.832	3.47
433.189	3.44
433.545	3.43
433.901	3.44
434.257	3.44
434.613	3.42
434.969	3.41
435.325	3.41
435.681	3.42
436.036	3.44
436.392	3.43
436.748	3.41
437.104	3.4
437.459	3.38
437.815	3.37
438.171	3.37
438.526	3.38
438.882	3.39
439.237	3.4
439.593	3.41
439.948	3.39
440.304	3.4
440.659	3.41
441.014	3.41
441.369	3.4
441.725	3.41
442.08	3.44
442.435	3.44
442.79	3.43
443.145	3.43
443.5	3.41
443.855	3.42
444.21	3.43
444.565	3.42
444.92	3.43
445.275	3.43
445.629	3.43
445.984	3.43
446.339	3.44
446.693	3.44
447.048	3.39
447.403	3.39
447.757	3.37
448.112	3.37
448.466	3.36
448.82	3.35
449.175	3.33
449.529	3.31
449.883	3.3
450.238	3.3
450.592	3.28
450.946	3.28
451.3	3.27
451.654	3.26
452.008	3.25
452.362	3.24
452.716	3.21
453.07	3.2
453.424	3.18
453.778	3.17
454.132	3.18
454.486	3.19
454.839	3.2
455.193	3.2
455.547	3.21
455.9	3.22
456.254	3.22
456.607	3.23
456.961	3.23
457.314	3.23
457.668	3.23
458.021	3.24
458.375	3.24
458.728	3.25
459.081	3.27
459.434	3.27
459.787	3.27
460.141	3.29
460.494	3.32
460.847	3.33
461.2	3.32
461.553	3.31
461.906	3.34
462.259	3.33
462.611	3.34
462.964	3.36
463.317	3.37
463.67	3.38
464.022	3.4
464.375	3.4
464.728	3.42
465.08	3.44
465.433	3.44
465.785	3.47
466.138	3.48
466.49	3.47
466.843	3.47
467.195	3.49
467.547	3.49
467.899	3.45
468.252	3.47
468.604	3.49
468.956	3.52
469.308	3.5
469.66	3.51
470.012	3.54
470.364	3.53
470.716	3.54
471.068	3.56
471.42	3.58
471.772	3.59
472.123	3.6
472.475	3.58
472.827	3.57
473.178	3.58
473.53	3.56
473.882	3.6
474.233	3.6
474.585	3.61
474.936	3.62
475.288	3.64
475.639	3.66
475.99	3.64
476.342	3.62
476.693	3.63
477.044	3.64
477.395	3.63
477.746	3.63
478.097	3.62
478.448	3.62
478.8	3.59
479.15	3.58
479.501	3.56
479.852	3.56
480.203	3.58
480.554	3.57
480.905	3.58
481.255	3.58
481.606	3.58
481.957	3.58
482.307	3.56
482.658	3.57
483.009	3.56
483.359	3.57
483.709	3.57
484.06	3.57
484.41	3.57
484.761	3.57
485.111	3.56
485.461	3.57
485.811	3.56
486.162	3.56
486.512	3.56
486.862	3.56
487.212	3.56
487.562	3.56
487.912	3.56
488.262	3.56
488.612	3.55
488.961	3.55
489.311	3.54
489.661	3.55
490.011	3.54
490.36	3.54
490.71	3.53
491.06	3.54
491.409	3.54
491.759	3.55
492.108	3.55
492.458	3.55
492.807	3.55
493.157	3.57
493.506	3.58
493.855	3.59
494.204	3.61
494.554	3.63
494.903	3.62
495.252	3.63
495.601	3.65
495.95	3.66
496.299	3.71
496.648	3.75
496.997	3.78
497.346	3.81
497.695	3.85
498.043	3.91
498.392	3.96
498.741	3.99
499.09	4.02
499.438	4.08
499.787	4.14
500.135	4.17
500.484	4.21
500.832	4.28
501.181	4.35
501.529	4.43
501.878	4.49
502.226	4.57
502.574	4.63
502.923	4.7
503.271	4.76
503.619	4.82
503.967	4.89
504.315	4.96
504.663	5.03
505.011	5.12
505.359	5.19
505.707	5.25
506.055	5.34
506.403	5.44
506.751	5.53
507.098	5.62
507.446	5.74
507.794	5.84
508.141	5.94
508.489	6.05
508.837	6.12
509.184	6.27
509.531	6.39
509.879	6.5
510.226	6.65
510.574	6.8
510.921	6.94
511.268	7.08
511.616	7.22
511.963	7.39
512.31	7.53
512.657	7.68
513.004	7.83
513.351	8.01
513.698	8.18
514.045	8.38
514.392	8.58
514.739	8.79
515.086	8.99
515.432	9.19
515.779	9.39
516.126	9.61
516.473	9.77
516.819	9.95
517.166	10.15
517.512	10.29
517.859	10.45
518.205	10.59
518.552	10.77
518.898	10.95
519.245	11.13
519.591	11.33
519.937	11.52
520.283	11.74
520.629	11.96
520.976	12.2
521.322	12.41
521.668	12.61
522.014	12.85
522.36	13.1
522.706	13.38
523.052	13.67
523.398	13.95
523.743	14.26
524.089	14.57
524.435	14.89
524.781	15.2
525.126	15.46
525.472	15.72
525.817	15.94
526.163	16.15
526.509	16.34
526.854	16.52
527.199	16.68
527.545	16.85
527.89	17.01
528.235	17.17
528.581	17.35
528.926	17.54
529.271	17.72
529.616	17.88
529.961	18.03
530.306	18.21
530.651	18.39
530.996	18.59
531.341	18.79
531.686	18.96
532.031	19.17
532.376	19.4
532.721	19.6
533.065	19.82
533.41	20.04
533.755	20.28
534.099	20.51
534.444	20.76
534.788	20.98
535.133	21.2
535.477	21.42
535.822	21.63
536.166	21.88
536.51	22.15
536.855	22.45
537.199	22.75
537.543	23.03
537.887	23.35
538.231	23.66
538.576	23.98
538.92	24.31
539.264	24.57
539.608	24.82
539.951	25.1
540.295	25.33
540.639	25.59
540.983	25.8
541.327	26.01
541.671	26.21
542.014	26.45
542.358	26.66
542.701	26.85
543.045	27.08
543.389	27.3
543.732	27.5
544.075	27.71
544.419	27.92
544.762	28.16
545.105	28.37
545.449	28.59
545.792	28.81
546.135	29.01
546.478	29.24
546.821	29.56
547.165	29.82
547.508	30.09
547.851	30.35
548.194	30.63
548.536	30.94
548.879	31.21
549.222	31.46
549.565	31.76
549.908	32.09
550.25	32.36
550.593	32.61
550.936	32.89
551.278	33.18
551.621	33.44
551.963	33.71
552.306	33.99
552.648	34.25
552.991	34.5
553.333	34.74
553.675	35.01
554.017	35.22
554.36	35.39
554.702	35.58
555.044	35.82
555.386	36.02
555.728	36.26
556.07	36.53
556.412	36.73
556.754	36.96
557.096	37.16
557.438	37.41
557.78	37.65
558.121	37.87
558.463	38.1
558.805	38.3
559.147	38.5
559.488	38.71
559.83	38.91
560.171	39.13
560.513	39.35
560.854	39.6
561.196	39.76
561.537	40.04
561.878	40.31
562.22	40.47
562.561	40.7
562.902	40.84
563.243	40.95
563.584	41.16
563.925	41.38
564.266	41.6
564.607	41.76
564.948	41.94
565.289	42.1
565.63	42.25
565.971	42.45
566.312	42.61
566.653	42.73
566.993	42.91
567.334	43.06
567.675	43.25
568.015	43.36
568.356	43.48
568.696	43.62
569.037	43.73
569.377	43.87
569.718	43.99
570.058	44.2
570.398	44.41
570.739	44.56
571.079	44.64
571.419	44.73
571.759	44.85
572.099	44.94
572.439	45.13
572.779	45.21
573.119	45.31
573.459	45.37
573.799	45.52
574.139	45.6
574.479	45.7
574.819	45.77
575.158	45.88
575.498	46.01
575.838	46.08
576.177	46.2
576.517	46.37
576.856	46.47
577.196	46.54
577.535	46.62
577.875	46.77
578.214	46.91
578.553	47.03
578.893	47.2
579.232	47.37
579.571	47.43
579.91	47.63
580.25	47.79
580.589	47.96
580.928	48.08
581.267	48.24
581.606	48.32
581.945	48.5
582.283	48.66
582.622	48.8
582.961	48.93
583.3	49.01
583.639	49.08
583.977	49.21
584.316	49.28
584.654	49.4
584.993	49.39
585.332	49.45
585.67	49.52
586.008	49.54
586.347	49.6
586.685	49.69
587.024	49.71
587.362	49.72
587.7	49.81
588.038	49.95
588.376	50
588.715	50.1
589.053	50.13
589.391	50.12
589.729	50.2
590.067	50.29
590.404	50.44
590.742	50.49
591.08	50.61
591.418	50.72
591.756	50.76
592.093	50.85
592.431	50.95
592.769	51.09
593.106	51.17
593.444	51.23
593.781	51.24
594.119	51.3
594.456	51.41
594.793	51.48
595.131	51.41
595.468	51.5
595.805	51.54
596.143	51.65
596.48	51.72
596.817	51.81
597.154	51.85
597.491	51.88
597.828	51.93
598.165	51.97
598.502	51.98
598.839	52.1
599.176	52.17
599.512	52.23
599.849	52.27
600.186	52.32
600.523	52.42
600.859	52.51
601.196	52.52
601.532	52.56
601.869	52.63
602.205	52.68
602.542	52.73
602.878	52.79
603.215	52.74
603.551	52.79
603.887	52.83
604.223	52.86
604.56	52.87
604.896	52.89
605.232	52.92
605.568	52.98
605.904	52.99
606.24	53.05
606.576	53.13
606.912	53.18
607.248	53.22
607.583	53.26
607.919	53.33
608.255	53.44
608.591	53.48
608.926	53.48
609.262	53.58
609.597	53.63
609.933	53.61
610.268	53.69
610.604	53.71
610.939	53.69
611.275	53.77
611.61	53.86
611.945	53.92
612.281	53.94
612.616	54.03
612.951	54.07
613.286	54.06
613.621	54.05
613.956	54.04
614.291	54.08
614.626	54.09
614.961	54.16
615.296	54.13
615.631	54.16
615.966	54.22
616.3	54.25
616.635	54.18
616.97	54.26
617.304	54.34
617.639	54.46
617.973	54.49
618.308	54.46
618.642	54.38
618.977	54.44
619.311	54.55
619.646	54.51
619.98	54.55
620.314	54.61
620.648	54.57
620.983	54.61
621.317	54.69
621.651	54.66
621.985	54.64
622.319	54.78
622.653	54.82
622.987	54.85
623.321	54.88
623.655	54.93
623.988	55
624.322	54.95
624.656	54.88
624.99	55.02
625.323	55.04
625.657	55.09
625.99	55.05
626.324	55
626.657	55.09
626.991	55.11
627.324	55.11
627.658	55.13
627.991	55.14
628.324	55.13
628.657	55.19
628.991	55.19
629.324	55.14
629.657	55.21
629.99	55.28
630.323	55.24
630.656	55.32
630.989	55.34
631.322	55.4
631.655	55.45
631.987	55.33
632.32	55.44
632.653	55.49
632.986	55.55
633.318	55.59
633.651	55.57
633.984	55.56
634.316	55.61
634.649	55.77
634.981	55.81
635.313	55.88
635.646	55.88
635.978	55.91
636.31	55.97
636.643	55.97
636.975	55.92
637.307	56.04
637.639	56.07
637.971	56.09
638.303	56.14
638.635	56.15
638.967	56.29
639.299	56.25
639.631	56.28
639.963	56.22
640.295	56.15
640.626	56.16
640.958	56.21
641.29	56.24
641.621	56.15
641.953	56.16
642.285	56.21
642.616	56.2
642.948	56.24
643.279	56.18
643.61	56.18
643.942	56.23
644.273	56.26
644.604	56.19
644.936	56.21
645.267	56.3
645.598	56.32
645.929	56.29
646.26	56.24
646.591	56.23
646.922	56.29
647.253	56.39
647.584	56.41
647.915	56.42
648.245	56.44
648.576	56.52
648.907	56.57
649.238	56.5
649.568	56.57
649.899	56.66
650.229	56.78
650.56	56.79
650.89	56.88
651.221	56.79
651.551	56.89
651.882	56.9
652.212	56.82
652.542	56.91
652.872	56.86
653.203	56.94
653.533	56.91
653.863	56.92
654.193	57
654.523	57.04
654.853	57.15
655.183	57.17
655.513	57.16
655.843	57.07
656.172	57.25
656.502	57.14
656.832	57.14
657.162	57.16
657.491	57.15
657.821	57.1
658.15	57.31
658.48	57.28
658.809	57.36
659.139	57.38
659.468	57.35
659.798	57.4
660.127	57.42
660.456	57.45
660.785	57.48
661.115	57.53
661.444	57.5
661.773	57.4
662.102	57.42
662.431	57.49
662.76	57.55
663.089	57.4
663.418	57.62
663.747	57.69
664.076	57.73
664.404	57.76
664.733	57.8
665.062	57.75
665.39	57.72
665.719	57.71
666.048	57.68
666.376	57.75
666.705	57.83
667.033	57.87
667.362	57.93
667.69	58.02
668.018	58.01
668.347	58.08
668.675	58.03
669.003	58.02
669.331	58.01
669.659	58.04
669.987	58.07
