Data from BU26850_Reflection_00012.txt Node
Date: Mon Nov 18 16:45:47 EST 2019
User: vgr7
Spectrometer: USB2G7710
Scans to average: 3
Trigger mode: 4
Integration Time (sec): 2.000000E-2
Electric dark correction enabled: true
Boxcar width: 10
XAxis mode: Wavelengths
Number of Pixels in Spectrum: 2048
>>>>>Begin Spectral Data<<<<<
177.721	-53.88
178.105	-6.01
178.488	-106.39
178.871	-81.74
179.254	-44.9
179.636	-128.43
180.019	23.63
180.402	150
180.785	-117.81
181.168	-164.71
181.55	-176.07
181.933	156.84
182.316	361.97
182.698	169.77
183.081	165.06
183.463	-16.88
183.846	-154.24
184.228	-37.47
184.611	163.83
184.993	517.72
185.376	-54.79
185.758	-170.9
186.14	-81.72
186.522	-17.87
186.904	-57.35
187.287	-118.23
187.669	-71.81
188.051	-114.97
188.433	-65.94
188.815	-51.31
189.197	-65.82
189.579	-49.79
189.961	-59.19
190.342	-71.77
190.724	-96.97
191.106	-82.25
191.488	-72.82
191.869	-79.01
192.251	-97.79
192.633	-85.24
193.014	-81.05
193.396	-109.47
193.777	-104.88
194.159	-103.73
194.54	-94.17
194.922	-61.67
195.303	-60.36
195.684	-65.33
196.065	-63.97
196.447	-60.48
196.828	-82.08
197.209	-74.82
197.59	-91.24
197.971	-83.35
198.352	-65.36
198.733	-59.73
199.114	-52.73
199.495	-52.36
199.876	-39.83
200.257	-33.87
200.638	-18.65
201.018	-25.99
201.399	-32.83
201.78	-36.38
202.16	-53.48
202.541	-77.32
202.922	-110.73
203.302	-136.9
203.683	-138.95
204.063	-141.87
204.444	-156.46
204.824	-124.72
205.204	-141.85
205.585	-125.98
205.965	-129.39
206.345	-160.19
206.725	-185.08
207.106	-207.72
207.486	-231.85
207.866	-240.98
208.246	-238.98
208.626	-307.34
209.006	-227.36
209.386	-233.11
209.766	-232.44
210.145	-253.86
210.525	-152.34
210.905	-127.03
211.285	-85.6
211.664	-86.85
212.044	-84.96
212.424	-87.12
212.803	-103.67
213.183	-97.25
213.562	-77.45
213.942	-57.79
214.321	-63.33
214.701	-74.53
215.08	-75.63
215.459	-68.58
215.838	-58.35
216.218	-64.77
216.597	-55.3
216.976	-37.27
217.355	-30.43
217.734	-24.23
218.113	-23.51
218.492	-24.25
218.871	-25.02
219.25	-23.25
219.629	-22.09
220.008	-16.01
220.387	-13.34
220.766	-7.16
221.144	-9.39
221.523	-16.21
221.902	-29.95
222.28	-18.76
222.659	1.38
223.037	4.67
223.416	2.99
223.794	-9.29
224.173	-11.18
224.551	-18.27
224.929	-25.37
225.308	-18.07
225.686	-20
226.064	-15.95
226.442	-19.46
226.821	-13.94
227.199	-16.16
227.577	-16.58
227.955	-18.31
228.333	-16.01
228.711	-12.84
229.089	-4.71
229.467	-6.67
229.845	-6.65
230.222	-7.12
230.6	-8.65
230.978	-8.75
231.356	-4.62
231.733	-1.82
232.111	0.51
232.488	4.5
232.866	5.38
233.243	3.49
233.621	3.84
233.998	4.91
234.376	7.06
234.753	5.84
235.13	6.68
235.508	4.96
235.885	4.2
236.262	3.67
236.639	2.2
237.016	-0.11
237.393	2.01
237.77	2.54
238.147	3.3
238.524	3.74
238.901	4.37
239.278	3.73
239.655	3.45
240.032	3.07
240.409	2.38
240.785	2.77
241.162	3.42
241.539	3.49
241.915	3.38
242.292	2.51
242.668	2.96
243.045	3.35
243.421	3.52
243.798	3.74
244.174	3.52
244.551	3.72
244.927	3.91
245.303	3.82
245.679	3.77
246.056	3.91
246.432	3.77
246.808	3.76
247.184	3.57
247.56	3.35
247.936	3.31
248.312	3
248.688	2.89
249.064	2.94
249.44	2.87
249.815	2.88
250.191	3.23
250.567	3.12
250.943	2.86
251.318	3.05
251.694	2.71
252.069	2.84
252.445	2.84
252.82	2.82
253.196	2.61
253.571	2.51
253.947	2.22
254.322	2.49
254.697	2.21
255.073	1.94
255.448	1.97
255.823	2.44
256.198	2.88
256.573	2.8
256.948	2.82
257.323	2.89
257.698	2.89
258.073	2.9
258.448	2.91
258.823	3.01
259.198	3.12
259.573	3.4
259.948	3.45
260.322	3.5
260.697	3.2
261.072	3.33
261.446	3.48
261.821	3.58
262.195	3.51
262.57	3.53
262.944	3.87
263.319	4.02
263.693	3.82
264.067	3.89
264.442	4.03
264.816	3.96
265.19	4
265.564	4.2
265.938	4.06
266.313	4.03
266.687	4.01
267.061	4.05
267.435	3.97
267.809	3.85
268.183	3.57
268.556	3.84
268.93	3.8
269.304	3.7
269.678	3.64
270.051	3.54
270.425	3.58
270.799	3.39
271.172	3.41
271.546	3.43
271.919	3.22
272.293	3.24
272.666	3.35
273.04	3.36
273.413	3.26
273.787	3.3
274.16	3.38
274.533	3.27
274.906	2.94
275.279	2.87
275.653	2.92
276.026	3.01
276.399	3.01
276.772	3.03
277.145	3.03
277.518	3.2
277.891	3.33
278.263	3.26
278.636	3.32
279.009	3.41
279.382	3.57
279.755	3.62
280.127	3.69
280.5	3.68
280.872	3.82
281.245	3.76
281.617	3.77
281.99	3.85
282.362	4.02
282.735	4.28
283.107	4.29
283.479	4.2
283.852	4.26
284.224	4.17
284.596	4.25
284.968	4.25
285.34	4.14
285.713	4.11
286.085	4.13
286.457	4.22
286.829	4.24
287.201	4.26
287.572	4.17
287.944	4.08
288.316	4.1
288.688	3.95
289.06	4.05
289.431	4
289.803	3.99
290.175	4.03
290.546	4.09
290.918	4.14
291.289	4.29
291.661	4.4
292.032	4.47
292.403	4.46
292.775	4.44
293.146	4.36
293.517	4.39
293.889	4.59
294.26	4.62
294.631	4.68
295.002	4.64
295.373	4.92
295.744	4.96
296.115	4.92
296.486	4.93
296.857	5.04
297.228	5.17
297.599	5.17
297.97	5.12
298.34	5.16
298.711	5.26
299.082	5.3
299.452	5.32
299.823	5.58
300.194	5.7
300.564	6
300.935	6.23
301.305	6.26
301.676	6.28
302.046	6.34
302.416	6.36
302.787	6.36
303.157	6.2
303.527	6.35
303.897	6.46
304.267	6.73
304.637	6.73
305.008	6.86
305.378	7.07
305.748	7.24
306.117	7.09
306.487	7.1
306.857	7.2
307.227	7.3
307.597	7.21
307.967	7.2
308.336	7.13
308.706	7.17
309.076	7.31
309.445	7.31
309.815	7.38
310.184	7.35
310.554	7.58
310.923	7.88
311.293	7.85
311.662	7.81
312.031	7.76
312.401	7.7
312.77	7.72
313.139	7.71
313.508	7.77
313.877	7.9
314.246	7.96
314.616	7.96
314.985	7.94
315.353	8.11
315.722	8.23
316.091	8.32
316.46	8.36
316.829	8.37
317.198	8.61
317.567	8.65
317.935	8.82
318.304	8.8
318.672	8.75
319.041	8.96
319.41	9.17
319.778	9.32
320.147	9.63
320.515	9.67
320.883	9.72
321.252	9.85
321.62	10.07
321.988	10.02
322.357	10.07
322.725	10.15
323.093	10.03
323.461	10.11
323.829	10.17
324.197	10.32
324.565	10.43
324.933	10.32
325.301	10.36
325.669	10.43
326.037	10.39
326.405	10.54
326.772	10.44
327.14	10.55
327.508	10.61
327.875	10.51
328.243	10.6
328.61	10.56
328.978	10.56
329.346	10.42
329.713	10.65
330.08	10.71
330.448	10.7
330.815	10.74
331.182	10.67
331.55	10.73
331.917	10.78
332.284	10.9
332.651	10.95
333.018	10.96
333.385	10.96
333.752	11.06
334.119	10.92
334.486	10.96
334.853	10.83
335.22	10.76
335.587	10.79
335.954	10.93
336.32	10.99
336.687	11.17
337.054	11.24
337.42	11.15
337.787	11.22
338.153	11.3
338.52	11.45
338.886	11.42
339.253	11.39
339.619	11.41
339.986	11.44
340.352	11.69
340.718	11.81
341.084	11.77
341.451	11.77
341.817	11.88
342.183	12.03
342.549	12.2
342.915	12.25
343.281	12.36
343.647	12.32
344.013	12.37
344.379	12.23
344.745	12.32
345.11	12.42
345.476	12.4
345.842	12.52
346.208	12.42
346.573	12.6
346.939	12.66
347.304	12.65
347.67	12.61
348.035	12.5
348.401	12.48
348.766	12.47
349.132	12.6
349.497	12.55
349.862	12.5
350.228	12.57
350.593	12.61
350.958	12.5
351.323	12.57
351.688	12.63
352.053	12.7
352.418	12.62
352.783	12.61
353.148	12.59
353.513	12.6
353.878	12.65
354.243	12.53
354.608	12.58
354.972	12.61
355.337	12.57
355.702	12.63
356.066	12.64
356.431	12.83
356.795	12.78
357.16	12.72
357.524	12.7
357.889	12.6
358.253	12.6
358.618	12.65
358.982	12.53
359.346	12.51
359.71	12.48
360.075	12.55
360.439	12.57
360.803	12.6
361.167	12.55
361.531	12.49
361.895	12.51
362.259	12.47
362.623	12.4
362.987	12.47
363.351	12.45
363.714	12.41
364.078	12.25
364.442	12.21
364.806	12.25
365.169	12.26
365.533	12.24
365.896	12.27
366.26	12.2
366.623	12.17
366.987	12.16
367.35	12.03
367.714	11.95
368.077	11.82
368.44	11.78
368.803	11.69
369.167	11.71
369.53	11.68
369.893	11.64
370.256	11.65
370.619	11.56
370.982	11.45
371.345	11.41
371.708	11.45
372.071	11.34
372.434	11.23
372.797	11.15
373.159	11.13
373.522	11.06
373.885	11.05
374.247	10.96
374.61	10.9
374.973	10.83
375.335	10.74
375.698	10.76
376.06	10.62
376.423	10.51
376.785	10.43
377.147	10.36
377.51	10.28
377.872	10.25
378.234	10.17
378.596	10.1
378.958	10.01
379.321	9.95
379.683	9.93
380.045	9.88
380.407	9.83
380.769	9.71
381.13	9.53
381.492	9.47
381.854	9.53
382.216	9.43
382.578	9.38
382.939	9.39
383.301	9.35
383.663	9.32
384.024	9.23
384.386	9.2
384.747	9.19
385.109	9.16
385.47	9.07
385.832	9.04
386.193	9
386.554	8.97
386.916	8.92
387.277	8.87
387.638	8.88
387.999	8.8
388.36	8.76
388.721	8.75
389.082	8.67
389.443	8.56
389.804	8.53
390.165	8.53
390.526	8.47
390.887	8.36
391.248	8.33
391.609	8.3
391.969	8.24
392.33	8.15
392.691	8.08
393.051	8.06
393.412	7.99
393.772	7.96
394.133	7.91
394.493	7.82
394.854	7.75
395.214	7.65
395.574	7.6
395.935	7.58
396.295	7.58
396.655	7.51
397.015	7.44
397.376	7.39
397.736	7.32
398.096	7.21
398.456	7.14
398.816	7.09
399.176	7.04
399.535	6.96
399.895	6.91
400.255	6.83
400.615	6.72
400.975	6.67
401.334	6.58
401.694	6.52
402.054	6.46
402.413	6.4
402.773	6.38
403.132	6.32
403.492	6.24
403.851	6.16
404.211	6.15
404.57	6.11
404.929	6.07
405.288	6.02
405.648	6
406.007	6.01
406.366	5.98
406.725	5.97
407.084	5.93
407.443	5.9
407.802	5.9
408.161	5.92
408.52	5.9
408.879	5.87
409.238	5.87
409.596	5.86
409.955	5.86
410.314	5.84
410.673	5.82
411.031	5.8
411.39	5.8
411.748	5.78
412.107	5.78
412.465	5.75
412.824	5.74
413.182	5.71
413.54	5.65
413.899	5.63
414.257	5.61
414.615	5.59
414.974	5.57
415.332	5.51
415.69	5.46
416.048	5.42
416.406	5.42
416.764	5.36
417.122	5.33
417.48	5.28
417.838	5.26
418.195	5.26
418.553	5.24
418.911	5.2
419.269	5.16
419.626	5.12
419.984	5.07
420.342	5.06
420.699	5.04
421.057	5.01
421.414	4.99
421.772	4.95
422.129	4.94
422.486	4.91
422.844	4.91
423.201	4.87
423.558	4.85
423.915	4.82
424.273	4.82
424.63	4.8
424.987	4.79
425.344	4.77
425.701	4.73
426.058	4.71
426.415	4.69
426.772	4.67
427.128	4.65
427.485	4.64
427.842	4.61
428.199	4.58
428.555	4.57
428.912	4.56
429.269	4.56
429.625	4.53
429.982	4.51
430.338	4.46
430.695	4.47
431.051	4.45
431.407	4.44
431.764	4.39
432.12	4.38
432.476	4.37
432.832	4.36
433.189	4.36
433.545	4.33
433.901	4.35
434.257	4.34
434.613	4.35
434.969	4.37
435.325	4.38
435.681	4.4
436.036	4.38
436.392	4.38
436.748	4.37
437.104	4.37
437.459	4.37
437.815	4.38
438.171	4.37
438.526	4.39
438.882	4.41
439.237	4.43
439.593	4.44
439.948	4.45
440.304	4.46
440.659	4.46
441.014	4.48
441.369	4.46
441.725	4.47
442.08	4.45
442.435	4.44
442.79	4.43
443.145	4.42
443.5	4.41
443.855	4.39
444.21	4.38
444.565	4.37
444.92	4.38
445.275	4.38
445.629	4.37
445.984	4.35
446.339	4.32
446.693	4.3
447.048	4.28
447.403	4.26
447.757	4.24
448.112	4.22
448.466	4.21
448.82	4.18
449.175	4.18
449.529	4.17
449.883	4.15
450.238	4.14
450.592	4.13
450.946	4.11
451.3	4.1
451.654	4.08
452.008	4.08
452.362	4.05
452.716	4.04
453.07	4.03
453.424	4.01
453.778	4.01
454.132	4.01
454.486	4.01
454.839	3.99
455.193	3.97
455.547	3.94
455.9	3.94
456.254	3.94
456.607	3.92
456.961	3.92
457.314	3.93
457.668	3.91
458.021	3.91
458.375	3.9
458.728	3.92
459.081	3.92
459.434	3.91
459.787	3.92
460.141	3.92
460.494	3.92
460.847	3.91
461.2	3.92
461.553	3.93
461.906	3.93
462.259	3.96
462.611	3.99
462.964	4.03
463.317	4.05
463.67	4.06
464.022	4.08
464.375	4.09
464.728	4.12
465.08	4.16
465.433	4.17
465.785	4.19
466.138	4.18
466.49	4.22
466.843	4.24
467.195	4.25
467.547	4.31
467.899	4.35
468.252	4.4
468.604	4.41
468.956	4.42
469.308	4.45
469.66	4.46
470.012	4.49
470.364	4.51
470.716	4.52
471.068	4.56
471.42	4.61
471.772	4.64
472.123	4.64
472.475	4.65
472.827	4.71
473.178	4.76
473.53	4.78
473.882	4.77
474.233	4.8
474.585	4.82
474.936	4.78
475.288	4.8
475.639	4.8
475.99	4.8
476.342	4.8
476.693	4.79
477.044	4.81
477.395	4.8
477.746	4.79
478.097	4.76
478.448	4.75
478.8	4.71
479.15	4.68
479.501	4.68
479.852	4.67
480.203	4.63
480.554	4.62
480.905	4.62
481.255	4.63
481.606	4.62
481.957	4.61
482.307	4.6
482.658	4.6
483.009	4.59
483.359	4.58
483.709	4.58
484.06	4.59
484.41	4.58
484.761	4.58
485.111	4.57
485.461	4.57
485.811	4.56
486.162	4.57
486.512	4.57
486.862	4.57
487.212	4.57
487.562	4.58
487.912	4.57
488.262	4.57
488.612	4.57
488.961	4.57
489.311	4.58
489.661	4.59
490.011	4.59
490.36	4.58
490.71	4.6
491.06	4.61
491.409	4.61
491.759	4.62
492.108	4.64
492.458	4.66
492.807	4.67
493.157	4.7
493.506	4.72
493.855	4.75
494.204	4.77
494.554	4.8
494.903	4.82
495.252	4.88
495.601	4.93
495.95	4.98
496.299	5.03
496.648	5.07
496.997	5.14
497.346	5.22
497.695	5.31
498.043	5.38
498.392	5.42
498.741	5.51
499.09	5.59
499.438	5.67
499.787	5.75
500.135	5.86
500.484	5.95
500.832	6.06
501.181	6.14
501.529	6.26
501.878	6.36
502.226	6.46
502.574	6.58
502.923	6.69
503.271	6.82
503.619	6.96
503.967	7.1
504.315	7.2
504.663	7.34
505.011	7.48
505.359	7.64
505.707	7.82
506.055	7.95
506.403	8.12
506.751	8.31
507.098	8.49
507.446	8.63
507.794	8.81
508.141	8.99
508.489	9.18
508.837	9.35
509.184	9.56
509.531	9.77
509.879	9.98
510.226	10.16
510.574	10.35
510.921	10.54
511.268	10.73
511.616	10.96
511.963	11.16
512.31	11.36
512.657	11.58
513.004	11.81
513.351	12.06
513.698	12.32
514.045	12.55
514.392	12.79
514.739	13.07
515.086	13.33
515.432	13.57
515.779	13.83
516.126	14.08
516.473	14.32
516.819	14.55
517.166	14.74
517.512	14.97
517.859	15.14
518.205	15.34
518.552	15.58
518.898	15.76
519.245	15.97
519.591	16.2
519.937	16.39
520.283	16.61
520.629	16.81
520.976	17
521.322	17.25
521.668	17.47
522.014	17.72
522.36	17.97
522.706	18.24
523.052	18.49
523.398	18.76
523.743	19.07
524.089	19.33
524.435	19.61
524.781	19.86
525.126	20.12
525.472	20.34
525.817	20.54
526.163	20.76
526.509	20.96
526.854	21.08
527.199	21.23
527.545	21.37
527.89	21.52
528.235	21.66
528.581	21.82
528.926	21.97
529.271	22.14
529.616	22.3
529.961	22.44
530.306	22.61
530.651	22.8
530.996	22.96
531.341	23.15
531.686	23.33
532.031	23.51
532.376	23.7
532.721	23.9
533.065	24.1
533.41	24.27
533.755	24.45
534.099	24.67
534.444	24.89
534.788	25.13
535.133	25.33
535.477	25.58
535.822	25.77
536.166	26.02
536.51	26.24
536.855	26.49
537.199	26.76
537.543	27.03
537.887	27.26
538.231	27.52
538.576	27.8
538.92	28.07
539.264	28.32
539.608	28.55
539.951	28.77
540.295	28.96
540.639	29.21
540.983	29.4
541.327	29.62
541.671	29.81
542.014	29.98
542.358	30.17
542.701	30.33
543.045	30.52
543.389	30.67
543.732	30.88
544.075	31.07
544.419	31.25
544.762	31.44
545.105	31.65
545.449	31.87
545.792	32.06
546.135	32.3
546.478	32.55
546.821	32.8
547.165	33.03
547.508	33.29
547.851	33.49
548.194	33.76
548.536	33.97
548.879	34.26
549.222	34.54
549.565	34.81
549.908	35.06
550.25	35.32
550.593	35.59
550.936	35.79
551.278	36.03
551.621	36.3
551.963	36.55
552.306	36.88
552.648	37.11
552.991	37.39
553.333	37.6
553.675	37.83
554.017	38.04
554.36	38.32
554.702	38.57
555.044	38.77
555.386	38.94
555.728	39.21
556.07	39.43
556.412	39.6
556.754	39.77
557.096	40.02
557.438	40.22
557.78	40.46
558.121	40.73
558.463	40.94
558.805	41.11
559.147	41.29
559.488	41.41
559.83	41.57
560.171	41.78
560.513	42
560.854	42.18
561.196	42.35
561.537	42.52
561.878	42.66
562.22	42.82
562.561	43.02
562.902	43.16
563.243	43.23
563.584	43.4
563.925	43.59
564.266	43.71
564.607	43.88
564.948	44.02
565.289	44.07
565.63	44.17
565.971	44.28
566.312	44.38
566.653	44.48
566.993	44.67
567.334	44.74
567.675	44.83
568.015	44.94
568.356	45.04
568.696	45.17
569.037	45.31
569.377	45.49
569.718	45.58
570.058	45.71
570.398	45.86
570.739	45.95
571.079	46.06
571.419	46.16
571.759	46.24
572.099	46.34
572.439	46.51
572.779	46.63
573.119	46.75
573.459	46.87
573.799	46.96
574.139	47.06
574.479	47.16
574.819	47.28
575.158	47.37
575.498	47.45
575.838	47.51
576.177	47.6
576.517	47.64
576.856	47.8
577.196	47.86
577.535	47.98
577.875	48.08
578.214	48.19
578.553	48.25
578.893	48.34
579.232	48.41
579.571	48.47
579.91	48.6
580.25	48.69
580.589	48.73
580.928	48.86
581.267	48.97
581.606	49.08
581.945	49.15
582.283	49.28
582.622	49.42
582.961	49.46
583.3	49.57
583.639	49.63
583.977	49.65
584.316	49.74
584.654	49.76
584.993	49.84
585.332	49.84
585.67	49.99
586.008	50.06
586.347	50.1
586.685	50.16
587.024	50.11
587.362	50.24
587.7	50.31
588.038	50.31
588.376	50.26
588.715	50.27
589.053	50.33
589.391	50.35
589.729	50.34
590.067	50.39
590.404	50.4
590.742	50.48
591.08	50.49
591.418	50.49
591.756	50.6
592.093	50.67
592.431	50.7
592.769	50.69
593.106	50.76
593.444	50.79
593.781	50.85
594.119	50.98
594.456	50.97
594.793	51.04
595.131	51.14
595.468	51.2
595.805	51.21
596.143	51.23
596.48	51.28
596.817	51.3
597.154	51.31
597.491	51.35
597.828	51.4
598.165	51.45
598.502	51.51
598.839	51.52
599.176	51.57
599.512	51.69
599.849	51.77
600.186	51.77
600.523	51.83
600.859	51.84
601.196	51.91
601.532	51.94
601.869	52.01
602.205	52.05
602.542	52.02
602.878	52.09
603.215	52.1
603.551	52.1
603.887	52.19
604.223	52.25
604.56	52.26
604.896	52.3
605.232	52.3
605.568	52.3
605.904	52.3
606.24	52.31
606.576	52.3
606.912	52.38
607.248	52.41
607.583	52.49
607.919	52.52
608.255	52.47
608.591	52.5
608.926	52.47
609.262	52.49
609.597	52.61
609.933	52.62
610.268	52.72
610.604	52.73
610.939	52.78
611.275	52.82
611.61	52.91
611.945	52.92
612.281	53
612.616	53.13
612.951	53.21
613.286	53.17
613.621	53.21
613.956	53.25
614.291	53.27
614.626	53.26
614.961	53.39
615.296	53.42
615.631	53.51
615.966	53.6
616.3	53.65
616.635	53.65
616.97	53.66
617.304	53.57
617.639	53.57
617.973	53.52
618.308	53.57
618.642	53.62
618.977	53.63
619.311	53.64
619.646	53.55
619.98	53.51
620.314	53.64
620.648	53.7
620.983	53.63
621.317	53.73
621.651	53.77
621.985	53.76
622.319	53.83
622.653	53.87
622.987	53.82
623.321	53.78
623.655	53.66
623.988	53.68
624.322	53.79
624.656	53.86
624.99	53.96
625.323	53.87
625.657	53.81
625.99	53.77
626.324	53.77
626.657	53.95
626.991	53.94
627.324	53.85
627.658	53.82
627.991	53.89
628.324	53.84
628.657	53.81
628.991	53.8
629.324	53.8
629.657	53.74
629.99	53.74
630.323	53.79
630.656	53.91
630.989	53.92
631.322	53.92
631.655	53.91
631.987	53.83
632.32	53.95
632.653	53.93
632.986	53.99
633.318	54.04
633.651	53.95
633.984	54.09
634.316	54.23
634.649	54.17
634.981	54.17
635.313	54.23
635.646	54.3
635.978	54.44
636.31	54.43
636.643	54.46
636.975	54.6
637.307	54.51
637.639	54.54
637.971	54.6
638.303	54.59
638.635	54.59
638.967	54.67
639.299	54.56
639.631	54.61
639.963	54.65
640.295	54.66
640.626	54.6
640.958	54.54
641.29	54.5
641.621	54.57
641.953	54.42
642.285	54.44
642.616	54.43
642.948	54.25
643.279	54.18
643.61	54.25
643.942	54.23
644.273	54.34
644.604	54.39
644.936	54.37
645.267	54.38
645.598	54.4
645.929	54.32
646.26	54.45
646.591	54.52
646.922	54.45
647.253	54.48
647.584	54.49
647.915	54.55
648.245	54.54
648.576	54.41
648.907	54.62
649.238	54.59
649.568	54.53
649.899	54.53
650.229	54.86
650.56	54.74
650.89	54.64
651.221	54.64
651.551	54.65
651.882	54.57
652.212	54.62
652.542	54.62
652.872	54.7
653.203	54.6
653.533	54.49
653.863	54.49
654.193	54.43
654.523	54.38
654.853	54.35
655.183	54.35
655.513	54.46
655.843	54.39
656.172	54.49
656.502	54.49
656.832	54.61
657.162	54.44
657.491	54.54
657.821	54.66
658.15	54.84
658.48	54.75
658.809	54.83
659.139	54.77
659.468	54.82
659.798	54.81
660.127	54.82
660.456	54.91
660.785	54.94
661.115	54.97
661.444	55.07
661.773	55.11
662.102	55.16
