Data from BU26844_Reflection_00004.txt Node
Date: Mon Nov 18 16:36:06 EST 2019
User: vgr7
Spectrometer: USB2G7710
Scans to average: 3
Trigger mode: 4
Integration Time (sec): 2.000000E-2
Electric dark correction enabled: true
Boxcar width: 10
XAxis mode: Wavelengths
Number of Pixels in Spectrum: 2048
>>>>>Begin Spectral Data<<<<<
177.721	-43.73
178.105	3433.33
178.488	-139.96
178.871	-5316.67
179.254	15.59
179.636	277.08
180.019	24.39
180.402	91.67
180.785	140.65
181.168	131.96
181.55	173.91
181.933	133.68
182.316	137.8
182.698	121.85
183.081	97.15
183.463	105.82
183.846	100.78
184.228	43.28
184.611	120.77
184.993	421.53
185.376	4312.12
185.758	-264.42
186.14	-314.3
186.522	-311.91
186.904	-913.2
187.287	1116.06
187.669	-275.74
188.051	-318.28
188.433	-217.11
188.815	-98.42
189.197	-77.29
189.579	-41.88
189.961	-52.9
190.342	-70.63
190.724	-52.44
191.106	-54.23
191.488	-58.79
191.869	-58.02
192.251	-57.7
192.633	-42.78
193.014	-39.54
193.396	-40.39
193.777	-29.51
194.159	-18.39
194.54	-8.25
194.922	2.2
195.303	13.1
195.684	0.24
196.065	3.93
196.447	13
196.828	10.58
197.209	7.99
197.59	-4.49
197.971	-14.88
198.352	-1.06
198.733	-2.28
199.114	4.46
199.495	3.03
199.876	13.58
200.257	3.73
200.638	-4.57
201.018	0.42
201.399	11.98
201.78	29.06
202.16	21.07
202.541	-0.68
202.922	-18.02
203.302	-93.32
203.683	-55.03
204.063	-195.8
204.444	-327.04
204.824	-258.02
205.204	-208.21
205.585	-246.72
205.965	-174.89
206.345	-200.08
206.725	-226.75
207.106	-323.54
207.486	-478.8
207.866	-948.57
208.246	-858.07
208.626	-1024.61
209.006	-245.59
209.386	-266.26
209.766	-250.47
210.145	-113
210.525	-160.36
210.905	-150.96
211.285	-96.56
211.664	-78.07
212.044	-39.59
212.424	-45.19
212.803	-57.4
213.183	-56.63
213.562	-55.18
213.942	-39.78
214.321	-21.57
214.701	-35.64
215.08	-51.42
215.459	-42.67
215.838	-35.37
216.218	-36.2
216.597	-53.24
216.976	-64.17
217.355	-60.78
217.734	-81.16
218.113	-88.2
218.492	-78.23
218.871	-73.76
219.25	-66.04
219.629	-75.11
220.008	-68.77
220.387	-63.61
220.766	-67.51
221.144	-72.47
221.523	-60.15
221.902	-65.92
222.28	-86.32
222.659	-61.41
223.037	-36.21
223.416	-40.41
223.794	-48.47
224.173	-36.37
224.551	-2.55
224.929	-8.06
225.308	-5.81
225.686	5.85
226.064	5.81
226.442	0.46
226.821	-2.2
227.199	-0.13
227.577	2.4
227.955	2.47
228.333	6.82
228.711	9.22
229.089	12.84
229.467	14.02
229.845	12.33
230.222	13.38
230.6	10.09
230.978	8.59
231.356	12.56
231.733	12.9
232.111	9.95
232.488	8.26
232.866	9.89
233.243	10.44
233.621	8.81
233.998	9.47
234.376	10.69
234.753	11.16
235.13	10.56
235.508	10.02
235.885	9.74
236.262	8.1
236.639	6.37
237.016	5.05
237.393	3.77
237.77	5.64
238.147	5.97
238.524	6.31
238.901	6.82
239.278	6.1
239.655	6.27
240.032	7
240.409	6.71
240.785	6.64
241.162	5.66
241.539	5.68
241.915	5.24
242.292	5.25
242.668	5.32
243.045	4.97
243.421	5.1
243.798	4.95
244.174	4.9
244.551	4.94
244.927	5.07
245.303	4.9
245.679	4.85
246.056	4.86
246.432	4.57
246.808	4.5
247.184	4.18
247.56	4.11
247.936	3.91
248.312	3.67
248.688	3.5
249.064	3.5
249.44	3.32
249.815	3.26
250.191	3.16
250.567	3.25
250.943	3.37
251.318	3.49
251.694	3.42
252.069	3.17
252.445	3.32
252.82	3.09
253.196	3.06
253.571	2.74
253.947	2.62
254.322	2.85
254.697	2.89
255.073	2.85
255.448	2.92
255.823	3
256.198	3.28
256.573	3.31
256.948	3.52
257.323	3.72
257.698	3.88
258.073	3.94
258.448	3.91
258.823	3.92
259.198	3.77
259.573	3.75
259.948	3.82
260.322	3.86
260.697	3.89
261.072	3.85
261.446	4.03
261.821	4.18
262.195	4.3
262.57	4.08
262.944	4.26
263.319	4.25
263.693	4.24
264.067	4.26
264.442	4.55
264.816	4.49
265.19	4.42
265.564	4.34
265.938	4.2
266.313	4.28
266.687	4.36
267.061	4.41
267.435	4.26
267.809	4.21
268.183	4.08
268.556	4.02
268.93	4.02
269.304	3.87
269.678	3.74
270.051	3.59
270.425	3.89
270.799	3.68
271.172	3.58
271.546	3.65
271.919	3.58
272.293	3.43
272.666	3.47
273.04	3.54
273.413	3.55
273.787	3.57
274.16	3.44
274.533	3.31
274.906	3.27
275.279	3.23
275.653	3.24
276.026	3.31
276.399	3.21
276.772	3.25
277.145	3.17
277.518	3.24
277.891	3.21
278.263	3.16
278.636	3.26
279.009	3.19
279.382	3.25
279.755	3.25
280.127	3.39
280.5	3.56
280.872	3.61
281.245	3.54
281.617	3.67
281.99	3.72
282.362	3.78
282.735	3.69
283.107	3.78
283.479	3.8
283.852	3.73
284.224	3.9
284.596	3.81
284.968	3.86
285.34	3.82
285.713	3.85
286.085	3.84
286.457	3.92
286.829	4.04
287.201	3.86
287.572	3.79
287.944	3.65
288.316	3.61
288.688	3.57
289.06	3.7
289.431	3.63
289.803	3.63
290.175	3.66
290.546	3.79
290.918	3.85
291.289	3.86
291.661	4.03
292.032	4.07
292.403	4.16
292.775	4.22
293.146	4.15
293.517	4.17
293.889	4.15
294.26	4.12
294.631	4.18
295.002	4.27
295.373	4.37
295.744	4.41
296.115	4.32
296.486	4.25
296.857	4.26
297.228	4.25
297.599	4.17
297.97	4.15
298.34	4.14
298.711	4.23
299.082	4.17
299.452	4.04
299.823	3.91
300.194	3.98
300.564	3.85
300.935	4.04
301.305	4.08
301.676	4.12
302.046	4.2
302.416	4.31
302.787	4.3
303.157	4.22
303.527	4.23
303.897	4.35
304.267	4.41
304.637	4.46
305.008	4.6
305.378	4.81
305.748	4.76
306.117	4.68
306.487	4.62
306.857	4.73
307.227	4.72
307.597	4.73
307.967	4.73
308.336	4.88
308.706	4.78
309.076	4.79
309.445	4.78
309.815	4.72
310.184	4.61
310.554	4.63
310.923	4.58
311.293	4.5
311.662	4.52
312.031	4.53
312.401	4.43
312.77	4.44
313.139	4.43
313.508	4.43
313.877	4.5
314.246	4.59
314.616	4.55
314.985	4.6
315.353	4.78
315.722	4.64
316.091	4.53
316.46	4.37
316.829	4.46
317.198	4.46
317.567	4.48
317.935	4.41
318.304	4.51
318.672	4.61
319.041	4.76
319.41	4.67
319.778	4.67
320.147	4.63
320.515	4.5
320.883	4.38
321.252	4.46
321.62	4.42
321.988	4.36
322.357	4.3
322.725	4.16
323.093	4.03
323.461	4.16
323.829	4.29
324.197	4.36
324.565	4.15
324.933	4.09
325.301	4.13
325.669	4.24
326.037	4.26
326.405	4.22
326.772	4.36
327.14	4.42
327.508	4.32
327.875	4.32
328.243	4.36
328.61	4.32
328.978	4.32
329.346	4.39
329.713	4.4
330.08	4.43
330.448	4.39
330.815	4.31
331.182	4.18
331.55	4.28
331.917	4.36
332.284	4.46
332.651	4.44
333.018	4.42
333.385	4.31
333.752	4.29
334.119	4.43
334.486	4.23
334.853	4.18
335.22	4.24
335.587	4.29
335.954	4.28
336.32	4.4
336.687	4.34
337.054	4.32
337.42	4.28
337.787	4.35
338.153	4.44
338.52	4.55
338.886	4.53
339.253	4.43
339.619	4.48
339.986	4.54
340.352	4.61
340.718	4.55
341.084	4.58
341.451	4.66
341.817	4.58
342.183	4.64
342.549	4.67
342.915	4.71
343.281	4.69
343.647	4.69
344.013	4.67
344.379	4.67
344.745	4.72
345.11	4.67
345.476	4.73
345.842	4.77
346.208	4.74
346.573	4.85
346.939	4.87
347.304	4.71
347.67	4.61
348.035	4.59
348.401	4.65
348.766	4.63
349.132	4.62
349.497	4.69
349.862	4.72
350.228	4.8
350.593	4.85
350.958	4.89
351.323	4.96
351.688	4.97
352.053	5.09
352.418	5.05
352.783	5.17
353.148	5.16
353.513	5.12
353.878	5.16
354.243	5.14
354.608	5.18
354.972	5.3
355.337	5.35
355.702	5.35
356.066	5.38
356.431	5.37
356.795	5.34
357.16	5.3
357.524	5.25
357.889	5.15
358.253	5.18
358.618	5.18
358.982	5.16
359.346	5.08
359.71	4.97
360.075	4.97
360.439	4.97
360.803	4.94
361.167	4.92
361.531	4.95
361.895	4.94
362.259	4.85
362.623	4.84
362.987	4.85
363.351	4.82
363.714	4.82
364.078	4.77
364.442	4.69
364.806	4.72
365.169	4.72
365.533	4.73
365.896	4.66
366.26	4.65
366.623	4.69
366.987	4.79
367.35	4.85
367.714	4.87
368.077	4.77
368.44	4.77
368.803	4.8
369.167	4.72
369.53	4.75
369.893	4.83
370.256	4.82
370.619	4.82
370.982	4.84
371.345	4.77
371.708	4.88
372.071	4.95
372.434	4.9
372.797	4.9
373.159	4.9
373.522	4.95
373.885	4.94
374.247	4.91
374.61	4.9
374.973	4.88
375.335	4.88
375.698	4.92
376.06	4.92
376.423	4.98
376.785	4.96
377.147	4.91
377.51	4.89
377.872	4.94
378.234	4.96
378.596	4.96
378.958	4.96
379.321	4.94
379.683	4.97
380.045	4.98
380.407	4.95
380.769	4.93
381.13	4.91
381.492	4.96
381.854	4.99
382.216	4.96
382.578	4.98
382.939	4.97
383.301	4.99
383.663	4.98
384.024	4.98
384.386	5.05
384.747	5.12
385.109	5.14
385.47	5.12
385.832	5.12
386.193	5.1
386.554	5.09
386.916	5.09
387.277	5
387.638	5.01
387.999	5.01
388.36	5.06
388.721	5.06
389.082	5.01
389.443	5
389.804	4.99
390.165	4.99
390.526	4.97
390.887	4.97
391.248	5.02
391.609	4.99
391.969	4.98
392.33	4.92
392.691	4.9
393.051	4.89
393.412	4.88
393.772	4.91
394.133	4.92
394.493	4.93
394.854	4.93
395.214	4.91
395.574	4.91
395.935	4.89
396.295	4.89
396.655	4.89
397.015	4.87
397.376	4.86
397.736	4.82
398.096	4.82
398.456	4.81
398.816	4.8
399.176	4.81
399.535	4.77
399.895	4.77
400.255	4.76
400.615	4.76
400.975	4.79
401.334	4.78
401.694	4.8
402.054	4.77
402.413	4.83
402.773	4.85
403.132	4.85
403.492	4.85
403.851	4.83
404.211	4.84
404.57	4.83
404.929	4.87
405.288	4.83
405.648	4.84
406.007	4.86
406.366	4.86
406.725	4.87
407.084	4.9
407.443	4.89
407.802	4.92
408.161	4.93
408.52	4.89
408.879	4.89
409.238	4.88
409.596	4.91
409.955	4.9
410.314	4.91
410.673	4.91
411.031	4.89
411.39	4.91
411.748	4.93
412.107	4.96
412.465	4.93
412.824	4.97
413.182	4.99
413.54	4.99
413.899	4.96
414.257	4.93
414.615	4.91
414.974	4.97
415.332	4.95
415.69	4.94
416.048	4.95
416.406	4.97
416.764	4.95
417.122	4.95
417.48	4.94
417.838	4.95
418.195	4.96
418.553	4.96
418.911	4.96
419.269	4.95
419.626	4.93
419.984	4.93
420.342	4.93
420.699	4.9
421.057	4.89
421.414	4.89
421.772	4.9
422.129	4.91
422.486	4.89
422.844	4.9
423.201	4.91
423.558	4.89
423.915	4.89
424.273	4.92
424.63	4.92
424.987	4.93
425.344	4.93
425.701	4.93
426.058	4.93
426.415	4.92
426.772	4.91
427.128	4.91
427.485	4.92
427.842	4.91
428.199	4.91
428.555	4.92
428.912	4.93
429.269	4.93
429.625	4.91
429.982	4.91
430.338	4.88
430.695	4.87
431.051	4.88
431.407	4.86
431.764	4.84
432.12	4.84
432.476	4.82
432.832	4.81
433.189	4.82
433.545	4.84
433.901	4.84
434.257	4.85
434.613	4.87
434.969	4.86
435.325	4.87
435.681	4.9
436.036	4.91
436.392	4.89
436.748	4.88
437.104	4.87
437.459	4.86
437.815	4.89
438.171	4.9
438.526	4.91
438.882	4.93
439.237	4.93
439.593	4.94
439.948	4.94
440.304	4.94
440.659	4.92
441.014	4.9
441.369	4.91
441.725	4.9
442.08	4.91
442.435	4.91
442.79	4.92
443.145	4.92
443.5	4.91
443.855	4.91
444.21	4.92
444.565	4.94
444.92	4.95
445.275	4.92
445.629	4.91
445.984	4.9
446.339	4.89
446.693	4.88
447.048	4.87
447.403	4.88
447.757	4.88
448.112	4.87
448.466	4.87
448.82	4.87
449.175	4.88
449.529	4.88
449.883	4.85
450.238	4.85
450.592	4.85
450.946	4.84
451.3	4.83
451.654	4.84
452.008	4.83
452.362	4.83
452.716	4.86
453.07	4.85
453.424	4.86
453.778	4.87
454.132	4.85
454.486	4.84
454.839	4.83
455.193	4.8
455.547	4.81
455.9	4.82
456.254	4.82
456.607	4.81
456.961	4.82
457.314	4.84
457.668	4.84
458.021	4.84
458.375	4.88
458.728	4.88
459.081	4.87
459.434	4.87
459.787	4.86
460.141	4.85
460.494	4.86
460.847	4.86
461.2	4.86
461.553	4.89
461.906	4.89
462.259	4.91
462.611	4.93
462.964	4.96
463.317	4.95
463.67	4.97
464.022	4.99
464.375	4.99
464.728	5.01
465.08	5.03
465.433	5.02
465.785	5.02
466.138	5.04
466.49	5.06
466.843	5.05
467.195	5.08
467.547	5.09
467.899	5.1
468.252	5.1
468.604	5.13
468.956	5.12
469.308	5.14
469.66	5.15
470.012	5.17
470.364	5.16
470.716	5.16
471.068	5.16
471.42	5.17
471.772	5.17
472.123	5.17
472.475	5.17
472.827	5.2
473.178	5.18
473.53	5.18
473.882	5.15
474.233	5.18
474.585	5.16
474.936	5.17
475.288	5.16
475.639	5.18
475.99	5.18
476.342	5.17
476.693	5.16
477.044	5.15
477.395	5.14
477.746	5.15
478.097	5.16
478.448	5.16
478.8	5.14
479.15	5.13
479.501	5.11
479.852	5.13
480.203	5.14
480.554	5.15
480.905	5.16
481.255	5.17
481.606	5.17
481.957	5.18
482.307	5.18
482.658	5.2
483.009	5.2
483.359	5.19
483.709	5.19
484.06	5.19
484.41	5.19
484.761	5.19
485.111	5.2
485.461	5.19
485.811	5.19
486.162	5.2
486.512	5.21
486.862	5.21
487.212	5.21
487.562	5.19
487.912	5.19
488.262	5.19
488.612	5.2
488.961	5.2
489.311	5.22
489.661	5.21
490.011	5.2
490.36	5.2
490.71	5.21
491.06	5.23
491.409	5.23
491.759	5.23
492.108	5.23
492.458	5.22
492.807	5.23
493.157	5.22
493.506	5.24
493.855	5.24
494.204	5.24
494.554	5.24
494.903	5.24
495.252	5.25
495.601	5.26
495.95	5.27
496.299	5.27
496.648	5.27
496.997	5.28
497.346	5.3
497.695	5.31
498.043	5.32
498.392	5.32
498.741	5.32
499.09	5.3
499.438	5.32
499.787	5.36
500.135	5.37
500.484	5.4
500.832	5.42
501.181	5.43
501.529	5.47
501.878	5.49
502.226	5.52
502.574	5.52
502.923	5.54
503.271	5.52
503.619	5.54
503.967	5.56
504.315	5.58
504.663	5.59
505.011	5.6
505.359	5.59
505.707	5.61
506.055	5.65
506.403	5.7
506.751	5.72
507.098	5.73
507.446	5.76
507.794	5.78
508.141	5.78
508.489	5.81
508.837	5.82
509.184	5.84
509.531	5.85
509.879	5.88
510.226	5.9
510.574	5.92
510.921	5.93
511.268	5.94
511.616	5.95
511.963	5.97
512.31	5.98
512.657	6
513.004	6.02
513.351	6.02
513.698	6.04
514.045	6.03
514.392	6.02
514.739	6.01
515.086	6
515.432	6.02
515.779	6
516.126	6.02
516.473	6.04
516.819	6.05
517.166	6.04
517.512	6.04
517.859	6.05
518.205	6.04
518.552	6.05
518.898	6.06
519.245	6.06
519.591	6.06
519.937	6.07
520.283	6.07
520.629	6.07
520.976	6.07
521.322	6.1
521.668	6.1
522.014	6.11
522.36	6.11
522.706	6.13
523.052	6.15
523.398	6.15
523.743	6.14
524.089	6.12
524.435	6.13
524.781	6.14
525.126	6.13
525.472	6.15
525.817	6.16
526.163	6.16
526.509	6.17
526.854	6.18
527.199	6.2
527.545	6.2
527.89	6.22
528.235	6.22
528.581	6.22
528.926	6.24
529.271	6.24
529.616	6.23
529.961	6.22
530.306	6.22
530.651	6.22
530.996	6.23
531.341	6.23
531.686	6.24
532.031	6.24
532.376	6.25
532.721	6.25
533.065	6.24
533.41	6.26
533.755	6.26
534.099	6.26
534.444	6.26
534.788	6.27
535.133	6.26
535.477	6.26
535.822	6.26
536.166	6.25
536.51	6.26
536.855	6.27
537.199	6.28
537.543	6.27
537.887	6.28
538.231	6.27
538.576	6.3
538.92	6.3
539.264	6.31
539.608	6.31
539.951	6.32
540.295	6.33
540.639	6.32
540.983	6.32
541.327	6.32
541.671	6.31
542.014	6.31
542.358	6.31
542.701	6.3
543.045	6.31
543.389	6.32
543.732	6.32
544.075	6.33
544.419	6.33
544.762	6.33
545.105	6.33
545.449	6.34
545.792	6.33
546.135	6.33
546.478	6.33
546.821	6.36
547.165	6.37
547.508	6.36
547.851	6.38
548.194	6.38
548.536	6.38
548.879	6.4
549.222	6.4
549.565	6.39
549.908	6.42
550.25	6.43
550.593	6.42
550.936	6.43
551.278	6.45
551.621	6.48
551.963	6.51
552.306	6.5
552.648	6.5
552.991	6.53
553.333	6.52
553.675	6.53
554.017	6.52
554.36	6.49
554.702	6.52
555.044	6.52
555.386	6.53
555.728	6.54
556.07	6.55
556.412	6.55
556.754	6.58
557.096	6.56
557.438	6.54
557.78	6.53
558.121	6.55
558.463	6.57
558.805	6.57
559.147	6.54
559.488	6.56
559.83	6.54
560.171	6.5
560.513	6.52
560.854	6.5
561.196	6.45
561.537	6.49
561.878	6.46
562.22	6.44
562.561	6.43
562.902	6.45
563.243	6.45
563.584	6.45
563.925	6.44
564.266	6.45
564.607	6.46
564.948	6.47
565.289	6.46
565.63	6.47
565.971	6.44
566.312	6.45
566.653	6.44
566.993	6.47
567.334	6.48
567.675	6.49
568.015	6.52
568.356	6.54
568.696	6.54
569.037	6.55
569.377	6.57
569.718	6.55
570.058	6.56
570.398	6.52
570.739	6.54
571.079	6.54
571.419	6.53
571.759	6.53
572.099	6.55
572.439	6.56
572.779	6.53
573.119	6.57
573.459	6.6
573.799	6.61
574.139	6.62
574.479	6.64
574.819	6.62
575.158	6.61
575.498	6.61
575.838	6.6
576.177	6.59
576.517	6.56
576.856	6.59
577.196	6.59
577.535	6.62
577.875	6.62
578.214	6.63
578.553	6.65
578.893	6.63
579.232	6.58
579.571	6.59
579.91	6.63
580.25	6.62
580.589	6.59
580.928	6.62
581.267	6.61
581.606	6.57
581.945	6.59
582.283	6.57
582.622	6.57
582.961	6.58
583.3	6.61
583.639	6.67
583.977	6.68
584.316	6.66
584.654	6.67
584.993	6.68
585.332	6.68
585.67	6.67
586.008	6.69
586.347	6.71
586.685	6.72
587.024	6.7
587.362	6.72
587.7	6.71
588.038	6.68
588.376	6.66
588.715	6.69
589.053	6.69
589.391	6.73
589.729	6.77
590.067	6.78
590.404	6.77
590.742	6.79
591.08	6.77
591.418	6.8
591.756	6.85
592.093	6.83
592.431	6.79
592.769	6.82
593.106	6.84
593.444	6.83
593.781	6.83
594.119	6.86
594.456	6.84
594.793	6.83
595.131	6.85
595.468	6.87
595.805	6.89
596.143	6.87
596.48	6.85
596.817	6.83
597.154	6.82
597.491	6.82
597.828	6.74
598.165	6.76
598.502	6.7
598.839	6.67
599.176	6.63
599.512	6.68
599.849	6.68
600.186	6.66
600.523	6.7
600.859	6.71
601.196	6.7
601.532	6.67
601.869	6.69
602.205	6.7
602.542	6.7
602.878	6.68
603.215	6.71
603.551	6.7
603.887	6.7
604.223	6.72
604.56	6.74
604.896	6.77
605.232	6.75
605.568	6.8
605.904	6.79
606.24	6.84
606.576	6.85
606.912	6.84
607.248	6.87
607.583	6.88
607.919	6.87
608.255	6.84
608.591	6.89
608.926	6.9
609.262	6.9
609.597	6.92
609.933	6.93
610.268	6.94
610.604	6.95
610.939	7
611.275	6.99
611.61	7
611.945	7.01
612.281	7.03
612.616	7.02
612.951	7.04
613.286	7
613.621	7.01
613.956	7.01
614.291	6.93
614.626	6.94
614.961	6.96
615.296	6.94
615.631	6.97
615.966	6.96
616.3	6.99
616.635	6.97
616.97	6.95
617.304	6.98
617.639	6.97
617.973	6.91
618.308	6.91
618.642	6.93
618.977	7
619.311	7.01
619.646	6.98
619.98	6.99
620.314	7.02
620.648	6.99
620.983	7.03
621.317	7.16
621.651	7.1
621.985	7.11
622.319	7.13
622.653	7.07
622.987	7.08
623.321	7.06
623.655	7.05
623.988	7.06
624.322	6.99
624.656	7.04
624.99	7.06
625.323	7.06
625.657	7.07
625.99	7.08
626.324	7.06
626.657	7.05
626.991	7.05
627.324	7.06
627.658	7.12
627.991	7.1
628.324	7.07
628.657	7.1
628.991	7.11
629.324	7.16
629.657	7.21
629.99	7.22
630.323	7.24
630.656	7.23
630.989	7.26
631.322	7.29
631.655	7.26
631.987	7.32
632.32	7.32
632.653	7.22
632.986	7.16
633.318	7.19
633.651	7.23
633.984	7.2
634.316	7.22
634.649	7.22
634.981	7.22
635.313	7.2
635.646	7.21
635.978	7.23
636.31	7.2
636.643	7.14
636.975	7.14
637.307	7.1
637.639	7.13
637.971	7.09
638.303	7.09
638.635	7.08
638.967	7.03
639.299	7.05
639.631	7.14
639.963	7.15
640.295	7.14
640.626	7.19
640.958	7.24
641.29	7.27
641.621	7.26
641.953	7.28
642.285	7.27
642.616	7.3
642.948	7.27
643.279	7.27
643.61	7.32
643.942	7.36
644.273	7.41
644.604	7.46
644.936	7.45
645.267	7.46
645.598	7.46
645.929	7.52
646.26	7.51
646.591	7.51
646.922	7.42
647.253	7.46
647.584	7.42
647.915	7.37
648.245	7.29
648.576	7.28
648.907	7.34
649.238	7.36
649.568	7.35
649.899	7.35
650.229	7.38
650.56	7.38
650.89	7.35
651.221	7.43
651.551	7.37
651.882	7.41
652.212	7.34
652.542	7.35
652.872	7.3
653.203	7.24
653.533	7.31
653.863	7.35
654.193	7.33
654.523	7.35
654.853	7.4
655.183	7.49
655.513	7.5
655.843	7.38
656.172	7.41
656.502	7.42
656.832	7.41
657.162	7.43
657.491	7.42
657.821	7.41
658.15	7.34
658.48	7.34
658.809	7.35
659.139	7.45
659.468	7.38
659.798	7.43
660.127	7.49
660.456	7.44
660.785	7.5
661.115	7.52
661.444	7.52
661.773	7.5
662.102	7.47
662.431	7.51
662.76	7.54
663.089	7.43
663.418	7.41
663.747	7.47
664.076	7.45
664.404	7.42
664.733	7.43
665.062	7.44
665.39	7.45
665.719	7.42
666.048	7.44
666.376	7.54
666.705	7.47
667.033	7.43
667.362	7.43
667.69	7.42
668.018	7.35
668.347	7.29
668.675	7.31
669.003	7.3
669.331	7.28
669.659	7.32
669.987	7.44
670.315	7.43
670.643	7.38
670.971	7.42
671.299	7.44
671.627	7.46
671.955	7.38
672.283	7.45
672.61	7.44
672.938	7.37
673.266	7.38
673.593	7.5
673.921	7.5
674.249	7.51
674.576	7.54
674.904	7.54
675.231	7.46
675.558	7.47
675.886	7.38
676.213	7.36
676.54	7.34
676.867	7.3
677.195	7.33
677.522	7.3
