Data from BU26848_Reflection_00004.txt Node
Date: Mon Nov 18 16:25:31 EST 2019
User: vgr7
Spectrometer: USB2G7710
Scans to average: 3
Trigger mode: 4
Integration Time (sec): 2.000000E-2
Electric dark correction enabled: true
Boxcar width: 10
XAxis mode: Wavelengths
Number of Pixels in Spectrum: 2048
>>>>>Begin Spectral Data<<<<<
177.721	163.26
178.105	142.55
178.488	311.58
178.871	162.5
179.254	354.44
179.636	-78.57
180.019	22.31
180.402	341.67
180.785	1797.67
181.168	389.89
181.55	1757.53
181.933	151.46
182.316	110.06
182.698	91.49
183.081	96.57
183.463	104.59
183.846	114.14
184.228	240.51
184.611	306.87
184.993	389.99
185.376	-1281.32
185.758	-960.79
186.14	-2793.13
186.522	1647.72
186.904	2126.74
187.287	1147.49
187.669	-2050.84
188.051	2949.62
188.433	-669.09
188.815	-330.73
189.197	-148.21
189.579	-106.54
189.961	-70.53
190.342	-109.05
190.724	-56.48
191.106	-67.85
191.488	-71.63
191.869	-79.32
192.251	-108.21
192.633	-110
193.014	-107.61
193.396	-173.5
193.777	-185.97
194.159	-173.99
194.54	-101.19
194.922	-106.96
195.303	-78.61
195.684	-80.45
196.065	-68.75
196.447	-60.28
196.828	-97.34
197.209	-154.14
197.59	-221.6
197.971	-362.25
198.352	-112.68
198.733	-218.62
199.114	-88.98
199.495	-55.01
199.876	-75.38
200.257	-54.92
200.638	-27.96
201.018	-34.79
201.399	-45.9
201.78	-43.95
202.16	-58.11
202.541	-120.1
202.922	-166.88
203.302	-156.19
203.683	-211.81
204.063	-249.92
204.444	-361.24
204.824	-235.27
205.204	-158.98
205.585	-166.08
205.965	-149.91
206.345	-240.53
206.725	-219.17
207.106	-466.31
207.486	-1315.42
207.866	-452.61
208.246	-875.27
208.626	-697.88
209.006	-851.08
209.386	-1612.33
209.766	-1220.37
210.145	-500.47
210.525	-304.54
210.905	-162.33
211.285	-175.18
211.664	-125.18
212.044	-100
212.424	-84.56
212.803	-85.68
213.183	-87.14
213.562	-62.77
213.942	-39.81
214.321	-38
214.701	-47.83
215.08	-32.6
215.459	-12.19
215.838	-9.35
216.218	-13.71
216.597	-5.14
216.976	3.36
217.355	10.42
217.734	1.78
218.113	-1.25
218.492	8.13
218.871	1.05
219.25	9.18
219.629	3.54
220.008	7.08
220.387	9.88
220.766	8.43
221.144	1.67
221.523	-2.8
221.902	-11.9
222.28	-10.8
222.659	13.72
223.037	8.35
223.416	-8.48
223.794	-12.51
224.173	-9.32
224.551	-16.01
224.929	-21.62
225.308	-10.4
225.686	-1.13
226.064	-2.21
226.442	-8.44
226.821	-2.74
227.199	-4.34
227.577	-6.62
227.955	-9.63
228.333	-10.12
228.711	-9.32
229.089	-1.84
229.467	-3.38
229.845	-3.95
230.222	-4.68
230.6	-7.64
230.978	-4.97
231.356	-3.27
231.733	-0.61
232.111	0.21
232.488	1.73
232.866	1.85
233.243	1.5
233.621	-0.15
233.998	0.04
234.376	0.06
234.753	0.89
235.13	-0.31
235.508	-0.51
235.885	1.47
236.262	1.36
236.639	1.44
237.016	-1.45
237.393	0.25
237.77	0.82
238.147	1.72
238.524	2.38
238.901	2.64
239.278	3.33
239.655	4.32
240.032	4.37
240.409	4.06
240.785	4.42
241.162	4.47
241.539	4.8
241.915	4.89
242.292	4.45
242.668	4.32
243.045	4.9
243.421	5.21
243.798	4.77
244.174	4.58
244.551	4.48
244.927	4.6
245.303	4.86
245.679	4.9
246.056	4.8
246.432	4.7
246.808	4.62
247.184	4.4
247.56	4.11
247.936	3.96
248.312	3.95
248.688	4.01
249.064	3.87
249.44	3.7
249.815	3.65
250.191	3.87
250.567	3.66
250.943	3.47
251.318	3.54
251.694	3.49
252.069	3.55
252.445	3.62
252.82	3.59
253.196	3.36
253.571	2.92
253.947	2.77
254.322	2.63
254.697	2.62
255.073	2.58
255.448	2.44
255.823	2.72
256.198	2.85
256.573	2.87
256.948	2.91
257.323	2.86
257.698	3.18
258.073	3.31
258.448	3.31
258.823	3.37
259.198	3.21
259.573	3.28
259.948	3.16
260.322	3.32
260.697	3.28
261.072	3.13
261.446	3.27
261.821	3.34
262.195	3.56
262.57	3.6
262.944	3.71
263.319	3.88
263.693	3.85
264.067	3.67
264.442	3.6
264.816	3.51
265.19	3.64
265.564	3.4
265.938	3.31
266.313	3.46
266.687	3.34
267.061	3.59
267.435	3.73
267.809	3.96
268.183	3.74
268.556	3.56
268.93	3.67
269.304	3.6
269.678	3.71
270.051	3.41
270.425	3.29
270.799	3.22
271.172	3.14
271.546	3.14
271.919	3.12
272.293	3.25
272.666	3.27
273.04	3.26
273.413	3.24
273.787	3.06
274.16	2.87
274.533	2.73
274.906	2.64
275.279	2.56
275.653	2.52
276.026	2.57
276.399	2.74
276.772	2.76
277.145	2.75
277.518	2.66
277.891	2.82
278.263	2.81
278.636	2.81
279.009	2.72
279.382	2.7
279.755	2.81
280.127	2.81
280.5	2.87
280.872	3.04
281.245	2.89
281.617	3.23
281.99	3.39
282.362	3.69
282.735	3.49
283.107	3.47
283.479	3.56
283.852	3.42
284.224	3.37
284.596	3.36
284.968	3.49
285.34	3.56
285.713	3.56
286.085	3.62
286.457	3.75
286.829	3.94
287.201	4.02
287.572	3.97
287.944	3.76
288.316	3.63
288.688	3.43
289.06	3.57
289.431	3.52
289.803	3.51
290.175	3.33
290.546	3.48
290.918	3.43
291.289	3.38
291.661	3.48
292.032	3.72
292.403	3.85
292.775	3.85
293.146	3.69
293.517	3.68
293.889	3.73
294.26	3.65
294.631	3.53
295.002	3.35
295.373	3.29
295.744	3.54
296.115	3.73
296.486	3.69
296.857	3.66
297.228	3.56
297.599	3.52
297.97	3.64
298.34	3.65
298.711	3.67
299.082	3.53
299.452	3.45
299.823	3.24
300.194	3.18
300.564	3.09
300.935	3.16
301.305	3.14
301.676	3.19
302.046	3.16
302.416	3.17
302.787	3.39
303.157	3.48
303.527	3.45
303.897	3.3
304.267	3.43
304.637	3.47
305.008	3.53
305.378	3.66
305.748	3.61
306.117	3.44
306.487	3.45
306.857	3.42
307.227	3.51
307.597	3.58
307.967	3.48
308.336	3.57
308.706	3.54
309.076	3.6
309.445	3.49
309.815	3.47
310.184	3.4
310.554	3.31
310.923	3.16
311.293	3.15
311.662	3.16
312.031	3.08
312.401	3.06
312.77	3.05
313.139	2.98
313.508	2.91
313.877	2.96
314.246	3
314.616	3.05
314.985	3.08
315.353	2.98
315.722	3
316.091	2.84
316.46	2.71
316.829	2.59
317.198	2.59
317.567	2.62
317.935	2.63
318.304	2.48
318.672	2.74
319.041	2.83
319.41	2.84
319.778	2.77
320.147	2.74
320.515	2.81
320.883	2.76
321.252	2.9
321.62	2.95
321.988	2.94
322.357	2.87
322.725	2.88
323.093	2.95
323.461	2.94
323.829	3.06
324.197	3.21
324.565	3.4
324.933	3.4
325.301	3.34
325.669	3.49
326.037	3.49
326.405	3.34
326.772	3.35
327.14	3.49
327.508	3.62
327.875	3.53
328.243	3.43
328.61	3.44
328.978	3.31
329.346	3.4
329.713	3.29
330.08	3.35
330.448	3.16
330.815	3.06
331.182	3.03
331.55	3.01
331.917	3.09
332.284	3.01
332.651	3.03
333.018	3.09
333.385	2.91
333.752	3.11
334.119	3.35
334.486	3.18
334.853	3.13
335.22	3.19
335.587	3.34
335.954	3.4
336.32	3.34
336.687	3.52
337.054	3.4
337.42	3.54
337.787	3.66
338.153	3.7
338.52	3.85
338.886	3.85
339.253	3.77
339.619	3.7
339.986	3.59
340.352	3.57
340.718	3.57
341.084	3.55
341.451	3.57
341.817	3.49
342.183	3.53
342.549	3.55
342.915	3.53
343.281	3.49
343.647	3.37
344.013	3.39
344.379	3.13
344.745	3.14
345.11	3.04
345.476	3.04
345.842	3.1
346.208	2.96
346.573	2.97
346.939	3.07
347.304	3.02
347.67	2.98
348.035	2.94
348.401	2.96
348.766	3.05
349.132	2.92
349.497	2.91
349.862	2.87
350.228	2.78
350.593	2.76
350.958	2.75
351.323	2.79
351.688	2.87
352.053	2.95
352.418	2.99
352.783	3.06
353.148	2.95
353.513	2.97
353.878	2.98
354.243	3.01
354.608	2.96
354.972	3.08
355.337	3.18
355.702	3.26
356.066	3.23
356.431	3.17
356.795	3.21
357.16	3.16
357.524	3.19
357.889	3.25
358.253	3.27
358.618	3.29
358.982	3.28
359.346	3.21
359.71	3.26
360.075	3.3
360.439	3.26
360.803	3.34
361.167	3.34
361.531	3.42
361.895	3.39
362.259	3.46
362.623	3.42
362.987	3.46
363.351	3.45
363.714	3.44
364.078	3.46
364.442	3.37
364.806	3.37
365.169	3.42
365.533	3.43
365.896	3.39
366.26	3.39
366.623	3.43
366.987	3.5
367.35	3.52
367.714	3.48
368.077	3.47
368.44	3.46
368.803	3.51
369.167	3.43
369.53	3.4
369.893	3.37
370.256	3.4
370.619	3.37
370.982	3.39
371.345	3.39
371.708	3.45
372.071	3.45
372.434	3.47
372.797	3.44
373.159	3.42
373.522	3.41
373.885	3.48
374.247	3.48
374.61	3.49
374.973	3.44
375.335	3.45
375.698	3.51
376.06	3.48
376.423	3.44
376.785	3.46
377.147	3.54
377.51	3.49
377.872	3.49
378.234	3.48
378.596	3.46
378.958	3.48
379.321	3.43
379.683	3.53
380.045	3.52
380.407	3.52
380.769	3.52
381.13	3.53
381.492	3.45
381.854	3.43
382.216	3.42
382.578	3.48
382.939	3.43
383.301	3.38
383.663	3.39
384.024	3.37
384.386	3.4
384.747	3.35
385.109	3.39
385.47	3.27
385.832	3.25
386.193	3.27
386.554	3.25
386.916	3.22
387.277	3.2
387.638	3.24
387.999	3.19
388.36	3.2
388.721	3.22
389.082	3.22
389.443	3.2
389.804	3.19
390.165	3.21
390.526	3.23
390.887	3.28
391.248	3.31
391.609	3.33
391.969	3.34
392.33	3.35
392.691	3.35
393.051	3.38
393.412	3.42
393.772	3.38
394.133	3.37
394.493	3.37
394.854	3.35
395.214	3.35
395.574	3.37
395.935	3.34
396.295	3.37
396.655	3.37
397.015	3.4
397.376	3.39
397.736	3.34
398.096	3.38
398.456	3.37
398.816	3.36
399.176	3.36
399.535	3.31
399.895	3.32
400.255	3.33
400.615	3.35
400.975	3.31
401.334	3.3
401.694	3.33
402.054	3.36
402.413	3.36
402.773	3.31
403.132	3.3
403.492	3.32
403.851	3.32
404.211	3.32
404.57	3.32
404.929	3.33
405.288	3.32
405.648	3.31
406.007	3.29
406.366	3.27
406.725	3.3
407.084	3.33
407.443	3.32
407.802	3.32
408.161	3.32
408.52	3.32
408.879	3.33
409.238	3.33
409.596	3.35
409.955	3.34
410.314	3.41
410.673	3.39
411.031	3.43
411.39	3.41
411.748	3.41
412.107	3.43
412.465	3.43
412.824	3.46
413.182	3.44
413.54	3.46
413.899	3.47
414.257	3.44
414.615	3.41
414.974	3.4
415.332	3.37
415.69	3.35
416.048	3.35
416.406	3.36
416.764	3.35
417.122	3.36
417.48	3.37
417.838	3.33
418.195	3.35
418.553	3.33
418.911	3.35
419.269	3.35
419.626	3.32
419.984	3.3
420.342	3.31
420.699	3.3
421.057	3.3
421.414	3.3
421.772	3.3
422.129	3.32
422.486	3.32
422.844	3.34
423.201	3.35
423.558	3.36
423.915	3.35
424.273	3.35
424.63	3.34
424.987	3.34
425.344	3.35
425.701	3.34
426.058	3.34
426.415	3.32
426.772	3.33
427.128	3.35
427.485	3.38
427.842	3.36
428.199	3.38
428.555	3.38
428.912	3.39
429.269	3.39
429.625	3.4
429.982	3.41
430.338	3.39
430.695	3.39
431.051	3.37
431.407	3.39
431.764	3.39
432.12	3.38
432.476	3.39
432.832	3.37
433.189	3.38
433.545	3.38
433.901	3.38
434.257	3.37
434.613	3.37
434.969	3.35
435.325	3.36
435.681	3.34
436.036	3.35
436.392	3.35
436.748	3.35
437.104	3.33
437.459	3.32
437.815	3.34
438.171	3.36
438.526	3.37
438.882	3.36
439.237	3.36
439.593	3.37
439.948	3.37
440.304	3.37
440.659	3.38
441.014	3.37
441.369	3.37
441.725	3.36
442.08	3.36
442.435	3.36
442.79	3.36
443.145	3.37
443.5	3.36
443.855	3.34
444.21	3.34
444.565	3.35
444.92	3.35
445.275	3.34
445.629	3.33
445.984	3.33
446.339	3.33
446.693	3.31
447.048	3.29
447.403	3.28
447.757	3.28
448.112	3.27
448.466	3.26
448.82	3.27
449.175	3.26
449.529	3.25
449.883	3.24
450.238	3.22
450.592	3.23
450.946	3.21
451.3	3.21
451.654	3.2
452.008	3.2
452.362	3.19
452.716	3.18
453.07	3.2
453.424	3.19
453.778	3.19
454.132	3.19
454.486	3.21
454.839	3.23
455.193	3.23
455.547	3.24
455.9	3.26
456.254	3.26
456.607	3.26
456.961	3.26
457.314	3.28
457.668	3.27
458.021	3.26
458.375	3.28
458.728	3.3
459.081	3.31
459.434	3.29
459.787	3.32
460.141	3.32
460.494	3.3
460.847	3.31
461.2	3.31
461.553	3.32
461.906	3.33
462.259	3.34
462.611	3.36
462.964	3.37
463.317	3.36
463.67	3.36
464.022	3.37
464.375	3.38
464.728	3.38
465.08	3.41
465.433	3.41
465.785	3.4
466.138	3.4
466.49	3.39
466.843	3.39
467.195	3.37
467.547	3.36
467.899	3.36
468.252	3.36
468.604	3.39
468.956	3.39
469.308	3.37
469.66	3.37
470.012	3.36
470.364	3.35
470.716	3.36
471.068	3.36
471.42	3.33
471.772	3.34
472.123	3.34
472.475	3.34
472.827	3.34
473.178	3.36
473.53	3.34
473.882	3.34
474.233	3.35
474.585	3.34
474.936	3.34
475.288	3.36
475.639	3.34
475.99	3.31
476.342	3.32
476.693	3.32
477.044	3.31
477.395	3.31
477.746	3.31
478.097	3.32
478.448	3.33
478.8	3.35
479.15	3.36
479.501	3.34
479.852	3.35
480.203	3.35
480.554	3.37
480.905	3.38
481.255	3.39
481.606	3.4
481.957	3.4
482.307	3.41
482.658	3.43
483.009	3.42
483.359	3.43
483.709	3.43
484.06	3.44
484.41	3.45
484.761	3.44
485.111	3.44
485.461	3.45
485.811	3.44
486.162	3.44
486.512	3.44
486.862	3.45
487.212	3.45
487.562	3.45
487.912	3.44
488.262	3.43
488.612	3.44
488.961	3.44
489.311	3.44
489.661	3.43
490.011	3.41
490.36	3.42
490.71	3.42
491.06	3.42
491.409	3.41
491.759	3.39
492.108	3.4
492.458	3.4
492.807	3.38
493.157	3.39
493.506	3.39
493.855	3.39
494.204	3.4
494.554	3.39
494.903	3.4
495.252	3.41
495.601	3.41
495.95	3.42
496.299	3.43
496.648	3.43
496.997	3.44
497.346	3.45
497.695	3.45
498.043	3.46
498.392	3.45
498.741	3.47
499.09	3.47
499.438	3.46
499.787	3.46
500.135	3.48
500.484	3.48
500.832	3.49
501.181	3.5
501.529	3.5
501.878	3.51
502.226	3.53
502.574	3.54
502.923	3.52
503.271	3.5
503.619	3.49
503.967	3.51
504.315	3.52
504.663	3.52
505.011	3.5
505.359	3.51
505.707	3.53
506.055	3.53
506.403	3.56
506.751	3.55
507.098	3.59
507.446	3.59
507.794	3.61
508.141	3.62
508.489	3.63
508.837	3.64
509.184	3.64
509.531	3.64
509.879	3.66
510.226	3.69
510.574	3.7
510.921	3.72
511.268	3.73
511.616	3.73
511.963	3.75
512.31	3.79
512.657	3.81
513.004	3.79
513.351	3.81
513.698	3.79
514.045	3.8
514.392	3.78
514.739	3.77
515.086	3.77
515.432	3.76
515.779	3.75
516.126	3.77
516.473	3.78
516.819	3.78
517.166	3.77
517.512	3.76
517.859	3.76
518.205	3.74
518.552	3.75
518.898	3.75
519.245	3.75
519.591	3.75
519.937	3.74
520.283	3.76
520.629	3.74
520.976	3.75
521.322	3.78
521.668	3.77
522.014	3.81
522.36	3.8
522.706	3.81
523.052	3.82
523.398	3.83
523.743	3.83
524.089	3.82
524.435	3.82
524.781	3.83
525.126	3.84
525.472	3.87
525.817	3.86
526.163	3.86
526.509	3.85
526.854	3.85
527.199	3.85
527.545	3.86
527.89	3.87
528.235	3.89
528.581	3.88
528.926	3.89
529.271	3.89
529.616	3.9
529.961	3.89
530.306	3.9
530.651	3.89
530.996	3.9
531.341	3.89
531.686	3.9
532.031	3.9
532.376	3.91
532.721	3.91
533.065	3.91
533.41	3.93
533.755	3.94
534.099	3.95
534.444	3.96
534.788	3.97
535.133	3.96
535.477	3.96
535.822	3.95
536.166	3.94
536.51	3.93
536.855	3.94
537.199	3.95
537.543	3.95
537.887	3.94
538.231	3.95
538.576	3.96
538.92	3.96
539.264	3.96
539.608	3.97
539.951	3.96
540.295	3.96
540.639	3.97
540.983	3.95
541.327	3.94
541.671	3.94
542.014	3.93
542.358	3.92
542.701	3.91
543.045	3.92
543.389	3.94
543.732	3.94
544.075	3.94
544.419	3.93
544.762	3.93
545.105	3.94
545.449	3.92
545.792	3.92
546.135	3.91
546.478	3.91
546.821	3.92
547.165	3.91
547.508	3.91
547.851	3.9
548.194	3.9
548.536	3.9
548.879	3.92
549.222	3.93
549.565	3.92
549.908	3.94
550.25	3.95
550.593	3.93
550.936	3.93
551.278	3.94
551.621	3.93
551.963	3.93
552.306	3.94
552.648	3.96
552.991	3.99
553.333	3.99
553.675	3.96
554.017	3.94
554.36	3.92
554.702	3.91
555.044	3.9
555.386	3.91
555.728	3.92
556.07	3.92
556.412	3.9
556.754	3.92
557.096	3.91
557.438	3.86
557.78	3.85
558.121	3.84
558.463	3.83
558.805	3.86
559.147	3.86
559.488	3.85
559.83	3.84
560.171	3.83
560.513	3.82
560.854	3.81
561.196	3.83
561.537	3.85
561.878	3.83
562.22	3.84
562.561	3.84
562.902	3.85
563.243	3.85
563.584	3.88
563.925	3.89
564.266	3.9
564.607	3.91
564.948	3.92
565.289	3.94
565.63	3.96
565.971	3.94
566.312	3.93
566.653	3.94
566.993	3.94
567.334	3.95
567.675	3.97
568.015	4
568.356	3.99
568.696	4.01
569.037	4.02
569.377	4
569.718	4
570.058	3.99
570.398	3.98
570.739	3.97
571.079	3.95
571.419	3.95
571.759	3.97
572.099	3.96
572.439	3.94
572.779	3.93
573.119	3.95
573.459	3.98
573.799	4
574.139	4.01
574.479	4.01
574.819	4.01
575.158	3.99
575.498	3.98
575.838	3.97
576.177	3.94
576.517	3.97
576.856	3.99
577.196	3.98
577.535	3.97
577.875	3.98
578.214	4.02
578.553	4.03
578.893	4.02
579.232	4.02
579.571	4.05
579.91	4.03
580.25	4.06
580.589	4.04
580.928	4.03
581.267	4.03
581.606	4.01
581.945	3.99
582.283	3.98
582.622	3.99
582.961	4
583.3	4.06
583.639	4.07
583.977	4.08
584.316	4.09
584.654	4.1
584.993	4.12
585.332	4.07
585.67	4.08
586.008	4.07
586.347	4.1
586.685	4.07
587.024	4.07
587.362	4.03
587.7	4.05
588.038	4.06
588.376	4.05
588.715	4.02
589.053	4.05
589.391	4.08
589.729	4.11
590.067	4.08
590.404	4.04
590.742	4.03
591.08	4.04
591.418	4.03
591.756	4.05
592.093	4.04
592.431	4.05
592.769	4.01
593.106	4.03
593.444	3.98
593.781	3.98
594.119	4.04
594.456	4.01
594.793	4.02
595.131	4.01
595.468	4.02
595.805	4.02
596.143	4.01
596.48	3.96
596.817	3.97
597.154	3.99
597.491	4.02
597.828	4.02
598.165	4.01
598.502	4
598.839	3.98
599.176	3.93
599.512	3.93
599.849	3.96
600.186	3.95
600.523	4
600.859	4.04
601.196	3.98
601.532	4
601.869	3.94
602.205	3.96
602.542	4
602.878	4.04
603.215	4.03
603.551	4.05
603.887	4.06
604.223	4.08
604.56	4.08
604.896	4.1
605.232	4.09
605.568	4.08
605.904	4.11
606.24	4.18
606.576	4.18
606.912	4.15
607.248	4.16
607.583	4.13
607.919	4.1
608.255	4.11
608.591	4.14
608.926	4.17
609.262	4.17
609.597	4.11
609.933	4.1
610.268	4.14
610.604	4.16
610.939	4.12
611.275	4.1
611.61	4.1
611.945	4.08
612.281	4.11
612.616	4.12
612.951	4.15
613.286	4.11
613.621	4.1
613.956	4.11
614.291	4.15
614.626	4.16
614.961	4.15
615.296	4.2
615.631	4.19
615.966	4.17
616.3	4.16
616.635	4.24
616.97	4.19
617.304	4.13
617.639	4.18
617.973	4.17
618.308	4.19
618.642	4.23
618.977	4.21
619.311	4.21
619.646	4.21
619.98	4.19
620.314	4.17
620.648	4.18
620.983	4.22
621.317	4.18
621.651	4.21
621.985	4.25
622.319	4.25
622.653	4.23
622.987	4.26
623.321	4.27
623.655	4.23
623.988	4.29
624.322	4.33
624.656	4.3
624.99	4.31
625.323	4.27
625.657	4.25
625.99	4.28
626.324	4.25
626.657	4.27
626.991	4.27
627.324	4.25
627.658	4.26
627.991	4.28
628.324	4.27
628.657	4.26
628.991	4.27
629.324	4.25
629.657	4.34
629.99	4.36
630.323	4.36
630.656	4.41
630.989	4.42
631.322	4.44
631.655	4.43
631.987	4.42
632.32	4.45
632.653	4.4
632.986	4.4
633.318	4.4
633.651	4.39
633.984	4.4
634.316	4.41
634.649	4.4
634.981	4.36
635.313	4.4
635.646	4.4
635.978	4.39
636.31	4.42
636.643	4.34
636.975	4.35
637.307	4.35
637.639	4.31
637.971	4.29
638.303	4.23
638.635	4.23
638.967	4.26
639.299	4.29
639.631	4.31
639.963	4.35
640.295	4.4
640.626	4.41
640.958	4.41
641.29	4.38
641.621	4.36
641.953	4.35
642.285	4.37
642.616	4.37
642.948	4.37
643.279	4.4
643.61	4.43
643.942	4.42
644.273	4.46
644.604	4.42
644.936	4.42
645.267	4.43
645.598	4.41
645.929	4.4
646.26	4.4
646.591	4.41
646.922	4.34
647.253	4.35
647.584	4.3
647.915	4.22
648.245	4.33
648.576	4.37
648.907	4.39
649.238	4.3
649.568	4.33
649.899	4.33
650.229	4.3
650.56	4.28
650.89	4.21
651.221	4.14
651.551	4.16
651.882	4.24
652.212	4.27
652.542	4.28
652.872	4.31
653.203	4.25
653.533	4.26
653.863	4.31
654.193	4.22
654.523	4.24
654.853	4.35
655.183	4.28
655.513	4.27
655.843	4.25
656.172	4.31
656.502	4.3
656.832	4.31
657.162	4.28
657.491	4.27
657.821	4.26
658.15	4.33
658.48	4.34
658.809	4.3
659.139	4.35
659.468	4.34
659.798	4.29
660.127	4.37
660.456	4.32
660.785	4.32
661.115	4.41
661.444	4.47
661.773	4.44
662.102	4.45
662.431	4.47
662.76	4.51
663.089	4.47
663.418	4.5
663.747	4.51
664.076	4.52
664.404	4.51
664.733	4.56
665.062	4.59
665.39	4.64
665.719	4.58
666.048	4.52
666.376	4.52
666.705	4.53
667.033	4.51
667.362	4.61
667.69	4.6
668.018	4.56
668.347	4.47
668.675	4.44
669.003	4.44
669.331	4.48
669.659	4.48
669.987	4.51
670.315	4.44
670.643	4.45
670.971	4.48
671.299	4.53
671.627	4.57
671.955	4.52
672.283	4.5
672.61	4.53
672.938	4.53
673.266	4.53
673.593	4.61
673.921	4.56
674.249	4.51
674.576	4.51
674.904	4.53
675.231	4.47
675.558	4.47
675.886	4.5
676.213	4.45
676.54	4.44
