Data from BU26932_Reflection_00002.txt Node
Date: Tue Nov 19 10:44:18 EST 2019
User: vgr7
Spectrometer: USB2G7710
Scans to average: 3
Trigger mode: 4
Integration Time (sec): 2.000000E-2
Electric dark correction enabled: true
Boxcar width: 10
XAxis mode: Wavelengths
Number of Pixels in Spectrum: 2048
>>>>>Begin Spectral Data<<<<<
177.721	59.98
178.105	59.89
178.488	0.79
178.871	3.23
179.254	2200
179.636	-36.36
180.019	-277.3
180.402	285.71
180.785	1600
181.168	33.48
181.55	-31.34
181.933	-121.31
182.316	-17.51
182.698	0.85
183.081	60.64
183.463	55.81
183.846	34.29
184.228	10.7
184.611	29.16
184.993	24.78
185.376	21.29
185.758	28.1
186.14	22.27
186.522	27.25
186.904	37.24
187.287	31.74
187.669	36.08
188.051	32.14
188.433	28.95
188.815	12.16
189.197	17.2
189.579	23.65
189.961	18.79
190.342	23.89
190.724	16.33
191.106	15.79
191.488	0.14
191.869	0.14
192.251	10.4
192.633	12.07
193.014	12.5
193.396	-0.07
193.777	-9.23
194.159	-16.81
194.54	-25.49
194.922	-50.06
195.303	-48.26
195.684	-40.12
196.065	-41.78
196.447	-47.44
196.828	-34.6
197.209	-36.04
197.59	-40.38
197.971	-24.95
198.352	-34.05
198.733	-40.8
199.114	-44.22
199.495	-28.3
199.876	-33.12
200.257	-45.26
200.638	-53.72
201.018	-64.78
201.399	-60.01
201.78	-36.51
202.16	-27.99
202.541	-37.26
202.922	-36.36
203.302	-49.49
203.683	-71.31
204.063	-77.23
204.444	-57.53
204.824	-54.17
205.204	-43.87
205.585	-38.65
205.965	-40.98
206.345	-24.65
206.725	-5.58
207.106	-6.47
207.486	0.36
207.866	4.32
208.246	8.97
208.626	5.21
209.006	16.48
209.386	16.89
209.766	23.63
210.145	15.94
210.525	17.3
210.905	38.55
211.285	56.57
211.664	73.48
212.044	73.38
212.424	71.7
212.803	77.03
213.183	67.96
213.562	64.47
213.942	61.6
214.321	49.67
214.701	34.88
215.08	21.18
215.459	15.96
215.838	-2.24
216.218	-13.6
216.597	-5.3
216.976	-18.43
217.355	-30.42
217.734	-43.46
218.113	-34.76
218.492	-35
218.871	-50.97
219.25	-57.14
219.629	-72.15
220.008	-66.22
220.387	-62.62
220.766	-67.04
221.144	-68.2
221.523	-76.61
221.902	-70.71
222.28	-65.39
222.659	-49.13
223.037	-43.3
223.416	-45.74
223.794	-36.95
224.173	-28.49
224.551	-27.92
224.929	-25.72
225.308	-17.29
225.686	-8.83
226.064	-13.59
226.442	-9.02
226.821	-2.34
227.199	-4.74
227.577	-1.32
227.955	-3.69
228.333	-5.95
228.711	-4.58
229.089	-5.83
229.467	-3.38
229.845	-0.96
230.222	0.7
230.6	0.04
230.978	1.38
231.356	1.81
231.733	0.82
232.111	1.57
232.488	0.88
232.866	4.91
233.243	4.28
233.621	3.88
233.998	3.94
234.376	4.92
234.753	3.59
235.13	5.98
235.508	7.38
235.885	6.41
236.262	6.2
236.639	6.58
237.016	8.74
237.393	6.86
237.77	6.01
238.147	4.39
238.524	4.57
238.901	4.32
239.278	4.55
239.655	4.72
240.032	4.76
240.409	4.74
240.785	3.84
241.162	4.71
241.539	4.26
241.915	4.21
242.292	4.1
242.668	4.74
243.045	4.53
243.421	3.94
243.798	4.3
244.174	4.2
244.551	4.06
244.927	3.69
245.303	3.75
245.679	3.59
246.056	3.75
246.432	3.54
246.808	3.62
247.184	3.47
247.56	3.43
247.936	3.26
248.312	3.44
248.688	3.45
249.064	3.17
249.44	3.17
249.815	3.27
250.191	3.03
250.567	2.78
250.943	2.88
251.318	2.89
251.694	2.52
252.069	2.73
252.445	2.61
252.82	3.09
253.196	3.16
253.571	3.45
253.947	3.19
254.322	3.44
254.697	3.57
255.073	3.73
255.448	3.59
255.823	3.76
256.198	3.59
256.573	3.64
256.948	3.9
257.323	3.94
257.698	4.07
258.073	4.09
258.448	4.14
258.823	4.05
259.198	4.23
259.573	4.3
259.948	4.28
260.322	4.27
260.697	3.95
261.072	3.92
261.446	3.92
261.821	4.01
262.195	3.94
262.57	3.82
262.944	3.83
263.319	4.01
263.693	4.03
264.067	3.9
264.442	3.88
264.816	3.76
265.19	3.76
265.564	3.64
265.938	3.65
266.313	3.55
266.687	3.4
267.061	3.22
267.435	3.35
267.809	3.06
268.183	3.14
268.556	3.11
268.93	3.09
269.304	3.11
269.678	3.24
270.051	3.37
270.425	3.24
270.799	3.06
271.172	3.09
271.546	3.21
271.919	3.22
272.293	3.26
272.666	3.1
273.04	2.99
273.413	2.9
273.787	2.85
274.16	2.79
274.533	2.84
274.906	2.75
275.279	2.56
275.653	2.71
276.026	2.73
276.399	2.87
276.772	2.85
277.145	2.95
277.518	2.83
277.891	2.68
278.263	2.83
278.636	3.04
279.009	2.93
279.382	2.54
279.755	2.73
280.127	2.77
280.5	2.98
280.872	2.92
281.245	3.07
281.617	3.09
281.99	3.15
282.362	3.1
282.735	3.12
283.107	3.29
283.479	3.26
283.852	3.19
284.224	3.1
284.596	3.12
284.968	2.94
285.34	2.93
285.713	2.99
286.085	3.02
286.457	3.03
286.829	2.95
287.201	2.94
287.572	2.94
287.944	2.95
288.316	2.85
288.688	3.15
289.06	3.14
289.431	3.25
289.803	3.32
290.175	3.31
290.546	3.25
290.918	3.23
291.289	3.19
291.661	3.25
292.032	3.21
292.403	3.23
292.775	3.31
293.146	3.47
293.517	3.27
293.889	3.18
294.26	3.09
294.631	3.23
295.002	3.4
295.373	3.45
295.744	3.39
296.115	3.43
296.486	3.27
296.857	3.34
297.228	3.27
297.599	3.06
297.97	3.27
298.34	3.37
298.711	3.38
299.082	3.48
299.452	3.39
299.823	3.42
300.194	3.42
300.564	3.36
300.935	3.32
301.305	3.48
301.676	3.54
302.046	3.49
302.416	3.39
302.787	3.35
303.157	3.23
303.527	3.28
303.897	3.34
304.267	3.24
304.637	3.07
305.008	3.04
305.378	3.21
305.748	2.97
306.117	2.8
306.487	2.86
306.857	2.76
307.227	2.87
307.597	2.93
307.967	2.97
308.336	2.99
308.706	2.95
309.076	2.97
309.445	2.96
309.815	3.06
310.184	3
310.554	3.01
310.923	3
311.293	3.02
311.662	3.03
312.031	3.13
312.401	3.09
312.77	3.04
313.139	3.09
313.508	3.11
313.877	3.29
314.246	3.06
314.616	3.24
314.985	3.18
315.353	3.17
315.722	3.25
316.091	3.3
316.46	3.34
316.829	3.21
317.198	3.23
317.567	3.16
317.935	3.22
318.304	3.4
318.672	3.46
319.041	3.46
319.41	3.36
319.778	3.29
320.147	3.44
320.515	3.59
320.883	3.45
321.252	3.5
321.62	3.44
321.988	3.66
322.357	3.39
322.725	3.3
323.093	3.2
323.461	3.11
323.829	3.08
324.197	3.02
324.565	3.11
324.933	3.02
325.301	2.92
325.669	2.92
326.037	2.79
326.405	2.81
326.772	2.74
327.14	2.69
327.508	2.7
327.875	2.54
328.243	2.49
328.61	2.62
328.978	2.54
329.346	2.51
329.713	2.49
330.08	2.72
330.448	2.69
330.815	2.75
331.182	2.72
331.55	2.72
331.917	2.67
332.284	2.65
332.651	2.7
333.018	2.72
333.385	2.76
333.752	2.83
334.119	2.81
334.486	2.84
334.853	2.89
335.22	2.86
335.587	2.92
335.954	2.89
336.32	2.8
336.687	2.88
337.054	2.92
337.42	2.91
337.787	2.76
338.153	2.79
338.52	2.88
338.886	2.83
339.253	2.91
339.619	2.86
339.986	2.91
340.352	2.96
340.718	3.08
341.084	3.13
341.451	3.04
341.817	3.08
342.183	3.03
342.549	3.1
342.915	3.13
343.281	3.22
343.647	3.22
344.013	3.29
344.379	3.16
344.745	3.17
345.11	3.17
345.476	3.24
345.842	3.34
346.208	3.35
346.573	3.34
346.939	3.36
347.304	3.39
347.67	3.24
348.035	3.18
348.401	3.25
348.766	3.2
349.132	3.34
349.497	3.37
349.862	3.35
350.228	3.3
350.593	3.29
350.958	3.3
351.323	3.26
351.688	3.22
352.053	3.26
352.418	3.32
352.783	3.3
353.148	3.29
353.513	3.26
353.878	3.26
354.243	3.29
354.608	3.18
354.972	3.24
355.337	3.32
355.702	3.35
356.066	3.19
356.431	3.18
356.795	3.09
357.16	2.97
357.524	3.02
357.889	3.02
358.253	3.05
358.618	2.99
358.982	3.03
359.346	3.06
359.71	3.06
360.075	3.02
360.439	3.02
360.803	3.03
361.167	3
361.531	2.97
361.895	2.95
362.259	2.97
362.623	2.98
362.987	3.04
363.351	3.04
363.714	3.11
364.078	3.1
364.442	3.07
364.806	3.14
365.169	3.13
365.533	3.16
365.896	3.21
366.26	3.22
366.623	3.19
366.987	3.18
367.35	3.23
367.714	3.21
368.077	3.24
368.44	3.21
368.803	3.17
369.167	3.16
369.53	3.19
369.893	3.2
370.256	3.17
370.619	3.12
370.982	3.08
371.345	3.1
371.708	3.12
372.071	3.12
372.434	3.08
372.797	3.12
373.159	3.14
373.522	3.08
373.885	3.08
374.247	3.14
374.61	3.14
374.973	3.1
375.335	3.13
375.698	3.12
376.06	3.07
376.423	3.18
376.785	3.21
377.147	3.2
377.51	3.19
377.872	3.18
378.234	3.19
378.596	3.24
378.958	3.24
379.321	3.21
379.683	3.28
380.045	3.31
380.407	3.31
380.769	3.26
381.13	3.26
381.492	3.29
381.854	3.29
382.216	3.3
382.578	3.32
382.939	3.28
383.301	3.27
383.663	3.32
384.024	3.29
384.386	3.25
384.747	3.23
385.109	3.25
385.47	3.3
385.832	3.28
386.193	3.28
386.554	3.21
386.916	3.29
387.277	3.22
387.638	3.22
387.999	3.18
388.36	3.18
388.721	3.17
389.082	3.2
389.443	3.2
389.804	3.22
390.165	3.23
390.526	3.26
390.887	3.22
391.248	3.25
391.609	3.24
391.969	3.27
392.33	3.29
392.691	3.29
393.051	3.25
393.412	3.29
393.772	3.29
394.133	3.29
394.493	3.26
394.854	3.29
395.214	3.31
395.574	3.32
395.935	3.33
396.295	3.37
396.655	3.35
397.015	3.32
397.376	3.29
397.736	3.27
398.096	3.25
398.456	3.29
398.816	3.25
399.176	3.25
399.535	3.27
399.895	3.27
400.255	3.27
400.615	3.25
400.975	3.21
401.334	3.18
401.694	3.22
402.054	3.22
402.413	3.21
402.773	3.19
403.132	3.21
403.492	3.23
403.851	3.21
404.211	3.22
404.57	3.27
404.929	3.26
405.288	3.3
405.648	3.3
406.007	3.29
406.366	3.32
406.725	3.3
407.084	3.29
407.443	3.27
407.802	3.25
408.161	3.3
408.52	3.3
408.879	3.3
409.238	3.3
409.596	3.32
409.955	3.32
410.314	3.33
410.673	3.31
411.031	3.3
411.39	3.28
411.748	3.3
412.107	3.27
412.465	3.28
412.824	3.25
413.182	3.26
413.54	3.26
413.899	3.25
414.257	3.27
414.615	3.24
414.974	3.24
415.332	3.26
415.69	3.24
416.048	3.26
416.406	3.27
416.764	3.27
417.122	3.25
417.48	3.25
417.838	3.25
418.195	3.25
418.553	3.25
418.911	3.27
419.269	3.27
419.626	3.27
419.984	3.26
420.342	3.26
420.699	3.24
421.057	3.26
421.414	3.25
421.772	3.24
422.129	3.26
422.486	3.26
422.844	3.27
423.201	3.27
423.558	3.27
423.915	3.26
424.273	3.27
424.63	3.29
424.987	3.29
425.344	3.3
425.701	3.31
426.058	3.31
426.415	3.3
426.772	3.28
427.128	3.29
427.485	3.29
427.842	3.31
428.199	3.33
428.555	3.32
428.912	3.34
429.269	3.34
429.625	3.34
429.982	3.35
430.338	3.36
430.695	3.34
431.051	3.35
431.407	3.36
431.764	3.33
432.12	3.32
432.476	3.33
432.832	3.32
433.189	3.31
433.545	3.32
433.901	3.32
434.257	3.33
434.613	3.33
434.969	3.34
435.325	3.34
435.681	3.35
436.036	3.36
436.392	3.36
436.748	3.36
437.104	3.35
437.459	3.34
437.815	3.33
438.171	3.33
438.526	3.32
438.882	3.33
439.237	3.34
439.593	3.33
439.948	3.33
440.304	3.33
440.659	3.34
441.014	3.35
441.369	3.34
441.725	3.34
442.08	3.34
442.435	3.34
442.79	3.34
443.145	3.34
443.5	3.33
443.855	3.34
444.21	3.35
444.565	3.34
444.92	3.35
445.275	3.37
445.629	3.38
445.984	3.39
446.339	3.4
446.693	3.4
447.048	3.4
447.403	3.39
447.757	3.39
448.112	3.38
448.466	3.38
448.82	3.38
449.175	3.38
449.529	3.38
449.883	3.37
450.238	3.38
450.592	3.37
450.946	3.37
451.3	3.37
451.654	3.36
452.008	3.38
452.362	3.38
452.716	3.37
453.07	3.38
453.424	3.38
453.778	3.34
454.132	3.33
454.486	3.36
454.839	3.37
455.193	3.39
455.547	3.41
455.9	3.42
456.254	3.43
456.607	3.43
456.961	3.44
457.314	3.44
457.668	3.45
458.021	3.45
458.375	3.45
458.728	3.42
459.081	3.44
459.434	3.43
459.787	3.43
460.141	3.43
460.494	3.42
460.847	3.41
461.2	3.45
461.553	3.47
461.906	3.46
462.259	3.47
462.611	3.47
462.964	3.46
463.317	3.44
463.67	3.45
464.022	3.42
464.375	3.41
464.728	3.45
465.08	3.41
465.433	3.4
465.785	3.42
466.138	3.41
466.49	3.42
466.843	3.43
467.195	3.42
467.547	3.42
467.899	3.42
468.252	3.44
468.604	3.42
468.956	3.41
469.308	3.4
469.66	3.4
470.012	3.4
470.364	3.38
470.716	3.41
471.068	3.4
471.42	3.42
471.772	3.43
472.123	3.41
472.475	3.45
472.827	3.47
473.178	3.44
473.53	3.47
473.882	3.49
474.233	3.49
474.585	3.5
474.936	3.49
475.288	3.49
475.639	3.48
475.99	3.47
476.342	3.47
476.693	3.48
477.044	3.47
477.395	3.45
477.746	3.45
478.097	3.45
478.448	3.45
478.8	3.47
479.15	3.47
479.501	3.47
479.852	3.47
480.203	3.47
480.554	3.48
480.905	3.49
481.255	3.48
481.606	3.48
481.957	3.5
482.307	3.51
482.658	3.52
483.009	3.53
483.359	3.54
483.709	3.55
484.06	3.55
484.41	3.56
484.761	3.57
485.111	3.57
485.461	3.57
485.811	3.57
486.162	3.57
486.512	3.57
486.862	3.57
487.212	3.58
487.562	3.58
487.912	3.58
488.262	3.58
488.612	3.59
488.961	3.6
489.311	3.59
489.661	3.6
490.011	3.59
490.36	3.59
490.71	3.6
491.06	3.59
491.409	3.59
491.759	3.59
492.108	3.59
492.458	3.59
492.807	3.6
493.157	3.6
493.506	3.6
493.855	3.6
494.204	3.61
494.554	3.6
494.903	3.62
495.252	3.62
495.601	3.64
495.95	3.64
496.299	3.63
496.648	3.63
496.997	3.64
497.346	3.66
497.695	3.67
498.043	3.67
498.392	3.69
498.741	3.7
499.09	3.73
499.438	3.75
499.787	3.76
500.135	3.76
500.484	3.75
500.832	3.76
501.181	3.77
501.529	3.79
501.878	3.8
502.226	3.79
502.574	3.79
502.923	3.76
503.271	3.77
503.619	3.79
503.967	3.78
504.315	3.77
504.663	3.76
505.011	3.75
505.359	3.74
505.707	3.73
506.055	3.72
506.403	3.71
506.751	3.7
507.098	3.7
507.446	3.72
507.794	3.74
508.141	3.72
508.489	3.73
508.837	3.71
509.184	3.71
509.531	3.71
509.879	3.72
510.226	3.74
510.574	3.75
510.921	3.74
511.268	3.76
511.616	3.79
511.963	3.79
512.31	3.8
512.657	3.82
513.004	3.81
513.351	3.81
513.698	3.79
514.045	3.82
514.392	3.83
514.739	3.82
515.086	3.81
515.432	3.84
515.779	3.84
516.126	3.87
516.473	3.86
516.819	3.88
517.166	3.87
517.512	3.88
517.859	3.87
518.205	3.87
518.552	3.86
518.898	3.85
519.245	3.86
519.591	3.86
519.937	3.85
520.283	3.87
520.629	3.9
520.976	3.9
521.322	3.88
521.668	3.87
522.014	3.86
522.36	3.86
522.706	3.87
523.052	3.88
523.398	3.87
523.743	3.88
524.089	3.9
524.435	3.89
524.781	3.88
525.126	3.9
525.472	3.91
525.817	3.9
526.163	3.91
526.509	3.89
526.854	3.9
527.199	3.9
527.545	3.91
527.89	3.9
528.235	3.92
528.581	3.93
528.926	3.94
529.271	3.94
529.616	3.94
529.961	3.93
530.306	3.92
530.651	3.93
530.996	3.94
531.341	3.94
531.686	3.95
532.031	3.96
532.376	3.96
532.721	3.96
533.065	3.98
533.41	3.97
533.755	3.97
534.099	3.96
534.444	3.97
534.788	3.96
535.133	3.98
535.477	3.97
535.822	3.94
536.166	3.94
536.51	3.96
536.855	3.97
537.199	3.97
537.543	3.98
537.887	3.98
538.231	3.98
538.576	3.98
538.92	4
539.264	3.99
539.608	3.99
539.951	3.98
540.295	3.99
540.639	4.01
540.983	4.03
541.327	4.04
541.671	4.05
542.014	4.06
542.358	4.05
542.701	4.07
543.045	4.09
543.389	4.1
543.732	4.11
544.075	4.11
544.419	4.12
544.762	4.11
545.105	4.13
545.449	4.13
545.792	4.14
546.135	4.13
546.478	4.14
546.821	4.15
547.165	4.18
547.508	4.17
547.851	4.17
548.194	4.16
548.536	4.16
548.879	4.14
549.222	4.11
549.565	4.11
549.908	4.07
550.25	4.08
550.593	4.06
550.936	4.04
551.278	4.04
551.621	4.04
551.963	4.05
552.306	4.04
552.648	4.04
552.991	4.01
553.333	4.02
553.675	4.01
554.017	3.98
554.36	3.95
554.702	3.96
555.044	3.94
555.386	3.95
555.728	3.93
556.07	3.92
556.412	3.95
556.754	3.96
557.096	3.97
557.438	3.98
557.78	3.97
558.121	3.95
558.463	3.96
558.805	3.95
559.147	3.97
559.488	3.97
559.83	3.99
560.171	3.99
560.513	3.99
560.854	4.02
561.196	4.07
561.537	4.1
561.878	4.1
562.22	4.12
562.561	4.12
562.902	4.15
563.243	4.16
563.584	4.18
563.925	4.2
564.266	4.22
564.607	4.22
564.948	4.23
565.289	4.26
565.63	4.25
565.971	4.25
566.312	4.2
566.653	4.18
566.993	4.2
567.334	4.2
567.675	4.16
568.015	4.14
568.356	4.12
568.696	4.1
569.037	4.1
569.377	4.1
569.718	4.07
570.058	4.06
570.398	4.03
570.739	4
571.079	3.97
571.419	3.98
571.759	3.97
572.099	3.97
572.439	3.98
572.779	4
573.119	4.01
573.459	4.05
573.799	4.05
574.139	4.04
574.479	4.05
574.819	4.08
575.158	4.07
575.498	4.09
575.838	4.13
576.177	4.12
576.517	4.14
576.856	4.17
577.196	4.17
577.535	4.2
577.875	4.21
578.214	4.28
578.553	4.22
578.893	4.24
579.232	4.25
579.571	4.25
579.91	4.22
580.25	4.2
580.589	4.19
580.928	4.21
581.267	4.22
581.606	4.2
581.945	4.19
582.283	4.25
582.622	4.21
582.961	4.18
583.3	4.2
583.639	4.21
583.977	4.22
584.316	4.25
584.654	4.23
584.993	4.21
585.332	4.19
585.67	4.23
586.008	4.21
586.347	4.2
586.685	4.17
587.024	4.21
587.362	4.2
587.7	4.22
588.038	4.25
588.376	4.24
588.715	4.25
589.053	4.25
589.391	4.24
589.729	4.28
590.067	4.3
590.404	4.29
590.742	4.24
591.08	4.3
591.418	4.28
591.756	4.26
592.093	4.3
592.431	4.29
592.769	4.32
593.106	4.36
593.444	4.36
593.781	4.4
594.119	4.38
594.456	4.4
594.793	4.36
595.131	4.34
595.468	4.35
595.805	4.37
596.143	4.39
596.48	4.34
596.817	4.34
597.154	4.33
597.491	4.35
597.828	4.35
598.165	4.33
598.502	4.36
598.839	4.37
599.176	4.37
599.512	4.36
599.849	4.35
600.186	4.35
600.523	4.34
600.859	4.33
601.196	4.36
601.532	4.35
601.869	4.4
602.205	4.37
602.542	4.39
602.878	4.37
603.215	4.35
603.551	4.35
603.887	4.36
604.223	4.35
604.56	4.33
604.896	4.33
605.232	4.3
605.568	4.32
605.904	4.32
606.24	4.33
606.576	4.34
606.912	4.31
607.248	4.33
607.583	4.32
607.919	4.31
608.255	4.29
608.591	4.31
608.926	4.26
609.262	4.27
609.597	4.28
609.933	4.27
610.268	4.3
610.604	4.31
610.939	4.33
611.275	4.29
611.61	4.34
611.945	4.33
612.281	4.37
612.616	4.35
612.951	4.4
613.286	4.38
613.621	4.36
613.956	4.35
614.291	4.3
614.626	4.3
614.961	4.36
615.296	4.41
615.631	4.41
615.966	4.44
616.3	4.44
616.635	4.39
616.97	4.43
617.304	4.45
617.639	4.48
617.973	4.45
618.308	4.49
618.642	4.46
618.977	4.46
619.311	4.44
619.646	4.39
619.98	4.4
620.314	4.4
620.648	4.41
620.983	4.45
621.317	4.48
621.651	4.47
621.985	4.41
622.319	4.37
622.653	4.37
622.987	4.34
623.321	4.37
623.655	4.37
623.988	4.35
624.322	4.37
624.656	4.35
624.99	4.33
625.323	4.29
625.657	4.3
625.99	4.36
626.324	4.39
626.657	4.37
626.991	4.37
627.324	4.37
627.658	4.36
627.991	4.4
628.324	4.38
628.657	4.38
628.991	4.4
629.324	4.41
629.657	4.41
629.99	4.47
630.323	4.43
630.656	4.4
630.989	4.43
631.322	4.4
631.655	4.41
631.987	4.4
632.32	4.48
632.653	4.47
632.986	4.49
633.318	4.45
633.651	4.5
633.984	4.54
634.316	4.58
634.649	4.58
634.981	4.56
635.313	4.58
635.646	4.62
635.978	4.59
636.31	4.56
636.643	4.58
636.975	4.57
637.307	4.61
637.639	4.6
637.971	4.55
638.303	4.52
638.635	4.55
638.967	4.6
639.299	4.54
639.631	4.55
639.963	4.47
640.295	4.48
640.626	4.47
640.958	4.39
641.29	4.41
641.621	4.44
641.953	4.45
642.285	4.45
642.616	4.48
642.948	4.52
643.279	4.54
643.61	4.58
643.942	4.63
644.273	4.61
644.604	4.64
644.936	4.69
645.267	4.72
645.598	4.67
645.929	4.65
646.26	4.61
646.591	4.67
646.922	4.69
647.253	4.67
647.584	4.69
647.915	4.74
648.245	4.7
648.576	4.69
648.907	4.74
649.238	4.7
649.568	4.66
649.899	4.69
650.229	4.7
650.56	4.59
650.89	4.55
651.221	4.58
651.551	4.61
651.882	4.63
652.212	4.59
652.542	4.65
652.872	4.68
653.203	4.75
653.533	4.76
653.863	4.75
654.193	4.78
654.523	4.7
654.853	4.67
655.183	4.67
655.513	4.68
655.843	4.6
656.172	4.66
656.502	4.63
656.832	4.58
657.162	4.56
657.491	4.65
657.821	4.65
658.15	4.68
658.48	4.71
658.809	4.7
659.139	4.72
659.468	4.68
659.798	4.7
660.127	4.72
660.456	4.69
660.785	4.71
661.115	4.74
661.444	4.8
661.773	4.84
662.102	4.8
662.431	4.73
662.76	4.75
663.089	4.77
663.418	4.85
663.747	4.85
664.076	4.84
664.404	4.77
664.733	4.75
665.062	4.77
665.39	4.76
665.719	4.7
666.048	4.73
666.376	4.77
666.705	4.72
667.033	4.76
667.362	4.74
667.69	4.7
668.018	4.76
668.347	4.79
668.675	4.75
669.003	4.84
669.331	4.98
669.659	4.91
669.987	4.91
670.315	4.84
670.643	4.89
670.971	4.93
671.299	4.96
671.627	4.98
671.955	4.91
672.283	4.9
672.61	4.98
672.938	5.02
673.266	4.98
673.593	4.96
673.921	4.95
674.249	4.97
674.576	5.02
674.904	4.89
675.231	4.86
675.558	4.92
675.886	4.88
676.213	4.82
676.54	4.9
676.867	4.86
677.195	4.94
677.522	4.84
677.849	4.87
678.176	4.9
678.503	4.93
678.83	4.97
679.157	5.04
679.484	5
