Data from BU26851_Reflection_00004.txt Node
Date: Mon Nov 18 16:48:10 EST 2019
User: vgr7
Spectrometer: USB2G7710
Scans to average: 3
Trigger mode: 4
Integration Time (sec): 2.000000E-2
Electric dark correction enabled: true
Boxcar width: 10
XAxis mode: Wavelengths
Number of Pixels in Spectrum: 2048
>>>>>Begin Spectral Data<<<<<
177.721	-226.12
178.105	775.68
178.488	-1026.58
178.871	-102.48
179.254	998.31
179.636	-6.46
180.019	-628.81
180.402	38.89
180.785	68.68
181.168	238.06
181.55	554.55
181.933	188.77
182.316	231.66
182.698	175.46
183.081	353.54
183.463	-2363.92
183.846	-855.27
184.228	-6061.29
184.611	1100
184.993	1811.86
185.376	123.84
185.758	110.85
186.14	-4.6
186.522	251.13
186.904	-3086.05
187.287	985.17
187.669	-994.67
188.051	922.66
188.433	-1832.33
188.815	-147.52
189.197	-84.12
189.579	-75.63
189.961	-51.62
190.342	-98.23
190.724	-100.88
191.106	-156.38
191.488	-381.78
191.869	1153.1
192.251	-519.38
192.633	16918.18
193.014	-1498.43
193.396	-241.09
193.777	-676.44
194.159	-1055.93
194.54	-529.98
194.922	-4042.86
195.303	-649.22
195.684	-955.25
196.065	-287.62
196.447	-165.18
196.828	-429.09
197.209	-1087.85
197.59	8134.48
197.971	1564.52
198.352	-561.24
198.733	-480.99
199.114	-288.36
199.495	-248.04
199.876	-146.75
200.257	-154.43
200.638	-113.15
201.018	-139.84
201.399	-168.83
201.78	-123.24
202.16	-97.88
202.541	-145.06
202.922	-161.72
203.302	-210.07
203.683	-224.31
204.063	-315.98
204.444	-375.15
204.824	-468.43
205.204	-242.77
205.585	-255.07
205.965	-225.37
206.345	-445.57
206.725	-953.01
207.106	-2627.81
207.486	2164.04
207.866	1497.21
208.246	590.48
208.626	445.31
209.006	2300
209.386	2235.14
209.766	6307.55
210.145	813.6
210.525	2065.03
210.905	-711.63
211.285	-323.01
211.664	-192.71
212.044	-85.67
212.424	-53.28
212.803	-65.61
213.183	-42.75
213.562	-8.57
213.942	5.5
214.321	-5.21
214.701	-2.7
215.08	-13.07
215.459	-7.85
215.838	-16.44
216.218	-10.99
216.597	-16.06
216.976	-17.91
217.355	-6.86
217.734	-24.71
218.113	-19.31
218.492	-22.24
218.871	-33.77
219.25	-30.86
219.629	-40.05
220.008	-53.18
220.387	-53.63
220.766	-54.35
221.144	-92.06
221.523	-127.23
221.902	-166.9
222.28	-138.98
222.659	-114.07
223.037	-79.21
223.416	-91.85
223.794	-70.52
224.173	-71.65
224.551	-50.05
224.929	-52.32
225.308	-39.55
225.686	-33.77
226.064	-32.99
226.442	-32.74
226.821	-25.11
227.199	-26.87
227.577	-25.34
227.955	-25.42
228.333	-23.6
228.711	-18.81
229.089	-10.28
229.467	-7.57
229.845	-6.25
230.222	-3.44
230.6	-6.9
230.978	-7.34
231.356	-6.54
231.733	-7.59
232.111	-3.37
232.488	-5.19
232.866	-2.57
233.243	-2.82
233.621	-1.5
233.998	0.07
234.376	0.64
234.753	0.95
235.13	0.95
235.508	2.56
235.885	2.43
236.262	0.73
236.639	0.06
237.016	-1.83
237.393	-0.53
237.77	0.45
238.147	-0.48
238.524	-0.02
238.901	0.92
239.278	1.62
239.655	3.16
240.032	1.73
240.409	1.21
240.785	1.11
241.162	1.04
241.539	1.51
241.915	1.47
242.292	1.78
242.668	1.65
243.045	2.35
243.421	2.28
243.798	2.69
244.174	3.42
244.551	3.71
244.927	4.04
245.303	4.07
245.679	4.18
246.056	4.47
246.432	4.43
246.808	4.6
247.184	4.39
247.56	4.05
247.936	4.3
248.312	4.52
248.688	4.57
249.064	4.66
249.44	4.6
249.815	4.6
250.191	4.53
250.567	4.68
250.943	4.26
251.318	4.44
251.694	4.38
252.069	3.97
252.445	4
252.82	3.98
253.196	3.96
253.571	3.67
253.947	3.5
254.322	3.47
254.697	3.07
255.073	3.13
255.448	3.08
255.823	3.29
256.198	3.53
256.573	3.46
256.948	3.5
257.323	3.59
257.698	3.5
258.073	3.49
258.448	3.52
258.823	3.65
259.198	3.58
259.573	3.6
259.948	3.58
260.322	3.33
260.697	3.22
261.072	3.12
261.446	3.37
261.821	3.36
262.195	3.5
262.57	3.41
262.944	3.38
263.319	3.39
263.693	3.27
264.067	3.16
264.442	3.46
264.816	3.38
265.19	3.11
265.564	3.35
265.938	3.3
266.313	3.15
266.687	3.16
267.061	3.32
267.435	3.4
267.809	3.6
268.183	3.92
268.556	4.03
268.93	4.09
269.304	3.87
269.678	4.01
270.051	4.01
270.425	4.01
270.799	4.07
271.172	4.03
271.546	4.1
271.919	3.93
272.293	3.77
272.666	3.75
273.04	3.83
273.413	3.71
273.787	3.67
274.16	3.77
274.533	3.86
274.906	3.68
275.279	3.58
275.653	3.48
276.026	3.37
276.399	3.29
276.772	3.34
277.145	3.44
277.518	3.42
277.891	3.38
278.263	3.39
278.636	3.52
279.009	3.73
279.382	3.81
279.755	3.87
280.127	3.84
280.5	4
280.872	3.95
281.245	3.85
281.617	4
281.99	4.14
282.362	4.17
282.735	4.29
283.107	4.47
283.479	4.57
283.852	4.6
284.224	4.69
284.596	4.67
284.968	4.57
285.34	4.55
285.713	4.55
286.085	4.65
286.457	4.58
286.829	4.53
287.201	4.46
287.572	4.44
287.944	4.53
288.316	4.47
288.688	4.51
289.06	4.52
289.431	4.58
289.803	4.53
290.175	4.55
290.546	4.69
290.918	4.68
291.289	4.65
291.661	4.64
292.032	4.81
292.403	4.86
292.775	4.99
293.146	4.95
293.517	4.85
293.889	4.96
294.26	4.98
294.631	4.9
295.002	4.91
295.373	4.95
295.744	4.89
296.115	4.86
296.486	4.72
296.857	4.82
297.228	4.75
297.599	4.69
297.97	4.66
298.34	4.65
298.711	4.63
299.082	4.48
299.452	4.55
299.823	4.47
300.194	4.41
300.564	4.32
300.935	4.37
301.305	4.32
301.676	4.29
302.046	4.26
302.416	4.33
302.787	4.28
303.157	4.17
303.527	4.06
303.897	4.16
304.267	4.43
304.637	4.37
305.008	4.43
305.378	4.52
305.748	4.54
306.117	4.4
306.487	4.39
306.857	4.59
307.227	4.52
307.597	4.49
307.967	4.46
308.336	4.44
308.706	4.42
309.076	4.53
309.445	4.41
309.815	4.37
310.184	4.27
310.554	4.24
310.923	4.35
311.293	4.38
311.662	4.27
312.031	4.1
312.401	4.19
312.77	4.2
313.139	4.17
313.508	4.16
313.877	4.13
314.246	4.21
314.616	4.24
314.985	4.21
315.353	4.13
315.722	4.28
316.091	4.27
316.46	4.22
316.829	4.26
317.198	4.34
317.567	4.42
317.935	4.48
318.304	4.71
318.672	4.81
319.041	4.9
319.41	4.99
319.778	5.05
320.147	5.03
320.515	4.83
320.883	4.87
321.252	4.85
321.62	5.01
321.988	4.88
322.357	4.84
322.725	4.84
323.093	4.9
323.461	4.79
323.829	4.86
324.197	4.97
324.565	5.04
324.933	5.01
325.301	4.99
325.669	5.01
326.037	4.88
326.405	4.88
326.772	4.88
327.14	4.85
327.508	4.85
327.875	4.77
328.243	4.82
328.61	4.74
328.978	4.69
329.346	4.61
329.713	4.6
330.08	4.62
330.448	4.61
330.815	4.49
331.182	4.5
331.55	4.36
331.917	4.3
332.284	4.34
332.651	4.42
333.018	4.44
333.385	4.43
333.752	4.52
334.119	4.45
334.486	4.43
334.853	4.3
335.22	4.31
335.587	4.45
335.954	4.54
336.32	4.53
336.687	4.56
337.054	4.47
337.42	4.58
337.787	4.63
338.153	4.63
338.52	4.75
338.886	4.7
339.253	4.73
339.619	4.71
339.986	4.76
340.352	4.7
340.718	4.69
341.084	4.74
341.451	4.69
341.817	4.68
342.183	4.71
342.549	4.77
342.915	4.84
343.281	4.8
343.647	4.78
344.013	4.81
344.379	4.78
344.745	4.84
345.11	4.76
345.476	4.64
345.842	4.63
346.208	4.61
346.573	4.69
346.939	4.75
347.304	4.74
347.67	4.55
348.035	4.51
348.401	4.62
348.766	4.53
349.132	4.56
349.497	4.52
349.862	4.6
350.228	4.58
350.593	4.51
350.958	4.47
351.323	4.5
351.688	4.5
352.053	4.52
352.418	4.58
352.783	4.62
353.148	4.64
353.513	4.65
353.878	4.58
354.243	4.57
354.608	4.63
354.972	4.64
355.337	4.68
355.702	4.7
356.066	4.71
356.431	4.72
356.795	4.71
357.16	4.74
357.524	4.64
357.889	4.62
358.253	4.62
358.618	4.63
358.982	4.64
359.346	4.61
359.71	4.63
360.075	4.66
360.439	4.63
360.803	4.66
361.167	4.68
361.531	4.7
361.895	4.66
362.259	4.58
362.623	4.55
362.987	4.55
363.351	4.57
363.714	4.54
364.078	4.56
364.442	4.56
364.806	4.56
365.169	4.58
365.533	4.62
365.896	4.58
366.26	4.59
366.623	4.58
366.987	4.62
367.35	4.67
367.714	4.59
368.077	4.6
368.44	4.59
368.803	4.58
369.167	4.56
369.53	4.52
369.893	4.58
370.256	4.65
370.619	4.69
370.982	4.68
371.345	4.63
371.708	4.64
372.071	4.63
372.434	4.62
372.797	4.61
373.159	4.6
373.522	4.67
373.885	4.68
374.247	4.68
374.61	4.64
374.973	4.58
375.335	4.57
375.698	4.63
376.06	4.62
376.423	4.6
376.785	4.68
377.147	4.75
377.51	4.74
377.872	4.74
378.234	4.74
378.596	4.71
378.958	4.71
379.321	4.71
379.683	4.65
380.045	4.64
380.407	4.64
380.769	4.65
381.13	4.66
381.492	4.61
381.854	4.61
382.216	4.62
382.578	4.67
382.939	4.67
383.301	4.6
383.663	4.61
384.024	4.63
384.386	4.63
384.747	4.66
385.109	4.68
385.47	4.63
385.832	4.58
386.193	4.61
386.554	4.59
386.916	4.56
387.277	4.62
387.638	4.65
387.999	4.69
388.36	4.68
388.721	4.7
389.082	4.73
389.443	4.69
389.804	4.7
390.165	4.64
390.526	4.71
390.887	4.71
391.248	4.75
391.609	4.76
391.969	4.73
392.33	4.71
392.691	4.72
393.051	4.74
393.412	4.78
393.772	4.74
394.133	4.77
394.493	4.77
394.854	4.76
395.214	4.77
395.574	4.78
395.935	4.77
396.295	4.78
396.655	4.74
397.015	4.77
397.376	4.77
397.736	4.76
398.096	4.74
398.456	4.78
398.816	4.74
399.176	4.72
399.535	4.73
399.895	4.72
400.255	4.71
400.615	4.71
400.975	4.72
401.334	4.76
401.694	4.74
402.054	4.8
402.413	4.81
402.773	4.8
403.132	4.75
403.492	4.75
403.851	4.71
404.211	4.77
404.57	4.76
404.929	4.81
405.288	4.8
405.648	4.75
406.007	4.77
406.366	4.77
406.725	4.79
407.084	4.8
407.443	4.79
407.802	4.78
408.161	4.77
408.52	4.74
408.879	4.73
409.238	4.73
409.596	4.68
409.955	4.7
410.314	4.69
410.673	4.7
411.031	4.68
411.39	4.71
411.748	4.66
412.107	4.67
412.465	4.63
412.824	4.66
413.182	4.67
413.54	4.65
413.899	4.65
414.257	4.62
414.615	4.6
414.974	4.63
415.332	4.63
415.69	4.61
416.048	4.66
416.406	4.63
416.764	4.62
417.122	4.64
417.48	4.59
417.838	4.6
418.195	4.61
418.553	4.65
418.911	4.64
419.269	4.65
419.626	4.64
419.984	4.65
420.342	4.64
420.699	4.64
421.057	4.65
421.414	4.65
421.772	4.66
422.129	4.67
422.486	4.66
422.844	4.67
423.201	4.68
423.558	4.67
423.915	4.69
424.273	4.71
424.63	4.7
424.987	4.72
425.344	4.71
425.701	4.7
426.058	4.7
426.415	4.69
426.772	4.7
427.128	4.71
427.485	4.69
427.842	4.69
428.199	4.7
428.555	4.67
428.912	4.68
429.269	4.68
429.625	4.67
429.982	4.65
430.338	4.63
430.695	4.62
431.051	4.62
431.407	4.61
431.764	4.6
432.12	4.6
432.476	4.6
432.832	4.6
433.189	4.61
433.545	4.58
433.901	4.58
434.257	4.56
434.613	4.57
434.969	4.57
435.325	4.59
435.681	4.59
436.036	4.59
436.392	4.59
436.748	4.59
437.104	4.58
437.459	4.59
437.815	4.59
438.171	4.58
438.526	4.6
438.882	4.59
439.237	4.59
439.593	4.59
439.948	4.59
440.304	4.6
440.659	4.58
441.014	4.58
441.369	4.58
441.725	4.58
442.08	4.56
442.435	4.57
442.79	4.56
443.145	4.58
443.5	4.59
443.855	4.59
444.21	4.56
444.565	4.58
444.92	4.59
445.275	4.59
445.629	4.6
445.984	4.59
446.339	4.57
446.693	4.57
447.048	4.58
447.403	4.58
447.757	4.56
448.112	4.56
448.466	4.56
448.82	4.56
449.175	4.57
449.529	4.58
449.883	4.55
450.238	4.55
450.592	4.55
450.946	4.54
451.3	4.54
451.654	4.56
452.008	4.56
452.362	4.54
452.716	4.53
453.07	4.54
453.424	4.54
453.778	4.58
454.132	4.59
454.486	4.58
454.839	4.57
455.193	4.58
455.547	4.58
455.9	4.58
456.254	4.59
456.607	4.56
456.961	4.55
457.314	4.58
457.668	4.58
458.021	4.57
458.375	4.56
458.728	4.56
459.081	4.55
459.434	4.54
459.787	4.54
460.141	4.54
460.494	4.55
460.847	4.53
461.2	4.52
461.553	4.53
461.906	4.51
462.259	4.53
462.611	4.54
462.964	4.55
463.317	4.56
463.67	4.57
464.022	4.58
464.375	4.58
464.728	4.58
465.08	4.57
465.433	4.56
465.785	4.56
466.138	4.55
466.49	4.55
466.843	4.56
467.195	4.57
467.547	4.59
467.899	4.59
468.252	4.59
468.604	4.59
468.956	4.57
469.308	4.6
469.66	4.59
470.012	4.61
470.364	4.63
470.716	4.62
471.068	4.61
471.42	4.62
471.772	4.64
472.123	4.64
472.475	4.65
472.827	4.65
473.178	4.67
473.53	4.68
473.882	4.68
474.233	4.68
474.585	4.67
474.936	4.64
475.288	4.64
475.639	4.68
475.99	4.67
476.342	4.68
476.693	4.69
477.044	4.68
477.395	4.66
477.746	4.66
478.097	4.67
478.448	4.69
478.8	4.68
479.15	4.68
479.501	4.71
479.852	4.73
480.203	4.74
480.554	4.75
480.905	4.77
481.255	4.78
481.606	4.78
481.957	4.78
482.307	4.78
482.658	4.79
483.009	4.78
483.359	4.78
483.709	4.77
484.06	4.77
484.41	4.78
484.761	4.78
485.111	4.78
485.461	4.78
485.811	4.78
486.162	4.78
486.512	4.79
486.862	4.78
487.212	4.77
487.562	4.77
487.912	4.77
488.262	4.76
488.612	4.75
488.961	4.76
489.311	4.78
489.661	4.78
490.011	4.77
490.36	4.77
490.71	4.78
491.06	4.79
491.409	4.78
491.759	4.78
492.108	4.78
492.458	4.78
492.807	4.78
493.157	4.78
493.506	4.79
493.855	4.79
494.204	4.78
494.554	4.79
494.903	4.78
495.252	4.76
495.601	4.77
495.95	4.78
496.299	4.77
496.648	4.76
496.997	4.78
497.346	4.78
497.695	4.79
498.043	4.78
498.392	4.76
498.741	4.78
499.09	4.75
499.438	4.79
499.787	4.79
500.135	4.82
500.484	4.83
500.832	4.82
501.181	4.84
501.529	4.85
501.878	4.87
502.226	4.89
502.574	4.88
502.923	4.88
503.271	4.86
503.619	4.86
503.967	4.86
504.315	4.83
504.663	4.84
505.011	4.84
505.359	4.85
505.707	4.91
506.055	4.9
506.403	4.93
506.751	4.91
507.098	4.91
507.446	4.9
507.794	4.89
508.141	4.89
508.489	4.9
508.837	4.92
509.184	4.9
509.531	4.91
509.879	4.94
510.226	4.97
510.574	4.98
510.921	4.98
511.268	5
511.616	5.02
511.963	5.02
512.31	5.02
512.657	5.02
513.004	5
513.351	5.01
513.698	4.99
514.045	4.99
514.392	5
514.739	5
515.086	5.02
515.432	5.02
515.779	5
516.126	5.01
516.473	5.03
516.819	5.04
517.166	5.02
517.512	5.02
517.859	5.04
518.205	5.05
518.552	5.05
518.898	5.05
519.245	5.06
519.591	5.04
519.937	5.05
520.283	5.05
520.629	5.06
520.976	5.06
521.322	5.07
521.668	5.07
522.014	5.08
522.36	5.09
522.706	5.09
523.052	5.11
523.398	5.12
523.743	5.11
524.089	5.11
524.435	5.11
524.781	5.11
525.126	5.11
525.472	5.12
525.817	5.14
526.163	5.14
526.509	5.15
526.854	5.17
527.199	5.17
527.545	5.19
527.89	5.2
528.235	5.2
528.581	5.2
528.926	5.19
529.271	5.19
529.616	5.18
529.961	5.18
530.306	5.18
530.651	5.17
530.996	5.17
531.341	5.17
531.686	5.17
532.031	5.18
532.376	5.18
532.721	5.17
533.065	5.16
533.41	5.16
533.755	5.15
534.099	5.15
534.444	5.15
534.788	5.13
535.133	5.12
535.477	5.14
535.822	5.15
536.166	5.15
536.51	5.14
536.855	5.15
537.199	5.16
537.543	5.16
537.887	5.16
538.231	5.15
538.576	5.16
538.92	5.16
539.264	5.17
539.608	5.18
539.951	5.18
540.295	5.19
540.639	5.18
540.983	5.2
541.327	5.21
541.671	5.21
542.014	5.21
542.358	5.22
542.701	5.22
543.045	5.22
543.389	5.23
543.732	5.22
544.075	5.22
544.419	5.22
544.762	5.23
545.105	5.26
545.449	5.28
545.792	5.27
546.135	5.31
546.478	5.29
546.821	5.3
547.165	5.29
547.508	5.3
547.851	5.3
548.194	5.31
548.536	5.27
548.879	5.29
549.222	5.29
549.565	5.29
549.908	5.29
550.25	5.31
550.593	5.3
550.936	5.3
551.278	5.32
551.621	5.34
551.963	5.36
552.306	5.33
552.648	5.35
552.991	5.36
553.333	5.33
553.675	5.37
554.017	5.37
554.36	5.39
554.702	5.42
555.044	5.41
555.386	5.4
555.728	5.46
556.07	5.48
556.412	5.48
556.754	5.49
557.096	5.5
557.438	5.46
557.78	5.48
558.121	5.53
558.463	5.53
558.805	5.52
559.147	5.46
559.488	5.47
559.83	5.45
560.171	5.43
560.513	5.4
560.854	5.37
561.196	5.39
561.537	5.35
561.878	5.33
562.22	5.33
562.561	5.31
562.902	5.31
563.243	5.29
563.584	5.27
563.925	5.28
564.266	5.26
564.607	5.28
564.948	5.27
565.289	5.25
565.63	5.28
565.971	5.25
566.312	5.3
566.653	5.31
566.993	5.31
567.334	5.31
567.675	5.33
568.015	5.31
568.356	5.28
568.696	5.3
569.037	5.32
569.377	5.34
569.718	5.37
570.058	5.37
570.398	5.35
570.739	5.4
571.079	5.4
571.419	5.39
571.759	5.41
572.099	5.4
572.439	5.41
572.779	5.38
573.119	5.43
573.459	5.46
573.799	5.47
574.139	5.44
574.479	5.47
574.819	5.49
575.158	5.49
575.498	5.5
575.838	5.47
576.177	5.41
576.517	5.38
576.856	5.41
577.196	5.38
577.535	5.39
577.875	5.34
578.214	5.31
578.553	5.35
578.893	5.35
579.232	5.34
579.571	5.32
579.91	5.33
580.25	5.26
580.589	5.19
580.928	5.18
581.267	5.25
581.606	5.22
581.945	5.22
582.283	5.2
582.622	5.2
582.961	5.25
583.3	5.28
583.639	5.37
583.977	5.33
584.316	5.28
584.654	5.32
584.993	5.33
585.332	5.36
585.67	5.34
586.008	5.31
586.347	5.34
586.685	5.35
587.024	5.33
587.362	5.36
587.7	5.37
588.038	5.38
588.376	5.34
588.715	5.37
589.053	5.35
589.391	5.35
589.729	5.34
590.067	5.32
590.404	5.35
590.742	5.3
591.08	5.3
591.418	5.39
591.756	5.39
592.093	5.37
592.431	5.39
592.769	5.42
593.106	5.45
593.444	5.42
593.781	5.46
594.119	5.47
594.456	5.47
594.793	5.46
595.131	5.44
595.468	5.48
595.805	5.48
596.143	5.47
596.48	5.48
596.817	5.51
597.154	5.53
597.491	5.49
597.828	5.5
598.165	5.53
598.502	5.51
598.839	5.46
599.176	5.49
599.512	5.5
599.849	5.47
600.186	5.5
600.523	5.54
600.859	5.53
601.196	5.56
601.532	5.55
601.869	5.57
602.205	5.62
602.542	5.62
602.878	5.62
603.215	5.63
603.551	5.68
603.887	5.65
604.223	5.66
604.56	5.7
604.896	5.68
605.232	5.68
605.568	5.68
605.904	5.69
606.24	5.7
606.576	5.68
606.912	5.69
607.248	5.69
607.583	5.68
607.919	5.66
608.255	5.67
608.591	5.69
608.926	5.71
609.262	5.67
609.597	5.66
609.933	5.67
610.268	5.69
610.604	5.67
610.939	5.66
611.275	5.68
611.61	5.68
611.945	5.68
612.281	5.67
612.616	5.67
612.951	5.68
613.286	5.73
613.621	5.73
613.956	5.72
614.291	5.69
614.626	5.65
614.961	5.66
615.296	5.61
615.631	5.6
615.966	5.64
616.3	5.62
616.635	5.59
616.97	5.57
617.304	5.53
617.639	5.53
617.973	5.52
618.308	5.51
618.642	5.53
618.977	5.54
619.311	5.56
619.646	5.61
619.98	5.65
620.314	5.58
620.648	5.59
620.983	5.59
621.317	5.6
621.651	5.61
621.985	5.67
622.319	5.7
622.653	5.75
622.987	5.72
623.321	5.74
623.655	5.75
623.988	5.83
624.322	5.83
624.656	5.85
624.99	5.9
625.323	5.86
625.657	5.88
625.99	5.89
626.324	5.88
626.657	5.85
626.991	5.83
627.324	5.85
627.658	5.87
627.991	5.93
628.324	5.88
628.657	5.93
628.991	5.87
629.324	5.93
629.657	5.91
629.99	5.88
630.323	5.89
630.656	5.95
630.989	5.9
631.322	5.89
631.655	5.92
631.987	5.93
632.32	5.94
632.653	5.9
632.986	5.95
633.318	5.91
633.651	5.92
633.984	5.92
634.316	5.9
634.649	5.9
634.981	5.88
635.313	5.96
635.646	5.95
635.978	6.02
636.31	5.95
636.643	5.94
636.975	5.98
637.307	5.95
637.639	5.88
637.971	5.9
638.303	5.93
638.635	5.88
638.967	5.87
639.299	5.88
639.631	5.87
639.963	5.78
640.295	5.82
640.626	5.8
640.958	5.82
641.29	5.85
641.621	5.89
641.953	5.8
642.285	5.79
642.616	5.81
642.948	5.73
643.279	5.7
643.61	5.7
643.942	5.68
644.273	5.74
644.604	5.77
644.936	5.72
645.267	5.72
645.598	5.71
645.929	5.72
646.26	5.72
646.591	5.73
646.922	5.75
647.253	5.7
647.584	5.71
647.915	5.67
648.245	5.65
648.576	5.62
648.907	5.7
649.238	5.64
649.568	5.65
649.899	5.64
650.229	5.68
650.56	5.67
650.89	5.7
651.221	5.64
651.551	5.62
651.882	5.59
652.212	5.64
652.542	5.64
652.872	5.53
653.203	5.52
653.533	5.54
653.863	5.59
654.193	5.57
654.523	5.57
654.853	5.59
655.183	5.64
655.513	5.58
655.843	5.57
656.172	5.61
656.502	5.54
656.832	5.63
657.162	5.67
657.491	5.69
657.821	5.66
658.15	5.68
658.48	5.7
658.809	5.76
659.139	5.7
659.468	5.73
659.798	5.8
660.127	5.88
660.456	5.93
660.785	5.96
661.115	6.05
661.444	6.12
661.773	6.08
662.102	6.04
662.431	6.13
662.76	6.16
663.089	6.14
663.418	6.19
663.747	6.07
664.076	6.06
664.404	6.04
664.733	6.1
665.062	6.14
665.39	6.14
665.719	6.16
666.048	6.27
666.376	6.3
666.705	6.23
667.033	6.15
667.362	6.06
667.69	6.03
668.018	5.99
668.347	5.94
668.675	5.99
669.003	6.03
669.331	6.06
669.659	6.04
669.987	6.01
670.315	6.03
670.643	6.12
670.971	6.08
671.299	6.17
671.627	6.13
671.955	6.06
672.283	6.08
672.61	6.03
672.938	5.92
673.266	5.91
673.593	6.02
673.921	6.03
674.249	6.04
674.576	6.06
674.904	6.1
675.231	6.05
