Data from BU26850_Reflection_00014.txt Node
Date: Mon Nov 18 16:45:52 EST 2019
User: vgr7
Spectrometer: USB2G7710
Scans to average: 3
Trigger mode: 4
Integration Time (sec): 2.000000E-2
Electric dark correction enabled: true
Boxcar width: 10
XAxis mode: Wavelengths
Number of Pixels in Spectrum: 2048
>>>>>Begin Spectral Data<<<<<
177.721	-76.84
178.105	-34.28
178.488	72.2
178.871	-21.97
179.254	32.02
179.636	-103.05
180.019	-48.28
180.402	-0
180.785	127.11
181.168	17.96
181.55	-206.75
181.933	171.58
182.316	297.18
182.698	-10.91
183.081	-78.31
183.463	749.35
183.846	90.31
184.228	299.46
184.611	-393.62
184.993	-1596.2
185.376	267.08
185.758	287.29
186.14	114.88
186.522	16.98
186.904	55.29
187.287	37.92
187.669	55.95
188.051	36.59
188.433	19.62
188.815	33.55
189.197	14.55
189.579	10.86
189.961	14.41
190.342	14.3
190.724	-4.5
191.106	2.23
191.488	-1.41
191.869	4.34
192.251	1.23
192.633	8.07
193.014	6.03
193.396	17.85
193.777	30.41
194.159	14.25
194.54	27.39
194.922	38.77
195.303	29.7
195.684	21.52
196.065	40.44
196.447	35.55
196.828	28.11
197.209	30.73
197.59	31.15
197.971	35.27
198.352	41.78
198.733	43.21
199.114	31.82
199.495	40.83
199.876	41.54
200.257	32.23
200.638	31.14
201.018	22.49
201.399	16.65
201.78	10.28
202.16	11.81
202.541	5.77
202.922	-4.06
203.302	-0.55
203.683	3.68
204.063	-2.76
204.444	9.34
204.824	7.9
205.204	28.64
205.585	24.34
205.965	16.04
206.345	-2.36
206.725	3.95
207.106	12.99
207.486	-14.12
207.866	-17.26
208.246	-3.05
208.626	-5.26
209.006	35.36
209.386	21.58
209.766	48.44
210.145	76.81
210.525	68.04
210.905	72.07
211.285	49.16
211.664	51.84
212.044	37.27
212.424	32.41
212.803	46.85
213.183	27.39
213.562	25.83
213.942	31.47
214.321	35.27
214.701	33.4
215.08	41.68
215.459	36.49
215.838	42.94
216.218	37.18
216.597	37.63
216.976	29.67
217.355	34.86
217.734	17.18
218.113	10.96
218.492	18.63
218.871	14.41
219.25	21.66
219.629	21.22
220.008	17.35
220.387	17.08
220.766	20.52
221.144	18.67
221.523	18.29
221.902	17.58
222.28	6.11
222.659	2.28
223.037	8.75
223.416	16.31
223.794	4.83
224.173	5.38
224.551	9.46
224.929	-0.36
225.308	5.98
225.686	15.62
226.064	11.3
226.442	9.01
226.821	9.99
227.199	8.01
227.577	11.5
227.955	13.86
228.333	11.63
228.711	8.36
229.089	12.83
229.467	9.37
229.845	8.34
230.222	11.05
230.6	9.43
230.978	8.02
231.356	9.57
231.733	11.7
232.111	11.04
232.488	11.25
232.866	11.28
233.243	8.63
233.621	7.57
233.998	9.52
234.376	9.54
234.753	8.91
235.13	7.97
235.508	7.04
235.885	8.2
236.262	7.71
236.639	9.5
237.016	7.94
237.393	7.61
237.77	7.04
238.147	7.97
238.524	8.5
238.901	8.6
239.278	8.62
239.655	9.28
240.032	8.7
240.409	7.79
240.785	7.09
241.162	7.88
241.539	8.02
241.915	7.58
242.292	6.25
242.668	6.3
243.045	6.64
243.421	6.44
243.798	6.05
244.174	6.12
244.551	5.99
244.927	6.01
245.303	6.26
245.679	6.69
246.056	6.34
246.432	6.13
246.808	6.01
247.184	5.86
247.56	5.63
247.936	5.8
248.312	5.81
248.688	6
249.064	5.75
249.44	5.64
249.815	5.8
250.191	6.24
250.567	6.12
250.943	5.99
251.318	6.08
251.694	6.31
252.069	6.05
252.445	6.1
252.82	6.01
253.196	6.16
253.571	5.84
253.947	6.01
254.322	6.23
254.697	5.81
255.073	5.81
255.448	5.52
255.823	5.42
256.198	5.33
256.573	5.31
256.948	5.43
257.323	5.55
257.698	5.2
258.073	5.02
258.448	5.11
258.823	5.05
259.198	4.93
259.573	4.76
259.948	5.05
260.322	5.03
260.697	4.93
261.072	4.74
261.446	4.72
261.821	4.57
262.195	4.69
262.57	4.83
262.944	4.74
263.319	4.84
263.693	4.8
264.067	4.9
264.442	4.97
264.816	4.72
265.19	4.62
265.564	4.83
265.938	4.91
266.313	4.83
266.687	4.89
267.061	4.97
267.435	4.93
267.809	4.8
268.183	4.65
268.556	4.71
268.93	4.9
269.304	4.8
269.678	5
270.051	4.93
270.425	4.95
270.799	4.95
271.172	4.99
271.546	5.03
271.919	4.98
272.293	4.99
272.666	5.14
273.04	5.13
273.413	5.04
273.787	4.9
274.16	4.76
274.533	4.85
274.906	4.79
275.279	5.06
275.653	5.03
276.026	5.11
276.399	5.21
276.772	5.14
277.145	5.02
277.518	5.04
277.891	4.94
278.263	4.97
278.636	4.84
279.009	4.77
279.382	4.55
279.755	4.47
280.127	4.59
280.5	4.59
280.872	4.78
281.245	4.87
281.617	5.06
281.99	5.09
282.362	5
282.735	5
283.107	4.83
283.479	4.82
283.852	4.74
284.224	4.77
284.596	4.7
284.968	4.9
285.34	4.7
285.713	4.64
286.085	4.73
286.457	5.01
286.829	4.96
287.201	5.15
287.572	5.15
287.944	5.13
288.316	5.13
288.688	5
289.06	4.98
289.431	4.95
289.803	5.09
290.175	4.99
290.546	5.24
290.918	5.23
291.289	5.33
291.661	5.39
292.032	5.38
292.403	5.66
292.775	5.81
293.146	5.88
293.517	6.04
293.889	6.17
294.26	6.09
294.631	6.26
295.002	6.31
295.373	6.39
295.744	6.47
296.115	6.55
296.486	6.49
296.857	6.45
297.228	6.44
297.599	6.48
297.97	6.69
298.34	6.58
298.711	6.79
299.082	6.71
299.452	6.91
299.823	7.08
300.194	6.97
300.564	6.73
300.935	6.99
301.305	7.03
301.676	7.02
302.046	7.09
302.416	7.31
302.787	7.3
303.157	7.48
303.527	7.47
303.897	7.65
304.267	7.95
304.637	8.19
305.008	8.3
305.378	8.35
305.748	8.45
306.117	8.42
306.487	8.51
306.857	8.71
307.227	8.52
307.597	8.53
307.967	8.71
308.336	8.98
308.706	9.02
309.076	9.14
309.445	9.12
309.815	9.31
310.184	9.19
310.554	9.33
310.923	9.31
311.293	9.43
311.662	9.23
312.031	9.31
312.401	9.35
312.77	9.62
313.139	9.65
313.508	9.71
313.877	9.78
314.246	9.93
314.616	10.05
314.985	10.34
315.353	10.32
315.722	10.38
316.091	10.36
316.46	10.24
316.829	10.29
317.198	10.37
317.567	10.34
317.935	10.43
318.304	10.58
318.672	10.71
319.041	10.86
319.41	11.17
319.778	11.21
320.147	11.32
320.515	11.23
320.883	11.53
321.252	11.72
321.62	12.05
321.988	11.97
322.357	11.86
322.725	11.98
323.093	12.27
323.461	12.29
323.829	12.45
324.197	12.74
324.565	12.74
324.933	12.8
325.301	13.02
325.669	13.09
326.037	13.11
326.405	13.27
326.772	13.29
327.14	13.39
327.508	13.44
327.875	13.41
328.243	13.55
328.61	13.5
328.978	13.49
329.346	13.5
329.713	13.53
330.08	13.85
330.448	13.71
330.815	13.63
331.182	13.65
331.55	13.71
331.917	13.63
332.284	13.76
332.651	13.95
333.018	14.01
333.385	13.95
333.752	14.13
334.119	14.11
334.486	14.15
334.853	14.04
335.22	14
335.587	14.18
335.954	14.12
336.32	14.15
336.687	14.22
337.054	14.28
337.42	14.41
337.787	14.35
338.153	14.45
338.52	14.5
338.886	14.64
339.253	14.58
339.619	14.69
339.986	14.63
340.352	14.53
340.718	14.34
341.084	14.39
341.451	14.28
341.817	14.38
342.183	14.28
342.549	14.41
342.915	14.51
343.281	14.4
343.647	14.48
344.013	14.54
344.379	14.43
344.745	14.46
345.11	14.41
345.476	14.36
345.842	14.43
346.208	14.49
346.573	14.63
346.939	14.73
347.304	14.77
347.67	14.85
348.035	14.92
348.401	14.96
348.766	15.05
349.132	15.13
349.497	14.99
349.862	15.17
350.228	15.18
350.593	15.17
350.958	15.31
351.323	15.34
351.688	15.3
352.053	15.36
352.418	15.37
352.783	15.41
353.148	15.41
353.513	15.4
353.878	15.38
354.243	15.32
354.608	15.43
354.972	15.42
355.337	15.47
355.702	15.43
356.066	15.52
356.431	15.46
356.795	15.41
357.16	15.4
357.524	15.24
357.889	15.27
358.253	15.31
358.618	15.23
358.982	15.16
359.346	15.18
359.71	15.17
360.075	15.1
360.439	15.07
360.803	15.06
361.167	15.03
361.531	14.94
361.895	14.86
362.259	14.76
362.623	14.67
362.987	14.57
363.351	14.48
363.714	14.37
364.078	14.34
364.442	14.36
364.806	14.36
365.169	14.42
365.533	14.29
365.896	14.17
366.26	14.12
366.623	14.06
366.987	13.99
367.35	13.87
367.714	13.78
368.077	13.66
368.44	13.65
368.803	13.55
369.167	13.54
369.53	13.46
369.893	13.5
370.256	13.43
370.619	13.34
370.982	13.33
371.345	13.29
371.708	13.25
372.071	13.12
372.434	13.07
372.797	13.02
373.159	12.98
373.522	12.97
373.885	12.88
374.247	12.83
374.61	12.79
374.973	12.7
375.335	12.69
375.698	12.6
376.06	12.5
376.423	12.42
376.785	12.37
377.147	12.34
377.51	12.22
377.872	12.16
378.234	12.16
378.596	12.09
378.958	11.98
379.321	11.88
379.683	11.88
380.045	11.78
380.407	11.72
380.769	11.61
381.13	11.52
381.492	11.52
381.854	11.5
382.216	11.42
382.578	11.37
382.939	11.27
383.301	11.24
383.663	11.16
384.024	11.1
384.386	11
384.747	10.94
385.109	10.84
385.47	10.77
385.832	10.72
386.193	10.67
386.554	10.6
386.916	10.54
387.277	10.42
387.638	10.36
387.999	10.22
388.36	10.16
388.721	10.08
389.082	10
389.443	9.88
389.804	9.81
390.165	9.74
390.526	9.67
390.887	9.6
391.248	9.59
391.609	9.5
391.969	9.46
392.33	9.38
392.691	9.35
393.051	9.27
393.412	9.18
393.772	9.1
394.133	9.05
394.493	8.98
394.854	8.93
395.214	8.86
395.574	8.82
395.935	8.74
396.295	8.7
396.655	8.59
397.015	8.56
397.376	8.49
397.736	8.43
398.096	8.36
398.456	8.31
398.816	8.2
399.176	8.13
399.535	8.07
399.895	7.99
400.255	7.9
400.615	7.85
400.975	7.78
401.334	7.77
401.694	7.74
402.054	7.68
402.413	7.67
402.773	7.62
403.132	7.55
403.492	7.52
403.851	7.48
404.211	7.49
404.57	7.41
404.929	7.36
405.288	7.32
405.648	7.3
406.007	7.26
406.366	7.24
406.725	7.25
407.084	7.24
407.443	7.22
407.802	7.22
408.161	7.19
408.52	7.17
408.879	7.12
409.238	7.1
409.596	7.09
409.955	7.04
410.314	7.02
410.673	6.99
411.031	6.98
411.39	6.95
411.748	6.92
412.107	6.88
412.465	6.87
412.824	6.86
413.182	6.8
413.54	6.77
413.899	6.73
414.257	6.69
414.615	6.6
414.974	6.56
415.332	6.52
415.69	6.48
416.048	6.44
416.406	6.41
416.764	6.38
417.122	6.33
417.48	6.27
417.838	6.23
418.195	6.2
418.553	6.17
418.911	6.11
419.269	6.07
419.626	6.04
419.984	5.99
420.342	5.95
420.699	5.92
421.057	5.89
421.414	5.86
421.772	5.83
422.129	5.83
422.486	5.79
422.844	5.78
423.201	5.75
423.558	5.73
423.915	5.7
424.273	5.66
424.63	5.63
424.987	5.61
425.344	5.58
425.701	5.56
426.058	5.54
426.415	5.53
426.772	5.51
427.128	5.51
427.485	5.49
427.842	5.47
428.199	5.48
428.555	5.47
428.912	5.46
429.269	5.44
429.625	5.4
429.982	5.37
430.338	5.32
430.695	5.32
431.051	5.31
431.407	5.3
431.764	5.28
432.12	5.27
432.476	5.26
432.832	5.24
433.189	5.23
433.545	5.23
433.901	5.23
434.257	5.23
434.613	5.24
434.969	5.24
435.325	5.25
435.681	5.22
436.036	5.21
436.392	5.21
436.748	5.21
437.104	5.21
437.459	5.24
437.815	5.26
438.171	5.28
438.526	5.28
438.882	5.29
439.237	5.31
439.593	5.32
439.948	5.33
440.304	5.33
440.659	5.35
441.014	5.34
441.369	5.35
441.725	5.34
442.08	5.33
442.435	5.33
442.79	5.31
443.145	5.32
443.5	5.31
443.855	5.29
444.21	5.29
444.565	5.29
444.92	5.28
445.275	5.24
445.629	5.21
445.984	5.2
446.339	5.17
446.693	5.13
447.048	5.11
447.403	5.09
447.757	5.08
448.112	5.06
448.466	5.05
448.82	5.02
449.175	5.01
449.529	4.97
449.883	4.95
450.238	4.94
450.592	4.92
450.946	4.91
451.3	4.88
451.654	4.84
452.008	4.81
452.362	4.78
452.716	4.77
453.07	4.78
453.424	4.79
453.778	4.8
454.132	4.81
454.486	4.79
454.839	4.79
455.193	4.77
455.547	4.76
455.9	4.75
456.254	4.76
456.607	4.77
456.961	4.78
457.314	4.78
457.668	4.78
458.021	4.78
458.375	4.78
458.728	4.82
459.081	4.83
459.434	4.82
459.787	4.84
460.141	4.85
460.494	4.84
460.847	4.84
461.2	4.84
461.553	4.86
461.906	4.89
462.259	4.92
462.611	4.95
462.964	4.98
463.317	5
463.67	5
464.022	5.02
464.375	5.04
464.728	5.07
465.08	5.08
465.433	5.1
465.785	5.11
466.138	5.12
466.49	5.15
466.843	5.21
467.195	5.24
467.547	5.26
467.899	5.29
468.252	5.32
468.604	5.34
468.956	5.38
469.308	5.38
469.66	5.37
470.012	5.4
470.364	5.43
470.716	5.45
471.068	5.49
471.42	5.5
471.772	5.55
472.123	5.57
472.475	5.63
472.827	5.65
473.178	5.68
473.53	5.71
473.882	5.73
474.233	5.75
474.585	5.73
474.936	5.76
475.288	5.76
475.639	5.75
475.99	5.76
476.342	5.75
476.693	5.78
477.044	5.79
477.395	5.78
477.746	5.78
478.097	5.77
478.448	5.74
478.8	5.73
479.15	5.68
479.501	5.66
479.852	5.63
480.203	5.62
480.554	5.59
480.905	5.58
481.255	5.57
481.606	5.55
481.957	5.55
482.307	5.52
482.658	5.52
483.009	5.51
483.359	5.49
483.709	5.49
484.06	5.47
484.41	5.46
484.761	5.45
485.111	5.44
485.461	5.43
485.811	5.42
486.162	5.41
486.512	5.41
486.862	5.4
487.212	5.4
487.562	5.39
487.912	5.39
488.262	5.4
488.612	5.39
488.961	5.4
489.311	5.4
489.661	5.4
490.011	5.41
490.36	5.41
490.71	5.42
491.06	5.42
491.409	5.43
491.759	5.44
492.108	5.47
492.458	5.48
492.807	5.5
493.157	5.54
493.506	5.58
493.855	5.61
494.204	5.64
494.554	5.69
494.903	5.72
495.252	5.77
495.601	5.82
495.95	5.88
496.299	5.94
496.648	6
496.997	6.1
497.346	6.18
497.695	6.28
498.043	6.36
498.392	6.43
498.741	6.51
499.09	6.59
499.438	6.66
499.787	6.77
500.135	6.88
500.484	6.98
500.832	7.09
501.181	7.2
501.529	7.34
501.878	7.47
502.226	7.6
502.574	7.73
502.923	7.86
503.271	8.01
503.619	8.15
503.967	8.32
504.315	8.43
504.663	8.59
505.011	8.76
505.359	8.92
505.707	9.09
506.055	9.28
506.403	9.49
506.751	9.72
507.098	9.89
507.446	10.06
507.794	10.22
508.141	10.43
508.489	10.65
508.837	10.84
509.184	11.04
509.531	11.27
509.879	11.47
510.226	11.7
510.574	11.92
510.921	12.11
511.268	12.31
511.616	12.56
511.963	12.81
512.31	13.04
512.657	13.26
513.004	13.52
513.351	13.81
513.698	14.06
514.045	14.29
514.392	14.57
514.739	14.85
515.086	15.16
515.432	15.43
515.779	15.69
516.126	15.95
516.473	16.2
516.819	16.41
517.166	16.66
517.512	16.86
517.859	17.08
518.205	17.32
518.552	17.51
518.898	17.69
519.245	17.88
519.591	18.1
519.937	18.32
520.283	18.57
520.629	18.79
520.976	19.03
521.322	19.31
521.668	19.57
522.014	19.85
522.36	20.07
522.706	20.33
523.052	20.58
523.398	20.91
523.743	21.2
524.089	21.53
524.435	21.79
524.781	22.05
525.126	22.28
525.472	22.48
525.817	22.69
526.163	22.89
526.509	23.07
526.854	23.24
527.199	23.4
527.545	23.52
527.89	23.68
528.235	23.81
528.581	23.95
528.926	24.11
529.271	24.28
529.616	24.45
529.961	24.59
530.306	24.76
530.651	24.92
530.996	25.08
531.341	25.26
531.686	25.45
532.031	25.66
532.376	25.86
532.721	26.1
533.065	26.33
533.41	26.54
533.755	26.76
534.099	26.96
534.444	27.2
534.788	27.43
535.133	27.62
535.477	27.9
535.822	28.12
536.166	28.35
536.51	28.62
536.855	28.9
537.199	29.24
537.543	29.54
537.887	29.84
538.231	30.16
538.576	30.49
538.92	30.79
539.264	31.04
539.608	31.3
539.951	31.52
540.295	31.75
540.639	31.98
540.983	32.19
541.327	32.42
541.671	32.59
542.014	32.82
542.358	33.03
542.701	33.2
543.045	33.43
543.389	33.63
543.732	33.82
544.075	34.02
544.419	34.2
544.762	34.42
545.105	34.64
545.449	34.9
545.792	35.08
546.135	35.31
546.478	35.59
546.821	35.89
547.165	36.18
547.508	36.47
547.851	36.76
548.194	37.05
548.536	37.33
548.879	37.69
549.222	38
549.565	38.3
549.908	38.62
550.25	38.84
550.593	39.16
550.936	39.41
551.278	39.66
551.621	39.98
551.963	40.27
552.306	40.53
552.648	40.78
552.991	41.1
553.333	41.41
553.675	41.69
554.017	41.9
554.36	42.16
554.702	42.4
555.044	42.65
555.386	42.89
555.728	43.17
556.07	43.44
556.412	43.62
556.754	43.85
557.096	44.1
557.438	44.42
557.78	44.67
558.121	44.96
558.463	45.23
558.805	45.43
559.147	45.65
559.488	45.84
559.83	46.04
560.171	46.18
560.513	46.32
560.854	46.47
561.196	46.65
561.537	46.87
561.878	47.05
562.22	47.21
562.561	47.41
562.902	47.56
563.243	47.71
563.584	47.93
563.925	48.14
564.266	48.26
564.607	48.41
564.948	48.59
565.289	48.71
565.63	48.79
565.971	48.91
566.312	49.05
566.653	49.22
566.993	49.43
567.334	49.57
567.675	49.74
568.015	49.92
568.356	50.09
568.696	50.19
569.037	50.29
569.377	50.51
569.718	50.63
570.058	50.79
570.398	50.94
570.739	51.03
571.079	51.13
571.419	51.24
571.759	51.35
572.099	51.45
572.439	51.57
572.779	51.76
573.119	51.89
573.459	52.02
573.799	52.15
574.139	52.19
574.479	52.34
574.819	52.46
575.158	52.52
575.498	52.55
575.838	52.7
576.177	52.87
576.517	52.93
576.856	53.03
577.196	53.11
577.535	53.16
577.875	53.3
578.214	53.42
578.553	53.51
578.893	53.63
579.232	53.73
579.571	53.89
579.91	53.94
580.25	54.12
580.589	54.2
580.928	54.25
581.267	54.41
581.606	54.47
581.945	54.54
582.283	54.7
582.622	54.86
582.961	54.91
583.3	54.97
583.639	55
583.977	55.06
584.316	55.05
584.654	55.15
584.993	55.21
585.332	55.25
585.67	55.41
586.008	55.39
586.347	55.47
586.685	55.47
587.024	55.49
587.362	55.53
587.7	55.61
588.038	55.7
588.376	55.71
588.715	55.84
589.053	55.89
589.391	55.92
589.729	56
590.067	56.05
590.404	56.04
590.742	56.16
591.08	56.29
591.418	56.4
591.756	56.41
592.093	56.46
592.431	56.55
592.769	56.49
593.106	56.67
593.444	56.66
593.781	56.7
594.119	56.82
594.456	56.85
594.793	56.86
595.131	56.86
595.468	56.9
595.805	56.81
596.143	56.82
596.48	56.88
596.817	56.9
597.154	56.95
597.491	57.06
597.828	57.09
598.165	57.09
598.502	57.08
598.839	57.1
599.176	57.17
599.512	57.23
599.849	57.36
600.186	57.32
600.523	57.41
600.859	57.45
601.196	57.53
601.532	57.56
601.869	57.6
602.205	57.69
602.542	57.71
602.878	57.81
603.215	57.82
603.551	57.82
603.887	57.8
604.223	57.81
604.56	57.82
604.896	57.82
605.232	57.82
605.568	57.9
605.904	57.91
606.24	57.91
606.576	57.89
606.912	57.93
607.248	57.97
607.583	58.03
607.919	58.06
608.255	58.11
608.591	58.17
608.926	58.25
609.262	58.25
609.597	58.37
609.933	58.42
610.268	58.49
610.604	58.48
610.939	58.55
611.275	58.61
611.61	58.7
611.945	58.69
612.281	58.81
612.616	58.82
612.951	58.98
613.286	58.98
613.621	59.14
613.956	59.18
614.291	59.28
614.626	59.32
614.961	59.38
615.296	59.38
615.631	59.32
615.966	59.32
616.3	59.28
616.635	59.19
616.97	59.19
617.304	59.11
617.639	59.16
617.973	59.12
618.308	59.05
618.642	58.96
618.977	59.02
619.311	59.05
619.646	59.04
619.98	59.01
620.314	59.14
620.648	59.13
620.983	59.17
621.317	59.18
621.651	59.21
621.985	59.29
622.319	59.3
622.653	59.37
622.987	59.35
623.321	59.41
623.655	59.38
623.988	59.41
624.322	59.44
624.656	59.55
624.99	59.61
625.323	59.64
625.657	59.68
625.99	59.75
626.324	59.73
626.657	59.84
626.991	59.78
627.324	59.77
627.658	59.73
627.991	59.75
628.324	59.68
628.657	59.59
628.991	59.55
629.324	59.59
629.657	59.5
629.99	59.58
630.323	59.62
630.656	59.66
630.989	59.69
631.322	59.79
631.655	59.78
631.987	59.88
632.32	59.94
632.653	59.92
632.986	59.83
633.318	59.85
633.651	59.89
633.984	59.98
634.316	59.95
634.649	59.94
634.981	59.92
635.313	60
635.646	60.11
635.978	60.18
636.31	60.13
636.643	60.23
636.975	60.27
637.307	60.25
637.639	60.35
637.971	60.41
638.303	60.4
638.635	60.31
638.967	60.27
639.299	60.16
639.631	60.27
639.963	60.32
640.295	60.45
640.626	60.3
640.958	60.37
641.29	60.38
641.621	60.37
641.953	60.36
642.285	60.47
642.616	60.5
642.948	60.51
643.279	60.48
643.61	60.56
643.942	60.51
644.273	60.5
644.604	60.55
644.936	60.56
645.267	60.55
645.598	60.61
645.929	60.63
646.26	60.63
646.591	60.63
646.922	60.61
647.253	60.53
647.584	60.57
647.915	60.55
648.245	60.57
648.576	60.5
648.907	60.59
649.238	60.55
649.568	60.46
649.899	60.33
650.229	60.43
650.56	60.23
650.89	60.19
651.221	60.36
651.551	60.27
651.882	60.21
652.212	60.25
652.542	60.36
652.872	60.28
653.203	60.43
653.533	60.34
653.863	60.36
654.193	60.3
654.523	60.34
654.853	60.22
655.183	60.19
655.513	60.34
655.843	60.29
656.172	60.3
656.502	60.39
656.832	60.52
657.162	60.57
657.491	60.67
657.821	60.65
658.15	60.66
658.48	60.67
658.809	60.66
659.139	60.6
659.468	60.63
659.798	60.65
660.127	60.63
660.456	60.75
660.785	60.89
661.115	61
661.444	61.07
661.773	61.11
662.102	61.14
662.431	61.19
662.76	61.17
663.089	61.18
663.418	61.23
663.747	61.3
664.076	61.15
664.404	61.17
664.733	61.22
