Data from BU26847_Reflection_00012.txt Node
Date: Mon Nov 18 16:41:06 EST 2019
User: vgr7
Spectrometer: USB2G7710
Scans to average: 3
Trigger mode: 4
Integration Time (sec): 2.000000E-2
Electric dark correction enabled: true
Boxcar width: 10
XAxis mode: Wavelengths
Number of Pixels in Spectrum: 2048
>>>>>Begin Spectral Data<<<<<
177.721	-33.97
178.105	-216.38
178.488	-3978.43
178.871	81.98
179.254	301.55
179.636	5.25
180.019	-14.94
180.402	13.16
180.785	-322.76
181.168	-66.67
181.55	524.24
181.933	138.79
182.316	165.78
182.698	275.44
183.081	161.06
183.463	340.13
183.846	261.26
184.228	549.05
184.611	1784.85
184.993	27655.56
185.376	686.29
185.758	-29455.56
186.14	2720.16
186.522	2539.72
186.904	-918.32
187.287	-1730.85
187.669	-220.25
188.051	-356.01
188.433	-267.5
188.815	-227.64
189.197	-264.65
189.579	-194.99
189.961	-209.65
190.342	-202.94
190.724	-131.43
191.106	-116.38
191.488	-126.01
191.869	-117.31
192.251	-174.31
192.633	-197.85
193.014	-182.73
193.396	-161.39
193.777	-160.06
194.159	-154.93
194.54	-139.17
194.922	-145.9
195.303	-175.46
195.684	-231.71
196.065	-219.68
196.447	-239.89
196.828	-258.78
197.209	-258.78
197.59	-407.42
197.971	-557.92
198.352	-253.74
198.733	-272.03
199.114	-244.09
199.495	-233.96
199.876	-250.22
200.257	-182.49
200.638	-198.78
201.018	-241.44
201.399	-212.13
201.78	-198.85
202.16	-250.2
202.541	-377.08
202.922	-3546.26
203.302	-5302.3
203.683	1123.35
204.063	568.98
204.444	636.18
204.824	659.22
205.204	787.41
205.585	691.98
205.965	723.13
206.345	502.74
206.725	447.77
207.106	593.36
207.486	444.42
207.866	468.58
208.246	751.66
208.626	1453.78
209.006	685.31
209.386	705.13
209.766	1429.65
210.145	1513.48
210.525	2340.24
210.905	-1509.34
211.285	-1254.95
211.664	-517.93
212.044	-479.92
212.424	-391.54
212.803	-470.93
213.183	-313.88
213.562	-212.66
213.942	-136.36
214.321	-157.91
214.701	-161.5
215.08	-175.94
215.459	-105.41
215.838	-79.66
216.218	-107.75
216.597	-68.15
216.976	-55.27
217.355	-61.4
217.734	-33.84
218.113	-15.49
218.492	-7.63
218.871	-15.08
219.25	-17.72
219.629	-35.7
220.008	-26.23
220.387	-40.73
220.766	-53.03
221.144	-79.16
221.523	-105.45
221.902	-106.34
222.28	-97.25
222.659	-78.06
223.037	-78.92
223.416	-95.51
223.794	-101.26
224.173	-84.28
224.551	-85.21
224.929	-81.4
225.308	-58.87
225.686	-58.78
226.064	-46.04
226.442	-46.28
226.821	-41.4
227.199	-41.16
227.577	-38.82
227.955	-37.25
228.333	-36.01
228.711	-29.56
229.089	-22.6
229.467	-18.44
229.845	-18.94
230.222	-17.47
230.6	-17.67
230.978	-15.34
231.356	-12.65
231.733	-11.93
232.111	-11.12
232.488	-8.65
232.866	-9.15
233.243	-6.05
233.621	-4.58
233.998	-3.93
234.376	-4.44
234.753	-6.18
235.13	-4.3
235.508	-2.4
235.885	-0.63
236.262	0.32
236.639	1.21
237.016	0.53
237.393	0.99
237.77	2.09
238.147	2.22
238.524	2.23
238.901	2.44
239.278	2.5
239.655	2.48
240.032	2.5
240.409	1.56
240.785	2.24
241.162	1.42
241.539	2.14
241.915	2.33
242.292	2.59
242.668	3.13
243.045	2.93
243.421	2.81
243.798	2.45
244.174	2.63
244.551	2.3
244.927	2.61
245.303	2.68
245.679	2.64
246.056	2.5
246.432	2.72
246.808	2.72
247.184	2.48
247.56	2.58
247.936	2.77
248.312	2.93
248.688	3
249.064	3.19
249.44	2.99
249.815	2.77
250.191	3.13
250.567	3.07
250.943	3.05
251.318	3.33
251.694	3.19
252.069	2.99
252.445	2.95
252.82	2.63
253.196	2.31
253.571	2.33
253.947	2.48
254.322	2.45
254.697	2.36
255.073	2.48
255.448	2.55
255.823	2.62
256.198	2.72
256.573	2.61
256.948	2.82
257.323	2.67
257.698	2.68
258.073	2.39
258.448	2.4
258.823	2.48
259.198	2.46
259.573	2.71
259.948	2.8
260.322	2.93
260.697	2.83
261.072	2.82
261.446	2.95
261.821	2.89
262.195	2.93
262.57	2.88
262.944	3.01
263.319	2.9
263.693	2.7
264.067	2.48
264.442	2.45
264.816	2.44
265.19	2.49
265.564	2.52
265.938	2.55
266.313	2.48
266.687	2.55
267.061	2.25
267.435	2.13
267.809	2.04
268.183	2.01
268.556	2.09
268.93	2.38
269.304	2.28
269.678	2.49
270.051	2.39
270.425	2.45
270.799	2.33
271.172	2.28
271.546	2.27
271.919	2.44
272.293	2.44
272.666	2.39
273.04	2.47
273.413	2.52
273.787	2.47
274.16	2.55
274.533	2.44
274.906	2.74
275.279	2.91
275.653	3.02
276.026	3.09
276.399	3.15
276.772	3.04
277.145	2.87
277.518	2.69
277.891	2.88
278.263	2.96
278.636	2.95
279.009	3.18
279.382	3.27
279.755	3.21
280.127	3.22
280.5	3.07
280.872	3.02
281.245	2.93
281.617	3.22
281.99	3.24
282.362	3.22
282.735	3.11
283.107	2.96
283.479	3.01
283.852	3.01
284.224	3.02
284.596	3.06
284.968	3.14
285.34	3.33
285.713	3.14
286.085	3.19
286.457	3.27
286.829	3.28
287.201	3.36
287.572	3.35
287.944	3.33
288.316	3.33
288.688	3.32
289.06	3.36
289.431	3.18
289.803	3
290.175	3.05
290.546	3.04
290.918	3.15
291.289	3.18
291.661	3.22
292.032	3.35
292.403	3.33
292.775	3.42
293.146	3.36
293.517	3.45
293.889	3.43
294.26	3.48
294.631	3.57
295.002	3.5
295.373	3.57
295.744	3.61
296.115	3.79
296.486	3.75
296.857	3.77
297.228	3.9
297.599	4.07
297.97	4.22
298.34	4.42
298.711	4.45
299.082	4.32
299.452	4.31
299.823	4.26
300.194	4.38
300.564	4.29
300.935	4.33
301.305	4.33
301.676	4.35
302.046	4.36
302.416	4.33
302.787	4.42
303.157	4.56
303.527	4.63
303.897	4.39
304.267	4.6
304.637	4.7
305.008	4.77
305.378	4.76
305.748	4.82
306.117	4.7
306.487	4.6
306.857	4.8
307.227	4.88
307.597	4.92
307.967	4.92
308.336	5.15
308.706	5.13
309.076	5.22
309.445	5.22
309.815	5.24
310.184	5.03
310.554	5.12
310.923	4.97
311.293	5
311.662	5.26
312.031	5.2
312.401	5.31
312.77	5.31
313.139	5.51
313.508	5.45
313.877	5.43
314.246	5.63
314.616	5.58
314.985	5.58
315.353	5.57
315.722	5.69
316.091	5.51
316.46	5.48
316.829	5.61
317.198	5.63
317.567	5.59
317.935	5.93
318.304	5.8
318.672	5.85
319.041	5.87
319.41	5.72
319.778	5.88
320.147	5.87
320.515	5.85
320.883	5.59
321.252	5.65
321.62	5.68
321.988	5.78
322.357	6.05
322.725	5.99
323.093	6.19
323.461	6.18
323.829	6.38
324.197	6.58
324.565	6.5
324.933	6.56
325.301	6.58
325.669	6.55
326.037	6.67
326.405	6.85
326.772	6.98
327.14	7.15
327.508	7.06
327.875	6.94
328.243	7.11
328.61	7.25
328.978	7.32
329.346	7.55
329.713	7.48
330.08	7.42
330.448	7.35
330.815	7.06
331.182	6.95
331.55	6.99
331.917	7.1
332.284	7.24
332.651	7.25
333.018	7.39
333.385	7.46
333.752	7.47
334.119	7.38
334.486	7.33
334.853	7.3
335.22	7.44
335.587	7.62
335.954	7.55
336.32	7.58
336.687	7.64
337.054	7.6
337.42	7.6
337.787	7.6
338.153	7.87
338.52	8.01
338.886	8.03
339.253	7.92
339.619	7.89
339.986	7.91
340.352	8.07
340.718	8.09
341.084	8.03
341.451	8.12
341.817	8.26
342.183	8.37
342.549	8.41
342.915	8.39
343.281	8.37
343.647	8.37
344.013	8.47
344.379	8.37
344.745	8.38
345.11	8.41
345.476	8.52
345.842	8.49
346.208	8.6
346.573	8.73
346.939	8.85
347.304	8.81
347.67	8.71
348.035	8.6
348.401	8.61
348.766	8.72
349.132	8.76
349.497	8.72
349.862	8.65
350.228	8.67
350.593	8.61
350.958	8.57
351.323	8.58
351.688	8.57
352.053	8.59
352.418	8.62
352.783	8.69
353.148	8.54
353.513	8.47
353.878	8.57
354.243	8.62
354.608	8.63
354.972	8.66
355.337	8.76
355.702	8.87
356.066	8.88
356.431	8.82
356.795	8.76
357.16	8.69
357.524	8.71
357.889	8.66
358.253	8.71
358.618	8.71
358.982	8.64
359.346	8.6
359.71	8.58
360.075	8.59
360.439	8.48
360.803	8.53
361.167	8.6
361.531	8.52
361.895	8.45
362.259	8.37
362.623	8.29
362.987	8.3
363.351	8.24
363.714	8.21
364.078	8.11
364.442	8.09
364.806	8.18
365.169	8.13
365.533	8.15
365.896	8.09
366.26	8.12
366.623	8.18
366.987	8.15
367.35	8.14
367.714	8.1
368.077	8.07
368.44	8.04
368.803	7.96
369.167	7.87
369.53	7.82
369.893	7.9
370.256	7.92
370.619	7.83
370.982	7.76
371.345	7.68
371.708	7.77
372.071	7.65
372.434	7.5
372.797	7.48
373.159	7.36
373.522	7.38
373.885	7.36
374.247	7.24
374.61	7.21
374.973	7.16
375.335	7.05
375.698	7.1
376.06	7.02
376.423	6.95
376.785	6.99
377.147	6.97
377.51	6.82
377.872	6.84
378.234	6.73
378.596	6.68
378.958	6.6
379.321	6.58
379.683	6.6
380.045	6.58
380.407	6.54
380.769	6.54
381.13	6.49
381.492	6.41
381.854	6.45
382.216	6.39
382.578	6.36
382.939	6.3
383.301	6.28
383.663	6.2
384.024	6.23
384.386	6.26
384.747	6.23
385.109	6.23
385.47	6.13
385.832	6.16
386.193	6.18
386.554	6.21
386.916	6.12
387.277	6.1
387.638	6.09
387.999	6.05
388.36	5.99
388.721	5.91
389.082	5.89
389.443	5.79
389.804	5.77
390.165	5.73
390.526	5.74
390.887	5.72
391.248	5.75
391.609	5.67
391.969	5.59
392.33	5.59
392.691	5.54
393.051	5.54
393.412	5.5
393.772	5.47
394.133	5.44
394.493	5.38
394.854	5.34
395.214	5.31
395.574	5.31
395.935	5.3
396.295	5.35
396.655	5.29
397.015	5.31
397.376	5.25
397.736	5.21
398.096	5.15
398.456	5.1
398.816	5.08
399.176	5.02
399.535	4.96
399.895	4.86
400.255	4.9
400.615	4.85
400.975	4.86
401.334	4.8
401.694	4.77
402.054	4.79
402.413	4.77
402.773	4.7
403.132	4.65
403.492	4.66
403.851	4.6
404.211	4.58
404.57	4.55
404.929	4.57
405.288	4.54
405.648	4.52
406.007	4.49
406.366	4.46
406.725	4.5
407.084	4.5
407.443	4.5
407.802	4.48
408.161	4.47
408.52	4.43
408.879	4.41
409.238	4.39
409.596	4.39
409.955	4.39
410.314	4.42
410.673	4.4
411.031	4.39
411.39	4.38
411.748	4.39
412.107	4.4
412.465	4.37
412.824	4.38
413.182	4.38
413.54	4.38
413.899	4.37
414.257	4.36
414.615	4.37
414.974	4.36
415.332	4.35
415.69	4.35
416.048	4.32
416.406	4.33
416.764	4.33
417.122	4.33
417.48	4.29
417.838	4.28
418.195	4.27
418.553	4.26
418.911	4.24
419.269	4.23
419.626	4.22
419.984	4.22
420.342	4.2
420.699	4.2
421.057	4.19
421.414	4.17
421.772	4.16
422.129	4.13
422.486	4.13
422.844	4.11
423.201	4.08
423.558	4.09
423.915	4.08
424.273	4.06
424.63	4.04
424.987	4.04
425.344	4.02
425.701	4.02
426.058	3.99
426.415	3.99
426.772	3.97
427.128	3.95
427.485	3.92
427.842	3.92
428.199	3.92
428.555	3.91
428.912	3.91
429.269	3.9
429.625	3.88
429.982	3.86
430.338	3.86
430.695	3.87
431.051	3.85
431.407	3.84
431.764	3.85
432.12	3.86
432.476	3.86
432.832	3.85
433.189	3.86
433.545	3.87
433.901	3.86
434.257	3.87
434.613	3.89
434.969	3.91
435.325	3.91
435.681	3.92
436.036	3.92
436.392	3.93
436.748	3.93
437.104	3.93
437.459	3.93
437.815	3.95
438.171	3.92
438.526	3.94
438.882	3.93
439.237	3.91
439.593	3.9
439.948	3.91
440.304	3.91
440.659	3.91
441.014	3.92
441.369	3.93
441.725	3.93
442.08	3.93
442.435	3.91
442.79	3.9
443.145	3.9
443.5	3.89
443.855	3.88
444.21	3.87
444.565	3.87
444.92	3.89
445.275	3.86
445.629	3.87
445.984	3.87
446.339	3.87
446.693	3.86
447.048	3.85
447.403	3.84
447.757	3.83
448.112	3.82
448.466	3.82
448.82	3.79
449.175	3.79
449.529	3.78
449.883	3.77
450.238	3.77
450.592	3.75
450.946	3.75
451.3	3.75
451.654	3.74
452.008	3.75
452.362	3.73
452.716	3.74
453.07	3.75
453.424	3.74
453.778	3.75
454.132	3.74
454.486	3.74
454.839	3.73
455.193	3.72
455.547	3.73
455.9	3.74
456.254	3.77
456.607	3.77
456.961	3.77
457.314	3.77
457.668	3.77
458.021	3.76
458.375	3.76
458.728	3.77
459.081	3.78
459.434	3.78
459.787	3.78
460.141	3.76
460.494	3.75
460.847	3.76
461.2	3.77
461.553	3.78
461.906	3.79
462.259	3.79
462.611	3.82
462.964	3.81
463.317	3.8
463.67	3.8
464.022	3.81
464.375	3.79
464.728	3.78
465.08	3.8
465.433	3.81
465.785	3.8
466.138	3.78
466.49	3.79
466.843	3.78
467.195	3.8
467.547	3.82
467.899	3.83
468.252	3.81
468.604	3.83
468.956	3.84
469.308	3.86
469.66	3.89
470.012	3.88
470.364	3.91
470.716	3.93
471.068	3.91
471.42	3.91
471.772	3.95
472.123	3.98
472.475	3.98
472.827	3.98
473.178	4
473.53	4.04
473.882	4.04
474.233	4.07
474.585	4.05
474.936	4.07
475.288	4.09
475.639	4.12
475.99	4.1
476.342	4.1
476.693	4.09
477.044	4.09
477.395	4.09
477.746	4.09
478.097	4.07
478.448	4.08
478.8	4.07
479.15	4.07
479.501	4.08
479.852	4.06
480.203	4.07
480.554	4.06
480.905	4.06
481.255	4.06
481.606	4.07
481.957	4.07
482.307	4.07
482.658	4.06
483.009	4.06
483.359	4.07
483.709	4.08
484.06	4.09
484.41	4.09
484.761	4.09
485.111	4.08
485.461	4.09
485.811	4.09
486.162	4.1
486.512	4.1
486.862	4.1
487.212	4.11
487.562	4.11
487.912	4.12
488.262	4.13
488.612	4.14
488.961	4.13
489.311	4.14
489.661	4.14
490.011	4.15
490.36	4.14
490.71	4.13
491.06	4.13
491.409	4.14
491.759	4.14
492.108	4.14
492.458	4.15
492.807	4.15
493.157	4.16
493.506	4.17
493.855	4.17
494.204	4.18
494.554	4.21
494.903	4.2
495.252	4.21
495.601	4.23
495.95	4.26
496.299	4.25
496.648	4.26
496.997	4.28
497.346	4.3
497.695	4.34
498.043	4.37
498.392	4.39
498.741	4.42
499.09	4.44
499.438	4.47
499.787	4.49
500.135	4.53
500.484	4.55
500.832	4.59
501.181	4.63
501.529	4.66
501.878	4.69
502.226	4.75
502.574	4.78
502.923	4.79
503.271	4.81
503.619	4.87
503.967	4.93
504.315	5
504.663	5.07
505.011	5.12
505.359	5.16
505.707	5.23
506.055	5.3
506.403	5.36
506.751	5.43
507.098	5.49
507.446	5.55
507.794	5.62
508.141	5.7
508.489	5.78
508.837	5.85
509.184	5.88
509.531	5.96
509.879	6.06
510.226	6.16
510.574	6.25
510.921	6.32
511.268	6.39
511.616	6.45
511.963	6.51
512.31	6.6
512.657	6.73
513.004	6.81
513.351	6.9
513.698	6.99
514.045	7.09
514.392	7.2
514.739	7.3
515.086	7.42
515.432	7.52
515.779	7.62
516.126	7.75
516.473	7.88
516.819	7.97
517.166	8.05
517.512	8.13
517.859	8.22
518.205	8.29
518.552	8.4
518.898	8.49
519.245	8.56
519.591	8.64
519.937	8.68
520.283	8.77
520.629	8.89
520.976	8.99
521.322	9.09
521.668	9.21
522.014	9.32
522.36	9.4
522.706	9.53
523.052	9.67
523.398	9.79
523.743	9.93
524.089	10.1
524.435	10.23
524.781	10.36
525.126	10.49
525.472	10.62
525.817	10.72
526.163	10.82
526.509	10.94
526.854	11.04
527.199	11.13
527.545	11.21
527.89	11.3
528.235	11.39
528.581	11.49
528.926	11.57
529.271	11.66
529.616	11.75
529.961	11.83
530.306	11.91
530.651	12
530.996	12.1
531.341	12.19
531.686	12.28
532.031	12.4
532.376	12.5
532.721	12.62
533.065	12.73
533.41	12.86
533.755	12.96
534.099	13.09
534.444	13.23
534.788	13.36
535.133	13.47
535.477	13.58
535.822	13.72
536.166	13.86
536.51	13.99
536.855	14.17
537.199	14.35
537.543	14.52
537.887	14.68
538.231	14.86
538.576	15.05
538.92	15.23
539.264	15.38
539.608	15.53
539.951	15.68
540.295	15.84
540.639	15.99
540.983	16.15
541.327	16.28
541.671	16.44
542.014	16.59
542.358	16.73
542.701	16.86
543.045	17.01
543.389	17.17
543.732	17.3
544.075	17.48
544.419	17.63
544.762	17.84
545.105	18.04
545.449	18.22
545.792	18.41
546.135	18.61
546.478	18.86
546.821	19.11
547.165	19.36
547.508	19.61
547.851	19.86
548.194	20.08
548.536	20.34
548.879	20.59
549.222	20.85
549.565	21.1
549.908	21.4
550.25	21.65
550.593	21.9
550.936	22.19
551.278	22.43
551.621	22.73
551.963	22.98
552.306	23.24
552.648	23.52
552.991	23.84
553.333	24.12
553.675	24.35
554.017	24.59
554.36	24.83
554.702	25.14
555.044	25.39
555.386	25.71
555.728	25.98
556.07	26.3
556.412	26.56
556.754	26.85
557.096	27.18
557.438	27.52
557.78	27.9
558.121	28.24
558.463	28.58
558.805	28.89
559.147	29.19
559.488	29.48
559.83	29.79
560.171	30.05
560.513	30.33
560.854	30.68
561.196	31.01
561.537	31.35
561.878	31.62
562.22	31.91
562.561	32.18
562.902	32.54
563.243	32.82
563.584	33.13
563.925	33.47
564.266	33.73
564.607	33.98
564.948	34.2
565.289	34.43
565.63	34.69
565.971	34.95
566.312	35.24
566.653	35.52
566.993	35.79
567.334	36.06
567.675	36.36
568.015	36.61
568.356	36.9
568.696	37.18
569.037	37.38
569.377	37.74
569.718	37.98
570.058	38.18
570.398	38.41
570.739	38.66
571.079	38.89
571.419	39.08
571.759	39.38
572.099	39.62
572.439	39.83
572.779	40.07
573.119	40.33
573.459	40.57
573.799	40.81
574.139	41.01
574.479	41.18
574.819	41.36
575.158	41.63
575.498	41.8
575.838	42.01
576.177	42.27
576.517	42.44
576.856	42.68
577.196	42.93
577.535	43.18
577.875	43.46
578.214	43.74
578.553	44.05
578.893	44.19
579.232	44.38
579.571	44.74
579.91	45.01
580.25	45.21
580.589	45.37
580.928	45.55
581.267	45.78
581.606	46.14
581.945	46.43
582.283	46.58
582.622	46.82
582.961	46.96
583.3	47.12
583.639	47.31
583.977	47.62
584.316	47.76
584.654	47.98
584.993	48.06
585.332	48.19
585.67	48.35
586.008	48.58
586.347	48.82
586.685	48.96
587.024	49.06
587.362	49.23
587.7	49.44
588.038	49.6
588.376	49.74
588.715	49.83
589.053	50.06
589.391	50.17
589.729	50.34
590.067	50.53
590.404	50.73
590.742	50.85
591.08	50.96
591.418	51.16
591.756	51.3
592.093	51.44
592.431	51.62
592.769	51.77
593.106	51.96
593.444	52.09
593.781	52.21
594.119	52.33
594.456	52.48
594.793	52.6
595.131	52.74
595.468	52.9
595.805	52.99
596.143	53.07
596.48	53.2
596.817	53.31
597.154	53.41
597.491	53.51
597.828	53.61
598.165	53.69
598.502	53.73
598.839	53.79
599.176	53.94
599.512	54
599.849	54.08
600.186	54.15
600.523	54.3
600.859	54.46
601.196	54.67
601.532	54.7
601.869	54.74
602.205	54.89
602.542	55.01
602.878	55.06
603.215	55.07
603.551	55.12
603.887	55.19
604.223	55.28
604.56	55.39
604.896	55.45
605.232	55.58
605.568	55.71
605.904	55.83
606.24	55.92
606.576	55.93
606.912	56.04
607.248	56.13
607.583	56.12
607.919	56.14
608.255	56.18
608.591	56.27
608.926	56.44
609.262	56.48
609.597	56.51
609.933	56.63
610.268	56.62
610.604	56.68
610.939	56.76
611.275	56.81
611.61	56.82
611.945	56.93
612.281	56.92
612.616	56.98
612.951	57.07
613.286	57.09
613.621	57.22
613.956	57.31
614.291	57.35
614.626	57.43
614.961	57.51
615.296	57.54
615.631	57.72
615.966	57.76
616.3	57.78
616.635	57.82
616.97	57.94
617.304	58.15
617.639	58.24
617.973	58.26
618.308	58.34
618.642	58.42
618.977	58.36
619.311	58.37
619.646	58.33
619.98	58.32
620.314	58.53
620.648	58.63
620.983	58.67
621.317	58.72
621.651	58.8
621.985	58.85
622.319	58.85
622.653	58.79
622.987	58.78
623.321	58.83
623.655	58.79
623.988	58.75
624.322	58.79
624.656	58.82
624.99	58.84
625.323	58.88
625.657	58.9
625.99	59
626.324	59.07
626.657	59.17
626.991	59.19
627.324	58.99
627.658	59
627.991	59.02
628.324	59.02
628.657	59.09
628.991	59.08
629.324	59.16
629.657	59.32
629.99	59.3
630.323	59.3
630.656	59.38
630.989	59.45
631.322	59.47
631.655	59.59
631.987	59.65
632.32	59.67
632.653	59.7
632.986	59.74
633.318	59.8
633.651	59.83
633.984	59.9
634.316	60.09
634.649	60.13
634.981	60.1
635.313	60.1
635.646	60.22
635.978	60.24
636.31	60.26
636.643	60.2
636.975	60.3
637.307	60.43
637.639	60.55
637.971	60.61
638.303	60.56
638.635	60.54
638.967	60.59
639.299	60.63
639.631	60.65
639.963	60.71
640.295	60.73
640.626	60.77
640.958	60.81
641.29	60.82
641.621	60.8
641.953	60.9
642.285	60.99
642.616	60.95
642.948	61.08
643.279	61.13
643.61	61.23
643.942	61.31
644.273	61.27
644.604	61.29
644.936	61.26
645.267	61.33
645.598	61.43
645.929	61.49
646.26	61.54
646.591	61.59
646.922	61.48
647.253	61.43
647.584	61.42
647.915	61.39
648.245	61.37
648.576	61.52
648.907	61.51
649.238	61.6
649.568	61.47
649.899	61.32
650.229	61.25
650.56	61.26
650.89	61.26
651.221	61.25
651.551	61.19
651.882	61.28
652.212	61.3
652.542	61.26
652.872	61.28
653.203	61.28
653.533	61.32
653.863	61.49
654.193	61.64
654.523	61.6
654.853	61.6
655.183	61.72
655.513	61.61
655.843	61.82
656.172	61.81
656.502	62.01
656.832	62.05
657.162	62.19
657.491	62.19
657.821	62.26
658.15	62.32
658.48	62.33
658.809	62.27
659.139	62.22
659.468	62.22
659.798	62.15
660.127	62.23
660.456	62.32
660.785	62.3
661.115	62.31
661.444	62.42
661.773	62.64
662.102	62.55
662.431	62.69
662.76	62.62
663.089	62.65
663.418	62.68
663.747	62.91
664.076	62.89
664.404	62.97
664.733	63.06
