Data from BU26941_Reflection_00001.txt Node
Date: Tue Nov 19 11:03:18 EST 2019
User: vgr7
Spectrometer: USB2G7710
Scans to average: 3
Trigger mode: 4
Integration Time (sec): 2.000000E-2
Electric dark correction enabled: true
Boxcar width: 10
XAxis mode: Wavelengths
Number of Pixels in Spectrum: 2048
>>>>>Begin Spectral Data<<<<<
177.721	52.56
178.105	-6.6
178.488	-16.12
178.871	59.46
179.254	45.9
179.636	104.82
180.019	9.92
180.402	260
180.785	-7.55
181.168	13225
181.55	-334.01
181.933	-1653.52
182.316	810.53
182.698	1054.55
183.081	3464.86
183.463	-753.29
183.846	-1173.11
184.228	2824.49
184.611	-427.87
184.993	-477.61
185.376	-914.45
185.758	-397.54
186.14	-534.18
186.522	-304.84
186.904	-258.65
187.287	-272.28
187.669	-325.22
188.051	-427.5
188.433	-689.69
188.815	-444.75
189.197	-352.13
189.579	-539.95
189.961	-618.13
190.342	-444.54
190.724	-538.38
191.106	-559.03
191.488	-505.4
191.869	-334.97
192.251	-301.26
192.633	-373.47
193.014	-380.17
193.396	-363.17
193.777	-220.3
194.159	-161.02
194.54	-175.9
194.922	-352.15
195.303	-410.81
195.684	-212.29
196.065	-217.03
196.447	-47.95
196.828	-29.74
197.209	48.51
197.59	39.5
197.971	46.12
198.352	30.12
198.733	36.66
199.114	37.05
199.495	15.15
199.876	-7.01
200.257	-37.31
200.638	-60.65
201.018	-37.63
201.399	-41.66
201.78	-42.49
202.16	-53.71
202.541	-67.3
202.922	-85.3
203.302	-80.71
203.683	-97.87
204.063	-130.65
204.444	-160.5
204.824	-195.28
205.204	-166.62
205.585	-225.6
205.965	-442.55
206.345	-629.57
206.725	-315.66
207.106	-266.46
207.486	-309.57
207.866	-364.37
208.246	-280.16
208.626	-296.41
209.006	-345.14
209.386	-275.76
209.766	-604.08
210.145	-404.84
210.525	-531.34
210.905	-380.12
211.285	-475.72
211.664	-432.84
212.044	-245.21
212.424	-283.05
212.803	-397.35
213.183	-430.77
213.562	-549.25
213.942	-429.18
214.321	-422.66
214.701	-1049.64
215.08	-1737.08
215.459	-425.72
215.838	-441.83
216.218	-631.53
216.597	-1298.88
216.976	855.64
217.355	103600
217.734	-409.57
218.113	-449.5
218.492	-1253.66
218.871	-138.78
219.25	-72.47
219.629	-163.92
220.008	-169
220.387	-122.94
220.766	-50.48
221.144	-22.16
221.523	-57.17
221.902	-39.51
222.28	-14.92
222.659	8.57
223.037	30.51
223.416	33.84
223.794	20.05
224.173	17.36
224.551	2.9
224.929	1.98
225.308	5.16
225.686	-2.54
226.064	-7.46
226.442	-5.59
226.821	-1.48
227.199	-0.64
227.577	4.68
227.955	2.11
228.333	2.39
228.711	0.62
229.089	3.52
229.467	7.03
229.845	4
230.222	3.6
230.6	2.66
230.978	-1.43
231.356	-2.64
231.733	-2.91
232.111	-3.98
232.488	-5.03
232.866	-6.04
233.243	-5.53
233.621	-2.24
233.998	0.78
234.376	1.74
234.753	1.37
235.13	0.92
235.508	-0.03
235.885	-1.62
236.262	-1.4
236.639	-0.53
237.016	-1.86
237.393	-0.16
237.77	0.75
238.147	-0.45
238.524	-0.28
238.901	0.28
239.278	0.55
239.655	1.23
240.032	1.97
240.409	2.68
240.785	2.83
241.162	2.81
241.539	2.43
241.915	1.97
242.292	2.38
242.668	3.02
243.045	3
243.421	3.27
243.798	3.88
244.174	4.04
244.551	4.05
244.927	4.22
245.303	4.12
245.679	4.22
246.056	4.11
246.432	3.95
246.808	4.04
247.184	4.05
247.56	4.03
247.936	3.86
248.312	3.89
248.688	3.78
249.064	3.73
249.44	3.53
249.815	3.6
250.191	3.46
250.567	3.11
250.943	3.27
251.318	3.09
251.694	2.94
252.069	2.91
252.445	2.77
252.82	2.89
253.196	2.38
253.571	2.39
253.947	2.59
254.322	2.59
254.697	2.55
255.073	2.51
255.448	2.31
255.823	2.48
256.198	2.56
256.573	2.85
256.948	2.95
257.323	2.95
257.698	2.95
258.073	3
258.448	3.14
258.823	3.02
259.198	3.02
259.573	3.05
259.948	3.05
260.322	2.97
260.697	2.89
261.072	3.02
261.446	2.89
261.821	2.72
262.195	2.69
262.57	2.81
262.944	2.73
263.319	2.85
263.693	2.64
264.067	2.67
264.442	2.54
264.816	2.44
265.19	2.43
265.564	2.33
265.938	2.31
266.313	2.13
266.687	1.94
267.061	1.94
267.435	1.83
267.809	1.78
268.183	1.84
268.556	1.81
268.93	1.94
269.304	1.96
269.678	2.32
270.051	2.5
270.425	2.53
270.799	2.55
271.172	2.56
271.546	2.83
271.919	2.78
272.293	2.75
272.666	2.78
273.04	2.9
273.413	2.87
273.787	2.6
274.16	2.55
274.533	2.69
274.906	2.87
275.279	2.93
275.653	2.87
276.026	2.93
276.399	2.95
276.772	2.95
277.145	3.03
277.518	2.71
277.891	2.63
278.263	2.51
278.636	2.73
279.009	2.82
279.382	2.6
279.755	2.68
280.127	2.75
280.5	2.76
280.872	2.67
281.245	2.71
281.617	2.95
281.99	2.94
282.362	2.89
282.735	2.79
283.107	2.8
283.479	2.77
283.852	2.67
284.224	2.7
284.596	2.68
284.968	2.72
285.34	2.77
285.713	2.83
286.085	2.79
286.457	2.69
286.829	2.55
287.201	2.61
287.572	2.52
287.944	2.51
288.316	2.57
288.688	2.64
289.06	2.61
289.431	2.68
289.803	2.73
290.175	2.76
290.546	2.75
290.918	2.74
291.289	2.74
291.661	2.88
292.032	2.82
292.403	2.82
292.775	2.79
293.146	2.92
293.517	2.86
293.889	2.91
294.26	2.99
294.631	3.09
295.002	3.2
295.373	3.18
295.744	3.25
296.115	3.22
296.486	3.19
296.857	3.26
297.228	3.08
297.599	3.16
297.97	3.32
298.34	3.37
298.711	3.36
299.082	3.36
299.452	3.25
299.823	3.27
300.194	3.27
300.564	3.12
300.935	3.08
301.305	3
301.676	2.93
302.046	2.85
302.416	2.8
302.787	2.66
303.157	2.64
303.527	2.68
303.897	2.59
304.267	2.68
304.637	2.54
305.008	2.67
305.378	2.6
305.748	2.44
306.117	2.43
306.487	2.54
306.857	2.62
307.227	2.76
307.597	2.76
307.967	2.66
308.336	2.8
308.706	2.76
309.076	2.92
309.445	2.98
309.815	3
310.184	2.96
310.554	2.97
310.923	2.95
311.293	3.01
311.662	3.04
312.031	2.92
312.401	2.92
312.77	2.92
313.139	2.96
313.508	2.91
313.877	2.95
314.246	2.89
314.616	2.99
314.985	2.86
315.353	2.87
315.722	3.04
316.091	3.05
316.46	3.06
316.829	2.92
317.198	2.92
317.567	3.12
317.935	3.15
318.304	3.06
318.672	3.29
319.041	3.18
319.41	3.16
319.778	3.19
320.147	3.32
320.515	3.29
320.883	3.21
321.252	3.31
321.62	3.15
321.988	3.2
322.357	2.98
322.725	3.08
323.093	3.1
323.461	3.01
323.829	2.97
324.197	3.05
324.565	3.06
324.933	2.87
325.301	2.67
325.669	2.7
326.037	2.81
326.405	2.73
326.772	2.68
327.14	2.58
327.508	2.59
327.875	2.44
328.243	2.34
328.61	2.23
328.978	2.22
329.346	2.22
329.713	2.2
330.08	2.46
330.448	2.44
330.815	2.4
331.182	2.42
331.55	2.45
331.917	2.31
332.284	2.45
332.651	2.64
333.018	2.59
333.385	2.67
333.752	2.59
334.119	2.59
334.486	2.69
334.853	2.86
335.22	2.81
335.587	2.87
335.954	2.95
336.32	3.05
336.687	3.05
337.054	3.08
337.42	3.06
337.787	2.91
338.153	2.93
338.52	3.03
338.886	3
339.253	2.99
339.619	3.09
339.986	3.01
340.352	2.91
340.718	2.99
341.084	2.98
341.451	3.04
341.817	2.96
342.183	2.91
342.549	2.9
342.915	2.9
343.281	2.94
343.647	2.88
344.013	2.86
344.379	2.88
344.745	2.97
345.11	2.84
345.476	2.89
345.842	2.8
346.208	2.74
346.573	2.77
346.939	2.75
347.304	2.81
347.67	2.77
348.035	2.87
348.401	2.81
348.766	2.72
349.132	2.74
349.497	2.79
349.862	2.81
350.228	2.72
350.593	2.78
350.958	2.83
351.323	2.84
351.688	2.93
352.053	2.91
352.418	2.88
352.783	3.01
353.148	2.99
353.513	3.03
353.878	2.94
354.243	2.91
354.608	2.95
354.972	2.87
355.337	2.97
355.702	2.85
356.066	2.95
356.431	2.99
356.795	2.94
357.16	2.96
357.524	2.88
357.889	2.94
358.253	2.91
358.618	2.88
358.982	2.93
359.346	2.85
359.71	2.83
360.075	2.89
360.439	2.88
360.803	2.87
361.167	2.85
361.531	2.96
361.895	3.07
362.259	3.09
362.623	3.11
362.987	3.04
363.351	3.15
363.714	3.12
364.078	3.16
364.442	3.2
364.806	3.2
365.169	3.2
365.533	3.17
365.896	3.23
366.26	3.25
366.623	3.25
366.987	3.28
367.35	3.29
367.714	3.21
368.077	3.2
368.44	3.29
368.803	3.3
369.167	3.23
369.53	3.12
369.893	3.06
370.256	3.03
370.619	3.06
370.982	2.95
371.345	2.94
371.708	2.92
372.071	2.91
372.434	2.93
372.797	2.98
373.159	3
373.522	2.94
373.885	2.99
374.247	2.98
374.61	2.98
374.973	3.02
375.335	3.07
375.698	3.02
376.06	2.99
376.423	2.98
376.785	3.01
377.147	3.01
377.51	3.04
377.872	2.99
378.234	3.02
378.596	3.07
378.958	3.09
379.321	3.02
379.683	3.03
380.045	2.98
380.407	3
380.769	2.97
381.13	3.02
381.492	2.99
381.854	3
382.216	3.01
382.578	2.97
382.939	2.92
383.301	2.96
383.663	2.94
384.024	2.99
384.386	3
384.747	2.98
385.109	2.99
385.47	3.07
385.832	3.03
386.193	3.04
386.554	3.01
386.916	3.02
387.277	2.99
387.638	2.98
387.999	2.98
388.36	2.99
388.721	2.97
389.082	2.93
389.443	2.93
389.804	2.96
390.165	2.99
390.526	3
390.887	3
391.248	3.04
391.609	3.04
391.969	3.01
392.33	3.03
392.691	3.03
393.051	3.04
393.412	3.05
393.772	3.05
394.133	3.08
394.493	3.11
394.854	3.12
395.214	3.16
395.574	3.17
395.935	3.15
396.295	3.18
396.655	3.18
397.015	3.21
397.376	3.2
397.736	3.18
398.096	3.19
398.456	3.17
398.816	3.13
399.176	3.08
399.535	3.1
399.895	3.07
400.255	3.09
400.615	3.06
400.975	3.09
401.334	3.07
401.694	3.08
402.054	3.05
402.413	3.1
402.773	3.09
403.132	3.08
403.492	3.11
403.851	3.09
404.211	3.11
404.57	3.07
404.929	3.06
405.288	3.08
405.648	3.1
406.007	3.14
406.366	3.13
406.725	3.12
407.084	3.13
407.443	3.17
407.802	3.18
408.161	3.18
408.52	3.15
408.879	3.16
409.238	3.14
409.596	3.14
409.955	3.1
410.314	3.07
410.673	3.06
411.031	3.05
411.39	3.05
411.748	3.05
412.107	3.05
412.465	3.07
412.824	3.06
413.182	3.06
413.54	3.03
413.899	3.03
414.257	3.06
414.615	3.06
414.974	3.05
415.332	3.03
415.69	3.03
416.048	3.06
416.406	3.07
416.764	3.07
417.122	3.08
417.48	3.1
417.838	3.13
418.195	3.14
418.553	3.15
418.911	3.15
419.269	3.16
419.626	3.16
419.984	3.15
420.342	3.15
420.699	3.13
421.057	3.14
421.414	3.14
421.772	3.15
422.129	3.14
422.486	3.15
422.844	3.16
423.201	3.16
423.558	3.14
423.915	3.16
424.273	3.17
424.63	3.18
424.987	3.18
425.344	3.16
425.701	3.15
426.058	3.15
426.415	3.14
426.772	3.13
427.128	3.13
427.485	3.14
427.842	3.14
428.199	3.15
428.555	3.15
428.912	3.15
429.269	3.13
429.625	3.13
429.982	3.12
430.338	3.11
430.695	3.11
431.051	3.14
431.407	3.12
431.764	3.1
432.12	3.12
432.476	3.13
432.832	3.16
433.189	3.15
433.545	3.15
433.901	3.15
434.257	3.15
434.613	3.14
434.969	3.14
435.325	3.16
435.681	3.15
436.036	3.15
436.392	3.15
436.748	3.17
437.104	3.2
437.459	3.21
437.815	3.21
438.171	3.22
438.526	3.22
438.882	3.22
439.237	3.22
439.593	3.2
439.948	3.2
440.304	3.19
440.659	3.19
441.014	3.19
441.369	3.18
441.725	3.19
442.08	3.2
442.435	3.21
442.79	3.19
443.145	3.21
443.5	3.21
443.855	3.2
444.21	3.19
444.565	3.19
444.92	3.19
445.275	3.18
445.629	3.17
445.984	3.16
446.339	3.17
446.693	3.19
447.048	3.19
447.403	3.17
447.757	3.17
448.112	3.19
448.466	3.19
448.82	3.2
449.175	3.2
449.529	3.2
449.883	3.19
450.238	3.19
450.592	3.18
450.946	3.17
451.3	3.19
451.654	3.21
452.008	3.19
452.362	3.18
452.716	3.19
453.07	3.18
453.424	3.17
453.778	3.16
454.132	3.15
454.486	3.15
454.839	3.15
455.193	3.15
455.547	3.15
455.9	3.15
456.254	3.14
456.607	3.12
456.961	3.12
457.314	3.12
457.668	3.12
458.021	3.13
458.375	3.14
458.728	3.13
459.081	3.14
459.434	3.14
459.787	3.13
460.141	3.14
460.494	3.16
460.847	3.17
461.2	3.18
461.553	3.18
461.906	3.19
462.259	3.2
462.611	3.21
462.964	3.21
463.317	3.21
463.67	3.23
464.022	3.24
464.375	3.26
464.728	3.28
465.08	3.28
465.433	3.28
465.785	3.3
466.138	3.3
466.49	3.31
466.843	3.32
467.195	3.33
467.547	3.32
467.899	3.32
468.252	3.33
468.604	3.32
468.956	3.33
469.308	3.33
469.66	3.34
470.012	3.33
470.364	3.32
470.716	3.33
471.068	3.32
471.42	3.34
471.772	3.34
472.123	3.32
472.475	3.31
472.827	3.32
473.178	3.3
473.53	3.31
473.882	3.27
474.233	3.24
474.585	3.23
474.936	3.25
475.288	3.25
475.639	3.26
475.99	3.26
476.342	3.25
476.693	3.27
477.044	3.26
477.395	3.27
477.746	3.25
478.097	3.25
478.448	3.25
478.8	3.24
479.15	3.26
479.501	3.29
479.852	3.31
480.203	3.31
480.554	3.32
480.905	3.32
481.255	3.33
481.606	3.33
481.957	3.35
482.307	3.35
482.658	3.36
483.009	3.35
483.359	3.36
483.709	3.37
484.06	3.36
484.41	3.36
484.761	3.37
485.111	3.39
485.461	3.39
485.811	3.4
486.162	3.4
486.512	3.4
486.862	3.39
487.212	3.39
487.562	3.39
487.912	3.39
488.262	3.39
488.612	3.4
488.961	3.41
489.311	3.42
489.661	3.41
490.011	3.4
490.36	3.4
490.71	3.4
491.06	3.4
491.409	3.39
491.759	3.39
492.108	3.39
492.458	3.39
492.807	3.39
493.157	3.39
493.506	3.39
493.855	3.38
494.204	3.37
494.554	3.37
494.903	3.38
495.252	3.39
495.601	3.39
495.95	3.4
496.299	3.4
496.648	3.41
496.997	3.41
497.346	3.42
497.695	3.42
498.043	3.43
498.392	3.43
498.741	3.44
499.09	3.45
499.438	3.45
499.787	3.44
500.135	3.43
500.484	3.42
500.832	3.42
501.181	3.45
501.529	3.45
501.878	3.46
502.226	3.46
502.574	3.46
502.923	3.46
503.271	3.46
503.619	3.47
503.967	3.44
504.315	3.47
504.663	3.46
505.011	3.47
505.359	3.46
505.707	3.47
506.055	3.48
506.403	3.49
506.751	3.49
507.098	3.51
507.446	3.53
507.794	3.54
508.141	3.56
508.489	3.56
508.837	3.57
509.184	3.58
509.531	3.56
509.879	3.57
510.226	3.56
510.574	3.57
510.921	3.58
511.268	3.6
511.616	3.61
511.963	3.62
512.31	3.62
512.657	3.63
513.004	3.64
513.351	3.64
513.698	3.63
514.045	3.64
514.392	3.62
514.739	3.63
515.086	3.65
515.432	3.65
515.779	3.64
516.126	3.67
516.473	3.67
516.819	3.69
517.166	3.68
517.512	3.67
517.859	3.68
518.205	3.68
518.552	3.66
518.898	3.66
519.245	3.66
519.591	3.68
519.937	3.68
520.283	3.66
520.629	3.68
520.976	3.68
521.322	3.68
521.668	3.69
522.014	3.7
522.36	3.67
522.706	3.66
523.052	3.68
523.398	3.68
523.743	3.69
524.089	3.71
524.435	3.72
524.781	3.74
525.126	3.74
525.472	3.75
525.817	3.75
526.163	3.75
526.509	3.75
526.854	3.75
527.199	3.75
527.545	3.77
527.89	3.77
528.235	3.78
528.581	3.78
528.926	3.78
529.271	3.77
529.616	3.79
529.961	3.79
530.306	3.79
530.651	3.78
530.996	3.79
531.341	3.78
531.686	3.79
532.031	3.78
532.376	3.78
532.721	3.77
533.065	3.78
533.41	3.78
533.755	3.78
534.099	3.77
534.444	3.78
534.788	3.77
535.133	3.77
535.477	3.77
535.822	3.76
536.166	3.76
536.51	3.78
536.855	3.79
537.199	3.78
537.543	3.79
537.887	3.79
538.231	3.78
538.576	3.77
538.92	3.77
539.264	3.79
539.608	3.79
539.951	3.8
540.295	3.81
540.639	3.81
540.983	3.81
541.327	3.83
541.671	3.83
542.014	3.83
542.358	3.84
542.701	3.84
543.045	3.84
543.389	3.85
543.732	3.83
544.075	3.83
544.419	3.85
544.762	3.85
545.105	3.86
545.449	3.86
545.792	3.87
546.135	3.88
546.478	3.87
546.821	3.88
547.165	3.88
547.508	3.88
547.851	3.88
548.194	3.87
548.536	3.84
548.879	3.85
549.222	3.82
549.565	3.82
549.908	3.83
550.25	3.84
550.593	3.83
550.936	3.85
551.278	3.83
551.621	3.83
551.963	3.86
552.306	3.87
552.648	3.86
552.991	3.87
553.333	3.85
553.675	3.88
554.017	3.88
554.36	3.89
554.702	3.87
555.044	3.89
555.386	3.92
555.728	3.94
556.07	3.92
556.412	3.95
556.754	3.94
557.096	3.96
557.438	3.94
557.78	3.94
558.121	3.93
558.463	3.93
558.805	3.92
559.147	3.89
559.488	3.86
559.83	3.85
560.171	3.84
560.513	3.85
560.854	3.84
561.196	3.84
561.537	3.82
561.878	3.85
562.22	3.84
562.561	3.83
562.902	3.86
563.243	3.86
563.584	3.88
563.925	3.91
564.266	3.89
564.607	3.91
564.948	3.93
565.289	3.95
565.63	3.95
565.971	3.96
566.312	3.96
566.653	3.98
566.993	4.01
567.334	4.05
567.675	4.05
568.015	4.04
568.356	4.03
568.696	4.05
569.037	4.05
569.377	4.06
569.718	4.06
570.058	4.05
570.398	4.05
570.739	4.01
571.079	3.99
571.419	4
571.759	4.01
572.099	3.97
572.439	3.95
572.779	3.95
573.119	3.95
573.459	3.96
573.799	3.95
574.139	3.94
574.479	3.92
574.819	3.94
575.158	3.95
575.498	3.96
575.838	3.94
576.177	3.93
576.517	3.91
576.856	3.91
577.196	3.91
577.535	3.93
577.875	3.95
578.214	3.95
578.553	3.96
578.893	3.96
579.232	4
579.571	4.01
579.91	4.03
580.25	4.03
580.589	4.03
580.928	4.04
581.267	4.03
581.606	4
581.945	3.99
582.283	3.99
582.622	3.94
582.961	3.98
583.3	3.99
583.639	4.01
583.977	3.99
584.316	3.99
584.654	3.98
584.993	3.99
585.332	4
585.67	3.99
586.008	3.99
586.347	4.02
586.685	4
587.024	4.01
587.362	4
587.7	4.01
588.038	4.01
588.376	3.99
588.715	4.01
589.053	4.02
589.391	4.03
589.729	4.07
590.067	4.06
590.404	4.08
590.742	4.07
591.08	4.1
591.418	4.1
591.756	4.1
592.093	4.08
592.431	4.08
592.769	4.04
593.106	4.02
593.444	4
593.781	4.03
594.119	4.04
594.456	4.07
594.793	4.08
595.131	4.08
595.468	4.1
595.805	4.12
596.143	4.12
596.48	4.13
596.817	4.12
597.154	4.09
597.491	4.04
597.828	4.07
598.165	4.03
598.502	4.02
598.839	4.01
599.176	4.05
599.512	4.03
599.849	4.07
600.186	4.08
600.523	4.08
600.859	4.08
601.196	4.07
601.532	4.05
601.869	4.01
602.205	4.03
602.542	4.02
602.878	4.03
603.215	4.03
603.551	4
603.887	4.02
604.223	4.03
604.56	4.06
604.896	4.07
605.232	4.12
605.568	4.14
605.904	4.13
606.24	4.13
606.576	4.16
606.912	4.15
607.248	4.17
607.583	4.17
607.919	4.15
608.255	4.14
608.591	4.19
608.926	4.19
609.262	4.17
609.597	4.18
609.933	4.16
610.268	4.17
610.604	4.17
610.939	4.17
611.275	4.17
611.61	4.18
611.945	4.13
612.281	4.06
612.616	4.03
612.951	4.05
613.286	4.03
613.621	4
613.956	4.05
614.291	4.04
614.626	4.02
614.961	4
615.296	4.04
615.631	4.03
615.966	4.03
616.3	4.06
616.635	4.04
616.97	4
617.304	4.03
617.639	4.05
617.973	4.03
618.308	4.07
618.642	4.07
618.977	4.1
619.311	4.17
619.646	4.23
619.98	4.26
620.314	4.25
620.648	4.29
620.983	4.26
621.317	4.28
621.651	4.3
621.985	4.33
622.319	4.31
622.653	4.31
622.987	4.33
623.321	4.33
623.655	4.32
623.988	4.41
624.322	4.41
624.656	4.4
624.99	4.44
625.323	4.43
625.657	4.45
625.99	4.43
626.324	4.38
626.657	4.33
626.991	4.33
627.324	4.34
627.658	4.3
627.991	4.31
628.324	4.26
628.657	4.31
628.991	4.32
629.324	4.3
629.657	4.25
629.99	4.26
630.323	4.24
630.656	4.25
630.989	4.16
631.322	4.17
631.655	4.17
631.987	4.16
632.32	4.18
632.653	4.19
632.986	4.24
633.318	4.29
633.651	4.32
633.984	4.27
634.316	4.29
634.649	4.36
634.981	4.36
635.313	4.42
635.646	4.37
635.978	4.37
636.31	4.39
636.643	4.44
636.975	4.42
637.307	4.47
637.639	4.49
637.971	4.54
638.303	4.48
638.635	4.48
638.967	4.46
639.299	4.41
639.631	4.32
639.963	4.25
640.295	4.2
640.626	4.18
640.958	4.21
641.29	4.21
641.621	4.17
641.953	4.17
642.285	4.13
642.616	4.19
642.948	4.19
643.279	4.18
643.61	4.15
643.942	4.22
644.273	4.19
644.604	4.18
644.936	4.17
645.267	4.23
645.598	4.25
645.929	4.23
646.26	4.25
646.591	4.28
646.922	4.34
647.253	4.37
647.584	4.47
647.915	4.47
648.245	4.46
648.576	4.45
648.907	4.47
649.238	4.4
649.568	4.38
649.899	4.37
650.229	4.36
650.56	4.31
650.89	4.31
651.221	4.37
651.551	4.38
651.882	4.37
652.212	4.31
652.542	4.31
652.872	4.31
653.203	4.41
653.533	4.47
653.863	4.47
654.193	4.46
654.523	4.31
654.853	4.3
655.183	4.27
655.513	4.29
655.843	4.29
656.172	4.39
656.502	4.3
656.832	4.26
657.162	4.27
657.491	4.34
657.821	4.3
658.15	4.27
658.48	4.34
658.809	4.35
659.139	4.4
659.468	4.36
659.798	4.4
660.127	4.31
660.456	4.23
660.785	4.23
661.115	4.26
661.444	4.38
661.773	4.44
662.102	4.47
662.431	4.45
662.76	4.44
663.089	4.47
663.418	4.54
663.747	4.62
664.076	4.64
664.404	4.62
664.733	4.63
665.062	4.62
665.39	4.6
665.719	4.65
666.048	4.64
666.376	4.69
666.705	4.65
667.033	4.7
667.362	4.74
667.69	4.75
668.018	4.67
668.347	4.61
668.675	4.57
669.003	4.51
669.331	4.51
669.659	4.47
669.987	4.43
670.315	4.48
670.643	4.42
670.971	4.42
671.299	4.38
671.627	4.39
671.955	4.34
672.283	4.29
672.61	4.22
672.938	4.25
673.266	4.24
673.593	4.3
673.921	4.3
674.249	4.32
674.576	4.33
674.904	4.41
675.231	4.37
675.558	4.42
675.886	4.49
676.213	4.53
