Data from BU26845_Reflection_00010.txt Node
Date: Mon Nov 18 16:28:09 EST 2019
User: vgr7
Spectrometer: USB2G7710
Scans to average: 3
Trigger mode: 4
Integration Time (sec): 2.000000E-2
Electric dark correction enabled: true
Boxcar width: 10
XAxis mode: Wavelengths
Number of Pixels in Spectrum: 2048
>>>>>Begin Spectral Data<<<<<
177.721	81.11
178.105	78.33
178.488	73.64
178.871	191.08
179.254	117.82
179.636	-68.14
180.019	47.42
180.402	172
180.785	113.99
181.168	350
181.55	428.36
181.933	65.45
182.316	92.09
182.698	102.02
183.081	63.13
183.463	2.19
183.846	67.33
184.228	2.11
184.611	-57.68
184.993	-527.25
185.376	-369.53
185.758	235.59
186.14	162.3
186.522	115.73
186.904	67.65
187.287	68.16
187.669	73.05
188.051	63.74
188.433	66.97
188.815	71.22
189.197	68.07
189.579	59.22
189.961	53.62
190.342	53.94
190.724	52.09
191.106	42.23
191.488	41.76
191.869	44.1
192.251	41.48
192.633	36.48
193.014	38.36
193.396	34.13
193.777	36.21
194.159	41.74
194.54	50.5
194.922	61.56
195.303	63.49
195.684	47.6
196.065	59.29
196.447	55.04
196.828	54.94
197.209	59.65
197.59	69.2
197.971	76.86
198.352	78.07
198.733	77.55
199.114	75.74
199.495	72.34
199.876	80.76
200.257	84.39
200.638	84.57
201.018	74.25
201.399	88.7
201.78	91.31
202.16	105.74
202.541	115
202.922	106
203.302	119.09
203.683	142.91
204.063	134.77
204.444	129.22
204.824	117.33
205.204	136.3
205.585	143.67
205.965	172.53
206.345	136.06
206.725	132.47
207.106	124.21
207.486	107.89
207.866	107.21
208.246	109.59
208.626	88.51
209.006	74.15
209.386	51.98
209.766	39.41
210.145	31.91
210.525	21.4
210.905	26.09
211.285	16
211.664	10.24
212.044	18.3
212.424	23.06
212.803	25.6
213.183	12.26
213.562	9.05
213.942	3.4
214.321	10.95
214.701	4.41
215.08	14.57
215.459	13.03
215.838	15.27
216.218	17
216.597	20.16
216.976	34.08
217.355	47.71
217.734	54.45
218.113	49.28
218.492	61.98
218.871	63.86
219.25	60.82
219.629	63.28
220.008	64.88
220.387	63.28
220.766	67.13
221.144	68.79
221.523	75.74
221.902	77.9
222.28	74.53
222.659	79.77
223.037	96.07
223.416	113.47
223.794	102.09
224.173	92.85
224.551	86.22
224.929	73.7
225.308	61.44
225.686	46.97
226.064	42.75
226.442	35.72
226.821	31.91
227.199	30.55
227.577	25.82
227.955	24.08
228.333	23.07
228.711	28.53
229.089	30.21
229.467	26.78
229.845	23.78
230.222	23.79
230.6	18.79
230.978	15.5
231.356	17.96
231.733	16.6
232.111	16.15
232.488	15.35
232.866	16.4
233.243	16.36
233.621	16.44
233.998	17.48
234.376	14.83
234.753	13.77
235.13	11.76
235.508	11.77
235.885	11.71
236.262	9.57
236.639	5.73
237.016	5.63
237.393	6.99
237.77	6.69
238.147	6.59
238.524	7.23
238.901	7.33
239.278	6.12
239.655	6.99
240.032	6.47
240.409	5.59
240.785	4.39
241.162	4.01
241.539	4.33
241.915	3.9
242.292	3.6
242.668	3.89
243.045	3.97
243.421	3.93
243.798	3.69
244.174	3.8
244.551	3.64
244.927	3.29
245.303	3.3
245.679	3.59
246.056	3.52
246.432	3.6
246.808	3.62
247.184	3.25
247.56	2.87
247.936	2.74
248.312	2.99
248.688	3.28
249.064	3.36
249.44	3.18
249.815	3.21
250.191	3.57
250.567	3.4
250.943	3.24
251.318	3.19
251.694	3.09
252.069	3.08
252.445	3.45
252.82	3.64
253.196	3.52
253.571	3.19
253.947	3.32
254.322	3.38
254.697	3.15
255.073	3.09
255.448	3.31
255.823	3.52
256.198	3.4
256.573	3.32
256.948	3.34
257.323	3.52
257.698	3.34
258.073	3.26
258.448	3.35
258.823	3.43
259.198	3.37
259.573	3.51
259.948	3.57
260.322	3.74
260.697	3.63
261.072	3.53
261.446	3.65
261.821	3.48
262.195	3.51
262.57	3.4
262.944	3.47
263.319	3.41
263.693	3.27
264.067	3.34
264.442	3.41
264.816	3.36
265.19	3.36
265.564	3.46
265.938	3.32
266.313	3.21
266.687	3.36
267.061	3.38
267.435	3.42
267.809	3.35
268.183	3.2
268.556	3.15
268.93	3.36
269.304	3.35
269.678	3.48
270.051	3.23
270.425	3.29
270.799	3.41
271.172	3.46
271.546	3.34
271.919	3.24
272.293	3.08
272.666	3.32
273.04	3.34
273.413	3.37
273.787	3.59
274.16	3.69
274.533	3.64
274.906	3.53
275.279	3.46
275.653	3.49
276.026	3.44
276.399	3.42
276.772	3.5
277.145	3.46
277.518	3.24
277.891	3.47
278.263	3.49
278.636	3.4
279.009	3.35
279.382	3.57
279.755	3.55
280.127	3.63
280.5	3.39
280.872	3.28
281.245	3.26
281.617	3.29
281.99	3.3
282.362	3.33
282.735	3.22
283.107	3.24
283.479	3.34
283.852	3.25
284.224	3.22
284.596	3.04
284.968	3
285.34	3.13
285.713	2.98
286.085	3.03
286.457	3.1
286.829	3
287.201	2.85
287.572	2.82
287.944	2.84
288.316	2.86
288.688	2.88
289.06	2.78
289.431	2.69
289.803	2.73
290.175	2.78
290.546	3.02
290.918	2.99
291.289	3.02
291.661	3.15
292.032	3.35
292.403	3.46
292.775	3.51
293.146	3.43
293.517	3.39
293.889	3.41
294.26	3.44
294.631	3.51
295.002	3.61
295.373	3.66
295.744	3.69
296.115	3.74
296.486	3.75
296.857	3.89
297.228	4.01
297.599	4
297.97	3.93
298.34	3.92
298.711	4.06
299.082	3.92
299.452	3.96
299.823	3.93
300.194	3.84
300.564	3.9
300.935	4.08
301.305	4.27
301.676	4.28
302.046	4.36
302.416	4.53
302.787	4.52
303.157	4.55
303.527	4.49
303.897	4.55
304.267	4.77
304.637	4.91
305.008	4.91
305.378	5.07
305.748	5.13
306.117	5.09
306.487	5.04
306.857	5.06
307.227	5.05
307.597	5.06
307.967	5.12
308.336	5.06
308.706	5.05
309.076	5.07
309.445	5.05
309.815	5.06
310.184	5.09
310.554	5.24
310.923	5.29
311.293	5.42
311.662	5.42
312.031	5.39
312.401	5.28
312.77	5.32
313.139	5.3
313.508	5.35
313.877	5.4
314.246	5.55
314.616	5.59
314.985	5.74
315.353	5.74
315.722	5.88
316.091	5.93
316.46	5.91
316.829	5.91
317.198	6.16
317.567	6.23
317.935	6.19
318.304	6.28
318.672	6.4
319.041	6.52
319.41	6.5
319.778	6.48
320.147	6.56
320.515	6.51
320.883	6.49
321.252	6.53
321.62	6.64
321.988	6.54
322.357	6.7
322.725	6.59
323.093	6.61
323.461	6.61
323.829	6.67
324.197	6.71
324.565	6.86
324.933	6.77
325.301	6.78
325.669	6.86
326.037	6.83
326.405	6.81
326.772	6.92
327.14	7.09
327.508	7.15
327.875	7.04
328.243	7.19
328.61	7.29
328.978	7.42
329.346	7.38
329.713	7.42
330.08	7.46
330.448	7.38
330.815	7.39
331.182	7.48
331.55	7.67
331.917	7.89
332.284	7.9
332.651	7.86
333.018	7.9
333.385	7.85
333.752	7.95
334.119	7.99
334.486	7.91
334.853	7.89
335.22	7.9
335.587	8.07
335.954	8.07
336.32	8.07
336.687	8.13
337.054	8.21
337.42	8.31
337.787	8.43
338.153	8.59
338.52	8.65
338.886	8.58
339.253	8.51
339.619	8.51
339.986	8.58
340.352	8.72
340.718	8.74
341.084	8.74
341.451	8.79
341.817	8.84
342.183	8.77
342.549	8.76
342.915	8.88
343.281	8.94
343.647	8.89
344.013	8.93
344.379	8.94
344.745	8.92
345.11	8.91
345.476	8.88
345.842	8.96
346.208	9.05
346.573	9.16
346.939	9.26
347.304	9.25
347.67	9.09
348.035	9.14
348.401	9.1
348.766	9.21
349.132	9.13
349.497	9.09
349.862	9.32
350.228	9.35
350.593	9.28
350.958	9.32
351.323	9.38
351.688	9.33
352.053	9.24
352.418	9.33
352.783	9.33
353.148	9.26
353.513	9.16
353.878	9.19
354.243	9.1
354.608	9
354.972	8.96
355.337	9.13
355.702	9.09
356.066	9.09
356.431	9.07
356.795	9.2
357.16	9.14
357.524	9.04
357.889	9
358.253	9
358.618	8.89
358.982	8.78
359.346	8.7
359.71	8.66
360.075	8.64
360.439	8.63
360.803	8.64
361.167	8.65
361.531	8.52
361.895	8.54
362.259	8.49
362.623	8.52
362.987	8.4
363.351	8.3
363.714	8.27
364.078	8.22
364.442	8.05
364.806	8.03
365.169	7.95
365.533	7.95
365.896	7.86
366.26	7.88
366.623	7.92
366.987	7.89
367.35	7.85
367.714	7.82
368.077	7.69
368.44	7.66
368.803	7.58
369.167	7.52
369.53	7.46
369.893	7.45
370.256	7.39
370.619	7.39
370.982	7.36
371.345	7.28
371.708	7.21
372.071	7.12
372.434	7.07
372.797	7.1
373.159	7.05
373.522	7
373.885	6.97
374.247	6.88
374.61	6.78
374.973	6.73
375.335	6.66
375.698	6.68
376.06	6.57
376.423	6.58
376.785	6.58
377.147	6.52
377.51	6.5
377.872	6.44
378.234	6.32
378.596	6.3
378.958	6.27
379.321	6.24
379.683	6.23
380.045	6.24
380.407	6.15
380.769	6.04
381.13	6.01
381.492	5.95
381.854	5.91
382.216	5.93
382.578	5.94
382.939	5.87
383.301	5.76
383.663	5.71
384.024	5.62
384.386	5.62
384.747	5.59
385.109	5.51
385.47	5.41
385.832	5.41
386.193	5.37
386.554	5.3
386.916	5.25
387.277	5.21
387.638	5.13
387.999	5.06
388.36	5.05
388.721	5.01
389.082	4.96
389.443	4.87
389.804	4.77
390.165	4.71
390.526	4.65
390.887	4.65
391.248	4.64
391.609	4.61
391.969	4.53
392.33	4.48
392.691	4.46
393.051	4.45
393.412	4.39
393.772	4.37
394.133	4.37
394.493	4.35
394.854	4.3
395.214	4.28
395.574	4.28
395.935	4.24
396.295	4.21
396.655	4.17
397.015	4.16
397.376	4.19
397.736	4.11
398.096	4.09
398.456	4.05
398.816	4.02
399.176	3.95
399.535	3.9
399.895	3.87
400.255	3.86
400.615	3.87
400.975	3.87
401.334	3.82
401.694	3.79
402.054	3.78
402.413	3.77
402.773	3.72
403.132	3.69
403.492	3.66
403.851	3.63
404.211	3.61
404.57	3.6
404.929	3.57
405.288	3.59
405.648	3.6
406.007	3.58
406.366	3.54
406.725	3.57
407.084	3.6
407.443	3.58
407.802	3.56
408.161	3.51
408.52	3.47
408.879	3.44
409.238	3.46
409.596	3.43
409.955	3.4
410.314	3.39
410.673	3.35
411.031	3.36
411.39	3.36
411.748	3.34
412.107	3.36
412.465	3.34
412.824	3.32
413.182	3.29
413.54	3.29
413.899	3.29
414.257	3.23
414.615	3.22
414.974	3.19
415.332	3.14
415.69	3.13
416.048	3.11
416.406	3.11
416.764	3.06
417.122	3.03
417.48	3.03
417.838	3.02
418.195	3.01
418.553	2.97
418.911	2.95
419.269	2.94
419.626	2.93
419.984	2.9
420.342	2.89
420.699	2.86
421.057	2.84
421.414	2.81
421.772	2.8
422.129	2.8
422.486	2.78
422.844	2.78
423.201	2.78
423.558	2.79
423.915	2.78
424.273	2.78
424.63	2.78
424.987	2.78
425.344	2.77
425.701	2.77
426.058	2.78
426.415	2.77
426.772	2.76
427.128	2.75
427.485	2.76
427.842	2.76
428.199	2.76
428.555	2.77
428.912	2.79
429.269	2.8
429.625	2.78
429.982	2.77
430.338	2.78
430.695	2.77
431.051	2.73
431.407	2.72
431.764	2.71
432.12	2.68
432.476	2.66
432.832	2.65
433.189	2.64
433.545	2.63
433.901	2.64
434.257	2.61
434.613	2.63
434.969	2.63
435.325	2.62
435.681	2.62
436.036	2.62
436.392	2.61
436.748	2.59
437.104	2.58
437.459	2.6
437.815	2.61
438.171	2.61
438.526	2.62
438.882	2.62
439.237	2.61
439.593	2.64
439.948	2.65
440.304	2.66
440.659	2.67
441.014	2.66
441.369	2.64
441.725	2.65
442.08	2.62
442.435	2.62
442.79	2.62
443.145	2.62
443.5	2.61
443.855	2.61
444.21	2.6
444.565	2.61
444.92	2.6
445.275	2.59
445.629	2.58
445.984	2.59
446.339	2.56
446.693	2.57
447.048	2.53
447.403	2.52
447.757	2.52
448.112	2.49
448.466	2.49
448.82	2.51
449.175	2.5
449.529	2.49
449.883	2.48
450.238	2.47
450.592	2.46
450.946	2.45
451.3	2.45
451.654	2.44
452.008	2.41
452.362	2.4
452.716	2.41
453.07	2.4
453.424	2.38
453.778	2.37
454.132	2.36
454.486	2.39
454.839	2.37
455.193	2.37
455.547	2.39
455.9	2.4
456.254	2.39
456.607	2.38
456.961	2.38
457.314	2.39
457.668	2.4
458.021	2.4
458.375	2.43
458.728	2.44
459.081	2.44
459.434	2.45
459.787	2.46
460.141	2.46
460.494	2.47
460.847	2.48
461.2	2.5
461.553	2.52
461.906	2.54
462.259	2.54
462.611	2.55
462.964	2.56
463.317	2.56
463.67	2.58
464.022	2.6
464.375	2.61
464.728	2.63
465.08	2.63
465.433	2.65
465.785	2.66
466.138	2.66
466.49	2.68
466.843	2.7
467.195	2.71
467.547	2.73
467.899	2.72
468.252	2.74
468.604	2.76
468.956	2.77
469.308	2.77
469.66	2.79
470.012	2.84
470.364	2.85
470.716	2.86
471.068	2.88
471.42	2.89
471.772	2.92
472.123	2.92
472.475	2.94
472.827	2.95
473.178	2.95
473.53	2.95
473.882	2.95
474.233	2.95
474.585	2.95
474.936	2.93
475.288	2.95
475.639	2.95
475.99	2.94
476.342	2.93
476.693	2.94
477.044	2.94
477.395	2.89
477.746	2.87
478.097	2.85
478.448	2.8
478.8	2.78
479.15	2.75
479.501	2.73
479.852	2.71
480.203	2.7
480.554	2.69
480.905	2.69
481.255	2.69
481.606	2.68
481.957	2.69
482.307	2.68
482.658	2.67
483.009	2.67
483.359	2.67
483.709	2.68
484.06	2.66
484.41	2.66
484.761	2.66
485.111	2.67
485.461	2.68
485.811	2.68
486.162	2.68
486.512	2.69
486.862	2.7
487.212	2.71
487.562	2.71
487.912	2.72
488.262	2.72
488.612	2.73
488.961	2.74
489.311	2.75
489.661	2.76
490.011	2.77
490.36	2.77
490.71	2.8
491.06	2.81
491.409	2.82
491.759	2.83
492.108	2.86
492.458	2.89
492.807	2.9
493.157	2.93
493.506	2.96
493.855	2.98
494.204	3
494.554	3.03
494.903	3.06
495.252	3.09
495.601	3.13
495.95	3.17
496.299	3.2
496.648	3.24
496.997	3.28
497.346	3.32
497.695	3.38
498.043	3.42
498.392	3.49
498.741	3.57
499.09	3.63
499.438	3.68
499.787	3.72
500.135	3.81
500.484	3.89
500.832	3.98
501.181	4.04
501.529	4.13
501.878	4.24
502.226	4.37
502.574	4.46
502.923	4.57
503.271	4.69
503.619	4.82
503.967	4.95
504.315	5.09
504.663	5.25
505.011	5.39
505.359	5.53
505.707	5.67
506.055	5.83
506.403	6.01
506.751	6.19
507.098	6.38
507.446	6.56
507.794	6.77
508.141	6.98
508.489	7.22
508.837	7.45
509.184	7.67
509.531	7.88
509.879	8.13
510.226	8.38
510.574	8.61
510.921	8.86
511.268	9.1
511.616	9.35
511.963	9.61
512.31	9.9
512.657	10.19
513.004	10.5
513.351	10.84
513.698	11.17
514.045	11.53
514.392	11.9
514.739	12.23
515.086	12.57
515.432	12.9
515.779	13.21
516.126	13.56
516.473	13.89
516.819	14.22
517.166	14.56
517.512	14.85
517.859	15.17
518.205	15.5
518.552	15.81
518.898	16.11
519.245	16.42
519.591	16.69
519.937	17
520.283	17.31
520.629	17.6
520.976	17.94
521.322	18.28
521.668	18.63
522.014	19.03
522.36	19.41
522.706	19.8
523.052	20.23
523.398	20.67
523.743	21.13
524.089	21.54
524.435	21.94
524.781	22.33
525.126	22.67
525.472	22.97
525.817	23.27
526.163	23.55
526.509	23.83
526.854	24.09
527.199	24.31
527.545	24.53
527.89	24.75
528.235	24.95
528.581	25.16
528.926	25.36
529.271	25.56
529.616	25.76
529.961	25.99
530.306	26.21
530.651	26.42
530.996	26.64
531.341	26.85
531.686	27.09
532.031	27.33
532.376	27.58
532.721	27.83
533.065	28.08
533.41	28.34
533.755	28.56
534.099	28.78
534.444	29.05
534.788	29.3
535.133	29.56
535.477	29.81
535.822	30.08
536.166	30.38
536.51	30.67
536.855	31
537.199	31.27
537.543	31.53
537.887	31.83
538.231	32.13
538.576	32.49
538.92	32.73
539.264	33.03
539.608	33.28
539.951	33.53
540.295	33.79
540.639	33.99
540.983	34.22
541.327	34.45
541.671	34.63
542.014	34.82
542.358	35.02
542.701	35.2
543.045	35.38
543.389	35.53
543.732	35.72
544.075	35.9
544.419	36.09
544.762	36.29
545.105	36.51
545.449	36.68
545.792	36.84
546.135	37.08
546.478	37.26
546.821	37.48
547.165	37.7
547.508	37.9
547.851	38.17
548.194	38.39
548.536	38.64
548.879	38.86
549.222	39.05
549.565	39.26
549.908	39.52
550.25	39.78
550.593	40.04
550.936	40.25
551.278	40.41
551.621	40.63
551.963	40.87
552.306	41.07
552.648	41.34
552.991	41.54
553.333	41.78
553.675	42.03
554.017	42.17
554.36	42.31
554.702	42.44
555.044	42.56
555.386	42.73
555.728	42.86
556.07	43.1
556.412	43.28
556.754	43.43
557.096	43.57
557.438	43.67
557.78	43.78
558.121	43.98
558.463	44.18
558.805	44.29
559.147	44.44
559.488	44.56
559.83	44.68
560.171	44.81
560.513	44.99
560.854	45.05
561.196	45.23
561.537	45.37
561.878	45.52
562.22	45.7
562.561	45.83
562.902	45.97
563.243	46.07
563.584	46.2
563.925	46.28
564.266	46.42
564.607	46.51
564.948	46.63
565.289	46.76
565.63	46.87
565.971	46.93
566.312	47.05
566.653	47.17
566.993	47.22
567.334	47.32
567.675	47.36
568.015	47.51
568.356	47.61
568.696	47.72
569.037	47.83
569.377	47.92
569.718	48.01
570.058	48.1
570.398	48.2
570.739	48.32
571.079	48.44
571.419	48.53
571.759	48.63
572.099	48.79
572.439	48.89
572.779	48.95
573.119	49.11
573.459	49.17
573.799	49.26
574.139	49.38
574.479	49.47
574.819	49.52
575.158	49.58
575.498	49.66
575.838	49.77
576.177	49.86
576.517	49.94
576.856	49.99
577.196	50.07
577.535	50.12
577.875	50.24
578.214	50.35
578.553	50.42
578.893	50.53
579.232	50.53
579.571	50.54
579.91	50.59
580.25	50.69
580.589	50.74
580.928	50.81
581.267	50.86
581.606	50.93
581.945	51.09
582.283	51.24
582.622	51.26
582.961	51.34
583.3	51.4
583.639	51.47
583.977	51.63
584.316	51.74
584.654	51.79
584.993	51.87
585.332	51.84
585.67	51.99
586.008	52.08
586.347	52.13
586.685	52.21
587.024	52.34
587.362	52.38
587.7	52.46
588.038	52.48
588.376	52.59
588.715	52.65
589.053	52.64
589.391	52.66
589.729	52.77
590.067	52.78
590.404	52.84
590.742	52.91
591.08	52.92
591.418	53.02
591.756	53.13
592.093	53.16
592.431	53.26
592.769	53.27
593.106	53.32
593.444	53.43
593.781	53.48
594.119	53.52
594.456	53.49
594.793	53.57
595.131	53.68
595.468	53.73
595.805	53.76
596.143	53.85
596.48	53.89
596.817	53.89
597.154	53.99
597.491	54.03
597.828	53.96
598.165	54
598.502	53.97
598.839	54.03
599.176	54.04
599.512	54.13
599.849	54.18
600.186	54.21
600.523	54.29
600.859	54.33
601.196	54.35
601.532	54.49
601.869	54.55
602.205	54.52
602.542	54.5
602.878	54.53
603.215	54.54
603.551	54.48
603.887	54.55
604.223	54.51
604.56	54.56
604.896	54.62
605.232	54.67
605.568	54.74
605.904	54.77
606.24	54.88
606.576	54.89
606.912	54.91
607.248	54.92
607.583	54.93
607.919	54.98
608.255	55.02
608.591	54.97
608.926	54.91
609.262	55.04
609.597	55.09
609.933	55.12
610.268	55.17
610.604	55.31
610.939	55.37
611.275	55.42
611.61	55.37
611.945	55.45
612.281	55.56
612.616	55.51
612.951	55.59
613.286	55.53
613.621	55.5
613.956	55.61
614.291	55.72
614.626	55.78
614.961	55.86
615.296	55.88
615.631	55.94
615.966	56.09
616.3	56.08
616.635	56.15
616.97	56.22
617.304	56.27
617.639	56.27
617.973	56.29
618.308	56.33
618.642	56.44
618.977	56.44
619.311	56.38
619.646	56.41
619.98	56.46
620.314	56.56
620.648	56.65
620.983	56.67
621.317	56.55
621.651	56.5
621.985	56.51
622.319	56.55
622.653	56.7
622.987	56.72
623.321	56.78
623.655	56.87
623.988	56.82
624.322	56.75
624.656	56.79
624.99	56.77
625.323	56.82
625.657	56.82
625.99	56.87
626.324	56.87
626.657	56.95
626.991	56.85
627.324	56.87
627.658	56.96
627.991	56.96
628.324	57.05
628.657	57.1
628.991	57.05
629.324	57.05
629.657	56.97
629.99	57.09
630.323	57.03
630.656	56.94
630.989	56.97
631.322	57.06
631.655	57.08
631.987	57.06
632.32	56.97
632.653	56.99
632.986	57.06
633.318	57.14
633.651	57.25
633.984	57.32
634.316	57.33
634.649	57.3
634.981	57.31
635.313	57.35
635.646	57.42
635.978	57.5
636.31	57.5
636.643	57.66
636.975	57.56
637.307	57.64
637.639	57.75
637.971	57.87
638.303	57.85
638.635	58.01
638.967	58.09
639.299	58.26
639.631	58.25
639.963	58.19
640.295	58.2
640.626	58.07
640.958	58.16
641.29	58.18
641.621	58.17
641.953	58.18
642.285	58.26
642.616	58.25
642.948	58.28
643.279	58.39
643.61	58.29
643.942	58.31
644.273	58.36
644.604	58.39
644.936	58.32
645.267	58.45
645.598	58.3
645.929	58.43
646.26	58.36
646.591	58.52
646.922	58.49
647.253	58.47
647.584	58.54
647.915	58.49
648.245	58.51
648.576	58.54
648.907	58.58
649.238	58.55
649.568	58.57
649.899	58.68
650.229	58.67
650.56	58.79
650.89	58.79
651.221	58.71
651.551	58.65
651.882	58.62
652.212	58.5
652.542	58.58
652.872	58.42
653.203	58.44
653.533	58.32
653.863	58.37
654.193	58.38
654.523	58.39
654.853	58.4
655.183	58.38
655.513	58.29
655.843	58.26
656.172	58.27
656.502	58.23
656.832	58.11
657.162	58.01
657.491	58.01
657.821	58.11
658.15	58.16
658.48	58.2
658.809	58.31
659.139	58.44
659.468	58.45
659.798	58.58
660.127	58.58
660.456	58.65
660.785	58.72
661.115	58.78
661.444	58.78
661.773	58.79
662.102	58.78
662.431	58.9
662.76	58.98
663.089	58.9
663.418	58.88
663.747	59.02
664.076	59.07
664.404	59.06
664.733	58.9
665.062	58.83
665.39	58.77
665.719	58.73
666.048	58.67
666.376	58.65
666.705	58.58
667.033	58.61
667.362	58.54
667.69	58.43
668.018	58.36
668.347	58.32
668.675	58.4
