Data from BU26842_Reflection_00013.txt Node
Date: Mon Nov 18 16:38:54 EST 2019
User: vgr7
Spectrometer: USB2G7710
Scans to average: 3
Trigger mode: 4
Integration Time (sec): 2.000000E-2
Electric dark correction enabled: true
Boxcar width: 10
XAxis mode: Wavelengths
Number of Pixels in Spectrum: 2048
>>>>>Begin Spectral Data<<<<<
177.721	-17.39
178.105	7.45
178.488	-12.38
178.871	-7.59
179.254	-38.51
179.636	-82.56
180.019	-112.41
180.402	93.02
180.785	52.99
181.168	-8.18
181.55	-16.12
181.933	343.64
182.316	-900
182.698	-652.07
183.081	-106.15
183.463	18.08
183.846	-25.76
184.228	4.73
184.611	39.59
184.993	47.73
185.376	132.2
185.758	218.24
186.14	-397.91
186.522	-456.27
186.904	-473.6
187.287	-4210.34
187.669	93.8
188.051	75.93
188.433	56.56
188.815	73.6
189.197	120.03
189.579	89.15
189.961	96.93
190.342	78.49
190.724	41.09
191.106	14.8
191.488	26.91
191.869	53.25
192.251	31.06
192.633	16.07
193.014	18.21
193.396	-5.15
193.777	-8.37
194.159	-7.36
194.54	-9.46
194.922	-4.64
195.303	4.59
195.684	-5.6
196.065	-4.9
196.447	-4.06
196.828	-21.6
197.209	-25.5
197.59	-34.05
197.971	-47.18
198.352	-52.22
198.733	-66.61
199.114	-66.04
199.495	-73.85
199.876	-119.94
200.257	-84.85
200.638	-75.34
201.018	-85.93
201.399	-52.71
201.78	-39.31
202.16	-81.11
202.541	-95.15
202.922	-102.86
203.302	-150.45
203.683	-110.86
204.063	-172.87
204.444	-135.57
204.824	-100.4
205.204	-70.24
205.585	-51.65
205.965	-36.38
206.345	-22.14
206.725	-2.32
207.106	-12.15
207.486	-52.5
207.866	-15.66
208.246	-33.37
208.626	-13.55
209.006	-29.85
209.386	-72.59
209.766	-96.96
210.145	-45.96
210.525	-39.06
210.905	-27.92
211.285	-34.11
211.664	-30.75
212.044	-18.85
212.424	-21.85
212.803	-26.23
213.183	-22.79
213.562	-15.38
213.942	-22.48
214.321	-24.58
214.701	-37.74
215.08	-17.44
215.459	-10.24
215.838	-13.17
216.218	-16.05
216.597	-27.59
216.976	-27.29
217.355	-15.46
217.734	-13.28
218.113	-12.99
218.492	-14.2
218.871	-30.87
219.25	-29.31
219.629	-41.85
220.008	-44.34
220.387	-52.86
220.766	-44.44
221.144	-61.57
221.523	-68.36
221.902	-60.17
222.28	-69.84
222.659	-53.92
223.037	-61.67
223.416	-75.69
223.794	-69.59
224.173	-67.74
224.551	-54.62
224.929	-47.92
225.308	-35.73
225.686	-24.03
226.064	-19.24
226.442	-15.77
226.821	-9.44
227.199	-7.04
227.577	-11.43
227.955	-11.21
228.333	-6.14
228.711	-4.62
229.089	-0.95
229.467	-2.27
229.845	-4.5
230.222	-2.34
230.6	-2.1
230.978	1.89
231.356	4.25
231.733	5.1
232.111	8.48
232.488	8.12
232.866	6.59
233.243	5.77
233.621	1.92
233.998	2.83
234.376	3.3
234.753	4.07
235.13	5.87
235.508	9.1
235.885	9.05
236.262	6.54
236.639	5.67
237.016	5.97
237.393	7.68
237.77	8.04
238.147	8.15
238.524	7.5
238.901	6.54
239.278	6.75
239.655	6.44
240.032	6.13
240.409	6.01
240.785	5.58
241.162	5.4
241.539	5.88
241.915	5.36
242.292	4.71
242.668	4.63
243.045	4.37
243.421	4.11
243.798	4.32
244.174	4.43
244.551	4.28
244.927	4.29
245.303	4.53
245.679	4.38
246.056	4.34
246.432	4.35
246.808	4.35
247.184	4.11
247.56	3.97
247.936	3.79
248.312	3.73
248.688	4.21
249.064	3.91
249.44	3.94
249.815	3.82
250.191	4.08
250.567	4
250.943	3.75
251.318	4.18
251.694	4.06
252.069	4.11
252.445	4.31
252.82	4.31
253.196	3.95
253.571	4.01
253.947	3.86
254.322	4.01
254.697	3.8
255.073	3.56
255.448	3.54
255.823	4
256.198	3.97
256.573	3.61
256.948	3.63
257.323	3.65
257.698	3.69
258.073	3.54
258.448	3.51
258.823	3.63
259.198	3.35
259.573	3.39
259.948	3.19
260.322	3.19
260.697	2.98
261.072	3.07
261.446	3.07
261.821	3.12
262.195	3.23
262.57	3.22
262.944	3.28
263.319	3.34
263.693	2.97
264.067	3
264.442	3.07
264.816	3.15
265.19	3
265.564	2.96
265.938	2.81
266.313	2.88
266.687	3.06
267.061	3.16
267.435	3.17
267.809	3.37
268.183	3.26
268.556	3.13
268.93	3.21
269.304	3.12
269.678	3.25
270.051	3.13
270.425	3.15
270.799	3.28
271.172	3.24
271.546	3.42
271.919	3.27
272.293	3.2
272.666	3.3
273.04	3.36
273.413	3.49
273.787	3.73
274.16	3.48
274.533	3.47
274.906	3.39
275.279	3.36
275.653	3.36
276.026	3.36
276.399	3.52
276.772	3.38
277.145	3.5
277.518	3.35
277.891	3.3
278.263	3.22
278.636	3.05
279.009	3.16
279.382	3.16
279.755	3.21
280.127	3.37
280.5	3.27
280.872	3.4
281.245	3.34
281.617	3.33
281.99	3.42
282.362	3.56
282.735	3.39
283.107	3.21
283.479	3.13
283.852	3.17
284.224	3.28
284.596	3.25
284.968	3.28
285.34	3.35
285.713	3.31
286.085	3.55
286.457	3.65
286.829	3.72
287.201	3.71
287.572	3.76
287.944	3.64
288.316	3.69
288.688	3.5
289.06	3.46
289.431	3.37
289.803	3.5
290.175	3.3
290.546	3.6
290.918	3.8
291.289	3.76
291.661	3.83
292.032	3.67
292.403	3.71
292.775	3.81
293.146	3.68
293.517	3.81
293.889	3.92
294.26	4.02
294.631	3.98
295.002	3.93
295.373	3.9
295.744	4.01
296.115	3.97
296.486	4.05
296.857	4.17
297.228	4.2
297.599	4.18
297.97	4.28
298.34	4.26
298.711	4.2
299.082	4.37
299.452	4.43
299.823	4.63
300.194	4.68
300.564	4.67
300.935	4.82
301.305	4.81
301.676	4.64
302.046	4.7
302.416	4.88
302.787	4.85
303.157	4.88
303.527	5.01
303.897	5.14
304.267	5.24
304.637	5.4
305.008	5.62
305.378	5.64
305.748	5.57
306.117	5.52
306.487	5.73
306.857	5.79
307.227	5.9
307.597	5.88
307.967	5.87
308.336	5.92
308.706	6
309.076	6.09
309.445	6.13
309.815	6.06
310.184	5.94
310.554	6.14
310.923	6.26
311.293	6.23
311.662	6.28
312.031	6.29
312.401	6.19
312.77	6.19
313.139	6.34
313.508	6.47
313.877	6.5
314.246	6.5
314.616	6.54
314.985	6.49
315.353	6.53
315.722	6.65
316.091	6.63
316.46	6.63
316.829	6.63
317.198	6.78
317.567	6.96
317.935	7.01
318.304	6.97
318.672	6.99
319.041	6.99
319.41	7.08
319.778	7.17
320.147	7.27
320.515	7.25
320.883	7.26
321.252	7.25
321.62	7.34
321.988	7.37
322.357	7.45
322.725	7.51
323.093	7.71
323.461	7.85
323.829	8.05
324.197	8.15
324.565	8.22
324.933	8.28
325.301	8.2
325.669	8.29
326.037	8.39
326.405	8.5
326.772	8.69
327.14	8.82
327.508	8.95
327.875	8.9
328.243	8.97
328.61	9.11
328.978	9.32
329.346	9.43
329.713	9.42
330.08	9.54
330.448	9.62
330.815	9.54
331.182	9.56
331.55	9.54
331.917	9.68
332.284	9.79
332.651	9.82
333.018	9.91
333.385	10.06
333.752	10.18
334.119	10.18
334.486	10.17
334.853	10.15
335.22	10.15
335.587	10.35
335.954	10.39
336.32	10.27
336.687	10.22
337.054	10.24
337.42	10.37
337.787	10.37
338.153	10.47
338.52	10.64
338.886	10.65
339.253	10.51
339.619	10.44
339.986	10.42
340.352	10.43
340.718	10.47
341.084	10.4
341.451	10.53
341.817	10.61
342.183	10.59
342.549	10.58
342.915	10.63
343.281	10.57
343.647	10.58
344.013	10.7
344.379	10.69
344.745	10.8
345.11	10.77
345.476	10.92
345.842	10.78
346.208	10.8
346.573	10.8
346.939	11.06
347.304	11.04
347.67	11.01
348.035	10.97
348.401	10.94
348.766	11.02
349.132	10.98
349.497	11.01
349.862	11.06
350.228	11.11
350.593	11.03
350.958	11.04
351.323	11.05
351.688	11.1
352.053	11.19
352.418	11.04
352.783	11.12
353.148	11.01
353.513	11.08
353.878	11.03
354.243	11.02
354.608	11
354.972	10.97
355.337	11.05
355.702	11.13
356.066	11.2
356.431	11.12
356.795	11.1
357.16	11.03
357.524	10.92
357.889	10.95
358.253	10.97
358.618	10.96
358.982	10.89
359.346	10.83
359.71	10.74
360.075	10.79
360.439	10.73
360.803	10.62
361.167	10.62
361.531	10.55
361.895	10.5
362.259	10.43
362.623	10.41
362.987	10.39
363.351	10.32
363.714	10.32
364.078	10.31
364.442	10.23
364.806	10.18
365.169	10.2
365.533	10.12
365.896	10.07
366.26	10.04
366.623	10.06
366.987	9.93
367.35	9.93
367.714	9.95
368.077	9.85
368.44	9.91
368.803	9.78
369.167	9.74
369.53	9.66
369.893	9.61
370.256	9.57
370.619	9.45
370.982	9.39
371.345	9.26
371.708	9.19
372.071	9.13
372.434	9.12
372.797	9.12
373.159	9
373.522	8.94
373.885	8.88
374.247	8.8
374.61	8.76
374.973	8.63
375.335	8.49
375.698	8.46
376.06	8.36
376.423	8.36
376.785	8.33
377.147	8.42
377.51	8.37
377.872	8.35
378.234	8.28
378.596	8.28
378.958	8.21
379.321	8.22
379.683	8.16
380.045	8.01
380.407	7.9
380.769	7.86
381.13	7.78
381.492	7.68
381.854	7.62
382.216	7.62
382.578	7.62
382.939	7.59
383.301	7.53
383.663	7.43
384.024	7.39
384.386	7.38
384.747	7.29
385.109	7.23
385.47	7.14
385.832	7.11
386.193	7.05
386.554	7
386.916	6.89
387.277	6.9
387.638	6.9
387.999	6.87
388.36	6.87
388.721	6.86
389.082	6.83
389.443	6.8
389.804	6.75
390.165	6.72
390.526	6.65
390.887	6.61
391.248	6.67
391.609	6.59
391.969	6.55
392.33	6.46
392.691	6.41
393.051	6.4
393.412	6.35
393.772	6.29
394.133	6.28
394.493	6.26
394.854	6.21
395.214	6.18
395.574	6.15
395.935	6.08
396.295	6.04
396.655	5.99
397.015	5.95
397.376	5.88
397.736	5.82
398.096	5.75
398.456	5.7
398.816	5.65
399.176	5.61
399.535	5.54
399.895	5.5
400.255	5.48
400.615	5.48
400.975	5.49
401.334	5.43
401.694	5.37
402.054	5.33
402.413	5.3
402.773	5.26
403.132	5.19
403.492	5.16
403.851	5.13
404.211	5.15
404.57	5.14
404.929	5.16
405.288	5.11
405.648	5.12
406.007	5.12
406.366	5.09
406.725	5.1
407.084	5.11
407.443	5.12
407.802	5.11
408.161	5.05
408.52	5.01
408.879	4.99
409.238	4.98
409.596	4.96
409.955	4.91
410.314	4.95
410.673	4.94
411.031	4.96
411.39	4.95
411.748	4.93
412.107	4.91
412.465	4.87
412.824	4.87
413.182	4.85
413.54	4.84
413.899	4.82
414.257	4.78
414.615	4.75
414.974	4.72
415.332	4.71
415.69	4.71
416.048	4.67
416.406	4.67
416.764	4.68
417.122	4.67
417.48	4.65
417.838	4.61
418.195	4.59
418.553	4.56
418.911	4.5
419.269	4.47
419.626	4.43
419.984	4.42
420.342	4.39
420.699	4.37
421.057	4.34
421.414	4.33
421.772	4.31
422.129	4.31
422.486	4.28
422.844	4.26
423.201	4.23
423.558	4.22
423.915	4.21
424.273	4.18
424.63	4.17
424.987	4.16
425.344	4.14
425.701	4.14
426.058	4.12
426.415	4.14
426.772	4.13
427.128	4.13
427.485	4.11
427.842	4.11
428.199	4.12
428.555	4.13
428.912	4.11
429.269	4.1
429.625	4.05
429.982	4.06
430.338	4.05
430.695	4.05
431.051	4.05
431.407	4.03
431.764	4.02
432.12	4.02
432.476	4.02
432.832	4.01
433.189	4.01
433.545	4.02
433.901	4
434.257	4
434.613	4.02
434.969	4.03
435.325	4.01
435.681	4.01
436.036	4
436.392	4.01
436.748	4.02
437.104	4.03
437.459	4.01
437.815	4
438.171	4.01
438.526	4.02
438.882	4.03
439.237	4.03
439.593	4.03
439.948	4.03
440.304	4.03
440.659	4.01
441.014	4
441.369	4
441.725	3.99
442.08	3.98
442.435	3.96
442.79	3.98
443.145	3.95
443.5	3.95
443.855	3.93
444.21	3.93
444.565	3.92
444.92	3.93
445.275	3.93
445.629	3.92
445.984	3.91
446.339	3.9
446.693	3.88
447.048	3.87
447.403	3.85
447.757	3.83
448.112	3.84
448.466	3.83
448.82	3.82
449.175	3.82
449.529	3.81
449.883	3.81
450.238	3.77
450.592	3.77
450.946	3.75
451.3	3.74
451.654	3.72
452.008	3.73
452.362	3.71
452.716	3.72
453.07	3.7
453.424	3.71
453.778	3.7
454.132	3.7
454.486	3.71
454.839	3.71
455.193	3.72
455.547	3.7
455.9	3.7
456.254	3.7
456.607	3.7
456.961	3.7
457.314	3.71
457.668	3.72
458.021	3.72
458.375	3.74
458.728	3.75
459.081	3.77
459.434	3.76
459.787	3.77
460.141	3.77
460.494	3.78
460.847	3.79
461.2	3.8
461.553	3.82
461.906	3.82
462.259	3.83
462.611	3.84
462.964	3.87
463.317	3.89
463.67	3.92
464.022	3.91
464.375	3.91
464.728	3.92
465.08	3.94
465.433	3.98
465.785	3.98
466.138	3.98
466.49	3.99
466.843	4
467.195	4
467.547	4.02
467.899	4.03
468.252	4.01
468.604	4.04
468.956	4.03
469.308	4.04
469.66	4.06
470.012	4.06
470.364	4.08
470.716	4.1
471.068	4.11
471.42	4.15
471.772	4.2
472.123	4.22
472.475	4.25
472.827	4.25
473.178	4.28
473.53	4.29
473.882	4.28
474.233	4.28
474.585	4.28
474.936	4.28
475.288	4.27
475.639	4.28
475.99	4.26
476.342	4.28
476.693	4.27
477.044	4.26
477.395	4.25
477.746	4.24
478.097	4.22
478.448	4.21
478.8	4.19
479.15	4.14
479.501	4.13
479.852	4.09
480.203	4.09
480.554	4.07
480.905	4.08
481.255	4.08
481.606	4.09
481.957	4.09
482.307	4.09
482.658	4.09
483.009	4.09
483.359	4.08
483.709	4.07
484.06	4.08
484.41	4.09
484.761	4.08
485.111	4.08
485.461	4.08
485.811	4.08
486.162	4.08
486.512	4.1
486.862	4.11
487.212	4.12
487.562	4.12
487.912	4.13
488.262	4.13
488.612	4.13
488.961	4.13
489.311	4.14
489.661	4.14
490.011	4.16
490.36	4.15
490.71	4.16
491.06	4.19
491.409	4.19
491.759	4.2
492.108	4.22
492.458	4.23
492.807	4.24
493.157	4.26
493.506	4.27
493.855	4.29
494.204	4.3
494.554	4.34
494.903	4.35
495.252	4.38
495.601	4.42
495.95	4.47
496.299	4.51
496.648	4.53
496.997	4.58
497.346	4.64
497.695	4.71
498.043	4.79
498.392	4.85
498.741	4.9
499.09	4.94
499.438	5
499.787	5.07
500.135	5.15
500.484	5.21
500.832	5.3
501.181	5.39
501.529	5.48
501.878	5.57
502.226	5.67
502.574	5.75
502.923	5.85
503.271	5.95
503.619	6.06
503.967	6.18
504.315	6.27
504.663	6.36
505.011	6.49
505.359	6.59
505.707	6.69
506.055	6.82
506.403	6.96
506.751	7.1
507.098	7.23
507.446	7.35
507.794	7.48
508.141	7.64
508.489	7.74
508.837	7.89
509.184	8.02
509.531	8.16
509.879	8.35
510.226	8.5
510.574	8.66
510.921	8.79
511.268	8.93
511.616	9.09
511.963	9.25
512.31	9.4
512.657	9.58
513.004	9.75
513.351	9.93
513.698	10.09
514.045	10.29
514.392	10.5
514.739	10.67
515.086	10.89
515.432	11.06
515.779	11.26
516.126	11.42
516.473	11.6
516.819	11.75
517.166	11.88
517.512	12.03
517.859	12.17
518.205	12.3
518.552	12.45
518.898	12.59
519.245	12.69
519.591	12.83
519.937	12.95
520.283	13.11
520.629	13.26
520.976	13.43
521.322	13.59
521.668	13.73
522.014	13.91
522.36	14.06
522.706	14.25
523.052	14.45
523.398	14.65
523.743	14.86
524.089	15.1
524.435	15.28
524.781	15.48
525.126	15.64
525.472	15.83
525.817	16
526.163	16.13
526.509	16.3
526.854	16.41
527.199	16.54
527.545	16.66
527.89	16.78
528.235	16.91
528.581	17.05
528.926	17.17
529.271	17.29
529.616	17.41
529.961	17.54
530.306	17.69
530.651	17.85
530.996	17.99
531.341	18.15
531.686	18.36
532.031	18.52
532.376	18.71
532.721	18.89
533.065	19.08
533.41	19.29
533.755	19.49
534.099	19.71
534.444	19.92
534.788	20.13
535.133	20.35
535.477	20.54
535.822	20.76
536.166	21.02
536.51	21.28
536.855	21.54
537.199	21.8
537.543	22.06
537.887	22.35
538.231	22.66
538.576	22.95
538.92	23.18
539.264	23.46
539.608	23.72
539.951	23.94
540.295	24.16
540.639	24.38
540.983	24.6
541.327	24.82
541.671	25.04
542.014	25.26
542.358	25.46
542.701	25.68
543.045	25.89
543.389	26.13
543.732	26.36
544.075	26.62
544.419	26.85
544.762	27.11
545.105	27.35
545.449	27.58
545.792	27.8
546.135	28.09
546.478	28.36
546.821	28.65
547.165	28.97
547.508	29.28
547.851	29.58
548.194	29.88
548.536	30.19
548.879	30.5
549.222	30.77
549.565	31.06
549.908	31.36
550.25	31.65
550.593	31.95
550.936	32.22
551.278	32.47
551.621	32.79
551.963	33.06
552.306	33.3
552.648	33.58
552.991	33.89
553.333	34.13
553.675	34.4
554.017	34.62
554.36	34.8
554.702	35.03
555.044	35.23
555.386	35.48
555.728	35.65
556.07	35.88
556.412	36.13
556.754	36.38
557.096	36.61
557.438	36.81
557.78	37.03
558.121	37.25
558.463	37.48
558.805	37.7
559.147	37.85
559.488	38.11
559.83	38.3
560.171	38.47
560.513	38.69
560.854	38.89
561.196	39.12
561.537	39.32
561.878	39.52
562.22	39.7
562.561	39.87
562.902	40.09
563.243	40.23
563.584	40.39
563.925	40.57
564.266	40.77
564.607	40.93
564.948	41.06
565.289	41.25
565.63	41.43
565.971	41.53
566.312	41.69
566.653	41.78
566.993	41.91
567.334	42.11
567.675	42.21
568.015	42.35
568.356	42.43
568.696	42.54
569.037	42.61
569.377	42.77
569.718	42.92
570.058	42.99
570.398	43.1
570.739	43.21
571.079	43.25
571.419	43.35
571.759	43.48
572.099	43.57
572.439	43.66
572.779	43.73
573.119	43.84
573.459	43.9
573.799	44
574.139	44.04
574.479	44.06
574.819	44.17
575.158	44.19
575.498	44.33
575.838	44.45
576.177	44.57
576.517	44.63
576.856	44.62
577.196	44.77
577.535	44.87
577.875	44.94
578.214	45.09
578.553	45.14
578.893	45.17
579.232	45.23
579.571	45.27
579.91	45.32
580.25	45.42
580.589	45.53
580.928	45.57
581.267	45.72
581.606	45.84
581.945	45.87
582.283	46.03
582.622	45.99
582.961	46.03
583.3	46.11
583.639	46.29
583.977	46.44
584.316	46.51
584.654	46.58
584.993	46.65
585.332	46.73
585.67	46.78
586.008	46.86
586.347	46.94
586.685	47.03
587.024	47.12
587.362	47.14
587.7	47.19
588.038	47.35
588.376	47.37
588.715	47.4
589.053	47.49
589.391	47.46
589.729	47.57
590.067	47.67
590.404	47.76
590.742	47.74
591.08	47.77
591.418	47.82
591.756	47.9
592.093	48.02
592.431	48.03
592.769	48.07
593.106	48.05
593.444	48.04
593.781	48.06
594.119	48.05
594.456	48.13
594.793	48.16
595.131	48.15
595.468	48.21
595.805	48.25
596.143	48.27
596.48	48.35
596.817	48.4
597.154	48.43
597.491	48.4
597.828	48.47
598.165	48.45
598.502	48.49
598.839	48.47
599.176	48.49
599.512	48.5
599.849	48.53
600.186	48.62
600.523	48.69
600.859	48.73
601.196	48.78
601.532	48.81
601.869	48.78
602.205	48.81
602.542	48.8
602.878	48.81
603.215	48.81
603.551	48.89
603.887	48.9
604.223	48.9
604.56	48.93
604.896	48.89
605.232	48.89
605.568	48.88
605.904	48.94
606.24	48.99
606.576	49.05
606.912	49.13
607.248	49.19
607.583	49.24
607.919	49.32
608.255	49.29
608.591	49.29
608.926	49.41
609.262	49.49
609.597	49.54
609.933	49.58
610.268	49.71
610.604	49.72
610.939	49.8
611.275	49.88
611.61	49.89
611.945	49.93
612.281	50.05
612.616	50.01
612.951	50.08
613.286	50.08
613.621	50.09
613.956	50.01
614.291	49.99
614.626	50.03
614.961	49.97
615.296	50.05
615.631	50.05
615.966	50.05
616.3	50.05
616.635	50.07
616.97	50.08
617.304	49.98
617.639	49.86
617.973	49.86
618.308	49.83
618.642	49.86
618.977	49.85
619.311	49.83
619.646	49.96
619.98	49.92
620.314	49.93
620.648	49.86
620.983	49.9
621.317	49.93
621.651	49.95
621.985	49.95
622.319	49.9
622.653	49.9
622.987	50.03
623.321	50.1
623.655	50.19
623.988	50.23
624.322	50.3
624.656	50.44
624.99	50.43
625.323	50.44
625.657	50.48
625.99	50.48
626.324	50.48
626.657	50.51
626.991	50.56
627.324	50.43
627.658	50.51
627.991	50.53
628.324	50.62
628.657	50.67
628.991	50.78
629.324	50.91
629.657	51.04
629.99	51.01
630.323	50.95
630.656	50.9
630.989	50.95
631.322	50.87
631.655	50.89
631.987	50.93
632.32	50.96
632.653	50.89
632.986	51
633.318	50.98
633.651	50.95
633.984	50.88
634.316	50.92
634.649	50.88
634.981	50.82
635.313	50.66
635.646	50.57
635.978	50.53
636.31	50.43
636.643	50.39
636.975	50.3
637.307	50.25
637.639	50.22
637.971	50.15
638.303	50.2
638.635	50.11
638.967	50.04
639.299	50.01
639.631	50.05
639.963	49.96
640.295	49.95
640.626	50.01
640.958	50.11
641.29	50.23
641.621	50.3
641.953	50.36
642.285	50.42
642.616	50.52
642.948	50.46
643.279	50.57
643.61	50.52
643.942	50.49
644.273	50.57
644.604	50.61
644.936	50.77
645.267	50.79
645.598	50.74
645.929	50.77
646.26	50.77
646.591	50.79
646.922	50.82
647.253	50.92
647.584	50.86
647.915	50.78
648.245	50.81
648.576	50.88
648.907	50.97
649.238	50.94
649.568	50.94
649.899	51.02
650.229	50.98
650.56	51.01
650.89	51.06
651.221	51.04
651.551	51.09
651.882	51.03
652.212	50.98
652.542	51.07
652.872	51.07
653.203	51.1
653.533	51.23
653.863	51.29
654.193	51.3
654.523	51.26
654.853	51.39
655.183	51.32
655.513	51.28
655.843	51.16
656.172	51.21
656.502	51.22
656.832	51.26
657.162	51.37
657.491	51.3
657.821	51.32
658.15	51.38
658.48	51.37
658.809	51.35
659.139	51.4
659.468	51.39
659.798	51.39
660.127	51.41
660.456	51.34
660.785	51.33
661.115	51.31
661.444	51.34
661.773	51.27
662.102	51.3
662.431	51.31
662.76	51.38
663.089	51.33
663.418	51.36
663.747	51.22
664.076	51.1
664.404	51.15
664.733	51.13
665.062	51.05
665.39	51.02
665.719	51
