Data from BU26943_Reflection_00004.txt Node
Date: Tue Nov 19 11:02:20 EST 2019
User: vgr7
Spectrometer: USB2G7710
Scans to average: 3
Trigger mode: 4
Integration Time (sec): 2.000000E-2
Electric dark correction enabled: true
Boxcar width: 10
XAxis mode: Wavelengths
Number of Pixels in Spectrum: 2048
>>>>>Begin Spectral Data<<<<<
177.721	-396.23
178.105	-197.81
178.488	-123.11
178.871	-148.23
179.254	-149.38
179.636	-1102.9
180.019	1282.8
180.402	-60
180.785	3.03
181.168	55.13
181.55	-83.91
181.933	510.26
182.316	-654.39
182.698	408.64
183.081	-37.12
183.463	37.36
183.846	3.19
184.228	48.26
184.611	17.33
184.993	64.97
185.376	84.92
185.758	48.93
186.14	27.85
186.522	9.99
186.904	32.01
187.287	24.42
187.669	11.62
188.051	4.34
188.433	-9.68
188.815	-7.81
189.197	-21.28
189.579	-17.16
189.961	-15.51
190.342	-11.92
190.724	-13.96
191.106	-11.33
191.488	-5.14
191.869	-2.94
192.251	-15.82
192.633	-5.44
193.014	-9.05
193.396	-14.22
193.777	-21.15
194.159	-23.09
194.54	-26.03
194.922	-31.25
195.303	-32.49
195.684	-38.52
196.065	-31.57
196.447	-27.71
196.828	-37.2
197.209	-7.66
197.59	-5.2
197.971	-12.89
198.352	-3.23
198.733	3.26
199.114	-0.52
199.495	-9.51
199.876	-3.21
200.257	9.39
200.638	-0.56
201.018	-6.77
201.399	-2.66
201.78	1.2
202.16	14.22
202.541	17.69
202.922	10.51
203.302	8.61
203.683	13.9
204.063	19.64
204.444	15.78
204.824	28.6
205.204	15.85
205.585	12.96
205.965	17.11
206.345	8.14
206.725	11.43
207.106	13.11
207.486	20.68
207.866	22.34
208.246	27.09
208.626	24.53
209.006	29.16
209.386	29.12
209.766	28.97
210.145	20.28
210.525	16.2
210.905	22.37
211.285	20.43
211.664	26.11
212.044	20.45
212.424	29.17
212.803	24.89
213.183	27.8
213.562	24.06
213.942	16.09
214.321	17.52
214.701	14.29
215.08	18.26
215.459	17.85
215.838	11.6
216.218	5.49
216.597	6.1
216.976	3.57
217.355	0.79
217.734	-0.84
218.113	5.55
218.492	7.45
218.871	-0.66
219.25	-4.42
219.629	-15.03
220.008	-12.82
220.387	-21.69
220.766	-12.27
221.144	-22.55
221.523	-14.23
221.902	-10.13
222.28	-11.69
222.659	-3.53
223.037	-3.08
223.416	1.87
223.794	0.09
224.173	-4.7
224.551	-0.52
224.929	-2.66
225.308	-2.78
225.686	1.12
226.064	-1.64
226.442	-0.31
226.821	-0.29
227.199	0.44
227.577	-1.34
227.955	-1.97
228.333	-4.22
228.711	-5.59
229.089	-2.51
229.467	-3.03
229.845	-1.85
230.222	1.25
230.6	1.6
230.978	0.17
231.356	-3.63
231.733	-0.43
232.111	1.26
232.488	0.91
232.866	1.07
233.243	2.79
233.621	2.91
233.998	3.66
234.376	3.03
234.753	3.25
235.13	3.56
235.508	3.99
235.885	3.94
236.262	3.24
236.639	2.15
237.016	1.37
237.393	2.25
237.77	1.32
238.147	1.39
238.524	1.5
238.901	2.32
239.278	3.21
239.655	2.57
240.032	2.37
240.409	2.65
240.785	2.77
241.162	2
241.539	1.71
241.915	1.88
242.292	2.4
242.668	2.55
243.045	3.42
243.421	3.65
243.798	3.92
244.174	4.38
244.551	4.5
244.927	4.62
245.303	4.16
245.679	4.35
246.056	4.2
246.432	3.98
246.808	3.98
247.184	4.04
247.56	3.87
247.936	3.97
248.312	3.97
248.688	4.03
249.064	3.96
249.44	3.94
249.815	3.88
250.191	3.74
250.567	3.81
250.943	3.39
251.318	3.31
251.694	3.29
252.069	3.37
252.445	3.43
252.82	3.46
253.196	3.84
253.571	4.06
253.947	4.33
254.322	4.13
254.697	4.09
255.073	3.77
255.448	3.89
255.823	3.99
256.198	3.69
256.573	3.85
256.948	4.31
257.323	4.49
257.698	4.6
258.073	4.63
258.448	4.43
258.823	4.36
259.198	4.17
259.573	3.79
259.948	3.63
260.322	3.69
260.697	3.63
261.072	3.6
261.446	3.5
261.821	3.41
262.195	3.47
262.57	3.47
262.944	3.41
263.319	3.45
263.693	3.37
264.067	3.62
264.442	3.61
264.816	3.43
265.19	3.21
265.564	3.09
265.938	2.95
266.313	2.79
266.687	2.92
267.061	3.12
267.435	3.19
267.809	3.11
268.183	2.77
268.556	2.87
268.93	2.9
269.304	2.87
269.678	3.03
270.051	3.19
270.425	3.22
270.799	3.18
271.172	3.13
271.546	3.2
271.919	3.16
272.293	3.05
272.666	2.93
273.04	3.09
273.413	3.03
273.787	3
274.16	3.14
274.533	3.17
274.906	3.27
275.279	3.44
275.653	3.57
276.026	3.7
276.399	3.59
276.772	3.5
277.145	3.42
277.518	3.27
277.891	3.12
278.263	3.06
278.636	3.29
279.009	3.3
279.382	3.19
279.755	2.97
280.127	2.94
280.5	2.86
280.872	2.75
281.245	2.68
281.617	2.7
281.99	2.74
282.362	2.75
282.735	2.53
283.107	2.45
283.479	2.44
283.852	2.48
284.224	2.65
284.596	2.67
284.968	2.61
285.34	2.63
285.713	2.75
286.085	2.69
286.457	2.6
286.829	2.58
287.201	2.55
287.572	2.7
287.944	2.73
288.316	2.89
288.688	2.94
289.06	3.07
289.431	3.17
289.803	3.16
290.175	3.14
290.546	3.33
290.918	3.27
291.289	3.2
291.661	3.07
292.032	2.87
292.403	2.82
292.775	2.94
293.146	3.03
293.517	2.94
293.889	2.91
294.26	2.94
294.631	3.14
295.002	3.19
295.373	3.05
295.744	2.94
296.115	2.94
296.486	2.96
296.857	2.96
297.228	2.78
297.599	2.82
297.97	2.79
298.34	2.71
298.711	2.8
299.082	2.91
299.452	2.97
299.823	3.04
300.194	2.98
300.564	2.94
300.935	2.89
301.305	2.9
301.676	2.91
302.046	2.82
302.416	2.71
302.787	2.62
303.157	2.53
303.527	2.63
303.897	2.54
304.267	2.44
304.637	2.36
305.008	2.46
305.378	2.54
305.748	2.43
306.117	2.4
306.487	2.41
306.857	2.32
307.227	2.32
307.597	2.31
307.967	2.42
308.336	2.52
308.706	2.5
309.076	2.6
309.445	2.76
309.815	2.85
310.184	2.77
310.554	2.87
310.923	3.01
311.293	3.01
311.662	3.1
312.031	3.05
312.401	3.1
312.77	3.22
313.139	3.19
313.508	3.26
313.877	3.28
314.246	3.19
314.616	3.31
314.985	3.38
315.353	3.34
315.722	3.44
316.091	3.41
316.46	3.4
316.829	3.35
317.198	3.45
317.567	3.39
317.935	3.44
318.304	3.58
318.672	3.6
319.041	3.59
319.41	3.42
319.778	3.55
320.147	3.48
320.515	3.38
320.883	3.17
321.252	3.23
321.62	3.22
321.988	3.39
322.357	3.36
322.725	3.32
323.093	3.4
323.461	3.45
323.829	3.38
324.197	3.34
324.565	3.38
324.933	3.23
325.301	3.25
325.669	3.22
326.037	2.98
326.405	2.97
326.772	2.88
327.14	2.89
327.508	2.93
327.875	2.86
328.243	2.75
328.61	2.74
328.978	2.55
329.346	2.59
329.713	2.73
330.08	2.76
330.448	2.71
330.815	2.77
331.182	2.49
331.55	2.51
331.917	2.45
332.284	2.47
332.651	2.32
333.018	2.32
333.385	2.48
333.752	2.67
334.119	2.66
334.486	2.79
334.853	2.8
335.22	2.71
335.587	2.77
335.954	2.8
336.32	2.95
336.687	2.99
337.054	2.93
337.42	2.82
337.787	2.7
338.153	2.78
338.52	2.82
338.886	2.9
339.253	2.9
339.619	3
339.986	2.89
340.352	3.04
340.718	3.14
341.084	2.98
341.451	2.91
341.817	3.01
342.183	3.02
342.549	3.14
342.915	3.15
343.281	3.14
343.647	3.23
344.013	3.21
344.379	3.21
344.745	3.23
345.11	3.17
345.476	3.14
345.842	3.16
346.208	3.15
346.573	3.1
346.939	3.06
347.304	3.06
347.67	3.06
348.035	2.95
348.401	2.85
348.766	2.84
349.132	2.91
349.497	2.85
349.862	2.84
350.228	2.72
350.593	2.64
350.958	2.62
351.323	2.61
351.688	2.57
352.053	2.65
352.418	2.67
352.783	2.7
353.148	2.81
353.513	2.78
353.878	2.74
354.243	2.8
354.608	2.89
354.972	2.79
355.337	2.81
355.702	2.85
356.066	2.87
356.431	2.88
356.795	2.75
357.16	2.75
357.524	2.86
357.889	2.9
358.253	2.99
358.618	3.03
358.982	2.97
359.346	2.96
359.71	2.91
360.075	2.93
360.439	2.96
360.803	2.96
361.167	2.95
361.531	2.94
361.895	2.96
362.259	2.94
362.623	3.02
362.987	3.06
363.351	3.05
363.714	3.04
364.078	3.11
364.442	3.17
364.806	3.2
365.169	3.13
365.533	3.17
365.896	3.22
366.26	3.26
366.623	3.32
366.987	3.33
367.35	3.38
367.714	3.36
368.077	3.36
368.44	3.38
368.803	3.36
369.167	3.34
369.53	3.38
369.893	3.35
370.256	3.27
370.619	3.19
370.982	3.21
371.345	3.23
371.708	3.17
372.071	3.2
372.434	3.11
372.797	3.06
373.159	3
373.522	2.94
373.885	2.9
374.247	2.86
374.61	2.87
374.973	2.85
375.335	2.86
375.698	2.84
376.06	2.75
376.423	2.77
376.785	2.75
377.147	2.66
377.51	2.67
377.872	2.75
378.234	2.78
378.596	2.79
378.958	2.79
379.321	2.78
379.683	2.75
380.045	2.79
380.407	2.8
380.769	2.8
381.13	2.74
381.492	2.72
381.854	2.75
382.216	2.78
382.578	2.82
382.939	2.79
383.301	2.77
383.663	2.81
384.024	2.8
384.386	2.85
384.747	2.89
385.109	2.91
385.47	2.89
385.832	2.89
386.193	2.87
386.554	2.79
386.916	2.79
387.277	2.78
387.638	2.84
387.999	2.86
388.36	2.88
388.721	2.95
389.082	2.97
389.443	3.01
389.804	2.99
390.165	3
390.526	3
390.887	3.04
391.248	3.02
391.609	3.04
391.969	3.03
392.33	3.04
392.691	3.04
393.051	3.04
393.412	3.03
393.772	3.07
394.133	3.11
394.493	3.09
394.854	3.1
395.214	3.04
395.574	3.01
395.935	3.02
396.295	3.02
396.655	3
397.015	2.97
397.376	2.99
397.736	2.94
398.096	2.93
398.456	2.92
398.816	2.91
399.176	2.87
399.535	2.85
399.895	2.83
400.255	2.81
400.615	2.8
400.975	2.81
401.334	2.77
401.694	2.78
402.054	2.84
402.413	2.83
402.773	2.84
403.132	2.89
403.492	2.9
403.851	2.89
404.211	2.9
404.57	2.9
404.929	2.88
405.288	2.89
405.648	2.9
406.007	2.91
406.366	2.93
406.725	2.96
407.084	2.95
407.443	2.96
407.802	2.95
408.161	3
408.52	3
408.879	3.03
409.238	3.03
409.596	3.02
409.955	3.01
410.314	3
410.673	2.96
411.031	2.92
411.39	2.91
411.748	2.9
412.107	2.88
412.465	2.9
412.824	2.89
413.182	2.89
413.54	2.91
413.899	2.9
414.257	2.91
414.615	2.92
414.974	2.91
415.332	2.92
415.69	2.88
416.048	2.89
416.406	2.87
416.764	2.87
417.122	2.86
417.48	2.88
417.838	2.89
418.195	2.9
418.553	2.94
418.911	2.94
419.269	2.95
419.626	2.96
419.984	2.95
420.342	2.96
420.699	2.94
421.057	2.94
421.414	2.94
421.772	2.94
422.129	2.94
422.486	2.94
422.844	2.94
423.201	2.94
423.558	2.94
423.915	2.95
424.273	2.96
424.63	2.97
424.987	2.98
425.344	2.98
425.701	2.99
426.058	2.97
426.415	2.97
426.772	2.97
427.128	2.96
427.485	2.96
427.842	2.95
428.199	2.97
428.555	2.96
428.912	2.97
429.269	2.95
429.625	2.96
429.982	2.97
430.338	2.97
430.695	2.96
431.051	2.98
431.407	2.98
431.764	2.97
432.12	2.96
432.476	2.96
432.832	2.97
433.189	2.95
433.545	2.97
433.901	2.97
434.257	2.97
434.613	2.96
434.969	2.96
435.325	2.97
435.681	2.97
436.036	2.97
436.392	2.96
436.748	2.99
437.104	2.98
437.459	2.97
437.815	2.96
438.171	2.98
438.526	2.97
438.882	2.98
439.237	3
439.593	3
439.948	3
440.304	3
440.659	3.01
441.014	3
441.369	3
441.725	3
442.08	3
442.435	3
442.79	2.99
443.145	2.99
443.5	2.98
443.855	2.98
444.21	2.97
444.565	2.98
444.92	2.99
445.275	2.98
445.629	2.98
445.984	2.97
446.339	2.96
446.693	2.95
447.048	2.94
447.403	2.92
447.757	2.91
448.112	2.92
448.466	2.93
448.82	2.93
449.175	2.92
449.529	2.92
449.883	2.92
450.238	2.93
450.592	2.94
450.946	2.95
451.3	2.95
451.654	2.94
452.008	2.94
452.362	2.94
452.716	2.97
453.07	2.96
453.424	2.97
453.778	2.97
454.132	2.95
454.486	2.97
454.839	2.96
455.193	2.97
455.547	2.97
455.9	2.98
456.254	2.99
456.607	3.01
456.961	3
457.314	3
457.668	2.99
458.021	2.98
458.375	2.98
458.728	2.96
459.081	2.98
459.434	2.96
459.787	2.96
460.141	2.94
460.494	2.95
460.847	2.94
461.2	2.94
461.553	2.96
461.906	2.96
462.259	2.99
462.611	2.99
462.964	3
463.317	2.99
463.67	2.98
464.022	2.98
464.375	3
464.728	2.99
465.08	3.01
465.433	3.02
465.785	3.02
466.138	3.02
466.49	3.03
466.843	3.06
467.195	3.1
467.547	3.09
467.899	3.09
468.252	3.11
468.604	3.11
468.956	3.1
469.308	3.11
469.66	3.08
470.012	3.08
470.364	3.08
470.716	3.09
471.068	3.1
471.42	3.1
471.772	3.1
472.123	3.13
472.475	3.14
472.827	3.13
473.178	3.13
473.53	3.12
473.882	3.11
474.233	3.13
474.585	3.1
474.936	3.1
475.288	3.1
475.639	3.1
475.99	3.11
476.342	3.11
476.693	3.08
477.044	3.1
477.395	3.08
477.746	3.07
478.097	3.07
478.448	3.06
478.8	3.07
479.15	3.07
479.501	3.06
479.852	3.07
480.203	3.09
480.554	3.1
480.905	3.12
481.255	3.12
481.606	3.13
481.957	3.13
482.307	3.14
482.658	3.14
483.009	3.15
483.359	3.14
483.709	3.15
484.06	3.17
484.41	3.17
484.761	3.18
485.111	3.18
485.461	3.19
485.811	3.19
486.162	3.19
486.512	3.19
486.862	3.18
487.212	3.19
487.562	3.18
487.912	3.19
488.262	3.18
488.612	3.18
488.961	3.18
489.311	3.18
489.661	3.18
490.011	3.18
490.36	3.18
490.71	3.19
491.06	3.19
491.409	3.19
491.759	3.19
492.108	3.18
492.458	3.16
492.807	3.16
493.157	3.15
493.506	3.15
493.855	3.15
494.204	3.16
494.554	3.16
494.903	3.15
495.252	3.17
495.601	3.18
495.95	3.2
496.299	3.2
496.648	3.22
496.997	3.23
497.346	3.24
497.695	3.24
498.043	3.25
498.392	3.27
498.741	3.24
499.09	3.25
499.438	3.29
499.787	3.31
500.135	3.31
500.484	3.32
500.832	3.31
501.181	3.32
501.529	3.34
501.878	3.35
502.226	3.36
502.574	3.35
502.923	3.36
503.271	3.34
503.619	3.34
503.967	3.31
504.315	3.31
504.663	3.3
505.011	3.3
505.359	3.27
505.707	3.27
506.055	3.28
506.403	3.3
506.751	3.27
507.098	3.28
507.446	3.3
507.794	3.3
508.141	3.31
508.489	3.32
508.837	3.32
509.184	3.3
509.531	3.32
509.879	3.29
510.226	3.28
510.574	3.29
510.921	3.31
511.268	3.34
511.616	3.36
511.963	3.37
512.31	3.38
512.657	3.41
513.004	3.41
513.351	3.4
513.698	3.4
514.045	3.41
514.392	3.4
514.739	3.43
515.086	3.44
515.432	3.44
515.779	3.46
516.126	3.47
516.473	3.5
516.819	3.49
517.166	3.52
517.512	3.52
517.859	3.53
518.205	3.51
518.552	3.5
518.898	3.5
519.245	3.51
519.591	3.49
519.937	3.5
520.283	3.5
520.629	3.52
520.976	3.54
521.322	3.55
521.668	3.54
522.014	3.55
522.36	3.53
522.706	3.56
523.052	3.56
523.398	3.54
523.743	3.53
524.089	3.54
524.435	3.54
524.781	3.56
525.126	3.57
525.472	3.6
525.817	3.6
526.163	3.59
526.509	3.6
526.854	3.6
527.199	3.6
527.545	3.61
527.89	3.6
528.235	3.59
528.581	3.59
528.926	3.61
529.271	3.6
529.616	3.61
529.961	3.6
530.306	3.59
530.651	3.59
530.996	3.6
531.341	3.6
531.686	3.61
532.031	3.61
532.376	3.61
532.721	3.6
533.065	3.6
533.41	3.62
533.755	3.61
534.099	3.61
534.444	3.62
534.788	3.6
535.133	3.61
535.477	3.61
535.822	3.62
536.166	3.61
536.51	3.62
536.855	3.62
537.199	3.64
537.543	3.65
537.887	3.67
538.231	3.68
538.576	3.68
538.92	3.69
539.264	3.69
539.608	3.69
539.951	3.69
540.295	3.7
540.639	3.7
540.983	3.71
541.327	3.72
541.671	3.73
542.014	3.75
542.358	3.76
542.701	3.77
543.045	3.76
543.389	3.77
543.732	3.78
544.075	3.8
544.419	3.8
544.762	3.78
545.105	3.77
545.449	3.76
545.792	3.76
546.135	3.75
546.478	3.75
546.821	3.76
547.165	3.76
547.508	3.75
547.851	3.76
548.194	3.74
548.536	3.74
548.879	3.7
549.222	3.68
549.565	3.67
549.908	3.66
550.25	3.67
550.593	3.68
550.936	3.66
551.278	3.64
551.621	3.62
551.963	3.67
552.306	3.67
552.648	3.68
552.991	3.69
553.333	3.69
553.675	3.7
554.017	3.7
554.36	3.7
554.702	3.7
555.044	3.69
555.386	3.73
555.728	3.72
556.07	3.72
556.412	3.76
556.754	3.76
557.096	3.76
557.438	3.74
557.78	3.7
558.121	3.73
558.463	3.72
558.805	3.73
559.147	3.73
559.488	3.72
559.83	3.73
560.171	3.74
560.513	3.73
560.854	3.72
561.196	3.72
561.537	3.73
561.878	3.75
562.22	3.76
562.561	3.74
562.902	3.78
563.243	3.79
563.584	3.78
563.925	3.78
564.266	3.79
564.607	3.8
564.948	3.82
565.289	3.81
565.63	3.83
565.971	3.83
566.312	3.81
566.653	3.82
566.993	3.78
567.334	3.79
567.675	3.82
568.015	3.81
568.356	3.8
568.696	3.79
569.037	3.78
569.377	3.76
569.718	3.76
570.058	3.74
570.398	3.74
570.739	3.72
571.079	3.73
571.419	3.73
571.759	3.73
572.099	3.72
572.439	3.7
572.779	3.69
573.119	3.68
573.459	3.71
573.799	3.69
574.139	3.71
574.479	3.7
574.819	3.68
575.158	3.71
575.498	3.74
575.838	3.71
576.177	3.7
576.517	3.73
576.856	3.73
577.196	3.75
577.535	3.77
577.875	3.74
578.214	3.71
578.553	3.71
578.893	3.73
579.232	3.75
579.571	3.79
579.91	3.81
580.25	3.82
580.589	3.81
580.928	3.82
581.267	3.81
581.606	3.8
581.945	3.75
582.283	3.76
582.622	3.71
582.961	3.71
583.3	3.7
583.639	3.68
583.977	3.67
584.316	3.64
584.654	3.65
584.993	3.66
585.332	3.71
585.67	3.71
586.008	3.7
586.347	3.71
586.685	3.65
587.024	3.64
587.362	3.63
587.7	3.64
588.038	3.65
588.376	3.66
588.715	3.66
589.053	3.68
589.391	3.64
589.729	3.66
590.067	3.66
590.404	3.68
590.742	3.71
591.08	3.74
591.418	3.75
591.756	3.73
592.093	3.76
592.431	3.79
592.769	3.81
593.106	3.79
593.444	3.77
593.781	3.79
594.119	3.81
594.456	3.79
594.793	3.79
595.131	3.83
595.468	3.85
595.805	3.86
596.143	3.89
596.48	3.93
596.817	3.93
597.154	3.95
597.491	3.95
597.828	3.93
598.165	3.91
598.502	3.89
598.839	3.89
599.176	3.89
599.512	3.85
599.849	3.86
600.186	3.87
600.523	3.87
600.859	3.88
601.196	3.88
601.532	3.89
601.869	3.89
602.205	3.86
602.542	3.83
602.878	3.83
603.215	3.83
603.551	3.81
603.887	3.85
604.223	3.84
604.56	3.87
604.896	3.89
605.232	3.88
605.568	3.9
605.904	3.9
606.24	3.93
606.576	3.94
606.912	3.9
607.248	3.9
607.583	3.96
607.919	3.99
608.255	4
608.591	4.03
608.926	3.98
609.262	3.98
609.597	4.01
609.933	4.01
610.268	4.01
610.604	4.01
610.939	4.01
611.275	3.98
611.61	3.98
611.945	3.95
612.281	3.99
612.616	4.02
612.951	4.03
613.286	4.01
613.621	4
613.956	4.04
614.291	4.08
614.626	3.99
614.961	3.99
615.296	4.01
615.631	4.05
615.966	4.1
616.3	4.13
616.635	4.1
616.97	4.1
617.304	4.06
617.639	4.06
617.973	4.03
618.308	4.11
618.642	4.06
618.977	4.05
619.311	4.06
619.646	4.02
619.98	4.02
620.314	3.96
620.648	3.97
620.983	3.91
621.317	3.94
621.651	3.99
621.985	4.01
622.319	3.97
622.653	3.93
622.987	3.94
623.321	3.96
623.655	3.99
623.988	3.99
624.322	4.04
624.656	4.07
624.99	4.07
625.323	4
625.657	4.1
625.99	4.14
626.324	4.11
626.657	4.08
626.991	4.09
627.324	4.08
627.658	4.1
627.991	4.11
628.324	4.06
628.657	4.03
628.991	3.97
629.324	3.97
629.657	3.94
629.99	3.97
630.323	3.98
630.656	3.99
630.989	4.01
631.322	4.04
631.655	4.04
631.987	4.04
632.32	4.05
632.653	3.97
632.986	3.92
633.318	3.95
633.651	4.05
633.984	3.99
634.316	4.03
634.649	4.05
634.981	4.09
635.313	4.09
635.646	4.11
635.978	4.18
636.31	4.19
636.643	4.21
636.975	4.17
637.307	4.12
637.639	4.09
637.971	4.06
638.303	4.01
638.635	4
638.967	4
639.299	4.04
639.631	4.1
639.963	4.14
640.295	4.17
640.626	4.14
640.958	4.18
641.29	4.18
641.621	4.11
641.953	4.07
642.285	4.09
642.616	4.03
642.948	4
643.279	3.98
643.61	3.98
643.942	4
644.273	4.02
644.604	4.01
644.936	4.05
645.267	4.04
645.598	4.1
645.929	4.09
646.26	4.07
646.591	4.08
646.922	4.11
647.253	4.05
647.584	4.05
647.915	4.13
648.245	4.18
648.576	4.21
648.907	4.2
649.238	4.21
649.568	4.26
649.899	4.28
650.229	4.27
650.56	4.28
650.89	4.35
651.221	4.34
651.551	4.34
651.882	4.31
652.212	4.31
652.542	4.28
652.872	4.29
653.203	4.33
653.533	4.29
653.863	4.26
654.193	4.29
654.523	4.21
654.853	4.22
655.183	4.18
655.513	4.24
655.843	4.27
656.172	4.3
656.502	4.33
656.832	4.39
657.162	4.43
657.491	4.46
657.821	4.44
658.15	4.41
658.48	4.46
658.809	4.51
659.139	4.61
659.468	4.56
659.798	4.58
660.127	4.58
660.456	4.61
660.785	4.64
661.115	4.67
661.444	4.72
661.773	4.67
662.102	4.72
662.431	4.65
662.76	4.67
663.089	4.67
663.418	4.67
663.747	4.6
664.076	4.65
664.404	4.64
664.733	4.61
665.062	4.71
665.39	4.65
665.719	4.59
666.048	4.5
666.376	4.59
666.705	4.62
667.033	4.59
667.362	4.53
667.69	4.52
668.018	4.51
668.347	4.45
668.675	4.44
669.003	4.42
669.331	4.48
669.659	4.49
669.987	4.49
670.315	4.5
670.643	4.5
670.971	4.47
671.299	4.55
671.627	4.62
671.955	4.49
672.283	4.46
672.61	4.49
672.938	4.47
673.266	4.44
673.593	4.38
673.921	4.45
674.249	4.47
674.576	4.41
674.904	4.38
675.231	4.44
675.558	4.52
675.886	4.54
676.213	4.6
676.54	4.7
676.867	4.69
677.195	4.68
677.522	4.71
677.849	4.68
678.176	4.61
678.503	4.5
678.83	4.6
679.157	4.65
679.484	4.65
679.81	4.67
680.137	4.69
680.464	4.73
680.791	4.73
681.117	4.71
681.444	4.74
