Data from BU26846_Reflection_00010.txt Node
Date: Mon Nov 18 16:33:39 EST 2019
User: vgr7
Spectrometer: USB2G7710
Scans to average: 3
Trigger mode: 4
Integration Time (sec): 2.000000E-2
Electric dark correction enabled: true
Boxcar width: 10
XAxis mode: Wavelengths
Number of Pixels in Spectrum: 2048
>>>>>Begin Spectral Data<<<<<
177.721	91.56
178.105	-484.91
178.488	138.17
178.871	-17.83
179.254	30.41
179.636	67.47
180.019	40.48
180.402	78.79
180.785	119.7
181.168	257.24
181.55	190.35
181.933	68.17
182.316	67.15
182.698	54.2
183.081	10.85
183.463	-41.97
183.846	-94.51
184.228	-142.07
184.611	-237.7
184.993	-787.64
185.376	419.59
185.758	-1097.18
186.14	-153.4
186.522	-113.15
186.904	-32.51
187.287	11.21
187.669	14.26
188.051	6.99
188.433	-29.69
188.815	-46.26
189.197	-80.8
189.579	-130.32
189.961	-137.72
190.342	-225.78
190.724	174.15
191.106	-228.24
191.488	-40.32
191.869	-23.09
192.251	-10.06
192.633	-15.1
193.014	20.86
193.396	12.49
193.777	18.34
194.159	30.25
194.54	20.92
194.922	8.74
195.303	2.3
195.684	-1.82
196.065	-41.08
196.447	-46.44
196.828	-4.15
197.209	-49.57
197.59	-122.88
197.971	-86.42
198.352	-97.32
198.733	-74.38
199.114	-153.19
199.495	-297.15
199.876	1130.15
200.257	472.92
200.638	325.81
201.018	343.57
201.399	230.67
201.78	118.74
202.16	118.02
202.541	76.2
202.922	88.59
203.302	92.5
203.683	104.73
204.063	128.39
204.444	69.33
204.824	75.36
205.204	58.68
205.585	68.4
205.965	47.81
206.345	44.78
206.725	38.72
207.106	39.38
207.486	32.13
207.866	71.74
208.246	85.18
208.626	86.83
209.006	120.74
209.386	58.75
209.766	94.3
210.145	143.39
210.525	187.9
210.905	143.23
211.285	141.83
211.664	104.52
212.044	77.92
212.424	128.93
212.803	146.6
213.183	240.02
213.562	146.82
213.942	368.11
214.321	301.86
214.701	301.67
215.08	600.73
215.459	676.14
215.838	326.5
216.218	321.78
216.597	434.12
216.976	374.04
217.355	396.74
217.734	291.71
218.113	249.96
218.492	386.52
218.871	6451.35
219.25	275.86
219.629	914.08
220.008	-1846.11
220.387	7586.49
220.766	497.17
221.144	4444.26
221.523	-1545.96
221.902	-521.17
222.28	-1249.65
222.659	299.37
223.037	58.47
223.416	30.06
223.794	43.73
224.173	43.37
224.551	34.2
224.929	24.63
225.308	12.16
225.686	13.29
226.064	18.8
226.442	13.23
226.821	19.85
227.199	20.42
227.577	12.35
227.955	15.45
228.333	12.2
228.711	13.46
229.089	17.42
229.467	16.77
229.845	13.77
230.222	10.29
230.6	8.18
230.978	8.7
231.356	13.15
231.733	13.73
232.111	12.96
232.488	13.46
232.866	12.72
233.243	14.45
233.621	15.4
233.998	15.12
234.376	14.86
234.753	12.89
235.13	12.13
235.508	14.08
235.885	12.78
236.262	12.33
236.639	10.08
237.016	8.82
237.393	10.18
237.77	11.73
238.147	12.66
238.524	11.65
238.901	11.17
239.278	9.84
239.655	9.32
240.032	8.31
240.409	7.52
240.785	7.41
241.162	7.61
241.539	7.3
241.915	7.15
242.292	7.2
242.668	7.3
243.045	7.25
243.421	6.78
243.798	6.27
244.174	6.46
244.551	6.37
244.927	5.99
245.303	5.72
245.679	5.41
246.056	4.93
246.432	5.04
246.808	4.73
247.184	4.42
247.56	4.28
247.936	4.29
248.312	4.17
248.688	4.25
249.064	4.01
249.44	4.06
249.815	4.05
250.191	3.97
250.567	3.89
250.943	3.81
251.318	3.9
251.694	4.11
252.069	4.14
252.445	4.24
252.82	4.26
253.196	4.1
253.571	4.23
253.947	4.45
254.322	4.35
254.697	4.42
255.073	4.76
255.448	4.69
255.823	4.9
256.198	5.08
256.573	5.02
256.948	4.81
257.323	4.58
257.698	4.62
258.073	4.37
258.448	4.3
258.823	4.25
259.198	4.1
259.573	4.01
259.948	4.04
260.322	4.05
260.697	4.11
261.072	4.07
261.446	3.91
261.821	3.89
262.195	3.96
262.57	3.89
262.944	3.81
263.319	3.82
263.693	3.62
264.067	3.54
264.442	3.47
264.816	3.69
265.19	3.77
265.564	3.62
265.938	3.78
266.313	3.8
266.687	3.81
267.061	3.85
267.435	3.9
267.809	3.78
268.183	3.77
268.556	3.73
268.93	3.92
269.304	3.79
269.678	3.83
270.051	3.59
270.425	3.58
270.799	3.66
271.172	3.69
271.546	3.87
271.919	3.8
272.293	3.75
272.666	3.61
273.04	3.6
273.413	3.64
273.787	3.58
274.16	3.6
274.533	3.51
274.906	3.4
275.279	3.31
275.653	3.18
276.026	3.1
276.399	3.03
276.772	2.91
277.145	3.15
277.518	3.14
277.891	3.35
278.263	3.32
278.636	3.28
279.009	3.26
279.382	3.19
279.755	3.29
280.127	3.44
280.5	3.51
280.872	3.48
281.245	3.24
281.617	3.36
281.99	3.48
282.362	3.59
282.735	3.58
283.107	3.66
283.479	3.75
283.852	3.79
284.224	3.82
284.596	3.8
284.968	3.76
285.34	3.69
285.713	3.59
286.085	3.66
286.457	3.62
286.829	3.57
287.201	3.49
287.572	3.4
287.944	3.33
288.316	3.28
288.688	3.27
289.06	3.45
289.431	3.48
289.803	3.55
290.175	3.54
290.546	3.56
290.918	3.51
291.289	3.47
291.661	3.48
292.032	3.39
292.403	3.51
292.775	3.48
293.146	3.52
293.517	3.6
293.889	3.76
294.26	3.88
294.631	3.97
295.002	4.06
295.373	4.14
295.744	4.12
296.115	4.18
296.486	4.23
296.857	4.28
297.228	4.34
297.599	4.14
297.97	4.05
298.34	4.16
298.711	4.19
299.082	4.31
299.452	4.33
299.823	4.56
300.194	4.53
300.564	4.69
300.935	4.86
301.305	4.89
301.676	4.95
302.046	4.99
302.416	5.22
302.787	5.24
303.157	5.28
303.527	5.35
303.897	5.42
304.267	5.48
304.637	5.58
305.008	5.5
305.378	5.69
305.748	5.83
306.117	5.83
306.487	5.85
306.857	5.88
307.227	5.97
307.597	5.98
307.967	6.1
308.336	6.08
308.706	6.06
309.076	6.13
309.445	6.07
309.815	6.08
310.184	5.96
310.554	6.05
310.923	6.12
311.293	6.35
311.662	6.3
312.031	6.28
312.401	6.29
312.77	6.47
313.139	6.59
313.508	6.72
313.877	6.85
314.246	7.1
314.616	7.11
314.985	7.18
315.353	7.24
315.722	7.33
316.091	7.44
316.46	7.48
316.829	7.4
317.198	7.49
317.567	7.57
317.935	7.62
318.304	7.69
318.672	7.78
319.041	7.69
319.41	7.88
319.778	8.1
320.147	8.21
320.515	8.08
320.883	8.06
321.252	8.15
321.62	8.23
321.988	8.05
322.357	8.05
322.725	8.07
323.093	8.25
323.461	8.16
323.829	8.23
324.197	8.3
324.565	8.45
324.933	8.54
325.301	8.59
325.669	8.62
326.037	8.65
326.405	8.54
326.772	8.48
327.14	8.47
327.508	8.47
327.875	8.36
328.243	8.44
328.61	8.4
328.978	8.43
329.346	8.39
329.713	8.46
330.08	8.57
330.448	8.6
330.815	8.36
331.182	8.44
331.55	8.35
331.917	8.34
332.284	8.41
332.651	8.44
333.018	8.48
333.385	8.56
333.752	8.73
334.119	9.01
334.486	9.15
334.853	9.12
335.22	9.12
335.587	9.3
335.954	9.37
336.32	9.39
336.687	9.37
337.054	9.43
337.42	9.39
337.787	9.52
338.153	9.58
338.52	9.73
338.886	9.63
339.253	9.7
339.619	9.72
339.986	9.74
340.352	9.77
340.718	9.77
341.084	9.77
341.451	9.67
341.817	9.55
342.183	9.46
342.549	9.49
342.915	9.56
343.281	9.51
343.647	9.42
344.013	9.53
344.379	9.47
344.745	9.47
345.11	9.58
345.476	9.46
345.842	9.46
346.208	9.47
346.573	9.59
346.939	9.7
347.304	9.73
347.67	9.7
348.035	9.67
348.401	9.61
348.766	9.6
349.132	9.58
349.497	9.55
349.862	9.71
350.228	9.74
350.593	9.6
350.958	9.61
351.323	9.61
351.688	9.59
352.053	9.6
352.418	9.62
352.783	9.58
353.148	9.6
353.513	9.56
353.878	9.49
354.243	9.53
354.608	9.43
354.972	9.47
355.337	9.41
355.702	9.45
356.066	9.52
356.431	9.49
356.795	9.53
357.16	9.56
357.524	9.43
357.889	9.38
358.253	9.5
358.618	9.48
358.982	9.45
359.346	9.41
359.71	9.41
360.075	9.36
360.439	9.32
360.803	9.26
361.167	9.22
361.531	9.23
361.895	9.23
362.259	9.24
362.623	9.13
362.987	9.18
363.351	9.15
363.714	9.09
364.078	9.05
364.442	9.04
364.806	8.99
365.169	8.98
365.533	8.99
365.896	8.89
366.26	8.84
366.623	8.82
366.987	8.72
367.35	8.64
367.714	8.6
368.077	8.54
368.44	8.5
368.803	8.45
369.167	8.38
369.53	8.25
369.893	8.13
370.256	8.16
370.619	8.12
370.982	8.02
371.345	7.89
371.708	7.82
372.071	7.67
372.434	7.64
372.797	7.58
373.159	7.48
373.522	7.39
373.885	7.36
374.247	7.31
374.61	7.33
374.973	7.29
375.335	7.23
375.698	7.21
376.06	7.16
376.423	7.09
376.785	7.04
377.147	7
377.51	6.97
377.872	6.89
378.234	6.79
378.596	6.76
378.958	6.75
379.321	6.68
379.683	6.68
380.045	6.62
380.407	6.58
380.769	6.54
381.13	6.45
381.492	6.32
381.854	6.26
382.216	6.14
382.578	6.1
382.939	5.99
383.301	5.91
383.663	5.81
384.024	5.8
384.386	5.76
384.747	5.69
385.109	5.66
385.47	5.57
385.832	5.53
386.193	5.49
386.554	5.43
386.916	5.42
387.277	5.36
387.638	5.3
387.999	5.21
388.36	5.16
388.721	5.18
389.082	5.17
389.443	5.13
389.804	5.11
390.165	5.02
390.526	5.02
390.887	5.01
391.248	5.08
391.609	5.02
391.969	4.98
392.33	4.96
392.691	4.94
393.051	4.94
393.412	4.89
393.772	4.8
394.133	4.8
394.493	4.8
394.854	4.74
395.214	4.68
395.574	4.71
395.935	4.65
396.295	4.63
396.655	4.59
397.015	4.55
397.376	4.53
397.736	4.52
398.096	4.49
398.456	4.44
398.816	4.35
399.176	4.28
399.535	4.24
399.895	4.18
400.255	4.13
400.615	4.09
400.975	4.1
401.334	4.08
401.694	4.03
402.054	3.96
402.413	3.96
402.773	3.95
403.132	3.92
403.492	3.91
403.851	3.87
404.211	3.84
404.57	3.83
404.929	3.81
405.288	3.82
405.648	3.78
406.007	3.79
406.366	3.76
406.725	3.81
407.084	3.79
407.443	3.77
407.802	3.76
408.161	3.75
408.52	3.7
408.879	3.7
409.238	3.7
409.596	3.69
409.955	3.66
410.314	3.71
410.673	3.67
411.031	3.67
411.39	3.66
411.748	3.66
412.107	3.67
412.465	3.62
412.824	3.6
413.182	3.59
413.54	3.58
413.899	3.57
414.257	3.51
414.615	3.5
414.974	3.51
415.332	3.48
415.69	3.45
416.048	3.42
416.406	3.4
416.764	3.38
417.122	3.36
417.48	3.33
417.838	3.3
418.195	3.28
418.553	3.28
418.911	3.27
419.269	3.26
419.626	3.24
419.984	3.24
420.342	3.24
420.699	3.22
421.057	3.18
421.414	3.17
421.772	3.16
422.129	3.14
422.486	3.12
422.844	3.12
423.201	3.1
423.558	3.1
423.915	3.09
424.273	3.08
424.63	3.07
424.987	3.08
425.344	3.08
425.701	3.07
426.058	3.05
426.415	3.05
426.772	3.03
427.128	3.02
427.485	3.01
427.842	2.99
428.199	3.01
428.555	3
428.912	3
429.269	3
429.625	2.99
429.982	3
430.338	3
430.695	3
431.051	2.99
431.407	3.01
431.764	3
432.12	2.99
432.476	2.99
432.832	2.97
433.189	2.97
433.545	2.96
433.901	2.95
434.257	2.93
434.613	2.94
434.969	2.94
435.325	2.96
435.681	2.96
436.036	2.97
436.392	2.98
436.748	2.97
437.104	2.99
437.459	2.99
437.815	2.98
438.171	3
438.526	3.02
438.882	3
439.237	3.01
439.593	3.02
439.948	3.01
440.304	3
440.659	3
441.014	3.01
441.369	3.01
441.725	3.01
442.08	3
442.435	3
442.79	2.98
443.145	2.98
443.5	2.97
443.855	2.95
444.21	2.96
444.565	2.95
444.92	2.94
445.275	2.93
445.629	2.92
445.984	2.9
446.339	2.9
446.693	2.88
447.048	2.86
447.403	2.87
447.757	2.86
448.112	2.84
448.466	2.83
448.82	2.83
449.175	2.85
449.529	2.86
449.883	2.85
450.238	2.84
450.592	2.84
450.946	2.82
451.3	2.83
451.654	2.82
452.008	2.8
452.362	2.78
452.716	2.78
453.07	2.77
453.424	2.75
453.778	2.76
454.132	2.76
454.486	2.76
454.839	2.74
455.193	2.73
455.547	2.73
455.9	2.73
456.254	2.72
456.607	2.71
456.961	2.7
457.314	2.71
457.668	2.72
458.021	2.71
458.375	2.72
458.728	2.72
459.081	2.72
459.434	2.72
459.787	2.75
460.141	2.74
460.494	2.77
460.847	2.8
461.2	2.79
461.553	2.81
461.906	2.83
462.259	2.85
462.611	2.87
462.964	2.88
463.317	2.89
463.67	2.9
464.022	2.91
464.375	2.91
464.728	2.91
465.08	2.91
465.433	2.95
465.785	2.95
466.138	2.95
466.49	2.97
466.843	2.98
467.195	2.98
467.547	3.02
467.899	3.02
468.252	3
468.604	3.01
468.956	3.04
469.308	3.03
469.66	3.02
470.012	3.04
470.364	3.07
470.716	3.08
471.068	3.09
471.42	3.11
471.772	3.14
472.123	3.15
472.475	3.18
472.827	3.19
473.178	3.2
473.53	3.2
473.882	3.2
474.233	3.23
474.585	3.23
474.936	3.23
475.288	3.22
475.639	3.23
475.99	3.24
476.342	3.23
476.693	3.23
477.044	3.26
477.395	3.25
477.746	3.24
478.097	3.24
478.448	3.23
478.8	3.2
479.15	3.16
479.501	3.14
479.852	3.12
480.203	3.1
480.554	3.09
480.905	3.09
481.255	3.08
481.606	3.08
481.957	3.08
482.307	3.07
482.658	3.06
483.009	3.05
483.359	3.05
483.709	3.04
484.06	3.03
484.41	3.02
484.761	3.01
485.111	3.01
485.461	3
485.811	3.01
486.162	3.02
486.512	3.03
486.862	3.03
487.212	3.03
487.562	3.03
487.912	3.02
488.262	3.01
488.612	3.01
488.961	3
489.311	3.01
489.661	3.01
490.011	3.02
490.36	3.02
490.71	3.02
491.06	3.02
491.409	3.04
491.759	3.05
492.108	3.05
492.458	3.05
492.807	3.05
493.157	3.07
493.506	3.08
493.855	3.09
494.204	3.1
494.554	3.11
494.903	3.11
495.252	3.13
495.601	3.18
495.95	3.21
496.299	3.23
496.648	3.25
496.997	3.28
497.346	3.32
497.695	3.37
498.043	3.4
498.392	3.45
498.741	3.49
499.09	3.53
499.438	3.57
499.787	3.62
500.135	3.68
500.484	3.71
500.832	3.76
501.181	3.81
501.529	3.87
501.878	3.95
502.226	4.03
502.574	4.11
502.923	4.18
503.271	4.26
503.619	4.37
503.967	4.47
504.315	4.55
504.663	4.65
505.011	4.74
505.359	4.86
505.707	4.99
506.055	5.08
506.403	5.24
506.751	5.4
507.098	5.53
507.446	5.71
507.794	5.86
508.141	6.02
508.489	6.2
508.837	6.37
509.184	6.54
509.531	6.73
509.879	6.94
510.226	7.15
510.574	7.35
510.921	7.53
511.268	7.74
511.616	7.97
511.963	8.21
512.31	8.46
512.657	8.7
513.004	8.95
513.351	9.26
513.698	9.55
514.045	9.83
514.392	10.14
514.739	10.47
515.086	10.82
515.432	11.15
515.779	11.5
516.126	11.78
516.473	12.09
516.819	12.4
517.166	12.68
517.512	12.97
517.859	13.27
518.205	13.56
518.552	13.85
518.898	14.13
519.245	14.4
519.591	14.69
519.937	14.99
520.283	15.31
520.629	15.63
520.976	15.94
521.322	16.27
521.668	16.63
522.014	16.97
522.36	17.34
522.706	17.7
523.052	18.09
523.398	18.55
523.743	18.96
524.089	19.4
524.435	19.81
524.781	20.19
525.126	20.54
525.472	20.87
525.817	21.16
526.163	21.43
526.509	21.69
526.854	21.96
527.199	22.21
527.545	22.42
527.89	22.63
528.235	22.84
528.581	23.07
528.926	23.3
529.271	23.52
529.616	23.74
529.961	23.96
530.306	24.19
530.651	24.42
530.996	24.68
531.341	24.9
531.686	25.14
532.031	25.4
532.376	25.69
532.721	25.98
533.065	26.25
533.41	26.55
533.755	26.85
534.099	27.12
534.444	27.41
534.788	27.71
535.133	27.97
535.477	28.28
535.822	28.56
536.166	28.86
536.51	29.17
536.855	29.5
537.199	29.88
537.543	30.22
537.887	30.54
538.231	30.91
538.576	31.28
538.92	31.66
539.264	31.94
539.608	32.23
539.951	32.5
540.295	32.78
540.639	33.03
540.983	33.28
541.327	33.5
541.671	33.7
542.014	33.95
542.358	34.16
542.701	34.38
543.045	34.62
543.389	34.83
543.732	35.07
544.075	35.27
544.419	35.48
544.762	35.73
545.105	36.02
545.449	36.25
545.792	36.55
546.135	36.8
546.478	37.13
546.821	37.36
547.165	37.67
547.508	37.95
547.851	38.26
548.194	38.55
548.536	38.86
548.879	39.15
549.222	39.42
549.565	39.73
549.908	40.02
550.25	40.29
550.593	40.51
550.936	40.75
551.278	41.02
551.621	41.3
551.963	41.57
552.306	41.8
552.648	42
552.991	42.16
553.333	42.38
553.675	42.58
554.017	42.79
554.36	42.98
554.702	43.15
555.044	43.31
555.386	43.46
555.728	43.64
556.07	43.89
556.412	44.06
556.754	44.26
557.096	44.43
557.438	44.63
557.78	44.91
558.121	45.13
558.463	45.37
558.805	45.5
559.147	45.62
559.488	45.76
559.83	45.89
560.171	46.04
560.513	46.18
560.854	46.28
561.196	46.48
561.537	46.64
561.878	46.77
562.22	46.99
562.561	47.2
562.902	47.4
563.243	47.51
563.584	47.69
563.925	47.79
564.266	47.93
564.607	48.05
564.948	48.18
565.289	48.25
565.63	48.33
565.971	48.45
566.312	48.6
566.653	48.71
566.993	48.82
567.334	48.87
567.675	49.03
568.015	49.18
568.356	49.27
568.696	49.35
569.037	49.51
569.377	49.56
569.718	49.68
570.058	49.76
570.398	49.84
570.739	49.93
571.079	50.07
571.419	50.21
571.759	50.26
572.099	50.35
572.439	50.47
572.779	50.65
573.119	50.76
573.459	50.84
573.799	50.89
574.139	50.96
574.479	51.09
574.819	51.13
575.158	51.2
575.498	51.29
575.838	51.37
576.177	51.48
576.517	51.54
576.856	51.54
577.196	51.65
577.535	51.77
577.875	51.85
578.214	51.93
578.553	52.04
578.893	52.19
579.232	52.24
579.571	52.35
579.91	52.38
580.25	52.49
580.589	52.55
580.928	52.72
581.267	52.86
581.606	52.99
581.945	53.1
582.283	53.28
582.622	53.35
582.961	53.5
583.3	53.52
583.639	53.66
583.977	53.75
584.316	53.81
584.654	53.89
584.993	53.86
585.332	53.93
585.67	53.97
586.008	54.02
586.347	54.04
586.685	54.06
587.024	54.13
587.362	54.17
587.7	54.29
588.038	54.35
588.376	54.36
588.715	54.41
589.053	54.5
589.391	54.47
589.729	54.53
590.067	54.53
590.404	54.62
590.742	54.67
591.08	54.77
591.418	54.78
591.756	54.85
592.093	54.96
592.431	55.01
592.769	55
593.106	55.05
593.444	55.15
593.781	55.27
594.119	55.28
594.456	55.39
594.793	55.35
595.131	55.37
595.468	55.5
595.805	55.61
596.143	55.64
596.48	55.7
596.817	55.79
597.154	55.88
597.491	55.94
597.828	55.97
598.165	56
598.502	56.1
598.839	56.12
599.176	56.18
599.512	56.28
599.849	56.41
600.186	56.43
600.523	56.48
600.859	56.51
601.196	56.57
601.532	56.57
601.869	56.68
602.205	56.72
602.542	56.71
602.878	56.72
603.215	56.79
603.551	56.83
603.887	56.82
604.223	56.85
604.56	56.84
604.896	56.85
605.232	56.86
605.568	56.82
605.904	56.86
606.24	56.93
606.576	56.96
606.912	56.95
607.248	57
607.583	57.02
607.919	57.05
608.255	57.14
608.591	57.16
608.926	57.14
609.262	57.2
609.597	57.2
609.933	57.2
610.268	57.19
610.604	57.21
610.939	57.19
611.275	57.12
611.61	57.15
611.945	57.21
612.281	57.27
612.616	57.38
612.951	57.44
613.286	57.49
613.621	57.54
613.956	57.53
614.291	57.54
614.626	57.67
614.961	57.71
615.296	57.66
615.631	57.71
615.966	57.79
616.3	57.8
616.635	57.84
616.97	57.88
617.304	57.91
617.639	57.96
617.973	58.03
618.308	58.15
618.642	58.21
618.977	58.28
619.311	58.29
619.646	58.32
619.98	58.32
620.314	58.36
620.648	58.38
620.983	58.37
621.317	58.39
621.651	58.43
621.985	58.44
622.319	58.48
622.653	58.56
622.987	58.51
623.321	58.54
623.655	58.64
623.988	58.67
624.322	58.71
624.656	58.68
624.99	58.71
625.323	58.76
625.657	58.82
625.99	58.81
626.324	58.84
626.657	58.9
626.991	59.01
627.324	58.99
627.658	59.01
627.991	59.15
628.324	59.22
628.657	59.21
628.991	59.17
629.324	59.18
629.657	59.14
629.99	59.2
630.323	59.25
630.656	59.25
630.989	59.21
631.322	59.16
631.655	59.33
631.987	59.37
632.32	59.34
632.653	59.33
632.986	59.29
633.318	59.3
633.651	59.17
633.984	58.98
634.316	59.02
634.649	58.98
634.981	58.95
635.313	58.93
635.646	58.82
635.978	58.91
636.31	59.04
636.643	59
636.975	59.08
637.307	59.1
637.639	59.19
637.971	59.25
638.303	59.3
638.635	59.17
638.967	59.2
639.299	59.17
639.631	59.19
639.963	59.29
640.295	59.28
640.626	59.38
640.958	59.49
641.29	59.48
641.621	59.47
641.953	59.48
642.285	59.61
642.616	59.69
642.948	59.67
643.279	59.63
643.61	59.81
643.942	59.86
644.273	59.9
644.604	59.76
644.936	59.87
645.267	59.92
645.598	59.96
645.929	60
646.26	59.99
646.591	60.04
646.922	59.98
647.253	60.01
647.584	60.03
647.915	60.03
648.245	60
648.576	60.12
648.907	60.14
649.238	60.05
649.568	60.14
649.899	60.17
650.229	60.14
650.56	60.02
650.89	59.88
651.221	59.88
651.551	59.98
651.882	59.87
652.212	59.88
652.542	59.94
652.872	59.88
653.203	59.87
653.533	59.82
653.863	59.86
654.193	59.96
654.523	60.04
654.853	60.11
655.183	60.11
655.513	60.12
655.843	60.13
656.172	60.17
656.502	60.23
656.832	60.24
657.162	60.31
657.491	60.36
657.821	60.43
658.15	60.37
658.48	60.48
658.809	60.5
659.139	60.51
659.468	60.5
659.798	60.46
660.127	60.62
660.456	60.59
660.785	60.63
661.115	60.54
661.444	60.5
661.773	60.43
662.102	60.6
662.431	60.55
662.76	60.52
663.089	60.51
663.418	60.54
663.747	60.49
664.076	60.45
664.404	60.34
664.733	60.3
665.062	60.33
665.39	60.23
665.719	60.29
666.048	60.31
666.376	60.35
666.705	60.5
667.033	60.45
667.362	60.62
667.69	60.65
668.018	60.72
