Data from BU26942_Reflection_00011.txt Node
Date: Mon Nov 18 16:50:49 EST 2019
User: vgr7
Spectrometer: USB2G7710
Scans to average: 3
Trigger mode: 4
Integration Time (sec): 2.000000E-2
Electric dark correction enabled: true
Boxcar width: 10
XAxis mode: Wavelengths
Number of Pixels in Spectrum: 2048
>>>>>Begin Spectral Data<<<<<
177.721	-27.24
178.105	-80.37
178.488	-445.02
178.871	-414.08
179.254	236.09
179.636	3715.38
180.019	283.1
180.402	230.43
180.785	-76.39
181.168	-179.7
181.55	-129.12
181.933	273.03
182.316	355.38
182.698	346.94
183.081	413.21
183.463	4176.92
183.846	124.55
184.228	257.58
184.611	458.49
184.993	733.14
185.376	-221.36
185.758	-299.05
186.14	-286.6
186.522	239100
186.904	993.05
187.287	883.78
187.669	-765.92
188.051	-675.22
188.433	-633.68
188.815	-1198.14
189.197	-307.54
189.579	-125.09
189.961	-123.58
190.342	-115
190.724	-121.17
191.106	-247.34
191.488	-556.75
191.869	-221.79
192.251	-139.49
192.633	-176.72
193.014	-122.97
193.396	-146.57
193.777	-134.3
194.159	-155.9
194.54	-69.85
194.922	-39.35
195.303	-28.12
195.684	-56.2
196.065	-6.03
196.447	12.5
196.828	-20.04
197.209	-13.43
197.59	-20.09
197.971	-23.25
198.352	-10.95
198.733	8.27
199.114	4.52
199.495	17.04
199.876	23.83
200.257	39.48
200.638	39.81
201.018	38.35
201.399	31.07
201.78	39.81
202.16	32.25
202.541	30.81
202.922	-12.82
203.302	-24.49
203.683	-19.1
204.063	-83.78
204.444	-150.62
204.824	-108.91
205.204	-107.82
205.585	-158.96
205.965	-216.23
206.345	-188.68
206.725	-433.88
207.106	-229.44
207.486	-316.09
207.866	-211.48
208.246	-213.01
208.626	-213.58
209.006	-189.8
209.386	-161.12
209.766	-162.03
210.145	-175.25
210.525	-204.82
210.905	-238.66
211.285	-194.46
211.664	-150.35
212.044	-115.84
212.424	-83.4
212.803	-56.16
213.183	-41.77
213.562	-23.04
213.942	-12.44
214.321	-10.94
214.701	-15.85
215.08	1.64
215.459	3.09
215.838	9.73
216.218	9.04
216.597	-6.49
216.976	3.52
217.355	15.02
217.734	20.16
218.113	18.17
218.492	32.6
218.871	41.99
219.25	52.8
219.629	34.87
220.008	32.12
220.387	21.29
220.766	19.99
221.144	3.82
221.523	0.29
221.902	-7.21
222.28	-10.76
222.659	-11.26
223.037	-31.51
223.416	-31.23
223.794	-34.24
224.173	-23.35
224.551	-4.87
224.929	-15.32
225.308	-9.63
225.686	-8.3
226.064	-6.53
226.442	-7.53
226.821	-2.92
227.199	-6.13
227.577	-6.03
227.955	-1.66
228.333	1.34
228.711	2.56
229.089	8.44
229.467	7.3
229.845	1.47
230.222	-0.94
230.6	-2.3
230.978	-0.91
231.356	0.08
231.733	-1.21
232.111	0.3
232.488	-1.16
232.866	2.89
233.243	0.84
233.621	0.51
233.998	0.88
234.376	0.12
234.753	1.9
235.13	3.97
235.508	5.46
235.885	3.62
236.262	2.5
236.639	0.68
237.016	-2.34
237.393	-0.11
237.77	2.85
238.147	3.56
238.524	4.44
238.901	3.72
239.278	3.62
239.655	4.67
240.032	4.23
240.409	4.08
240.785	3.35
241.162	4.17
241.539	3.8
241.915	3.74
242.292	3.6
242.668	2.73
243.045	2.52
243.421	2.6
243.798	2.95
244.174	3.33
244.551	3.51
244.927	3.97
245.303	3.97
245.679	3.94
246.056	3.7
246.432	3.58
246.808	3.53
247.184	3.39
247.56	3.2
247.936	3.27
248.312	3.33
248.688	3.22
249.064	2.94
249.44	3.15
249.815	3.18
250.191	3.21
250.567	3.34
250.943	3.33
251.318	3.13
251.694	3.11
252.069	2.95
252.445	2.87
252.82	3.28
253.196	3.19
253.571	2.9
253.947	3.15
254.322	3.29
254.697	3.46
255.073	3.45
255.448	3.45
255.823	3.48
256.198	3.67
256.573	3.94
256.948	4.09
257.323	4
257.698	3.85
258.073	3.74
258.448	3.79
258.823	3.72
259.198	3.67
259.573	3.56
259.948	3.46
260.322	3.49
260.697	3.05
261.072	3.11
261.446	3.25
261.821	3.25
262.195	3.32
262.57	3.33
262.944	3.45
263.319	3.47
263.693	3.29
264.067	3.33
264.442	3.21
264.816	3.05
265.19	2.92
265.564	3.13
265.938	3.27
266.313	3.09
266.687	3.08
267.061	3.32
267.435	3.36
267.809	3.51
268.183	3.52
268.556	3.65
268.93	3.63
269.304	3.58
269.678	3.67
270.051	3.4
270.425	3.35
270.799	3.27
271.172	3.22
271.546	3.28
271.919	3.09
272.293	3.21
272.666	3.35
273.04	3.44
273.413	3.4
273.787	3.28
274.16	3.33
274.533	3.32
274.906	3.22
275.279	3.21
275.653	3.19
276.026	3.25
276.399	3.18
276.772	3.22
277.145	3.12
277.518	3
277.891	3.2
278.263	3.24
278.636	3.28
279.009	3.26
279.382	3.43
279.755	3.38
280.127	3.51
280.5	3.42
280.872	3.33
281.245	3.18
281.617	3.31
281.99	3.43
282.362	3.61
282.735	3.6
283.107	3.73
283.479	3.66
283.852	3.57
284.224	3.61
284.596	3.68
284.968	3.79
285.34	3.81
285.713	3.85
286.085	3.82
286.457	3.89
286.829	3.96
287.201	3.92
287.572	3.94
287.944	3.71
288.316	3.69
288.688	3.76
289.06	3.84
289.431	3.9
289.803	3.84
290.175	3.68
290.546	3.77
290.918	3.62
291.289	3.55
291.661	3.66
292.032	3.77
292.403	3.68
292.775	3.7
293.146	3.62
293.517	3.47
293.889	3.5
294.26	3.44
294.631	3.45
295.002	3.37
295.373	3.44
295.744	3.5
296.115	3.56
296.486	3.37
296.857	3.45
297.228	3.39
297.599	3.43
297.97	3.48
298.34	3.46
298.711	3.54
299.082	3.7
299.452	3.68
299.823	3.73
300.194	3.71
300.564	3.65
300.935	3.79
301.305	3.82
301.676	3.85
302.046	3.85
302.416	3.82
302.787	3.88
303.157	3.88
303.527	3.93
303.897	3.94
304.267	4.28
304.637	4.17
305.008	4.28
305.378	4.4
305.748	4.52
306.117	4.57
306.487	4.67
306.857	4.6
307.227	4.6
307.597	4.38
307.967	4.32
308.336	4.42
308.706	4.26
309.076	4.31
309.445	4.22
309.815	4.27
310.184	4.34
310.554	4.49
310.923	4.48
311.293	4.5
311.662	4.52
312.031	4.4
312.401	4.42
312.77	4.48
313.139	4.39
313.508	4.3
313.877	4.25
314.246	4.18
314.616	4.23
314.985	4.26
315.353	4.32
315.722	4.43
316.091	4.43
316.46	4.52
316.829	4.58
317.198	4.69
317.567	4.56
317.935	4.52
318.304	4.49
318.672	4.46
319.041	4.48
319.41	4.48
319.778	4.61
320.147	4.61
320.515	4.45
320.883	4.42
321.252	4.55
321.62	4.57
321.988	4.58
322.357	4.56
322.725	4.54
323.093	4.52
323.461	4.41
323.829	4.41
324.197	4.43
324.565	4.41
324.933	4.39
325.301	4.53
325.669	4.57
326.037	4.38
326.405	4.42
326.772	4.53
327.14	4.37
327.508	4.35
327.875	4.32
328.243	4.5
328.61	4.53
328.978	4.56
329.346	4.59
329.713	4.59
330.08	4.57
330.448	4.55
330.815	4.61
331.182	4.76
331.55	4.75
331.917	4.88
332.284	5.01
332.651	5.06
333.018	5.09
333.385	5.09
333.752	5.15
334.119	5.2
334.486	5.03
334.853	5.19
335.22	5.27
335.587	5.47
335.954	5.34
336.32	5.3
336.687	5.34
337.054	5.4
337.42	5.36
337.787	5.41
338.153	5.52
338.52	5.54
338.886	5.48
339.253	5.48
339.619	5.38
339.986	5.32
340.352	5.35
340.718	5.26
341.084	5.29
341.451	5.43
341.817	5.47
342.183	5.48
342.549	5.44
342.915	5.46
343.281	5.36
343.647	5.38
344.013	5.45
344.379	5.25
344.745	5.31
345.11	5.36
345.476	5.32
345.842	5.26
346.208	5.36
346.573	5.36
346.939	5.41
347.304	5.44
347.67	5.37
348.035	5.38
348.401	5.43
348.766	5.43
349.132	5.48
349.497	5.44
349.862	5.6
350.228	5.64
350.593	5.53
350.958	5.51
351.323	5.64
351.688	5.63
352.053	5.8
352.418	5.72
352.783	5.75
353.148	5.74
353.513	5.78
353.878	5.72
354.243	5.79
354.608	5.83
354.972	5.87
355.337	5.93
355.702	6.02
356.066	6.15
356.431	6.1
356.795	6.07
357.16	6.08
357.524	6.05
357.889	6.05
358.253	6.07
358.618	6.16
358.982	6.08
359.346	6.06
359.71	6.05
360.075	6.05
360.439	6.09
360.803	6.17
361.167	6.15
361.531	6.17
361.895	6.15
362.259	6.03
362.623	6.01
362.987	6.02
363.351	5.98
363.714	5.94
364.078	5.96
364.442	5.86
364.806	5.89
365.169	5.83
365.533	5.82
365.896	5.79
366.26	5.72
366.623	5.64
366.987	5.68
367.35	5.65
367.714	5.58
368.077	5.49
368.44	5.4
368.803	5.35
369.167	5.28
369.53	5.24
369.893	5.33
370.256	5.28
370.619	5.26
370.982	5.16
371.345	5.09
371.708	5.04
372.071	5.06
372.434	4.97
372.797	4.93
373.159	4.85
373.522	4.84
373.885	4.9
374.247	4.96
374.61	4.92
374.973	4.88
375.335	4.81
375.698	4.78
376.06	4.74
376.423	4.74
376.785	4.81
377.147	4.79
377.51	4.8
377.872	4.83
378.234	4.79
378.596	4.78
378.958	4.75
379.321	4.75
379.683	4.75
380.045	4.75
380.407	4.74
380.769	4.78
381.13	4.75
381.492	4.66
381.854	4.64
382.216	4.62
382.578	4.65
382.939	4.69
383.301	4.66
383.663	4.69
384.024	4.64
384.386	4.59
384.747	4.57
385.109	4.51
385.47	4.42
385.832	4.37
386.193	4.37
386.554	4.39
386.916	4.35
387.277	4.32
387.638	4.35
387.999	4.34
388.36	4.3
388.721	4.31
389.082	4.28
389.443	4.21
389.804	4.19
390.165	4.15
390.526	4.13
390.887	4.15
391.248	4.15
391.609	4.19
391.969	4.14
392.33	4.12
392.691	4.1
393.051	4.1
393.412	4.11
393.772	4.06
394.133	4.06
394.493	4.04
394.854	4.04
395.214	3.98
395.574	3.96
395.935	3.92
396.295	3.91
396.655	3.92
397.015	3.93
397.376	3.94
397.736	3.91
398.096	3.94
398.456	3.92
398.816	3.86
399.176	3.79
399.535	3.79
399.895	3.81
400.255	3.81
400.615	3.83
400.975	3.77
401.334	3.79
401.694	3.75
402.054	3.78
402.413	3.8
402.773	3.77
403.132	3.76
403.492	3.81
403.851	3.8
404.211	3.81
404.57	3.82
404.929	3.78
405.288	3.75
405.648	3.69
406.007	3.69
406.366	3.67
406.725	3.72
407.084	3.73
407.443	3.7
407.802	3.72
408.161	3.72
408.52	3.72
408.879	3.73
409.238	3.75
409.596	3.73
409.955	3.71
410.314	3.74
410.673	3.71
411.031	3.67
411.39	3.66
411.748	3.62
412.107	3.63
412.465	3.61
412.824	3.63
413.182	3.63
413.54	3.59
413.899	3.6
414.257	3.57
414.615	3.56
414.974	3.55
415.332	3.51
415.69	3.47
416.048	3.48
416.406	3.49
416.764	3.47
417.122	3.48
417.48	3.45
417.838	3.45
418.195	3.46
418.553	3.47
418.911	3.47
419.269	3.44
419.626	3.41
419.984	3.41
420.342	3.39
420.699	3.4
421.057	3.4
421.414	3.4
421.772	3.4
422.129	3.4
422.486	3.39
422.844	3.4
423.201	3.42
423.558	3.41
423.915	3.38
424.273	3.38
424.63	3.36
424.987	3.37
425.344	3.35
425.701	3.34
426.058	3.31
426.415	3.29
426.772	3.32
427.128	3.33
427.485	3.33
427.842	3.34
428.199	3.33
428.555	3.33
428.912	3.34
429.269	3.34
429.625	3.32
429.982	3.32
430.338	3.29
430.695	3.27
431.051	3.27
431.407	3.29
431.764	3.28
432.12	3.28
432.476	3.28
432.832	3.28
433.189	3.27
433.545	3.29
433.901	3.31
434.257	3.31
434.613	3.32
434.969	3.32
435.325	3.31
435.681	3.33
436.036	3.33
436.392	3.32
436.748	3.32
437.104	3.31
437.459	3.3
437.815	3.31
438.171	3.32
438.526	3.32
438.882	3.32
439.237	3.31
439.593	3.34
439.948	3.35
440.304	3.36
440.659	3.37
441.014	3.36
441.369	3.35
441.725	3.33
442.08	3.32
442.435	3.31
442.79	3.31
443.145	3.28
443.5	3.27
443.855	3.27
444.21	3.25
444.565	3.26
444.92	3.28
445.275	3.28
445.629	3.29
445.984	3.27
446.339	3.25
446.693	3.25
447.048	3.23
447.403	3.21
447.757	3.19
448.112	3.19
448.466	3.19
448.82	3.19
449.175	3.2
449.529	3.19
449.883	3.18
450.238	3.18
450.592	3.2
450.946	3.21
451.3	3.19
451.654	3.2
452.008	3.19
452.362	3.18
452.716	3.18
453.07	3.17
453.424	3.17
453.778	3.19
454.132	3.18
454.486	3.17
454.839	3.17
455.193	3.16
455.547	3.16
455.9	3.17
456.254	3.17
456.607	3.15
456.961	3.15
457.314	3.16
457.668	3.14
458.021	3.13
458.375	3.14
458.728	3.15
459.081	3.15
459.434	3.15
459.787	3.16
460.141	3.17
460.494	3.17
460.847	3.18
461.2	3.17
461.553	3.16
461.906	3.18
462.259	3.18
462.611	3.21
462.964	3.22
463.317	3.22
463.67	3.24
464.022	3.25
464.375	3.25
464.728	3.27
465.08	3.29
465.433	3.29
465.785	3.29
466.138	3.3
466.49	3.32
466.843	3.32
467.195	3.31
467.547	3.32
467.899	3.31
468.252	3.31
468.604	3.35
468.956	3.36
469.308	3.36
469.66	3.36
470.012	3.36
470.364	3.35
470.716	3.35
471.068	3.35
471.42	3.35
471.772	3.36
472.123	3.38
472.475	3.39
472.827	3.39
473.178	3.4
473.53	3.39
473.882	3.37
474.233	3.39
474.585	3.37
474.936	3.37
475.288	3.37
475.639	3.37
475.99	3.36
476.342	3.37
476.693	3.39
477.044	3.42
477.395	3.42
477.746	3.4
478.097	3.4
478.448	3.39
478.8	3.39
479.15	3.38
479.501	3.36
479.852	3.36
480.203	3.34
480.554	3.34
480.905	3.35
481.255	3.34
481.606	3.34
481.957	3.34
482.307	3.33
482.658	3.34
483.009	3.34
483.359	3.34
483.709	3.34
484.06	3.33
484.41	3.33
484.761	3.33
485.111	3.34
485.461	3.33
485.811	3.34
486.162	3.33
486.512	3.34
486.862	3.35
487.212	3.35
487.562	3.36
487.912	3.36
488.262	3.36
488.612	3.37
488.961	3.39
489.311	3.4
489.661	3.41
490.011	3.41
490.36	3.41
490.71	3.42
491.06	3.42
491.409	3.42
491.759	3.42
492.108	3.42
492.458	3.43
492.807	3.44
493.157	3.46
493.506	3.47
493.855	3.47
494.204	3.46
494.554	3.48
494.903	3.48
495.252	3.48
495.601	3.5
495.95	3.52
496.299	3.51
496.648	3.52
496.997	3.52
497.346	3.55
497.695	3.59
498.043	3.61
498.392	3.64
498.741	3.65
499.09	3.68
499.438	3.7
499.787	3.74
500.135	3.79
500.484	3.82
500.832	3.86
501.181	3.9
501.529	3.93
501.878	3.94
502.226	4.01
502.574	4.05
502.923	4.07
503.271	4.12
503.619	4.19
503.967	4.25
504.315	4.31
504.663	4.34
505.011	4.38
505.359	4.42
505.707	4.45
506.055	4.52
506.403	4.58
506.751	4.65
507.098	4.68
507.446	4.72
507.794	4.77
508.141	4.84
508.489	4.91
508.837	5.01
509.184	5.08
509.531	5.14
509.879	5.21
510.226	5.3
510.574	5.38
510.921	5.42
511.268	5.49
511.616	5.56
511.963	5.66
512.31	5.74
512.657	5.83
513.004	5.94
513.351	6.02
513.698	6.11
514.045	6.21
514.392	6.33
514.739	6.42
515.086	6.53
515.432	6.62
515.779	6.73
516.126	6.84
516.473	6.94
516.819	7.06
517.166	7.14
517.512	7.23
517.859	7.31
518.205	7.41
518.552	7.51
518.898	7.58
519.245	7.67
519.591	7.77
519.937	7.85
520.283	7.95
520.629	8.06
520.976	8.16
521.322	8.27
521.668	8.38
522.014	8.51
522.36	8.63
522.706	8.74
523.052	8.87
523.398	9
523.743	9.11
524.089	9.24
524.435	9.38
524.781	9.53
525.126	9.66
525.472	9.77
525.817	9.87
526.163	9.98
526.509	10.08
526.854	10.17
527.199	10.26
527.545	10.35
527.89	10.43
528.235	10.53
528.581	10.64
528.926	10.75
529.271	10.84
529.616	10.94
529.961	11.06
530.306	11.17
530.651	11.28
530.996	11.43
531.341	11.57
531.686	11.7
532.031	11.85
532.376	11.99
532.721	12.14
533.065	12.31
533.41	12.48
533.755	12.66
534.099	12.84
534.444	13.01
534.788	13.19
535.133	13.39
535.477	13.58
535.822	13.74
536.166	13.94
536.51	14.15
536.855	14.36
537.199	14.6
537.543	14.83
537.887	15.08
538.231	15.32
538.576	15.56
538.92	15.81
539.264	16.03
539.608	16.25
539.951	16.46
540.295	16.67
540.639	16.86
540.983	17.03
541.327	17.22
541.671	17.41
542.014	17.61
542.358	17.79
542.701	17.98
543.045	18.16
543.389	18.35
543.732	18.57
544.075	18.8
544.419	18.98
544.762	19.2
545.105	19.42
545.449	19.64
545.792	19.84
546.135	20.09
546.478	20.33
546.821	20.6
547.165	20.89
547.508	21.14
547.851	21.42
548.194	21.7
548.536	21.96
548.879	22.25
549.222	22.54
549.565	22.82
549.908	23.08
550.25	23.38
550.593	23.68
550.936	23.92
551.278	24.17
551.621	24.49
551.963	24.75
552.306	25.01
552.648	25.31
552.991	25.58
553.333	25.86
553.675	26.11
554.017	26.36
554.36	26.59
554.702	26.86
555.044	27.11
555.386	27.33
555.728	27.61
556.07	27.84
556.412	28.02
556.754	28.27
557.096	28.51
557.438	28.76
557.78	29
558.121	29.26
558.463	29.55
558.805	29.78
559.147	29.98
559.488	30.17
559.83	30.37
560.171	30.62
560.513	30.81
560.854	31.04
561.196	31.23
561.537	31.47
561.878	31.62
562.22	31.85
562.561	32.05
562.902	32.22
563.243	32.41
563.584	32.62
563.925	32.8
564.266	32.96
564.607	33.17
564.948	33.32
565.289	33.44
565.63	33.53
565.971	33.7
566.312	33.87
566.653	34.09
566.993	34.25
567.334	34.37
567.675	34.54
568.015	34.73
568.356	34.86
568.696	35
569.037	35.18
569.377	35.31
569.718	35.48
570.058	35.62
570.398	35.77
570.739	35.92
571.079	36.08
571.419	36.28
571.759	36.37
572.099	36.51
572.439	36.66
572.779	36.78
573.119	36.89
573.459	37.01
573.799	37.12
574.139	37.28
574.479	37.44
574.819	37.56
575.158	37.61
575.498	37.74
575.838	37.84
576.177	37.93
576.517	38.05
576.856	38.17
577.196	38.28
577.535	38.42
577.875	38.55
578.214	38.64
578.553	38.73
578.893	38.89
579.232	38.99
579.571	39.13
579.91	39.27
580.25	39.4
580.589	39.52
580.928	39.58
581.267	39.63
581.606	39.73
581.945	39.75
582.283	39.95
582.622	40.1
582.961	40.18
583.3	40.34
583.639	40.41
583.977	40.47
584.316	40.58
584.654	40.65
584.993	40.71
585.332	40.79
585.67	40.82
586.008	40.83
586.347	40.89
586.685	40.98
587.024	41.01
587.362	41.1
587.7	41.2
588.038	41.29
588.376	41.35
588.715	41.43
589.053	41.56
589.391	41.58
589.729	41.6
590.067	41.64
590.404	41.64
590.742	41.69
591.08	41.82
591.418	41.83
591.756	41.93
592.093	41.98
592.431	42.05
592.769	42.13
593.106	42.19
593.444	42.28
593.781	42.33
594.119	42.43
594.456	42.49
594.793	42.56
595.131	42.67
595.468	42.7
595.805	42.72
596.143	42.8
596.48	42.85
596.817	42.9
597.154	42.96
597.491	43.03
597.828	43.16
598.165	43.17
598.502	43.23
598.839	43.22
599.176	43.28
599.512	43.32
599.849	43.33
600.186	43.4
600.523	43.53
600.859	43.64
601.196	43.75
601.532	43.79
601.869	43.82
602.205	43.77
602.542	43.83
602.878	43.83
603.215	43.8
603.551	43.92
603.887	44
604.223	44.04
604.56	44.16
604.896	44.12
605.232	44.16
605.568	44.17
605.904	44.27
606.24	44.29
606.576	44.35
606.912	44.48
607.248	44.52
607.583	44.56
607.919	44.57
608.255	44.57
608.591	44.57
608.926	44.63
609.262	44.69
609.597	44.76
609.933	44.83
610.268	44.9
610.604	44.93
610.939	45.01
611.275	45.05
611.61	45.02
611.945	45.1
612.281	45.15
612.616	45.21
612.951	45.24
613.286	45.32
613.621	45.32
613.956	45.32
614.291	45.35
614.626	45.28
614.961	45.35
615.296	45.29
615.631	45.37
615.966	45.39
616.3	45.55
616.635	45.58
616.97	45.63
617.304	45.74
617.639	45.72
617.973	45.7
618.308	45.74
618.642	45.76
618.977	45.74
619.311	45.72
619.646	45.92
619.98	45.93
620.314	46.02
620.648	46.12
620.983	46.1
621.317	46.12
621.651	46.19
621.985	46.18
622.319	46.27
622.653	46.28
622.987	46.33
623.321	46.32
623.655	46.37
623.988	46.47
624.322	46.54
624.656	46.62
624.99	46.65
625.323	46.77
625.657	46.87
625.99	46.92
626.324	46.96
626.657	46.96
626.991	47
627.324	46.98
627.658	46.98
627.991	46.97
628.324	47.01
628.657	47.01
628.991	47.09
629.324	47.2
629.657	47.19
629.99	47.25
630.323	47.3
630.656	47.32
630.989	47.35
631.322	47.33
631.655	47.29
631.987	47.37
632.32	47.28
632.653	47.22
632.986	47.25
633.318	47.24
633.651	47.18
633.984	47.15
634.316	47.12
634.649	47.17
634.981	47.36
635.313	47.38
635.646	47.47
635.978	47.48
636.31	47.4
636.643	47.48
636.975	47.48
637.307	47.49
637.639	47.58
637.971	47.55
638.303	47.53
638.635	47.51
638.967	47.52
639.299	47.56
639.631	47.49
639.963	47.52
640.295	47.65
640.626	47.76
640.958	47.81
641.29	47.9
641.621	47.88
641.953	47.79
642.285	47.78
642.616	47.83
642.948	47.79
643.279	47.91
643.61	48.03
643.942	48.02
644.273	47.95
644.604	47.89
644.936	47.91
645.267	47.98
645.598	47.99
645.929	47.92
646.26	47.91
646.591	48.17
646.922	48.16
647.253	48.18
647.584	48.09
647.915	48.16
648.245	48.07
648.576	48.15
648.907	48.2
649.238	48.27
649.568	48.29
649.899	48.33
650.229	48.2
650.56	48.21
650.89	48.19
651.221	48.38
651.551	48.34
651.882	48.32
652.212	48.35
652.542	48.45
652.872	48.47
653.203	48.62
653.533	48.54
653.863	48.63
654.193	48.6
654.523	48.6
654.853	48.69
655.183	48.81
655.513	48.76
655.843	48.71
656.172	48.7
656.502	48.69
656.832	48.66
657.162	48.88
657.491	48.82
657.821	48.87
658.15	48.78
658.48	48.88
658.809	49.02
659.139	49.07
659.468	49.06
659.798	49.15
660.127	49.05
660.456	49.13
660.785	49.12
661.115	49.17
661.444	49.28
661.773	49.22
662.102	49.28
662.431	49.46
662.76	49.61
663.089	49.71
663.418	49.71
663.747	49.82
664.076	49.77
664.404	49.77
664.733	49.87
665.062	49.88
665.39	49.76
665.719	49.61
666.048	49.47
666.376	49.45
666.705	49.35
