Data from BU26850_Reflection_00013.txt Node
Date: Mon Nov 18 16:45:50 EST 2019
User: vgr7
Spectrometer: USB2G7710
Scans to average: 3
Trigger mode: 4
Integration Time (sec): 2.000000E-2
Electric dark correction enabled: true
Boxcar width: 10
XAxis mode: Wavelengths
Number of Pixels in Spectrum: 2048
>>>>>Begin Spectral Data<<<<<
177.721	36.98
178.105	4.59
178.488	14.52
178.871	-35.7
179.254	-23.43
179.636	-158.88
180.019	-13.89
180.402	57.69
180.785	27.4
181.168	-16.1
181.55	118.4
181.933	346.32
182.316	666.2
182.698	287.84
183.081	165.06
183.463	-484.42
183.846	-241.4
184.228	-377.09
184.611	521.28
184.993	1808.86
185.376	-290.66
185.758	-471.91
186.14	-119.98
186.522	-89.03
186.904	-67.67
187.287	-94.96
187.669	-56.7
188.051	-84.53
188.433	-58.77
188.815	-44.07
189.197	-58.65
189.579	-48.1
189.961	-32.49
190.342	-35.04
190.724	-41.29
191.106	-53.43
191.488	-60.07
191.869	-45.58
192.251	-54.17
192.633	-45
193.014	-38.59
193.396	-38.44
193.777	-16.07
194.159	-1.46
194.54	3.27
194.922	15.08
195.303	13.57
195.684	16.57
196.065	25.37
196.447	26.88
196.828	32.29
197.209	26.37
197.59	29.34
197.971	21.29
198.352	34.83
198.733	39.94
199.114	39.18
199.495	43.72
199.876	40.75
200.257	46.91
200.638	48.6
201.018	43.08
201.399	42.55
201.78	33.83
202.16	25.8
202.541	15.2
202.922	0.94
203.302	-1.73
203.683	-8.76
204.063	-33.64
204.444	-34.16
204.824	-40.78
205.204	-16.3
205.585	-15.5
205.965	-5.25
206.345	-24.12
206.725	-47.17
207.106	-28.61
207.486	-27.19
207.866	-40.52
208.246	-49.06
208.626	-57.89
209.006	-21.92
209.386	-31.47
209.766	-33.58
210.145	-42.74
210.525	-16.67
210.905	-1.37
211.285	6.19
211.664	-2.11
212.044	14.29
212.424	14.95
212.803	7.95
213.183	-1.62
213.562	4.88
213.942	10.06
214.321	18.62
214.701	5.39
215.08	10.55
215.459	6.62
215.838	16.24
216.218	15.25
216.597	17.84
216.976	12.17
217.355	7.59
217.734	7.39
218.113	11.89
218.492	12.63
218.871	6.97
219.25	3.25
219.629	10.07
220.008	5.77
220.387	4.49
220.766	10.47
221.144	4.72
221.523	-4.64
221.902	-4.66
222.28	-10.4
222.659	2.46
223.037	-11.31
223.416	-7.38
223.794	-4.83
224.173	-5.9
224.551	-4.78
224.929	-16.05
225.308	-14.84
225.686	-12.71
226.064	-11.16
226.442	-12.17
226.821	-11.8
227.199	-8.88
227.577	-7.35
227.955	-8.77
228.333	-4.43
228.711	-2.39
229.089	-1.66
229.467	-4.09
229.845	-7.86
230.222	-8.27
230.6	-9.21
230.978	-6.68
231.356	-5.84
231.733	-5.21
232.111	-6.77
232.488	-4.9
232.866	-1.19
233.243	0.39
233.621	1.07
233.998	0.27
234.376	1.25
234.753	3.13
235.13	1.02
235.508	1.97
235.885	3.19
236.262	1.07
236.639	-0.25
237.016	0.92
237.393	3.21
237.77	4.5
238.147	4.19
238.524	4.45
238.901	4.93
239.278	4.32
239.655	4.99
240.032	5.28
240.409	4.46
240.785	4.78
241.162	4.54
241.539	4.15
241.915	3.79
242.292	3.34
242.668	3.46
243.045	3.69
243.421	3.52
243.798	3.59
244.174	3.69
244.551	3.87
244.927	3.85
245.303	4.12
245.679	4.19
246.056	4.01
246.432	3.74
246.808	3.8
247.184	3.98
247.56	3.64
247.936	3.59
248.312	3.63
248.688	3.4
249.064	3.33
249.44	3.5
249.815	3.42
250.191	3.72
250.567	3.39
250.943	3.09
251.318	3.16
251.694	2.85
252.069	2.91
252.445	2.71
252.82	2.54
253.196	1.9
253.571	1.65
253.947	1.77
254.322	1.97
254.697	1.6
255.073	1.14
255.448	1.32
255.823	1.39
256.198	1.37
256.573	1.38
256.948	1.63
257.323	1.71
257.698	1.94
258.073	1.92
258.448	1.9
258.823	2.27
259.198	2.23
259.573	2.41
259.948	2.42
260.322	2.77
260.697	2.82
261.072	2.94
261.446	2.84
261.821	2.91
262.195	3.05
262.57	3.13
262.944	3.32
263.319	3.34
263.693	3.27
264.067	3.31
264.442	3.34
264.816	3.16
265.19	3.18
265.564	3.41
265.938	3.35
266.313	3.4
266.687	3.15
267.061	3.23
267.435	3.33
267.809	3.18
268.183	2.95
268.556	2.89
268.93	2.95
269.304	3.09
269.678	3.25
270.051	3.31
270.425	3.26
270.799	3.2
271.172	3.1
271.546	3.09
271.919	3.16
272.293	3.05
272.666	3.29
273.04	3.13
273.413	2.95
273.787	2.92
274.16	2.98
274.533	3.02
274.906	2.86
275.279	2.84
275.653	2.8
276.026	2.77
276.399	2.96
276.772	2.98
277.145	2.97
277.518	2.82
277.891	2.71
278.263	2.6
278.636	2.65
279.009	2.84
279.382	3.02
279.755	3
280.127	3.3
280.5	3.2
280.872	3.48
281.245	3.52
281.617	3.62
281.99	3.65
282.362	3.82
282.735	3.84
283.107	3.69
283.479	3.88
283.852	3.82
284.224	3.68
284.596	3.69
284.968	3.66
285.34	3.79
285.713	3.74
286.085	3.8
286.457	3.91
286.829	3.85
287.201	3.83
287.572	3.83
287.944	3.69
288.316	3.71
288.688	3.58
289.06	3.56
289.431	3.63
289.803	3.8
290.175	3.83
290.546	4.05
290.918	4.21
291.289	4.16
291.661	4.37
292.032	4.55
292.403	4.6
292.775	4.86
293.146	4.74
293.517	4.84
293.889	4.93
294.26	4.85
294.631	4.93
295.002	4.83
295.373	4.88
295.744	5.04
296.115	5.04
296.486	5.07
296.857	5.14
297.228	5.21
297.599	5.18
297.97	5.28
298.34	5.2
298.711	5.21
299.082	5.23
299.452	5.19
299.823	5.25
300.194	5.3
300.564	5.1
300.935	5.27
301.305	5.29
301.676	5.43
302.046	5.45
302.416	5.56
302.787	5.82
303.157	5.96
303.527	6.03
303.897	6.2
304.267	6.48
304.637	6.51
305.008	6.42
305.378	6.65
305.748	6.7
306.117	6.8
306.487	6.88
306.857	7.12
307.227	7.26
307.597	7.3
307.967	7.38
308.336	7.57
308.706	7.61
309.076	7.8
309.445	7.78
309.815	7.93
310.184	7.94
310.554	7.96
310.923	8.1
311.293	8.17
311.662	8.11
312.031	8.09
312.401	8.14
312.77	8.31
313.139	8.26
313.508	8.3
313.877	8.41
314.246	8.61
314.616	8.54
314.985	8.6
315.353	8.64
315.722	8.69
316.091	8.66
316.46	8.6
316.829	8.65
317.198	8.84
317.567	9.05
317.935	9.08
318.304	9.2
318.672	9.23
319.041	9.39
319.41	9.66
319.778	9.74
320.147	9.85
320.515	9.78
320.883	9.68
321.252	9.88
321.62	9.95
321.988	9.94
322.357	10.01
322.725	9.91
323.093	10.09
323.461	10.1
323.829	10.25
324.197	10.51
324.565	10.58
324.933	10.64
325.301	10.56
325.669	10.74
326.037	10.89
326.405	10.73
326.772	10.73
327.14	10.81
327.508	10.86
327.875	10.9
328.243	11.15
328.61	11.24
328.978	11.29
329.346	11.39
329.713	11.35
330.08	11.57
330.448	11.7
330.815	11.63
331.182	11.88
331.55	11.98
331.917	12.03
332.284	11.99
332.651	11.99
333.018	11.99
333.385	12.01
333.752	11.93
334.119	12.13
334.486	12.15
334.853	12.06
335.22	12.07
335.587	12.06
335.954	11.97
336.32	12
336.687	12.05
337.054	11.99
337.42	12.17
337.787	12.16
338.153	12.4
338.52	12.43
338.886	12.27
339.253	12.21
339.619	12.28
339.986	12.38
340.352	12.45
340.718	12.49
341.084	12.39
341.451	12.56
341.817	12.71
342.183	12.76
342.549	12.87
342.915	12.85
343.281	12.87
343.647	12.95
344.013	13.06
344.379	12.88
344.745	12.94
345.11	12.91
345.476	12.87
345.842	12.72
346.208	12.71
346.573	12.81
346.939	12.98
347.304	12.92
347.67	12.84
348.035	12.79
348.401	12.76
348.766	12.92
349.132	12.76
349.497	12.6
349.862	12.64
350.228	12.56
350.593	12.62
350.958	12.67
351.323	12.62
351.688	12.56
352.053	12.75
352.418	12.77
352.783	12.78
353.148	12.78
353.513	12.81
353.878	12.85
354.243	12.84
354.608	12.76
354.972	12.84
355.337	12.96
355.702	12.98
356.066	13.05
356.431	12.92
356.795	12.84
357.16	12.74
357.524	12.61
357.889	12.57
358.253	12.51
358.618	12.57
358.982	12.61
359.346	12.57
359.71	12.44
360.075	12.36
360.439	12.37
360.803	12.36
361.167	12.35
361.531	12.32
361.895	12.26
362.259	12.23
362.623	12.2
362.987	12.12
363.351	12.07
363.714	11.98
364.078	11.95
364.442	12.01
364.806	12.09
365.169	12.13
365.533	12.08
365.896	12.05
366.26	11.91
366.623	11.83
366.987	11.87
367.35	11.89
367.714	11.88
368.077	11.75
368.44	11.68
368.803	11.61
369.167	11.53
369.53	11.43
369.893	11.42
370.256	11.28
370.619	11.21
370.982	11.16
371.345	11.09
371.708	11.08
372.071	10.97
372.434	10.88
372.797	10.75
373.159	10.69
373.522	10.66
373.885	10.65
374.247	10.63
374.61	10.55
374.973	10.41
375.335	10.31
375.698	10.24
376.06	10.16
376.423	10.11
376.785	10.01
377.147	9.99
377.51	9.86
377.872	9.83
378.234	9.73
378.596	9.66
378.958	9.56
379.321	9.45
379.683	9.37
380.045	9.28
380.407	9.24
380.769	9.17
381.13	9.14
381.492	9.07
381.854	9.01
382.216	8.9
382.578	8.83
382.939	8.74
383.301	8.66
383.663	8.6
384.024	8.51
384.386	8.52
384.747	8.48
385.109	8.48
385.47	8.36
385.832	8.3
386.193	8.27
386.554	8.25
386.916	8.23
387.277	8.23
387.638	8.26
387.999	8.13
388.36	8.1
388.721	8.05
389.082	7.96
389.443	7.88
389.804	7.84
390.165	7.78
390.526	7.73
390.887	7.65
391.248	7.61
391.609	7.53
391.969	7.49
392.33	7.4
392.691	7.3
393.051	7.28
393.412	7.28
393.772	7.18
394.133	7.12
394.493	7.05
394.854	6.92
395.214	6.79
395.574	6.72
395.935	6.67
396.295	6.62
396.655	6.54
397.015	6.47
397.376	6.41
397.736	6.37
398.096	6.31
398.456	6.31
398.816	6.26
399.176	6.21
399.535	6.1
399.895	6.03
400.255	5.99
400.615	5.92
400.975	5.82
401.334	5.78
401.694	5.75
402.054	5.69
402.413	5.66
402.773	5.63
403.132	5.6
403.492	5.55
403.851	5.48
404.211	5.46
404.57	5.4
404.929	5.37
405.288	5.37
405.648	5.33
406.007	5.27
406.366	5.2
406.725	5.2
407.084	5.2
407.443	5.19
407.802	5.15
408.161	5.1
408.52	5.08
408.879	5.05
409.238	5
409.596	4.97
409.955	4.97
410.314	4.95
410.673	4.96
411.031	4.96
411.39	4.89
411.748	4.87
412.107	4.9
412.465	4.85
412.824	4.8
413.182	4.79
413.54	4.77
413.899	4.79
414.257	4.75
414.615	4.72
414.974	4.7
415.332	4.7
415.69	4.68
416.048	4.67
416.406	4.67
416.764	4.65
417.122	4.63
417.48	4.6
417.838	4.58
418.195	4.55
418.553	4.5
418.911	4.5
419.269	4.48
419.626	4.45
419.984	4.44
420.342	4.42
420.699	4.38
421.057	4.37
421.414	4.33
421.772	4.32
422.129	4.3
422.486	4.27
422.844	4.25
423.201	4.22
423.558	4.21
423.915	4.18
424.273	4.17
424.63	4.13
424.987	4.12
425.344	4.1
425.701	4.07
426.058	4.07
426.415	4.05
426.772	4.02
427.128	3.99
427.485	3.97
427.842	3.96
428.199	3.96
428.555	3.94
428.912	3.94
429.269	3.92
429.625	3.9
429.982	3.89
430.338	3.89
430.695	3.9
431.051	3.89
431.407	3.87
431.764	3.85
432.12	3.87
432.476	3.87
432.832	3.85
433.189	3.86
433.545	3.84
433.901	3.84
434.257	3.85
434.613	3.87
434.969	3.87
435.325	3.85
435.681	3.86
436.036	3.88
436.392	3.86
436.748	3.85
437.104	3.85
437.459	3.86
437.815	3.85
438.171	3.85
438.526	3.85
438.882	3.87
439.237	3.87
439.593	3.89
439.948	3.87
440.304	3.9
440.659	3.88
441.014	3.89
441.369	3.88
441.725	3.88
442.08	3.86
442.435	3.86
442.79	3.87
443.145	3.85
443.5	3.83
443.855	3.83
444.21	3.83
444.565	3.83
444.92	3.83
445.275	3.82
445.629	3.8
445.984	3.8
446.339	3.79
446.693	3.76
447.048	3.73
447.403	3.73
447.757	3.71
448.112	3.7
448.466	3.69
448.82	3.69
449.175	3.68
449.529	3.67
449.883	3.65
450.238	3.64
450.592	3.65
450.946	3.62
451.3	3.62
451.654	3.6
452.008	3.57
452.362	3.53
452.716	3.54
453.07	3.54
453.424	3.51
453.778	3.48
454.132	3.48
454.486	3.48
454.839	3.48
455.193	3.46
455.547	3.46
455.9	3.46
456.254	3.47
456.607	3.48
456.961	3.47
457.314	3.46
457.668	3.45
458.021	3.43
458.375	3.46
458.728	3.46
459.081	3.48
459.434	3.49
459.787	3.5
460.141	3.5
460.494	3.51
460.847	3.53
461.2	3.54
461.553	3.57
461.906	3.58
462.259	3.61
462.611	3.63
462.964	3.66
463.317	3.68
463.67	3.67
464.022	3.67
464.375	3.68
464.728	3.72
465.08	3.75
465.433	3.77
465.785	3.78
466.138	3.78
466.49	3.79
466.843	3.82
467.195	3.83
467.547	3.86
467.899	3.87
468.252	3.91
468.604	3.95
468.956	3.94
469.308	3.95
469.66	3.95
470.012	3.99
470.364	4
470.716	3.99
471.068	4.02
471.42	4.04
471.772	4.08
472.123	4.1
472.475	4.11
472.827	4.13
473.178	4.15
473.53	4.18
473.882	4.17
474.233	4.19
474.585	4.19
474.936	4.19
475.288	4.19
475.639	4.16
475.99	4.16
476.342	4.18
476.693	4.19
477.044	4.19
477.395	4.19
477.746	4.16
478.097	4.15
478.448	4.13
478.8	4.13
479.15	4.09
479.501	4.07
479.852	4.06
480.203	4.06
480.554	4.04
480.905	4.04
481.255	4.04
481.606	4.04
481.957	4.04
482.307	4.03
482.658	4.02
483.009	4.01
483.359	4.01
483.709	4.01
484.06	4
484.41	3.99
484.761	3.98
485.111	3.99
485.461	4
485.811	4
486.162	3.99
486.512	3.99
486.862	4
487.212	4
487.562	3.99
487.912	3.99
488.262	3.98
488.612	3.99
488.961	3.98
489.311	3.98
489.661	3.98
490.011	3.98
490.36	3.99
490.71	4
491.06	4
491.409	4.01
491.759	4.02
492.108	4.02
492.458	4.03
492.807	4.03
493.157	4.06
493.506	4.09
493.855	4.11
494.204	4.11
494.554	4.14
494.903	4.17
495.252	4.2
495.601	4.24
495.95	4.26
496.299	4.32
496.648	4.36
496.997	4.41
497.346	4.49
497.695	4.53
498.043	4.58
498.392	4.63
498.741	4.68
499.09	4.72
499.438	4.8
499.787	4.86
500.135	4.93
500.484	5
500.832	5.1
501.181	5.19
501.529	5.28
501.878	5.4
502.226	5.52
502.574	5.63
502.923	5.72
503.271	5.81
503.619	5.92
503.967	6.06
504.315	6.14
504.663	6.28
505.011	6.41
505.359	6.57
505.707	6.71
506.055	6.86
506.403	7.01
506.751	7.17
507.098	7.32
507.446	7.5
507.794	7.66
508.141	7.81
508.489	7.94
508.837	8.11
509.184	8.27
509.531	8.41
509.879	8.6
510.226	8.78
510.574	8.96
510.921	9.14
511.268	9.29
511.616	9.5
511.963	9.68
512.31	9.85
512.657	10.02
513.004	10.21
513.351	10.41
513.698	10.67
514.045	10.88
514.392	11.15
514.739	11.38
515.086	11.6
515.432	11.82
515.779	12.06
516.126	12.29
516.473	12.5
516.819	12.72
517.166	12.91
517.512	13.11
517.859	13.3
518.205	13.48
518.552	13.68
518.898	13.85
519.245	14.03
519.591	14.25
519.937	14.45
520.283	14.66
520.629	14.87
520.976	15.06
521.322	15.29
521.668	15.5
522.014	15.74
522.36	15.98
522.706	16.25
523.052	16.5
523.398	16.79
523.743	17.09
524.089	17.39
524.435	17.68
524.781	17.95
525.126	18.2
525.472	18.41
525.817	18.62
526.163	18.82
526.509	19.01
526.854	19.16
527.199	19.32
527.545	19.47
527.89	19.63
528.235	19.8
528.581	19.97
528.926	20.13
529.271	20.27
529.616	20.44
529.961	20.58
530.306	20.77
530.651	20.94
530.996	21.12
531.341	21.3
531.686	21.47
532.031	21.67
532.376	21.86
532.721	22.1
533.065	22.33
533.41	22.53
533.755	22.74
534.099	22.95
534.444	23.15
534.788	23.36
535.133	23.6
535.477	23.83
535.822	24.04
536.166	24.27
536.51	24.55
536.855	24.82
537.199	25.12
537.543	25.38
537.887	25.66
538.231	25.93
538.576	26.2
538.92	26.48
539.264	26.74
539.608	27
539.951	27.22
540.295	27.42
540.639	27.65
540.983	27.9
541.327	28.15
541.671	28.4
542.014	28.63
542.358	28.83
542.701	29.05
543.045	29.25
543.389	29.46
543.732	29.66
544.075	29.89
544.419	30.11
544.762	30.33
545.105	30.58
545.449	30.84
545.792	31.1
546.135	31.36
546.478	31.63
546.821	31.9
547.165	32.17
547.508	32.49
547.851	32.8
548.194	33.09
548.536	33.34
548.879	33.65
549.222	33.93
549.565	34.22
549.908	34.47
550.25	34.76
550.593	35.03
550.936	35.28
551.278	35.56
551.621	35.86
551.963	36.15
552.306	36.48
552.648	36.75
552.991	37.04
553.333	37.3
553.675	37.58
554.017	37.86
554.36	38.13
554.702	38.35
555.044	38.55
555.386	38.78
555.728	39.02
556.07	39.26
556.412	39.46
556.754	39.66
557.096	39.91
557.438	40.18
557.78	40.49
558.121	40.77
558.463	41.01
558.805	41.2
559.147	41.47
559.488	41.6
559.83	41.76
560.171	41.94
560.513	42.17
560.854	42.37
561.196	42.57
561.537	42.78
561.878	42.95
562.22	43.09
562.561	43.32
562.902	43.5
563.243	43.64
563.584	43.87
563.925	44.05
564.266	44.22
564.607	44.42
564.948	44.55
565.289	44.68
565.63	44.82
565.971	44.99
566.312	45.12
566.653	45.27
566.993	45.52
567.334	45.69
567.675	45.8
568.015	45.93
568.356	46.06
568.696	46.21
569.037	46.38
569.377	46.59
569.718	46.65
570.058	46.79
570.398	47
570.739	47.1
571.079	47.24
571.419	47.28
571.759	47.4
572.099	47.54
572.439	47.7
572.779	47.86
573.119	47.95
573.459	48.05
573.799	48.17
574.139	48.26
574.479	48.35
574.819	48.49
575.158	48.63
575.498	48.7
575.838	48.75
576.177	48.87
576.517	49.01
576.856	49.19
577.196	49.33
577.535	49.34
577.875	49.49
578.214	49.61
578.553	49.8
578.893	49.88
579.232	49.96
579.571	50.09
579.91	50.11
580.25	50.27
580.589	50.35
580.928	50.42
581.267	50.46
581.606	50.59
581.945	50.68
582.283	50.71
582.622	50.85
582.961	50.97
583.3	51.08
583.639	51.02
583.977	51.01
584.316	51.07
584.654	51.22
584.993	51.3
585.332	51.34
585.67	51.4
586.008	51.41
586.347	51.52
586.685	51.53
587.024	51.58
587.362	51.76
587.7	51.87
588.038	51.99
588.376	52.01
588.715	52.02
589.053	52.15
589.391	52.21
589.729	52.33
590.067	52.4
590.404	52.43
590.742	52.61
591.08	52.71
591.418	52.73
591.756	52.76
592.093	52.74
592.431	52.89
592.769	52.89
593.106	53.07
593.444	53.04
593.781	53.12
594.119	53.22
594.456	53.18
594.793	53.16
595.131	53.19
595.468	53.24
595.805	53.28
596.143	53.24
596.48	53.33
596.817	53.31
597.154	53.32
597.491	53.36
597.828	53.39
598.165	53.46
598.502	53.49
598.839	53.48
599.176	53.54
599.512	53.51
599.849	53.6
600.186	53.55
600.523	53.66
600.859	53.63
601.196	53.63
601.532	53.59
601.869	53.68
602.205	53.75
602.542	53.76
602.878	53.78
603.215	53.77
603.551	53.76
603.887	53.83
604.223	53.9
604.56	53.92
604.896	53.93
605.232	53.89
605.568	53.93
605.904	53.95
606.24	54
606.576	54.05
606.912	54.12
607.248	54.11
607.583	54.18
607.919	54.24
608.255	54.32
608.591	54.41
608.926	54.41
609.262	54.36
609.597	54.42
609.933	54.5
610.268	54.68
610.604	54.67
610.939	54.63
611.275	54.58
611.61	54.63
611.945	54.58
612.281	54.7
612.616	54.79
612.951	54.9
613.286	54.93
613.621	54.96
613.956	54.99
614.291	55.16
614.626	55.12
614.961	55.22
615.296	55.17
615.631	55.2
615.966	55.24
616.3	55.3
616.635	55.35
616.97	55.28
617.304	55.17
617.639	55.23
617.973	55.28
618.308	55.39
618.642	55.44
618.977	55.57
619.311	55.53
619.646	55.49
619.98	55.48
620.314	55.6
620.648	55.6
620.983	55.56
621.317	55.52
621.651	55.54
621.985	55.43
622.319	55.52
622.653	55.44
622.987	55.51
623.321	55.49
623.655	55.47
623.988	55.54
624.322	55.58
624.656	55.64
624.99	55.64
625.323	55.54
625.657	55.61
625.99	55.56
626.324	55.61
626.657	55.72
626.991	55.64
627.324	55.59
627.658	55.62
627.991	55.64
628.324	55.57
628.657	55.58
628.991	55.63
629.324	55.6
629.657	55.64
629.99	55.64
630.323	55.73
630.656	55.66
630.989	55.68
631.322	55.75
631.655	55.71
631.987	55.76
632.32	55.86
632.653	55.75
632.986	55.82
633.318	55.85
633.651	55.86
633.984	56.05
634.316	56.07
634.649	56.07
634.981	56.15
635.313	56.23
635.646	56.27
635.978	56.28
636.31	56.28
636.643	56.34
636.975	56.39
637.307	56.3
637.639	56.47
637.971	56.51
638.303	56.48
638.635	56.57
638.967	56.53
639.299	56.47
639.631	56.47
639.963	56.44
640.295	56.39
640.626	56.25
640.958	56.19
641.29	56.15
641.621	56.19
641.953	56.12
642.285	56.25
642.616	56.28
642.948	56.34
643.279	56.3
643.61	56.37
643.942	56.33
644.273	56.33
644.604	56.45
644.936	56.41
645.267	56.35
645.598	56.33
645.929	56.4
646.26	56.41
646.591	56.47
646.922	56.53
647.253	56.53
647.584	56.57
647.915	56.61
648.245	56.57
648.576	56.41
648.907	56.45
649.238	56.32
649.568	56.23
649.899	56.16
650.229	56.25
650.56	56.11
650.89	56.08
651.221	56.29
651.551	56.19
651.882	56.23
652.212	56.3
652.542	56.33
652.872	56.32
653.203	56.37
653.533	56.36
653.863	56.31
654.193	56.39
654.523	56.48
654.853	56.41
655.183	56.6
655.513	56.71
655.843	56.76
656.172	56.92
656.502	57
656.832	57.12
657.162	57.1
657.491	57.25
657.821	57.31
658.15	57.36
658.48	57.36
658.809	57.35
659.139	57.31
659.468	57.36
659.798	57.37
660.127	57.36
660.456	57.45
660.785	57.48
661.115	57.42
661.444	57.3
661.773	57.36
662.102	57.3
662.431	57.31
662.76	57.31
663.089	57.3
663.418	57.3
663.747	57.33
664.076	57.39
664.404	57.39
664.733	57.45
665.062	57.2
665.39	57.16
665.719	57.27
