Data from BU26851_Reflection_00015.txt Node
Date: Mon Nov 18 16:48:36 EST 2019
User: vgr7
Spectrometer: USB2G7710
Scans to average: 3
Trigger mode: 4
Integration Time (sec): 2.000000E-2
Electric dark correction enabled: true
Boxcar width: 10
XAxis mode: Wavelengths
Number of Pixels in Spectrum: 2048
>>>>>Begin Spectral Data<<<<<
177.721	95.36
178.105	-548.65
178.488	3327.85
178.871	-358.68
179.254	1676.27
179.636	3.04
180.019	-255.93
180.402	58.33
180.785	19.16
181.168	-6.34
181.55	-424.48
181.933	39.04
182.316	78.89
182.698	45.19
183.081	-8.66
183.463	378.35
183.846	358.79
184.228	4454.84
184.611	-577.42
184.993	-1781.36
185.376	-131.42
185.758	-336.01
186.14	-690.79
186.522	-527.01
186.904	4634.88
187.287	-833.01
187.669	1821.89
188.051	-1303.94
188.433	2062.41
188.815	318.72
189.197	361.3
189.579	346.7
189.961	297.2
190.342	252.54
190.724	303.8
191.106	391.11
191.488	1739.68
191.869	-3218.58
192.251	982.35
192.633	-23627.27
193.014	2107.87
193.396	278.11
193.777	725.38
194.159	679.66
194.54	486.42
194.922	5059.18
195.303	805.33
195.684	1210.5
196.065	950.16
196.447	1068.05
196.828	706.65
197.209	1608.29
197.59	-6831.03
197.971	-1351.61
198.352	715.64
198.733	261.99
199.114	152.77
199.495	163.19
199.876	134.38
200.257	144.65
200.638	134.52
201.018	132.63
201.399	172.56
201.78	124.7
202.16	117.19
202.541	63.89
202.922	33.09
203.302	3.77
203.683	24.07
204.063	17.1
204.444	-7.24
204.824	0.12
205.204	1.61
205.585	30.65
205.965	69.55
206.345	169.26
206.725	367.47
207.106	1147.34
207.486	-890.15
207.866	-474.91
208.246	-229.43
208.626	-188.83
209.006	-925.81
209.386	-759.46
209.766	-1881.13
210.145	-164.92
210.525	-969.93
210.905	473.96
211.285	360.18
211.664	175.08
212.044	112.54
212.424	98.52
212.803	92.71
213.183	73.02
213.562	65.65
213.942	53.57
214.321	53.68
214.701	36.09
215.08	19.69
215.459	-2.3
215.838	17.96
216.218	14.86
216.597	36.34
216.976	22.54
217.355	18.5
217.734	21.11
218.113	34.12
218.492	37.51
218.871	34.91
219.25	28.26
219.629	24.53
220.008	24.47
220.387	13.33
220.766	13.81
221.144	10.71
221.523	5.94
221.902	-3.71
222.28	0.98
222.659	5.92
223.037	-1.83
223.416	-8.42
223.794	-13.61
224.173	-13.3
224.551	-16.27
224.929	-12.43
225.308	-8.24
225.686	-0.77
226.064	0.01
226.442	2.13
226.821	6.53
227.199	9.82
227.577	12.15
227.955	7.68
228.333	10
228.711	10.07
229.089	9.77
229.467	8.82
229.845	6.59
230.222	7.03
230.6	5.88
230.978	8.32
231.356	12.08
231.733	10.55
232.111	8.75
232.488	9.51
232.866	9.33
233.243	10.05
233.621	7.03
233.998	5.86
234.376	4.22
234.753	1.92
235.13	1.01
235.508	0.09
235.885	-0.6
236.262	-0.81
236.639	-0.19
237.016	-0.63
237.393	-0.22
237.77	-0.11
238.147	-0.55
238.524	0.01
238.901	-0.29
239.278	-0.37
239.655	1.26
240.032	2.03
240.409	1.68
240.785	1.5
241.162	1.24
241.539	2.23
241.915	2.51
242.292	2.04
242.668	2.64
243.045	2.81
243.421	3.02
243.798	3.3
244.174	3.53
244.551	3.39
244.927	3.45
245.303	3.68
245.679	4.03
246.056	4.1
246.432	4.44
246.808	4.35
247.184	4.02
247.56	3.8
247.936	3.74
248.312	3.85
248.688	3.94
249.064	3.97
249.44	3.84
249.815	3.9
250.191	4.26
250.567	4.13
250.943	4.11
251.318	4.13
251.694	4.32
252.069	3.95
252.445	4.19
252.82	4.34
253.196	4.2
253.571	4.23
253.947	4.14
254.322	3.84
254.697	4.03
255.073	3.95
255.448	3.53
255.823	3.33
256.198	3.36
256.573	3.49
256.948	3.44
257.323	3.39
257.698	3.31
258.073	3.37
258.448	3.22
258.823	3.28
259.198	3.23
259.573	3.02
259.948	3.2
260.322	3.21
260.697	3.1
261.072	3.07
261.446	2.98
261.821	2.97
262.195	2.97
262.57	2.86
262.944	2.98
263.319	3.24
263.693	3.21
264.067	3.26
264.442	3.25
264.816	3.23
265.19	3.19
265.564	3.24
265.938	3
266.313	3.08
266.687	3.11
267.061	3.33
267.435	3.57
267.809	3.57
268.183	3.38
268.556	3.36
268.93	3.33
269.304	3.34
269.678	3.55
270.051	3.6
270.425	3.71
270.799	3.74
271.172	3.66
271.546	3.55
271.919	3.4
272.293	3.43
272.666	3.46
273.04	3.65
273.413	3.44
273.787	3.54
274.16	3.55
274.533	3.47
274.906	3.36
275.279	3.26
275.653	3.4
276.026	3.45
276.399	3.67
276.772	3.83
277.145	3.62
277.518	3.49
277.891	3.66
278.263	3.53
278.636	3.51
279.009	3.51
279.382	3.91
279.755	4.02
280.127	4.08
280.5	4.12
280.872	3.95
281.245	4.07
281.617	4.11
281.99	4.37
282.362	4.39
282.735	4.37
283.107	4.33
283.479	4.19
283.852	4.24
284.224	4.01
284.596	3.95
284.968	4.23
285.34	4.3
285.713	4.12
286.085	4.17
286.457	4.14
286.829	4.19
287.201	4.02
287.572	3.96
287.944	3.79
288.316	3.73
288.688	3.76
289.06	3.68
289.431	3.71
289.803	3.52
290.175	3.52
290.546	3.58
290.918	3.61
291.289	3.54
291.661	3.47
292.032	3.67
292.403	3.65
292.775	3.59
293.146	3.58
293.517	3.53
293.889	3.58
294.26	3.71
294.631	3.58
295.002	3.56
295.373	3.61
295.744	3.78
296.115	3.76
296.486	3.69
296.857	3.76
297.228	3.76
297.599	3.75
297.97	3.71
298.34	3.76
298.711	3.72
299.082	3.8
299.452	3.91
299.823	3.93
300.194	4.12
300.564	3.99
300.935	3.99
301.305	4
301.676	4.1
302.046	4.24
302.416	4.46
302.787	4.5
303.157	4.49
303.527	4.62
303.897	4.83
304.267	5.08
304.637	5.13
305.008	5.24
305.378	5.35
305.748	5.55
306.117	5.49
306.487	5.73
306.857	5.87
307.227	5.86
307.597	5.79
307.967	5.88
308.336	6.12
308.706	6.23
309.076	6.45
309.445	6.41
309.815	6.26
310.184	6.24
310.554	6.4
310.923	6.4
311.293	6.24
311.662	6.27
312.031	6.22
312.401	6.45
312.77	6.4
313.139	6.52
313.508	6.52
313.877	6.74
314.246	6.78
314.616	6.75
314.985	6.77
315.353	6.87
315.722	6.78
316.091	6.73
316.46	6.68
316.829	6.68
317.198	6.87
317.567	7.05
317.935	7.04
318.304	7.07
318.672	7.12
319.041	7.5
319.41	7.6
319.778	7.72
320.147	7.69
320.515	7.79
320.883	7.69
321.252	7.86
321.62	7.85
321.988	7.85
322.357	7.86
322.725	7.85
323.093	8.13
323.461	8.2
323.829	8.36
324.197	8.56
324.565	8.66
324.933	8.58
325.301	8.5
325.669	8.68
326.037	8.87
326.405	9.02
326.772	8.99
327.14	9.06
327.508	9.11
327.875	9.06
328.243	9.23
328.61	9.48
328.978	9.51
329.346	9.55
329.713	9.49
330.08	9.63
330.448	9.74
330.815	9.54
331.182	9.53
331.55	9.48
331.917	9.46
332.284	9.51
332.651	9.54
333.018	9.66
333.385	9.47
333.752	9.34
334.119	9.35
334.486	9.14
334.853	9.17
335.22	9.17
335.587	9.33
335.954	9.29
336.32	9.15
336.687	9.18
337.054	9.19
337.42	9.22
337.787	9.32
338.153	9.37
338.52	9.52
338.886	9.65
339.253	9.74
339.619	9.68
339.986	9.68
340.352	9.72
340.718	9.63
341.084	9.88
341.451	9.97
341.817	10.07
342.183	10.14
342.549	10.04
342.915	10.13
343.281	10.12
343.647	10.15
344.013	10.22
344.379	10.1
344.745	10.15
345.11	10.29
345.476	10.33
345.842	10.38
346.208	10.42
346.573	10.38
346.939	10.38
347.304	10.53
347.67	10.48
348.035	10.47
348.401	10.53
348.766	10.48
349.132	10.52
349.497	10.46
349.862	10.64
350.228	10.65
350.593	10.51
350.958	10.45
351.323	10.51
351.688	10.5
352.053	10.62
352.418	10.62
352.783	10.69
353.148	10.58
353.513	10.54
353.878	10.58
354.243	10.66
354.608	10.62
354.972	10.55
355.337	10.57
355.702	10.63
356.066	10.68
356.431	10.67
356.795	10.68
357.16	10.69
357.524	10.5
357.889	10.54
358.253	10.69
358.618	10.75
358.982	10.62
359.346	10.61
359.71	10.54
360.075	10.51
360.439	10.39
360.803	10.43
361.167	10.45
361.531	10.35
361.895	10.29
362.259	10.29
362.623	10.23
362.987	10.18
363.351	10.13
363.714	10.11
364.078	10.09
364.442	10
364.806	9.88
365.169	9.87
365.533	9.88
365.896	9.75
366.26	9.64
366.623	9.59
366.987	9.57
367.35	9.6
367.714	9.55
368.077	9.54
368.44	9.53
368.803	9.53
369.167	9.46
369.53	9.33
369.893	9.31
370.256	9.31
370.619	9.29
370.982	9.23
371.345	9.19
371.708	9.13
372.071	9.16
372.434	9.23
372.797	9.23
373.159	9.12
373.522	9.1
373.885	9.05
374.247	9.1
374.61	9.07
374.973	8.96
375.335	8.9
375.698	8.84
376.06	8.74
376.423	8.65
376.785	8.59
377.147	8.59
377.51	8.54
377.872	8.47
378.234	8.43
378.596	8.42
378.958	8.31
379.321	8.29
379.683	8.19
380.045	8.1
380.407	8.02
380.769	7.98
381.13	7.93
381.492	7.89
381.854	7.76
382.216	7.67
382.578	7.59
382.939	7.5
383.301	7.46
383.663	7.36
384.024	7.29
384.386	7.3
384.747	7.3
385.109	7.26
385.47	7.19
385.832	7.18
386.193	7.17
386.554	7.17
386.916	7.11
387.277	7.1
387.638	7.08
387.999	7.04
388.36	7.02
388.721	6.99
389.082	6.97
389.443	6.97
389.804	6.94
390.165	6.91
390.526	6.87
390.887	6.83
391.248	6.87
391.609	6.84
391.969	6.77
392.33	6.72
392.691	6.66
393.051	6.66
393.412	6.63
393.772	6.54
394.133	6.47
394.493	6.42
394.854	6.38
395.214	6.33
395.574	6.32
395.935	6.25
396.295	6.2
396.655	6.13
397.015	6.07
397.376	6.06
397.736	6.08
398.096	6.05
398.456	6.06
398.816	6.01
399.176	5.96
399.535	5.93
399.895	5.87
400.255	5.84
400.615	5.82
400.975	5.73
401.334	5.7
401.694	5.68
402.054	5.61
402.413	5.57
402.773	5.5
403.132	5.44
403.492	5.43
403.851	5.4
404.211	5.42
404.57	5.41
404.929	5.36
405.288	5.29
405.648	5.25
406.007	5.17
406.366	5.13
406.725	5.12
407.084	5.1
407.443	5.1
407.802	5.1
408.161	5.06
408.52	5.04
408.879	5.01
409.238	5.01
409.596	5
409.955	4.98
410.314	5.01
410.673	4.97
411.031	4.94
411.39	4.93
411.748	4.93
412.107	4.93
412.465	4.91
412.824	4.92
413.182	4.92
413.54	4.92
413.899	4.92
414.257	4.93
414.615	4.9
414.974	4.87
415.332	4.82
415.69	4.77
416.048	4.78
416.406	4.76
416.764	4.71
417.122	4.71
417.48	4.66
417.838	4.62
418.195	4.63
418.553	4.62
418.911	4.59
419.269	4.56
419.626	4.52
419.984	4.47
420.342	4.46
420.699	4.44
421.057	4.41
421.414	4.37
421.772	4.34
422.129	4.33
422.486	4.31
422.844	4.29
423.201	4.27
423.558	4.24
423.915	4.23
424.273	4.23
424.63	4.2
424.987	4.19
425.344	4.18
425.701	4.15
426.058	4.14
426.415	4.1
426.772	4.08
427.128	4.08
427.485	4.1
427.842	4.04
428.199	4.03
428.555	4.01
428.912	4.02
429.269	3.98
429.625	3.97
429.982	3.96
430.338	3.94
430.695	3.95
431.051	3.95
431.407	3.94
431.764	3.93
432.12	3.94
432.476	3.95
432.832	3.92
433.189	3.91
433.545	3.9
433.901	3.9
434.257	3.88
434.613	3.88
434.969	3.9
435.325	3.91
435.681	3.9
436.036	3.9
436.392	3.88
436.748	3.89
437.104	3.87
437.459	3.88
437.815	3.89
438.171	3.91
438.526	3.92
438.882	3.94
439.237	3.94
439.593	3.94
439.948	3.93
440.304	3.95
440.659	3.96
441.014	3.96
441.369	3.95
441.725	3.94
442.08	3.92
442.435	3.91
442.79	3.91
443.145	3.91
443.5	3.91
443.855	3.91
444.21	3.9
444.565	3.91
444.92	3.91
445.275	3.88
445.629	3.86
445.984	3.85
446.339	3.82
446.693	3.8
447.048	3.76
447.403	3.75
447.757	3.73
448.112	3.7
448.466	3.68
448.82	3.7
449.175	3.69
449.529	3.71
449.883	3.69
450.238	3.68
450.592	3.68
450.946	3.66
451.3	3.65
451.654	3.65
452.008	3.64
452.362	3.63
452.716	3.62
453.07	3.61
453.424	3.62
453.778	3.61
454.132	3.6
454.486	3.6
454.839	3.59
455.193	3.58
455.547	3.59
455.9	3.59
456.254	3.6
456.607	3.61
456.961	3.6
457.314	3.6
457.668	3.61
458.021	3.6
458.375	3.62
458.728	3.62
459.081	3.61
459.434	3.61
459.787	3.61
460.141	3.63
460.494	3.64
460.847	3.63
461.2	3.63
461.553	3.66
461.906	3.67
462.259	3.7
462.611	3.72
462.964	3.75
463.317	3.76
463.67	3.76
464.022	3.74
464.375	3.75
464.728	3.76
465.08	3.76
465.433	3.77
465.785	3.77
466.138	3.79
466.49	3.81
466.843	3.81
467.195	3.83
467.547	3.84
467.899	3.85
468.252	3.86
468.604	3.89
468.956	3.88
469.308	3.91
469.66	3.91
470.012	3.93
470.364	3.93
470.716	3.94
471.068	3.95
471.42	3.97
471.772	3.99
472.123	4.03
472.475	4.04
472.827	4.04
473.178	4.06
473.53	4.05
473.882	4.06
474.233	4.1
474.585	4.08
474.936	4.09
475.288	4.09
475.639	4.09
475.99	4.09
476.342	4.1
476.693	4.08
477.044	4.09
477.395	4.08
477.746	4.09
478.097	4.09
478.448	4.1
478.8	4.09
479.15	4.06
479.501	4.06
479.852	4.05
480.203	4.06
480.554	4.07
480.905	4.08
481.255	4.07
481.606	4.08
481.957	4.08
482.307	4.08
482.658	4.09
483.009	4.09
483.359	4.1
483.709	4.1
484.06	4.1
484.41	4.11
484.761	4.11
485.111	4.1
485.461	4.09
485.811	4.08
486.162	4.1
486.512	4.11
486.862	4.1
487.212	4.1
487.562	4.1
487.912	4.08
488.262	4.07
488.612	4.08
488.961	4.06
489.311	4.08
489.661	4.08
490.011	4.07
490.36	4.06
490.71	4.07
491.06	4.07
491.409	4.07
491.759	4.07
492.108	4.09
492.458	4.1
492.807	4.12
493.157	4.14
493.506	4.16
493.855	4.17
494.204	4.17
494.554	4.19
494.903	4.22
495.252	4.25
495.601	4.29
495.95	4.32
496.299	4.34
496.648	4.34
496.997	4.38
497.346	4.43
497.695	4.47
498.043	4.49
498.392	4.51
498.741	4.56
499.09	4.58
499.438	4.63
499.787	4.66
500.135	4.69
500.484	4.72
500.832	4.75
501.181	4.82
501.529	4.88
501.878	4.97
502.226	5.02
502.574	5.08
502.923	5.13
503.271	5.19
503.619	5.29
503.967	5.39
504.315	5.45
504.663	5.5
505.011	5.61
505.359	5.68
505.707	5.79
506.055	5.85
506.403	5.94
506.751	6.03
507.098	6.13
507.446	6.21
507.794	6.33
508.141	6.42
508.489	6.51
508.837	6.61
509.184	6.69
509.531	6.79
509.879	6.9
510.226	7.03
510.574	7.13
510.921	7.25
511.268	7.33
511.616	7.45
511.963	7.57
512.31	7.65
512.657	7.77
513.004	7.87
513.351	7.98
513.698	8.12
514.045	8.22
514.392	8.33
514.739	8.46
515.086	8.6
515.432	8.74
515.779	8.87
516.126	8.99
516.473	9.12
516.819	9.24
517.166	9.36
517.512	9.44
517.859	9.58
518.205	9.68
518.552	9.8
518.898	9.88
519.245	9.98
519.591	10.1
519.937	10.22
520.283	10.34
520.629	10.5
520.976	10.64
521.322	10.78
521.668	10.92
522.014	11.07
522.36	11.21
522.706	11.34
523.052	11.49
523.398	11.65
523.743	11.8
524.089	11.97
524.435	12.12
524.781	12.27
525.126	12.39
525.472	12.53
525.817	12.65
526.163	12.78
526.509	12.91
526.854	13.02
527.199	13.14
527.545	13.23
527.89	13.32
528.235	13.43
528.581	13.54
528.926	13.66
529.271	13.77
529.616	13.86
529.961	13.98
530.306	14.09
530.651	14.21
530.996	14.34
531.341	14.47
531.686	14.6
532.031	14.75
532.376	14.9
532.721	15.05
533.065	15.19
533.41	15.34
533.755	15.51
534.099	15.66
534.444	15.81
534.788	15.97
535.133	16.12
535.477	16.26
535.822	16.43
536.166	16.6
536.51	16.79
536.855	17
537.199	17.22
537.543	17.42
537.887	17.64
538.231	17.85
538.576	18.08
538.92	18.31
539.264	18.5
539.608	18.7
539.951	18.89
540.295	19.07
540.639	19.23
540.983	19.42
541.327	19.6
541.671	19.77
542.014	19.95
542.358	20.11
542.701	20.28
543.045	20.44
543.389	20.62
543.732	20.79
544.075	20.97
544.419	21.15
544.762	21.38
545.105	21.57
545.449	21.79
545.792	22.01
546.135	22.23
546.478	22.48
546.821	22.75
547.165	23.01
547.508	23.29
547.851	23.59
548.194	23.8
548.536	24.06
548.879	24.35
549.222	24.61
549.565	24.91
549.908	25.19
550.25	25.49
550.593	25.77
550.936	26.08
551.278	26.34
551.621	26.56
551.963	26.84
552.306	27.1
552.648	27.4
552.991	27.64
553.333	27.88
553.675	28.17
554.017	28.4
554.36	28.66
554.702	28.89
555.044	29.1
555.386	29.33
555.728	29.59
556.07	29.86
556.412	30.15
556.754	30.39
557.096	30.64
557.438	30.9
557.78	31.21
558.121	31.48
558.463	31.79
558.805	32.17
559.147	32.39
559.488	32.64
559.83	32.87
560.171	33.17
560.513	33.47
560.854	33.68
561.196	33.94
561.537	34.15
561.878	34.39
562.22	34.62
562.561	34.91
562.902	35.14
563.243	35.32
563.584	35.57
563.925	35.84
564.266	36.05
564.607	36.27
564.948	36.45
565.289	36.67
565.63	36.9
565.971	37.04
566.312	37.28
566.653	37.5
566.993	37.72
567.334	37.86
567.675	38.05
568.015	38.25
568.356	38.42
568.696	38.59
569.037	38.84
569.377	39.06
569.718	39.21
570.058	39.36
570.398	39.62
570.739	39.75
571.079	39.95
571.419	40.12
571.759	40.3
572.099	40.48
572.439	40.62
572.779	40.78
573.119	40.96
573.459	41.09
573.799	41.26
574.139	41.42
574.479	41.62
574.819	41.77
575.158	41.94
575.498	42.1
575.838	42.29
576.177	42.41
576.517	42.5
576.856	42.69
577.196	42.91
577.535	42.98
577.875	43.14
578.214	43.24
578.553	43.44
578.893	43.6
579.232	43.82
579.571	43.99
579.91	44.07
580.25	44.22
580.589	44.36
580.928	44.54
581.267	44.71
581.606	44.82
581.945	44.93
582.283	45.06
582.622	45.26
582.961	45.38
583.3	45.46
583.639	45.69
583.977	45.8
584.316	45.89
584.654	46.04
584.993	46.18
585.332	46.33
585.67	46.43
586.008	46.53
586.347	46.62
586.685	46.77
587.024	46.91
587.362	47.01
587.7	47.13
588.038	47.23
588.376	47.28
588.715	47.32
589.053	47.52
589.391	47.65
589.729	47.68
590.067	47.82
590.404	47.98
590.742	48.11
591.08	48.23
591.418	48.32
591.756	48.4
592.093	48.49
592.431	48.54
592.769	48.66
593.106	48.69
593.444	48.68
593.781	48.72
594.119	48.74
594.456	48.86
594.793	48.89
595.131	48.89
595.468	48.98
595.805	49.1
596.143	49.11
596.48	49.14
596.817	49.24
597.154	49.22
597.491	49.26
597.828	49.31
598.165	49.35
598.502	49.4
598.839	49.5
599.176	49.6
599.512	49.6
599.849	49.61
600.186	49.7
600.523	49.81
600.859	49.87
601.196	50.01
601.532	50
601.869	50.07
602.205	50.11
602.542	50.07
602.878	50.09
603.215	50.09
603.551	50.17
603.887	50.12
604.223	50.25
604.56	50.25
604.896	50.27
605.232	50.39
605.568	50.43
605.904	50.4
606.24	50.45
606.576	50.56
606.912	50.65
607.248	50.65
607.583	50.72
607.919	50.81
608.255	50.79
608.591	50.89
608.926	50.97
609.262	51.06
609.597	51.21
609.933	51.28
610.268	51.39
610.604	51.37
610.939	51.5
611.275	51.54
611.61	51.65
611.945	51.73
612.281	51.67
612.616	51.76
612.951	51.85
613.286	51.87
613.621	51.9
613.956	51.9
614.291	52.04
614.626	52.06
614.961	52.15
615.296	52.18
615.631	52.16
615.966	52.23
616.3	52.3
616.635	52.35
616.97	52.39
617.304	52.45
617.639	52.55
617.973	52.47
618.308	52.44
618.642	52.45
618.977	52.46
619.311	52.58
619.646	52.67
619.98	52.71
620.314	52.81
620.648	52.87
620.983	52.98
621.317	53.02
621.651	53.11
621.985	53.06
622.319	53.25
622.653	53.35
622.987	53.41
623.321	53.45
623.655	53.42
623.988	53.44
624.322	53.39
624.656	53.35
624.99	53.43
625.323	53.51
625.657	53.56
625.99	53.58
626.324	53.61
626.657	53.62
626.991	53.64
627.324	53.58
627.658	53.62
627.991	53.61
628.324	53.58
628.657	53.58
628.991	53.58
629.324	53.49
629.657	53.51
629.99	53.43
630.323	53.35
630.656	53.37
630.989	53.38
631.322	53.4
631.655	53.44
631.987	53.44
632.32	53.45
632.653	53.54
632.986	53.63
633.318	53.55
633.651	53.5
633.984	53.62
634.316	53.66
634.649	53.66
634.981	53.62
635.313	53.64
635.646	53.67
635.978	53.7
636.31	53.81
636.643	53.76
636.975	53.8
637.307	53.92
637.639	53.98
637.971	54.03
638.303	54.12
638.635	54.16
638.967	54.26
639.299	54.23
639.631	54.04
639.963	53.95
640.295	54.03
640.626	54.05
640.958	54.04
641.29	54.16
641.621	54.1
641.953	54.16
642.285	54.09
642.616	54.15
642.948	54.12
643.279	54.08
643.61	54.11
643.942	54.21
644.273	54.32
644.604	54.34
644.936	54.38
645.267	54.45
645.598	54.51
645.929	54.49
646.26	54.63
646.591	54.76
646.922	54.8
647.253	54.79
647.584	54.81
647.915	54.78
648.245	54.69
648.576	54.8
648.907	54.87
649.238	55.06
649.568	55.15
649.899	55.24
650.229	55.12
650.56	55.22
650.89	55.19
651.221	55.04
651.551	55.04
651.882	55.08
652.212	55.14
652.542	55.16
652.872	55.21
653.203	55.19
653.533	55.21
653.863	55.16
654.193	55.26
654.523	55.28
654.853	55.22
655.183	55.38
655.513	55.34
655.843	55.42
656.172	55.46
656.502	55.41
656.832	55.45
657.162	55.65
657.491	55.67
657.821	55.66
658.15	55.73
658.48	55.7
658.809	55.61
659.139	55.58
659.468	55.56
659.798	55.54
660.127	55.56
660.456	55.58
660.785	55.75
661.115	55.66
661.444	55.67
661.773	55.71
662.102	55.62
662.431	55.64
662.76	55.62
663.089	55.61
663.418	55.71
663.747	55.67
664.076	55.55
664.404	55.51
664.733	55.62
665.062	55.72
665.39	55.83
665.719	55.9
