Data from BU26944_Reflection_00014.txt Node
Date: Tue Nov 19 10:54:57 EST 2019
User: vgr7
Spectrometer: USB2G7710
Scans to average: 3
Trigger mode: 4
Integration Time (sec): 2.000000E-2
Electric dark correction enabled: true
Boxcar width: 10
XAxis mode: Wavelengths
Number of Pixels in Spectrum: 2048
>>>>>Begin Spectral Data<<<<<
177.721	220.21
178.105	356.64
178.488	248.17
178.871	525.71
179.254	-1240
179.636	-82.57
180.019	-162.68
180.402	-650
180.785	23.53
181.168	72.33
181.55	179.4
181.933	162.98
182.316	130.51
182.698	97.64
183.081	78.35
183.463	166.61
183.846	275.24
184.228	216.97
184.611	-2994.59
184.993	-554.29
185.376	-693.23
185.758	973.49
186.14	1305.26
186.522	-371.56
186.904	-154.22
187.287	-69.34
187.669	-44.8
188.051	-54.94
188.433	-71.8
188.815	-51.76
189.197	-31.06
189.579	-34.63
189.961	-42.26
190.342	-20.01
190.724	-34.89
191.106	-56.57
191.488	-43.88
191.869	-52.98
192.251	-41.55
192.633	-25.75
193.014	-30.59
193.396	-28.66
193.777	-45.75
194.159	-37.86
194.54	-70.62
194.922	-88.09
195.303	-105.75
195.684	-115.65
196.065	-107.55
196.447	-103.13
196.828	-101.74
197.209	-119.31
197.59	-99.81
197.971	-96.17
198.352	-94.85
198.733	-86.99
199.114	-74.57
199.495	-86.07
199.876	-95.84
200.257	-114.45
200.638	-106.6
201.018	-124.57
201.399	-110.83
201.78	-83.83
202.16	-99.16
202.541	-83.09
202.922	-80.04
203.302	-57.05
203.683	-58.97
204.063	-66.88
204.444	-56.34
204.824	-56.23
205.204	-31.43
205.585	-35.98
205.965	-45.56
206.345	-47.82
206.725	-46.38
207.106	-49.41
207.486	-48.54
207.866	-26.02
208.246	19.87
208.626	5.61
209.006	-8.79
209.386	-2.63
209.766	-25.86
210.145	-20.58
210.525	-53.74
210.905	-17.52
211.285	-1.61
211.664	11.53
212.044	14.04
212.424	27.31
212.803	8.43
213.183	15.7
213.562	38.69
213.942	37.22
214.321	28.57
214.701	14.65
215.08	-0.96
215.459	-0.27
215.838	-10.19
216.218	-69.4
216.597	-8.27
216.976	3.31
217.355	-6.39
217.734	-22.82
218.113	-13.5
218.492	-14.95
218.871	-16
219.25	-31.37
219.629	-84.61
220.008	-82.65
220.387	-122.69
220.766	-35.18
221.144	-73.34
221.523	-154.43
221.902	-91.48
222.28	-46.39
222.659	-7.7
223.037	-20.01
223.416	-14
223.794	-15.72
224.173	-19.92
224.551	-14.02
224.929	-13.24
225.308	-12.57
225.686	-11.78
226.064	-6.37
226.442	-0.2
226.821	-3.56
227.199	-1.06
227.577	0.47
227.955	1.47
228.333	-2.08
228.711	-1.64
229.089	-2.34
229.467	-2.06
229.845	-2.85
230.222	-4.45
230.6	-6.82
230.978	-2.45
231.356	-1.39
231.733	0.65
232.111	0.91
232.488	-1.66
232.866	0.01
233.243	-1.91
233.621	-0.6
233.998	-2.1
234.376	-2.41
234.753	-3.14
235.13	-5.26
235.508	-4.81
235.885	-6.02
236.262	-5.37
236.639	-4.82
237.016	-4.51
237.393	-2.28
237.77	-1.19
238.147	0.26
238.524	1.52
238.901	0.66
239.278	0.71
239.655	0.07
240.032	0.35
240.409	0.58
240.785	-0.45
241.162	0.35
241.539	0.43
241.915	0.25
242.292	0.32
242.668	0.9
243.045	1.43
243.421	2.01
243.798	2.17
244.174	2.58
244.551	2.34
244.927	2.49
245.303	2.38
245.679	2.31
246.056	2.25
246.432	2.24
246.808	2.15
247.184	2.46
247.56	2.27
247.936	2.28
248.312	2.57
248.688	2.72
249.064	2.71
249.44	2.76
249.815	2.9
250.191	3.06
250.567	2.85
250.943	2.69
251.318	2.46
251.694	2.38
252.069	2.26
252.445	2.16
252.82	2.23
253.196	2.15
253.571	2.27
253.947	2.01
254.322	1.79
254.697	1.95
255.073	1.67
255.448	1.84
255.823	2
256.198	1.71
256.573	2.02
256.948	1.93
257.323	2.01
257.698	1.99
258.073	1.99
258.448	2.14
258.823	2.13
259.198	2.2
259.573	2.09
259.948	2.07
260.322	2.06
260.697	2.08
261.072	2.15
261.446	2.12
261.821	2.08
262.195	2.1
262.57	2.12
262.944	2.16
263.319	2.24
263.693	2.27
264.067	2.31
264.442	2.31
264.816	2.34
265.19	2.36
265.564	2.62
265.938	2.54
266.313	2.4
266.687	2.53
267.061	2.31
267.435	2.57
267.809	2.66
268.183	2.84
268.556	2.59
268.93	2.82
269.304	2.77
269.678	2.99
270.051	3
270.425	3.05
270.799	2.84
271.172	2.75
271.546	2.78
271.919	2.72
272.293	2.76
272.666	2.95
273.04	2.82
273.413	2.69
273.787	2.76
274.16	2.76
274.533	2.66
274.906	2.93
275.279	2.96
275.653	3
276.026	2.94
276.399	3.23
276.772	3.13
277.145	3.19
277.518	3.04
277.891	3.11
278.263	3.28
278.636	3.43
279.009	3.41
279.382	3.33
279.755	3.44
280.127	3.23
280.5	3.14
280.872	3.09
281.245	3.09
281.617	3.21
281.99	3.23
282.362	3.39
282.735	3.31
283.107	3.33
283.479	3.33
283.852	3.31
284.224	3.18
284.596	3
284.968	2.93
285.34	2.93
285.713	2.98
286.085	2.84
286.457	2.89
286.829	2.93
287.201	3.03
287.572	2.96
287.944	2.95
288.316	2.92
288.688	3.16
289.06	3.12
289.431	3.1
289.803	3.17
290.175	3.01
290.546	3.04
290.918	2.94
291.289	2.84
291.661	2.87
292.032	2.92
292.403	2.96
292.775	3.1
293.146	3.13
293.517	2.99
293.889	3.04
294.26	3.01
294.631	3.17
295.002	3.13
295.373	3.2
295.744	3.32
296.115	3.38
296.486	3.28
296.857	3.38
297.228	3.31
297.599	3.3
297.97	3.43
298.34	3.46
298.711	3.55
299.082	3.63
299.452	3.59
299.823	3.57
300.194	3.64
300.564	3.48
300.935	3.56
301.305	3.75
301.676	3.71
302.046	3.71
302.416	3.66
302.787	3.67
303.157	3.66
303.527	3.7
303.897	3.58
304.267	3.69
304.637	3.61
305.008	3.68
305.378	3.73
305.748	3.72
306.117	3.76
306.487	3.66
306.857	3.76
307.227	3.92
307.597	3.95
307.967	3.95
308.336	4.11
308.706	4.07
309.076	4.12
309.445	4.24
309.815	4.34
310.184	4.26
310.554	4.29
310.923	4.3
311.293	4.38
311.662	4.4
312.031	4.36
312.401	4.37
312.77	4.41
313.139	4.55
313.508	4.54
313.877	4.49
314.246	4.55
314.616	4.55
314.985	4.54
315.353	4.6
315.722	4.78
316.091	4.8
316.46	4.9
316.829	4.77
317.198	4.84
317.567	4.97
317.935	5.2
318.304	5.24
318.672	5.26
319.041	5.29
319.41	5.4
319.778	5.45
320.147	5.5
320.515	5.55
320.883	5.36
321.252	5.43
321.62	5.58
321.988	5.57
322.357	5.59
322.725	5.53
323.093	5.54
323.461	5.58
323.829	5.65
324.197	5.57
324.565	5.72
324.933	5.65
325.301	5.44
325.669	5.41
326.037	5.4
326.405	5.6
326.772	5.56
327.14	5.6
327.508	5.65
327.875	5.72
328.243	5.65
328.61	5.7
328.978	5.65
329.346	5.71
329.713	5.81
330.08	5.87
330.448	5.93
330.815	6.03
331.182	5.88
331.55	5.86
331.917	5.94
332.284	5.94
332.651	5.95
333.018	5.98
333.385	5.96
333.752	5.94
334.119	5.98
334.486	6
334.853	6.06
335.22	6.03
335.587	6.15
335.954	6.28
336.32	6.46
336.687	6.59
337.054	6.47
337.42	6.42
337.787	6.36
338.153	6.43
338.52	6.47
338.886	6.58
339.253	6.63
339.619	6.6
339.986	6.52
340.352	6.56
340.718	6.62
341.084	6.66
341.451	6.73
341.817	6.67
342.183	6.7
342.549	6.64
342.915	6.63
343.281	6.62
343.647	6.62
344.013	6.46
344.379	6.39
344.745	6.45
345.11	6.5
345.476	6.62
345.842	6.62
346.208	6.62
346.573	6.65
346.939	6.66
347.304	6.8
347.67	6.87
348.035	7.02
348.401	7.1
348.766	7.1
349.132	7.11
349.497	7.12
349.862	7.14
350.228	7.21
350.593	7.21
350.958	7.17
351.323	7.08
351.688	7.13
352.053	7.24
352.418	7.23
352.783	7.22
353.148	7.09
353.513	7.11
353.878	7.12
354.243	7.01
354.608	7.01
354.972	6.93
355.337	7.02
355.702	6.89
356.066	6.94
356.431	6.97
356.795	6.95
357.16	6.93
357.524	6.87
357.889	6.84
358.253	6.84
358.618	6.87
358.982	6.89
359.346	6.94
359.71	6.95
360.075	6.97
360.439	7.02
360.803	7.07
361.167	6.98
361.531	6.95
361.895	7.04
362.259	7.05
362.623	7.02
362.987	6.88
363.351	6.91
363.714	6.87
364.078	6.83
364.442	6.82
364.806	6.83
365.169	6.82
365.533	6.87
365.896	6.91
366.26	6.84
366.623	6.81
366.987	6.76
367.35	6.71
367.714	6.63
368.077	6.62
368.44	6.6
368.803	6.63
369.167	6.57
369.53	6.5
369.893	6.47
370.256	6.44
370.619	6.47
370.982	6.33
371.345	6.27
371.708	6.28
372.071	6.19
372.434	6.19
372.797	6.19
373.159	6.14
373.522	6.07
373.885	6.05
374.247	6.02
374.61	6.03
374.973	5.99
375.335	6.03
375.698	5.93
376.06	5.87
376.423	5.82
376.785	5.82
377.147	5.81
377.51	5.72
377.872	5.67
378.234	5.61
378.596	5.57
378.958	5.54
379.321	5.5
379.683	5.5
380.045	5.4
380.407	5.35
380.769	5.27
381.13	5.23
381.492	5.16
381.854	5.17
382.216	5.12
382.578	5.07
382.939	5.03
383.301	4.98
383.663	4.95
384.024	4.94
384.386	4.89
384.747	4.81
385.109	4.78
385.47	4.8
385.832	4.78
386.193	4.83
386.554	4.8
386.916	4.75
387.277	4.7
387.638	4.67
387.999	4.64
388.36	4.64
388.721	4.61
389.082	4.64
389.443	4.6
389.804	4.59
390.165	4.59
390.526	4.56
390.887	4.53
391.248	4.48
391.609	4.48
391.969	4.49
392.33	4.47
392.691	4.46
393.051	4.45
393.412	4.44
393.772	4.41
394.133	4.39
394.493	4.39
394.854	4.37
395.214	4.36
395.574	4.35
395.935	4.29
396.295	4.3
396.655	4.26
397.015	4.25
397.376	4.21
397.736	4.16
398.096	4.15
398.456	4.12
398.816	4.09
399.176	4.02
399.535	3.98
399.895	3.97
400.255	3.94
400.615	3.91
400.975	3.87
401.334	3.83
401.694	3.84
402.054	3.78
402.413	3.8
402.773	3.79
403.132	3.77
403.492	3.79
403.851	3.72
404.211	3.68
404.57	3.65
404.929	3.63
405.288	3.64
405.648	3.6
406.007	3.61
406.366	3.6
406.725	3.59
407.084	3.6
407.443	3.6
407.802	3.6
408.161	3.57
408.52	3.58
408.879	3.58
409.238	3.54
409.596	3.56
409.955	3.52
410.314	3.52
410.673	3.51
411.031	3.48
411.39	3.52
411.748	3.53
412.107	3.5
412.465	3.51
412.824	3.49
413.182	3.48
413.54	3.49
413.899	3.47
414.257	3.46
414.615	3.44
414.974	3.43
415.332	3.42
415.69	3.43
416.048	3.41
416.406	3.4
416.764	3.4
417.122	3.37
417.48	3.37
417.838	3.35
418.195	3.33
418.553	3.33
418.911	3.31
419.269	3.29
419.626	3.29
419.984	3.25
420.342	3.24
420.699	3.23
421.057	3.23
421.414	3.24
421.772	3.24
422.129	3.22
422.486	3.21
422.844	3.2
423.201	3.19
423.558	3.17
423.915	3.16
424.273	3.15
424.63	3.16
424.987	3.17
425.344	3.16
425.701	3.14
426.058	3.14
426.415	3.12
426.772	3.11
427.128	3.09
427.485	3.1
427.842	3.09
428.199	3.09
428.555	3.06
428.912	3.03
429.269	3.03
429.625	3.03
429.982	3.01
430.338	3.04
430.695	3.02
431.051	3.03
431.407	3.01
431.764	3.01
432.12	3.01
432.476	3.01
432.832	3.01
433.189	3.04
433.545	3.02
433.901	3.04
434.257	3.05
434.613	3.04
434.969	3.04
435.325	3.05
435.681	3.05
436.036	3.06
436.392	3.06
436.748	3.05
437.104	3.08
437.459	3.08
437.815	3.06
438.171	3.06
438.526	3.06
438.882	3.09
439.237	3.09
439.593	3.08
439.948	3.06
440.304	3.05
440.659	3.04
441.014	3.04
441.369	3.04
441.725	3.04
442.08	3.05
442.435	3.05
442.79	3.05
443.145	3.05
443.5	3.05
443.855	3.05
444.21	3.05
444.565	3.03
444.92	3.03
445.275	3.03
445.629	3.03
445.984	3.04
446.339	3.02
446.693	3.03
447.048	3.02
447.403	3.02
447.757	3.01
448.112	3.02
448.466	3.03
448.82	3.02
449.175	3.03
449.529	3.02
449.883	3.01
450.238	2.99
450.592	2.99
450.946	2.98
451.3	2.97
451.654	2.95
452.008	2.96
452.362	2.95
452.716	2.94
453.07	2.94
453.424	2.93
453.778	2.92
454.132	2.9
454.486	2.91
454.839	2.91
455.193	2.91
455.547	2.88
455.9	2.89
456.254	2.9
456.607	2.9
456.961	2.91
457.314	2.91
457.668	2.92
458.021	2.92
458.375	2.91
458.728	2.92
459.081	2.92
459.434	2.91
459.787	2.91
460.141	2.93
460.494	2.95
460.847	2.96
461.2	2.98
461.553	2.98
461.906	2.98
462.259	2.98
462.611	2.97
462.964	2.99
463.317	2.98
463.67	2.99
464.022	3
464.375	3
464.728	3.02
465.08	3
465.433	3.01
465.785	3.02
466.138	3.02
466.49	3.02
466.843	3.05
467.195	3.07
467.547	3.06
467.899	3.05
468.252	3.03
468.604	3.02
468.956	3.03
469.308	3.03
469.66	3.04
470.012	3.05
470.364	3.06
470.716	3.07
471.068	3.07
471.42	3.09
471.772	3.09
472.123	3.08
472.475	3.11
472.827	3.12
473.178	3.14
473.53	3.14
473.882	3.16
474.233	3.17
474.585	3.16
474.936	3.15
475.288	3.15
475.639	3.16
475.99	3.15
476.342	3.16
476.693	3.17
477.044	3.19
477.395	3.2
477.746	3.2
478.097	3.19
478.448	3.17
478.8	3.15
479.15	3.14
479.501	3.16
479.852	3.17
480.203	3.16
480.554	3.16
480.905	3.17
481.255	3.17
481.606	3.17
481.957	3.18
482.307	3.19
482.658	3.2
483.009	3.21
483.359	3.22
483.709	3.21
484.06	3.22
484.41	3.22
484.761	3.22
485.111	3.22
485.461	3.23
485.811	3.24
486.162	3.24
486.512	3.25
486.862	3.25
487.212	3.25
487.562	3.25
487.912	3.24
488.262	3.24
488.612	3.25
488.961	3.25
489.311	3.24
489.661	3.24
490.011	3.23
490.36	3.23
490.71	3.23
491.06	3.23
491.409	3.24
491.759	3.23
492.108	3.24
492.458	3.23
492.807	3.22
493.157	3.23
493.506	3.24
493.855	3.25
494.204	3.24
494.554	3.25
494.903	3.27
495.252	3.27
495.601	3.29
495.95	3.3
496.299	3.3
496.648	3.33
496.997	3.35
497.346	3.39
497.695	3.4
498.043	3.44
498.392	3.45
498.741	3.47
499.09	3.5
499.438	3.52
499.787	3.55
500.135	3.58
500.484	3.59
500.832	3.61
501.181	3.63
501.529	3.67
501.878	3.72
502.226	3.76
502.574	3.81
502.923	3.84
503.271	3.88
503.619	3.93
503.967	3.97
504.315	4.01
504.663	4.03
505.011	4.09
505.359	4.11
505.707	4.16
506.055	4.21
506.403	4.25
506.751	4.27
507.098	4.34
507.446	4.39
507.794	4.46
508.141	4.52
508.489	4.57
508.837	4.62
509.184	4.67
509.531	4.71
509.879	4.77
510.226	4.83
510.574	4.91
510.921	4.97
511.268	5.02
511.616	5.1
511.963	5.19
512.31	5.24
512.657	5.32
513.004	5.4
513.351	5.46
513.698	5.55
514.045	5.66
514.392	5.75
514.739	5.85
515.086	5.93
515.432	6.03
515.779	6.1
516.126	6.22
516.473	6.32
516.819	6.41
517.166	6.5
517.512	6.59
517.859	6.66
518.205	6.72
518.552	6.82
518.898	6.89
519.245	6.94
519.591	7.02
519.937	7.14
520.283	7.24
520.629	7.32
520.976	7.42
521.322	7.52
521.668	7.61
522.014	7.72
522.36	7.84
522.706	7.95
523.052	8.09
523.398	8.19
523.743	8.32
524.089	8.46
524.435	8.57
524.781	8.69
525.126	8.8
525.472	8.91
525.817	9
526.163	9.09
526.509	9.17
526.854	9.26
527.199	9.32
527.545	9.39
527.89	9.47
528.235	9.54
528.581	9.61
528.926	9.67
529.271	9.76
529.616	9.83
529.961	9.92
530.306	10
530.651	10.08
530.996	10.16
531.341	10.25
531.686	10.35
532.031	10.44
532.376	10.53
532.721	10.62
533.065	10.71
533.41	10.81
533.755	10.92
534.099	11.01
534.444	11.13
534.788	11.24
535.133	11.35
535.477	11.47
535.822	11.58
536.166	11.74
536.51	11.87
536.855	12.01
537.199	12.12
537.543	12.28
537.887	12.45
538.231	12.6
538.576	12.77
538.92	12.94
539.264	13.1
539.608	13.26
539.951	13.41
540.295	13.56
540.639	13.7
540.983	13.83
541.327	13.97
541.671	14.07
542.014	14.21
542.358	14.32
542.701	14.46
543.045	14.6
543.389	14.72
543.732	14.86
544.075	14.97
544.419	15.13
544.762	15.26
545.105	15.4
545.449	15.56
545.792	15.73
546.135	15.89
546.478	16.07
546.821	16.25
547.165	16.44
547.508	16.63
547.851	16.81
548.194	17.01
548.536	17.23
548.879	17.44
549.222	17.65
549.565	17.85
549.908	18.04
550.25	18.23
550.593	18.46
550.936	18.67
551.278	18.91
551.621	19.14
551.963	19.39
552.306	19.62
552.648	19.85
552.991	20.03
553.333	20.21
553.675	20.39
554.017	20.56
554.36	20.76
554.702	20.98
555.044	21.23
555.386	21.44
555.728	21.68
556.07	21.93
556.412	22.17
556.754	22.44
557.096	22.71
557.438	22.99
557.78	23.21
558.121	23.46
558.463	23.69
558.805	23.93
559.147	24.17
559.488	24.38
559.83	24.64
560.171	24.88
560.513	25.14
560.854	25.42
561.196	25.69
561.537	25.95
561.878	26.17
562.22	26.41
562.561	26.67
562.902	26.88
563.243	27.07
563.584	27.24
563.925	27.42
564.266	27.64
564.607	27.83
564.948	28.06
565.289	28.32
565.63	28.55
565.971	28.77
566.312	28.98
566.653	29.24
566.993	29.43
567.334	29.66
567.675	29.88
568.015	30.06
568.356	30.28
568.696	30.55
569.037	30.78
569.377	30.98
569.718	31.14
570.058	31.37
570.398	31.61
570.739	31.85
571.079	32.12
571.419	32.32
571.759	32.48
572.099	32.64
572.439	32.79
572.779	32.97
573.119	33.15
573.459	33.32
573.799	33.49
574.139	33.64
574.479	33.8
574.819	33.97
575.158	34.15
575.498	34.28
575.838	34.38
576.177	34.54
576.517	34.76
576.856	34.95
577.196	35.14
577.535	35.28
577.875	35.48
578.214	35.62
578.553	35.73
578.893	35.89
579.232	36.08
579.571	36.23
579.91	36.44
580.25	36.63
580.589	36.81
580.928	36.96
581.267	37.13
581.606	37.26
581.945	37.44
582.283	37.63
582.622	37.85
582.961	37.99
583.3	38.15
583.639	38.27
583.977	38.45
584.316	38.53
584.654	38.69
584.993	38.84
585.332	38.95
585.67	39.18
586.008	39.38
586.347	39.53
586.685	39.68
587.024	39.84
587.362	39.93
587.7	40.01
588.038	40.11
588.376	40.24
588.715	40.43
589.053	40.52
589.391	40.62
589.729	40.74
590.067	40.91
590.404	41.03
590.742	41.13
591.08	41.19
591.418	41.31
591.756	41.44
592.093	41.52
592.431	41.66
592.769	41.72
593.106	41.81
593.444	41.88
593.781	41.93
594.119	41.98
594.456	42.06
594.793	42.14
595.131	42.2
595.468	42.31
595.805	42.37
596.143	42.5
596.48	42.58
596.817	42.6
597.154	42.63
597.491	42.65
597.828	42.69
598.165	42.81
598.502	42.9
598.839	42.96
599.176	43.12
599.512	43.25
599.849	43.35
600.186	43.46
600.523	43.52
600.859	43.64
601.196	43.72
601.532	43.83
601.869	43.88
602.205	43.94
602.542	43.97
602.878	44.06
603.215	44.05
603.551	44.09
603.887	44.21
604.223	44.25
604.56	44.34
604.896	44.45
605.232	44.46
605.568	44.56
605.904	44.57
606.24	44.56
606.576	44.6
606.912	44.68
607.248	44.67
607.583	44.79
607.919	44.86
608.255	44.87
608.591	44.91
608.926	45.02
609.262	45.23
609.597	45.36
609.933	45.39
610.268	45.52
610.604	45.58
610.939	45.55
611.275	45.64
611.61	45.67
611.945	45.67
612.281	45.77
612.616	45.73
612.951	45.8
613.286	45.87
613.621	45.88
613.956	45.89
614.291	46.04
614.626	46.11
614.961	46.16
615.296	46.26
615.631	46.36
615.966	46.4
616.3	46.36
616.635	46.32
616.97	46.34
617.304	46.36
617.639	46.45
617.973	46.55
618.308	46.55
618.642	46.72
618.977	46.75
619.311	46.83
619.646	46.92
619.98	47.02
620.314	47
620.648	47
620.983	47.06
621.317	47
621.651	47.07
621.985	47.05
622.319	47.05
622.653	47.05
622.987	47.01
623.321	47.03
623.655	46.98
623.988	47.01
624.322	47.02
624.656	47.07
624.99	47.09
625.323	47.11
625.657	47.09
625.99	47.12
626.324	47.11
626.657	47.15
626.991	47.14
627.324	47.23
627.658	47.34
627.991	47.43
628.324	47.49
628.657	47.56
628.991	47.71
629.324	47.76
629.657	47.81
629.99	47.92
630.323	47.9
630.656	48.09
630.989	48.11
631.322	48.15
631.655	48.15
631.987	48.22
632.32	48.36
632.653	48.33
632.986	48.35
633.318	48.42
633.651	48.46
633.984	48.46
634.316	48.41
634.649	48.39
634.981	48.43
635.313	48.57
635.646	48.53
635.978	48.46
636.31	48.46
636.643	48.47
636.975	48.42
637.307	48.51
637.639	48.46
637.971	48.54
638.303	48.63
638.635	48.64
638.967	48.65
639.299	48.61
639.631	48.62
639.963	48.71
640.295	48.71
640.626	48.66
640.958	48.82
641.29	48.92
641.621	49.02
641.953	48.99
642.285	48.9
642.616	48.81
642.948	48.84
643.279	48.92
643.61	48.87
643.942	48.87
644.273	48.83
644.604	48.76
644.936	48.75
645.267	48.76
645.598	48.8
645.929	48.74
646.26	48.78
646.591	48.78
646.922	48.73
647.253	48.78
647.584	48.79
647.915	48.74
648.245	48.78
648.576	48.73
648.907	48.68
649.238	48.74
649.568	48.82
649.899	48.89
650.229	48.9
650.56	48.91
650.89	49.05
651.221	49.07
651.551	49.18
651.882	49.2
652.212	49.25
652.542	49.28
652.872	49.42
653.203	49.45
653.533	49.47
653.863	49.49
654.193	49.42
654.523	49.49
654.853	49.53
655.183	49.65
655.513	49.63
655.843	49.74
656.172	49.67
656.502	49.65
656.832	49.67
657.162	49.64
657.491	49.74
657.821	49.76
658.15	49.87
658.48	49.97
658.809	50
659.139	50.02
659.468	49.97
659.798	49.91
660.127	49.95
660.456	50
660.785	50
661.115	50.12
661.444	50.17
661.773	50.2
662.102	50.06
662.431	50.17
662.76	50.16
663.089	50.22
663.418	50.31
663.747	50.25
664.076	50.31
664.404	50.25
664.733	50.26
665.062	50.23
665.39	50.11
665.719	50.18
666.048	50.21
666.376	50.28
666.705	50.34
667.033	50.32
667.362	50.33
