Data from BU26939_Reflection_00012.txt Node
Date: Tue Nov 19 10:56:57 EST 2019
User: vgr7
Spectrometer: USB2G7710
Scans to average: 3
Trigger mode: 4
Integration Time (sec): 2.000000E-2
Electric dark correction enabled: true
Boxcar width: 10
XAxis mode: Wavelengths
Number of Pixels in Spectrum: 2048
>>>>>Begin Spectral Data<<<<<
177.721	-33.01
178.105	-15.25
178.488	-161.62
178.871	-133.33
179.254	-107.41
179.636	-46.77
180.019	-362.37
180.402	158.82
180.785	159.12
181.168	132.91
181.55	618.52
181.933	261.62
182.316	-193.79
182.698	519.75
183.081	-630.16
183.463	-290.8
183.846	-396.12
184.228	-201.99
184.611	-86.95
184.993	-46.12
185.376	-68.27
185.758	-52.99
186.14	-44.6
186.522	-106.98
186.904	-91.79
187.287	-69.17
187.669	-65.3
188.051	-57.47
188.433	-63.45
188.815	-93.27
189.197	-71.48
189.579	-33.7
189.961	-19.64
190.342	-6.15
190.724	-20.03
191.106	-20.48
191.488	-27.34
191.869	-6.87
192.251	-18.95
192.633	-14.82
193.014	-13.68
193.396	-9.14
193.777	4.91
194.159	2.47
194.54	21.74
194.922	36.11
195.303	31.53
195.684	26.38
196.065	29.73
196.447	35.2
196.828	27.96
197.209	23.53
197.59	21.6
197.971	19.4
198.352	16.97
198.733	17.13
199.114	19.98
199.495	19.55
199.876	14.15
200.257	20.14
200.638	12.32
201.018	16.95
201.399	11.09
201.78	1.13
202.16	2.8
202.541	-12.49
202.922	-19.45
203.302	-22.4
203.683	0.22
204.063	4.19
204.444	-3.15
204.824	-6.08
205.204	-4.67
205.585	-4.69
205.965	-8.01
206.345	-15.76
206.725	-5.95
207.106	-0.04
207.486	-5.23
207.866	-16.26
208.246	-7.97
208.626	-10.48
209.006	-10.44
209.386	-1.88
209.766	-5.4
210.145	-0.23
210.525	-5.64
210.905	-4.75
211.285	-3.65
211.664	-13.14
212.044	-13.6
212.424	-17.73
212.803	-23.71
213.183	-18.85
213.562	-9.98
213.942	-3.21
214.321	2.82
214.701	-9.64
215.08	-5.78
215.459	2.53
215.838	3.04
216.218	-6.22
216.597	4.76
216.976	8.43
217.355	9.92
217.734	22.57
218.113	11.04
218.492	5.05
218.871	1.9
219.25	17.11
219.629	6.85
220.008	2.4
220.387	2.62
220.766	17.94
221.144	14.63
221.523	-0.39
221.902	-5.62
222.28	-21.25
222.659	-13.43
223.037	-23.04
223.416	-18.74
223.794	-10.74
224.173	-9.04
224.551	-17.97
224.929	-24.5
225.308	-28.96
225.686	-28.82
226.064	-30.92
226.442	-25.6
226.821	-23.61
227.199	-22.68
227.577	-17.73
227.955	-13.99
228.333	-13.6
228.711	-16.44
229.089	-16.33
229.467	-14.45
229.845	-15.31
230.222	-12.85
230.6	-10.48
230.978	-9.42
231.356	-9.47
231.733	-9.56
232.111	-10.11
232.488	-8.75
232.866	-6.26
233.243	-5.35
233.621	-3.59
233.998	-0.72
234.376	-1.66
234.753	-1.38
235.13	-2.93
235.508	-1.61
235.885	-2.31
236.262	-2.58
236.639	-1.9
237.016	-0.46
237.393	-0.47
237.77	1.09
238.147	1.18
238.524	2.59
238.901	2.32
239.278	1.91
239.655	2.85
240.032	2.65
240.409	2.86
240.785	2.49
241.162	2.8
241.539	2.62
241.915	2.74
242.292	3.56
242.668	3.89
243.045	4.85
243.421	4.61
243.798	4.67
244.174	4.76
244.551	4.87
244.927	4.61
245.303	4.59
245.679	4.56
246.056	4.82
246.432	4.38
246.808	4.66
247.184	4.74
247.56	4.38
247.936	4.35
248.312	4.46
248.688	4.46
249.064	4.44
249.44	4.25
249.815	4.35
250.191	4.22
250.567	4.08
250.943	3.95
251.318	3.96
251.694	3.8
252.069	3.98
252.445	3.81
252.82	3.81
253.196	4.12
253.571	4.22
253.947	4.05
254.322	3.93
254.697	3.77
255.073	3.63
255.448	3.93
255.823	4.18
256.198	3.93
256.573	3.96
256.948	3.71
257.323	3.85
257.698	3.75
258.073	3.55
258.448	3.59
258.823	3.4
259.198	3.49
259.573	3.49
259.948	3.51
260.322	3.55
260.697	3.58
261.072	3.44
261.446	3.27
261.821	3.24
262.195	3.14
262.57	3.19
262.944	3.23
263.319	3.29
263.693	3.2
264.067	3.36
264.442	3.28
264.816	3.49
265.19	3.58
265.564	3.48
265.938	3.59
266.313	3.56
266.687	3.4
267.061	3.22
267.435	3.43
267.809	3.3
268.183	3.38
268.556	3.25
268.93	3.26
269.304	3.23
269.678	3.26
270.051	3.47
270.425	3.32
270.799	3.27
271.172	3.22
271.546	3.26
271.919	3.09
272.293	3.12
272.666	3.17
273.04	3.04
273.413	3.08
273.787	2.92
274.16	2.81
274.533	2.94
274.906	3.02
275.279	2.92
275.653	2.88
276.026	2.94
276.399	2.9
276.772	2.97
277.145	2.95
277.518	2.69
277.891	2.59
278.263	2.69
278.636	2.82
279.009	2.88
279.382	2.81
279.755	2.94
280.127	2.93
280.5	2.67
280.872	2.68
281.245	2.7
281.617	2.82
281.99	2.89
282.362	2.91
282.735	2.82
283.107	2.67
283.479	2.7
283.852	2.67
284.224	2.76
284.596	2.69
284.968	2.76
285.34	3.01
285.713	3.14
286.085	3.14
286.457	3.18
286.829	3.09
287.201	3.12
287.572	3.08
287.944	3.22
288.316	3.29
288.688	3.37
289.06	3.32
289.431	3.31
289.803	3.4
290.175	3.31
290.546	3.51
290.918	3.56
291.289	3.55
291.661	3.5
292.032	3.5
292.403	3.47
292.775	3.48
293.146	3.45
293.517	3.45
293.889	3.42
294.26	3.26
294.631	3.33
295.002	3.39
295.373	3.38
295.744	3.3
296.115	3.36
296.486	3.3
296.857	3.33
297.228	3.38
297.599	3.26
297.97	3.33
298.34	3.2
298.711	3.3
299.082	3.38
299.452	3.44
299.823	3.5
300.194	3.49
300.564	3.54
300.935	3.59
301.305	3.43
301.676	3.45
302.046	3.56
302.416	3.51
302.787	3.59
303.157	3.79
303.527	3.84
303.897	3.79
304.267	3.96
304.637	4.01
305.008	4.11
305.378	4.33
305.748	4.37
306.117	4.46
306.487	4.51
306.857	4.45
307.227	4.47
307.597	4.54
307.967	4.69
308.336	4.64
308.706	4.7
309.076	4.92
309.445	4.87
309.815	5.01
310.184	5.09
310.554	5.06
310.923	4.91
311.293	4.92
311.662	4.99
312.031	5
312.401	4.94
312.77	4.95
313.139	4.87
313.508	4.99
313.877	5
314.246	5.1
314.616	5.26
314.985	5.26
315.353	5.18
315.722	5.28
316.091	5.46
316.46	5.41
316.829	5.38
317.198	5.53
317.567	5.56
317.935	5.55
318.304	5.73
318.672	5.76
319.041	5.78
319.41	5.96
319.778	5.81
320.147	5.88
320.515	5.93
320.883	5.97
321.252	5.96
321.62	6.05
321.988	6.1
322.357	6.07
322.725	6.17
323.093	6.2
323.461	6.17
323.829	5.98
324.197	6.17
324.565	6.33
324.933	6.36
325.301	6.36
325.669	6.38
326.037	6.29
326.405	6.31
326.772	6.51
327.14	6.42
327.508	6.57
327.875	6.71
328.243	6.55
328.61	6.6
328.978	6.55
329.346	6.46
329.713	6.41
330.08	6.44
330.448	6.37
330.815	6.45
331.182	6.43
331.55	6.54
331.917	6.35
332.284	6.21
332.651	6.28
333.018	6.23
333.385	6.34
333.752	6.4
334.119	6.48
334.486	6.41
334.853	6.5
335.22	6.45
335.587	6.48
335.954	6.55
336.32	6.69
336.687	6.86
337.054	6.89
337.42	6.78
337.787	6.75
338.153	6.83
338.52	7
338.886	7
339.253	7
339.619	7.11
339.986	7.14
340.352	7.11
340.718	7.16
341.084	7.06
341.451	7.05
341.817	7.07
342.183	7.12
342.549	7.06
342.915	7.19
343.281	7.18
343.647	7.29
344.013	7.26
344.379	7.12
344.745	7.24
345.11	7.35
345.476	7.4
345.842	7.38
346.208	7.26
346.573	7.21
346.939	7.2
347.304	7.18
347.67	7.23
348.035	7.18
348.401	7.22
348.766	7.25
349.132	7.29
349.497	7.33
349.862	7.36
350.228	7.4
350.593	7.34
350.958	7.4
351.323	7.44
351.688	7.4
352.053	7.4
352.418	7.38
352.783	7.36
353.148	7.46
353.513	7.44
353.878	7.42
354.243	7.49
354.608	7.51
354.972	7.55
355.337	7.58
355.702	7.62
356.066	7.6
356.431	7.69
356.795	7.63
357.16	7.65
357.524	7.56
357.889	7.51
358.253	7.55
358.618	7.5
358.982	7.44
359.346	7.44
359.71	7.39
360.075	7.41
360.439	7.5
360.803	7.46
361.167	7.48
361.531	7.48
361.895	7.53
362.259	7.55
362.623	7.54
362.987	7.51
363.351	7.49
363.714	7.41
364.078	7.36
364.442	7.37
364.806	7.37
365.169	7.33
365.533	7.35
365.896	7.37
366.26	7.28
366.623	7.24
366.987	7.15
367.35	7.23
367.714	7.18
368.077	7.05
368.44	7.06
368.803	7
369.167	6.92
369.53	6.83
369.893	6.71
370.256	6.63
370.619	6.55
370.982	6.46
371.345	6.5
371.708	6.44
372.071	6.39
372.434	6.26
372.797	6.28
373.159	6.19
373.522	6.09
373.885	6.08
374.247	6.06
374.61	6.08
374.973	6.05
375.335	5.96
375.698	5.92
376.06	5.84
376.423	5.8
376.785	5.87
377.147	5.77
377.51	5.77
377.872	5.78
378.234	5.79
378.596	5.81
378.958	5.71
379.321	5.68
379.683	5.65
380.045	5.66
380.407	5.58
380.769	5.59
381.13	5.56
381.492	5.55
381.854	5.48
382.216	5.43
382.578	5.34
382.939	5.37
383.301	5.31
383.663	5.25
384.024	5.29
384.386	5.2
384.747	5.23
385.109	5.23
385.47	5.18
385.832	5.14
386.193	5.1
386.554	5.1
386.916	5.08
387.277	5.02
387.638	4.97
387.999	4.96
388.36	4.94
388.721	4.93
389.082	4.93
389.443	4.91
389.804	4.92
390.165	4.91
390.526	4.87
390.887	4.88
391.248	4.88
391.609	4.84
391.969	4.81
392.33	4.75
392.691	4.74
393.051	4.72
393.412	4.71
393.772	4.68
394.133	4.66
394.493	4.62
394.854	4.6
395.214	4.64
395.574	4.63
395.935	4.57
396.295	4.49
396.655	4.43
397.015	4.43
397.376	4.4
397.736	4.36
398.096	4.31
398.456	4.29
398.816	4.28
399.176	4.2
399.535	4.16
399.895	4.16
400.255	4.1
400.615	4.07
400.975	4.01
401.334	4.01
401.694	3.99
402.054	3.98
402.413	4
402.773	3.95
403.132	3.9
403.492	3.94
403.851	3.93
404.211	3.94
404.57	3.93
404.929	3.91
405.288	3.91
405.648	3.91
406.007	3.87
406.366	3.84
406.725	3.88
407.084	3.89
407.443	3.91
407.802	3.9
408.161	3.92
408.52	3.93
408.879	3.94
409.238	3.95
409.596	3.96
409.955	3.95
410.314	3.94
410.673	3.94
411.031	3.91
411.39	3.91
411.748	3.9
412.107	3.9
412.465	3.9
412.824	3.91
413.182	3.9
413.54	3.93
413.899	3.9
414.257	3.89
414.615	3.87
414.974	3.83
415.332	3.82
415.69	3.81
416.048	3.8
416.406	3.77
416.764	3.77
417.122	3.73
417.48	3.71
417.838	3.69
418.195	3.68
418.553	3.66
418.911	3.65
419.269	3.63
419.626	3.62
419.984	3.6
420.342	3.59
420.699	3.58
421.057	3.56
421.414	3.56
421.772	3.53
422.129	3.53
422.486	3.53
422.844	3.53
423.201	3.5
423.558	3.48
423.915	3.48
424.273	3.48
424.63	3.48
424.987	3.48
425.344	3.47
425.701	3.47
426.058	3.46
426.415	3.46
426.772	3.44
427.128	3.44
427.485	3.44
427.842	3.44
428.199	3.45
428.555	3.43
428.912	3.42
429.269	3.43
429.625	3.44
429.982	3.44
430.338	3.43
430.695	3.44
431.051	3.44
431.407	3.42
431.764	3.38
432.12	3.38
432.476	3.38
432.832	3.39
433.189	3.38
433.545	3.38
433.901	3.38
434.257	3.38
434.613	3.39
434.969	3.38
435.325	3.37
435.681	3.36
436.036	3.37
436.392	3.37
436.748	3.37
437.104	3.35
437.459	3.35
437.815	3.35
438.171	3.34
438.526	3.35
438.882	3.36
439.237	3.35
439.593	3.35
439.948	3.35
440.304	3.34
440.659	3.34
441.014	3.35
441.369	3.35
441.725	3.35
442.08	3.35
442.435	3.35
442.79	3.35
443.145	3.35
443.5	3.33
443.855	3.33
444.21	3.34
444.565	3.33
444.92	3.34
445.275	3.34
445.629	3.35
445.984	3.35
446.339	3.34
446.693	3.35
447.048	3.32
447.403	3.33
447.757	3.32
448.112	3.33
448.466	3.32
448.82	3.32
449.175	3.32
449.529	3.32
449.883	3.32
450.238	3.31
450.592	3.29
450.946	3.3
451.3	3.29
451.654	3.26
452.008	3.28
452.362	3.27
452.716	3.24
453.07	3.23
453.424	3.23
453.778	3.22
454.132	3.22
454.486	3.24
454.839	3.23
455.193	3.24
455.547	3.25
455.9	3.25
456.254	3.26
456.607	3.27
456.961	3.25
457.314	3.25
457.668	3.26
458.021	3.27
458.375	3.27
458.728	3.3
459.081	3.31
459.434	3.3
459.787	3.3
460.141	3.32
460.494	3.33
460.847	3.35
461.2	3.36
461.553	3.35
461.906	3.36
462.259	3.35
462.611	3.35
462.964	3.35
463.317	3.35
463.67	3.35
464.022	3.36
464.375	3.36
464.728	3.37
465.08	3.36
465.433	3.37
465.785	3.38
466.138	3.4
466.49	3.43
466.843	3.43
467.195	3.43
467.547	3.44
467.899	3.44
468.252	3.44
468.604	3.45
468.956	3.49
469.308	3.48
469.66	3.5
470.012	3.51
470.364	3.53
470.716	3.56
471.068	3.57
471.42	3.57
471.772	3.58
472.123	3.58
472.475	3.59
472.827	3.6
473.178	3.63
473.53	3.61
473.882	3.61
474.233	3.61
474.585	3.62
474.936	3.63
475.288	3.62
475.639	3.62
475.99	3.62
476.342	3.61
476.693	3.62
477.044	3.62
477.395	3.62
477.746	3.6
478.097	3.57
478.448	3.57
478.8	3.57
479.15	3.58
479.501	3.59
479.852	3.59
480.203	3.6
480.554	3.58
480.905	3.58
481.255	3.58
481.606	3.58
481.957	3.58
482.307	3.56
482.658	3.57
483.009	3.57
483.359	3.56
483.709	3.57
484.06	3.57
484.41	3.57
484.761	3.58
485.111	3.58
485.461	3.58
485.811	3.56
486.162	3.56
486.512	3.56
486.862	3.55
487.212	3.55
487.562	3.54
487.912	3.54
488.262	3.53
488.612	3.53
488.961	3.53
489.311	3.53
489.661	3.53
490.011	3.52
490.36	3.52
490.71	3.53
491.06	3.52
491.409	3.51
491.759	3.52
492.108	3.52
492.458	3.53
492.807	3.53
493.157	3.56
493.506	3.57
493.855	3.58
494.204	3.59
494.554	3.61
494.903	3.62
495.252	3.64
495.601	3.66
495.95	3.68
496.299	3.7
496.648	3.74
496.997	3.76
497.346	3.82
497.695	3.86
498.043	3.87
498.392	3.92
498.741	3.95
499.09	3.98
499.438	4.02
499.787	4.05
500.135	4.09
500.484	4.12
500.832	4.15
501.181	4.18
501.529	4.23
501.878	4.29
502.226	4.34
502.574	4.41
502.923	4.45
503.271	4.52
503.619	4.59
503.967	4.64
504.315	4.74
504.663	4.79
505.011	4.86
505.359	4.92
505.707	4.99
506.055	5.08
506.403	5.16
506.751	5.23
507.098	5.32
507.446	5.42
507.794	5.52
508.141	5.63
508.489	5.74
508.837	5.82
509.184	5.92
509.531	6.04
509.879	6.13
510.226	6.25
510.574	6.35
510.921	6.45
511.268	6.54
511.616	6.64
511.963	6.74
512.31	6.87
512.657	7.02
513.004	7.18
513.351	7.34
513.698	7.52
514.045	7.7
514.392	7.87
514.739	8.04
515.086	8.23
515.432	8.4
515.779	8.58
516.126	8.77
516.473	8.94
516.819	9.1
517.166	9.26
517.512	9.42
517.859	9.6
518.205	9.76
518.552	9.96
518.898	10.14
519.245	10.33
519.591	10.48
519.937	10.64
520.283	10.81
520.629	10.98
520.976	11.17
521.322	11.37
521.668	11.58
522.014	11.8
522.36	12.01
522.706	12.25
523.052	12.52
523.398	12.78
523.743	13.04
524.089	13.32
524.435	13.59
524.781	13.87
525.126	14.11
525.472	14.35
525.817	14.57
526.163	14.74
526.509	14.92
526.854	15.09
527.199	15.25
527.545	15.4
527.89	15.55
528.235	15.7
528.581	15.87
528.926	16.02
529.271	16.18
529.616	16.36
529.961	16.52
530.306	16.67
530.651	16.83
530.996	17.01
531.341	17.19
531.686	17.38
532.031	17.56
532.376	17.73
532.721	17.92
533.065	18.12
533.41	18.31
533.755	18.52
534.099	18.75
534.444	18.98
534.788	19.21
535.133	19.43
535.477	19.63
535.822	19.87
536.166	20.13
536.51	20.38
536.855	20.63
537.199	20.9
537.543	21.2
537.887	21.51
538.231	21.8
538.576	22.11
538.92	22.38
539.264	22.66
539.608	22.93
539.951	23.19
540.295	23.4
540.639	23.66
540.983	23.89
541.327	24.09
541.671	24.31
542.014	24.53
542.358	24.75
542.701	24.95
543.045	25.15
543.389	25.36
543.732	25.56
544.075	25.79
544.419	26.01
544.762	26.19
545.105	26.42
545.449	26.66
545.792	26.89
546.135	27.14
546.478	27.38
546.821	27.65
547.165	27.95
547.508	28.22
547.851	28.47
548.194	28.75
548.536	29.04
548.879	29.3
549.222	29.54
549.565	29.81
549.908	30.11
550.25	30.41
550.593	30.67
550.936	30.96
551.278	31.25
551.621	31.53
551.963	31.83
552.306	32.09
552.648	32.32
552.991	32.57
553.333	32.83
553.675	33.12
554.017	33.35
554.36	33.5
554.702	33.73
555.044	34
555.386	34.21
555.728	34.41
556.07	34.67
556.412	34.95
556.754	35.13
557.096	35.37
557.438	35.61
557.78	35.84
558.121	36.04
558.463	36.23
558.805	36.48
559.147	36.73
559.488	36.96
559.83	37.22
560.171	37.41
560.513	37.61
560.854	37.82
561.196	38
561.537	38.22
561.878	38.45
562.22	38.63
562.561	38.83
562.902	39.04
563.243	39.16
563.584	39.33
563.925	39.53
564.266	39.7
564.607	39.86
564.948	40.08
565.289	40.27
565.63	40.44
565.971	40.6
566.312	40.74
566.653	40.89
566.993	41.03
567.334	41.16
567.675	41.31
568.015	41.44
568.356	41.59
568.696	41.77
569.037	41.9
569.377	42.03
569.718	42.18
570.058	42.35
570.398	42.52
570.739	42.69
571.079	42.88
571.419	43.07
571.759	43.17
572.099	43.22
572.439	43.35
572.779	43.51
573.119	43.62
573.459	43.72
573.799	43.86
574.139	44.01
574.479	44.17
574.819	44.29
575.158	44.41
575.498	44.56
575.838	44.7
576.177	44.82
576.517	44.96
576.856	45.05
577.196	45.15
577.535	45.28
577.875	45.42
578.214	45.49
578.553	45.62
578.893	45.78
579.232	45.97
579.571	46.08
579.91	46.2
580.25	46.33
580.589	46.44
580.928	46.56
581.267	46.66
581.606	46.76
581.945	46.88
582.283	46.97
582.622	47.11
582.961	47.2
583.3	47.32
583.639	47.37
583.977	47.51
584.316	47.64
584.654	47.75
584.993	47.7
585.332	47.83
585.67	47.83
586.008	47.88
586.347	47.92
586.685	48
587.024	48.05
587.362	48.17
587.7	48.34
588.038	48.46
588.376	48.54
588.715	48.67
589.053	48.73
589.391	48.84
589.729	48.86
590.067	48.91
590.404	49.01
590.742	49.21
591.08	49.2
591.418	49.25
591.756	49.33
592.093	49.54
592.431	49.64
592.769	49.77
593.106	49.83
593.444	49.96
593.781	50.07
594.119	50.14
594.456	50.17
594.793	50.21
595.131	50.24
595.468	50.22
595.805	50.27
596.143	50.34
596.48	50.37
596.817	50.45
597.154	50.51
597.491	50.51
597.828	50.53
598.165	50.6
598.502	50.67
598.839	50.76
599.176	50.82
599.512	50.89
599.849	50.97
600.186	51.01
600.523	51.06
600.859	51.04
601.196	51.09
601.532	51.12
601.869	51.21
602.205	51.24
602.542	51.34
602.878	51.42
603.215	51.46
603.551	51.47
603.887	51.6
604.223	51.62
604.56	51.69
604.896	51.73
605.232	51.84
605.568	51.9
605.904	51.91
606.24	51.98
606.576	52.01
606.912	52.05
607.248	52.11
607.583	52.17
607.919	52.25
608.255	52.36
608.591	52.45
608.926	52.48
609.262	52.57
609.597	52.64
609.933	52.59
610.268	52.61
610.604	52.7
610.939	52.65
611.275	52.75
611.61	52.83
611.945	52.84
612.281	52.84
612.616	52.89
612.951	52.99
613.286	52.95
613.621	53.04
613.956	53.09
614.291	53.17
614.626	53.14
614.961	53.17
615.296	53.19
615.631	53.2
615.966	53.22
616.3	53.17
616.635	53.23
616.97	53.31
617.304	53.39
617.639	53.47
617.973	53.52
618.308	53.45
618.642	53.43
618.977	53.52
619.311	53.56
619.646	53.52
619.98	53.45
620.314	53.46
620.648	53.36
620.983	53.34
621.317	53.38
621.651	53.44
621.985	53.49
622.319	53.46
622.653	53.49
622.987	53.52
623.321	53.53
623.655	53.54
623.988	53.61
624.322	53.62
624.656	53.55
624.99	53.63
625.323	53.67
625.657	53.66
625.99	53.65
626.324	53.74
626.657	53.79
626.991	53.89
627.324	53.88
627.658	53.92
627.991	53.9
628.324	53.95
628.657	54.01
628.991	54.11
629.324	54.21
629.657	54.2
629.99	54.24
630.323	54.24
630.656	54.37
630.989	54.4
631.322	54.45
631.655	54.58
631.987	54.52
632.32	54.59
632.653	54.73
632.986	54.73
633.318	54.68
633.651	54.65
633.984	54.57
634.316	54.63
634.649	54.68
634.981	54.8
635.313	54.85
635.646	54.86
635.978	54.73
636.31	54.71
636.643	54.77
636.975	54.72
637.307	54.84
637.639	54.83
637.971	54.73
638.303	54.71
638.635	54.65
638.967	54.76
639.299	54.71
639.631	54.65
639.963	54.73
640.295	54.78
640.626	54.93
640.958	54.95
641.29	54.95
641.621	54.99
641.953	54.91
642.285	55.01
642.616	54.89
642.948	55
643.279	54.98
643.61	54.98
643.942	55.09
644.273	55.1
644.604	55.05
644.936	55.13
645.267	55.24
645.598	55.29
645.929	55.27
646.26	55.29
646.591	55.28
646.922	55.26
647.253	55.19
647.584	55.13
647.915	55.18
648.245	55.19
648.576	55.12
648.907	55.23
649.238	55.07
649.568	55.17
649.899	55.12
650.229	55.12
650.56	55.19
650.89	55.23
651.221	55.17
651.551	55.09
651.882	55.15
652.212	55.09
652.542	55.12
652.872	55.13
653.203	55.22
653.533	55.23
653.863	55.25
654.193	55.36
654.523	55.46
654.853	55.51
655.183	55.57
655.513	55.62
655.843	55.58
656.172	55.68
656.502	55.71
656.832	55.85
657.162	55.9
657.491	55.92
657.821	55.88
658.15	56.12
658.48	56.23
658.809	56.28
659.139	56.33
659.468	56.35
659.798	56.36
660.127	56.38
660.456	56.39
660.785	56.42
661.115	56.43
661.444	56.38
661.773	56.42
662.102	56.37
662.431	56.47
662.76	56.52
663.089	56.48
663.418	56.67
663.747	56.6
664.076	56.75
664.404	56.75
664.733	56.84
665.062	56.78
665.39	56.8
665.719	56.79
666.048	56.74
666.376	56.77
666.705	56.8
667.033	56.84
667.362	56.9
667.69	56.96
