Data from BU26849_Reflection_00008.txt Node
Date: Mon Nov 18 16:43:17 EST 2019
User: vgr7
Spectrometer: USB2G7710
Scans to average: 3
Trigger mode: 4
Integration Time (sec): 2.000000E-2
Electric dark correction enabled: true
Boxcar width: 10
XAxis mode: Wavelengths
Number of Pixels in Spectrum: 2048
>>>>>Begin Spectral Data<<<<<
177.721	-22
178.105	-24.45
178.488	-2.62
178.871	-7.49
179.254	2.3
179.636	-58.36
180.019	-61.43
180.402	83.87
180.785	93.68
181.168	400.97
181.55	597.85
181.933	134.46
182.316	166.49
182.698	129.73
183.081	139.23
183.463	156.13
183.846	146.07
184.228	152.55
184.611	231.63
184.993	428.8
185.376	469.18
185.758	247.7
186.14	199.43
186.522	449.54
186.904	225.48
187.287	191.16
187.669	985.63
188.051	-2750.39
188.433	-644.43
188.815	-230.33
189.197	-223.22
189.579	-165.18
189.961	-132.12
190.342	-96.13
190.724	-75.89
191.106	-77.56
191.488	-42.43
191.869	-42.89
192.251	-69.43
192.633	-68.62
193.014	-91.98
193.396	-129.26
193.777	-147.32
194.159	-151.67
194.54	-150.64
194.922	-153.19
195.303	-134.11
195.684	-112.48
196.065	-97.19
196.447	-96.06
196.828	-110.07
197.209	-121.5
197.59	-124.65
197.971	-109.66
198.352	-103.41
198.733	-105.89
199.114	-94.74
199.495	-103.92
199.876	-93.64
200.257	-87.84
200.638	-64.97
201.018	-54.76
201.399	-40.27
201.78	-35.73
202.16	-27.82
202.541	-41.41
202.922	-43.19
203.302	-55.47
203.683	-63.88
204.063	-77.44
204.444	-63.17
204.824	-56.59
205.204	-61.11
205.585	-47.14
205.965	-49.07
206.345	-51.26
206.725	-63.41
207.106	-73.31
207.486	-88.33
207.866	-97.99
208.246	-110.6
208.626	-159.98
209.006	-150.1
209.386	-216.26
209.766	-249.09
210.145	-208.31
210.525	-212.7
210.905	-210.28
211.285	-187.87
211.664	-181.1
212.044	-151.25
212.424	-139.66
212.803	-166.95
213.183	-173.11
213.562	-244.66
213.942	-210.36
214.321	-164.93
214.701	-164.75
215.08	-195.09
215.459	-236.52
215.838	-185.5
216.218	-171.39
216.597	-142.37
216.976	-141.31
217.355	-128
217.734	-127.48
218.113	-113.27
218.492	-87.2
218.871	-89.96
219.25	-75.06
219.629	-70.48
220.008	-72.3
220.387	-73.11
220.766	-62.46
221.144	-63.84
221.523	-61.25
221.902	-59.91
222.28	-76.61
222.659	-65.19
223.037	-47.77
223.416	-38.96
223.794	-40.04
224.173	-36.13
224.551	-35.14
224.929	-36.36
225.308	-26.56
225.686	-27.21
226.064	-27.77
226.442	-24.59
226.821	-20.03
227.199	-20.31
227.577	-18
227.955	-19.34
228.333	-20.59
228.711	-19.88
229.089	-13.92
229.467	-13.05
229.845	-14.98
230.222	-12.47
230.6	-14.56
230.978	-12.4
231.356	-10.76
231.733	-11.63
232.111	-11.66
232.488	-11.44
232.866	-10.14
233.243	-9.98
233.621	-10.19
233.998	-9.99
234.376	-11.44
234.753	-13.8
235.13	-12.15
235.508	-10.7
235.885	-10.99
236.262	-11.22
236.639	-10.45
237.016	-9.38
237.393	-7.29
237.77	-5.38
238.147	-3.48
238.524	-1.99
238.901	-1.39
239.278	-0.25
239.655	1.31
240.032	1.66
240.409	1.8
240.785	2.11
241.162	1.81
241.539	2.7
241.915	2.65
242.292	2.39
242.668	2.93
243.045	3
243.421	2.52
243.798	2.7
244.174	2.92
244.551	3.1
244.927	2.86
245.303	2.93
245.679	3.23
246.056	3.01
246.432	3.1
246.808	3.15
247.184	2.93
247.56	2.77
247.936	3.02
248.312	3
248.688	2.75
249.064	2.91
249.44	2.92
249.815	3.1
250.191	3.38
250.567	3.36
250.943	3.24
251.318	3.45
251.694	3.47
252.069	3.43
252.445	3.17
252.82	3.05
253.196	2.91
253.571	2.52
253.947	2.51
254.322	2.62
254.697	2.63
255.073	2.41
255.448	2.24
255.823	2.11
256.198	2.37
256.573	2.36
256.948	2.26
257.323	2.13
257.698	2.25
258.073	2.19
258.448	2.15
258.823	2.34
259.198	2.37
259.573	2.42
259.948	2.51
260.322	2.63
260.697	2.7
261.072	2.52
261.446	2.61
261.821	2.65
262.195	2.52
262.57	2.46
262.944	2.56
263.319	2.6
263.693	2.53
264.067	2.56
264.442	2.58
264.816	2.62
265.19	2.58
265.564	2.51
265.938	2.47
266.313	2.44
266.687	2.27
267.061	2.32
267.435	2.31
267.809	2.29
268.183	2.28
268.556	2.25
268.93	2.57
269.304	2.57
269.678	2.64
270.051	2.66
270.425	2.47
270.799	2.53
271.172	2.57
271.546	2.59
271.919	2.32
272.293	2.38
272.666	2.39
273.04	2.48
273.413	2.39
273.787	2.33
274.16	2.28
274.533	2.37
274.906	2.24
275.279	2.01
275.653	1.84
276.026	1.88
276.399	1.76
276.772	1.82
277.145	1.66
277.518	1.6
277.891	1.57
278.263	1.65
278.636	1.5
279.009	1.47
279.382	1.73
279.755	1.8
280.127	2.03
280.5	2.19
280.872	2.14
281.245	2.14
281.617	2.25
281.99	2.28
282.362	2.29
282.735	2.19
283.107	2.29
283.479	2.62
283.852	2.56
284.224	2.67
284.596	2.54
284.968	2.68
285.34	2.65
285.713	2.72
286.085	2.73
286.457	2.92
286.829	2.95
287.201	2.8
287.572	2.8
287.944	2.68
288.316	2.49
288.688	2.48
289.06	2.48
289.431	2.54
289.803	2.66
290.175	2.67
290.546	3
290.918	3.12
291.289	2.9
291.661	2.97
292.032	3.06
292.403	3.16
292.775	3.33
293.146	3.39
293.517	3.4
293.889	3.56
294.26	3.52
294.631	3.5
295.002	3.48
295.373	3.54
295.744	3.62
296.115	3.77
296.486	3.74
296.857	3.86
297.228	4.01
297.599	4.11
297.97	4.26
298.34	4.2
298.711	4.22
299.082	4.38
299.452	4.43
299.823	4.58
300.194	4.61
300.564	4.49
300.935	4.68
301.305	4.72
301.676	4.79
302.046	4.81
302.416	5
302.787	5.09
303.157	5.17
303.527	5.13
303.897	5.2
304.267	5.53
304.637	5.63
305.008	5.66
305.378	5.8
305.748	5.74
306.117	5.74
306.487	5.89
306.857	5.99
307.227	6.13
307.597	6.09
307.967	6.1
308.336	6.19
308.706	6.06
309.076	6.21
309.445	6.17
309.815	6.26
310.184	6.29
310.554	6.37
310.923	6.36
311.293	6.46
311.662	6.51
312.031	6.49
312.401	6.46
312.77	6.57
313.139	6.47
313.508	6.47
313.877	6.58
314.246	6.53
314.616	6.57
314.985	6.52
315.353	6.54
315.722	6.75
316.091	6.75
316.46	6.92
316.829	6.98
317.198	7.15
317.567	7.23
317.935	7.28
318.304	7.44
318.672	7.66
319.041	7.92
319.41	7.97
319.778	7.93
320.147	8.12
320.515	8.19
320.883	8.32
321.252	8.68
321.62	8.8
321.988	8.97
322.357	8.98
322.725	9.19
323.093	9.3
323.461	9.29
323.829	9.55
324.197	9.62
324.565	9.68
324.933	9.75
325.301	9.89
325.669	10
326.037	10.1
326.405	10.26
326.772	10.2
327.14	10.31
327.508	10.6
327.875	10.52
328.243	10.54
328.61	10.64
328.978	10.61
329.346	10.67
329.713	10.67
330.08	10.67
330.448	10.67
330.815	10.61
331.182	10.57
331.55	10.51
331.917	10.47
332.284	10.55
332.651	10.54
333.018	10.49
333.385	10.53
333.752	10.62
334.119	10.68
334.486	10.68
334.853	10.71
335.22	10.58
335.587	10.77
335.954	10.78
336.32	10.84
336.687	10.84
337.054	10.84
337.42	10.82
337.787	10.93
338.153	10.89
338.52	11.01
338.886	11.09
339.253	11.12
339.619	11.25
339.986	11.22
340.352	11.34
340.718	11.39
341.084	11.38
341.451	11.4
341.817	11.41
342.183	11.44
342.549	11.45
342.915	11.5
343.281	11.54
343.647	11.68
344.013	11.66
344.379	11.68
344.745	11.81
345.11	11.89
345.476	11.87
345.842	11.94
346.208	11.95
346.573	12.11
346.939	12.17
347.304	12.2
347.67	12.25
348.035	12.25
348.401	12.29
348.766	12.45
349.132	12.44
349.497	12.4
349.862	12.54
350.228	12.57
350.593	12.5
350.958	12.43
351.323	12.31
351.688	12.28
352.053	12.45
352.418	12.4
352.783	12.54
353.148	12.56
353.513	12.65
353.878	12.65
354.243	12.74
354.608	12.77
354.972	12.88
355.337	12.86
355.702	12.88
356.066	12.87
356.431	12.74
356.795	12.69
357.16	12.66
357.524	12.57
357.889	12.6
358.253	12.73
358.618	12.8
358.982	12.83
359.346	12.89
359.71	12.74
360.075	12.76
360.439	12.73
360.803	12.74
361.167	12.63
361.531	12.63
361.895	12.46
362.259	12.43
362.623	12.37
362.987	12.45
363.351	12.38
363.714	12.44
364.078	12.44
364.442	12.43
364.806	12.42
365.169	12.38
365.533	12.31
365.896	12.19
366.26	12.15
366.623	12.02
366.987	11.96
367.35	11.97
367.714	11.88
368.077	11.84
368.44	11.86
368.803	11.82
369.167	11.81
369.53	11.81
369.893	11.81
370.256	11.71
370.619	11.53
370.982	11.49
371.345	11.38
371.708	11.35
372.071	11.32
372.434	11.26
372.797	11.2
373.159	11.16
373.522	11.15
373.885	11.04
374.247	11.04
374.61	10.99
374.973	10.85
375.335	10.73
375.698	10.64
376.06	10.5
376.423	10.52
376.785	10.42
377.147	10.36
377.51	10.22
377.872	10.16
378.234	10.14
378.596	10.07
378.958	9.96
379.321	9.85
379.683	9.75
380.045	9.67
380.407	9.62
380.769	9.53
381.13	9.39
381.492	9.3
381.854	9.22
382.216	9.19
382.578	9.15
382.939	9.08
383.301	8.98
383.663	8.94
384.024	8.82
384.386	8.75
384.747	8.67
385.109	8.61
385.47	8.49
385.832	8.44
386.193	8.4
386.554	8.39
386.916	8.33
387.277	8.28
387.638	8.24
387.999	8.2
388.36	8.21
388.721	8.19
389.082	8.13
389.443	8.08
389.804	8
390.165	7.92
390.526	7.89
390.887	7.85
391.248	7.81
391.609	7.74
391.969	7.66
392.33	7.6
392.691	7.56
393.051	7.56
393.412	7.51
393.772	7.46
394.133	7.37
394.493	7.32
394.854	7.28
395.214	7.23
395.574	7.15
395.935	7.05
396.295	6.99
396.655	6.94
397.015	6.87
397.376	6.73
397.736	6.69
398.096	6.67
398.456	6.62
398.816	6.58
399.176	6.52
399.535	6.49
399.895	6.44
400.255	6.4
400.615	6.33
400.975	6.27
401.334	6.21
401.694	6.18
402.054	6.11
402.413	6.07
402.773	5.99
403.132	5.96
403.492	5.91
403.851	5.89
404.211	5.87
404.57	5.84
404.929	5.84
405.288	5.81
405.648	5.75
406.007	5.73
406.366	5.65
406.725	5.64
407.084	5.63
407.443	5.6
407.802	5.57
408.161	5.54
408.52	5.47
408.879	5.42
409.238	5.4
409.596	5.4
409.955	5.37
410.314	5.37
410.673	5.33
411.031	5.33
411.39	5.28
411.748	5.29
412.107	5.29
412.465	5.27
412.824	5.27
413.182	5.23
413.54	5.19
413.899	5.18
414.257	5.15
414.615	5.12
414.974	5.11
415.332	5.06
415.69	5.04
416.048	5.03
416.406	5.02
416.764	4.98
417.122	4.95
417.48	4.9
417.838	4.87
418.195	4.85
418.553	4.82
418.911	4.81
419.269	4.78
419.626	4.76
419.984	4.73
420.342	4.7
420.699	4.68
421.057	4.66
421.414	4.64
421.772	4.62
422.129	4.59
422.486	4.57
422.844	4.55
423.201	4.52
423.558	4.5
423.915	4.46
424.273	4.44
424.63	4.41
424.987	4.42
425.344	4.41
425.701	4.39
426.058	4.37
426.415	4.34
426.772	4.32
427.128	4.3
427.485	4.28
427.842	4.24
428.199	4.23
428.555	4.2
428.912	4.19
429.269	4.18
429.625	4.16
429.982	4.13
430.338	4.12
430.695	4.1
431.051	4.08
431.407	4.08
431.764	4.08
432.12	4.05
432.476	4.02
432.832	4
433.189	3.99
433.545	3.99
433.901	3.99
434.257	3.97
434.613	3.94
434.969	3.94
435.325	3.96
435.681	3.96
436.036	3.97
436.392	3.97
436.748	3.97
437.104	3.98
437.459	3.97
437.815	3.99
438.171	3.99
438.526	4.01
438.882	4.02
439.237	4.03
439.593	4.05
439.948	4.04
440.304	4.05
440.659	4.05
441.014	4.05
441.369	4.05
441.725	4.05
442.08	4.04
442.435	4.04
442.79	4.03
443.145	4.03
443.5	4.01
443.855	4
444.21	3.98
444.565	3.98
444.92	3.99
445.275	3.96
445.629	3.97
445.984	3.94
446.339	3.92
446.693	3.9
447.048	3.89
447.403	3.89
447.757	3.86
448.112	3.84
448.466	3.82
448.82	3.81
449.175	3.8
449.529	3.8
449.883	3.79
450.238	3.76
450.592	3.75
450.946	3.72
451.3	3.69
451.654	3.67
452.008	3.65
452.362	3.64
452.716	3.63
453.07	3.61
453.424	3.61
453.778	3.62
454.132	3.62
454.486	3.6
454.839	3.56
455.193	3.56
455.547	3.57
455.9	3.56
456.254	3.58
456.607	3.58
456.961	3.59
457.314	3.59
457.668	3.62
458.021	3.63
458.375	3.65
458.728	3.67
459.081	3.67
459.434	3.67
459.787	3.67
460.141	3.68
460.494	3.67
460.847	3.67
461.2	3.66
461.553	3.66
461.906	3.67
462.259	3.71
462.611	3.73
462.964	3.74
463.317	3.76
463.67	3.75
464.022	3.76
464.375	3.76
464.728	3.77
465.08	3.77
465.433	3.77
465.785	3.79
466.138	3.79
466.49	3.8
466.843	3.81
467.195	3.83
467.547	3.84
467.899	3.87
468.252	3.9
468.604	3.94
468.956	3.96
469.308	4
469.66	4.02
470.012	4.06
470.364	4.1
470.716	4.12
471.068	4.15
471.42	4.17
471.772	4.2
472.123	4.24
472.475	4.25
472.827	4.27
473.178	4.28
473.53	4.29
473.882	4.3
474.233	4.35
474.585	4.35
474.936	4.35
475.288	4.37
475.639	4.37
475.99	4.38
476.342	4.39
476.693	4.38
477.044	4.4
477.395	4.39
477.746	4.37
478.097	4.37
478.448	4.38
478.8	4.37
479.15	4.33
479.501	4.32
479.852	4.33
480.203	4.32
480.554	4.32
480.905	4.31
481.255	4.31
481.606	4.3
481.957	4.29
482.307	4.29
482.658	4.29
483.009	4.28
483.359	4.26
483.709	4.26
484.06	4.26
484.41	4.24
484.761	4.24
485.111	4.23
485.461	4.23
485.811	4.21
486.162	4.2
486.512	4.21
486.862	4.19
487.212	4.19
487.562	4.19
487.912	4.19
488.262	4.19
488.612	4.19
488.961	4.18
489.311	4.18
489.661	4.18
490.011	4.18
490.36	4.16
490.71	4.18
491.06	4.18
491.409	4.17
491.759	4.18
492.108	4.19
492.458	4.21
492.807	4.21
493.157	4.23
493.506	4.27
493.855	4.28
494.204	4.32
494.554	4.35
494.903	4.38
495.252	4.41
495.601	4.44
495.95	4.51
496.299	4.56
496.648	4.6
496.997	4.66
497.346	4.71
497.695	4.8
498.043	4.85
498.392	4.91
498.741	5
499.09	5.05
499.438	5.11
499.787	5.19
500.135	5.3
500.484	5.39
500.832	5.48
501.181	5.6
501.529	5.69
501.878	5.8
502.226	5.91
502.574	6.06
502.923	6.16
503.271	6.27
503.619	6.4
503.967	6.55
504.315	6.66
504.663	6.82
505.011	6.97
505.359	7.13
505.707	7.3
506.055	7.46
506.403	7.63
506.751	7.82
507.098	7.99
507.446	8.14
507.794	8.32
508.141	8.51
508.489	8.69
508.837	8.89
509.184	9.1
509.531	9.29
509.879	9.47
510.226	9.69
510.574	9.88
510.921	10.08
511.268	10.25
511.616	10.47
511.963	10.68
512.31	10.9
512.657	11.13
513.004	11.36
513.351	11.59
513.698	11.85
514.045	12.09
514.392	12.34
514.739	12.6
515.086	12.83
515.432	13.08
515.779	13.29
516.126	13.51
516.473	13.71
516.819	13.94
517.166	14.13
517.512	14.35
517.859	14.57
518.205	14.76
518.552	14.99
518.898	15.17
519.245	15.38
519.591	15.57
519.937	15.77
520.283	15.96
520.629	16.18
520.976	16.39
521.322	16.63
521.668	16.84
522.014	17.09
522.36	17.33
522.706	17.57
523.052	17.85
523.398	18.15
523.743	18.45
524.089	18.72
524.435	19.01
524.781	19.26
525.126	19.49
525.472	19.69
525.817	19.87
526.163	20.07
526.509	20.23
526.854	20.4
527.199	20.53
527.545	20.67
527.89	20.8
528.235	20.94
528.581	21.08
528.926	21.26
529.271	21.4
529.616	21.57
529.961	21.72
530.306	21.87
530.651	22.04
530.996	22.2
531.341	22.38
531.686	22.55
532.031	22.73
532.376	22.92
532.721	23.11
533.065	23.3
533.41	23.49
533.755	23.68
534.099	23.87
534.444	24.1
534.788	24.33
535.133	24.53
535.477	24.73
535.822	24.94
536.166	25.16
536.51	25.37
536.855	25.6
537.199	25.87
537.543	26.12
537.887	26.34
538.231	26.6
538.576	26.91
538.92	27.14
539.264	27.37
539.608	27.58
539.951	27.84
540.295	28.06
540.639	28.26
540.983	28.48
541.327	28.67
541.671	28.86
542.014	29.02
542.358	29.23
542.701	29.4
543.045	29.6
543.389	29.78
543.732	30
544.075	30.19
544.419	30.36
544.762	30.56
545.105	30.81
545.449	31.02
545.792	31.21
546.135	31.45
546.478	31.69
546.821	31.96
547.165	32.2
547.508	32.45
547.851	32.67
548.194	32.92
548.536	33.2
548.879	33.45
549.222	33.68
549.565	33.92
549.908	34.18
550.25	34.4
550.593	34.65
550.936	34.89
551.278	35.13
551.621	35.4
551.963	35.62
552.306	35.81
552.648	36.04
552.991	36.24
553.333	36.43
553.675	36.65
554.017	36.77
554.36	36.94
554.702	37.12
555.044	37.33
555.386	37.48
555.728	37.66
556.07	37.85
556.412	38.08
556.754	38.28
557.096	38.43
557.438	38.64
557.78	38.8
558.121	38.91
558.463	39.02
558.805	39.16
559.147	39.35
559.488	39.49
559.83	39.6
560.171	39.69
560.513	39.85
560.854	39.92
561.196	40.1
561.537	40.19
561.878	40.36
562.22	40.45
562.561	40.55
562.902	40.69
563.243	40.79
563.584	40.91
563.925	41.04
564.266	41.21
564.607	41.3
564.948	41.36
565.289	41.56
565.63	41.69
565.971	41.75
566.312	41.85
566.653	41.96
566.993	42.02
567.334	42.14
567.675	42.2
568.015	42.37
568.356	42.45
568.696	42.57
569.037	42.67
569.377	42.79
569.718	42.94
570.058	42.97
570.398	43.04
570.739	43.11
571.079	43.16
571.419	43.19
571.759	43.26
572.099	43.34
572.439	43.42
572.779	43.5
573.119	43.6
573.459	43.64
573.799	43.73
574.139	43.82
574.479	43.89
574.819	43.94
575.158	43.96
575.498	44.02
575.838	44.09
576.177	44.1
576.517	44.16
576.856	44.23
577.196	44.33
577.535	44.46
577.875	44.5
578.214	44.6
578.553	44.65
578.893	44.71
579.232	44.82
579.571	44.86
579.91	44.91
580.25	44.93
580.589	45.03
580.928	45.03
581.267	45.13
581.606	45.13
581.945	45.25
582.283	45.3
582.622	45.41
582.961	45.45
583.3	45.5
583.639	45.61
583.977	45.56
584.316	45.68
584.654	45.73
584.993	45.82
585.332	45.89
585.67	45.96
586.008	46.07
586.347	46.08
586.685	46.02
587.024	46.13
587.362	46.22
587.7	46.23
588.038	46.31
588.376	46.32
588.715	46.39
589.053	46.47
589.391	46.47
589.729	46.53
590.067	46.58
590.404	46.59
590.742	46.57
591.08	46.64
591.418	46.59
591.756	46.59
592.093	46.58
592.431	46.55
592.769	46.59
593.106	46.57
593.444	46.57
593.781	46.61
594.119	46.62
594.456	46.55
594.793	46.62
595.131	46.61
595.468	46.68
595.805	46.69
596.143	46.64
596.48	46.71
596.817	46.66
597.154	46.67
597.491	46.72
597.828	46.76
598.165	46.81
598.502	46.85
598.839	46.86
599.176	46.91
599.512	46.96
599.849	46.96
600.186	46.99
600.523	47.03
600.859	47.09
601.196	47.07
601.532	47.16
601.869	47.18
602.205	47.22
602.542	47.27
602.878	47.31
603.215	47.43
603.551	47.46
603.887	47.51
604.223	47.51
604.56	47.53
604.896	47.55
605.232	47.57
605.568	47.59
605.904	47.55
606.24	47.57
606.576	47.56
606.912	47.61
607.248	47.64
607.583	47.66
607.919	47.67
608.255	47.71
608.591	47.73
608.926	47.74
609.262	47.77
609.597	47.77
609.933	47.78
610.268	47.72
610.604	47.74
610.939	47.77
611.275	47.82
611.61	47.86
611.945	47.87
612.281	47.9
612.616	47.88
612.951	48
613.286	48.05
613.621	48.09
613.956	48.08
614.291	48.08
614.626	48.15
614.961	48.3
615.296	48.25
615.631	48.17
615.966	48.19
616.3	48.26
616.635	48.22
616.97	48.29
617.304	48.32
617.639	48.26
617.973	48.27
618.308	48.27
618.642	48.23
618.977	48.23
619.311	48.18
619.646	48.22
619.98	48.07
620.314	48.02
620.648	48.06
620.983	48.09
621.317	48.18
621.651	48.21
621.985	48.15
622.319	48.17
622.653	48.21
622.987	48.26
623.321	48.23
623.655	48.21
623.988	48.21
624.322	48.17
624.656	48.33
624.99	48.34
625.323	48.29
625.657	48.29
625.99	48.37
626.324	48.38
626.657	48.4
626.991	48.43
627.324	48.45
627.658	48.51
627.991	48.57
628.324	48.52
628.657	48.5
628.991	48.54
629.324	48.55
629.657	48.61
629.99	48.62
630.323	48.66
630.656	48.71
630.989	48.66
631.322	48.69
631.655	48.58
631.987	48.57
632.32	48.65
632.653	48.64
632.986	48.6
633.318	48.62
633.651	48.67
633.984	48.66
634.316	48.64
634.649	48.54
634.981	48.5
635.313	48.58
635.646	48.67
635.978	48.68
636.31	48.74
636.643	48.68
636.975	48.69
637.307	48.66
637.639	48.74
637.971	48.77
638.303	48.78
638.635	48.83
638.967	48.83
639.299	48.83
639.631	48.87
639.963	48.89
640.295	48.82
640.626	48.89
640.958	49.02
641.29	49.03
641.621	49.11
641.953	49.1
642.285	49.09
642.616	49.01
642.948	49
643.279	48.93
643.61	48.99
643.942	48.91
644.273	48.97
644.604	48.83
644.936	48.92
645.267	48.99
645.598	48.92
645.929	48.96
646.26	48.82
646.591	48.88
646.922	48.89
647.253	48.97
647.584	48.93
647.915	48.94
648.245	48.97
648.576	48.95
648.907	48.98
649.238	48.89
649.568	48.94
649.899	48.94
650.229	49.03
650.56	49.14
650.89	49.2
651.221	49.15
651.551	49.14
651.882	49.07
652.212	49.02
652.542	49.08
652.872	48.98
653.203	49.02
653.533	49.02
653.863	49.01
654.193	49
654.523	48.94
654.853	49.01
655.183	49.08
655.513	48.89
655.843	48.78
656.172	48.82
656.502	48.79
656.832	48.83
657.162	48.81
657.491	48.74
657.821	48.68
658.15	48.72
658.48	48.75
658.809	48.79
659.139	48.98
659.468	49.02
659.798	49.09
660.127	49.2
660.456	49.25
660.785	49.25
661.115	49.25
661.444	49.28
