Data from BU26943_Reflection_00014.txt Node
Date: Tue Nov 19 11:02:42 EST 2019
User: vgr7
Spectrometer: USB2G7710
Scans to average: 3
Trigger mode: 4
Integration Time (sec): 2.000000E-2
Electric dark correction enabled: true
Boxcar width: 10
XAxis mode: Wavelengths
Number of Pixels in Spectrum: 2048
>>>>>Begin Spectral Data<<<<<
177.721	-300.45
178.105	-129.51
178.488	-53.31
178.871	-40.43
179.254	-22.22
179.636	34.78
180.019	51.61
180.402	240
180.785	-145.45
181.168	-390.38
181.55	-641.38
181.933	1907.69
182.316	-1452.63
182.698	1007.41
183.081	-130.5
183.463	-185.23
183.846	-126.07
184.228	-107.58
184.611	-78.1
184.993	-67.8
185.376	-78.73
185.758	-35.1
186.14	-68.49
186.522	-91.08
186.904	-83.17
187.287	-80.26
187.669	-59.43
188.051	-60.46
188.433	-64.52
188.815	-57.11
189.197	-49.84
189.579	-38.72
189.961	-45.36
190.342	-45.93
190.724	-48.03
191.106	-50.44
191.488	-41.09
191.869	-39.88
192.251	-41
192.633	-39.64
193.014	-34.84
193.396	-38.66
193.777	-44.15
194.159	-41.99
194.54	-41.25
194.922	-51.86
195.303	-56.6
195.684	-71.07
196.065	-74.52
196.447	-65.28
196.828	-71.62
197.209	-61.5
197.59	-70.67
197.971	-75.58
198.352	-48.34
198.733	-42.37
199.114	-30.51
199.495	-30.75
199.876	-23.19
200.257	-26.91
200.638	-12.32
201.018	-7
201.399	6.66
201.78	8.47
202.16	11.19
202.541	5.18
202.922	9.14
203.302	20.93
203.683	19.43
204.063	22.7
204.444	29.75
204.824	18.93
205.204	21.11
205.585	23.62
205.965	21.22
206.345	18.73
206.725	23.37
207.106	18.4
207.486	15.38
207.866	9.13
208.246	13.82
208.626	6.97
209.006	1.19
209.386	-2.6
209.766	-6.99
210.145	2.95
210.525	8.03
210.905	12.57
211.285	11.58
211.664	15.16
212.044	15.28
212.424	14.8
212.803	21.38
213.183	17.99
213.562	13.59
213.942	16.61
214.321	11.28
214.701	3.94
215.08	8.98
215.459	8.52
215.838	6.9
216.218	3.43
216.597	8.57
216.976	5
217.355	0.65
217.734	3.08
218.113	-5.88
218.492	-10.98
218.871	-11.86
219.25	-14.32
219.629	-12.53
220.008	-7.84
220.387	-10.48
220.766	-7.17
221.144	-9.01
221.523	-6.94
221.902	-2.25
222.28	4.43
222.659	11.21
223.037	5.39
223.416	13.57
223.794	15.43
224.173	13.72
224.551	15.88
224.929	10.99
225.308	8.65
225.686	5.83
226.064	5.14
226.442	7.13
226.821	3.12
227.199	0.71
227.577	2.24
227.955	3.17
228.333	1.35
228.711	1.06
229.089	1.44
229.467	-0.47
229.845	-2.15
230.222	-0.24
230.6	-1.19
230.978	0.36
231.356	-2.58
231.733	-1.72
232.111	-0
232.488	-2.91
232.866	-1.08
233.243	-0.88
233.621	-0.11
233.998	0.91
234.376	0.29
234.753	1.43
235.13	1.59
235.508	0.2
235.885	-1.89
236.262	-1.51
236.639	-1.76
237.016	-1.74
237.393	-1.4
237.77	-0.12
238.147	-0.59
238.524	0.48
238.901	0.57
239.278	1.28
239.655	1.33
240.032	1.21
240.409	1.91
240.785	1.77
241.162	2.11
241.539	2.36
241.915	2.29
242.292	2.2
242.668	2.58
243.045	2.88
243.421	3.07
243.798	3.43
244.174	3.36
244.551	3.59
244.927	3.64
245.303	3.43
245.679	3.26
246.056	3.25
246.432	3.3
246.808	3.32
247.184	3.38
247.56	3.3
247.936	3.25
248.312	3.17
248.688	3.32
249.064	3.22
249.44	3.28
249.815	3.17
250.191	3.51
250.567	3.32
250.943	3.47
251.318	3.29
251.694	3.12
252.069	3.37
252.445	3.33
252.82	3.48
253.196	3.83
253.571	3.94
253.947	3.89
254.322	3.66
254.697	3.62
255.073	3.43
255.448	2.92
255.823	3.09
256.198	3.08
256.573	3.07
256.948	3.23
257.323	3.1
257.698	3.08
258.073	2.85
258.448	2.92
258.823	2.73
259.198	2.77
259.573	2.64
259.948	2.71
260.322	2.69
260.697	2.59
261.072	2.46
261.446	2.55
261.821	2.6
262.195	2.54
262.57	2.68
262.944	2.49
263.319	2.73
263.693	2.64
264.067	2.63
264.442	2.57
264.816	2.62
265.19	2.58
265.564	2.64
265.938	2.74
266.313	2.64
266.687	2.45
267.061	2.52
267.435	2.8
267.809	2.33
268.183	2.36
268.556	2.4
268.93	2.46
269.304	2.31
269.678	2.18
270.051	2.17
270.425	2.1
270.799	2.24
271.172	2.21
271.546	2.18
271.919	2.16
272.293	2.3
272.666	2.18
273.04	2.05
273.413	2.13
273.787	2.14
274.16	2.27
274.533	2.43
274.906	2.39
275.279	2.27
275.653	2.65
276.026	2.59
276.399	2.56
276.772	2.58
277.145	2.65
277.518	2.75
277.891	2.71
278.263	2.82
278.636	2.83
279.009	2.89
279.382	3.01
279.755	3.06
280.127	3.07
280.5	3.13
280.872	3.28
281.245	3.29
281.617	3.25
281.99	3.06
282.362	3.12
282.735	3.11
283.107	3.1
283.479	3.02
283.852	2.98
284.224	2.88
284.596	2.97
284.968	3.04
285.34	2.94
285.713	3.04
286.085	2.89
286.457	2.85
286.829	2.78
287.201	2.69
287.572	2.75
287.944	2.73
288.316	2.69
288.688	2.75
289.06	2.63
289.431	2.66
289.803	2.74
290.175	2.72
290.546	2.77
290.918	2.79
291.289	2.83
291.661	2.83
292.032	2.96
292.403	2.97
292.775	2.97
293.146	3.11
293.517	3.05
293.889	3
294.26	3.12
294.631	3.16
295.002	3.27
295.373	3.16
295.744	3.07
296.115	3.07
296.486	3.06
296.857	3.2
297.228	3.06
297.599	3.15
297.97	3.24
298.34	3.25
298.711	3.35
299.082	3.28
299.452	3.35
299.823	3.31
300.194	3.34
300.564	3.21
300.935	3.29
301.305	3.27
301.676	3.21
302.046	3.15
302.416	3.13
302.787	3.05
303.157	3.06
303.527	3.18
303.897	3.28
304.267	3.23
304.637	3.24
305.008	3.27
305.378	3.26
305.748	3.21
306.117	3.2
306.487	3.23
306.857	3.23
307.227	3.3
307.597	3.39
307.967	3.44
308.336	3.56
308.706	3.45
309.076	3.68
309.445	3.88
309.815	3.99
310.184	3.91
310.554	3.96
310.923	4.07
311.293	4.05
311.662	4.14
312.031	4.22
312.401	4.21
312.77	4.25
313.139	4.26
313.508	4.19
313.877	4.12
314.246	4.09
314.616	4.15
314.985	4.13
315.353	4.18
315.722	4.27
316.091	4.28
316.46	4.45
316.829	4.45
317.198	4.63
317.567	4.73
317.935	4.91
318.304	4.89
318.672	5
319.041	5.11
319.41	4.91
319.778	4.95
320.147	4.93
320.515	4.98
320.883	5
321.252	5.17
321.62	5.22
321.988	5.3
322.357	5.37
322.725	5.28
323.093	5.28
323.461	5.13
323.829	5.25
324.197	5.13
324.565	5.09
324.933	4.88
325.301	4.84
325.669	4.89
326.037	5.05
326.405	4.92
326.772	4.88
327.14	4.87
327.508	4.95
327.875	5.03
328.243	4.96
328.61	4.95
328.978	4.86
329.346	4.9
329.713	4.99
330.08	5.06
330.448	5.19
330.815	5.27
331.182	5.2
331.55	5.15
331.917	5.26
332.284	5.3
332.651	5.43
333.018	5.43
333.385	5.43
333.752	5.42
334.119	5.62
334.486	5.65
334.853	5.69
335.22	5.65
335.587	5.73
335.954	5.78
336.32	5.8
336.687	5.91
337.054	5.95
337.42	5.88
337.787	5.85
338.153	5.93
338.52	5.91
338.886	6.1
339.253	6.12
339.619	6.19
339.986	6.2
340.352	6.26
340.718	6.25
341.084	6.25
341.451	6.29
341.817	6.2
342.183	6.16
342.549	6.27
342.915	6.3
343.281	6.24
343.647	6.39
344.013	6.43
344.379	6.43
344.745	6.35
345.11	6.31
345.476	6.39
345.842	6.33
346.208	6.28
346.573	6.27
346.939	6.27
347.304	6.23
347.67	6.18
348.035	6.08
348.401	6.2
348.766	6.3
349.132	6.23
349.497	6.25
349.862	6.3
350.228	6.36
350.593	6.32
350.958	6.39
351.323	6.35
351.688	6.34
352.053	6.27
352.418	6.36
352.783	6.37
353.148	6.33
353.513	6.35
353.878	6.36
354.243	6.29
354.608	6.39
354.972	6.29
355.337	6.31
355.702	6.35
356.066	6.23
356.431	6.25
356.795	6.3
357.16	6.29
357.524	6.27
357.889	6.21
358.253	6.19
358.618	6.13
358.982	6.05
359.346	6.05
359.71	6.09
360.075	6.14
360.439	6.16
360.803	6.15
361.167	6.13
361.531	6.17
361.895	6.18
362.259	6.13
362.623	6.23
362.987	6.26
363.351	6.23
363.714	6.25
364.078	6.2
364.442	6.17
364.806	6.12
365.169	6.12
365.533	6.08
365.896	6.1
366.26	6.06
366.623	6.06
366.987	6.05
367.35	5.98
367.714	5.86
368.077	5.83
368.44	5.76
368.803	5.69
369.167	5.6
369.53	5.59
369.893	5.55
370.256	5.43
370.619	5.35
370.982	5.28
371.345	5.27
371.708	5.21
372.071	5.06
372.434	5.05
372.797	5.03
373.159	4.96
373.522	4.91
373.885	4.91
374.247	4.89
374.61	4.86
374.973	4.87
375.335	4.84
375.698	4.73
376.06	4.68
376.423	4.68
376.785	4.71
377.147	4.63
377.51	4.53
377.872	4.51
378.234	4.48
378.596	4.5
378.958	4.41
379.321	4.33
379.683	4.37
380.045	4.36
380.407	4.31
380.769	4.31
381.13	4.22
381.492	4.17
381.854	4.12
382.216	4.09
382.578	4.06
382.939	4.05
383.301	4.05
383.663	4.05
384.024	4.03
384.386	3.97
384.747	3.93
385.109	3.92
385.47	3.91
385.832	3.88
386.193	3.79
386.554	3.81
386.916	3.85
387.277	3.84
387.638	3.77
387.999	3.73
388.36	3.74
388.721	3.74
389.082	3.72
389.443	3.75
389.804	3.74
390.165	3.7
390.526	3.68
390.887	3.67
391.248	3.66
391.609	3.64
391.969	3.62
392.33	3.6
392.691	3.63
393.051	3.59
393.412	3.57
393.772	3.61
394.133	3.54
394.493	3.5
394.854	3.45
395.214	3.47
395.574	3.46
395.935	3.43
396.295	3.45
396.655	3.44
397.015	3.42
397.376	3.37
397.736	3.37
398.096	3.34
398.456	3.31
398.816	3.31
399.176	3.27
399.535	3.26
399.895	3.26
400.255	3.2
400.615	3.19
400.975	3.18
401.334	3.11
401.694	3.1
402.054	3.07
402.413	3.05
402.773	3.03
403.132	3.02
403.492	3.02
403.851	2.99
404.211	2.98
404.57	2.94
404.929	2.95
405.288	2.91
405.648	2.89
406.007	2.89
406.366	2.89
406.725	2.88
407.084	2.85
407.443	2.85
407.802	2.83
408.161	2.83
408.52	2.82
408.879	2.86
409.238	2.88
409.596	2.91
409.955	2.9
410.314	2.89
410.673	2.87
411.031	2.84
411.39	2.81
411.748	2.79
412.107	2.78
412.465	2.78
412.824	2.79
413.182	2.81
413.54	2.8
413.899	2.76
414.257	2.75
414.615	2.76
414.974	2.77
415.332	2.78
415.69	2.75
416.048	2.76
416.406	2.73
416.764	2.74
417.122	2.73
417.48	2.75
417.838	2.75
418.195	2.76
418.553	2.78
418.911	2.77
419.269	2.78
419.626	2.78
419.984	2.75
420.342	2.76
420.699	2.74
421.057	2.74
421.414	2.76
421.772	2.76
422.129	2.74
422.486	2.73
422.844	2.72
423.201	2.73
423.558	2.73
423.915	2.72
424.273	2.73
424.63	2.73
424.987	2.74
425.344	2.72
425.701	2.73
426.058	2.71
426.415	2.71
426.772	2.7
427.128	2.69
427.485	2.71
427.842	2.68
428.199	2.69
428.555	2.68
428.912	2.66
429.269	2.66
429.625	2.68
429.982	2.68
430.338	2.69
430.695	2.68
431.051	2.68
431.407	2.69
431.764	2.65
432.12	2.63
432.476	2.59
432.832	2.61
433.189	2.58
433.545	2.58
433.901	2.59
434.257	2.59
434.613	2.61
434.969	2.61
435.325	2.63
435.681	2.62
436.036	2.63
436.392	2.65
436.748	2.64
437.104	2.63
437.459	2.64
437.815	2.63
438.171	2.64
438.526	2.63
438.882	2.63
439.237	2.62
439.593	2.63
439.948	2.64
440.304	2.63
440.659	2.65
441.014	2.65
441.369	2.64
441.725	2.65
442.08	2.65
442.435	2.64
442.79	2.63
443.145	2.62
443.5	2.61
443.855	2.59
444.21	2.59
444.565	2.61
444.92	2.6
445.275	2.6
445.629	2.59
445.984	2.59
446.339	2.59
446.693	2.61
447.048	2.59
447.403	2.6
447.757	2.59
448.112	2.59
448.466	2.59
448.82	2.59
449.175	2.59
449.529	2.58
449.883	2.57
450.238	2.57
450.592	2.57
450.946	2.57
451.3	2.58
451.654	2.57
452.008	2.56
452.362	2.56
452.716	2.58
453.07	2.57
453.424	2.58
453.778	2.57
454.132	2.57
454.486	2.58
454.839	2.55
455.193	2.55
455.547	2.55
455.9	2.55
456.254	2.54
456.607	2.53
456.961	2.52
457.314	2.51
457.668	2.52
458.021	2.52
458.375	2.53
458.728	2.52
459.081	2.55
459.434	2.53
459.787	2.52
460.141	2.51
460.494	2.53
460.847	2.52
461.2	2.55
461.553	2.55
461.906	2.56
462.259	2.56
462.611	2.57
462.964	2.57
463.317	2.58
463.67	2.6
464.022	2.59
464.375	2.59
464.728	2.61
465.08	2.61
465.433	2.62
465.785	2.63
466.138	2.64
466.49	2.65
466.843	2.66
467.195	2.68
467.547	2.68
467.899	2.67
468.252	2.68
468.604	2.67
468.956	2.69
469.308	2.69
469.66	2.71
470.012	2.72
470.364	2.72
470.716	2.74
471.068	2.74
471.42	2.77
471.772	2.81
472.123	2.81
472.475	2.83
472.827	2.82
473.178	2.81
473.53	2.81
473.882	2.81
474.233	2.82
474.585	2.81
474.936	2.8
475.288	2.78
475.639	2.79
475.99	2.78
476.342	2.76
476.693	2.76
477.044	2.74
477.395	2.74
477.746	2.72
478.097	2.7
478.448	2.69
478.8	2.68
479.15	2.67
479.501	2.66
479.852	2.65
480.203	2.66
480.554	2.65
480.905	2.66
481.255	2.65
481.606	2.65
481.957	2.65
482.307	2.65
482.658	2.67
483.009	2.66
483.359	2.67
483.709	2.67
484.06	2.68
484.41	2.69
484.761	2.69
485.111	2.7
485.461	2.7
485.811	2.7
486.162	2.7
486.512	2.7
486.862	2.71
487.212	2.71
487.562	2.71
487.912	2.71
488.262	2.71
488.612	2.71
488.961	2.71
489.311	2.71
489.661	2.71
490.011	2.71
490.36	2.71
490.71	2.71
491.06	2.7
491.409	2.69
491.759	2.69
492.108	2.67
492.458	2.68
492.807	2.68
493.157	2.67
493.506	2.68
493.855	2.67
494.204	2.67
494.554	2.7
494.903	2.72
495.252	2.73
495.601	2.73
495.95	2.74
496.299	2.78
496.648	2.81
496.997	2.84
497.346	2.87
497.695	2.89
498.043	2.91
498.392	2.94
498.741	2.97
499.09	2.99
499.438	3.04
499.787	3.06
500.135	3.08
500.484	3.13
500.832	3.15
501.181	3.19
501.529	3.22
501.878	3.24
502.226	3.26
502.574	3.31
502.923	3.35
503.271	3.39
503.619	3.42
503.967	3.46
504.315	3.47
504.663	3.49
505.011	3.53
505.359	3.59
505.707	3.63
506.055	3.69
506.403	3.74
506.751	3.79
507.098	3.86
507.446	3.93
507.794	3.98
508.141	4.05
508.489	4.12
508.837	4.19
509.184	4.27
509.531	4.34
509.879	4.42
510.226	4.52
510.574	4.61
510.921	4.68
511.268	4.76
511.616	4.85
511.963	4.96
512.31	5.06
512.657	5.14
513.004	5.22
513.351	5.33
513.698	5.45
514.045	5.57
514.392	5.69
514.739	5.79
515.086	5.94
515.432	6.07
515.779	6.18
516.126	6.33
516.473	6.45
516.819	6.57
517.166	6.68
517.512	6.77
517.859	6.88
518.205	7
518.552	7.11
518.898	7.23
519.245	7.35
519.591	7.47
519.937	7.6
520.283	7.74
520.629	7.86
520.976	7.99
521.322	8.11
521.668	8.24
522.014	8.41
522.36	8.54
522.706	8.69
523.052	8.87
523.398	9.04
523.743	9.23
524.089	9.45
524.435	9.64
524.781	9.83
525.126	10
525.472	10.17
525.817	10.31
526.163	10.45
526.509	10.59
526.854	10.71
527.199	10.82
527.545	10.96
527.89	11.08
528.235	11.2
528.581	11.34
528.926	11.47
529.271	11.59
529.616	11.74
529.961	11.87
530.306	12.02
530.651	12.16
530.996	12.31
531.341	12.47
531.686	12.62
532.031	12.81
532.376	12.97
532.721	13.14
533.065	13.32
533.41	13.51
533.755	13.7
534.099	13.91
534.444	14.11
534.788	14.31
535.133	14.52
535.477	14.75
535.822	14.97
536.166	15.23
536.51	15.49
536.855	15.77
537.199	16.07
537.543	16.36
537.887	16.68
538.231	16.97
538.576	17.26
538.92	17.56
539.264	17.84
539.608	18.14
539.951	18.4
540.295	18.68
540.639	18.92
540.983	19.13
541.327	19.39
541.671	19.62
542.014	19.87
542.358	20.11
542.701	20.33
543.045	20.56
543.389	20.78
543.732	21.04
544.075	21.27
544.419	21.51
544.762	21.74
545.105	22.01
545.449	22.27
545.792	22.54
546.135	22.84
546.478	23.12
546.821	23.42
547.165	23.75
547.508	24.05
547.851	24.41
548.194	24.8
548.536	25.11
548.879	25.46
549.222	25.74
549.565	26.09
549.908	26.46
550.25	26.76
550.593	27.09
550.936	27.4
551.278	27.76
551.621	28.08
551.963	28.45
552.306	28.72
552.648	29.07
552.991	29.42
553.333	29.71
553.675	30.07
554.017	30.36
554.36	30.68
554.702	30.99
555.044	31.24
555.386	31.49
555.728	31.77
556.07	32.07
556.412	32.41
556.754	32.69
557.096	32.98
557.438	33.28
557.78	33.59
558.121	33.89
558.463	34.16
558.805	34.45
559.147	34.71
559.488	34.97
559.83	35.23
560.171	35.45
560.513	35.74
560.854	35.95
561.196	36.22
561.537	36.52
561.878	36.75
562.22	37.02
562.561	37.25
562.902	37.48
563.243	37.7
563.584	37.89
563.925	38.13
564.266	38.35
564.607	38.56
564.948	38.8
565.289	38.99
565.63	39.18
565.971	39.35
566.312	39.56
566.653	39.79
566.993	39.99
567.334	40.17
567.675	40.35
568.015	40.54
568.356	40.73
568.696	40.82
569.037	41.02
569.377	41.22
569.718	41.42
570.058	41.66
570.398	41.79
570.739	41.95
571.079	42.13
571.419	42.25
571.759	42.44
572.099	42.59
572.439	42.71
572.779	42.85
573.119	43.01
573.459	43.1
573.799	43.23
574.139	43.35
574.479	43.51
574.819	43.63
575.158	43.74
575.498	43.92
575.838	44.09
576.177	44.19
576.517	44.28
576.856	44.44
577.196	44.56
577.535	44.72
577.875	44.87
578.214	44.96
578.553	45.12
578.893	45.28
579.232	45.41
579.571	45.63
579.91	45.77
580.25	45.98
580.589	46.1
580.928	46.24
581.267	46.37
581.606	46.49
581.945	46.64
582.283	46.82
582.622	46.88
582.961	46.98
583.3	47.13
583.639	47.29
583.977	47.37
584.316	47.43
584.654	47.51
584.993	47.58
585.332	47.7
585.67	47.83
586.008	47.95
586.347	48.03
586.685	48.11
587.024	48.28
587.362	48.31
587.7	48.43
588.038	48.52
588.376	48.66
588.715	48.79
589.053	48.87
589.391	48.95
589.729	49.08
590.067	49.18
590.404	49.31
590.742	49.38
591.08	49.5
591.418	49.64
591.756	49.85
592.093	49.96
592.431	50.11
592.769	50.27
593.106	50.36
593.444	50.48
593.781	50.52
594.119	50.57
594.456	50.73
594.793	50.89
595.131	51
595.468	51.06
595.805	51.23
596.143	51.3
596.48	51.36
596.817	51.31
597.154	51.38
597.491	51.35
597.828	51.46
598.165	51.43
598.502	51.42
598.839	51.45
599.176	51.57
599.512	51.55
599.849	51.61
600.186	51.65
600.523	51.74
600.859	51.78
601.196	51.88
601.532	51.86
601.869	51.92
602.205	51.98
602.542	52.08
602.878	52.04
603.215	52.11
603.551	52.18
603.887	52.32
604.223	52.41
604.56	52.55
604.896	52.59
605.232	52.71
605.568	52.77
605.904	52.83
606.24	52.89
606.576	52.98
606.912	52.93
607.248	53.04
607.583	53.14
607.919	53.2
608.255	53.2
608.591	53.31
608.926	53.32
609.262	53.39
609.597	53.45
609.933	53.49
610.268	53.52
610.604	53.5
610.939	53.47
611.275	53.49
611.61	53.46
611.945	53.45
612.281	53.52
612.616	53.6
612.951	53.64
613.286	53.71
613.621	53.74
613.956	53.88
614.291	53.92
614.626	53.87
614.961	53.94
615.296	53.97
615.631	53.97
615.966	53.97
616.3	53.97
616.635	53.96
616.97	54.04
617.304	54.12
617.639	54.24
617.973	54.39
618.308	54.44
618.642	54.58
618.977	54.61
619.311	54.62
619.646	54.58
619.98	54.59
620.314	54.54
620.648	54.62
620.983	54.55
621.317	54.57
621.651	54.58
621.985	54.6
622.319	54.68
622.653	54.72
622.987	54.81
623.321	54.86
623.655	54.95
623.988	54.99
624.322	54.99
624.656	55.08
624.99	55.06
625.323	55.11
625.657	55.11
625.99	55.18
626.324	55.31
626.657	55.36
626.991	55.47
627.324	55.5
627.658	55.47
627.991	55.57
628.324	55.59
628.657	55.65
628.991	55.67
629.324	55.66
629.657	55.72
629.99	55.78
630.323	55.9
630.656	55.87
630.989	55.89
631.322	55.94
631.655	56.01
631.987	56.06
632.32	56.01
632.653	56.01
632.986	56.04
633.318	56.05
633.651	56.1
633.984	56.13
634.316	56.25
634.649	56.31
634.981	56.34
635.313	56.21
635.646	56.28
635.978	56.38
636.31	56.46
636.643	56.38
636.975	56.33
637.307	56.27
637.639	56.34
637.971	56.32
638.303	56.35
638.635	56.25
638.967	56.39
639.299	56.5
639.631	56.57
639.963	56.58
640.295	56.57
640.626	56.69
640.958	56.63
641.29	56.63
641.621	56.59
641.953	56.7
642.285	56.85
642.616	56.93
642.948	57
643.279	57
643.61	57.09
643.942	57.14
644.273	57.15
644.604	57.13
644.936	57.12
645.267	57.16
645.598	57.16
645.929	57.03
646.26	57.1
646.591	57.08
646.922	57.1
647.253	57.06
647.584	56.92
647.915	56.93
648.245	57.03
648.576	57.19
648.907	57.08
649.238	57.08
649.568	57.05
649.899	56.96
650.229	57
650.56	57.02
650.89	57.01
651.221	57
651.551	56.98
651.882	57.12
652.212	57.19
652.542	57.34
652.872	57.45
653.203	57.41
653.533	57.49
653.863	57.51
654.193	57.52
654.523	57.52
654.853	57.58
655.183	57.6
655.513	57.67
655.843	57.79
656.172	57.81
656.502	57.83
656.832	58.08
657.162	58.06
657.491	58.04
657.821	58.13
658.15	58.24
658.48	58.38
658.809	58.43
659.139	58.38
659.468	58.37
659.798	58.33
660.127	58.33
660.456	58.32
660.785	58.43
661.115	58.51
661.444	58.63
661.773	58.66
662.102	58.49
662.431	58.43
662.76	58.39
663.089	58.52
663.418	58.46
663.747	58.42
664.076	58.5
664.404	58.47
664.733	58.62
665.062	58.53
665.39	58.4
665.719	58.27
666.048	58.27
666.376	58.15
666.705	58.14
667.033	58.1
667.362	58.11
667.69	57.99
668.018	58.08
668.347	58.19
