Data from BU26844_Reflection_00002.txt Node
Date: Mon Nov 18 16:36:00 EST 2019
User: vgr7
Spectrometer: USB2G7710
Scans to average: 3
Trigger mode: 4
Integration Time (sec): 2.000000E-2
Electric dark correction enabled: true
Boxcar width: 10
XAxis mode: Wavelengths
Number of Pixels in Spectrum: 2048
>>>>>Begin Spectral Data<<<<<
177.721	592.35
178.105	8766.67
178.488	-122.58
178.871	-9733.33
179.254	201.57
179.636	-983.33
180.019	86.16
180.402	44.44
180.785	183.52
181.168	187.9
181.55	143.74
181.933	169.42
182.316	206.53
182.698	234.6
183.081	181.48
183.463	283.71
183.846	313.68
184.228	233.21
184.611	367.76
184.993	999.71
185.376	8978.79
185.758	-416.41
186.14	-311.61
186.522	-271.36
186.904	-807.59
187.287	1397.19
187.669	-308.72
188.051	-346.59
188.433	-220.36
188.815	-94.49
189.197	-79.02
189.579	-74.02
189.961	-80.01
190.342	-107.34
190.724	-58.64
191.106	-58.42
191.488	-45.45
191.869	-22.47
192.251	-40.04
192.633	-64.42
193.014	-77.26
193.396	-102.34
193.777	-110.36
194.159	-110.44
194.54	-81.5
194.922	-73.97
195.303	-74.37
195.684	-97.52
196.065	-67.57
196.447	-56.29
196.828	-79.49
197.209	-85.95
197.59	-86.64
197.971	-75.68
198.352	-59.87
198.733	-91.3
199.114	-74
199.495	-62.57
199.876	-67.55
200.257	-59.82
200.638	-41.58
201.018	-53.94
201.399	-27.42
201.78	-8.73
202.16	-11.11
202.541	-81.01
202.922	-82.5
203.302	-88.18
203.683	-80.78
204.063	-199.37
204.444	-332.4
204.824	-168.24
205.204	-101.93
205.585	-155.69
205.965	-140.18
206.345	-207.63
206.725	-244.86
207.106	-354.35
207.486	-501.12
207.866	-838.19
208.246	-740.67
208.626	-1261.37
209.006	-253.26
209.386	-294.24
209.766	-341.3
210.145	-176.08
210.525	-188.81
210.905	-189.4
211.285	-152.47
211.664	-98.88
212.044	-91.9
212.424	-55.85
212.803	-79.76
213.183	-63.93
213.562	-65.5
213.942	-51.2
214.321	-38.49
214.701	-44.89
215.08	-45.57
215.459	-42.35
215.838	-31.41
216.218	-32.98
216.597	-16.89
216.976	-24.63
217.355	-23.61
217.734	-14.73
218.113	-21.86
218.492	-24.34
218.871	-28.06
219.25	-10.75
219.629	-25.69
220.008	-23
220.387	-29.74
220.766	-32.09
221.144	-43.96
221.523	-35.7
221.902	-35.95
222.28	-37.45
222.659	-19.32
223.037	-15.71
223.416	-27.46
223.794	-43.16
224.173	-35.92
224.551	-34.1
224.929	-26.37
225.308	-23.55
225.686	-26.63
226.064	-21.2
226.442	-16.82
226.821	-9.35
227.199	-15.19
227.577	-12.87
227.955	-15.5
228.333	-14.25
228.711	-10
229.089	-6
229.467	-8.65
229.845	-10.89
230.222	-9.1
230.6	-7.49
230.978	-5.98
231.356	-2.34
231.733	-2.56
232.111	-1.92
232.488	-0.6
232.866	0.51
233.243	2.1
233.621	1.06
233.998	1.79
234.376	0.87
234.753	-0.8
235.13	-0.39
235.508	-0.58
235.885	0.05
236.262	-1.27
236.639	-0.78
237.016	-1.86
237.393	-0.09
237.77	1.03
238.147	2.07
238.524	1.24
238.901	0.92
239.278	1.22
239.655	2.1
240.032	2.24
240.409	1.59
240.785	1.1
241.162	1.14
241.539	1.31
241.915	1.35
242.292	1.76
242.668	1.93
243.045	2.29
243.421	2.77
243.798	3.43
244.174	3.4
244.551	3.24
244.927	3.11
245.303	3.14
245.679	3.18
246.056	3.27
246.432	3.14
246.808	3
247.184	2.8
247.56	2.84
247.936	2.75
248.312	2.99
248.688	2.98
249.064	3.04
249.44	3.14
249.815	3.09
250.191	3.08
250.567	2.99
250.943	2.74
251.318	2.62
251.694	2.3
252.069	2.41
252.445	2.66
252.82	2.97
253.196	2.99
253.571	3.11
253.947	2.8
254.322	3.14
254.697	3.16
255.073	2.92
255.448	2.8
255.823	2.91
256.198	3.01
256.573	3.09
256.948	3.08
257.323	3.15
257.698	3.2
258.073	3.15
258.448	3.24
258.823	3.23
259.198	3.08
259.573	3.14
259.948	3.16
260.322	3.06
260.697	2.96
261.072	2.8
261.446	2.69
261.821	2.72
262.195	2.65
262.57	2.7
262.944	2.84
263.319	2.7
263.693	2.61
264.067	2.41
264.442	2.54
264.816	2.41
265.19	2.31
265.564	2.38
265.938	2.32
266.313	2.31
266.687	2.56
267.061	2.91
267.435	2.91
267.809	2.75
268.183	2.73
268.556	2.86
268.93	2.95
269.304	3.06
269.678	3.11
270.051	3.07
270.425	3.1
270.799	2.99
271.172	3.13
271.546	3.21
271.919	3.25
272.293	3.14
272.666	3.23
273.04	3.37
273.413	3.25
273.787	3.3
274.16	3.25
274.533	3.16
274.906	2.89
275.279	2.8
275.653	2.91
276.026	3.01
276.399	2.86
276.772	2.91
277.145	2.75
277.518	2.83
277.891	2.95
278.263	2.86
278.636	2.83
279.009	2.83
279.382	2.8
279.755	2.8
280.127	2.88
280.5	3.02
280.872	3.02
281.245	2.99
281.617	3.15
281.99	3.24
282.362	3.29
282.735	3.36
283.107	3.37
283.479	3.29
283.852	3.22
284.224	3.38
284.596	3.34
284.968	3.41
285.34	3.34
285.713	3.3
286.085	3.38
286.457	3.61
286.829	3.65
287.201	3.59
287.572	3.62
287.944	3.58
288.316	3.51
288.688	3.48
289.06	3.45
289.431	3.3
289.803	3.17
290.175	3.06
290.546	3.25
290.918	3.32
291.289	3.45
291.661	3.49
292.032	3.46
292.403	3.44
292.775	3.48
293.146	3.46
293.517	3.39
293.889	3.35
294.26	3.23
294.631	3.19
295.002	3.23
295.373	3.33
295.744	3.26
296.115	3.24
296.486	3.23
296.857	3.32
297.228	3.38
297.599	3.42
297.97	3.56
298.34	3.41
298.711	3.45
299.082	3.44
299.452	3.54
299.823	3.61
300.194	3.58
300.564	3.51
300.935	3.63
301.305	3.71
301.676	3.71
302.046	3.68
302.416	3.8
302.787	3.84
303.157	3.68
303.527	3.73
303.897	3.66
304.267	3.77
304.637	3.81
305.008	3.86
305.378	3.98
305.748	3.93
306.117	3.83
306.487	3.81
306.857	3.79
307.227	3.8
307.597	3.64
307.967	3.83
308.336	3.96
308.706	3.89
309.076	3.84
309.445	3.92
309.815	3.94
310.184	3.87
310.554	3.89
310.923	3.93
311.293	3.92
311.662	3.87
312.031	3.8
312.401	3.87
312.77	4.01
313.139	4.06
313.508	3.99
313.877	4.07
314.246	4.17
314.616	4.13
314.985	4.01
315.353	3.89
315.722	3.83
316.091	3.78
316.46	3.77
316.829	3.9
317.198	3.86
317.567	3.98
317.935	3.91
318.304	3.88
318.672	3.78
319.041	4
319.41	4.09
319.778	4.12
320.147	4.01
320.515	3.91
320.883	3.76
321.252	3.8
321.62	3.84
321.988	3.67
322.357	3.74
322.725	3.78
323.093	4.03
323.461	3.96
323.829	3.93
324.197	3.88
324.565	3.75
324.933	3.82
325.301	3.76
325.669	3.79
326.037	3.77
326.405	3.82
326.772	3.75
327.14	3.7
327.508	3.63
327.875	3.6
328.243	3.56
328.61	3.62
328.978	3.79
329.346	3.79
329.713	3.85
330.08	3.86
330.448	3.82
330.815	3.7
331.182	3.67
331.55	3.74
331.917	3.74
332.284	3.73
332.651	3.68
333.018	3.63
333.385	3.72
333.752	3.82
334.119	3.89
334.486	3.89
334.853	3.97
335.22	3.95
335.587	3.94
335.954	3.85
336.32	3.73
336.687	3.58
337.054	3.57
337.42	3.62
337.787	3.62
338.153	3.56
338.52	3.62
338.886	3.62
339.253	3.63
339.619	3.75
339.986	3.83
340.352	3.84
340.718	3.83
341.084	3.73
341.451	3.69
341.817	3.75
342.183	3.76
342.549	3.75
342.915	3.83
343.281	3.84
343.647	3.89
344.013	3.86
344.379	3.91
344.745	3.97
345.11	3.82
345.476	3.8
345.842	3.86
346.208	3.84
346.573	4.04
346.939	4.05
347.304	3.96
347.67	3.83
348.035	3.82
348.401	3.87
348.766	3.95
349.132	4.01
349.497	3.9
349.862	3.95
350.228	3.96
350.593	3.84
350.958	3.82
351.323	3.78
351.688	3.79
352.053	3.81
352.418	3.83
352.783	3.8
353.148	3.74
353.513	3.73
353.878	3.76
354.243	3.68
354.608	3.64
354.972	3.57
355.337	3.72
355.702	3.74
356.066	3.8
356.431	3.75
356.795	3.73
357.16	3.69
357.524	3.54
357.889	3.57
358.253	3.68
358.618	3.71
358.982	3.67
359.346	3.77
359.71	3.73
360.075	3.72
360.439	3.8
360.803	3.86
361.167	3.82
361.531	3.79
361.895	3.75
362.259	3.72
362.623	3.78
362.987	3.77
363.351	3.8
363.714	3.78
364.078	3.75
364.442	3.71
364.806	3.79
365.169	3.81
365.533	3.75
365.896	3.75
366.26	3.76
366.623	3.79
366.987	3.72
367.35	3.81
367.714	3.78
368.077	3.74
368.44	3.77
368.803	3.81
369.167	3.81
369.53	3.8
369.893	3.82
370.256	3.87
370.619	3.84
370.982	3.76
371.345	3.7
371.708	3.74
372.071	3.71
372.434	3.7
372.797	3.73
373.159	3.78
373.522	3.77
373.885	3.75
374.247	3.82
374.61	3.85
374.973	3.82
375.335	3.86
375.698	3.94
376.06	3.89
376.423	3.85
376.785	3.87
377.147	3.9
377.51	3.93
377.872	3.92
378.234	3.92
378.596	3.95
378.958	3.97
379.321	3.98
379.683	4.01
380.045	4.03
380.407	4.01
380.769	4
381.13	3.97
381.492	3.95
381.854	3.94
382.216	3.97
382.578	3.95
382.939	3.89
383.301	3.85
383.663	3.83
384.024	3.88
384.386	3.93
384.747	3.94
385.109	3.91
385.47	3.89
385.832	3.88
386.193	3.92
386.554	3.95
386.916	3.95
387.277	4.01
387.638	3.99
387.999	3.97
388.36	3.95
388.721	3.96
389.082	3.98
389.443	3.97
389.804	3.91
390.165	3.93
390.526	3.96
390.887	3.98
391.248	4.02
391.609	4.03
391.969	3.95
392.33	3.94
392.691	3.99
393.051	3.97
393.412	4.01
393.772	3.98
394.133	3.99
394.493	3.99
394.854	3.97
395.214	3.94
395.574	3.95
395.935	3.97
396.295	3.99
396.655	4.02
397.015	4.06
397.376	4.1
397.736	4.11
398.096	4.09
398.456	4.11
398.816	4.14
399.176	4.11
399.535	4.17
399.895	4.17
400.255	4.16
400.615	4.17
400.975	4.15
401.334	4.16
401.694	4.15
402.054	4.14
402.413	4.09
402.773	4.09
403.132	4.1
403.492	4.1
403.851	4.1
404.211	4.08
404.57	4.01
404.929	4
405.288	3.99
405.648	4.03
406.007	4.02
406.366	4.01
406.725	4.03
407.084	4.01
407.443	4.01
407.802	4.01
408.161	4.02
408.52	4.03
408.879	4.04
409.238	4.04
409.596	4.04
409.955	4.09
410.314	4.12
410.673	4.11
411.031	4.13
411.39	4.09
411.748	4.09
412.107	4.15
412.465	4.13
412.824	4.12
413.182	4.09
413.54	4.1
413.899	4.1
414.257	4.11
414.615	4.12
414.974	4.12
415.332	4.11
415.69	4.09
416.048	4.08
416.406	4.08
416.764	4.06
417.122	4.07
417.48	4.04
417.838	4.05
418.195	4.07
418.553	4.06
418.911	4.08
419.269	4.06
419.626	4.04
419.984	4.05
420.342	4.05
420.699	4.06
421.057	4.04
421.414	4.03
421.772	4.04
422.129	4.02
422.486	4.03
422.844	4.05
423.201	4.04
423.558	4.04
423.915	4.05
424.273	4.06
424.63	4.06
424.987	4.06
425.344	4.07
425.701	4.07
426.058	4.08
426.415	4.07
426.772	4.1
427.128	4.11
427.485	4.12
427.842	4.11
428.199	4.1
428.555	4.12
428.912	4.13
429.269	4.11
429.625	4.13
429.982	4.12
430.338	4.11
430.695	4.13
431.051	4.12
431.407	4.1
431.764	4.11
432.12	4.11
432.476	4.11
432.832	4.07
433.189	4.08
433.545	4.06
433.901	4.05
434.257	4.07
434.613	4.08
434.969	4.09
435.325	4.09
435.681	4.09
436.036	4.09
436.392	4.09
436.748	4.08
437.104	4.08
437.459	4.07
437.815	4.06
438.171	4.07
438.526	4.06
438.882	4.08
439.237	4.08
439.593	4.06
439.948	4.08
440.304	4.09
440.659	4.08
441.014	4.1
441.369	4.11
441.725	4.08
442.08	4.09
442.435	4.09
442.79	4.11
443.145	4.1
443.5	4.09
443.855	4.07
444.21	4.08
444.565	4.08
444.92	4.08
445.275	4.09
445.629	4.09
445.984	4.09
446.339	4.09
446.693	4.09
447.048	4.08
447.403	4.05
447.757	4.06
448.112	4.06
448.466	4.05
448.82	4.05
449.175	4.06
449.529	4.03
449.883	4.02
450.238	3.99
450.592	4
450.946	3.99
451.3	4
451.654	3.98
452.008	4
452.362	3.99
452.716	3.99
453.07	3.98
453.424	4.01
453.778	3.98
454.132	3.96
454.486	3.99
454.839	4
455.193	4.01
455.547	4
455.9	4.02
456.254	4.01
456.607	4.03
456.961	4.02
457.314	4.04
457.668	4.05
458.021	4.05
458.375	4.06
458.728	4.07
459.081	4.09
459.434	4.08
459.787	4.08
460.141	4.09
460.494	4.09
460.847	4.07
461.2	4.09
461.553	4.09
461.906	4.09
462.259	4.1
462.611	4.1
462.964	4.12
463.317	4.11
463.67	4.13
464.022	4.11
464.375	4.12
464.728	4.11
465.08	4.12
465.433	4.14
465.785	4.14
466.138	4.13
466.49	4.12
466.843	4.11
467.195	4.13
467.547	4.15
467.899	4.16
468.252	4.17
468.604	4.17
468.956	4.17
469.308	4.17
469.66	4.17
470.012	4.19
470.364	4.18
470.716	4.18
471.068	4.19
471.42	4.19
471.772	4.2
472.123	4.2
472.475	4.21
472.827	4.21
473.178	4.21
473.53	4.22
473.882	4.24
474.233	4.26
474.585	4.25
474.936	4.23
475.288	4.22
475.639	4.24
475.99	4.24
476.342	4.27
476.693	4.27
477.044	4.27
477.395	4.27
477.746	4.27
478.097	4.27
478.448	4.26
478.8	4.27
479.15	4.26
479.501	4.26
479.852	4.27
480.203	4.28
480.554	4.28
480.905	4.29
481.255	4.3
481.606	4.3
481.957	4.31
482.307	4.31
482.658	4.31
483.009	4.3
483.359	4.31
483.709	4.31
484.06	4.31
484.41	4.31
484.761	4.3
485.111	4.3
485.461	4.31
485.811	4.31
486.162	4.3
486.512	4.31
486.862	4.32
487.212	4.32
487.562	4.32
487.912	4.32
488.262	4.32
488.612	4.32
488.961	4.32
489.311	4.31
489.661	4.32
490.011	4.31
490.36	4.3
490.71	4.29
491.06	4.29
491.409	4.29
491.759	4.29
492.108	4.31
492.458	4.32
492.807	4.3
493.157	4.32
493.506	4.33
493.855	4.32
494.204	4.31
494.554	4.29
494.903	4.29
495.252	4.29
495.601	4.27
495.95	4.28
496.299	4.29
496.648	4.3
496.997	4.32
497.346	4.34
497.695	4.37
498.043	4.38
498.392	4.35
498.741	4.36
499.09	4.38
499.438	4.38
499.787	4.37
500.135	4.4
500.484	4.39
500.832	4.4
501.181	4.42
501.529	4.43
501.878	4.46
502.226	4.46
502.574	4.48
502.923	4.51
503.271	4.52
503.619	4.52
503.967	4.49
504.315	4.49
504.663	4.49
505.011	4.49
505.359	4.51
505.707	4.53
506.055	4.55
506.403	4.57
506.751	4.56
507.098	4.58
507.446	4.6
507.794	4.61
508.141	4.6
508.489	4.61
508.837	4.64
509.184	4.63
509.531	4.64
509.879	4.64
510.226	4.64
510.574	4.67
510.921	4.68
511.268	4.7
511.616	4.7
511.963	4.71
512.31	4.72
512.657	4.72
513.004	4.73
513.351	4.72
513.698	4.73
514.045	4.74
514.392	4.74
514.739	4.71
515.086	4.72
515.432	4.72
515.779	4.72
516.126	4.71
516.473	4.73
516.819	4.73
517.166	4.74
517.512	4.74
517.859	4.73
518.205	4.72
518.552	4.74
518.898	4.74
519.245	4.75
519.591	4.75
519.937	4.73
520.283	4.74
520.629	4.75
520.976	4.73
521.322	4.75
521.668	4.75
522.014	4.78
522.36	4.79
522.706	4.8
523.052	4.83
523.398	4.83
523.743	4.83
524.089	4.84
524.435	4.83
524.781	4.84
525.126	4.84
525.472	4.85
525.817	4.84
526.163	4.85
526.509	4.85
526.854	4.87
527.199	4.89
527.545	4.9
527.89	4.9
528.235	4.91
528.581	4.9
528.926	4.9
529.271	4.9
529.616	4.9
529.961	4.91
530.306	4.9
530.651	4.9
530.996	4.9
531.341	4.89
531.686	4.89
532.031	4.89
532.376	4.9
532.721	4.9
533.065	4.9
533.41	4.91
533.755	4.91
534.099	4.91
534.444	4.9
534.788	4.92
535.133	4.93
535.477	4.93
535.822	4.93
536.166	4.94
536.51	4.93
536.855	4.96
537.199	4.95
537.543	4.96
537.887	4.97
538.231	4.98
538.576	5.01
538.92	5.03
539.264	5.04
539.608	5.04
539.951	5.05
540.295	5.05
540.639	5.05
540.983	5.05
541.327	5.04
541.671	5.06
542.014	5.03
542.358	5.04
542.701	5.03
543.045	5.04
543.389	5.05
543.732	5.04
544.075	5.02
544.419	5.01
544.762	4.99
545.105	5
545.449	4.99
545.792	4.96
546.135	4.95
546.478	4.94
546.821	4.94
547.165	4.95
547.508	4.96
547.851	4.96
548.194	4.94
548.536	4.95
548.879	4.92
549.222	4.93
549.565	4.93
549.908	4.96
550.25	4.95
550.593	4.96
550.936	4.97
551.278	4.96
551.621	4.97
551.963	4.98
552.306	4.98
552.648	4.99
552.991	5.02
553.333	5.02
553.675	5.01
554.017	5.02
554.36	5.01
554.702	5.01
555.044	5.02
555.386	5.03
555.728	5.01
556.07	5.03
556.412	5.03
556.754	5.02
557.096	4.99
557.438	4.99
557.78	4.99
558.121	5.02
558.463	5.02
558.805	5.01
559.147	5.01
559.488	5.02
559.83	5.02
560.171	5
560.513	5.02
560.854	5.03
561.196	5.04
561.537	5.04
561.878	5.01
562.22	4.97
562.561	4.96
562.902	4.96
563.243	4.95
563.584	4.95
563.925	4.94
564.266	4.94
564.607	4.94
564.948	4.93
565.289	4.92
565.63	4.95
565.971	4.94
566.312	4.95
566.653	4.97
566.993	4.99
567.334	5
567.675	5.01
568.015	5.04
568.356	5.06
568.696	5.06
569.037	5.11
569.377	5.16
569.718	5.15
570.058	5.2
570.398	5.19
570.739	5.22
571.079	5.23
571.419	5.23
571.759	5.24
572.099	5.26
572.439	5.26
572.779	5.24
573.119	5.27
573.459	5.29
573.799	5.29
574.139	5.29
574.479	5.27
574.819	5.28
575.158	5.25
575.498	5.22
575.838	5.21
576.177	5.15
576.517	5.13
576.856	5.13
577.196	5.09
577.535	5.09
577.875	5.08
578.214	5.08
578.553	5.07
578.893	5.06
579.232	5.05
579.571	5.07
579.91	5.08
580.25	5.09
580.589	5.05
580.928	5.02
581.267	5.04
581.606	5.05
581.945	5.01
582.283	5
582.622	5.03
582.961	5.11
583.3	5.16
583.639	5.18
583.977	5.23
584.316	5.24
584.654	5.21
584.993	5.21
585.332	5.2
585.67	5.26
586.008	5.27
586.347	5.28
586.685	5.26
587.024	5.25
587.362	5.25
587.7	5.29
588.038	5.27
588.376	5.25
588.715	5.25
589.053	5.32
589.391	5.37
589.729	5.36
590.067	5.34
590.404	5.34
590.742	5.35
591.08	5.31
591.418	5.34
591.756	5.38
592.093	5.36
592.431	5.37
592.769	5.35
593.106	5.34
593.444	5.33
593.781	5.35
594.119	5.35
594.456	5.31
594.793	5.3
595.131	5.31
595.468	5.32
595.805	5.31
596.143	5.24
596.48	5.2
596.817	5.18
597.154	5.2
597.491	5.16
597.828	5.15
598.165	5.16
598.502	5.15
598.839	5.16
599.176	5.16
599.512	5.16
599.849	5.17
600.186	5.22
600.523	5.24
600.859	5.24
601.196	5.26
601.532	5.27
601.869	5.24
602.205	5.26
602.542	5.24
602.878	5.25
603.215	5.31
603.551	5.34
603.887	5.36
604.223	5.31
604.56	5.32
604.896	5.3
605.232	5.32
605.568	5.32
605.904	5.32
606.24	5.33
606.576	5.33
606.912	5.31
607.248	5.27
607.583	5.27
607.919	5.25
608.255	5.25
608.591	5.27
608.926	5.31
609.262	5.32
609.597	5.35
609.933	5.41
610.268	5.35
610.604	5.36
610.939	5.35
611.275	5.34
611.61	5.35
611.945	5.37
612.281	5.36
612.616	5.39
612.951	5.44
613.286	5.47
613.621	5.48
613.956	5.5
614.291	5.51
614.626	5.51
614.961	5.48
615.296	5.45
615.631	5.44
615.966	5.41
616.3	5.45
616.635	5.48
616.97	5.42
617.304	5.46
617.639	5.44
617.973	5.45
618.308	5.47
618.642	5.47
618.977	5.44
619.311	5.45
619.646	5.44
619.98	5.39
620.314	5.38
620.648	5.41
620.983	5.44
621.317	5.44
621.651	5.42
621.985	5.47
622.319	5.5
622.653	5.54
622.987	5.58
623.321	5.54
623.655	5.5
623.988	5.56
624.322	5.55
624.656	5.58
624.99	5.6
625.323	5.63
625.657	5.63
625.99	5.69
626.324	5.69
626.657	5.72
626.991	5.73
627.324	5.75
627.658	5.78
627.991	5.75
628.324	5.73
628.657	5.76
628.991	5.77
629.324	5.75
629.657	5.76
629.99	5.78
630.323	5.79
630.656	5.83
630.989	5.83
631.322	5.84
631.655	5.81
631.987	5.81
632.32	5.85
632.653	5.87
632.986	5.84
633.318	5.85
633.651	5.82
633.984	5.83
634.316	5.79
634.649	5.73
634.981	5.72
635.313	5.75
635.646	5.76
635.978	5.74
636.31	5.76
636.643	5.72
636.975	5.7
637.307	5.67
637.639	5.64
637.971	5.61
638.303	5.6
638.635	5.55
638.967	5.57
639.299	5.51
639.631	5.49
639.963	5.44
640.295	5.46
640.626	5.48
640.958	5.46
641.29	5.45
641.621	5.4
641.953	5.41
642.285	5.4
642.616	5.46
642.948	5.49
643.279	5.49
643.61	5.49
643.942	5.5
644.273	5.48
644.604	5.47
644.936	5.43
645.267	5.47
645.598	5.51
645.929	5.5
646.26	5.58
646.591	5.64
646.922	5.72
647.253	5.72
647.584	5.69
647.915	5.72
648.245	5.76
648.576	5.86
648.907	5.86
649.238	5.83
649.568	5.8
649.899	5.77
650.229	5.76
650.56	5.77
650.89	5.83
651.221	5.94
651.551	5.89
651.882	5.96
652.212	5.98
652.542	5.98
652.872	5.93
653.203	5.82
653.533	5.76
653.863	5.76
654.193	5.72
654.523	5.76
654.853	5.76
655.183	5.82
655.513	5.8
655.843	5.84
656.172	5.91
656.502	5.89
656.832	5.89
657.162	5.93
657.491	5.91
657.821	5.85
658.15	5.75
658.48	5.77
658.809	5.73
659.139	5.68
659.468	5.66
659.798	5.71
660.127	5.73
660.456	5.76
660.785	5.78
661.115	5.78
661.444	5.75
661.773	5.76
662.102	5.7
662.431	5.73
662.76	5.67
663.089	5.66
663.418	5.68
663.747	5.71
664.076	5.73
664.404	5.71
664.733	5.82
665.062	5.88
665.39	5.93
665.719	5.99
666.048	6.08
666.376	6.12
666.705	6.08
667.033	6.14
667.362	6.19
667.69	6.16
668.018	6.2
668.347	6.21
668.675	6.22
669.003	6.26
669.331	6.23
669.659	6.28
669.987	6.27
670.315	6.25
670.643	6.31
670.971	6.36
671.299	6.44
671.627	6.31
671.955	6.27
672.283	6.3
672.61	6.21
672.938	6.13
673.266	6.13
673.593	6.23
673.921	6.19
674.249	6.17
674.576	6.19
674.904	6.13
675.231	6.14
675.558	6.1
675.886	6.08
676.213	6.05
676.54	6.06
