Data from BU26851_Reflection_00005.txt Node
Date: Mon Nov 18 16:48:12 EST 2019
User: vgr7
Spectrometer: USB2G7710
Scans to average: 3
Trigger mode: 4
Integration Time (sec): 2.000000E-2
Electric dark correction enabled: true
Boxcar width: 10
XAxis mode: Wavelengths
Number of Pixels in Spectrum: 2048
>>>>>Begin Spectral Data<<<<<
177.721	52.09
178.105	45.95
178.488	-1482.28
178.871	83.47
179.254	489.83
179.636	-40.68
180.019	896.61
180.402	91.67
180.785	29.35
181.168	170.9
181.55	386.71
181.933	156.68
182.316	237.69
182.698	161.16
183.081	381.89
183.463	-1745.36
183.846	-529.39
184.228	-5480.65
184.611	751.61
184.993	794.92
185.376	-52.88
185.758	-32.32
186.14	-305.86
186.522	-481.99
186.904	4030.23
187.287	-421.53
187.669	638.46
188.051	-643.84
188.433	1145.11
188.815	111.7
189.197	213.56
189.579	271.57
189.961	163.98
190.342	175.9
190.724	170.85
191.106	248.11
191.488	954.25
191.869	-2032.74
192.251	601.73
192.633	-13627.27
193.014	769.29
193.396	10.36
193.777	-78.25
194.159	-283.05
194.54	-178.69
194.922	-2695.92
195.303	-235.42
195.684	-391.71
196.065	-228.99
196.447	-241.85
196.828	19.67
197.209	-292.27
197.59	4410.34
197.971	635.48
198.352	-209.45
198.733	-169.98
199.114	-20.43
199.495	-49.45
199.876	-27.58
200.257	-1.35
200.638	15.07
201.018	66.23
201.399	84.11
201.78	74.33
202.16	79.29
202.541	48.48
202.922	40.37
203.302	39.79
203.683	40.55
204.063	46.98
204.444	90.41
204.824	64.24
205.204	65.92
205.585	89.92
205.965	114.93
206.345	159.54
206.725	246.99
207.106	283.43
207.486	-82.27
207.866	12.89
208.246	-42.02
208.626	-32.22
209.006	-177.42
209.386	-2.7
209.766	760.38
210.145	97.61
210.525	-74.83
210.905	19.67
211.285	27.43
211.664	74.97
212.044	39.7
212.424	5.86
212.803	24.72
213.183	30
213.562	10.38
213.942	29.21
214.321	46.5
214.701	31.64
215.08	9.61
215.459	28.75
215.838	44.46
216.218	22.73
216.597	27.95
216.976	39.58
217.355	39.72
217.734	50.27
218.113	43.17
218.492	35.83
218.871	33.22
219.25	27.89
219.629	9.19
220.008	4.48
220.387	11.8
220.766	5.09
221.144	-3.54
221.523	-0.03
221.902	-21.15
222.28	-32.82
222.659	-15.9
223.037	7.67
223.416	-1.63
223.794	-11.57
224.173	7.82
224.551	11.48
224.929	-4.07
225.308	2.11
225.686	-3.15
226.064	-5.45
226.442	-9.64
226.821	-0.65
227.199	-0.72
227.577	-4.44
227.955	-0.59
228.333	-1.15
228.711	2.95
229.089	7.93
229.467	5.52
229.845	5.87
230.222	7.82
230.6	5.78
230.978	3.74
231.356	6.14
231.733	6.62
232.111	4.81
232.488	3.01
232.866	5.79
233.243	4.98
233.621	5.98
233.998	8.66
234.376	9.7
234.753	9.34
235.13	9.11
235.508	10
235.885	8.59
236.262	8.5
236.639	5.96
237.016	5.23
237.393	6.04
237.77	7.01
238.147	6.8
238.524	7.72
238.901	8.8
239.278	8.64
239.655	9.22
240.032	8.74
240.409	8.46
240.785	7.59
241.162	7.7
241.539	7.1
241.915	6.43
242.292	6.26
242.668	6.11
243.045	5.98
243.421	6.41
243.798	6.35
244.174	6.21
244.551	6.16
244.927	5.74
245.303	5.77
245.679	5.67
246.056	5.62
246.432	5.39
246.808	5.43
247.184	4.86
247.56	4.82
247.936	4.95
248.312	4.96
248.688	5.22
249.064	5.15
249.44	5.38
249.815	5.47
250.191	5.76
250.567	5.63
250.943	5.87
251.318	5.8
251.694	6.04
252.069	6.19
252.445	6.56
252.82	7.1
253.196	7.23
253.571	7.2
253.947	7.29
254.322	7.32
254.697	6.83
255.073	7.01
255.448	6.67
255.823	6.45
256.198	6.25
256.573	6.06
256.948	5.95
257.323	5.84
257.698	5.87
258.073	5.5
258.448	5.38
258.823	5.39
259.198	5.17
259.573	5.02
259.948	4.98
260.322	4.82
260.697	4.62
261.072	4.51
261.446	4.51
261.821	4.43
262.195	4.54
262.57	4.56
262.944	4.59
263.319	4.54
263.693	4.57
264.067	4.76
264.442	4.64
264.816	4.53
265.19	4.52
265.564	4.39
265.938	4.47
266.313	4.67
266.687	4.43
267.061	4.59
267.435	4.63
267.809	4.45
268.183	4.53
268.556	4.52
268.93	4.6
269.304	4.51
269.678	4.53
270.051	4.4
270.425	4.45
270.799	4.41
271.172	4.44
271.546	4.45
271.919	4.34
272.293	4.35
272.666	4.44
273.04	4.52
273.413	4.48
273.787	4.43
274.16	4.33
274.533	4.53
274.906	4.55
275.279	4.53
275.653	4.67
276.026	4.84
276.399	4.8
276.772	4.84
277.145	5.02
277.518	5.17
277.891	5.28
278.263	5.25
278.636	5.18
279.009	5.17
279.382	5.19
279.755	5.15
280.127	5.31
280.5	5.4
280.872	5.3
281.245	5.22
281.617	5.39
281.99	5.34
282.362	5.19
282.735	5.07
283.107	5.14
283.479	4.97
283.852	4.68
284.224	4.74
284.596	4.68
284.968	4.7
285.34	4.71
285.713	4.63
286.085	4.65
286.457	4.78
286.829	4.76
287.201	4.63
287.572	4.6
287.944	4.57
288.316	4.52
288.688	4.38
289.06	4.55
289.431	4.56
289.803	4.59
290.175	4.55
290.546	4.68
290.918	4.66
291.289	4.65
291.661	4.85
292.032	4.78
292.403	4.81
292.775	4.93
293.146	4.88
293.517	4.92
293.889	4.93
294.26	5
294.631	5
295.002	5.09
295.373	5.04
295.744	5
296.115	5.08
296.486	5.07
296.857	5.01
297.228	4.89
297.599	4.87
297.97	4.89
298.34	4.93
298.711	4.96
299.082	5.02
299.452	5.01
299.823	5.2
300.194	5.18
300.564	5.06
300.935	5.04
301.305	5.07
301.676	5.12
302.046	5.09
302.416	5.25
302.787	5.33
303.157	5.38
303.527	5.36
303.897	5.33
304.267	5.66
304.637	5.57
305.008	5.74
305.378	5.85
305.748	5.92
306.117	5.89
306.487	5.8
306.857	5.88
307.227	5.79
307.597	5.59
307.967	5.65
308.336	5.66
308.706	5.66
309.076	5.66
309.445	5.62
309.815	5.58
310.184	5.54
310.554	5.65
310.923	5.67
311.293	5.75
311.662	5.65
312.031	5.57
312.401	5.64
312.77	5.49
313.139	5.49
313.508	5.48
313.877	5.51
314.246	5.62
314.616	5.58
314.985	5.74
315.353	5.68
315.722	5.61
316.091	5.44
316.46	5.34
316.829	5.42
317.198	5.49
317.567	5.47
317.935	5.5
318.304	5.31
318.672	5.44
319.041	5.48
319.41	5.7
319.778	5.75
320.147	5.79
320.515	5.91
320.883	5.88
321.252	5.92
321.62	5.99
321.988	5.94
322.357	6.02
322.725	5.81
323.093	5.94
323.461	5.96
323.829	5.95
324.197	6.16
324.565	6.1
324.933	6.05
325.301	6.06
325.669	6.03
326.037	5.94
326.405	5.94
326.772	5.83
327.14	5.82
327.508	5.64
327.875	5.49
328.243	5.46
328.61	5.5
328.978	5.47
329.346	5.43
329.713	5.38
330.08	5.4
330.448	5.38
330.815	5.28
331.182	5.27
331.55	5.38
331.917	5.43
332.284	5.31
332.651	5.21
333.018	5.25
333.385	5.12
333.752	5.25
334.119	5.18
334.486	5.21
334.853	5.06
335.22	5.11
335.587	5.24
335.954	5.22
336.32	5.11
336.687	5.08
337.054	5.06
337.42	5
337.787	4.96
338.153	4.92
338.52	4.87
338.886	4.89
339.253	4.82
339.619	4.67
339.986	4.78
340.352	4.88
340.718	4.85
341.084	4.9
341.451	4.92
341.817	4.96
342.183	4.94
342.549	4.95
342.915	5.11
343.281	5.11
343.647	5.11
344.013	5.26
344.379	5.19
344.745	5.18
345.11	5.23
345.476	5.28
345.842	5.44
346.208	5.51
346.573	5.59
346.939	5.65
347.304	5.69
347.67	5.59
348.035	5.58
348.401	5.55
348.766	5.58
349.132	5.52
349.497	5.46
349.862	5.51
350.228	5.56
350.593	5.38
350.958	5.41
351.323	5.43
351.688	5.36
352.053	5.45
352.418	5.45
352.783	5.51
353.148	5.49
353.513	5.39
353.878	5.38
354.243	5.27
354.608	5.3
354.972	5.31
355.337	5.41
355.702	5.4
356.066	5.47
356.431	5.51
356.795	5.57
357.16	5.5
357.524	5.45
357.889	5.34
358.253	5.38
358.618	5.37
358.982	5.31
359.346	5.16
359.71	5.08
360.075	5.03
360.439	5.02
360.803	4.98
361.167	4.94
361.531	4.9
361.895	4.92
362.259	4.91
362.623	4.93
362.987	4.9
363.351	4.92
363.714	4.9
364.078	4.85
364.442	4.78
364.806	4.8
365.169	4.8
365.533	4.9
365.896	4.9
366.26	4.91
366.623	4.93
366.987	5.01
367.35	5.09
367.714	5.16
368.077	5.04
368.44	5.07
368.803	5.11
369.167	5.12
369.53	5.08
369.893	5.16
370.256	5.14
370.619	5.12
370.982	5.08
371.345	5.07
371.708	5.08
372.071	5.12
372.434	5.13
372.797	5.2
373.159	5.21
373.522	5.16
373.885	5.14
374.247	5.18
374.61	5.23
374.973	5.18
375.335	5.16
375.698	5.26
376.06	5.21
376.423	5.24
376.785	5.3
377.147	5.32
377.51	5.27
377.872	5.29
378.234	5.27
378.596	5.3
378.958	5.24
379.321	5.22
379.683	5.23
380.045	5.27
380.407	5.2
380.769	5.16
381.13	5.2
381.492	5.18
381.854	5.17
382.216	5.15
382.578	5.16
382.939	5.14
383.301	5.11
383.663	5.1
384.024	5.07
384.386	5.08
384.747	5.11
385.109	5.11
385.47	5.1
385.832	5.12
386.193	5.17
386.554	5.17
386.916	5.19
387.277	5.19
387.638	5.13
387.999	5.07
388.36	5.06
388.721	5.06
389.082	5.03
389.443	5
389.804	4.99
390.165	4.96
390.526	5.01
390.887	5.02
391.248	5.03
391.609	5.03
391.969	5.02
392.33	4.98
392.691	4.95
393.051	4.94
393.412	4.91
393.772	4.87
394.133	4.91
394.493	4.91
394.854	4.87
395.214	4.9
395.574	4.92
395.935	4.91
396.295	4.93
396.655	4.97
397.015	4.98
397.376	5.01
397.736	5.01
398.096	5
398.456	4.96
398.816	4.95
399.176	4.95
399.535	4.9
399.895	4.89
400.255	4.92
400.615	4.9
400.975	4.95
401.334	4.93
401.694	4.92
402.054	4.92
402.413	4.93
402.773	4.91
403.132	4.93
403.492	4.91
403.851	4.89
404.211	4.86
404.57	4.83
404.929	4.81
405.288	4.85
405.648	4.82
406.007	4.83
406.366	4.86
406.725	4.88
407.084	4.91
407.443	4.92
407.802	4.92
408.161	4.92
408.52	4.88
408.879	4.89
409.238	4.84
409.596	4.8
409.955	4.79
410.314	4.8
410.673	4.8
411.031	4.84
411.39	4.83
411.748	4.82
412.107	4.86
412.465	4.86
412.824	4.88
413.182	4.86
413.54	4.86
413.899	4.83
414.257	4.81
414.615	4.77
414.974	4.79
415.332	4.77
415.69	4.75
416.048	4.74
416.406	4.73
416.764	4.74
417.122	4.76
417.48	4.75
417.838	4.75
418.195	4.74
418.553	4.71
418.911	4.71
419.269	4.72
419.626	4.72
419.984	4.72
420.342	4.69
420.699	4.7
421.057	4.71
421.414	4.71
421.772	4.71
422.129	4.72
422.486	4.7
422.844	4.7
423.201	4.69
423.558	4.71
423.915	4.72
424.273	4.72
424.63	4.7
424.987	4.71
425.344	4.71
425.701	4.7
426.058	4.7
426.415	4.7
426.772	4.69
427.128	4.67
427.485	4.68
427.842	4.67
428.199	4.68
428.555	4.67
428.912	4.67
429.269	4.66
429.625	4.63
429.982	4.63
430.338	4.64
430.695	4.67
431.051	4.64
431.407	4.63
431.764	4.64
432.12	4.65
432.476	4.64
432.832	4.64
433.189	4.67
433.545	4.69
433.901	4.69
434.257	4.7
434.613	4.71
434.969	4.71
435.325	4.72
435.681	4.71
436.036	4.69
436.392	4.69
436.748	4.71
437.104	4.73
437.459	4.75
437.815	4.74
438.171	4.74
438.526	4.76
438.882	4.76
439.237	4.76
439.593	4.77
439.948	4.76
440.304	4.75
440.659	4.75
441.014	4.74
441.369	4.74
441.725	4.74
442.08	4.74
442.435	4.73
442.79	4.73
443.145	4.73
443.5	4.75
443.855	4.75
444.21	4.74
444.565	4.74
444.92	4.73
445.275	4.73
445.629	4.73
445.984	4.73
446.339	4.7
446.693	4.7
447.048	4.68
447.403	4.7
447.757	4.71
448.112	4.7
448.466	4.71
448.82	4.7
449.175	4.69
449.529	4.67
449.883	4.68
450.238	4.67
450.592	4.67
450.946	4.65
451.3	4.63
451.654	4.63
452.008	4.63
452.362	4.61
452.716	4.63
453.07	4.62
453.424	4.61
453.778	4.63
454.132	4.64
454.486	4.63
454.839	4.6
455.193	4.6
455.547	4.59
455.9	4.58
456.254	4.58
456.607	4.6
456.961	4.63
457.314	4.61
457.668	4.62
458.021	4.62
458.375	4.61
458.728	4.63
459.081	4.65
459.434	4.64
459.787	4.64
460.141	4.62
460.494	4.61
460.847	4.63
461.2	4.63
461.553	4.65
461.906	4.67
462.259	4.69
462.611	4.68
462.964	4.69
463.317	4.71
463.67	4.72
464.022	4.7
464.375	4.69
464.728	4.69
465.08	4.69
465.433	4.7
465.785	4.7
466.138	4.7
466.49	4.67
466.843	4.7
467.195	4.72
467.547	4.74
467.899	4.76
468.252	4.74
468.604	4.77
468.956	4.76
469.308	4.77
469.66	4.74
470.012	4.75
470.364	4.75
470.716	4.73
471.068	4.75
471.42	4.76
471.772	4.8
472.123	4.81
472.475	4.82
472.827	4.82
473.178	4.86
473.53	4.84
473.882	4.85
474.233	4.84
474.585	4.83
474.936	4.85
475.288	4.84
475.639	4.86
475.99	4.83
476.342	4.81
476.693	4.81
477.044	4.84
477.395	4.85
477.746	4.86
478.097	4.87
478.448	4.85
478.8	4.84
479.15	4.79
479.501	4.79
479.852	4.79
480.203	4.8
480.554	4.79
480.905	4.8
481.255	4.81
481.606	4.81
481.957	4.81
482.307	4.81
482.658	4.83
483.009	4.83
483.359	4.83
483.709	4.83
484.06	4.83
484.41	4.83
484.761	4.82
485.111	4.82
485.461	4.82
485.811	4.82
486.162	4.83
486.512	4.84
486.862	4.83
487.212	4.84
487.562	4.84
487.912	4.84
488.262	4.85
488.612	4.84
488.961	4.84
489.311	4.85
489.661	4.85
490.011	4.84
490.36	4.84
490.71	4.84
491.06	4.84
491.409	4.84
491.759	4.83
492.108	4.85
492.458	4.86
492.807	4.85
493.157	4.85
493.506	4.86
493.855	4.86
494.204	4.88
494.554	4.89
494.903	4.88
495.252	4.88
495.601	4.9
495.95	4.92
496.299	4.93
496.648	4.92
496.997	4.91
497.346	4.92
497.695	4.91
498.043	4.91
498.392	4.9
498.741	4.92
499.09	4.93
499.438	4.93
499.787	4.95
500.135	4.96
500.484	4.99
500.832	4.99
501.181	4.99
501.529	5.01
501.878	4.98
502.226	4.99
502.574	4.98
502.923	4.97
503.271	4.96
503.619	4.97
503.967	4.99
504.315	4.97
504.663	4.94
505.011	4.96
505.359	4.97
505.707	5.01
506.055	5.02
506.403	5.03
506.751	5.05
507.098	5.03
507.446	5.04
507.794	5.02
508.141	5.03
508.489	5.02
508.837	5.03
509.184	5.06
509.531	5.09
509.879	5.12
510.226	5.14
510.574	5.13
510.921	5.12
511.268	5.12
511.616	5.14
511.963	5.17
512.31	5.17
512.657	5.19
513.004	5.19
513.351	5.2
513.698	5.2
514.045	5.18
514.392	5.19
514.739	5.19
515.086	5.22
515.432	5.24
515.779	5.24
516.126	5.24
516.473	5.26
516.819	5.24
517.166	5.24
517.512	5.22
517.859	5.22
518.205	5.25
518.552	5.27
518.898	5.28
519.245	5.28
519.591	5.26
519.937	5.25
520.283	5.26
520.629	5.25
520.976	5.26
521.322	5.28
521.668	5.28
522.014	5.29
522.36	5.29
522.706	5.3
523.052	5.3
523.398	5.31
523.743	5.3
524.089	5.3
524.435	5.28
524.781	5.3
525.126	5.3
525.472	5.3
525.817	5.3
526.163	5.31
526.509	5.32
526.854	5.33
527.199	5.33
527.545	5.32
527.89	5.33
528.235	5.34
528.581	5.34
528.926	5.35
529.271	5.35
529.616	5.34
529.961	5.33
530.306	5.34
530.651	5.34
530.996	5.36
531.341	5.36
531.686	5.37
532.031	5.37
532.376	5.37
532.721	5.38
533.065	5.37
533.41	5.39
533.755	5.39
534.099	5.41
534.444	5.43
534.788	5.45
535.133	5.45
535.477	5.45
535.822	5.43
536.166	5.41
536.51	5.43
536.855	5.44
537.199	5.45
537.543	5.45
537.887	5.44
538.231	5.42
538.576	5.43
538.92	5.45
539.264	5.45
539.608	5.46
539.951	5.45
540.295	5.44
540.639	5.43
540.983	5.43
541.327	5.43
541.671	5.43
542.014	5.44
542.358	5.43
542.701	5.43
543.045	5.45
543.389	5.46
543.732	5.44
544.075	5.44
544.419	5.43
544.762	5.44
545.105	5.45
545.449	5.47
545.792	5.47
546.135	5.47
546.478	5.48
546.821	5.48
547.165	5.48
547.508	5.49
547.851	5.49
548.194	5.49
548.536	5.5
548.879	5.5
549.222	5.5
549.565	5.56
549.908	5.55
550.25	5.54
550.593	5.56
550.936	5.56
551.278	5.55
551.621	5.53
551.963	5.54
552.306	5.53
552.648	5.51
552.991	5.53
553.333	5.51
553.675	5.5
554.017	5.49
554.36	5.51
554.702	5.54
555.044	5.52
555.386	5.55
555.728	5.52
556.07	5.49
556.412	5.44
556.754	5.39
557.096	5.38
557.438	5.41
557.78	5.45
558.121	5.45
558.463	5.47
558.805	5.5
559.147	5.5
559.488	5.51
559.83	5.54
560.171	5.53
560.513	5.57
560.854	5.57
561.196	5.58
561.537	5.59
561.878	5.54
562.22	5.57
562.561	5.57
562.902	5.6
563.243	5.62
563.584	5.65
563.925	5.68
564.266	5.68
564.607	5.68
564.948	5.63
565.289	5.62
565.63	5.62
565.971	5.61
566.312	5.62
566.653	5.63
566.993	5.61
567.334	5.62
567.675	5.61
568.015	5.6
568.356	5.61
568.696	5.6
569.037	5.65
569.377	5.65
569.718	5.64
570.058	5.64
570.398	5.62
570.739	5.62
571.079	5.63
571.419	5.65
571.759	5.66
572.099	5.7
572.439	5.72
572.779	5.74
573.119	5.77
573.459	5.75
573.799	5.78
574.139	5.77
574.479	5.76
574.819	5.74
575.158	5.75
575.498	5.76
575.838	5.77
576.177	5.76
576.517	5.77
576.856	5.78
577.196	5.76
577.535	5.76
577.875	5.77
578.214	5.77
578.553	5.77
578.893	5.74
579.232	5.74
579.571	5.77
579.91	5.74
580.25	5.72
580.589	5.74
580.928	5.72
581.267	5.77
581.606	5.74
581.945	5.73
582.283	5.74
582.622	5.74
582.961	5.74
583.3	5.7
583.639	5.72
583.977	5.73
584.316	5.76
584.654	5.81
584.993	5.83
585.332	5.87
585.67	5.87
586.008	5.86
586.347	5.83
586.685	5.82
587.024	5.81
587.362	5.79
587.7	5.74
588.038	5.77
588.376	5.74
588.715	5.74
589.053	5.76
589.391	5.76
589.729	5.76
590.067	5.78
590.404	5.81
590.742	5.79
591.08	5.79
591.418	5.79
591.756	5.76
592.093	5.74
592.431	5.71
592.769	5.73
593.106	5.73
593.444	5.72
593.781	5.74
594.119	5.75
594.456	5.79
594.793	5.81
595.131	5.77
595.468	5.76
595.805	5.79
596.143	5.78
596.48	5.76
596.817	5.77
597.154	5.75
597.491	5.74
597.828	5.74
598.165	5.71
598.502	5.7
598.839	5.72
599.176	5.67
599.512	5.67
599.849	5.68
600.186	5.69
600.523	5.76
600.859	5.77
601.196	5.81
601.532	5.8
601.869	5.77
602.205	5.82
602.542	5.85
602.878	5.85
603.215	5.86
603.551	5.9
603.887	5.91
604.223	5.91
604.56	5.91
604.896	5.92
605.232	5.94
605.568	5.95
605.904	5.96
606.24	6.01
606.576	6
606.912	5.97
607.248	5.98
607.583	5.97
607.919	5.95
608.255	5.96
608.591	5.97
608.926	6.02
609.262	6.05
609.597	6.03
609.933	6.04
610.268	6.04
610.604	6.01
610.939	6.03
611.275	6.05
611.61	6.07
611.945	6.08
612.281	6.09
612.616	6.08
612.951	6.04
613.286	6.03
613.621	6.07
613.956	6.09
614.291	6.09
614.626	6.11
614.961	6.07
615.296	6.05
615.631	6.05
615.966	6.03
616.3	5.96
616.635	5.96
616.97	5.98
617.304	5.99
617.639	6.06
617.973	6
618.308	6.01
618.642	5.99
618.977	6
619.311	5.99
619.646	6
619.98	6.08
620.314	6.08
620.648	6.04
620.983	6.07
621.317	6.1
621.651	6.1
621.985	6.14
622.319	6.14
622.653	6.12
622.987	6.1
623.321	6.1
623.655	6.1
623.988	6.1
624.322	6.1
624.656	6.07
624.99	6.09
625.323	6.05
625.657	6.1
625.99	6.1
626.324	6.09
626.657	6.14
626.991	6.1
627.324	6.12
627.658	6.14
627.991	6.14
628.324	6.15
628.657	6.13
628.991	6.13
629.324	6.11
629.657	6.1
629.99	6.12
630.323	6.17
630.656	6.2
630.989	6.26
631.322	6.29
631.655	6.29
631.987	6.32
632.32	6.39
632.653	6.36
632.986	6.38
633.318	6.43
633.651	6.41
633.984	6.41
634.316	6.39
634.649	6.35
634.981	6.32
635.313	6.28
635.646	6.26
635.978	6.29
636.31	6.32
636.643	6.36
636.975	6.36
637.307	6.38
637.639	6.35
637.971	6.29
638.303	6.28
638.635	6.29
638.967	6.25
639.299	6.22
639.631	6.21
639.963	6.16
640.295	6.22
640.626	6.21
640.958	6.22
641.29	6.28
641.621	6.32
641.953	6.41
642.285	6.43
642.616	6.45
642.948	6.37
643.279	6.37
643.61	6.32
643.942	6.34
644.273	6.34
644.604	6.32
644.936	6.28
645.267	6.29
645.598	6.28
645.929	6.37
646.26	6.35
646.591	6.36
646.922	6.3
647.253	6.23
647.584	6.2
647.915	6.16
648.245	6.13
648.576	6.14
648.907	6.09
649.238	6.1
649.568	6.07
649.899	6.1
650.229	6.1
650.56	6.2
650.89	6.15
651.221	6.09
651.551	6.07
651.882	6.15
652.212	6.15
652.542	6.18
652.872	6.11
653.203	6.11
653.533	6.15
653.863	6.22
654.193	6.22
654.523	6.25
654.853	6.3
655.183	6.33
655.513	6.28
655.843	6.24
656.172	6.22
656.502	6.24
656.832	6.24
657.162	6.28
657.491	6.18
657.821	6.25
658.15	6.27
658.48	6.34
658.809	6.25
659.139	6.25
659.468	6.18
659.798	6.25
660.127	6.26
660.456	6.25
660.785	6.27
661.115	6.27
661.444	6.3
661.773	6.34
662.102	6.31
662.431	6.41
662.76	6.39
663.089	6.38
663.418	6.43
663.747	6.39
664.076	6.38
664.404	6.43
664.733	6.41
665.062	6.43
665.39	6.37
665.719	6.38
666.048	6.41
666.376	6.46
666.705	6.44
667.033	6.48
667.362	6.51
667.69	6.45
668.018	6.44
668.347	6.42
668.675	6.5
669.003	6.48
669.331	6.41
669.659	6.47
669.987	6.47
670.315	6.49
670.643	6.59
670.971	6.62
671.299	6.69
671.627	6.66
671.955	6.61
672.283	6.63
672.61	6.66
672.938	6.68
673.266	6.65
673.593	6.71
673.921	6.7
674.249	6.63
674.576	6.69
674.904	6.72
675.231	6.76
675.558	6.65
675.886	6.67
676.213	6.64
676.54	6.63
676.867	6.7
677.195	6.6
677.522	6.54
677.849	6.54
678.176	6.46
678.503	6.45
