Data from BU26847_Reflection_00014.txt Node
Date: Mon Nov 18 16:41:10 EST 2019
User: vgr7
Spectrometer: USB2G7710
Scans to average: 3
Trigger mode: 4
Integration Time (sec): 2.000000E-2
Electric dark correction enabled: true
Boxcar width: 10
XAxis mode: Wavelengths
Number of Pixels in Spectrum: 2048
>>>>>Begin Spectral Data<<<<<
177.721	20.73
178.105	3.95
178.488	727.45
178.871	109.01
179.254	208.53
179.636	80.59
180.019	-34.65
180.402	78.95
180.785	-713.01
181.168	839.58
181.55	2160.61
181.933	226.06
182.316	197.78
182.698	244.48
183.081	104.98
183.463	254.82
183.846	190.46
184.228	289.98
184.611	1275.76
184.993	23655.56
185.376	459.34
185.758	-21455.56
186.14	1557.36
186.522	1560.99
186.904	-874.36
187.287	-1283.08
187.669	-104.77
188.051	-229.62
188.433	-206.56
188.815	-144.15
189.197	-122.69
189.579	-92.33
189.961	-105.66
190.342	-83.36
190.724	-44.08
191.106	-56.54
191.488	-55.48
191.869	-38.15
192.251	-52.89
192.633	-33.8
193.014	-63.8
193.396	-77.1
193.777	-81.28
194.159	-89.52
194.54	-67.66
194.922	-63.42
195.303	-116.24
195.684	-189.57
196.065	-140.77
196.447	-133.99
196.828	-210.37
197.209	-191.74
197.59	-266.9
197.971	-328.42
198.352	-190.66
198.733	-210.93
199.114	-219.27
199.495	-154.57
199.876	-126.39
200.257	-99.04
200.638	-84.91
201.018	-55.46
201.399	-22.69
201.78	-11.26
202.16	-30.31
202.541	-111.34
202.922	-1138.1
203.302	-1302.3
203.683	167.94
204.063	95.79
204.444	24.08
204.824	-88.03
205.204	-92.59
205.585	-187.69
205.965	-134.01
206.345	-11.4
206.725	23.02
207.106	78.14
207.486	104.67
207.866	149.47
208.246	262.92
208.626	607.16
209.006	366.67
209.386	372.82
209.766	634.07
210.145	628.23
210.525	736.64
210.905	-553.93
211.285	-498.2
211.664	-225.5
212.044	-282.33
212.424	-272.33
212.803	-356.05
213.183	-227.44
213.562	-197.53
213.942	-138.71
214.321	-117.03
214.701	-133.59
215.08	-144.64
215.459	-69.82
215.838	-70.04
216.218	-64.33
216.597	-52.94
216.976	-19.59
217.355	-32.7
217.734	-58.93
218.113	-62.73
218.492	-91.25
218.871	-64.11
219.25	-53.21
219.629	-44.59
220.008	-22.42
220.387	-20.72
220.766	-24.44
221.144	-43.78
221.523	-69.51
221.902	-74.95
222.28	-76.18
222.659	-55.51
223.037	-43.23
223.416	-61.39
223.794	-42.39
224.173	-56.76
224.551	-42.04
224.929	-49.64
225.308	-34.82
225.686	-20.61
226.064	-12.78
226.442	-3.18
226.821	1.12
227.199	3.32
227.577	-2.85
227.955	-4.22
228.333	-8.84
228.711	-6.21
229.089	-3.66
229.467	-1.62
229.845	0.07
230.222	-2.79
230.6	-2.34
230.978	-3.99
231.356	-1.84
231.733	-0.53
232.111	2.23
232.488	0.89
232.866	0.57
233.243	1.47
233.621	-0.65
233.998	1.5
234.376	1.11
234.753	1.43
235.13	-0.61
235.508	1.34
235.885	2.1
236.262	2.29
236.639	2.63
237.016	2.6
237.393	3.03
237.77	3.07
238.147	4.24
238.524	4.76
238.901	5.1
239.278	5.86
239.655	6.29
240.032	5.4
240.409	5.26
240.785	5.93
241.162	5.72
241.539	5.97
241.915	5.12
242.292	4.91
242.668	4.61
243.045	4.92
243.421	4.57
243.798	4.27
244.174	4.37
244.551	4.29
244.927	4.37
245.303	4.36
245.679	4.64
246.056	4.68
246.432	4.64
246.808	4.61
247.184	4.29
247.56	3.88
247.936	3.92
248.312	3.95
248.688	3.81
249.064	3.76
249.44	3.76
249.815	4.13
250.191	4.26
250.567	4.32
250.943	4.23
251.318	4.25
251.694	4.21
252.069	4.22
252.445	4.3
252.82	4.23
253.196	4.39
253.571	4.24
253.947	4.38
254.322	4.56
254.697	4.27
255.073	4.09
255.448	3.98
255.823	4.2
256.198	4.25
256.573	4.26
256.948	4.34
257.323	4.35
257.698	4.2
258.073	3.94
258.448	3.9
258.823	3.89
259.198	3.86
259.573	3.86
259.948	3.87
260.322	3.76
260.697	3.66
261.072	3.58
261.446	3.47
261.821	3.25
262.195	3.11
262.57	3.06
262.944	2.97
263.319	3.01
263.693	3.06
264.067	3.05
264.442	3.11
264.816	2.98
265.19	2.77
265.564	2.77
265.938	2.84
266.313	2.7
266.687	2.8
267.061	2.84
267.435	3.13
267.809	3.06
268.183	3.04
268.556	3
268.93	2.99
269.304	3.23
269.678	3.46
270.051	3.58
270.425	3.71
270.799	3.99
271.172	4
271.546	3.79
271.919	3.6
272.293	3.55
272.666	3.68
273.04	3.91
273.413	3.88
273.787	3.91
274.16	3.91
274.533	3.94
274.906	3.97
275.279	3.82
275.653	3.83
276.026	3.88
276.399	4.01
276.772	4.09
277.145	3.87
277.518	3.6
277.891	3.67
278.263	3.62
278.636	3.62
279.009	3.65
279.382	3.67
279.755	3.66
280.127	3.69
280.5	3.79
280.872	3.68
281.245	3.69
281.617	3.71
281.99	3.85
282.362	3.94
282.735	3.91
283.107	3.93
283.479	3.94
283.852	3.86
284.224	3.85
284.596	3.78
284.968	3.9
285.34	4.04
285.713	3.97
286.085	3.99
286.457	3.92
286.829	3.92
287.201	4.05
287.572	4.03
287.944	3.91
288.316	3.82
288.688	3.74
289.06	3.58
289.431	3.46
289.803	3.35
290.175	3.31
290.546	3.5
290.918	3.56
291.289	3.69
291.661	3.8
292.032	3.77
292.403	3.87
292.775	3.82
293.146	3.75
293.517	3.65
293.889	3.63
294.26	3.56
294.631	3.6
295.002	3.46
295.373	3.64
295.744	3.72
296.115	3.65
296.486	3.52
296.857	3.68
297.228	3.77
297.599	3.75
297.97	3.74
298.34	3.68
298.711	3.66
299.082	3.63
299.452	3.6
299.823	3.8
300.194	3.82
300.564	3.85
300.935	3.86
301.305	3.91
301.676	4.03
302.046	4.19
302.416	4.33
302.787	4.43
303.157	4.46
303.527	4.53
303.897	4.58
304.267	4.94
304.637	5.01
305.008	5.04
305.378	5.24
305.748	5.35
306.117	5.37
306.487	5.56
306.857	5.66
307.227	5.78
307.597	5.51
307.967	5.61
308.336	5.69
308.706	5.85
309.076	5.92
309.445	5.98
309.815	5.87
310.184	5.76
310.554	5.8
310.923	5.82
311.293	5.69
311.662	5.81
312.031	5.69
312.401	5.76
312.77	5.9
313.139	5.96
313.508	5.82
313.877	5.85
314.246	5.82
314.616	5.88
314.985	5.84
315.353	5.99
315.722	5.94
316.091	5.94
316.46	5.91
316.829	6.15
317.198	6.17
317.567	6.4
317.935	6.4
318.304	6.51
318.672	6.49
319.041	6.79
319.41	6.87
319.778	7.03
320.147	7.09
320.515	6.87
320.883	6.78
321.252	6.76
321.62	6.84
321.988	6.67
322.357	6.65
322.725	6.69
323.093	6.93
323.461	6.94
323.829	7.08
324.197	7.22
324.565	7.11
324.933	7.01
325.301	7.08
325.669	7.27
326.037	7.36
326.405	7.41
326.772	7.34
327.14	7.29
327.508	7.33
327.875	7.37
328.243	7.55
328.61	7.59
328.978	7.87
329.346	7.85
329.713	7.99
330.08	8
330.448	8.15
330.815	7.99
331.182	8.15
331.55	8.04
331.917	8.12
332.284	8.2
332.651	8.34
333.018	8.29
333.385	8.29
333.752	8.27
334.119	8.45
334.486	8.41
334.853	8.4
335.22	8.43
335.587	8.42
335.954	8.55
336.32	8.63
336.687	8.67
337.054	8.65
337.42	8.79
337.787	8.9
338.153	8.84
338.52	9.07
338.886	9.06
339.253	9.11
339.619	9.03
339.986	9.01
340.352	9.18
340.718	9.34
341.084	9.31
341.451	9.36
341.817	9.36
342.183	9.55
342.549	9.7
342.915	9.77
343.281	9.74
343.647	9.66
344.013	9.8
344.379	9.71
344.745	9.8
345.11	9.67
345.476	9.52
345.842	9.59
346.208	9.46
346.573	9.37
346.939	9.41
347.304	9.42
347.67	9.44
348.035	9.41
348.401	9.26
348.766	9.31
349.132	9.32
349.497	9.21
349.862	9.18
350.228	9.23
350.593	9.1
350.958	9.11
351.323	9.22
351.688	9.11
352.053	9.14
352.418	9.22
352.783	9.41
353.148	9.49
353.513	9.46
353.878	9.54
354.243	9.64
354.608	9.59
354.972	9.54
355.337	9.5
355.702	9.49
356.066	9.52
356.431	9.41
356.795	9.41
357.16	9.44
357.524	9.38
357.889	9.31
358.253	9.31
358.618	9.37
358.982	9.29
359.346	9.17
359.71	9.15
360.075	8.99
360.439	8.9
360.803	8.87
361.167	8.79
361.531	8.74
361.895	8.74
362.259	8.67
362.623	8.68
362.987	8.71
363.351	8.64
363.714	8.6
364.078	8.58
364.442	8.43
364.806	8.38
365.169	8.33
365.533	8.28
365.896	8.28
366.26	8.21
366.623	8.17
366.987	8.21
367.35	8.18
367.714	8.14
368.077	8.02
368.44	8.05
368.803	8.04
369.167	7.92
369.53	7.83
369.893	7.84
370.256	7.8
370.619	7.7
370.982	7.63
371.345	7.57
371.708	7.54
372.071	7.56
372.434	7.51
372.797	7.51
373.159	7.49
373.522	7.45
373.885	7.4
374.247	7.39
374.61	7.36
374.973	7.14
375.335	7.19
375.698	7.21
376.06	7.08
376.423	7.02
376.785	7.04
377.147	6.95
377.51	6.93
377.872	6.95
378.234	6.9
378.596	6.91
378.958	6.87
379.321	6.88
379.683	6.83
380.045	6.76
380.407	6.72
380.769	6.59
381.13	6.54
381.492	6.46
381.854	6.41
382.216	6.35
382.578	6.4
382.939	6.37
383.301	6.31
383.663	6.34
384.024	6.28
384.386	6.27
384.747	6.31
385.109	6.29
385.47	6.2
385.832	6.19
386.193	6.13
386.554	6.09
386.916	6.03
387.277	5.99
387.638	6
387.999	5.96
388.36	5.98
388.721	5.98
389.082	5.96
389.443	5.87
389.804	5.87
390.165	5.87
390.526	5.8
390.887	5.76
391.248	5.74
391.609	5.72
391.969	5.64
392.33	5.59
392.691	5.56
393.051	5.51
393.412	5.5
393.772	5.45
394.133	5.44
394.493	5.43
394.854	5.43
395.214	5.44
395.574	5.41
395.935	5.38
396.295	5.34
396.655	5.31
397.015	5.33
397.376	5.27
397.736	5.23
398.096	5.23
398.456	5.18
398.816	5.15
399.176	5.11
399.535	5.09
399.895	5.1
400.255	5.05
400.615	5.04
400.975	4.98
401.334	5
401.694	4.97
402.054	4.96
402.413	4.95
402.773	4.87
403.132	4.84
403.492	4.83
403.851	4.78
404.211	4.74
404.57	4.71
404.929	4.71
405.288	4.68
405.648	4.67
406.007	4.7
406.366	4.66
406.725	4.65
407.084	4.67
407.443	4.61
407.802	4.64
408.161	4.62
408.52	4.59
408.879	4.55
409.238	4.51
409.596	4.47
409.955	4.46
410.314	4.47
410.673	4.47
411.031	4.46
411.39	4.45
411.748	4.45
412.107	4.47
412.465	4.43
412.824	4.43
413.182	4.37
413.54	4.35
413.899	4.34
414.257	4.32
414.615	4.3
414.974	4.29
415.332	4.26
415.69	4.26
416.048	4.26
416.406	4.28
416.764	4.29
417.122	4.26
417.48	4.24
417.838	4.21
418.195	4.2
418.553	4.17
418.911	4.14
419.269	4.15
419.626	4.11
419.984	4.12
420.342	4.12
420.699	4.12
421.057	4.11
421.414	4.09
421.772	4.06
422.129	4.04
422.486	4.02
422.844	4.02
423.201	3.99
423.558	3.99
423.915	3.97
424.273	3.94
424.63	3.94
424.987	3.92
425.344	3.91
425.701	3.91
426.058	3.9
426.415	3.91
426.772	3.87
427.128	3.88
427.485	3.85
427.842	3.84
428.199	3.84
428.555	3.83
428.912	3.83
429.269	3.88
429.625	3.89
429.982	3.89
430.338	3.89
430.695	3.89
431.051	3.86
431.407	3.85
431.764	3.85
432.12	3.86
432.476	3.86
432.832	3.85
433.189	3.84
433.545	3.83
433.901	3.84
434.257	3.86
434.613	3.86
434.969	3.86
435.325	3.85
435.681	3.84
436.036	3.83
436.392	3.85
436.748	3.84
437.104	3.81
437.459	3.8
437.815	3.81
438.171	3.81
438.526	3.83
438.882	3.84
439.237	3.86
439.593	3.87
439.948	3.84
440.304	3.86
440.659	3.86
441.014	3.87
441.369	3.85
441.725	3.84
442.08	3.81
442.435	3.81
442.79	3.8
443.145	3.79
443.5	3.78
443.855	3.76
444.21	3.74
444.565	3.77
444.92	3.76
445.275	3.74
445.629	3.75
445.984	3.74
446.339	3.72
446.693	3.7
447.048	3.68
447.403	3.69
447.757	3.67
448.112	3.66
448.466	3.65
448.82	3.65
449.175	3.64
449.529	3.66
449.883	3.66
450.238	3.65
450.592	3.65
450.946	3.66
451.3	3.66
451.654	3.65
452.008	3.63
452.362	3.63
452.716	3.63
453.07	3.61
453.424	3.61
453.778	3.6
454.132	3.58
454.486	3.59
454.839	3.6
455.193	3.6
455.547	3.6
455.9	3.59
456.254	3.59
456.607	3.59
456.961	3.59
457.314	3.6
457.668	3.61
458.021	3.6
458.375	3.61
458.728	3.61
459.081	3.61
459.434	3.62
459.787	3.64
460.141	3.64
460.494	3.64
460.847	3.65
461.2	3.66
461.553	3.68
461.906	3.68
462.259	3.69
462.611	3.71
462.964	3.74
463.317	3.77
463.67	3.79
464.022	3.81
464.375	3.81
464.728	3.81
465.08	3.83
465.433	3.84
465.785	3.83
466.138	3.85
466.49	3.87
466.843	3.88
467.195	3.88
467.547	3.88
467.899	3.89
468.252	3.91
468.604	3.92
468.956	3.93
469.308	3.95
469.66	3.95
470.012	3.96
470.364	3.95
470.716	3.93
471.068	3.94
471.42	3.95
471.772	3.97
472.123	3.99
472.475	4
472.827	4.01
473.178	4.02
473.53	4.02
473.882	4.02
474.233	4.03
474.585	4.01
474.936	4.02
475.288	4.03
475.639	4.02
475.99	4.02
476.342	4.04
476.693	4.05
477.044	4.05
477.395	4.04
477.746	4.04
478.097	4.05
478.448	4.04
478.8	4.04
479.15	4.02
479.501	4.01
479.852	4.01
480.203	4.01
480.554	4.03
480.905	4.03
481.255	4.03
481.606	4.02
481.957	4.02
482.307	4.02
482.658	4.02
483.009	4.01
483.359	4.01
483.709	4
484.06	3.99
484.41	3.98
484.761	3.98
485.111	3.98
485.461	3.97
485.811	3.97
486.162	3.97
486.512	3.97
486.862	3.97
487.212	3.97
487.562	3.97
487.912	3.96
488.262	3.96
488.612	3.97
488.961	3.96
489.311	3.96
489.661	3.97
490.011	3.97
490.36	3.97
490.71	3.97
491.06	3.98
491.409	3.99
491.759	4
492.108	4
492.458	4.02
492.807	4.03
493.157	4.06
493.506	4.07
493.855	4.07
494.204	4.09
494.554	4.09
494.903	4.1
495.252	4.11
495.601	4.13
495.95	4.14
496.299	4.16
496.648	4.18
496.997	4.18
497.346	4.21
497.695	4.22
498.043	4.25
498.392	4.26
498.741	4.28
499.09	4.3
499.438	4.32
499.787	4.37
500.135	4.41
500.484	4.43
500.832	4.47
501.181	4.52
501.529	4.55
501.878	4.59
502.226	4.63
502.574	4.66
502.923	4.7
503.271	4.74
503.619	4.81
503.967	4.87
504.315	4.95
504.663	4.99
505.011	5.06
505.359	5.1
505.707	5.16
506.055	5.22
506.403	5.3
506.751	5.36
507.098	5.39
507.446	5.45
507.794	5.5
508.141	5.54
508.489	5.58
508.837	5.64
509.184	5.71
509.531	5.78
509.879	5.86
510.226	5.94
510.574	6.01
510.921	6.07
511.268	6.11
511.616	6.17
511.963	6.25
512.31	6.33
512.657	6.43
513.004	6.53
513.351	6.62
513.698	6.71
514.045	6.8
514.392	6.92
514.739	7
515.086	7.11
515.432	7.22
515.779	7.34
516.126	7.46
516.473	7.56
516.819	7.66
517.166	7.76
517.512	7.84
517.859	7.92
518.205	8
518.552	8.12
518.898	8.22
519.245	8.3
519.591	8.39
519.937	8.47
520.283	8.58
520.629	8.68
520.976	8.79
521.322	8.91
521.668	9.01
522.014	9.14
522.36	9.26
522.706	9.37
523.052	9.5
523.398	9.66
523.743	9.8
524.089	9.92
524.435	10.07
524.781	10.2
525.126	10.32
525.472	10.44
525.817	10.54
526.163	10.64
526.509	10.75
526.854	10.84
527.199	10.93
527.545	11.01
527.89	11.09
528.235	11.16
528.581	11.25
528.926	11.33
529.271	11.43
529.616	11.51
529.961	11.61
530.306	11.69
530.651	11.75
530.996	11.85
531.341	11.96
531.686	12.06
532.031	12.18
532.376	12.29
532.721	12.4
533.065	12.53
533.41	12.62
533.755	12.75
534.099	12.87
534.444	13.01
534.788	13.17
535.133	13.29
535.477	13.44
535.822	13.56
536.166	13.72
536.51	13.86
536.855	14.06
537.199	14.23
537.543	14.44
537.887	14.65
538.231	14.85
538.576	15
538.92	15.18
539.264	15.35
539.608	15.53
539.951	15.68
540.295	15.83
540.639	16
540.983	16.15
541.327	16.29
541.671	16.42
542.014	16.55
542.358	16.69
542.701	16.82
543.045	16.98
543.389	17.12
543.732	17.26
544.075	17.4
544.419	17.57
544.762	17.73
545.105	17.91
545.449	18.1
545.792	18.3
546.135	18.52
546.478	18.73
546.821	18.98
547.165	19.21
547.508	19.49
547.851	19.76
548.194	20
548.536	20.26
548.879	20.52
549.222	20.79
549.565	21.09
549.908	21.42
550.25	21.68
550.593	21.96
550.936	22.25
551.278	22.54
551.621	22.79
551.963	23.07
552.306	23.3
552.648	23.57
552.991	23.91
553.333	24.16
553.675	24.41
554.017	24.69
554.36	24.93
554.702	25.19
555.044	25.41
555.386	25.71
555.728	26
556.07	26.29
556.412	26.54
556.754	26.83
557.096	27.12
557.438	27.39
557.78	27.75
558.121	28.07
558.463	28.41
558.805	28.75
559.147	29.04
559.488	29.37
559.83	29.66
560.171	29.87
560.513	30.2
560.854	30.58
561.196	30.83
561.537	31.14
561.878	31.4
562.22	31.73
562.561	31.93
562.902	32.23
563.243	32.5
563.584	32.83
563.925	33.09
564.266	33.31
564.607	33.63
564.948	33.87
565.289	34.08
565.63	34.32
565.971	34.61
566.312	34.87
566.653	35.11
566.993	35.39
567.334	35.67
567.675	35.91
568.015	36.14
568.356	36.43
568.696	36.7
569.037	36.97
569.377	37.2
569.718	37.48
570.058	37.7
570.398	37.93
570.739	38.12
571.079	38.34
571.419	38.6
571.759	38.86
572.099	39.07
572.439	39.31
572.779	39.55
573.119	39.79
573.459	40.01
573.799	40.26
574.139	40.46
574.479	40.64
574.819	40.8
575.158	40.98
575.498	41.15
575.838	41.38
576.177	41.57
576.517	41.81
576.856	42.01
577.196	42.24
577.535	42.49
577.875	42.72
578.214	42.95
578.553	43.16
578.893	43.33
579.232	43.58
579.571	43.8
579.91	44
580.25	44.15
580.589	44.29
580.928	44.47
581.267	44.64
581.606	44.83
581.945	45.06
582.283	45.25
582.622	45.51
582.961	45.58
583.3	45.73
583.639	45.87
583.977	46.13
584.316	46.31
584.654	46.43
584.993	46.56
585.332	46.67
585.67	46.79
586.008	47
586.347	47.05
586.685	47.17
587.024	47.29
587.362	47.39
587.7	47.52
588.038	47.62
588.376	47.76
588.715	47.98
589.053	48.18
589.391	48.25
589.729	48.35
590.067	48.52
590.404	48.63
590.742	48.81
591.08	48.95
591.418	49.05
591.756	49.19
592.093	49.32
592.431	49.48
592.769	49.59
593.106	49.67
593.444	49.75
593.781	49.92
594.119	49.93
594.456	50.05
594.793	50.15
595.131	50.22
595.468	50.33
595.805	50.4
596.143	50.45
596.48	50.55
596.817	50.61
597.154	50.74
597.491	50.86
597.828	50.88
598.165	50.87
598.502	50.88
598.839	50.94
599.176	50.99
599.512	51.06
599.849	51.16
600.186	51.22
600.523	51.43
600.859	51.55
601.196	51.75
601.532	51.8
601.869	51.86
602.205	52
602.542	52.07
602.878	52.04
603.215	52.11
603.551	52.21
603.887	52.31
604.223	52.3
604.56	52.41
604.896	52.48
605.232	52.54
605.568	52.65
605.904	52.77
606.24	52.87
606.576	52.9
606.912	52.94
607.248	53.02
607.583	53.08
607.919	53.07
608.255	53.1
608.591	53.16
608.926	53.29
609.262	53.33
609.597	53.37
609.933	53.51
610.268	53.52
610.604	53.55
610.939	53.6
611.275	53.65
611.61	53.58
611.945	53.66
612.281	53.75
612.616	53.82
612.951	53.81
613.286	53.86
613.621	53.96
613.956	54.03
614.291	54.06
614.626	54.01
614.961	54.18
615.296	54.21
615.631	54.4
615.966	54.42
616.3	54.51
616.635	54.51
616.97	54.63
617.304	54.72
617.639	54.79
617.973	54.74
618.308	54.78
618.642	54.89
618.977	54.93
619.311	54.95
619.646	54.86
619.98	54.92
620.314	55.03
620.648	55.1
620.983	55.09
621.317	55.12
621.651	55.25
621.985	55.21
622.319	55.19
622.653	55.2
622.987	55.24
623.321	55.23
623.655	55.26
623.988	55.29
624.322	55.33
624.656	55.45
624.99	55.54
625.323	55.59
625.657	55.66
625.99	55.64
626.324	55.74
626.657	55.86
626.991	55.9
627.324	55.85
627.658	55.94
627.991	56.02
628.324	56.04
628.657	55.99
628.991	55.96
629.324	56.01
629.657	56
629.99	55.99
630.323	56
630.656	56.1
630.989	56.11
631.322	56.15
631.655	55.99
631.987	56.06
632.32	56.1
632.653	56.01
632.986	56.12
633.318	56.04
633.651	56.05
633.984	56.01
634.316	56.05
634.649	55.95
634.981	55.93
635.313	55.94
635.646	56
635.978	56.07
636.31	56.18
636.643	56.3
636.975	56.43
637.307	56.57
637.639	56.46
637.971	56.43
638.303	56.35
638.635	56.5
638.967	56.56
639.299	56.65
639.631	56.74
639.963	56.7
640.295	56.73
640.626	56.74
640.958	56.76
641.29	56.88
641.621	56.9
641.953	56.95
642.285	57.03
642.616	57.03
642.948	57.07
643.279	57.07
643.61	56.95
643.942	56.88
644.273	56.73
644.604	56.9
644.936	56.94
645.267	57.08
645.598	57.05
645.929	57.05
646.26	57.06
646.591	57.05
646.922	57.13
647.253	57.2
647.584	57.26
647.915	57.29
648.245	57.2
648.576	57.17
648.907	57.21
649.238	57.1
649.568	57.1
649.899	57
650.229	56.93
650.56	56.94
650.89	56.87
651.221	56.92
651.551	56.91
651.882	57.01
652.212	56.93
652.542	56.8
652.872	56.72
653.203	56.78
653.533	56.82
653.863	56.79
654.193	56.79
654.523	56.71
654.853	56.67
655.183	56.8
655.513	56.94
655.843	57.04
656.172	57.25
656.502	57.32
656.832	57.41
657.162	57.61
657.491	57.56
657.821	57.73
658.15	57.79
658.48	57.75
658.809	57.64
659.139	57.61
659.468	57.67
659.798	57.67
660.127	57.68
660.456	57.68
660.785	57.62
661.115	57.71
661.444	57.83
661.773	57.9
662.102	57.83
662.431	57.81
662.76	57.8
663.089	57.81
663.418	57.78
663.747	57.72
664.076	57.65
664.404	57.77
664.733	57.74
665.062	57.79
665.39	57.83
665.719	57.77
666.048	57.74
666.376	57.75
666.705	57.79
667.033	57.77
