Data from BU26851_Reflection_00008.txt Node
Date: Mon Nov 18 16:48:20 EST 2019
User: vgr7
Spectrometer: USB2G7710
Scans to average: 3
Trigger mode: 4
Integration Time (sec): 2.000000E-2
Electric dark correction enabled: true
Boxcar width: 10
XAxis mode: Wavelengths
Number of Pixels in Spectrum: 2048
>>>>>Begin Spectral Data<<<<<
177.721	-765.53
178.105	1208.11
178.488	-3368.35
178.871	500.83
179.254	-1154.24
179.636	217.87
180.019	-3086.44
180.402	47.22
180.785	2.4
181.168	68.28
181.55	295.8
181.933	136.36
182.316	146.23
182.698	88.88
183.081	96.85
183.463	-559.79
183.846	-353.67
184.228	-2351.61
184.611	396.77
184.993	66.1
185.376	-79.52
185.758	-86.55
186.14	-8.79
186.522	35.69
186.904	146.51
187.287	205.26
187.669	-349.7
188.051	533.5
188.433	-1103.01
188.815	-98.02
189.197	-63.18
189.579	-19.8
189.961	1.84
190.342	-13.49
190.724	-3.73
191.106	-26.66
191.488	-207.69
191.869	-76.99
192.251	-38.41
192.633	5918.18
193.014	-1159.84
193.396	-225.96
193.777	-619.03
194.159	-910.17
194.54	-513.58
194.922	-4512.24
195.303	-439.18
195.684	-551.93
196.065	-167.1
196.447	-257.83
196.828	-359.83
197.209	-982.87
197.59	7065.52
197.971	1983.87
198.352	-636.16
198.733	-465.87
199.114	-360.08
199.495	-216.95
199.876	-187.24
200.257	-174.98
200.638	-109.32
201.018	-98.05
201.399	-143.26
201.78	-61.74
202.16	-68.36
202.541	-75.25
202.922	-106.65
203.302	-196
203.683	-184.87
204.063	-248.02
204.444	-332.43
204.824	-518.99
205.204	-280.71
205.585	-250.92
205.965	-228.36
206.345	-568.29
206.725	-1124.1
207.106	-2692.9
207.486	2632.02
207.866	1702.79
208.246	729.58
208.626	651.99
209.006	3377.42
209.386	3170.27
209.766	11722.64
210.145	1412.65
210.525	4323.78
210.905	-1456.79
211.285	-852.21
211.664	-583.35
212.044	-282.09
212.424	-194.73
212.803	-167.12
213.183	-138.56
213.562	-138.45
213.942	-75.17
214.321	-69.48
214.701	-55.8
215.08	-56.22
215.459	-32.52
215.838	-38.14
216.218	-29.25
216.597	-14.23
216.976	4.71
217.355	33.76
217.734	31.79
218.113	20.31
218.492	14.58
218.871	1.83
219.25	3.22
219.629	8.3
220.008	-8.01
220.387	-21.29
220.766	-20.86
221.144	-32.28
221.523	-42.73
221.902	-84.37
222.28	-84.84
222.659	-92.53
223.037	-76.12
223.416	-81.42
223.794	-67.86
224.173	-60.73
224.551	-53.52
224.929	-62.78
225.308	-53.3
225.686	-48.61
226.064	-39.44
226.442	-39.69
226.821	-33.17
227.199	-30.05
227.577	-28.74
227.955	-23.54
228.333	-17.6
228.711	-18.74
229.089	-7.13
229.467	-5.92
229.845	-3.71
230.222	-2.8
230.6	-1.06
230.978	-1.49
231.356	1.79
231.733	2.81
232.111	4.17
232.488	5.48
232.866	4.19
233.243	2.61
233.621	2.67
233.998	2.2
234.376	2.34
234.753	2.8
235.13	3.46
235.508	3.94
235.885	3.27
236.262	2.66
236.639	2.96
237.016	1.07
237.393	1.07
237.77	1.78
238.147	2.47
238.524	2.54
238.901	4.3
239.278	4.62
239.655	4.87
240.032	4.1
240.409	3.55
240.785	3.99
241.162	4.44
241.539	4.77
241.915	4.6
242.292	4.32
242.668	4.13
243.045	3.74
243.421	3.54
243.798	3.44
244.174	3.46
244.551	3.42
244.927	3.3
245.303	3.35
245.679	3.28
246.056	3.09
246.432	3.04
246.808	2.87
247.184	2.58
247.56	2.28
247.936	2.52
248.312	2.48
248.688	2.58
249.064	2.41
249.44	2.43
249.815	2.52
250.191	2.87
250.567	2.79
250.943	2.71
251.318	2.49
251.694	2.68
252.069	2.65
252.445	2.63
252.82	2.56
253.196	2.57
253.571	2.55
253.947	2.64
254.322	2.69
254.697	2.47
255.073	2.29
255.448	2.19
255.823	2.13
256.198	2.21
256.573	2.24
256.948	2.43
257.323	2.37
257.698	2.31
258.073	2.22
258.448	2.16
258.823	2.28
259.198	2.24
259.573	2.22
259.948	2.19
260.322	2.28
260.697	2.43
261.072	2.4
261.446	2.44
261.821	2.43
262.195	2.42
262.57	2.44
262.944	2.48
263.319	2.68
263.693	2.65
264.067	2.73
264.442	2.63
264.816	2.53
265.19	2.4
265.564	2.57
265.938	2.44
266.313	2.47
266.687	2.43
267.061	2.69
267.435	2.69
267.809	2.76
268.183	2.71
268.556	2.47
268.93	2.5
269.304	2.6
269.678	2.81
270.051	2.74
270.425	2.64
270.799	2.55
271.172	2.5
271.546	2.5
271.919	2.31
272.293	2.29
272.666	2.39
273.04	2.48
273.413	2.33
273.787	2.34
274.16	2.39
274.533	2.46
274.906	2.27
275.279	2.19
275.653	2.15
276.026	2.05
276.399	2.15
276.772	2.23
277.145	2.02
277.518	1.75
277.891	1.84
278.263	1.81
278.636	1.86
279.009	1.88
279.382	2.06
279.755	2.04
280.127	2.21
280.5	2.21
280.872	2.2
281.245	2.26
281.617	2.46
281.99	2.67
282.362	2.78
282.735	2.83
283.107	2.92
283.479	3
283.852	3.03
284.224	2.94
284.596	2.86
284.968	2.89
285.34	3.04
285.713	2.98
286.085	3.12
286.457	3.16
286.829	3.23
287.201	3.12
287.572	3.07
287.944	3.01
288.316	2.93
288.688	2.96
289.06	3.01
289.431	2.87
289.803	2.87
290.175	2.8
290.546	2.95
290.918	2.98
291.289	3.01
291.661	3.06
292.032	3.23
292.403	3.23
292.775	3.47
293.146	3.37
293.517	3.34
293.889	3.26
294.26	3.3
294.631	3.27
295.002	3.26
295.373	3.36
295.744	3.28
296.115	3.34
296.486	3.28
296.857	3.25
297.228	3.36
297.599	3.27
297.97	3.27
298.34	3.29
298.711	3.34
299.082	3.2
299.452	3.28
299.823	3.47
300.194	3.5
300.564	3.37
300.935	3.43
301.305	3.57
301.676	3.63
302.046	3.67
302.416	3.71
302.787	3.74
303.157	3.78
303.527	3.87
303.897	4.05
304.267	4.13
304.637	4.2
305.008	4.22
305.378	4.28
305.748	4.46
306.117	4.52
306.487	4.43
306.857	4.65
307.227	4.72
307.597	4.57
307.967	4.63
308.336	4.59
308.706	4.66
309.076	4.64
309.445	4.64
309.815	4.68
310.184	4.57
310.554	4.71
310.923	4.83
311.293	4.93
311.662	4.93
312.031	5
312.401	4.99
312.77	5.05
313.139	5.1
313.508	5.05
313.877	4.93
314.246	5.12
314.616	5.13
314.985	5.03
315.353	4.97
315.722	5
316.091	5.07
316.46	5.1
316.829	5.15
317.198	5.41
317.567	5.43
317.935	5.57
318.304	5.65
318.672	5.68
319.041	5.73
319.41	5.74
319.778	5.85
320.147	5.92
320.515	5.97
320.883	5.94
321.252	6.13
321.62	6.33
321.988	6.16
322.357	6.11
322.725	6.22
323.093	6.26
323.461	6.39
323.829	6.49
324.197	6.48
324.565	6.47
324.933	6.32
325.301	6.28
325.669	6.39
326.037	6.29
326.405	6.23
326.772	6.3
327.14	6.33
327.508	6.28
327.875	6.39
328.243	6.52
328.61	6.62
328.978	6.49
329.346	6.46
329.713	6.57
330.08	6.75
330.448	6.76
330.815	6.74
331.182	6.68
331.55	6.58
331.917	6.82
332.284	7.02
332.651	7.03
333.018	7.21
333.385	7.24
333.752	7.35
334.119	7.49
334.486	7.44
334.853	7.37
335.22	7.42
335.587	7.36
335.954	7.16
336.32	7.11
336.687	7.13
337.054	7.13
337.42	7.19
337.787	7.16
338.153	7.15
338.52	7.27
338.886	7.24
339.253	7.21
339.619	7.09
339.986	7
340.352	7.07
340.718	7.05
341.084	6.93
341.451	6.98
341.817	7
342.183	6.98
342.549	7.09
342.915	7.13
343.281	7.16
343.647	7.23
344.013	7.33
344.379	7.37
344.745	7.36
345.11	7.29
345.476	7.27
345.842	7.37
346.208	7.33
346.573	7.37
346.939	7.57
347.304	7.58
347.67	7.56
348.035	7.69
348.401	7.74
348.766	7.91
349.132	7.88
349.497	7.84
349.862	7.92
350.228	7.88
350.593	7.85
350.958	7.91
351.323	7.98
351.688	7.97
352.053	7.91
352.418	7.98
352.783	8.08
353.148	8.01
353.513	8.01
353.878	8
354.243	8.02
354.608	7.97
354.972	7.97
355.337	8.04
355.702	7.99
356.066	7.98
356.431	7.9
356.795	7.87
357.16	7.86
357.524	7.78
357.889	7.77
358.253	7.83
358.618	7.75
358.982	7.67
359.346	7.58
359.71	7.62
360.075	7.57
360.439	7.56
360.803	7.55
361.167	7.48
361.531	7.52
361.895	7.49
362.259	7.5
362.623	7.5
362.987	7.45
363.351	7.43
363.714	7.36
364.078	7.33
364.442	7.31
364.806	7.29
365.169	7.29
365.533	7.25
365.896	7.19
366.26	7.17
366.623	7.13
366.987	7.1
367.35	7.06
367.714	7.09
368.077	7.01
368.44	7.02
368.803	7.03
369.167	6.93
369.53	6.85
369.893	6.85
370.256	6.8
370.619	6.79
370.982	6.72
371.345	6.69
371.708	6.66
372.071	6.58
372.434	6.55
372.797	6.51
373.159	6.44
373.522	6.37
373.885	6.26
374.247	6.25
374.61	6.3
374.973	6.22
375.335	6.17
375.698	6.09
376.06	6.03
376.423	5.93
376.785	5.98
377.147	5.99
377.51	5.88
377.872	5.87
378.234	5.83
378.596	5.78
378.958	5.8
379.321	5.72
379.683	5.71
380.045	5.68
380.407	5.62
380.769	5.61
381.13	5.56
381.492	5.63
381.854	5.64
382.216	5.54
382.578	5.5
382.939	5.38
383.301	5.38
383.663	5.34
384.024	5.38
384.386	5.36
384.747	5.36
385.109	5.3
385.47	5.26
385.832	5.2
386.193	5.18
386.554	5.07
386.916	5.05
387.277	5.08
387.638	5.06
387.999	5.06
388.36	5.03
388.721	5.01
389.082	4.94
389.443	4.83
389.804	4.84
390.165	4.82
390.526	4.86
390.887	4.85
391.248	4.85
391.609	4.8
391.969	4.74
392.33	4.69
392.691	4.68
393.051	4.62
393.412	4.61
393.772	4.59
394.133	4.61
394.493	4.61
394.854	4.51
395.214	4.46
395.574	4.41
395.935	4.38
396.295	4.38
396.655	4.35
397.015	4.36
397.376	4.27
397.736	4.27
398.096	4.25
398.456	4.19
398.816	4.17
399.176	4.12
399.535	4.07
399.895	4.04
400.255	4.02
400.615	4.01
400.975	3.94
401.334	3.9
401.694	3.86
402.054	3.81
402.413	3.8
402.773	3.76
403.132	3.71
403.492	3.69
403.851	3.62
404.211	3.63
404.57	3.58
404.929	3.6
405.288	3.55
405.648	3.5
406.007	3.46
406.366	3.44
406.725	3.45
407.084	3.45
407.443	3.44
407.802	3.47
408.161	3.44
408.52	3.43
408.879	3.42
409.238	3.42
409.596	3.42
409.955	3.41
410.314	3.41
410.673	3.41
411.031	3.38
411.39	3.41
411.748	3.38
412.107	3.42
412.465	3.37
412.824	3.37
413.182	3.39
413.54	3.44
413.899	3.43
414.257	3.39
414.615	3.37
414.974	3.36
415.332	3.32
415.69	3.33
416.048	3.3
416.406	3.28
416.764	3.25
417.122	3.25
417.48	3.23
417.838	3.24
418.195	3.22
418.553	3.23
418.911	3.21
419.269	3.22
419.626	3.19
419.984	3.17
420.342	3.17
420.699	3.13
421.057	3.11
421.414	3.09
421.772	3.07
422.129	3.05
422.486	3.04
422.844	3.02
423.201	3
423.558	3
423.915	2.99
424.273	2.99
424.63	2.97
424.987	2.96
425.344	2.93
425.701	2.92
426.058	2.91
426.415	2.9
426.772	2.87
427.128	2.86
427.485	2.87
427.842	2.86
428.199	2.87
428.555	2.87
428.912	2.86
429.269	2.85
429.625	2.85
429.982	2.83
430.338	2.83
430.695	2.84
431.051	2.83
431.407	2.83
431.764	2.82
432.12	2.83
432.476	2.83
432.832	2.85
433.189	2.84
433.545	2.84
433.901	2.83
434.257	2.84
434.613	2.86
434.969	2.84
435.325	2.83
435.681	2.83
436.036	2.82
436.392	2.81
436.748	2.81
437.104	2.81
437.459	2.8
437.815	2.81
438.171	2.78
438.526	2.8
438.882	2.81
439.237	2.82
439.593	2.81
439.948	2.83
440.304	2.82
440.659	2.83
441.014	2.82
441.369	2.82
441.725	2.81
442.08	2.81
442.435	2.81
442.79	2.81
443.145	2.8
443.5	2.79
443.855	2.79
444.21	2.8
444.565	2.8
444.92	2.81
445.275	2.79
445.629	2.79
445.984	2.79
446.339	2.76
446.693	2.74
447.048	2.73
447.403	2.71
447.757	2.7
448.112	2.69
448.466	2.68
448.82	2.68
449.175	2.68
449.529	2.67
449.883	2.66
450.238	2.66
450.592	2.66
450.946	2.65
451.3	2.63
451.654	2.61
452.008	2.61
452.362	2.59
452.716	2.6
453.07	2.59
453.424	2.58
453.778	2.6
454.132	2.59
454.486	2.57
454.839	2.58
455.193	2.57
455.547	2.56
455.9	2.56
456.254	2.55
456.607	2.55
456.961	2.56
457.314	2.55
457.668	2.56
458.021	2.54
458.375	2.55
458.728	2.57
459.081	2.57
459.434	2.55
459.787	2.58
460.141	2.57
460.494	2.61
460.847	2.6
461.2	2.58
461.553	2.6
461.906	2.61
462.259	2.62
462.611	2.63
462.964	2.65
463.317	2.67
463.67	2.69
464.022	2.69
464.375	2.68
464.728	2.7
465.08	2.7
465.433	2.72
465.785	2.74
466.138	2.73
466.49	2.77
466.843	2.78
467.195	2.78
467.547	2.8
467.899	2.78
468.252	2.79
468.604	2.8
468.956	2.82
469.308	2.81
469.66	2.81
470.012	2.84
470.364	2.83
470.716	2.83
471.068	2.83
471.42	2.84
471.772	2.86
472.123	2.87
472.475	2.88
472.827	2.9
473.178	2.9
473.53	2.91
473.882	2.9
474.233	2.91
474.585	2.89
474.936	2.87
475.288	2.86
475.639	2.88
475.99	2.89
476.342	2.89
476.693	2.92
477.044	2.94
477.395	2.92
477.746	2.92
478.097	2.91
478.448	2.9
478.8	2.9
479.15	2.88
479.501	2.89
479.852	2.86
480.203	2.86
480.554	2.85
480.905	2.86
481.255	2.87
481.606	2.87
481.957	2.88
482.307	2.89
482.658	2.91
483.009	2.89
483.359	2.89
483.709	2.89
484.06	2.88
484.41	2.88
484.761	2.89
485.111	2.9
485.461	2.91
485.811	2.91
486.162	2.9
486.512	2.91
486.862	2.91
487.212	2.92
487.562	2.93
487.912	2.93
488.262	2.92
488.612	2.93
488.961	2.93
489.311	2.94
489.661	2.94
490.011	2.94
490.36	2.94
490.71	2.95
491.06	2.96
491.409	2.96
491.759	2.96
492.108	2.96
492.458	2.95
492.807	2.94
493.157	2.96
493.506	2.98
493.855	2.99
494.204	2.99
494.554	3.02
494.903	3.03
495.252	3.05
495.601	3.08
495.95	3.09
496.299	3.09
496.648	3.12
496.997	3.13
497.346	3.15
497.695	3.2
498.043	3.21
498.392	3.24
498.741	3.27
499.09	3.3
499.438	3.32
499.787	3.36
500.135	3.4
500.484	3.4
500.832	3.44
501.181	3.46
501.529	3.47
501.878	3.51
502.226	3.52
502.574	3.57
502.923	3.62
503.271	3.68
503.619	3.74
503.967	3.78
504.315	3.83
504.663	3.93
505.011	3.96
505.359	4.01
505.707	4.06
506.055	4.11
506.403	4.16
506.751	4.22
507.098	4.29
507.446	4.36
507.794	4.41
508.141	4.46
508.489	4.56
508.837	4.66
509.184	4.72
509.531	4.8
509.879	4.86
510.226	4.94
510.574	5
510.921	5.05
511.268	5.12
511.616	5.19
511.963	5.24
512.31	5.33
512.657	5.43
513.004	5.52
513.351	5.62
513.698	5.71
514.045	5.85
514.392	5.96
514.739	6.06
515.086	6.2
515.432	6.32
515.779	6.43
516.126	6.54
516.473	6.65
516.819	6.78
517.166	6.88
517.512	6.98
517.859	7.08
518.205	7.19
518.552	7.28
518.898	7.39
519.245	7.48
519.591	7.57
519.937	7.64
520.283	7.75
520.629	7.87
520.976	7.99
521.322	8.09
521.668	8.2
522.014	8.33
522.36	8.44
522.706	8.56
523.052	8.7
523.398	8.84
523.743	8.99
524.089	9.12
524.435	9.27
524.781	9.42
525.126	9.57
525.472	9.69
525.817	9.81
526.163	9.91
526.509	10.02
526.854	10.12
527.199	10.22
527.545	10.32
527.89	10.4
528.235	10.5
528.581	10.6
528.926	10.7
529.271	10.8
529.616	10.89
529.961	10.99
530.306	11.08
530.651	11.18
530.996	11.3
531.341	11.41
531.686	11.53
532.031	11.65
532.376	11.76
532.721	11.9
533.065	12.03
533.41	12.18
533.755	12.3
534.099	12.45
534.444	12.61
534.788	12.73
535.133	12.87
535.477	13.02
535.822	13.17
536.166	13.33
536.51	13.5
536.855	13.7
537.199	13.89
537.543	14.07
537.887	14.29
538.231	14.51
538.576	14.71
538.92	14.92
539.264	15.11
539.608	15.3
539.951	15.47
540.295	15.64
540.639	15.81
540.983	15.97
541.327	16.14
541.671	16.31
542.014	16.48
542.358	16.66
542.701	16.82
543.045	16.97
543.389	17.13
543.732	17.29
544.075	17.48
544.419	17.68
544.762	17.88
545.105	18.07
545.449	18.25
545.792	18.45
546.135	18.68
546.478	18.91
546.821	19.15
547.165	19.41
547.508	19.67
547.851	19.89
548.194	20.16
548.536	20.42
548.879	20.69
549.222	20.95
549.565	21.19
549.908	21.48
550.25	21.73
550.593	22
550.936	22.28
551.278	22.51
551.621	22.81
551.963	23.06
552.306	23.34
552.648	23.62
552.991	23.86
553.333	24.04
553.675	24.31
554.017	24.54
554.36	24.75
554.702	24.99
555.044	25.25
555.386	25.51
555.728	25.76
556.07	25.99
556.412	26.25
556.754	26.49
557.096	26.73
557.438	27.06
557.78	27.31
558.121	27.58
558.463	27.86
558.805	28.1
559.147	28.36
559.488	28.6
559.83	28.79
560.171	29.04
560.513	29.34
560.854	29.57
561.196	29.84
561.537	30.06
561.878	30.31
562.22	30.55
562.561	30.77
562.902	30.96
563.243	31.22
563.584	31.42
563.925	31.65
564.266	31.81
564.607	32.02
564.948	32.23
565.289	32.43
565.63	32.66
565.971	32.82
566.312	33.05
566.653	33.19
566.993	33.4
567.334	33.62
567.675	33.81
568.015	34
568.356	34.15
568.696	34.39
569.037	34.56
569.377	34.75
569.718	34.94
570.058	35.09
570.398	35.26
570.739	35.44
571.079	35.63
571.419	35.84
571.759	35.98
572.099	36.21
572.439	36.33
572.779	36.42
573.119	36.61
573.459	36.72
573.799	36.92
574.139	37.08
574.479	37.22
574.819	37.38
575.158	37.55
575.498	37.7
575.838	37.84
576.177	37.97
576.517	38.08
576.856	38.27
577.196	38.45
577.535	38.59
577.875	38.72
578.214	38.86
578.553	38.98
578.893	39.13
579.232	39.22
579.571	39.42
579.91	39.61
580.25	39.74
580.589	39.89
580.928	40.01
581.267	40.25
581.606	40.37
581.945	40.45
582.283	40.55
582.622	40.67
582.961	40.83
583.3	40.97
583.639	41.16
583.977	41.22
584.316	41.3
584.654	41.47
584.993	41.63
585.332	41.73
585.67	41.86
586.008	42.02
586.347	42.05
586.685	42.18
587.024	42.24
587.362	42.34
587.7	42.39
588.038	42.51
588.376	42.56
588.715	42.7
589.053	42.8
589.391	42.87
589.729	42.99
590.067	43.04
590.404	43.16
590.742	43.28
591.08	43.37
591.418	43.48
591.756	43.5
592.093	43.53
592.431	43.63
592.769	43.71
593.106	43.77
593.444	43.91
593.781	43.93
594.119	43.96
594.456	44.02
594.793	44.12
595.131	44.17
595.468	44.18
595.805	44.24
596.143	44.33
596.48	44.36
596.817	44.44
597.154	44.5
597.491	44.54
597.828	44.53
598.165	44.59
598.502	44.64
598.839	44.62
599.176	44.73
599.512	44.74
599.849	44.86
600.186	44.91
600.523	44.97
600.859	45.09
601.196	45.24
601.532	45.25
601.869	45.37
602.205	45.38
602.542	45.42
602.878	45.38
603.215	45.36
603.551	45.47
603.887	45.49
604.223	45.58
604.56	45.66
604.896	45.71
605.232	45.78
605.568	45.82
605.904	45.96
606.24	46.03
606.576	46.09
606.912	46.1
607.248	46.15
607.583	46.15
607.919	46.19
608.255	46.27
608.591	46.37
608.926	46.33
609.262	46.44
609.597	46.57
609.933	46.66
610.268	46.76
610.604	46.81
610.939	46.88
611.275	46.87
611.61	46.83
611.945	46.87
612.281	46.91
612.616	47.03
612.951	47.03
613.286	47.08
613.621	47.18
613.956	47.24
614.291	47.2
614.626	47.29
614.961	47.37
615.296	47.32
615.631	47.34
615.966	47.51
616.3	47.65
616.635	47.68
616.97	47.7
617.304	47.79
617.639	47.84
617.973	47.83
618.308	47.89
618.642	47.96
618.977	47.98
619.311	47.97
619.646	48.05
619.98	48.1
620.314	48.19
620.648	48.19
620.983	48.21
621.317	48.34
621.651	48.41
621.985	48.45
622.319	48.55
622.653	48.63
622.987	48.65
623.321	48.63
623.655	48.57
623.988	48.64
624.322	48.52
624.656	48.55
624.99	48.62
625.323	48.57
625.657	48.63
625.99	48.65
626.324	48.7
626.657	48.7
626.991	48.75
627.324	48.67
627.658	48.71
627.991	48.74
628.324	48.76
628.657	48.67
628.991	48.68
629.324	48.72
629.657	48.78
629.99	48.71
630.323	48.69
630.656	48.73
630.989	48.83
631.322	48.92
631.655	48.88
631.987	48.93
632.32	49
632.653	49.01
632.986	49.09
633.318	49.07
633.651	49.07
633.984	49.19
634.316	49.28
634.649	49.35
634.981	49.31
635.313	49.36
635.646	49.52
635.978	49.5
636.31	49.48
636.643	49.41
636.975	49.34
637.307	49.34
637.639	49.39
637.971	49.38
638.303	49.45
638.635	49.54
638.967	49.59
639.299	49.62
639.631	49.67
639.963	49.8
640.295	49.83
640.626	49.86
640.958	49.76
641.29	49.82
641.621	49.72
641.953	49.82
642.285	49.81
642.616	49.86
642.948	49.94
643.279	49.91
643.61	50
643.942	50.23
644.273	50.33
644.604	50.43
644.936	50.39
645.267	50.42
645.598	50.41
645.929	50.3
646.26	50.33
646.591	50.35
646.922	50.13
647.253	50.21
647.584	50.24
647.915	50.24
648.245	50.21
648.576	50.29
648.907	50.39
649.238	50.45
649.568	50.42
649.899	50.42
650.229	50.53
650.56	50.59
650.89	50.59
651.221	50.53
651.551	50.47
651.882	50.49
652.212	50.52
652.542	50.6
652.872	50.71
653.203	50.79
653.533	50.77
653.863	50.91
654.193	50.83
654.523	50.89
654.853	50.89
655.183	51.03
655.513	51.03
655.843	51.05
656.172	51.07
656.502	51.05
656.832	51.05
657.162	51.14
657.491	51.11
657.821	51.04
658.15	51.15
658.48	51.14
658.809	51.12
659.139	51.06
659.468	51.04
659.798	51
660.127	51
660.456	51.08
660.785	51.08
661.115	51.23
661.444	51.26
661.773	51.31
662.102	51.2
662.431	51.28
662.76	51.24
663.089	51.21
663.418	51.25
663.747	51.27
664.076	51.11
664.404	51.13
664.733	51.33
665.062	51.29
665.39	51.4
665.719	51.41
666.048	51.5
666.376	51.53
