Data from BU26845_Reflection_00001.txt Node
Date: Mon Nov 18 16:27:48 EST 2019
User: vgr7
Spectrometer: USB2G7710
Scans to average: 3
Trigger mode: 4
Integration Time (sec): 2.000000E-2
Electric dark correction enabled: true
Boxcar width: 10
XAxis mode: Wavelengths
Number of Pixels in Spectrum: 2048
>>>>>Begin Spectral Data<<<<<
177.721	-45.49
178.105	-36.22
178.488	-64.17
178.871	-46.84
179.254	42.09
179.636	334.51
180.019	73.71
180.402	172
180.785	-81.82
181.168	-759.38
181.55	-1034.33
181.933	126.58
182.316	250.2
182.698	279.98
183.081	197.7
183.463	248.4
183.846	230.69
184.228	211.23
184.611	128.22
184.993	326.22
185.376	95.49
185.758	56.86
186.14	63.48
186.522	41.39
186.904	-8.37
187.287	-23.66
187.669	19.67
188.051	2.16
188.433	11.35
188.815	20.85
189.197	19.8
189.579	19.46
189.961	11.84
190.342	12.56
190.724	13.16
191.106	2.74
191.488	-5.23
191.869	-0.04
192.251	-7.46
192.633	-3.53
193.014	-7.48
193.396	-14.43
193.777	-28.65
194.159	-33.78
194.54	-31.43
194.922	-18.31
195.303	-24.3
195.684	-37.16
196.065	-25.93
196.447	-31.15
196.828	-44.85
197.209	-30.43
197.59	-41.32
197.971	-41.05
198.352	-22.78
198.733	-35.55
199.114	-24.88
199.495	-25.35
199.876	-27.92
200.257	-18.54
200.638	-35.97
201.018	-35.37
201.399	-41.21
201.78	-25.8
202.16	-34.86
202.541	-41.55
202.922	-61.44
203.302	-49.99
203.683	-56.59
204.063	-82.35
204.444	-76.56
204.824	-83.27
205.204	-88.01
205.585	-74.67
205.965	-69.48
206.345	-91.85
206.725	-81.32
207.106	-103.89
207.486	-87.2
207.866	-77.18
208.246	-78.74
208.626	-49.85
209.006	-30.67
209.386	-26.29
209.766	-40.65
210.145	-34.74
210.525	-22.32
210.905	-9.48
211.285	-6.77
211.664	-4.65
212.044	6.98
212.424	10.51
212.803	12.7
213.183	11.91
213.562	14.51
213.942	13.9
214.321	10.66
214.701	10.83
215.08	13.36
215.459	20.94
215.838	21.53
216.218	18.63
216.597	22.88
216.976	21.64
217.355	10.83
217.734	18.94
218.113	25.63
218.492	14.76
218.871	3.54
219.25	-1.26
219.629	0.97
220.008	-6.69
220.387	-6.12
220.766	-10.33
221.144	-10.59
221.523	-18.29
221.902	-15.92
222.28	-15.34
222.659	1.05
223.037	22.49
223.416	9.53
223.794	7.82
224.173	10.1
224.551	10.91
224.929	2.06
225.308	5.14
225.686	3.26
226.064	-0.93
226.442	4.55
226.821	9.26
227.199	6.67
227.577	1.98
227.955	3.71
228.333	2.99
228.711	1.79
229.089	3.77
229.467	4.54
229.845	2.09
230.222	4.01
230.6	3.38
230.978	0.2
231.356	2.65
231.733	3.2
232.111	4.4
232.488	4.74
232.866	5.45
233.243	7.36
233.621	6.74
233.998	7.29
234.376	5.82
234.753	6.08
235.13	7.97
235.508	9.69
235.885	9.99
236.262	8.04
236.639	8.66
237.016	7.72
237.393	7.92
237.77	8.22
238.147	7.05
238.524	5.55
238.901	5.64
239.278	5.12
239.655	5.72
240.032	5.28
240.409	5.02
240.785	4.94
241.162	4.69
241.539	4.62
241.915	4.51
242.292	4.52
242.668	4.41
243.045	4.22
243.421	3.92
243.798	3.51
244.174	3.7
244.551	3.94
244.927	3.76
245.303	3.6
245.679	3.56
246.056	3.7
246.432	3.85
246.808	4.04
247.184	4.11
247.56	3.79
247.936	3.83
248.312	3.66
248.688	3.89
249.064	3.89
249.44	3.77
249.815	3.82
250.191	3.84
250.567	3.83
250.943	3.65
251.318	3.67
251.694	3.79
252.069	3.85
252.445	3.73
252.82	3.94
253.196	4.1
253.571	4.01
253.947	4.13
254.322	4.15
254.697	3.97
255.073	3.83
255.448	3.49
255.823	3.26
256.198	3.27
256.573	2.81
256.948	2.78
257.323	2.88
257.698	2.68
258.073	2.74
258.448	2.49
258.823	2.62
259.198	2.62
259.573	2.57
259.948	2.61
260.322	2.55
260.697	2.47
261.072	2.4
261.446	2.65
261.821	2.56
262.195	2.64
262.57	2.49
262.944	2.41
263.319	2.53
263.693	2.68
264.067	2.7
264.442	2.95
264.816	3.07
265.19	3.09
265.564	3.42
265.938	3.46
266.313	3.72
266.687	3.67
267.061	3.84
267.435	3.94
267.809	3.85
268.183	3.9
268.556	3.87
268.93	3.78
269.304	3.55
269.678	3.47
270.051	3.36
270.425	3.35
270.799	3.37
271.172	3.38
271.546	3.38
271.919	3.22
272.293	3.1
272.666	2.95
273.04	2.93
273.413	2.75
273.787	2.71
274.16	2.6
274.533	2.59
274.906	2.5
275.279	2.55
275.653	2.54
276.026	2.43
276.399	2.27
276.772	2.53
277.145	2.44
277.518	2.53
277.891	2.37
278.263	2.47
278.636	2.34
279.009	2.45
279.382	2.46
279.755	2.62
280.127	2.7
280.5	2.83
280.872	2.99
281.245	2.88
281.617	2.89
281.99	3.07
282.362	3.12
282.735	3.07
283.107	3
283.479	3.16
283.852	3.22
284.224	3.45
284.596	3.28
284.968	3.38
285.34	3.44
285.713	3.59
286.085	3.53
286.457	3.78
286.829	3.61
287.201	3.53
287.572	3.51
287.944	3.23
288.316	3.22
288.688	3.15
289.06	3.34
289.431	3.41
289.803	3.26
290.175	3.27
290.546	3.31
290.918	3.2
291.289	3.19
291.661	3.14
292.032	3.06
292.403	3.1
292.775	3.01
293.146	2.98
293.517	2.96
293.889	3.01
294.26	2.84
294.631	2.91
295.002	2.93
295.373	2.86
295.744	2.95
296.115	2.75
296.486	2.59
296.857	2.52
297.228	2.52
297.599	2.54
297.97	2.5
298.34	2.45
298.711	2.52
299.082	2.46
299.452	2.44
299.823	2.44
300.194	2.36
300.564	2.41
300.935	2.37
301.305	2.26
301.676	2.29
302.046	2.24
302.416	2.34
302.787	2.29
303.157	2.42
303.527	2.54
303.897	2.71
304.267	2.9
304.637	2.83
305.008	2.65
305.378	2.74
305.748	2.78
306.117	2.79
306.487	2.77
306.857	2.75
307.227	2.8
307.597	2.77
307.967	2.92
308.336	2.83
308.706	2.77
309.076	2.86
309.445	2.78
309.815	2.82
310.184	2.76
310.554	2.78
310.923	2.71
311.293	2.65
311.662	2.57
312.031	2.5
312.401	2.63
312.77	2.79
313.139	2.79
313.508	2.84
313.877	2.9
314.246	2.83
314.616	2.79
314.985	2.84
315.353	2.75
315.722	2.85
316.091	2.91
316.46	2.88
316.829	2.93
317.198	2.97
317.567	3.02
317.935	2.96
318.304	2.85
318.672	3.01
319.041	3.14
319.41	3.22
319.778	3.19
320.147	3.03
320.515	2.87
320.883	2.71
321.252	2.56
321.62	2.57
321.988	2.67
322.357	2.67
322.725	2.62
323.093	2.92
323.461	2.71
323.829	2.7
324.197	2.75
324.565	2.74
324.933	2.77
325.301	2.68
325.669	2.76
326.037	2.89
326.405	2.83
326.772	2.85
327.14	2.85
327.508	2.83
327.875	2.7
328.243	2.81
328.61	2.89
328.978	2.91
329.346	2.92
329.713	2.82
330.08	2.85
330.448	2.76
330.815	2.61
331.182	2.51
331.55	2.48
331.917	2.45
332.284	2.5
332.651	2.47
333.018	2.67
333.385	2.6
333.752	2.61
334.119	2.67
334.486	2.52
334.853	2.53
335.22	2.53
335.587	2.69
335.954	2.7
336.32	2.68
336.687	2.74
337.054	2.67
337.42	2.74
337.787	2.87
338.153	2.94
338.52	2.97
338.886	2.98
339.253	3.01
339.619	3.11
339.986	3.06
340.352	3.07
340.718	3.07
341.084	3.13
341.451	3.08
341.817	2.98
342.183	3.06
342.549	3.03
342.915	3.15
343.281	3.19
343.647	3.13
344.013	3.25
344.379	3.18
344.745	3.18
345.11	3.17
345.476	3.1
345.842	3.05
346.208	3.02
346.573	3.11
346.939	3.22
347.304	3.12
347.67	3.03
348.035	2.96
348.401	2.83
348.766	2.88
349.132	2.91
349.497	2.9
349.862	2.93
350.228	2.91
350.593	2.78
350.958	2.76
351.323	2.77
351.688	2.74
352.053	2.83
352.418	2.88
352.783	2.97
353.148	2.9
353.513	2.91
353.878	2.93
354.243	2.93
354.608	2.82
354.972	2.87
355.337	2.98
355.702	3.07
356.066	3.05
356.431	2.94
356.795	2.95
357.16	2.98
357.524	2.86
357.889	2.85
358.253	2.86
358.618	2.86
358.982	2.85
359.346	2.77
359.71	2.71
360.075	2.75
360.439	2.76
360.803	2.8
361.167	2.84
361.531	2.85
361.895	2.77
362.259	2.71
362.623	2.74
362.987	2.69
363.351	2.63
363.714	2.66
364.078	2.67
364.442	2.63
364.806	2.6
365.169	2.71
365.533	2.75
365.896	2.74
366.26	2.74
366.623	2.72
366.987	2.75
367.35	2.84
367.714	2.78
368.077	2.71
368.44	2.69
368.803	2.7
369.167	2.69
369.53	2.7
369.893	2.83
370.256	2.73
370.619	2.7
370.982	2.74
371.345	2.71
371.708	2.72
372.071	2.74
372.434	2.74
372.797	2.65
373.159	2.57
373.522	2.63
373.885	2.65
374.247	2.66
374.61	2.7
374.973	2.6
375.335	2.59
375.698	2.62
376.06	2.6
376.423	2.58
376.785	2.58
377.147	2.63
377.51	2.61
377.872	2.72
378.234	2.75
378.596	2.77
378.958	2.8
379.321	2.81
379.683	2.82
380.045	2.83
380.407	2.85
380.769	2.86
381.13	2.8
381.492	2.77
381.854	2.77
382.216	2.71
382.578	2.73
382.939	2.77
383.301	2.74
383.663	2.73
384.024	2.71
384.386	2.72
384.747	2.74
385.109	2.77
385.47	2.68
385.832	2.68
386.193	2.67
386.554	2.66
386.916	2.6
387.277	2.62
387.638	2.64
387.999	2.65
388.36	2.7
388.721	2.76
389.082	2.75
389.443	2.74
389.804	2.76
390.165	2.75
390.526	2.73
390.887	2.74
391.248	2.78
391.609	2.79
391.969	2.76
392.33	2.73
392.691	2.71
393.051	2.71
393.412	2.73
393.772	2.75
394.133	2.72
394.493	2.82
394.854	2.82
395.214	2.82
395.574	2.81
395.935	2.8
396.295	2.78
396.655	2.78
397.015	2.81
397.376	2.82
397.736	2.79
398.096	2.79
398.456	2.81
398.816	2.82
399.176	2.81
399.535	2.8
399.895	2.81
400.255	2.83
400.615	2.87
400.975	2.87
401.334	2.85
401.694	2.88
402.054	2.82
402.413	2.79
402.773	2.8
403.132	2.79
403.492	2.8
403.851	2.79
404.211	2.79
404.57	2.75
404.929	2.73
405.288	2.77
405.648	2.76
406.007	2.78
406.366	2.75
406.725	2.79
407.084	2.8
407.443	2.78
407.802	2.78
408.161	2.76
408.52	2.76
408.879	2.75
409.238	2.78
409.596	2.78
409.955	2.77
410.314	2.77
410.673	2.76
411.031	2.74
411.39	2.75
411.748	2.77
412.107	2.8
412.465	2.82
412.824	2.8
413.182	2.83
413.54	2.83
413.899	2.83
414.257	2.82
414.615	2.84
414.974	2.86
415.332	2.85
415.69	2.85
416.048	2.83
416.406	2.84
416.764	2.83
417.122	2.86
417.48	2.84
417.838	2.85
418.195	2.87
418.553	2.87
418.911	2.87
419.269	2.87
419.626	2.87
419.984	2.87
420.342	2.88
420.699	2.87
421.057	2.87
421.414	2.86
421.772	2.87
422.129	2.86
422.486	2.87
422.844	2.88
423.201	2.88
423.558	2.88
423.915	2.89
424.273	2.89
424.63	2.88
424.987	2.89
425.344	2.89
425.701	2.89
426.058	2.92
426.415	2.93
426.772	2.91
427.128	2.92
427.485	2.91
427.842	2.9
428.199	2.92
428.555	2.94
428.912	2.97
429.269	2.97
429.625	2.98
429.982	2.98
430.338	2.98
430.695	3.01
431.051	3.02
431.407	3.02
431.764	3.03
432.12	3.02
432.476	3.01
432.832	3
433.189	3
433.545	2.98
433.901	2.98
434.257	3
434.613	3.02
434.969	3.02
435.325	3.03
435.681	3.03
436.036	3.01
436.392	2.97
436.748	2.98
437.104	2.95
437.459	2.94
437.815	2.93
438.171	2.92
438.526	2.92
438.882	2.92
439.237	2.92
439.593	2.94
439.948	2.96
440.304	2.96
440.659	2.97
441.014	2.97
441.369	2.96
441.725	2.95
442.08	2.93
442.435	2.95
442.79	2.93
443.145	2.93
443.5	2.94
443.855	2.95
444.21	2.96
444.565	2.97
444.92	2.99
445.275	2.98
445.629	2.99
445.984	2.99
446.339	3
446.693	2.98
447.048	2.96
447.403	2.95
447.757	2.95
448.112	2.95
448.466	2.96
448.82	2.97
449.175	2.99
449.529	3
449.883	2.99
450.238	2.99
450.592	3.01
450.946	2.99
451.3	2.99
451.654	3
452.008	2.99
452.362	2.98
452.716	2.98
453.07	2.98
453.424	2.99
453.778	2.98
454.132	2.98
454.486	3
454.839	3.01
455.193	2.99
455.547	2.99
455.9	2.98
456.254	2.99
456.607	2.98
456.961	2.98
457.314	2.99
457.668	2.99
458.021	2.97
458.375	2.98
458.728	2.98
459.081	2.97
459.434	2.97
459.787	2.96
460.141	2.97
460.494	2.98
460.847	2.98
461.2	2.97
461.553	2.99
461.906	2.98
462.259	3
462.611	3.01
462.964	3
463.317	3
463.67	3
464.022	2.99
464.375	2.98
464.728	2.98
465.08	2.99
465.433	2.99
465.785	2.99
466.138	2.99
466.49	2.99
466.843	3
467.195	3.01
467.547	3.01
467.899	3
468.252	2.99
468.604	3.01
468.956	3
469.308	3.01
469.66	2.99
470.012	3
470.364	3.01
470.716	3.02
471.068	3.01
471.42	3.04
471.772	3.05
472.123	3.05
472.475	3.04
472.827	3.06
473.178	3.08
473.53	3.08
473.882	3.08
474.233	3.09
474.585	3.08
474.936	3.09
475.288	3.08
475.639	3.08
475.99	3.09
476.342	3.08
476.693	3.09
477.044	3.11
477.395	3.09
477.746	3.07
478.097	3.06
478.448	3.07
478.8	3.06
479.15	3.04
479.501	3.04
479.852	3.04
480.203	3.04
480.554	3.03
480.905	3.03
481.255	3.04
481.606	3.05
481.957	3.05
482.307	3.05
482.658	3.06
483.009	3.06
483.359	3.06
483.709	3.07
484.06	3.06
484.41	3.06
484.761	3.07
485.111	3.07
485.461	3.08
485.811	3.07
486.162	3.08
486.512	3.1
486.862	3.11
487.212	3.11
487.562	3.11
487.912	3.12
488.262	3.11
488.612	3.11
488.961	3.11
489.311	3.11
489.661	3.11
490.011	3.11
490.36	3.11
490.71	3.11
491.06	3.12
491.409	3.12
491.759	3.11
492.108	3.11
492.458	3.11
492.807	3.11
493.157	3.12
493.506	3.11
493.855	3.1
494.204	3.1
494.554	3.11
494.903	3.11
495.252	3.1
495.601	3.11
495.95	3.12
496.299	3.12
496.648	3.12
496.997	3.12
497.346	3.14
497.695	3.15
498.043	3.16
498.392	3.15
498.741	3.18
499.09	3.17
499.438	3.2
499.787	3.21
500.135	3.22
500.484	3.22
500.832	3.22
501.181	3.21
501.529	3.21
501.878	3.2
502.226	3.22
502.574	3.23
502.923	3.21
503.271	3.21
503.619	3.23
503.967	3.22
504.315	3.23
504.663	3.21
505.011	3.21
505.359	3.21
505.707	3.22
506.055	3.21
506.403	3.24
506.751	3.23
507.098	3.23
507.446	3.23
507.794	3.24
508.141	3.25
508.489	3.25
508.837	3.25
509.184	3.25
509.531	3.26
509.879	3.27
510.226	3.3
510.574	3.32
510.921	3.32
511.268	3.33
511.616	3.32
511.963	3.35
512.31	3.36
512.657	3.37
513.004	3.35
513.351	3.36
513.698	3.36
514.045	3.35
514.392	3.35
514.739	3.34
515.086	3.35
515.432	3.34
515.779	3.34
516.126	3.37
516.473	3.38
516.819	3.37
517.166	3.39
517.512	3.37
517.859	3.37
518.205	3.36
518.552	3.37
518.898	3.39
519.245	3.37
519.591	3.37
519.937	3.36
520.283	3.37
520.629	3.37
520.976	3.36
521.322	3.37
521.668	3.37
522.014	3.38
522.36	3.39
522.706	3.39
523.052	3.4
523.398	3.38
523.743	3.37
524.089	3.36
524.435	3.36
524.781	3.38
525.126	3.38
525.472	3.39
525.817	3.39
526.163	3.38
526.509	3.39
526.854	3.38
527.199	3.39
527.545	3.39
527.89	3.39
528.235	3.39
528.581	3.39
528.926	3.4
529.271	3.41
529.616	3.41
529.961	3.4
530.306	3.41
530.651	3.42
530.996	3.43
531.341	3.44
531.686	3.44
532.031	3.44
532.376	3.44
532.721	3.45
533.065	3.43
533.41	3.44
533.755	3.45
534.099	3.46
534.444	3.46
534.788	3.47
535.133	3.47
535.477	3.48
535.822	3.48
536.166	3.48
536.51	3.48
536.855	3.48
537.199	3.49
537.543	3.47
537.887	3.46
538.231	3.47
538.576	3.47
538.92	3.46
539.264	3.45
539.608	3.46
539.951	3.45
540.295	3.45
540.639	3.45
540.983	3.44
541.327	3.45
541.671	3.46
542.014	3.45
542.358	3.46
542.701	3.47
543.045	3.47
543.389	3.47
543.732	3.48
544.075	3.49
544.419	3.49
544.762	3.5
545.105	3.51
545.449	3.52
545.792	3.52
546.135	3.53
546.478	3.54
546.821	3.54
547.165	3.55
547.508	3.57
547.851	3.57
548.194	3.58
548.536	3.57
548.879	3.57
549.222	3.57
549.565	3.57
549.908	3.57
550.25	3.56
550.593	3.56
550.936	3.53
551.278	3.54
551.621	3.54
551.963	3.54
552.306	3.52
552.648	3.51
552.991	3.54
553.333	3.53
553.675	3.54
554.017	3.56
554.36	3.56
554.702	3.57
555.044	3.57
555.386	3.56
555.728	3.57
556.07	3.57
556.412	3.61
556.754	3.61
557.096	3.6
557.438	3.63
557.78	3.63
558.121	3.67
558.463	3.68
558.805	3.67
559.147	3.67
559.488	3.68
559.83	3.7
560.171	3.68
560.513	3.7
560.854	3.69
561.196	3.67
561.537	3.66
561.878	3.64
562.22	3.64
562.561	3.66
562.902	3.69
563.243	3.68
563.584	3.65
563.925	3.67
564.266	3.65
564.607	3.62
564.948	3.63
565.289	3.61
565.63	3.62
565.971	3.62
566.312	3.62
566.653	3.63
566.993	3.62
567.334	3.61
567.675	3.62
568.015	3.63
568.356	3.62
568.696	3.64
569.037	3.65
569.377	3.68
569.718	3.67
570.058	3.65
570.398	3.65
570.739	3.63
571.079	3.61
571.419	3.63
571.759	3.63
572.099	3.63
572.439	3.62
572.779	3.61
573.119	3.64
573.459	3.66
573.799	3.66
574.139	3.65
574.479	3.67
574.819	3.67
575.158	3.65
575.498	3.63
575.838	3.62
576.177	3.62
576.517	3.61
576.856	3.63
577.196	3.62
577.535	3.64
577.875	3.68
578.214	3.68
578.553	3.69
578.893	3.74
579.232	3.72
579.571	3.73
579.91	3.75
580.25	3.72
580.589	3.67
580.928	3.66
581.267	3.67
581.606	3.64
581.945	3.65
582.283	3.68
582.622	3.7
582.961	3.72
583.3	3.69
583.639	3.69
583.977	3.7
584.316	3.7
584.654	3.68
584.993	3.67
585.332	3.7
585.67	3.72
586.008	3.68
586.347	3.68
586.685	3.66
587.024	3.67
587.362	3.69
587.7	3.73
588.038	3.77
588.376	3.73
588.715	3.72
589.053	3.73
589.391	3.74
589.729	3.74
590.067	3.72
590.404	3.78
590.742	3.78
591.08	3.72
591.418	3.74
591.756	3.77
592.093	3.76
592.431	3.74
592.769	3.73
593.106	3.77
593.444	3.79
593.781	3.81
594.119	3.81
594.456	3.8
594.793	3.82
595.131	3.81
595.468	3.85
595.805	3.88
596.143	3.85
596.48	3.83
596.817	3.83
597.154	3.84
597.491	3.83
597.828	3.82
598.165	3.85
598.502	3.8
598.839	3.79
599.176	3.79
599.512	3.8
599.849	3.79
600.186	3.78
600.523	3.79
600.859	3.83
601.196	3.84
601.532	3.84
601.869	3.81
602.205	3.81
602.542	3.83
602.878	3.83
603.215	3.83
603.551	3.86
603.887	3.86
604.223	3.84
604.56	3.88
604.896	3.86
605.232	3.89
605.568	3.93
605.904	3.94
606.24	3.95
606.576	3.96
606.912	3.96
607.248	3.94
607.583	3.94
607.919	3.92
608.255	3.91
608.591	3.9
608.926	3.92
609.262	3.9
609.597	3.86
609.933	3.85
610.268	3.87
610.604	3.88
610.939	3.86
611.275	3.9
611.61	3.86
611.945	3.88
612.281	3.89
612.616	3.88
612.951	3.88
613.286	3.87
613.621	3.86
613.956	3.86
614.291	3.87
614.626	3.85
614.961	3.81
615.296	3.79
615.631	3.82
615.966	3.83
616.3	3.89
616.635	3.94
616.97	3.9
617.304	3.9
617.639	3.87
617.973	3.93
618.308	3.9
618.642	3.95
618.977	3.93
619.311	3.9
619.646	3.89
619.98	3.84
620.314	3.89
620.648	3.94
620.983	3.94
621.317	3.95
621.651	3.98
621.985	3.99
622.319	3.99
622.653	3.97
622.987	3.99
623.321	3.93
623.655	3.95
623.988	4.02
624.322	4.04
624.656	4.09
624.99	4.09
625.323	4.12
625.657	4.08
625.99	4.1
626.324	4.11
626.657	4.13
626.991	4.16
627.324	4.14
627.658	4.11
627.991	4.13
628.324	4.12
628.657	4.08
628.991	4.09
629.324	4.12
629.657	4.13
629.99	4.14
630.323	4.13
630.656	4.14
630.989	4.13
631.322	4.11
631.655	4.07
631.987	4.04
632.32	4.02
632.653	4
632.986	4.03
633.318	4.06
633.651	4.05
633.984	4.02
634.316	4.04
634.649	4.03
634.981	4.05
635.313	4.05
635.646	4.06
635.978	4.07
636.31	4.07
636.643	4.07
636.975	4
637.307	4.06
637.639	4.01
637.971	3.97
638.303	3.92
638.635	3.9
638.967	3.91
639.299	3.92
639.631	3.93
639.963	3.89
640.295	3.84
640.626	3.86
640.958	3.94
641.29	3.94
641.621	3.98
641.953	3.97
642.285	3.98
642.616	4.04
642.948	4.04
643.279	4.05
643.61	4.03
643.942	4.11
644.273	4.05
644.604	4.1
644.936	4.12
645.267	4.2
645.598	4.22
645.929	4.27
646.26	4.29
646.591	4.34
646.922	4.38
647.253	4.43
647.584	4.43
647.915	4.36
648.245	4.39
648.576	4.36
648.907	4.39
649.238	4.39
649.568	4.36
649.899	4.36
650.229	4.39
650.56	4.38
650.89	4.32
651.221	4.36
651.551	4.31
651.882	4.31
652.212	4.29
652.542	4.27
652.872	4.26
653.203	4.2
653.533	4.16
653.863	4.12
654.193	4.13
654.523	4.11
654.853	4.15
655.183	4.13
655.513	4.15
655.843	4.13
656.172	4.2
656.502	4.22
656.832	4.23
657.162	4.25
657.491	4.22
657.821	4.25
658.15	4.27
658.48	4.25
658.809	4.28
659.139	4.29
659.468	4.33
659.798	4.32
660.127	4.43
660.456	4.46
660.785	4.49
661.115	4.48
661.444	4.45
661.773	4.44
662.102	4.43
662.431	4.42
662.76	4.42
663.089	4.36
663.418	4.35
663.747	4.4
664.076	4.34
664.404	4.36
664.733	4.39
665.062	4.42
665.39	4.47
665.719	4.4
666.048	4.44
666.376	4.44
666.705	4.4
667.033	4.29
667.362	4.3
667.69	4.31
668.018	4.24
668.347	4.27
668.675	4.27
669.003	4.28
669.331	4.34
669.659	4.32
669.987	4.37
670.315	4.37
670.643	4.28
670.971	4.3
671.299	4.37
671.627	4.38
671.955	4.35
672.283	4.36
672.61	4.34
672.938	4.29
673.266	4.29
673.593	4.39
673.921	4.45
674.249	4.38
674.576	4.28
674.904	4.37
675.231	4.4
675.558	4.37
675.886	4.38
676.213	4.4
676.54	4.5
676.867	4.51
677.195	4.51
677.522	4.56
677.849	4.65
678.176	4.58
678.503	4.53
678.83	4.51
679.157	4.48
