Data from BU26843_Reflection_00012.txt Node
Date: Mon Nov 18 16:31:19 EST 2019
User: vgr7
Spectrometer: USB2G7710
Scans to average: 3
Trigger mode: 4
Integration Time (sec): 2.000000E-2
Electric dark correction enabled: true
Boxcar width: 10
XAxis mode: Wavelengths
Number of Pixels in Spectrum: 2048
>>>>>Begin Spectral Data<<<<<
177.721	51.22
178.105	-215.79
178.488	340.6
178.871	-23.89
179.254	3.9
179.636	60.94
180.019	60.18
180.402	68.97
180.785	70.19
181.168	217.92
181.55	357.43
181.933	162.92
182.316	180
182.698	206.87
183.081	204.35
183.463	515.84
183.846	650.72
184.228	391.26
184.611	452
184.993	-543.68
185.376	-423.49
185.758	-320.6
186.14	-356.93
186.522	-415.9
186.904	-251.54
187.287	-554.38
187.669	-249.9
188.051	-343.91
188.433	-140.6
188.815	-83.54
189.197	-83.69
189.579	-64.38
189.961	-58.89
190.342	-48.35
190.724	-35.25
191.106	-39.5
191.488	-42.96
191.869	-38.79
192.251	-50.41
192.633	-32.63
193.014	-36.15
193.396	-52.95
193.777	-57.29
194.159	-51.07
194.54	-37.71
194.922	-31.23
195.303	-5.51
195.684	-1.37
196.065	11.49
196.447	17.44
196.828	-23.34
197.209	-22.98
197.59	-50.56
197.971	-50.79
198.352	-30.82
198.733	-40.85
199.114	-16.87
199.495	-7.63
199.876	-19.49
200.257	9.91
200.638	9.43
201.018	5.64
201.399	39.69
201.78	55.78
202.16	24.08
202.541	38.14
202.922	-6.94
203.302	-46.34
203.683	-59.89
204.063	-76.05
204.444	-43.04
204.824	-42.26
205.204	0.73
205.585	-1.69
205.965	5.88
206.345	-74.45
206.725	-158.46
207.106	-303.04
207.486	-318.88
207.866	-263.64
208.246	-214.85
208.626	-182.39
209.006	-149.1
209.386	-164.24
209.766	-185.32
210.145	-141.64
210.525	-127.48
210.905	-98.91
211.285	-71.99
211.664	-54.02
212.044	-46.7
212.424	-57.81
212.803	-53.69
213.183	-57.92
213.562	-46.19
213.942	-42.24
214.321	-29.71
214.701	-25.78
215.08	-19
215.459	-12.2
215.838	-4.69
216.218	-5.44
216.597	-0.89
216.976	1.79
217.355	7.26
217.734	1.22
218.113	7.3
218.492	13.34
218.871	7.27
219.25	10.98
219.629	-2.45
220.008	-5
220.387	7.64
220.766	-1.5
221.144	-12.01
221.523	-7.86
221.902	-5.33
222.28	-24.59
222.659	-24
223.037	-21.63
223.416	-26.67
223.794	-27.07
224.173	-32.43
224.551	-33.5
224.929	-32.02
225.308	-23.08
225.686	-21.79
226.064	-18.74
226.442	-19.4
226.821	-16.09
227.199	-17.9
227.577	-15.17
227.955	-15.61
228.333	-15.91
228.711	-11.09
229.089	-5.51
229.467	-10.76
229.845	-9.62
230.222	-8.66
230.6	-8.25
230.978	-7.56
231.356	-5.07
231.733	-4.76
232.111	-1.88
232.488	0.16
232.866	0.5
233.243	-2.09
233.621	-1.01
233.998	1.73
234.376	1.02
234.753	1.48
235.13	1.64
235.508	3.04
235.885	4.31
236.262	2.89
236.639	2.72
237.016	2.58
237.393	4.48
237.77	4.33
238.147	4.96
238.524	5.03
238.901	4.86
239.278	4.99
239.655	6.1
240.032	5.5
240.409	5.29
240.785	5.76
241.162	5.33
241.539	5.43
241.915	4.74
242.292	4.66
242.668	4.81
243.045	4.67
243.421	4.19
243.798	3.9
244.174	3.86
244.551	4.12
244.927	3.88
245.303	4.05
245.679	4.02
246.056	4
246.432	4
246.808	4.17
247.184	4.07
247.56	3.71
247.936	3.66
248.312	3.57
248.688	3.35
249.064	3.69
249.44	3.68
249.815	3.72
250.191	3.8
250.567	3.69
250.943	3.65
251.318	3.89
251.694	3.98
252.069	3.99
252.445	3.85
252.82	3.83
253.196	3.48
253.571	3.55
253.947	3.61
254.322	3.75
254.697	3.32
255.073	3.03
255.448	3.03
255.823	3.17
256.198	3.29
256.573	3.43
256.948	3.56
257.323	3.45
257.698	3.59
258.073	3.55
258.448	3.67
258.823	3.75
259.198	3.71
259.573	3.49
259.948	3.4
260.322	3.32
260.697	3.22
261.072	3.28
261.446	3.18
261.821	3.16
262.195	3.34
262.57	3.34
262.944	3.32
263.319	3.31
263.693	3.3
264.067	3.37
264.442	3.24
264.816	3.07
265.19	3.05
265.564	2.91
265.938	2.76
266.313	2.64
266.687	2.66
267.061	2.68
267.435	2.89
267.809	2.88
268.183	3.06
268.556	2.99
268.93	3.02
269.304	3.04
269.678	2.91
270.051	2.6
270.425	2.69
270.799	2.87
271.172	3.02
271.546	2.94
271.919	2.83
272.293	2.99
272.666	2.91
273.04	2.99
273.413	3.01
273.787	3.1
274.16	3.19
274.533	3.06
274.906	2.96
275.279	3.12
275.653	3.03
276.026	2.81
276.399	2.97
276.772	3.02
277.145	2.87
277.518	3.12
277.891	3.23
278.263	3.27
278.636	3.27
279.009	3.1
279.382	3.39
279.755	3.36
280.127	3.25
280.5	3.43
280.872	3.51
281.245	3.39
281.617	3.47
281.99	3.57
282.362	3.62
282.735	3.61
283.107	3.46
283.479	3.81
283.852	3.92
284.224	3.87
284.596	3.78
284.968	3.92
285.34	3.96
285.713	4.03
286.085	4.15
286.457	4.19
286.829	4.24
287.201	4.08
287.572	4.1
287.944	4.06
288.316	4.07
288.688	4.03
289.06	4.12
289.431	4.19
289.803	4.09
290.175	4.25
290.546	4.41
290.918	4.56
291.289	4.55
291.661	4.72
292.032	4.79
292.403	4.91
292.775	4.84
293.146	4.65
293.517	4.55
293.889	4.49
294.26	4.49
294.631	4.51
295.002	4.44
295.373	4.62
295.744	4.69
296.115	4.59
296.486	4.46
296.857	4.46
297.228	4.43
297.599	4.35
297.97	4.32
298.34	4.25
298.711	4.28
299.082	4.23
299.452	4.18
299.823	4.31
300.194	4.28
300.564	4.29
300.935	4.43
301.305	4.44
301.676	4.45
302.046	4.41
302.416	4.66
302.787	4.72
303.157	4.63
303.527	4.52
303.897	4.62
304.267	4.77
304.637	4.83
305.008	4.98
305.378	5.17
305.748	5.21
306.117	5.24
306.487	5.33
306.857	5.32
307.227	5.26
307.597	5.19
307.967	5.23
308.336	5.33
308.706	5.33
309.076	5.38
309.445	5.5
309.815	5.52
310.184	5.37
310.554	5.43
310.923	5.44
311.293	5.57
311.662	5.64
312.031	5.67
312.401	5.7
312.77	5.7
313.139	5.8
313.508	5.91
313.877	5.98
314.246	5.88
314.616	5.88
314.985	5.96
315.353	6.03
315.722	6.23
316.091	6.32
316.46	6.25
316.829	6.42
317.198	6.37
317.567	6.4
317.935	6.41
318.304	6.5
318.672	6.64
319.041	6.77
319.41	6.72
319.778	6.79
320.147	6.88
320.515	6.82
320.883	6.68
321.252	6.75
321.62	6.79
321.988	6.88
322.357	6.91
322.725	7.04
323.093	7.16
323.461	7.13
323.829	7.13
324.197	7.31
324.565	7.4
324.933	7.29
325.301	7.28
325.669	7.31
326.037	7.19
326.405	7.1
326.772	7.2
327.14	7.36
327.508	7.45
327.875	7.5
328.243	7.64
328.61	7.74
328.978	7.67
329.346	7.72
329.713	7.71
330.08	7.86
330.448	7.73
330.815	7.67
331.182	7.7
331.55	7.71
331.917	7.74
332.284	7.73
332.651	7.92
333.018	8.02
333.385	8.04
333.752	8.3
334.119	8.44
334.486	8.49
334.853	8.55
335.22	8.42
335.587	8.5
335.954	8.43
336.32	8.39
336.687	8.46
337.054	8.48
337.42	8.46
337.787	8.5
338.153	8.53
338.52	8.58
338.886	8.43
339.253	8.49
339.619	8.5
339.986	8.4
340.352	8.43
340.718	8.45
341.084	8.48
341.451	8.45
341.817	8.45
342.183	8.37
342.549	8.26
342.915	8.36
343.281	8.3
343.647	8.31
344.013	8.48
344.379	8.36
344.745	8.5
345.11	8.52
345.476	8.55
345.842	8.6
346.208	8.67
346.573	8.88
346.939	8.92
347.304	8.97
347.67	9.02
348.035	9.09
348.401	9.03
348.766	8.95
349.132	8.93
349.497	8.93
349.862	8.97
350.228	9
350.593	8.92
350.958	8.99
351.323	9.03
351.688	8.97
352.053	9.09
352.418	8.94
352.783	8.97
353.148	8.93
353.513	9.01
353.878	8.94
354.243	8.88
354.608	8.93
354.972	8.86
355.337	8.86
355.702	8.78
356.066	8.82
356.431	8.86
356.795	8.94
357.16	8.87
357.524	8.77
357.889	8.73
358.253	8.86
358.618	8.79
358.982	8.75
359.346	8.65
359.71	8.56
360.075	8.52
360.439	8.53
360.803	8.47
361.167	8.36
361.531	8.33
361.895	8.28
362.259	8.21
362.623	8.25
362.987	8.2
363.351	8.19
363.714	8.17
364.078	8.15
364.442	8.07
364.806	8.05
365.169	8.09
365.533	8.08
365.896	8
366.26	7.94
366.623	7.86
366.987	7.9
367.35	7.94
367.714	7.96
368.077	7.87
368.44	7.86
368.803	7.79
369.167	7.74
369.53	7.7
369.893	7.68
370.256	7.61
370.619	7.61
370.982	7.52
371.345	7.45
371.708	7.43
372.071	7.33
372.434	7.24
372.797	7.12
373.159	7.1
373.522	7.05
373.885	7.03
374.247	7.03
374.61	6.97
374.973	6.84
375.335	6.76
375.698	6.73
376.06	6.64
376.423	6.66
376.785	6.66
377.147	6.64
377.51	6.54
377.872	6.5
378.234	6.48
378.596	6.43
378.958	6.35
379.321	6.3
379.683	6.31
380.045	6.3
380.407	6.26
380.769	6.2
381.13	6.1
381.492	6.04
381.854	6.01
382.216	5.94
382.578	5.91
382.939	5.85
383.301	5.77
383.663	5.78
384.024	5.7
384.386	5.65
384.747	5.62
385.109	5.66
385.47	5.57
385.832	5.52
386.193	5.52
386.554	5.49
386.916	5.45
387.277	5.4
387.638	5.4
387.999	5.33
388.36	5.32
388.721	5.33
389.082	5.35
389.443	5.28
389.804	5.25
390.165	5.24
390.526	5.23
390.887	5.25
391.248	5.23
391.609	5.21
391.969	5.21
392.33	5.16
392.691	5.09
393.051	5.06
393.412	5.03
393.772	5.03
394.133	5.03
394.493	4.99
394.854	4.94
395.214	4.91
395.574	4.94
395.935	4.9
396.295	4.87
396.655	4.78
397.015	4.79
397.376	4.78
397.736	4.74
398.096	4.71
398.456	4.68
398.816	4.65
399.176	4.61
399.535	4.55
399.895	4.51
400.255	4.51
400.615	4.52
400.975	4.47
401.334	4.41
401.694	4.39
402.054	4.36
402.413	4.38
402.773	4.34
403.132	4.32
403.492	4.3
403.851	4.29
404.211	4.3
404.57	4.28
404.929	4.25
405.288	4.27
405.648	4.23
406.007	4.21
406.366	4.16
406.725	4.16
407.084	4.16
407.443	4.15
407.802	4.12
408.161	4.11
408.52	4.09
408.879	4.06
409.238	4.02
409.596	4.02
409.955	4
410.314	3.99
410.673	4
411.031	3.97
411.39	3.94
411.748	3.92
412.107	3.91
412.465	3.91
412.824	3.87
413.182	3.88
413.54	3.89
413.899	3.92
414.257	3.92
414.615	3.88
414.974	3.89
415.332	3.85
415.69	3.83
416.048	3.84
416.406	3.86
416.764	3.86
417.122	3.84
417.48	3.81
417.838	3.82
418.195	3.8
418.553	3.8
418.911	3.78
419.269	3.78
419.626	3.77
419.984	3.75
420.342	3.76
420.699	3.74
421.057	3.71
421.414	3.69
421.772	3.68
422.129	3.69
422.486	3.68
422.844	3.7
423.201	3.69
423.558	3.67
423.915	3.66
424.273	3.66
424.63	3.66
424.987	3.67
425.344	3.65
425.701	3.63
426.058	3.63
426.415	3.62
426.772	3.61
427.128	3.6
427.485	3.61
427.842	3.58
428.199	3.59
428.555	3.6
428.912	3.61
429.269	3.61
429.625	3.59
429.982	3.58
430.338	3.57
430.695	3.57
431.051	3.57
431.407	3.57
431.764	3.55
432.12	3.54
432.476	3.53
432.832	3.52
433.189	3.52
433.545	3.53
433.901	3.55
434.257	3.55
434.613	3.54
434.969	3.56
435.325	3.56
435.681	3.55
436.036	3.56
436.392	3.54
436.748	3.54
437.104	3.53
437.459	3.54
437.815	3.53
438.171	3.54
438.526	3.52
438.882	3.52
439.237	3.53
439.593	3.54
439.948	3.53
440.304	3.54
440.659	3.54
441.014	3.53
441.369	3.51
441.725	3.51
442.08	3.49
442.435	3.49
442.79	3.49
443.145	3.48
443.5	3.48
443.855	3.47
444.21	3.46
444.565	3.46
444.92	3.46
445.275	3.45
445.629	3.44
445.984	3.44
446.339	3.44
446.693	3.42
447.048	3.42
447.403	3.4
447.757	3.41
448.112	3.4
448.466	3.39
448.82	3.39
449.175	3.39
449.529	3.4
449.883	3.38
450.238	3.33
450.592	3.34
450.946	3.32
451.3	3.32
451.654	3.31
452.008	3.32
452.362	3.29
452.716	3.3
453.07	3.29
453.424	3.3
453.778	3.28
454.132	3.28
454.486	3.29
454.839	3.29
455.193	3.26
455.547	3.27
455.9	3.28
456.254	3.28
456.607	3.31
456.961	3.31
457.314	3.32
457.668	3.36
458.021	3.34
458.375	3.35
458.728	3.35
459.081	3.37
459.434	3.37
459.787	3.37
460.141	3.37
460.494	3.37
460.847	3.37
461.2	3.38
461.553	3.4
461.906	3.4
462.259	3.41
462.611	3.44
462.964	3.45
463.317	3.45
463.67	3.46
464.022	3.44
464.375	3.45
464.728	3.45
465.08	3.46
465.433	3.49
465.785	3.51
466.138	3.52
466.49	3.53
466.843	3.54
467.195	3.55
467.547	3.58
467.899	3.6
468.252	3.59
468.604	3.62
468.956	3.61
469.308	3.63
469.66	3.62
470.012	3.63
470.364	3.63
470.716	3.62
471.068	3.65
471.42	3.65
471.772	3.69
472.123	3.71
472.475	3.72
472.827	3.73
473.178	3.74
473.53	3.74
473.882	3.73
474.233	3.76
474.585	3.74
474.936	3.71
475.288	3.72
475.639	3.71
475.99	3.7
476.342	3.71
476.693	3.7
477.044	3.74
477.395	3.73
477.746	3.73
478.097	3.73
478.448	3.7
478.8	3.69
479.15	3.65
479.501	3.64
479.852	3.62
480.203	3.62
480.554	3.62
480.905	3.62
481.255	3.61
481.606	3.59
481.957	3.58
482.307	3.58
482.658	3.58
483.009	3.59
483.359	3.57
483.709	3.57
484.06	3.55
484.41	3.55
484.761	3.54
485.111	3.54
485.461	3.54
485.811	3.54
486.162	3.54
486.512	3.55
486.862	3.55
487.212	3.54
487.562	3.54
487.912	3.53
488.262	3.52
488.612	3.52
488.961	3.53
489.311	3.54
489.661	3.55
490.011	3.55
490.36	3.55
490.71	3.55
491.06	3.55
491.409	3.57
491.759	3.57
492.108	3.58
492.458	3.58
492.807	3.59
493.157	3.61
493.506	3.63
493.855	3.62
494.204	3.62
494.554	3.63
494.903	3.64
495.252	3.67
495.601	3.68
495.95	3.7
496.299	3.7
496.648	3.71
496.997	3.74
497.346	3.76
497.695	3.79
498.043	3.85
498.392	3.88
498.741	3.89
499.09	3.92
499.438	3.94
499.787	3.98
500.135	4.01
500.484	4.04
500.832	4.07
501.181	4.11
501.529	4.16
501.878	4.21
502.226	4.25
502.574	4.29
502.923	4.36
503.271	4.41
503.619	4.48
503.967	4.54
504.315	4.58
504.663	4.63
505.011	4.7
505.359	4.74
505.707	4.83
506.055	4.92
506.403	5.01
506.751	5.09
507.098	5.16
507.446	5.22
507.794	5.28
508.141	5.37
508.489	5.44
508.837	5.52
509.184	5.6
509.531	5.7
509.879	5.79
510.226	5.89
510.574	5.99
510.921	6.08
511.268	6.17
511.616	6.25
511.963	6.35
512.31	6.45
512.657	6.56
513.004	6.65
513.351	6.77
513.698	6.89
514.045	6.99
514.392	7.11
514.739	7.23
515.086	7.37
515.432	7.47
515.779	7.59
516.126	7.72
516.473	7.82
516.819	7.94
517.166	8.02
517.512	8.11
517.859	8.22
518.205	8.32
518.552	8.43
518.898	8.53
519.245	8.6
519.591	8.7
519.937	8.77
520.283	8.87
520.629	8.98
520.976	9.09
521.322	9.21
521.668	9.33
522.014	9.48
522.36	9.59
522.706	9.75
523.052	9.9
523.398	10.06
523.743	10.24
524.089	10.39
524.435	10.58
524.781	10.74
525.126	10.89
525.472	11.01
525.817	11.14
526.163	11.27
526.509	11.39
526.854	11.5
527.199	11.63
527.545	11.74
527.89	11.85
528.235	11.97
528.581	12.08
528.926	12.19
529.271	12.3
529.616	12.42
529.961	12.52
530.306	12.64
530.651	12.78
530.996	12.92
531.341	13.06
531.686	13.21
532.031	13.36
532.376	13.53
532.721	13.73
533.065	13.9
533.41	14.07
533.755	14.27
534.099	14.47
534.444	14.66
534.788	14.85
535.133	15.05
535.477	15.23
535.822	15.47
536.166	15.7
536.51	15.97
536.855	16.27
537.199	16.6
537.543	16.92
537.887	17.25
538.231	17.54
538.576	17.88
538.92	18.18
539.264	18.45
539.608	18.73
539.951	18.99
540.295	19.26
540.639	19.54
540.983	19.78
541.327	20.04
541.671	20.27
542.014	20.52
542.358	20.76
542.701	21.03
543.045	21.28
543.389	21.55
543.732	21.8
544.075	22.07
544.419	22.32
544.762	22.61
545.105	22.85
545.449	23.17
545.792	23.46
546.135	23.81
546.478	24.2
546.821	24.55
547.165	24.88
547.508	25.24
547.851	25.62
548.194	25.99
548.536	26.4
548.879	26.83
549.222	27.25
549.565	27.62
549.908	28.01
550.25	28.38
550.593	28.77
550.936	29.15
551.278	29.57
551.621	29.98
551.963	30.36
552.306	30.79
552.648	31.17
552.991	31.53
553.333	31.93
553.675	32.29
554.017	32.62
554.36	33.01
554.702	33.35
555.044	33.67
555.386	34.04
555.728	34.35
556.07	34.74
556.412	35.12
556.754	35.48
557.096	35.83
557.438	36.2
557.78	36.6
558.121	36.97
558.463	37.27
558.805	37.54
559.147	37.86
559.488	38.17
559.83	38.45
560.171	38.7
560.513	38.98
560.854	39.31
561.196	39.59
561.537	39.86
561.878	40.18
562.22	40.46
562.561	40.7
562.902	40.92
563.243	41.15
563.584	41.34
563.925	41.65
564.266	41.83
564.607	42.06
564.948	42.21
565.289	42.45
565.63	42.67
565.971	42.93
566.312	43.2
566.653	43.42
566.993	43.7
567.334	44.01
567.675	44.2
568.015	44.37
568.356	44.62
568.696	44.92
569.037	45.17
569.377	45.38
569.718	45.63
570.058	45.9
570.398	46.1
570.739	46.33
571.079	46.53
571.419	46.76
571.759	46.91
572.099	47.14
572.439	47.36
572.779	47.57
573.119	47.81
573.459	47.97
573.799	48.13
574.139	48.33
574.479	48.48
574.819	48.68
575.158	48.83
575.498	49.01
575.838	49.09
576.177	49.25
576.517	49.42
576.856	49.54
577.196	49.65
577.535	49.89
577.875	50.06
578.214	50.22
578.553	50.38
578.893	50.57
579.232	50.69
579.571	50.79
579.91	50.92
580.25	51
580.589	51.15
580.928	51.34
581.267	51.39
581.606	51.45
581.945	51.53
582.283	51.67
582.622	51.75
582.961	51.94
583.3	52.03
583.639	52.19
583.977	52.28
584.316	52.49
584.654	52.56
584.993	52.66
585.332	52.77
585.67	52.93
586.008	53.07
586.347	53.17
586.685	53.27
587.024	53.4
587.362	53.53
587.7	53.59
588.038	53.7
588.376	53.79
588.715	53.97
589.053	54.02
589.391	54.16
589.729	54.27
590.067	54.32
590.404	54.41
590.742	54.49
591.08	54.6
591.418	54.65
591.756	54.69
592.093	54.79
592.431	54.88
592.769	54.99
593.106	55.08
593.444	55.26
593.781	55.34
594.119	55.4
594.456	55.51
594.793	55.6
595.131	55.59
595.468	55.63
595.805	55.65
596.143	55.78
596.48	55.78
596.817	55.83
597.154	55.94
597.491	56.05
597.828	56.09
598.165	56.22
598.502	56.26
598.839	56.39
599.176	56.45
599.512	56.52
599.849	56.57
600.186	56.65
600.523	56.68
600.859	56.74
601.196	56.71
601.532	56.74
601.869	56.8
602.205	56.91
602.542	56.95
602.878	56.98
603.215	57.1
603.551	57.17
603.887	57.28
604.223	57.29
604.56	57.33
604.896	57.38
605.232	57.36
605.568	57.44
605.904	57.46
606.24	57.52
606.576	57.6
606.912	57.59
607.248	57.56
607.583	57.62
607.919	57.67
608.255	57.75
608.591	57.8
608.926	57.88
609.262	57.92
609.597	58.03
609.933	58.13
610.268	58.12
610.604	58.21
610.939	58.28
611.275	58.27
611.61	58.29
611.945	58.36
612.281	58.39
612.616	58.45
612.951	58.47
613.286	58.51
613.621	58.52
613.956	58.67
614.291	58.72
614.626	58.76
614.961	58.82
615.296	58.92
615.631	59
615.966	58.99
616.3	59.01
616.635	59.07
616.97	59.09
617.304	59.1
617.639	59.16
617.973	59.19
618.308	59.31
618.642	59.36
618.977	59.46
619.311	59.51
619.646	59.56
619.98	59.49
620.314	59.48
620.648	59.49
620.983	59.56
621.317	59.71
621.651	59.79
621.985	59.86
622.319	59.93
622.653	59.94
622.987	59.98
623.321	60.04
623.655	60.06
623.988	60.2
624.322	60.19
624.656	60.23
624.99	60.11
625.323	60.06
625.657	60.01
625.99	60.08
626.324	60.07
626.657	60.01
626.991	60.18
627.324	60.17
627.658	60.19
627.991	60.17
628.324	60.13
628.657	60.19
628.991	60.16
629.324	60.18
629.657	60.23
629.99	60.22
630.323	60.18
630.656	60.17
630.989	60.17
631.322	60.24
631.655	60.15
631.987	60.25
632.32	60.33
632.653	60.41
632.986	60.37
633.318	60.42
633.651	60.49
633.984	60.48
634.316	60.58
634.649	60.63
634.981	60.61
635.313	60.72
635.646	60.7
635.978	60.68
636.31	60.65
636.643	60.64
636.975	60.75
637.307	60.83
637.639	60.92
637.971	60.9
638.303	60.95
638.635	60.99
638.967	61
639.299	61.06
639.631	61.09
639.963	61
640.295	61.12
640.626	61.14
640.958	61.16
641.29	61.19
641.621	61.19
641.953	61.18
642.285	61.16
642.616	61.16
642.948	61.33
643.279	61.39
643.61	61.38
643.942	61.4
644.273	61.39
644.604	61.33
644.936	61.26
645.267	61.25
645.598	61.27
645.929	61.25
646.26	61.34
646.591	61.37
646.922	61.39
647.253	61.33
647.584	61.37
647.915	61.26
648.245	61.31
648.576	61.43
648.907	61.51
649.238	61.44
649.568	61.45
649.899	61.39
650.229	61.37
650.56	61.39
650.89	61.32
651.221	61.43
651.551	61.36
651.882	61.41
652.212	61.37
652.542	61.35
652.872	61.5
653.203	61.36
653.533	61.37
653.863	61.43
654.193	61.5
654.523	61.56
654.853	61.7
655.183	61.71
655.513	61.59
655.843	61.67
656.172	61.72
656.502	61.72
656.832	61.74
657.162	61.81
657.491	61.88
657.821	61.96
658.15	61.92
658.48	62.05
658.809	62.08
659.139	62.24
659.468	62.34
659.798	62.27
660.127	62.3
660.456	62.28
660.785	62.18
661.115	62.1
661.444	62.08
661.773	62.13
662.102	62.19
662.431	62.2
662.76	62.21
663.089	62.24
663.418	62.29
663.747	62.3
664.076	62.23
664.404	62.25
664.733	62.29
665.062	62.28
665.39	62.19
665.719	62.2
666.048	62.19
666.376	62.15
666.705	62.23
667.033	62.25
667.362	62.35
667.69	62.54
