Data from BU26946_Reflection_00012.txt Node
Date: Tue Nov 19 10:52:13 EST 2019
User: vgr7
Spectrometer: USB2G7710
Scans to average: 3
Trigger mode: 4
Integration Time (sec): 2.000000E-2
Electric dark correction enabled: true
Boxcar width: 10
XAxis mode: Wavelengths
Number of Pixels in Spectrum: 2048
>>>>>Begin Spectral Data<<<<<
177.721	542.14
178.105	397.3
178.488	-64.09
178.871	-189.47
179.254	300
179.636	203.77
180.019	-481.4
180.402	100
180.785	-1176.92
181.168	-275.6
181.55	-258.38
181.933	-33.65
182.316	-101.13
182.698	-99.62
183.081	-292.07
183.463	1383.58
183.846	-490.06
184.228	-267.89
184.611	-585.31
184.993	-496.36
185.376	-3070.21
185.758	572.92
186.14	290.77
186.522	93.66
186.904	56.13
187.287	22
187.669	38.76
188.051	7.37
188.433	35.12
188.815	11.55
189.197	-5.22
189.579	6.27
189.961	13.04
190.342	7.72
190.724	1.48
191.106	1.08
191.488	14.61
191.869	27.72
192.251	17.32
192.633	12.19
193.014	11.04
193.396	16.7
193.777	20.27
194.159	33.8
194.54	31.29
194.922	41.33
195.303	58.94
195.684	73.18
196.065	66.3
196.447	65.32
196.828	64.1
197.209	66.22
197.59	56.13
197.971	73.03
198.352	89.54
198.733	94.02
199.114	73.98
199.495	65.74
199.876	56.73
200.257	63.97
200.638	59.93
201.018	83.86
201.399	101.38
201.78	112.43
202.16	108.83
202.541	125.02
202.922	133.58
203.302	124.72
203.683	112.86
204.063	96.51
204.444	100.97
204.824	101.01
205.204	96.72
205.585	95.65
205.965	95.41
206.345	96.9
206.725	78.69
207.106	90.38
207.486	91.15
207.866	68.8
208.246	66.22
208.626	69.44
209.006	54.88
209.386	47.48
209.766	26.89
210.145	35.87
210.525	26.96
210.905	27.81
211.285	32.11
211.664	32.16
212.044	21.47
212.424	20.46
212.803	25.07
213.183	15.62
213.562	17.88
213.942	16.31
214.321	11.33
214.701	14.57
215.08	8.68
215.459	7.55
215.838	13.57
216.218	13.57
216.597	28.2
216.976	28.93
217.355	25.82
217.734	33.48
218.113	34.54
218.492	30.17
218.871	27.97
219.25	19.71
219.629	-4.91
220.008	10.43
220.387	9.77
220.766	9.46
221.144	33.56
221.523	29.33
221.902	36.2
222.28	25.11
222.659	22.42
223.037	18.74
223.416	10.86
223.794	11.47
224.173	13.14
224.551	15.73
224.929	16.84
225.308	19.82
225.686	22.43
226.064	12.05
226.442	20.07
226.821	18.09
227.199	19.06
227.577	17.4
227.955	18.74
228.333	15.96
228.711	14.13
229.089	12.16
229.467	10.87
229.845	8.99
230.222	10.31
230.6	9.13
230.978	8.04
231.356	6.64
231.733	7.12
232.111	6.19
232.488	2.79
232.866	1.88
233.243	2.6
233.621	2.66
233.998	5.04
234.376	3.15
234.753	3.39
235.13	1.28
235.508	3.93
235.885	4.85
236.262	5.43
236.639	5.77
237.016	7.62
237.393	8.51
237.77	9.08
238.147	7.53
238.524	7.04
238.901	6.47
239.278	6.38
239.655	6.76
240.032	6.58
240.409	7.17
240.785	6.98
241.162	6.13
241.539	5.48
241.915	5.31
242.292	5.36
242.668	4.83
243.045	5.11
243.421	4.78
243.798	4.55
244.174	4.64
244.551	4.55
244.927	4.17
245.303	3.62
245.679	3.51
246.056	3.62
246.432	3.61
246.808	3.67
247.184	3.89
247.56	3.63
247.936	3.56
248.312	3.49
248.688	3.68
249.064	3.74
249.44	3.77
249.815	3.63
250.191	3.67
250.567	3.83
250.943	4.05
251.318	3.98
251.694	3.9
252.069	3.85
252.445	3.84
252.82	3.73
253.196	4.18
253.571	4.14
253.947	4.38
254.322	4.36
254.697	4.44
255.073	4.44
255.448	4.33
255.823	4.58
256.198	4.42
256.573	4.21
256.948	4.29
257.323	4.25
257.698	4.24
258.073	4.11
258.448	4.16
258.823	4
259.198	4.04
259.573	4.04
259.948	4.07
260.322	4.07
260.697	4.08
261.072	4.14
261.446	4.15
261.821	4.07
262.195	4.13
262.57	4.14
262.944	4.02
263.319	4.18
263.693	4.01
264.067	4.06
264.442	4.11
264.816	4.2
265.19	4.19
265.564	4.12
265.938	4.17
266.313	4.04
266.687	3.83
267.061	3.83
267.435	3.89
267.809	3.82
268.183	3.75
268.556	3.72
268.93	3.62
269.304	3.67
269.678	3.79
270.051	3.88
270.425	3.95
270.799	3.95
271.172	3.79
271.546	3.89
271.919	4.02
272.293	3.97
272.666	3.95
273.04	4.07
273.413	4.13
273.787	4.19
274.16	4.08
274.533	4.32
274.906	4.35
275.279	4.3
275.653	4.36
276.026	4.34
276.399	4.52
276.772	4.63
277.145	4.6
277.518	4.39
277.891	4.39
278.263	4.34
278.636	4.31
279.009	4.46
279.382	4.45
279.755	4.25
280.127	4.32
280.5	4.23
280.872	4.1
281.245	4.08
281.617	3.98
281.99	4.06
282.362	4.04
282.735	4
283.107	3.94
283.479	3.8
283.852	3.9
284.224	3.85
284.596	3.67
284.968	3.71
285.34	3.73
285.713	3.74
286.085	3.73
286.457	3.74
286.829	3.63
287.201	3.69
287.572	3.62
287.944	3.57
288.316	3.63
288.688	3.84
289.06	3.9
289.431	4.03
289.803	4.09
290.175	3.91
290.546	3.85
290.918	3.98
291.289	3.94
291.661	4.05
292.032	4.2
292.403	4.2
292.775	4.21
293.146	4.26
293.517	4.26
293.889	4.22
294.26	4.17
294.631	4.31
295.002	4.32
295.373	4.41
295.744	4.38
296.115	4.41
296.486	4.36
296.857	4.37
297.228	4.33
297.599	4.26
297.97	4.39
298.34	4.51
298.711	4.5
299.082	4.59
299.452	4.43
299.823	4.39
300.194	4.41
300.564	4.48
300.935	4.48
301.305	4.42
301.676	4.48
302.046	4.58
302.416	4.54
302.787	4.51
303.157	4.66
303.527	4.86
303.897	4.78
304.267	4.72
304.637	4.83
305.008	4.83
305.378	4.82
305.748	4.92
306.117	4.8
306.487	4.81
306.857	4.85
307.227	5.01
307.597	5.1
307.967	5.38
308.336	5.35
308.706	5.4
309.076	5.62
309.445	5.78
309.815	5.73
310.184	5.77
310.554	5.83
310.923	5.81
311.293	5.93
311.662	6.13
312.031	6.24
312.401	6.19
312.77	6.23
313.139	6.44
313.508	6.39
313.877	6.59
314.246	6.52
314.616	6.63
314.985	6.68
315.353	6.68
315.722	6.65
316.091	6.62
316.46	6.75
316.829	6.7
317.198	6.73
317.567	7.01
317.935	7.02
318.304	7.17
318.672	7.24
319.041	7.25
319.41	7.19
319.778	7.11
320.147	7.19
320.515	7.36
320.883	7.2
321.252	7.29
321.62	7.29
321.988	7.42
322.357	7.54
322.725	7.53
323.093	7.51
323.461	7.46
323.829	7.66
324.197	7.48
324.565	7.58
324.933	7.54
325.301	7.39
325.669	7.48
326.037	7.47
326.405	7.51
326.772	7.42
327.14	7.37
327.508	7.51
327.875	7.47
328.243	7.59
328.61	7.79
328.978	7.88
329.346	7.79
329.713	7.91
330.08	7.92
330.448	7.98
330.815	8.09
331.182	8.23
331.55	8.09
331.917	8.19
332.284	8.13
332.651	8.15
333.018	8.08
333.385	8.07
333.752	8.15
334.119	8.13
334.486	8.22
334.853	8.27
335.22	8.2
335.587	8.35
335.954	8.2
336.32	8.14
336.687	8.05
337.054	8.17
337.42	8.2
337.787	8.06
338.153	8.05
338.52	8.08
338.886	8.04
339.253	8.07
339.619	8.17
339.986	8.09
340.352	8.14
340.718	8.27
341.084	8.32
341.451	8.31
341.817	8.39
342.183	8.32
342.549	8.31
342.915	8.46
343.281	8.4
343.647	8.39
344.013	8.47
344.379	8.53
344.745	8.54
345.11	8.59
345.476	8.71
345.842	8.72
346.208	8.7
346.573	8.63
346.939	8.75
347.304	8.72
347.67	8.76
348.035	8.72
348.401	8.77
348.766	8.78
349.132	8.81
349.497	8.81
349.862	8.89
350.228	8.98
350.593	8.91
350.958	9.02
351.323	9.05
351.688	9.05
352.053	9.12
352.418	9.18
352.783	9.12
353.148	9.13
353.513	9.11
353.878	9.01
354.243	9.1
354.608	9.08
354.972	9.13
355.337	9.14
355.702	9.17
356.066	9.19
356.431	9.06
356.795	9.11
357.16	9.06
357.524	9.02
357.889	9.01
358.253	8.96
358.618	8.87
358.982	8.82
359.346	8.76
359.71	8.7
360.075	8.63
360.439	8.6
360.803	8.59
361.167	8.52
361.531	8.59
361.895	8.51
362.259	8.51
362.623	8.46
362.987	8.42
363.351	8.35
363.714	8.28
364.078	8.29
364.442	8.18
364.806	8.15
365.169	8.14
365.533	8.12
365.896	8.13
366.26	8.11
366.623	8.14
366.987	8.16
367.35	8.17
367.714	8.2
368.077	8.18
368.44	8.12
368.803	8.08
369.167	8
369.53	7.97
369.893	7.9
370.256	7.84
370.619	7.77
370.982	7.72
371.345	7.69
371.708	7.65
372.071	7.57
372.434	7.53
372.797	7.45
373.159	7.29
373.522	7.17
373.885	7.12
374.247	7.09
374.61	6.98
374.973	6.93
375.335	6.8
375.698	6.73
376.06	6.68
376.423	6.67
376.785	6.62
377.147	6.63
377.51	6.52
377.872	6.47
378.234	6.45
378.596	6.44
378.958	6.44
379.321	6.42
379.683	6.41
380.045	6.32
380.407	6.28
380.769	6.26
381.13	6.24
381.492	6.18
381.854	6.11
382.216	6.08
382.578	6.04
382.939	5.99
383.301	5.94
383.663	5.87
384.024	5.81
384.386	5.8
384.747	5.73
385.109	5.76
385.47	5.74
385.832	5.67
386.193	5.65
386.554	5.58
386.916	5.55
387.277	5.52
387.638	5.5
387.999	5.5
388.36	5.46
388.721	5.46
389.082	5.38
389.443	5.36
389.804	5.32
390.165	5.27
390.526	5.26
390.887	5.24
391.248	5.25
391.609	5.24
391.969	5.21
392.33	5.2
392.691	5.15
393.051	5.11
393.412	5.1
393.772	5.07
394.133	5.04
394.493	4.98
394.854	4.94
395.214	4.91
395.574	4.84
395.935	4.84
396.295	4.78
396.655	4.76
397.015	4.69
397.376	4.62
397.736	4.58
398.096	4.56
398.456	4.53
398.816	4.5
399.176	4.47
399.535	4.38
399.895	4.35
400.255	4.32
400.615	4.29
400.975	4.32
401.334	4.27
401.694	4.24
402.054	4.22
402.413	4.19
402.773	4.18
403.132	4.17
403.492	4.16
403.851	4.17
404.211	4.2
404.57	4.21
404.929	4.22
405.288	4.23
405.648	4.21
406.007	4.19
406.366	4.18
406.725	4.19
407.084	4.21
407.443	4.19
407.802	4.2
408.161	4.17
408.52	4.15
408.879	4.18
409.238	4.17
409.596	4.15
409.955	4.13
410.314	4.13
410.673	4.11
411.031	4.07
411.39	4.07
411.748	4.06
412.107	4.05
412.465	4.05
412.824	4.03
413.182	4.03
413.54	4.02
413.899	3.97
414.257	3.94
414.615	3.95
414.974	3.94
415.332	3.93
415.69	3.96
416.048	3.92
416.406	3.89
416.764	3.88
417.122	3.87
417.48	3.89
417.838	3.86
418.195	3.88
418.553	3.9
418.911	3.87
419.269	3.87
419.626	3.86
419.984	3.86
420.342	3.84
420.699	3.83
421.057	3.82
421.414	3.83
421.772	3.83
422.129	3.83
422.486	3.82
422.844	3.81
423.201	3.8
423.558	3.79
423.915	3.78
424.273	3.78
424.63	3.78
424.987	3.77
425.344	3.76
425.701	3.74
426.058	3.74
426.415	3.74
426.772	3.73
427.128	3.71
427.485	3.7
427.842	3.7
428.199	3.69
428.555	3.68
428.912	3.66
429.269	3.64
429.625	3.63
429.982	3.63
430.338	3.61
430.695	3.6
431.051	3.62
431.407	3.64
431.764	3.64
432.12	3.66
432.476	3.67
432.832	3.68
433.189	3.67
433.545	3.64
433.901	3.64
434.257	3.64
434.613	3.64
434.969	3.63
435.325	3.64
435.681	3.64
436.036	3.64
436.392	3.64
436.748	3.65
437.104	3.65
437.459	3.64
437.815	3.66
438.171	3.65
438.526	3.65
438.882	3.67
439.237	3.65
439.593	3.66
439.948	3.66
440.304	3.64
440.659	3.64
441.014	3.65
441.369	3.65
441.725	3.65
442.08	3.67
442.435	3.67
442.79	3.65
443.145	3.66
443.5	3.68
443.855	3.67
444.21	3.68
444.565	3.68
444.92	3.68
445.275	3.67
445.629	3.67
445.984	3.65
446.339	3.62
446.693	3.62
447.048	3.6
447.403	3.59
447.757	3.6
448.112	3.6
448.466	3.59
448.82	3.59
449.175	3.56
449.529	3.56
449.883	3.57
450.238	3.56
450.592	3.55
450.946	3.54
451.3	3.54
451.654	3.52
452.008	3.5
452.362	3.5
452.716	3.49
453.07	3.47
453.424	3.47
453.778	3.47
454.132	3.47
454.486	3.46
454.839	3.45
455.193	3.46
455.547	3.48
455.9	3.48
456.254	3.46
456.607	3.49
456.961	3.5
457.314	3.49
457.668	3.5
458.021	3.5
458.375	3.48
458.728	3.48
459.081	3.51
459.434	3.5
459.787	3.5
460.141	3.52
460.494	3.54
460.847	3.54
461.2	3.54
461.553	3.56
461.906	3.58
462.259	3.57
462.611	3.58
462.964	3.57
463.317	3.58
463.67	3.57
464.022	3.57
464.375	3.55
464.728	3.55
465.08	3.56
465.433	3.57
465.785	3.59
466.138	3.6
466.49	3.6
466.843	3.64
467.195	3.63
467.547	3.66
467.899	3.67
468.252	3.68
468.604	3.69
468.956	3.68
469.308	3.69
469.66	3.71
470.012	3.7
470.364	3.74
470.716	3.77
471.068	3.78
471.42	3.79
471.772	3.8
472.123	3.84
472.475	3.84
472.827	3.84
473.178	3.84
473.53	3.85
473.882	3.84
474.233	3.84
474.585	3.86
474.936	3.83
475.288	3.83
475.639	3.86
475.99	3.84
476.342	3.87
476.693	3.88
477.044	3.89
477.395	3.9
477.746	3.86
478.097	3.83
478.448	3.84
478.8	3.83
479.15	3.82
479.501	3.79
479.852	3.79
480.203	3.8
480.554	3.8
480.905	3.79
481.255	3.79
481.606	3.79
481.957	3.78
482.307	3.79
482.658	3.8
483.009	3.8
483.359	3.8
483.709	3.8
484.06	3.79
484.41	3.78
484.761	3.77
485.111	3.77
485.461	3.77
485.811	3.76
486.162	3.76
486.512	3.76
486.862	3.77
487.212	3.76
487.562	3.75
487.912	3.74
488.262	3.74
488.612	3.73
488.961	3.73
489.311	3.72
489.661	3.72
490.011	3.7
490.36	3.69
490.71	3.69
491.06	3.68
491.409	3.68
491.759	3.69
492.108	3.7
492.458	3.71
492.807	3.71
493.157	3.72
493.506	3.73
493.855	3.74
494.204	3.75
494.554	3.78
494.903	3.78
495.252	3.82
495.601	3.84
495.95	3.86
496.299	3.89
496.648	3.92
496.997	3.95
497.346	3.98
497.695	4.02
498.043	4.06
498.392	4.09
498.741	4.12
499.09	4.16
499.438	4.19
499.787	4.23
500.135	4.27
500.484	4.34
500.832	4.38
501.181	4.44
501.529	4.51
501.878	4.57
502.226	4.64
502.574	4.7
502.923	4.75
503.271	4.83
503.619	4.9
503.967	4.97
504.315	5.05
504.663	5.13
505.011	5.2
505.359	5.28
505.707	5.37
506.055	5.49
506.403	5.58
506.751	5.69
507.098	5.82
507.446	5.95
507.794	6.07
508.141	6.18
508.489	6.3
508.837	6.41
509.184	6.52
509.531	6.65
509.879	6.79
510.226	6.96
510.574	7.09
510.921	7.23
511.268	7.37
511.616	7.52
511.963	7.69
512.31	7.86
512.657	8.06
513.004	8.25
513.351	8.42
513.698	8.63
514.045	8.81
514.392	9.03
514.739	9.21
515.086	9.42
515.432	9.66
515.779	9.86
516.126	10.07
516.473	10.26
516.819	10.46
517.166	10.65
517.512	10.82
517.859	10.99
518.205	11.15
518.552	11.33
518.898	11.51
519.245	11.67
519.591	11.84
519.937	12.02
520.283	12.19
520.629	12.39
520.976	12.57
521.322	12.79
521.668	12.99
522.014	13.26
522.36	13.49
522.706	13.72
523.052	13.99
523.398	14.25
523.743	14.54
524.089	14.83
524.435	15.1
524.781	15.38
525.126	15.62
525.472	15.86
525.817	16.09
526.163	16.27
526.509	16.47
526.854	16.63
527.199	16.78
527.545	16.94
527.89	17.07
528.235	17.22
528.581	17.37
528.926	17.52
529.271	17.65
529.616	17.81
529.961	17.97
530.306	18.12
530.651	18.29
530.996	18.45
531.341	18.62
531.686	18.81
532.031	18.98
532.376	19.18
532.721	19.36
533.065	19.54
533.41	19.72
533.755	19.92
534.099	20.1
534.444	20.32
534.788	20.51
535.133	20.73
535.477	20.93
535.822	21.16
536.166	21.37
536.51	21.62
536.855	21.87
537.199	22.12
537.543	22.39
537.887	22.67
538.231	22.97
538.576	23.24
538.92	23.47
539.264	23.72
539.608	23.95
539.951	24.18
540.295	24.37
540.639	24.61
540.983	24.79
541.327	25
541.671	25.21
542.014	25.45
542.358	25.66
542.701	25.87
543.045	26.05
543.389	26.22
543.732	26.4
544.075	26.6
544.419	26.79
544.762	27.01
545.105	27.23
545.449	27.42
545.792	27.65
546.135	27.88
546.478	28.12
546.821	28.39
547.165	28.64
547.508	28.95
547.851	29.2
548.194	29.47
548.536	29.74
548.879	29.97
549.222	30.19
549.565	30.43
549.908	30.67
550.25	30.94
550.593	31.23
550.936	31.46
551.278	31.68
551.621	31.86
551.963	32.06
552.306	32.26
552.648	32.49
552.991	32.71
553.333	32.98
553.675	33.21
554.017	33.38
554.36	33.56
554.702	33.71
555.044	33.92
555.386	34.15
555.728	34.35
556.07	34.55
556.412	34.73
556.754	34.93
557.096	35.2
557.438	35.42
557.78	35.63
558.121	35.91
558.463	36.13
558.805	36.39
559.147	36.65
559.488	36.9
559.83	37.09
560.171	37.27
560.513	37.45
560.854	37.54
561.196	37.76
561.537	37.96
561.878	38.16
562.22	38.38
562.561	38.53
562.902	38.68
563.243	38.89
563.584	39.12
563.925	39.32
564.266	39.42
564.607	39.59
564.948	39.75
565.289	39.9
565.63	40.04
565.971	40.25
566.312	40.34
566.653	40.46
566.993	40.61
567.334	40.8
567.675	40.93
568.015	41.17
568.356	41.32
568.696	41.48
569.037	41.58
569.377	41.7
569.718	41.85
570.058	41.99
570.398	42.07
570.739	42.17
571.079	42.26
571.419	42.4
571.759	42.51
572.099	42.65
572.439	42.76
572.779	42.88
573.119	42.98
573.459	43.1
573.799	43.26
574.139	43.38
574.479	43.43
574.819	43.54
575.158	43.62
575.498	43.72
575.838	43.84
576.177	43.97
576.517	44.08
576.856	44.18
577.196	44.32
577.535	44.5
577.875	44.69
578.214	44.78
578.553	44.89
578.893	45
579.232	45.13
579.571	45.25
579.91	45.43
580.25	45.48
580.589	45.61
580.928	45.71
581.267	45.79
581.606	45.96
581.945	46.08
582.283	46.14
582.622	46.25
582.961	46.3
583.3	46.42
583.639	46.51
583.977	46.69
584.316	46.75
584.654	46.84
584.993	46.9
585.332	47.05
585.67	47.17
586.008	47.22
586.347	47.28
586.685	47.34
587.024	47.38
587.362	47.52
587.7	47.59
588.038	47.64
588.376	47.73
588.715	47.78
589.053	47.87
589.391	48.04
589.729	48.09
590.067	48.19
590.404	48.29
590.742	48.38
591.08	48.39
591.418	48.49
591.756	48.51
592.093	48.56
592.431	48.55
592.769	48.64
593.106	48.77
593.444	48.88
593.781	48.99
594.119	49.08
594.456	49.1
594.793	49.14
595.131	49.22
595.468	49.27
595.805	49.36
596.143	49.43
596.48	49.44
596.817	49.51
597.154	49.55
597.491	49.63
597.828	49.74
598.165	49.8
598.502	49.85
598.839	49.97
599.176	50.17
599.512	50.3
599.849	50.37
600.186	50.43
600.523	50.47
600.859	50.48
601.196	50.46
601.532	50.59
601.869	50.61
602.205	50.61
602.542	50.59
602.878	50.64
603.215	50.71
603.551	50.69
603.887	50.82
604.223	50.89
604.56	50.91
604.896	50.92
605.232	50.98
605.568	51.01
605.904	51.03
606.24	50.93
606.576	50.88
606.912	50.92
607.248	50.91
607.583	50.86
607.919	50.94
608.255	51.04
608.591	51.09
608.926	51.2
609.262	51.32
609.597	51.44
609.933	51.46
610.268	51.48
610.604	51.57
610.939	51.49
611.275	51.49
611.61	51.52
611.945	51.47
612.281	51.5
612.616	51.55
612.951	51.57
613.286	51.63
613.621	51.86
613.956	51.81
614.291	51.92
614.626	52.07
614.961	52.09
615.296	52.19
615.631	52.23
615.966	52.23
616.3	52.28
616.635	52.35
616.97	52.43
617.304	52.48
617.639	52.45
617.973	52.53
618.308	52.6
618.642	52.61
618.977	52.61
619.311	52.64
619.646	52.67
619.98	52.67
620.314	52.75
620.648	52.76
620.983	52.87
621.317	52.86
621.651	52.88
621.985	52.88
622.319	52.89
622.653	52.84
622.987	52.88
623.321	52.83
623.655	52.77
623.988	52.8
624.322	52.75
624.656	52.91
624.99	52.88
625.323	52.83
625.657	52.86
625.99	52.97
626.324	52.98
626.657	53.04
626.991	53.02
627.324	53.02
627.658	53
627.991	53.04
628.324	53.11
628.657	53.1
628.991	53.17
629.324	53.22
629.657	53.27
629.99	53.27
630.323	53.35
630.656	53.46
630.989	53.47
631.322	53.48
631.655	53.38
631.987	53.47
632.32	53.6
632.653	53.55
632.986	53.56
633.318	53.58
633.651	53.57
633.984	53.69
634.316	53.75
634.649	53.67
634.981	53.67
635.313	53.62
635.646	53.62
635.978	53.62
636.31	53.57
636.643	53.45
636.975	53.54
637.307	53.59
637.639	53.51
637.971	53.51
638.303	53.62
638.635	53.66
638.967	53.67
639.299	53.65
639.631	53.78
639.963	53.93
640.295	54.02
640.626	54.01
640.958	54.07
641.29	54
641.621	54.11
641.953	54.14
642.285	54.26
642.616	54.31
642.948	54.28
643.279	54.22
643.61	54.44
643.942	54.34
644.273	54.23
644.604	54.32
644.936	54.34
645.267	54.35
645.598	54.36
645.929	54.34
646.26	54.35
646.591	54.36
646.922	54.24
647.253	54.17
647.584	54.22
647.915	54.29
648.245	54.39
648.576	54.26
648.907	54.23
649.238	54.14
649.568	54.14
649.899	54.19
650.229	54.27
650.56	54.23
650.89	54.38
651.221	54.41
651.551	54.46
651.882	54.37
652.212	54.41
652.542	54.45
652.872	54.52
653.203	54.55
653.533	54.63
653.863	54.61
654.193	54.61
654.523	54.67
654.853	54.65
655.183	54.64
655.513	54.75
655.843	54.77
656.172	54.91
656.502	55
656.832	55.08
657.162	55.14
657.491	55.03
657.821	55.14
658.15	55.18
658.48	55.15
658.809	55.27
659.139	55.28
659.468	55.42
659.798	55.44
660.127	55.43
660.456	55.33
660.785	55.41
661.115	55.49
661.444	55.4
661.773	55.37
662.102	55.39
662.431	55.43
662.76	55.44
663.089	55.44
663.418	55.43
663.747	55.41
664.076	55.36
664.404	55.5
664.733	55.43
665.062	55.39
665.39	55.38
665.719	55.32
666.048	55.26
666.376	55.23
666.705	55.15
667.033	55.21
667.362	55.27
667.69	55.25
668.018	55.26
668.347	55.28
