Data from BU26846_Reflection_00009.txt Node
Date: Mon Nov 18 16:33:37 EST 2019
User: vgr7
Spectrometer: USB2G7710
Scans to average: 3
Trigger mode: 4
Integration Time (sec): 2.000000E-2
Electric dark correction enabled: true
Boxcar width: 10
XAxis mode: Wavelengths
Number of Pixels in Spectrum: 2048
>>>>>Begin Spectral Data<<<<<
177.721	32.46
178.105	288.68
178.488	-419.08
178.871	-97.45
179.254	12.3
179.636	-83.22
180.019	-11.18
180.402	27.27
180.785	49.02
181.168	117.67
181.55	-13.32
181.933	62
182.316	31.81
182.698	27.08
183.081	38.11
183.463	20.64
183.846	81.69
184.228	26.54
184.611	34.43
184.993	-866.29
185.376	244.33
185.758	325.35
186.14	112.36
186.522	75.64
186.904	-25.4
187.287	6.17
187.669	-2.05
188.051	19.42
188.433	17.88
188.815	27.58
189.197	-8.58
189.579	3.25
189.961	-57.17
190.342	60.34
190.724	79.96
191.106	-831.3
191.488	-180.64
191.869	-81.51
192.251	-103.92
192.633	-59.46
193.014	-17.65
193.396	-0.31
193.777	4.49
194.159	-13.46
194.54	-15.33
194.922	-1.26
195.303	22.29
195.684	-2.27
196.065	-51.21
196.447	-33.12
196.828	-59.76
197.209	-58.22
197.59	4.65
197.971	-10.19
198.352	-39.99
198.733	-13.88
199.114	39.89
199.495	89.65
199.876	-372.36
200.257	-151.78
200.638	-13.55
201.018	58.38
201.399	24.17
201.78	45.49
202.16	5.85
202.541	-6.11
202.922	-4.99
203.302	0.88
203.683	-6.22
204.063	-13.54
204.444	11.53
204.824	11.14
205.204	1.49
205.585	19.57
205.965	7.29
206.345	-6.61
206.725	-35.78
207.106	-44.13
207.486	-55.67
207.866	-32.29
208.246	-97.04
208.626	-107.59
209.006	-83.28
209.386	-57.2
209.766	-185.06
210.145	-128.05
210.525	-108.89
210.905	-55.92
211.285	-44.49
211.664	-22.66
212.044	-12.3
212.424	-25.1
212.803	-22.23
213.183	-63.18
213.562	0.23
213.942	79.67
214.321	90.7
214.701	146.86
215.08	330.66
215.459	395.13
215.838	187.74
216.218	178.46
216.597	350.3
216.976	269.6
217.355	174.42
217.734	176.98
218.113	200.98
218.492	353.68
218.871	8100
219.25	326.85
219.629	629.58
220.008	-1456.89
220.387	7289.19
220.766	385.71
221.144	4362.3
221.523	-955.9
221.902	-323.4
222.28	-543.36
222.659	121.98
223.037	14.14
223.416	-1.44
223.794	-25.91
224.173	2.08
224.551	-1.1
224.929	5.22
225.308	18.39
225.686	14.57
226.064	19.79
226.442	16.73
226.821	17.7
227.199	14.09
227.577	16
227.955	10.9
228.333	6.68
228.711	7.86
229.089	10.77
229.467	9.78
229.845	6.26
230.222	6.61
230.6	5.35
230.978	6.77
231.356	9.56
231.733	10.58
232.111	9.51
232.488	9.97
232.866	8.08
233.243	9.28
233.621	7.93
233.998	8.38
234.376	5.65
234.753	3.84
235.13	4.87
235.508	5.67
235.885	3.69
236.262	2.23
236.639	2.89
237.016	0.59
237.393	2.52
237.77	4.32
238.147	4.61
238.524	4.77
238.901	5.55
239.278	4.12
239.655	4.61
240.032	4.79
240.409	3.14
240.785	3.56
241.162	3.03
241.539	3.3
241.915	2.91
242.292	2.83
242.668	2.79
243.045	2.81
243.421	2.37
243.798	2.78
244.174	3.07
244.551	3.12
244.927	3.29
245.303	3.24
245.679	3.22
246.056	3.35
246.432	3.43
246.808	3.25
247.184	3.44
247.56	3.24
247.936	3.16
248.312	3.52
248.688	3.46
249.064	3.5
249.44	3.75
249.815	3.69
250.191	3.94
250.567	3.89
250.943	3.64
251.318	4.1
251.694	4.16
252.069	4.19
252.445	4.39
252.82	4.51
253.196	4.45
253.571	4.48
253.947	4.6
254.322	4.73
254.697	4.84
255.073	4.77
255.448	4.7
255.823	4.63
256.198	4.69
256.573	4.63
256.948	4.5
257.323	4.39
257.698	4.55
258.073	4.41
258.448	4.59
258.823	4.86
259.198	4.71
259.573	4.68
259.948	4.69
260.322	4.7
260.697	4.67
261.072	4.56
261.446	4.69
261.821	4.45
262.195	4.37
262.57	4.3
262.944	4.29
263.319	4.31
263.693	4.25
264.067	4.27
264.442	4.41
264.816	4.48
265.19	4.43
265.564	4.24
265.938	4.2
266.313	3.94
266.687	3.74
267.061	3.61
267.435	3.59
267.809	3.6
268.183	3.25
268.556	3.28
268.93	3.49
269.304	3.27
269.678	3.4
270.051	3.31
270.425	3.3
270.799	3.24
271.172	3.18
271.546	3.22
271.919	3.18
272.293	3.23
272.666	3.22
273.04	3.26
273.413	3.46
273.787	3.46
274.16	3.55
274.533	3.6
274.906	3.46
275.279	3.49
275.653	3.51
276.026	3.72
276.399	3.59
276.772	3.64
277.145	3.7
277.518	3.65
277.891	3.71
278.263	3.65
278.636	3.67
279.009	3.67
279.382	3.76
279.755	3.55
280.127	3.53
280.5	3.6
280.872	3.59
281.245	3.39
281.617	3.52
281.99	3.65
282.362	3.71
282.735	3.89
283.107	3.8
283.479	3.82
283.852	3.77
284.224	3.8
284.596	3.72
284.968	3.67
285.34	3.69
285.713	3.67
286.085	3.77
286.457	3.81
286.829	3.82
287.201	3.82
287.572	3.89
287.944	3.82
288.316	3.83
288.688	3.92
289.06	3.87
289.431	3.8
289.803	3.73
290.175	3.65
290.546	3.82
290.918	3.92
291.289	3.93
291.661	4.01
292.032	4.15
292.403	4.22
292.775	4.41
293.146	4.42
293.517	4.54
293.889	4.55
294.26	4.63
294.631	4.68
295.002	4.73
295.373	4.83
295.744	4.93
296.115	4.97
296.486	4.87
296.857	5.07
297.228	5.07
297.599	5.1
297.97	5.18
298.34	5.08
298.711	5.18
299.082	5.1
299.452	5.15
299.823	5.19
300.194	5.26
300.564	5.11
300.935	5.19
301.305	5.29
301.676	5.3
302.046	5.37
302.416	5.51
302.787	5.45
303.157	5.42
303.527	5.33
303.897	5.43
304.267	5.55
304.637	5.7
305.008	5.85
305.378	5.96
305.748	6.18
306.117	6.18
306.487	6.17
306.857	6.38
307.227	6.41
307.597	6.39
307.967	6.35
308.336	6.58
308.706	6.74
309.076	6.67
309.445	6.73
309.815	6.72
310.184	6.75
310.554	6.98
310.923	7.2
311.293	7.44
311.662	7.44
312.031	7.52
312.401	7.42
312.77	7.64
313.139	7.63
313.508	7.69
313.877	7.86
314.246	7.98
314.616	8.05
314.985	8.11
315.353	8.22
315.722	8.46
316.091	8.47
316.46	8.4
316.829	8.63
317.198	8.78
317.567	8.76
317.935	8.87
318.304	8.86
318.672	8.77
319.041	8.82
319.41	8.92
319.778	9.01
320.147	9.34
320.515	9.15
320.883	9.38
321.252	9.49
321.62	9.64
321.988	9.76
322.357	9.75
322.725	9.8
323.093	9.95
323.461	9.95
323.829	10.02
324.197	10.18
324.565	10.22
324.933	10.31
325.301	10.45
325.669	10.55
326.037	10.63
326.405	10.7
326.772	10.79
327.14	10.94
327.508	11.03
327.875	10.9
328.243	11.15
328.61	11.15
328.978	11.2
329.346	11.2
329.713	11.07
330.08	11.16
330.448	11.2
330.815	11.06
331.182	11.2
331.55	11.31
331.917	11.47
332.284	11.55
332.651	11.61
333.018	11.76
333.385	11.63
333.752	11.64
334.119	11.74
334.486	11.67
334.853	11.57
335.22	11.49
335.587	11.6
335.954	11.53
336.32	11.59
336.687	11.5
337.054	11.54
337.42	11.73
337.787	11.8
338.153	11.92
338.52	12.09
338.886	12.03
339.253	11.95
339.619	11.9
339.986	11.96
340.352	11.9
340.718	11.86
341.084	11.99
341.451	12.04
341.817	11.97
342.183	12.05
342.549	12.17
342.915	12.27
343.281	12.39
343.647	12.57
344.013	12.56
344.379	12.63
344.745	12.67
345.11	12.54
345.476	12.57
345.842	12.51
346.208	12.52
346.573	12.64
346.939	12.81
347.304	12.79
347.67	12.65
348.035	12.7
348.401	12.75
348.766	12.78
349.132	12.75
349.497	12.81
349.862	12.84
350.228	12.85
350.593	12.87
350.958	12.76
351.323	12.67
351.688	12.73
352.053	12.78
352.418	12.76
352.783	12.93
353.148	12.89
353.513	12.94
353.878	12.89
354.243	12.91
354.608	12.81
354.972	12.83
355.337	12.91
355.702	12.96
356.066	13.04
356.431	13.01
356.795	13.09
357.16	13.1
357.524	13.08
357.889	13.03
358.253	12.94
358.618	12.96
358.982	12.89
359.346	12.84
359.71	12.86
360.075	12.86
360.439	12.8
360.803	12.81
361.167	12.8
361.531	12.8
361.895	12.68
362.259	12.68
362.623	12.63
362.987	12.59
363.351	12.55
363.714	12.52
364.078	12.47
364.442	12.36
364.806	12.31
365.169	12.29
365.533	12.23
365.896	12.24
366.26	12.12
366.623	12.1
366.987	12.06
367.35	11.93
367.714	11.83
368.077	11.74
368.44	11.61
368.803	11.54
369.167	11.43
369.53	11.33
369.893	11.24
370.256	11.23
370.619	11.18
370.982	11.12
371.345	10.97
371.708	10.88
372.071	10.81
372.434	10.69
372.797	10.58
373.159	10.51
373.522	10.4
373.885	10.42
374.247	10.36
374.61	10.3
374.973	10.24
375.335	10.15
375.698	10.05
376.06	9.95
376.423	9.84
376.785	9.85
377.147	9.79
377.51	9.73
377.872	9.64
378.234	9.51
378.596	9.41
378.958	9.31
379.321	9.3
379.683	9.29
380.045	9.25
380.407	9.15
380.769	9.06
381.13	8.99
381.492	8.85
381.854	8.8
382.216	8.69
382.578	8.59
382.939	8.51
383.301	8.43
383.663	8.39
384.024	8.3
384.386	8.27
384.747	8.26
385.109	8.23
385.47	8.12
385.832	8.05
386.193	8
386.554	7.94
386.916	7.83
387.277	7.73
387.638	7.65
387.999	7.59
388.36	7.58
388.721	7.55
389.082	7.5
389.443	7.41
389.804	7.34
390.165	7.29
390.526	7.25
390.887	7.22
391.248	7.2
391.609	7.12
391.969	6.99
392.33	6.92
392.691	6.86
393.051	6.87
393.412	6.85
393.772	6.77
394.133	6.73
394.493	6.71
394.854	6.66
395.214	6.6
395.574	6.56
395.935	6.48
396.295	6.42
396.655	6.37
397.015	6.3
397.376	6.26
397.736	6.18
398.096	6.11
398.456	6.06
398.816	6
399.176	5.97
399.535	5.92
399.895	5.83
400.255	5.77
400.615	5.68
400.975	5.61
401.334	5.56
401.694	5.51
402.054	5.42
402.413	5.34
402.773	5.31
403.132	5.26
403.492	5.2
403.851	5.17
404.211	5.12
404.57	5.07
404.929	5.03
405.288	5.03
405.648	4.99
406.007	4.95
406.366	4.9
406.725	4.89
407.084	4.88
407.443	4.88
407.802	4.88
408.161	4.84
408.52	4.79
408.879	4.78
409.238	4.77
409.596	4.75
409.955	4.74
410.314	4.76
410.673	4.73
411.031	4.76
411.39	4.73
411.748	4.72
412.107	4.75
412.465	4.74
412.824	4.72
413.182	4.69
413.54	4.68
413.899	4.68
414.257	4.67
414.615	4.63
414.974	4.61
415.332	4.56
415.69	4.53
416.048	4.53
416.406	4.51
416.764	4.46
417.122	4.45
417.48	4.43
417.838	4.38
418.195	4.34
418.553	4.32
418.911	4.28
419.269	4.26
419.626	4.23
419.984	4.2
420.342	4.17
420.699	4.16
421.057	4.14
421.414	4.11
421.772	4.07
422.129	4.06
422.486	4.04
422.844	4.02
423.201	4
423.558	3.97
423.915	3.96
424.273	3.95
424.63	3.92
424.987	3.9
425.344	3.88
425.701	3.87
426.058	3.86
426.415	3.83
426.772	3.8
427.128	3.77
427.485	3.75
427.842	3.74
428.199	3.72
428.555	3.69
428.912	3.69
429.269	3.7
429.625	3.69
429.982	3.67
430.338	3.65
430.695	3.66
431.051	3.65
431.407	3.64
431.764	3.64
432.12	3.63
432.476	3.62
432.832	3.61
433.189	3.64
433.545	3.62
433.901	3.64
434.257	3.64
434.613	3.64
434.969	3.65
435.325	3.65
435.681	3.67
436.036	3.67
436.392	3.67
436.748	3.65
437.104	3.64
437.459	3.65
437.815	3.67
438.171	3.67
438.526	3.67
438.882	3.67
439.237	3.67
439.593	3.69
439.948	3.69
440.304	3.7
440.659	3.69
441.014	3.7
441.369	3.7
441.725	3.7
442.08	3.7
442.435	3.68
442.79	3.66
443.145	3.65
443.5	3.64
443.855	3.61
444.21	3.61
444.565	3.61
444.92	3.6
445.275	3.58
445.629	3.57
445.984	3.54
446.339	3.53
446.693	3.51
447.048	3.48
447.403	3.47
447.757	3.46
448.112	3.44
448.466	3.42
448.82	3.41
449.175	3.41
449.529	3.39
449.883	3.37
450.238	3.37
450.592	3.35
450.946	3.33
451.3	3.34
451.654	3.31
452.008	3.31
452.362	3.29
452.716	3.29
453.07	3.3
453.424	3.31
453.778	3.31
454.132	3.3
454.486	3.31
454.839	3.28
455.193	3.26
455.547	3.26
455.9	3.27
456.254	3.27
456.607	3.26
456.961	3.27
457.314	3.29
457.668	3.29
458.021	3.29
458.375	3.29
458.728	3.3
459.081	3.31
459.434	3.3
459.787	3.32
460.141	3.3
460.494	3.3
460.847	3.31
461.2	3.3
461.553	3.32
461.906	3.34
462.259	3.36
462.611	3.39
462.964	3.39
463.317	3.4
463.67	3.41
464.022	3.44
464.375	3.45
464.728	3.47
465.08	3.51
465.433	3.55
465.785	3.56
466.138	3.59
466.49	3.63
466.843	3.66
467.195	3.68
467.547	3.73
467.899	3.76
468.252	3.79
468.604	3.85
468.956	3.85
469.308	3.88
469.66	3.9
470.012	3.92
470.364	3.95
470.716	3.96
471.068	3.99
471.42	4.01
471.772	4.06
472.123	4.08
472.475	4.09
472.827	4.12
473.178	4.15
473.53	4.16
473.882	4.16
474.233	4.16
474.585	4.15
474.936	4.15
475.288	4.15
475.639	4.16
475.99	4.14
476.342	4.15
476.693	4.13
477.044	4.13
477.395	4.13
477.746	4.12
478.097	4.11
478.448	4.08
478.8	4.05
479.15	4.01
479.501	3.98
479.852	3.94
480.203	3.91
480.554	3.91
480.905	3.9
481.255	3.88
481.606	3.87
481.957	3.86
482.307	3.84
482.658	3.83
483.009	3.8
483.359	3.8
483.709	3.78
484.06	3.77
484.41	3.77
484.761	3.76
485.111	3.75
485.461	3.74
485.811	3.74
486.162	3.74
486.512	3.74
486.862	3.74
487.212	3.73
487.562	3.72
487.912	3.72
488.262	3.71
488.612	3.7
488.961	3.7
489.311	3.7
489.661	3.71
490.011	3.72
490.36	3.72
490.71	3.73
491.06	3.74
491.409	3.75
491.759	3.76
492.108	3.77
492.458	3.78
492.807	3.81
493.157	3.84
493.506	3.86
493.855	3.88
494.204	3.91
494.554	3.95
494.903	3.97
495.252	3.99
495.601	4.05
495.95	4.11
496.299	4.18
496.648	4.22
496.997	4.3
497.346	4.37
497.695	4.45
498.043	4.52
498.392	4.59
498.741	4.66
499.09	4.73
499.438	4.82
499.787	4.91
500.135	5.02
500.484	5.11
500.832	5.24
501.181	5.36
501.529	5.5
501.878	5.65
502.226	5.83
502.574	5.98
502.923	6.12
503.271	6.28
503.619	6.45
503.967	6.63
504.315	6.79
504.663	6.98
505.011	7.16
505.359	7.35
505.707	7.57
506.055	7.81
506.403	8.05
506.751	8.3
507.098	8.54
507.446	8.81
507.794	9.07
508.141	9.32
508.489	9.58
508.837	9.86
509.184	10.15
509.531	10.44
509.879	10.76
510.226	11.08
510.574	11.39
510.921	11.71
511.268	12.02
511.616	12.35
511.963	12.71
512.31	13.08
512.657	13.47
513.004	13.85
513.351	14.3
513.698	14.73
514.045	15.15
514.392	15.59
514.739	16.01
515.086	16.45
515.432	16.89
515.779	17.31
516.126	17.74
516.473	18.14
516.819	18.52
517.166	18.88
517.512	19.25
517.859	19.61
518.205	19.94
518.552	20.31
518.898	20.65
519.245	20.95
519.591	21.27
519.937	21.59
520.283	21.94
520.629	22.28
520.976	22.62
521.322	23.02
521.668	23.42
522.014	23.84
522.36	24.26
522.706	24.66
523.052	25.08
523.398	25.53
523.743	25.99
524.089	26.46
524.435	26.88
524.781	27.28
525.126	27.65
525.472	28
525.817	28.31
526.163	28.6
526.509	28.88
526.854	29.16
527.199	29.43
527.545	29.65
527.89	29.86
528.235	30.08
528.581	30.29
528.926	30.5
529.271	30.71
529.616	30.92
529.961	31.13
530.306	31.37
530.651	31.6
530.996	31.85
531.341	32.06
531.686	32.32
532.031	32.57
532.376	32.83
532.721	33.09
533.065	33.36
533.41	33.62
533.755	33.91
534.099	34.15
534.444	34.41
534.788	34.71
535.133	34.95
535.477	35.22
535.822	35.53
536.166	35.81
536.51	36.09
536.855	36.4
537.199	36.72
537.543	37.02
537.887	37.36
538.231	37.7
538.576	38.03
538.92	38.37
539.264	38.62
539.608	38.91
539.951	39.18
540.295	39.4
540.639	39.64
540.983	39.86
541.327	40.09
541.671	40.27
542.014	40.47
542.358	40.69
542.701	40.85
543.045	40.98
543.389	41.19
543.732	41.38
544.075	41.58
544.419	41.79
544.762	42.01
545.105	42.19
545.449	42.38
545.792	42.61
546.135	42.8
546.478	43.05
546.821	43.25
547.165	43.47
547.508	43.73
547.851	43.96
548.194	44.16
548.536	44.39
548.879	44.59
549.222	44.8
549.565	44.99
549.908	45.27
550.25	45.51
550.593	45.71
550.936	45.92
551.278	46.12
551.621	46.3
551.963	46.49
552.306	46.67
552.648	46.82
552.991	47
553.333	47.15
553.675	47.34
554.017	47.5
554.36	47.64
554.702	47.78
555.044	47.9
555.386	48.04
555.728	48.23
556.07	48.39
556.412	48.52
556.754	48.74
557.096	48.84
557.438	49.04
557.78	49.22
558.121	49.35
558.463	49.49
558.805	49.62
559.147	49.76
559.488	49.91
559.83	50.03
560.171	50.11
560.513	50.21
560.854	50.31
561.196	50.45
561.537	50.59
561.878	50.67
562.22	50.86
562.561	51.02
562.902	51.15
563.243	51.28
563.584	51.39
563.925	51.44
564.266	51.53
564.607	51.62
564.948	51.7
565.289	51.82
565.63	51.92
565.971	52.04
566.312	52.16
566.653	52.21
566.993	52.32
567.334	52.33
567.675	52.42
568.015	52.55
568.356	52.54
568.696	52.61
569.037	52.75
569.377	52.79
569.718	52.84
570.058	52.87
570.398	52.93
570.739	53.05
571.079	53.11
571.419	53.22
571.759	53.26
572.099	53.29
572.439	53.35
572.779	53.41
573.119	53.46
573.459	53.55
573.799	53.64
574.139	53.67
574.479	53.78
574.819	53.84
575.158	53.84
575.498	53.96
575.838	54.06
576.177	54.14
576.517	54.18
576.856	54.23
577.196	54.33
577.535	54.39
577.875	54.42
578.214	54.52
578.553	54.62
578.893	54.71
579.232	54.78
579.571	54.87
579.91	54.97
580.25	55.05
580.589	55.05
580.928	55.09
581.267	55.21
581.606	55.29
581.945	55.37
582.283	55.5
582.622	55.6
582.961	55.62
583.3	55.62
583.639	55.69
583.977	55.84
584.316	55.92
584.654	56.01
584.993	56.01
585.332	56.11
585.67	56.15
586.008	56.19
586.347	56.24
586.685	56.3
587.024	56.36
587.362	56.43
587.7	56.48
588.038	56.52
588.376	56.57
588.715	56.62
589.053	56.67
589.391	56.68
589.729	56.68
590.067	56.66
590.404	56.82
590.742	56.94
591.08	56.9
591.418	56.93
591.756	56.99
592.093	57.07
592.431	57.12
592.769	57.14
593.106	57.23
593.444	57.27
593.781	57.27
594.119	57.31
594.456	57.28
594.793	57.3
595.131	57.33
595.468	57.37
595.805	57.42
596.143	57.45
596.48	57.53
596.817	57.62
597.154	57.71
597.491	57.66
597.828	57.57
598.165	57.56
598.502	57.6
598.839	57.55
599.176	57.56
599.512	57.61
599.849	57.68
600.186	57.69
600.523	57.74
600.859	57.8
601.196	57.77
601.532	57.76
601.869	57.84
602.205	57.88
602.542	57.95
602.878	58
603.215	58.04
603.551	58.05
603.887	57.98
604.223	57.96
604.56	57.98
604.896	58.01
605.232	58.08
605.568	58.06
605.904	58.11
606.24	58.16
606.576	58.19
606.912	58.22
607.248	58.21
607.583	58.23
607.919	58.25
608.255	58.27
608.591	58.41
608.926	58.32
609.262	58.34
609.597	58.34
609.933	58.4
610.268	58.38
610.604	58.34
610.939	58.47
611.275	58.54
611.61	58.59
611.945	58.7
612.281	58.79
612.616	58.84
612.951	58.91
613.286	58.93
613.621	58.96
613.956	58.95
614.291	58.97
614.626	59.08
614.961	59.11
615.296	59.15
615.631	59.15
615.966	59.33
616.3	59.37
616.635	59.39
616.97	59.31
617.304	59.31
617.639	59.38
617.973	59.32
618.308	59.31
618.642	59.34
618.977	59.32
619.311	59.24
619.646	59.28
619.98	59.22
620.314	59.35
620.648	59.28
620.983	59.31
621.317	59.35
621.651	59.31
621.985	59.33
622.319	59.35
622.653	59.39
622.987	59.33
623.321	59.37
623.655	59.43
623.988	59.54
624.322	59.65
624.656	59.72
624.99	59.86
625.323	59.82
625.657	59.85
625.99	59.9
626.324	59.89
626.657	59.95
626.991	60
627.324	59.88
627.658	59.98
627.991	60.04
628.324	60.1
628.657	60.09
628.991	60.11
629.324	60.17
629.657	60.13
629.99	60.15
630.323	60.14
630.656	60.08
630.989	59.98
631.322	59.99
631.655	59.91
631.987	59.8
632.32	59.88
632.653	59.86
632.986	59.85
633.318	59.94
633.651	59.87
633.984	59.8
634.316	59.82
634.649	59.75
634.981	59.7
635.313	59.67
635.646	59.7
635.978	59.75
636.31	59.76
636.643	59.73
636.975	59.78
637.307	59.79
637.639	59.81
637.971	59.89
638.303	59.92
638.635	59.88
638.967	59.9
639.299	59.93
639.631	59.89
639.963	59.86
640.295	59.79
640.626	59.76
640.958	59.95
641.29	59.94
641.621	59.94
641.953	59.94
642.285	60.05
642.616	60.1
642.948	60.04
643.279	60
643.61	60.1
643.942	60.14
644.273	60.08
644.604	60.13
644.936	60.15
645.267	60.04
645.598	60.14
645.929	60.25
646.26	60.21
646.591	60.36
646.922	60.37
647.253	60.48
647.584	60.54
647.915	60.6
648.245	60.7
648.576	60.81
648.907	60.79
649.238	60.79
649.568	60.76
649.899	60.82
650.229	60.82
650.56	60.81
650.89	60.81
651.221	60.92
651.551	60.86
651.882	60.78
652.212	60.96
652.542	61.03
652.872	60.92
653.203	60.89
653.533	60.9
653.863	60.93
654.193	60.85
654.523	60.94
654.853	60.84
655.183	60.89
655.513	60.88
655.843	60.9
656.172	61.01
656.502	61.12
656.832	61.08
657.162	61.1
657.491	61.16
657.821	61.16
658.15	61.16
658.48	61.19
658.809	61.26
659.139	61.15
659.468	61.08
659.798	61.09
660.127	61.22
660.456	61.14
660.785	61.29
661.115	61.26
661.444	61.19
661.773	61.3
662.102	61.29
662.431	61.35
662.76	61.22
663.089	61.11
663.418	61.04
663.747	61.2
664.076	61.27
664.404	61.28
664.733	61.32
