Data from BU26944_Reflection_00009.txt Node
Date: Tue Nov 19 10:54:45 EST 2019
User: vgr7
Spectrometer: USB2G7710
Scans to average: 3
Trigger mode: 4
Integration Time (sec): 2.000000E-2
Electric dark correction enabled: true
Boxcar width: 10
XAxis mode: Wavelengths
Number of Pixels in Spectrum: 2048
>>>>>Begin Spectral Data<<<<<
177.721	126.03
178.105	170.8
178.488	65.76
178.871	131.43
179.254	-1060
179.636	-126.14
180.019	-147.46
180.402	-1025
180.785	-36.47
181.168	-36.45
181.55	-110.3
181.933	-41.39
182.316	-20.8
182.698	-39.49
183.081	-37.28
183.463	-53.46
183.846	-105.79
184.228	-49.1
184.611	451.35
184.993	37.14
185.376	84.96
185.758	-381.93
186.14	-36.84
186.522	133.18
186.904	131.33
187.287	138.08
187.669	101.6
188.051	77
188.433	133.9
188.815	72.41
189.197	48
189.579	25.9
189.961	15.1
190.342	5.15
190.724	2.97
191.106	9.75
191.488	11.12
191.869	17.29
192.251	35.05
192.633	56.87
193.014	59.82
193.396	85
193.777	59.5
194.159	57.03
194.54	74.42
194.922	48.57
195.303	33.15
195.684	45.04
196.065	53.94
196.447	52.72
196.828	69.66
197.209	64.83
197.59	79.34
197.971	103
198.352	106.36
198.733	96.86
199.114	82.81
199.495	73.3
199.876	71.64
200.257	76.2
200.638	55.55
201.018	64.27
201.399	41.18
201.78	40.75
202.16	40.39
202.541	42.61
202.922	52.72
203.302	61.35
203.683	55.02
204.063	74.13
204.444	76.04
204.824	75.07
205.204	83.95
205.585	78.18
205.965	81.37
206.345	89.55
206.725	96.8
207.106	123.79
207.486	133.47
207.866	180.07
208.246	119.59
208.626	137.92
209.006	113.47
209.386	107.75
209.766	91.63
210.145	117.28
210.525	100.88
210.905	77.45
211.285	47.91
211.664	64.27
212.044	32.78
212.424	15.83
212.803	5.32
213.183	14.68
213.562	16.07
213.942	8.91
214.321	12.66
214.701	17.76
215.08	12.52
215.459	56.7
215.838	44.72
216.218	51.93
216.597	55.39
216.976	1.76
217.355	47.86
217.734	115.13
218.113	61.44
218.492	71.57
218.871	78.91
219.25	74.13
219.629	56.2
220.008	118.34
220.387	182.35
220.766	122.43
221.144	116.27
221.523	138.2
221.902	80.41
222.28	68.82
222.659	58.22
223.037	49.34
223.416	17.83
223.794	14.34
224.173	22.37
224.551	16.37
224.929	24.3
225.308	20.41
225.686	7.25
226.064	13.89
226.442	18.3
226.821	20.34
227.199	22.46
227.577	25.11
227.955	19.28
228.333	15.74
228.711	16.62
229.089	14.03
229.467	13.93
229.845	14.61
230.222	12.17
230.6	8.46
230.978	12
231.356	13.61
231.733	13.76
232.111	11.43
232.488	13.53
232.866	14.05
233.243	10.61
233.621	11.84
233.998	10
234.376	7.95
234.753	8.03
235.13	4.83
235.508	4.48
235.885	5.29
236.262	4.78
236.639	5.51
237.016	6.08
237.393	6.69
237.77	6.66
238.147	6.04
238.524	6.52
238.901	4.95
239.278	4.38
239.655	4.91
240.032	5.38
240.409	4.66
240.785	3.78
241.162	4.55
241.539	4.93
241.915	4.86
242.292	5.54
242.668	4.99
243.045	5.8
243.421	5.43
243.798	5.18
244.174	5.13
244.551	4.68
244.927	4.45
245.303	4.05
245.679	3.98
246.056	4.33
246.432	4.31
246.808	4.45
247.184	4.52
247.56	4.15
247.936	4.06
248.312	4.12
248.688	4.26
249.064	4.37
249.44	4.31
249.815	4.66
250.191	4.36
250.567	4.54
250.943	4.51
251.318	4.5
251.694	4.69
252.069	4.87
252.445	5.26
252.82	5.52
253.196	5.75
253.571	6.05
253.947	6.04
254.322	6.13
254.697	6.02
255.073	5.79
255.448	5.93
255.823	5.86
256.198	5.54
256.573	5.52
256.948	5.28
257.323	5.15
257.698	4.85
258.073	4.57
258.448	4.43
258.823	4.23
259.198	4.32
259.573	4.14
259.948	4.09
260.322	3.94
260.697	3.95
261.072	3.98
261.446	3.95
261.821	3.77
262.195	3.7
262.57	3.72
262.944	3.8
263.319	3.86
263.693	3.81
264.067	3.91
264.442	3.87
264.816	3.88
265.19	3.69
265.564	3.75
265.938	3.89
266.313	4.01
266.687	3.93
267.061	3.77
267.435	3.99
267.809	4.08
268.183	4.03
268.556	3.93
268.93	3.83
269.304	3.85
269.678	3.98
270.051	3.96
270.425	3.97
270.799	3.86
271.172	3.82
271.546	3.85
271.919	3.94
272.293	4.01
272.666	3.92
273.04	4.06
273.413	4.02
273.787	4.11
274.16	3.97
274.533	4.18
274.906	4.16
275.279	4.09
275.653	3.91
276.026	4
276.399	4.06
276.772	4.02
277.145	3.95
277.518	3.81
277.891	3.66
278.263	3.66
278.636	3.69
279.009	3.42
279.382	3.33
279.755	3.14
280.127	3.19
280.5	3.06
280.872	3.03
281.245	3.02
281.617	3.01
281.99	3.1
282.362	3.12
282.735	3.18
283.107	3.12
283.479	3.16
283.852	3.09
284.224	3.17
284.596	3.22
284.968	3.11
285.34	3.08
285.713	3.15
286.085	3.18
286.457	3.2
286.829	3.37
287.201	3.53
287.572	3.68
287.944	3.67
288.316	3.85
288.688	3.95
289.06	3.88
289.431	3.77
289.803	3.85
290.175	3.79
290.546	3.79
290.918	3.81
291.289	3.82
291.661	3.87
292.032	3.69
292.403	3.62
292.775	3.74
293.146	3.82
293.517	3.81
293.889	3.66
294.26	3.68
294.631	3.69
295.002	3.6
295.373	3.47
295.744	3.45
296.115	3.44
296.486	3.37
296.857	3.45
297.228	3.59
297.599	3.4
297.97	3.52
298.34	3.49
298.711	3.54
299.082	3.64
299.452	3.66
299.823	3.65
300.194	3.71
300.564	3.73
300.935	3.7
301.305	3.73
301.676	3.88
302.046	3.88
302.416	3.85
302.787	3.82
303.157	3.9
303.527	3.97
303.897	3.88
304.267	3.85
304.637	3.85
305.008	3.78
305.378	4.03
305.748	3.88
306.117	3.92
306.487	3.88
306.857	3.89
307.227	4.02
307.597	4.28
307.967	4.32
308.336	4.2
308.706	4.29
309.076	4.46
309.445	4.6
309.815	4.6
310.184	4.69
310.554	4.66
310.923	4.71
311.293	4.69
311.662	4.82
312.031	4.92
312.401	4.91
312.77	4.98
313.139	5.02
313.508	5.08
313.877	5.12
314.246	5.18
314.616	5.23
314.985	5.15
315.353	5.07
315.722	5.17
316.091	5.42
316.46	5.52
316.829	5.38
317.198	5.2
317.567	5.41
317.935	5.51
318.304	5.68
318.672	5.72
319.041	5.76
319.41	5.67
319.778	5.65
320.147	5.82
320.515	5.92
320.883	5.89
321.252	5.99
321.62	5.96
321.988	6.07
322.357	6.05
322.725	6.01
323.093	6.01
323.461	6.04
323.829	5.94
324.197	5.84
324.565	5.97
324.933	6.1
325.301	5.9
325.669	5.76
326.037	5.77
326.405	5.74
326.772	5.76
327.14	5.84
327.508	5.92
327.875	5.92
328.243	5.83
328.61	5.81
328.978	5.75
329.346	5.91
329.713	5.83
330.08	5.82
330.448	5.98
330.815	6
331.182	5.96
331.55	6.03
331.917	6.03
332.284	6.05
332.651	6.05
333.018	6.11
333.385	6.2
333.752	6.24
334.119	6.23
334.486	6.29
334.853	6.38
335.22	6.33
335.587	6.26
335.954	6.39
336.32	6.39
336.687	6.56
337.054	6.53
337.42	6.68
337.787	6.72
338.153	6.7
338.52	6.73
338.886	6.83
339.253	6.75
339.619	6.89
339.986	6.78
340.352	6.83
340.718	6.88
341.084	6.89
341.451	6.97
341.817	7.17
342.183	7.11
342.549	7.1
342.915	7.07
343.281	7.09
343.647	7.01
344.013	7.06
344.379	7
344.745	7.07
345.11	6.83
345.476	6.89
345.842	6.88
346.208	6.94
346.573	6.92
346.939	6.99
347.304	7.05
347.67	7.15
348.035	7.08
348.401	7.03
348.766	6.97
349.132	6.9
349.497	6.83
349.862	6.84
350.228	6.91
350.593	6.95
350.958	7.01
351.323	7.02
351.688	7.07
352.053	7
352.418	6.96
352.783	7.11
353.148	6.96
353.513	7
353.878	6.91
354.243	6.84
354.608	6.91
354.972	6.85
355.337	6.8
355.702	6.81
356.066	6.92
356.431	7.01
356.795	7.05
357.16	7.04
357.524	7.03
357.889	6.91
358.253	6.88
358.618	6.8
358.982	6.8
359.346	6.71
359.71	6.73
360.075	6.71
360.439	6.64
360.803	6.72
361.167	6.67
361.531	6.7
361.895	6.73
362.259	6.71
362.623	6.7
362.987	6.69
363.351	6.65
363.714	6.59
364.078	6.54
364.442	6.46
364.806	6.45
365.169	6.43
365.533	6.47
365.896	6.46
366.26	6.45
366.623	6.41
366.987	6.4
367.35	6.37
367.714	6.35
368.077	6.37
368.44	6.35
368.803	6.31
369.167	6.33
369.53	6.24
369.893	6.17
370.256	6.08
370.619	6.04
370.982	6
371.345	5.96
371.708	5.84
372.071	5.79
372.434	5.65
372.797	5.59
373.159	5.51
373.522	5.53
373.885	5.52
374.247	5.52
374.61	5.49
374.973	5.49
375.335	5.53
375.698	5.44
376.06	5.4
376.423	5.35
376.785	5.32
377.147	5.34
377.51	5.32
377.872	5.28
378.234	5.33
378.596	5.32
378.958	5.27
379.321	5.25
379.683	5.21
380.045	5.22
380.407	5.19
380.769	5.16
381.13	5.11
381.492	5.06
381.854	5.02
382.216	4.98
382.578	4.87
382.939	4.78
383.301	4.78
383.663	4.76
384.024	4.73
384.386	4.69
384.747	4.65
385.109	4.6
385.47	4.61
385.832	4.55
386.193	4.5
386.554	4.47
386.916	4.46
387.277	4.47
387.638	4.47
387.999	4.47
388.36	4.43
388.721	4.38
389.082	4.34
389.443	4.35
389.804	4.35
390.165	4.4
390.526	4.37
390.887	4.33
391.248	4.31
391.609	4.32
391.969	4.28
392.33	4.23
392.691	4.26
393.051	4.22
393.412	4.18
393.772	4.19
394.133	4.16
394.493	4.13
394.854	4.13
395.214	4.12
395.574	4.12
395.935	4.13
396.295	4.13
396.655	4.13
397.015	4.1
397.376	4.05
397.736	4.04
398.096	4
398.456	4.02
398.816	3.98
399.176	3.95
399.535	3.94
399.895	3.94
400.255	3.89
400.615	3.9
400.975	3.9
401.334	3.89
401.694	3.9
402.054	3.88
402.413	3.9
402.773	3.85
403.132	3.82
403.492	3.79
403.851	3.76
404.211	3.73
404.57	3.7
404.929	3.7
405.288	3.64
405.648	3.64
406.007	3.58
406.366	3.54
406.725	3.52
407.084	3.53
407.443	3.52
407.802	3.5
408.161	3.47
408.52	3.47
408.879	3.47
409.238	3.43
409.596	3.44
409.955	3.39
410.314	3.38
410.673	3.36
411.031	3.36
411.39	3.38
411.748	3.37
412.107	3.37
412.465	3.37
412.824	3.37
413.182	3.35
413.54	3.4
413.899	3.41
414.257	3.42
414.615	3.39
414.974	3.38
415.332	3.36
415.69	3.35
416.048	3.31
416.406	3.27
416.764	3.29
417.122	3.27
417.48	3.24
417.838	3.24
418.195	3.23
418.553	3.22
418.911	3.18
419.269	3.18
419.626	3.17
419.984	3.16
420.342	3.15
420.699	3.14
421.057	3.12
421.414	3.11
421.772	3.1
422.129	3.08
422.486	3.08
422.844	3.07
423.201	3.07
423.558	3.06
423.915	3.06
424.273	3.04
424.63	3.03
424.987	3.04
425.344	3.03
425.701	3.02
426.058	3.02
426.415	3.03
426.772	3.03
427.128	3.04
427.485	3.05
427.842	3.04
428.199	3.05
428.555	3.04
428.912	3.04
429.269	3.02
429.625	3.03
429.982	3.02
430.338	3.01
430.695	3.01
431.051	3.04
431.407	3.05
431.764	3.04
432.12	3.04
432.476	3.04
432.832	3.05
433.189	3.05
433.545	3.05
433.901	3.04
434.257	3.03
434.613	3.01
434.969	2.98
435.325	2.99
435.681	2.98
436.036	2.98
436.392	2.99
436.748	2.99
437.104	3.01
437.459	3.01
437.815	3.01
438.171	3.01
438.526	3
438.882	3
439.237	3
439.593	3
439.948	3
440.304	3
440.659	3.02
441.014	2.99
441.369	2.99
441.725	2.98
442.08	2.99
442.435	2.99
442.79	2.98
443.145	2.98
443.5	2.98
443.855	2.97
444.21	2.97
444.565	2.96
444.92	2.96
445.275	2.96
445.629	2.96
445.984	2.95
446.339	2.95
446.693	2.95
447.048	2.94
447.403	2.95
447.757	2.95
448.112	2.95
448.466	2.97
448.82	2.96
449.175	2.97
449.529	2.97
449.883	2.98
450.238	2.97
450.592	2.95
450.946	2.96
451.3	2.95
451.654	2.94
452.008	2.93
452.362	2.93
452.716	2.94
453.07	2.95
453.424	2.94
453.778	2.94
454.132	2.93
454.486	2.94
454.839	2.91
455.193	2.9
455.547	2.89
455.9	2.87
456.254	2.89
456.607	2.89
456.961	2.87
457.314	2.87
457.668	2.88
458.021	2.89
458.375	2.89
458.728	2.91
459.081	2.91
459.434	2.91
459.787	2.9
460.141	2.9
460.494	2.9
460.847	2.91
461.2	2.91
461.553	2.92
461.906	2.93
462.259	2.94
462.611	2.95
462.964	2.96
463.317	2.97
463.67	2.98
464.022	2.97
464.375	2.99
464.728	3
465.08	3.02
465.433	3.03
465.785	3.04
466.138	3.04
466.49	3.05
466.843	3.07
467.195	3.07
467.547	3.08
467.899	3.09
468.252	3.08
468.604	3.07
468.956	3.07
469.308	3.09
469.66	3.08
470.012	3.09
470.364	3.09
470.716	3.1
471.068	3.1
471.42	3.12
471.772	3.13
472.123	3.13
472.475	3.13
472.827	3.12
473.178	3.14
473.53	3.15
473.882	3.16
474.233	3.17
474.585	3.18
474.936	3.17
475.288	3.17
475.639	3.18
475.99	3.18
476.342	3.16
476.693	3.13
477.044	3.15
477.395	3.12
477.746	3.12
478.097	3.1
478.448	3.1
478.8	3.09
479.15	3.08
479.501	3.07
479.852	3.07
480.203	3.07
480.554	3.07
480.905	3.07
481.255	3.07
481.606	3.07
481.957	3.07
482.307	3.08
482.658	3.08
483.009	3.08
483.359	3.09
483.709	3.1
484.06	3.1
484.41	3.1
484.761	3.1
485.111	3.11
485.461	3.11
485.811	3.1
486.162	3.1
486.512	3.1
486.862	3.11
487.212	3.1
487.562	3.1
487.912	3.1
488.262	3.09
488.612	3.09
488.961	3.08
489.311	3.08
489.661	3.08
490.011	3.07
490.36	3.07
490.71	3.05
491.06	3.04
491.409	3.05
491.759	3.06
492.108	3.06
492.458	3.06
492.807	3.06
493.157	3.08
493.506	3.1
493.855	3.1
494.204	3.1
494.554	3.11
494.903	3.12
495.252	3.13
495.601	3.15
495.95	3.17
496.299	3.19
496.648	3.2
496.997	3.2
497.346	3.23
497.695	3.26
498.043	3.31
498.392	3.33
498.741	3.35
499.09	3.34
499.438	3.36
499.787	3.37
500.135	3.39
500.484	3.39
500.832	3.39
501.181	3.43
501.529	3.47
501.878	3.51
502.226	3.53
502.574	3.55
502.923	3.55
503.271	3.58
503.619	3.61
503.967	3.64
504.315	3.67
504.663	3.69
505.011	3.72
505.359	3.74
505.707	3.77
506.055	3.8
506.403	3.84
506.751	3.85
507.098	3.9
507.446	3.93
507.794	4
508.141	4.05
508.489	4.09
508.837	4.12
509.184	4.16
509.531	4.19
509.879	4.24
510.226	4.27
510.574	4.33
510.921	4.39
511.268	4.44
511.616	4.5
511.963	4.56
512.31	4.61
512.657	4.68
513.004	4.73
513.351	4.77
513.698	4.85
514.045	4.92
514.392	4.99
514.739	5.07
515.086	5.1
515.432	5.17
515.779	5.24
516.126	5.32
516.473	5.4
516.819	5.47
517.166	5.55
517.512	5.64
517.859	5.69
518.205	5.74
518.552	5.78
518.898	5.84
519.245	5.9
519.591	5.98
519.937	6.03
520.283	6.11
520.629	6.17
520.976	6.25
521.322	6.34
521.668	6.41
522.014	6.49
522.36	6.59
522.706	6.68
523.052	6.77
523.398	6.86
523.743	6.95
524.089	7.08
524.435	7.18
524.781	7.29
525.126	7.39
525.472	7.49
525.817	7.58
526.163	7.66
526.509	7.72
526.854	7.78
527.199	7.86
527.545	7.95
527.89	8.03
528.235	8.11
528.581	8.19
528.926	8.25
529.271	8.34
529.616	8.42
529.961	8.49
530.306	8.59
530.651	8.67
530.996	8.76
531.341	8.83
531.686	8.92
532.031	9
532.376	9.08
532.721	9.17
533.065	9.29
533.41	9.39
533.755	9.53
534.099	9.64
534.444	9.75
534.788	9.85
535.133	9.97
535.477	10.09
535.822	10.23
536.166	10.38
536.51	10.5
536.855	10.65
537.199	10.82
537.543	10.97
537.887	11.15
538.231	11.31
538.576	11.5
538.92	11.67
539.264	11.84
539.608	12.02
539.951	12.18
540.295	12.3
540.639	12.46
540.983	12.59
541.327	12.73
541.671	12.88
542.014	13.02
542.358	13.17
542.701	13.31
543.045	13.44
543.389	13.6
543.732	13.75
544.075	13.9
544.419	14.06
544.762	14.23
545.105	14.4
545.449	14.61
545.792	14.8
546.135	14.98
546.478	15.19
546.821	15.38
547.165	15.59
547.508	15.84
547.851	16.09
548.194	16.32
548.536	16.57
548.879	16.82
549.222	17.05
549.565	17.27
549.908	17.52
550.25	17.75
550.593	17.99
550.936	18.27
551.278	18.56
551.621	18.82
551.963	19.12
552.306	19.4
552.648	19.66
552.991	19.92
553.333	20.19
553.675	20.49
554.017	20.74
554.36	21.02
554.702	21.28
555.044	21.53
555.386	21.84
555.728	22.11
556.07	22.39
556.412	22.69
556.754	23
557.096	23.26
557.438	23.56
557.78	23.88
558.121	24.19
558.463	24.49
558.805	24.78
559.147	25.07
559.488	25.36
559.83	25.65
560.171	25.93
560.513	26.26
560.854	26.52
561.196	26.87
561.537	27.18
561.878	27.51
562.22	27.82
562.561	28.11
562.902	28.39
563.243	28.65
563.584	28.93
563.925	29.22
564.266	29.54
564.607	29.85
564.948	30.1
565.289	30.42
565.63	30.71
565.971	31
566.312	31.21
566.653	31.5
566.993	31.75
567.334	32.02
567.675	32.29
568.015	32.53
568.356	32.83
568.696	33.15
569.037	33.42
569.377	33.71
569.718	33.92
570.058	34.21
570.398	34.52
570.739	34.79
571.079	35.04
571.419	35.25
571.759	35.49
572.099	35.73
572.439	35.89
572.779	36.13
573.119	36.36
573.459	36.61
573.799	36.77
574.139	37.04
574.479	37.27
574.819	37.49
575.158	37.7
575.498	37.84
575.838	38.02
576.177	38.16
576.517	38.33
576.856	38.58
577.196	38.79
577.535	38.96
577.875	39.19
578.214	39.39
578.553	39.6
578.893	39.79
579.232	39.98
579.571	40.23
579.91	40.36
580.25	40.52
580.589	40.72
580.928	40.96
581.267	41.09
581.606	41.22
581.945	41.44
582.283	41.74
582.622	42.02
582.961	42.16
583.3	42.43
583.639	42.63
583.977	42.82
584.316	42.96
584.654	43.11
584.993	43.29
585.332	43.54
585.67	43.72
586.008	43.9
586.347	44.08
586.685	44.19
587.024	44.43
587.362	44.61
587.7	44.8
588.038	44.99
588.376	45.16
588.715	45.32
589.053	45.45
589.391	45.62
589.729	45.76
590.067	45.9
590.404	46.03
590.742	46.19
591.08	46.39
591.418	46.55
591.756	46.7
592.093	46.79
592.431	46.85
592.769	47
593.106	47.13
593.444	47.27
593.781	47.38
594.119	47.51
594.456	47.65
594.793	47.69
595.131	47.77
595.468	47.89
595.805	48.06
596.143	48.1
596.48	48.16
596.817	48.2
597.154	48.32
597.491	48.34
597.828	48.39
598.165	48.47
598.502	48.6
598.839	48.64
599.176	48.79
599.512	48.91
599.849	48.99
600.186	49.11
600.523	49.17
600.859	49.29
601.196	49.36
601.532	49.46
601.869	49.6
602.205	49.68
602.542	49.72
602.878	49.78
603.215	49.91
603.551	49.95
603.887	50.05
604.223	50.12
604.56	50.26
604.896	50.39
605.232	50.35
605.568	50.41
605.904	50.5
606.24	50.58
606.576	50.67
606.912	50.76
607.248	50.78
607.583	50.84
607.919	50.94
608.255	51.04
608.591	51.03
608.926	51.1
609.262	51.24
609.597	51.37
609.933	51.36
610.268	51.43
610.604	51.53
610.939	51.57
611.275	51.62
611.61	51.65
611.945	51.63
612.281	51.71
612.616	51.8
612.951	51.89
613.286	51.92
613.621	51.96
613.956	52.01
614.291	52.13
614.626	52.27
614.961	52.34
615.296	52.36
615.631	52.51
615.966	52.54
616.3	52.56
616.635	52.48
616.97	52.61
617.304	52.72
617.639	52.77
617.973	52.84
618.308	52.81
618.642	52.93
618.977	52.93
619.311	53.09
619.646	53.11
619.98	53.2
620.314	53.21
620.648	53.21
620.983	53.31
621.317	53.35
621.651	53.38
621.985	53.43
622.319	53.45
622.653	53.47
622.987	53.49
623.321	53.57
623.655	53.64
623.988	53.69
624.322	53.61
624.656	53.68
624.99	53.76
625.323	53.85
625.657	53.86
625.99	53.93
626.324	54.05
626.657	54.07
626.991	54.05
627.324	54.15
627.658	54.21
627.991	54.2
628.324	54.18
628.657	54.28
628.991	54.36
629.324	54.42
629.657	54.54
629.99	54.59
630.323	54.58
630.656	54.72
630.989	54.75
631.322	54.9
631.655	54.93
631.987	54.85
632.32	54.92
632.653	54.85
632.986	54.92
633.318	54.9
633.651	54.92
633.984	54.99
634.316	54.99
634.649	55.04
634.981	55.18
635.313	55.27
635.646	55.26
635.978	55.23
636.31	55.15
636.643	55.07
636.975	55.16
637.307	55.18
637.639	55.11
637.971	55.12
638.303	55.11
638.635	55.11
638.967	55.29
639.299	55.34
639.631	55.48
639.963	55.46
640.295	55.36
640.626	55.36
640.958	55.42
641.29	55.49
641.621	55.42
641.953	55.47
642.285	55.49
642.616	55.51
642.948	55.46
643.279	55.66
643.61	55.63
643.942	55.64
644.273	55.61
644.604	55.7
644.936	55.72
645.267	55.75
645.598	55.75
645.929	55.66
646.26	55.46
646.591	55.48
646.922	55.63
647.253	55.78
647.584	55.73
647.915	55.67
648.245	55.82
648.576	55.88
648.907	55.82
649.238	55.81
649.568	55.72
649.899	55.81
650.229	55.9
650.56	55.96
650.89	56.03
651.221	56.12
651.551	56.14
651.882	56.21
652.212	56.26
652.542	56.32
652.872	56.43
653.203	56.55
653.533	56.52
653.863	56.51
654.193	56.48
654.523	56.62
654.853	56.71
655.183	56.61
655.513	56.75
655.843	56.78
656.172	56.91
656.502	57.03
656.832	57.06
657.162	56.97
657.491	57.01
657.821	56.97
658.15	56.99
658.48	57
658.809	57.01
659.139	57
659.468	56.94
659.798	56.9
660.127	57.05
660.456	57.14
660.785	57.18
661.115	57.21
661.444	57.16
661.773	57.26
662.102	57.29
662.431	57.32
662.76	57.27
663.089	57.32
663.418	57.36
663.747	57.31
664.076	57.31
664.404	57.33
664.733	57.24
665.062	57.29
665.39	57.28
665.719	57.25
666.048	57.24
666.376	57.31
666.705	57.35
667.033	57.22
667.362	57.26
667.69	57.28
668.018	57.33
668.347	57.38
668.675	57.37
669.003	57.45
669.331	57.52
669.659	57.62
669.987	57.59
670.315	57.49
670.643	57.61
