Data from BU26938_Reflection_00015.txt Node
Date: Tue Nov 19 10:42:36 EST 2019
User: vgr7
Spectrometer: USB2G7710
Scans to average: 3
Trigger mode: 4
Integration Time (sec): 2.000000E-2
Electric dark correction enabled: true
Boxcar width: 10
XAxis mode: Wavelengths
Number of Pixels in Spectrum: 2048
>>>>>Begin Spectral Data<<<<<
177.721	246.68
178.105	-1361.54
178.488	13.53
178.871	2250
179.254	116.13
179.636	301.7
180.019	282.59
180.402	-57.14
180.785	-284.21
181.168	-75.57
181.55	-218.18
181.933	-122.51
182.316	-335.06
182.698	1567.74
183.081	-4.56
183.463	-25.77
183.846	-334.43
184.228	-463.29
184.611	-27.91
184.993	176.47
185.376	3600
185.758	-176.03
186.14	-167.21
186.522	-167.9
186.904	-376.74
187.287	-166.28
187.669	-129.5
188.051	-93.45
188.433	-325.45
188.815	-267.83
189.197	-247.25
189.579	-319.66
189.961	-774.38
190.342	-193.8
190.724	-354.85
191.106	-426.95
191.488	-186.16
191.869	-128.47
192.251	-96.58
192.633	-102.17
193.014	-95.68
193.396	-101.1
193.777	-92.81
194.159	-100.65
194.54	-114.65
194.922	-101.74
195.303	-85.09
195.684	-96.23
196.065	-145.55
196.447	-95.99
196.828	-91.64
197.209	-79.94
197.59	-73.36
197.971	-63.18
198.352	-79.98
198.733	-85.19
199.114	-107.88
199.495	-119.21
199.876	-135.22
200.257	-173.34
200.638	-133.58
201.018	-128.11
201.399	-131.61
201.78	-140.35
202.16	-164.43
202.541	-125.73
202.922	-114.42
203.302	-151.2
203.683	-143.38
204.063	-116.42
204.444	-152.76
204.824	-145.5
205.204	-154.2
205.585	-191.31
205.965	-301
206.345	-179.47
206.725	-137.04
207.106	-101.9
207.486	-107.2
207.866	-105.58
208.246	-82.23
208.626	-118.28
209.006	-144.91
209.386	-112.1
209.766	-79.56
210.145	-54.77
210.525	-174.68
210.905	-167.62
211.285	-52.01
211.664	-27.14
212.044	-37.66
212.424	-38.86
212.803	-43.66
213.183	-95.54
213.562	-54.03
213.942	-13.05
214.321	-34.48
214.701	-41.05
215.08	-42.12
215.459	3.49
215.838	-4.03
216.218	-25.57
216.597	-9.78
216.976	-1.29
217.355	-6.67
217.734	-30.23
218.113	-29.98
218.492	-32.77
218.871	-32.73
219.25	-29.35
219.629	-50.43
220.008	-22.92
220.387	-0
220.766	0.66
221.144	10.95
221.523	4.93
221.902	2.21
222.28	21.61
222.659	44.35
223.037	27.96
223.416	16.63
223.794	16.64
224.173	14.14
224.551	12.68
224.929	9.35
225.308	-9.49
225.686	-2.19
226.064	-0.8
226.442	5.91
226.821	5.74
227.199	3.22
227.577	5.63
227.955	2.83
228.333	-1.41
228.711	-2.62
229.089	1.31
229.467	3.61
229.845	0.21
230.222	-2.67
230.6	-7.94
230.978	-2.27
231.356	0.36
231.733	1.1
232.111	2.18
232.488	3.2
232.866	3.46
233.243	7.47
233.621	7.45
233.998	5.53
234.376	6.33
234.753	5.89
235.13	6.46
235.508	5.77
235.885	6.08
236.262	7.46
236.639	7.1
237.016	4.66
237.393	4.25
237.77	4.84
238.147	4.3
238.524	4.33
238.901	3.25
239.278	2.6
239.655	2.13
240.032	1.88
240.409	1.58
240.785	1.93
241.162	2.08
241.539	1.84
241.915	2.06
242.292	1.79
242.668	2.04
243.045	2.21
243.421	2.54
243.798	2.48
244.174	2.53
244.551	2.78
244.927	3.26
245.303	3.09
245.679	3.19
246.056	2.92
246.432	3.14
246.808	3.57
247.184	3.7
247.56	3.66
247.936	3.93
248.312	4.2
248.688	4.05
249.064	4.3
249.44	4.32
249.815	4.42
250.191	4.29
250.567	4.2
250.943	4.21
251.318	4.15
251.694	4.21
252.069	4.08
252.445	3.93
252.82	4.06
253.196	4.4
253.571	4.2
253.947	4.77
254.322	4.39
254.697	3.88
255.073	3.68
255.448	3.77
255.823	3.5
256.198	3.39
256.573	3.62
256.948	3.38
257.323	3.62
257.698	3.61
258.073	3.6
258.448	3.65
258.823	3.52
259.198	3.7
259.573	3.64
259.948	3.71
260.322	3.72
260.697	3.69
261.072	3.62
261.446	3.77
261.821	3.77
262.195	3.81
262.57	3.84
262.944	4.04
263.319	4.05
263.693	4.13
264.067	4.15
264.442	4.15
264.816	4.23
265.19	4.02
265.564	3.82
265.938	3.91
266.313	3.93
266.687	4.06
267.061	3.84
267.435	4.04
267.809	3.97
268.183	3.93
268.556	3.76
268.93	3.95
269.304	3.91
269.678	3.72
270.051	3.83
270.425	4.09
270.799	3.71
271.172	3.72
271.546	3.64
271.919	3.63
272.293	3.49
272.666	3.52
273.04	3.67
273.413	3.76
273.787	3.8
274.16	3.71
274.533	3.74
274.906	3.88
275.279	3.72
275.653	3.76
276.026	3.75
276.399	3.75
276.772	3.73
277.145	3.75
277.518	3.86
277.891	4
278.263	4.03
278.636	4.31
279.009	4.34
279.382	4.46
279.755	4.41
280.127	4.53
280.5	4.29
280.872	4.36
281.245	4.6
281.617	4.56
281.99	4.59
282.362	4.58
282.735	4.42
283.107	4.52
283.479	4.56
283.852	4.56
284.224	4.53
284.596	4.51
284.968	4.54
285.34	4.47
285.713	4.44
286.085	4.22
286.457	4.16
286.829	4.15
287.201	4.15
287.572	4.11
287.944	4.01
288.316	4.13
288.688	4.02
289.06	3.93
289.431	4.04
289.803	4.07
290.175	4.06
290.546	4.23
290.918	4.21
291.289	4.2
291.661	4.15
292.032	4.3
292.403	4.24
292.775	4.24
293.146	4.38
293.517	4.25
293.889	4.38
294.26	4.51
294.631	4.68
295.002	4.79
295.373	5.04
295.744	5.26
296.115	5.23
296.486	5.25
296.857	5.32
297.228	5.25
297.599	5.43
297.97	5.42
298.34	5.45
298.711	5.49
299.082	5.47
299.452	5.67
299.823	5.66
300.194	5.76
300.564	5.92
300.935	5.9
301.305	6.06
301.676	5.98
302.046	5.93
302.416	5.79
302.787	5.73
303.157	5.68
303.527	5.68
303.897	5.77
304.267	5.85
304.637	5.89
305.008	6.08
305.378	6.13
305.748	6.23
306.117	6.24
306.487	6.33
306.857	6.64
307.227	6.69
307.597	6.82
307.967	6.87
308.336	6.9
308.706	7.01
309.076	7.2
309.445	7.56
309.815	7.62
310.184	7.8
310.554	7.94
310.923	7.9
311.293	7.82
311.662	7.83
312.031	7.95
312.401	7.96
312.77	7.98
313.139	7.95
313.508	8
313.877	7.93
314.246	7.98
314.616	7.96
314.985	7.95
315.353	7.92
315.722	8.11
316.091	8.19
316.46	8.31
316.829	8.13
317.198	8.1
317.567	8.28
317.935	8.39
318.304	8.57
318.672	8.71
319.041	8.89
319.41	9.09
319.778	9.07
320.147	9.18
320.515	9.2
320.883	9.26
321.252	9.39
321.62	9.54
321.988	9.65
322.357	9.62
322.725	9.55
323.093	9.58
323.461	9.52
323.829	9.49
324.197	9.33
324.565	9.54
324.933	9.38
325.301	9.25
325.669	9.23
326.037	9.33
326.405	9.27
326.772	9.27
327.14	9.27
327.508	9.25
327.875	9.19
328.243	9.31
328.61	9.3
328.978	9.36
329.346	9.45
329.713	9.5
330.08	9.51
330.448	9.68
330.815	9.72
331.182	9.82
331.55	9.88
331.917	10.15
332.284	10.17
332.651	10.37
333.018	10.53
333.385	10.52
333.752	10.44
334.119	10.52
334.486	10.59
334.853	10.7
335.22	10.73
335.587	10.76
335.954	10.79
336.32	10.87
336.687	10.81
337.054	10.89
337.42	10.83
337.787	10.86
338.153	10.95
338.52	11.07
338.886	11.1
339.253	11.15
339.619	11.22
339.986	11.24
340.352	11.21
340.718	11.23
341.084	11.26
341.451	11.26
341.817	11.33
342.183	11.32
342.549	11.31
342.915	11.41
343.281	11.5
343.647	11.52
344.013	11.55
344.379	11.69
344.745	11.61
345.11	11.65
345.476	11.75
345.842	11.77
346.208	11.82
346.573	11.86
346.939	11.87
347.304	11.86
347.67	11.89
348.035	11.9
348.401	11.88
348.766	11.91
349.132	11.9
349.497	11.92
349.862	12.04
350.228	12.05
350.593	12.17
350.958	12.23
351.323	12.25
351.688	12.23
352.053	12.1
352.418	12.15
352.783	12.18
353.148	12.23
353.513	12.16
353.878	12.01
354.243	11.94
354.608	11.92
354.972	11.83
355.337	11.81
355.702	11.8
356.066	11.84
356.431	11.84
356.795	11.85
357.16	11.8
357.524	11.73
357.889	11.7
358.253	11.66
358.618	11.63
358.982	11.62
359.346	11.6
359.71	11.61
360.075	11.66
360.439	11.73
360.803	11.65
361.167	11.64
361.531	11.7
361.895	11.7
362.259	11.7
362.623	11.7
362.987	11.68
363.351	11.62
363.714	11.62
364.078	11.65
364.442	11.62
364.806	11.57
365.169	11.59
365.533	11.57
365.896	11.53
366.26	11.39
366.623	11.34
366.987	11.39
367.35	11.34
367.714	11.27
368.077	11.12
368.44	11.07
368.803	10.97
369.167	10.86
369.53	10.83
369.893	10.73
370.256	10.7
370.619	10.64
370.982	10.58
371.345	10.56
371.708	10.45
372.071	10.38
372.434	10.31
372.797	10.24
373.159	10.21
373.522	10.08
373.885	10.05
374.247	10.02
374.61	9.88
374.973	9.84
375.335	9.74
375.698	9.68
376.06	9.6
376.423	9.61
376.785	9.62
377.147	9.49
377.51	9.41
377.872	9.3
378.234	9.24
378.596	9.2
378.958	9.06
379.321	8.98
379.683	8.99
380.045	8.98
380.407	8.88
380.769	8.8
381.13	8.8
381.492	8.75
381.854	8.66
382.216	8.68
382.578	8.59
382.939	8.5
383.301	8.44
383.663	8.43
384.024	8.34
384.386	8.26
384.747	8.24
385.109	8.23
385.47	8.27
385.832	8.16
386.193	8.11
386.554	7.98
386.916	7.98
387.277	7.85
387.638	7.77
387.999	7.74
388.36	7.68
388.721	7.61
389.082	7.61
389.443	7.57
389.804	7.47
390.165	7.47
390.526	7.49
390.887	7.46
391.248	7.37
391.609	7.39
391.969	7.34
392.33	7.26
392.691	7.19
393.051	7.13
393.412	7.11
393.772	7.1
394.133	7.13
394.493	7.05
394.854	7.01
395.214	6.97
395.574	6.91
395.935	6.87
396.295	6.8
396.655	6.74
397.015	6.71
397.376	6.64
397.736	6.54
398.096	6.42
398.456	6.34
398.816	6.31
399.176	6.21
399.535	6.17
399.895	6.15
400.255	6.13
400.615	6.02
400.975	5.98
401.334	5.91
401.694	5.87
402.054	5.84
402.413	5.83
402.773	5.8
403.132	5.77
403.492	5.72
403.851	5.72
404.211	5.67
404.57	5.6
404.929	5.57
405.288	5.6
405.648	5.61
406.007	5.6
406.366	5.6
406.725	5.58
407.084	5.56
407.443	5.53
407.802	5.49
408.161	5.47
408.52	5.45
408.879	5.43
409.238	5.42
409.596	5.38
409.955	5.31
410.314	5.29
410.673	5.28
411.031	5.25
411.39	5.21
411.748	5.2
412.107	5.16
412.465	5.16
412.824	5.11
413.182	5.06
413.54	5.04
413.899	5
414.257	4.98
414.615	4.93
414.974	4.93
415.332	4.95
415.69	4.94
416.048	4.93
416.406	4.91
416.764	4.86
417.122	4.84
417.48	4.85
417.838	4.83
418.195	4.78
418.553	4.78
418.911	4.74
419.269	4.73
419.626	4.69
419.984	4.66
420.342	4.64
420.699	4.63
421.057	4.61
421.414	4.59
421.772	4.58
422.129	4.56
422.486	4.54
422.844	4.49
423.201	4.47
423.558	4.44
423.915	4.41
424.273	4.41
424.63	4.41
424.987	4.38
425.344	4.38
425.701	4.36
426.058	4.33
426.415	4.32
426.772	4.29
427.128	4.31
427.485	4.3
427.842	4.29
428.199	4.29
428.555	4.28
428.912	4.26
429.269	4.22
429.625	4.21
429.982	4.21
430.338	4.21
430.695	4.2
431.051	4.21
431.407	4.22
431.764	4.21
432.12	4.2
432.476	4.22
432.832	4.21
433.189	4.21
433.545	4.21
433.901	4.2
434.257	4.2
434.613	4.2
434.969	4.19
435.325	4.19
435.681	4.18
436.036	4.15
436.392	4.17
436.748	4.19
437.104	4.19
437.459	4.19
437.815	4.19
438.171	4.2
438.526	4.2
438.882	4.19
439.237	4.17
439.593	4.17
439.948	4.14
440.304	4.15
440.659	4.16
441.014	4.17
441.369	4.16
441.725	4.17
442.08	4.16
442.435	4.15
442.79	4.14
443.145	4.15
443.5	4.17
443.855	4.15
444.21	4.15
444.565	4.13
444.92	4.14
445.275	4.14
445.629	4.14
445.984	4.12
446.339	4.13
446.693	4.13
447.048	4.11
447.403	4.11
447.757	4.07
448.112	4.07
448.466	4.05
448.82	4.04
449.175	4.03
449.529	4.02
449.883	4
450.238	3.99
450.592	3.97
450.946	3.93
451.3	3.93
451.654	3.89
452.008	3.91
452.362	3.87
452.716	3.86
453.07	3.84
453.424	3.84
453.778	3.82
454.132	3.82
454.486	3.81
454.839	3.82
455.193	3.82
455.547	3.81
455.9	3.82
456.254	3.81
456.607	3.81
456.961	3.83
457.314	3.83
457.668	3.83
458.021	3.81
458.375	3.84
458.728	3.83
459.081	3.87
459.434	3.86
459.787	3.87
460.141	3.86
460.494	3.86
460.847	3.86
461.2	3.88
461.553	3.88
461.906	3.87
462.259	3.86
462.611	3.89
462.964	3.9
463.317	3.89
463.67	3.91
464.022	3.92
464.375	3.93
464.728	3.92
465.08	3.95
465.433	3.98
465.785	4
466.138	4
466.49	3.99
466.843	4.01
467.195	4.05
467.547	4.06
467.899	4.09
468.252	4.12
468.604	4.16
468.956	4.21
469.308	4.24
469.66	4.28
470.012	4.3
470.364	4.33
470.716	4.35
471.068	4.37
471.42	4.39
471.772	4.39
472.123	4.43
472.475	4.44
472.827	4.46
473.178	4.47
473.53	4.51
473.882	4.54
474.233	4.56
474.585	4.58
474.936	4.6
475.288	4.6
475.639	4.6
475.99	4.58
476.342	4.57
476.693	4.57
477.044	4.56
477.395	4.54
477.746	4.51
478.097	4.51
478.448	4.49
478.8	4.48
479.15	4.49
479.501	4.46
479.852	4.47
480.203	4.46
480.554	4.45
480.905	4.45
481.255	4.45
481.606	4.45
481.957	4.44
482.307	4.44
482.658	4.43
483.009	4.43
483.359	4.43
483.709	4.43
484.06	4.41
484.41	4.42
484.761	4.42
485.111	4.42
485.461	4.42
485.811	4.42
486.162	4.42
486.512	4.42
486.862	4.43
487.212	4.42
487.562	4.42
487.912	4.42
488.262	4.41
488.612	4.4
488.961	4.38
489.311	4.38
489.661	4.38
490.011	4.39
490.36	4.39
490.71	4.39
491.06	4.39
491.409	4.4
491.759	4.4
492.108	4.41
492.458	4.43
492.807	4.44
493.157	4.44
493.506	4.46
493.855	4.48
494.204	4.49
494.554	4.5
494.903	4.53
495.252	4.56
495.601	4.6
495.95	4.64
496.299	4.7
496.648	4.72
496.997	4.77
497.346	4.82
497.695	4.84
498.043	4.9
498.392	4.94
498.741	5
499.09	5.06
499.438	5.13
499.787	5.17
500.135	5.24
500.484	5.3
500.832	5.38
501.181	5.45
501.529	5.55
501.878	5.65
502.226	5.74
502.574	5.83
502.923	5.93
503.271	5.98
503.619	6.08
503.967	6.2
504.315	6.3
504.663	6.39
505.011	6.53
505.359	6.65
505.707	6.76
506.055	6.87
506.403	7.02
506.751	7.16
507.098	7.34
507.446	7.47
507.794	7.62
508.141	7.73
508.489	7.88
508.837	8.03
509.184	8.19
509.531	8.35
509.879	8.52
510.226	8.7
510.574	8.86
510.921	9.04
511.268	9.2
511.616	9.39
511.963	9.6
512.31	9.81
512.657	10.02
513.004	10.23
513.351	10.47
513.698	10.69
514.045	10.93
514.392	11.15
514.739	11.42
515.086	11.66
515.432	11.96
515.779	12.2
516.126	12.46
516.473	12.69
516.819	12.91
517.166	13.13
517.512	13.33
517.859	13.58
518.205	13.79
518.552	14
518.898	14.19
519.245	14.4
519.591	14.58
519.937	14.81
520.283	15.06
520.629	15.31
520.976	15.6
521.322	15.85
521.668	16.1
522.014	16.36
522.36	16.68
522.706	16.96
523.052	17.28
523.398	17.6
523.743	18
524.089	18.36
524.435	18.68
524.781	19
525.126	19.28
525.472	19.53
525.817	19.78
526.163	20
526.509	20.19
526.854	20.4
527.199	20.57
527.545	20.74
527.89	20.91
528.235	21.07
528.581	21.26
528.926	21.46
529.271	21.64
529.616	21.82
529.961	22
530.306	22.18
530.651	22.34
530.996	22.51
531.341	22.7
531.686	22.91
532.031	23.12
532.376	23.33
532.721	23.54
533.065	23.78
533.41	24.01
533.755	24.25
534.099	24.49
534.444	24.71
534.788	24.95
535.133	25.15
535.477	25.39
535.822	25.63
536.166	25.89
536.51	26.15
536.855	26.38
537.199	26.66
537.543	26.95
537.887	27.27
538.231	27.54
538.576	27.83
538.92	28.1
539.264	28.35
539.608	28.59
539.951	28.88
540.295	29.07
540.639	29.29
540.983	29.51
541.327	29.72
541.671	29.96
542.014	30.16
542.358	30.35
542.701	30.54
543.045	30.71
543.389	30.89
543.732	31.09
544.075	31.3
544.419	31.53
544.762	31.74
545.105	31.95
545.449	32.2
545.792	32.42
546.135	32.67
546.478	32.94
546.821	33.21
547.165	33.43
547.508	33.72
547.851	33.99
548.194	34.25
548.536	34.53
548.879	34.76
549.222	35.07
549.565	35.4
549.908	35.63
550.25	35.94
550.593	36.23
550.936	36.52
551.278	36.8
551.621	37.03
551.963	37.31
552.306	37.6
552.648	37.85
552.991	38.1
553.333	38.3
553.675	38.58
554.017	38.77
554.36	39.05
554.702	39.26
555.044	39.56
555.386	39.82
555.728	40.05
556.07	40.29
556.412	40.52
556.754	40.69
557.096	40.92
557.438	41.15
557.78	41.34
558.121	41.59
558.463	41.76
558.805	41.98
559.147	42.2
559.488	42.38
559.83	42.6
560.171	42.81
560.513	43.03
560.854	43.13
561.196	43.38
561.537	43.59
561.878	43.8
562.22	43.97
562.561	44.09
562.902	44.23
563.243	44.51
563.584	44.67
563.925	44.91
564.266	45.07
564.607	45.18
564.948	45.37
565.289	45.49
565.63	45.69
565.971	45.83
566.312	45.96
566.653	46.17
566.993	46.36
567.334	46.51
567.675	46.69
568.015	46.88
568.356	47
568.696	47.12
569.037	47.27
569.377	47.39
569.718	47.58
570.058	47.72
570.398	47.8
570.739	47.95
571.079	48.05
571.419	48.15
571.759	48.29
572.099	48.43
572.439	48.59
572.779	48.72
573.119	48.84
573.459	49.02
573.799	49.1
574.139	49.17
574.479	49.24
574.819	49.35
575.158	49.44
575.498	49.61
575.838	49.73
576.177	49.85
576.517	49.97
576.856	50.07
577.196	50.2
577.535	50.27
577.875	50.37
578.214	50.5
578.553	50.68
578.893	50.82
579.232	50.87
579.571	50.98
579.91	51.11
580.25	51.21
580.589	51.25
580.928	51.3
581.267	51.43
581.606	51.55
581.945	51.66
582.283	51.8
582.622	51.8
582.961	51.92
583.3	52.02
583.639	52.11
583.977	52.16
584.316	52.3
584.654	52.48
584.993	52.55
585.332	52.57
585.67	52.6
586.008	52.62
586.347	52.73
586.685	52.77
587.024	52.83
587.362	53.02
587.7	53.15
588.038	53.31
588.376	53.35
588.715	53.49
589.053	53.52
589.391	53.58
589.729	53.68
590.067	53.77
590.404	53.87
590.742	53.9
591.08	54
591.418	54
591.756	54
592.093	54.09
592.431	54.24
592.769	54.32
593.106	54.37
593.444	54.44
593.781	54.48
594.119	54.55
594.456	54.5
594.793	54.55
595.131	54.54
595.468	54.65
595.805	54.68
596.143	54.7
596.48	54.78
596.817	54.77
597.154	54.76
597.491	54.76
597.828	54.84
598.165	54.85
598.502	54.87
598.839	54.94
599.176	54.99
599.512	55.01
599.849	55.11
600.186	55.2
600.523	55.32
600.859	55.45
601.196	55.4
601.532	55.51
601.869	55.54
602.205	55.62
602.542	55.64
602.878	55.69
603.215	55.77
603.551	55.8
603.887	55.94
604.223	55.94
604.56	56.09
604.896	56.11
605.232	56.25
605.568	56.34
605.904	56.36
606.24	56.43
606.576	56.4
606.912	56.44
607.248	56.55
607.583	56.61
607.919	56.6
608.255	56.74
608.591	56.78
608.926	56.86
609.262	56.91
609.597	56.9
609.933	56.95
610.268	57.01
610.604	57.1
610.939	57.13
611.275	57.23
611.61	57.14
611.945	57.15
612.281	57.08
612.616	57.17
612.951	57.32
613.286	57.33
613.621	57.47
613.956	57.5
614.291	57.48
614.626	57.42
614.961	57.42
615.296	57.48
615.631	57.49
615.966	57.39
616.3	57.36
616.635	57.4
616.97	57.42
617.304	57.32
617.639	57.31
617.973	57.33
618.308	57.3
618.642	57.31
618.977	57.34
619.311	57.37
619.646	57.35
619.98	57.32
620.314	57.35
620.648	57.3
620.983	57.4
621.317	57.38
621.651	57.39
621.985	57.54
622.319	57.56
622.653	57.65
622.987	57.84
623.321	57.9
623.655	58.02
623.988	58.06
624.322	58.2
624.656	58.21
624.99	58.19
625.323	58.28
625.657	58.35
625.99	58.46
626.324	58.65
626.657	58.59
626.991	58.54
627.324	58.59
627.658	58.72
627.991	58.72
628.324	58.84
628.657	58.89
628.991	58.74
629.324	58.79
629.657	58.85
629.99	58.76
630.323	58.83
630.656	58.82
630.989	58.78
631.322	58.75
631.655	58.81
631.987	58.87
632.32	58.78
632.653	58.78
632.986	58.8
633.318	58.68
633.651	58.79
633.984	58.93
634.316	58.87
634.649	58.89
634.981	58.94
635.313	58.95
635.646	59.02
635.978	59.19
636.31	59.17
636.643	59.03
636.975	59.11
637.307	59.1
637.639	59.07
637.971	59.18
638.303	59.07
638.635	59.02
638.967	59.06
639.299	59.25
639.631	59.33
639.963	59.33
640.295	59.4
640.626	59.34
640.958	59.33
641.29	59.33
641.621	59.31
641.953	59.24
642.285	59.25
642.616	59.27
642.948	59.3
643.279	59.3
643.61	59.42
643.942	59.48
644.273	59.52
644.604	59.63
644.936	59.6
645.267	59.76
645.598	59.84
645.929	59.87
646.26	59.77
646.591	59.65
646.922	59.76
647.253	59.8
647.584	59.87
647.915	59.9
648.245	60.11
648.576	60.12
648.907	60.22
649.238	60.19
649.568	60.12
649.899	60.04
650.229	60.1
650.56	60.21
650.89	60.18
651.221	60.18
651.551	60.2
651.882	60.27
652.212	60.27
652.542	60.24
652.872	60.15
653.203	60.3
653.533	60.33
653.863	60.26
654.193	60.21
654.523	60.21
654.853	60.24
655.183	60.08
655.513	60.04
655.843	60.1
656.172	60.23
656.502	60.28
656.832	60.4
657.162	60.42
657.491	60.31
657.821	60.35
658.15	60.38
658.48	60.39
658.809	60.48
659.139	60.48
659.468	60.48
659.798	60.62
660.127	60.55
660.456	60.57
660.785	60.59
661.115	60.58
661.444	60.59
661.773	60.66
662.102	60.8
662.431	60.84
662.76	60.77
663.089	60.72
663.418	60.81
663.747	60.84
664.076	60.8
664.404	60.89
664.733	60.86
