Data from BU26845_Reflection_00007.txt Node
Date: Mon Nov 18 16:28:02 EST 2019
User: vgr7
Spectrometer: USB2G7710
Scans to average: 3
Trigger mode: 4
Integration Time (sec): 2.000000E-2
Electric dark correction enabled: true
Boxcar width: 10
XAxis mode: Wavelengths
Number of Pixels in Spectrum: 2048
>>>>>Begin Spectral Data<<<<<
177.721	54.18
178.105	78.33
178.488	97
178.871	230.11
179.254	151.22
179.636	-134.51
180.019	62.59
180.402	100
180.785	470.63
181.168	-1009.38
181.55	-601.49
181.933	103.32
182.316	122.92
182.698	159.66
183.081	110.14
183.463	179.26
183.846	84.83
184.228	38.82
184.611	59.34
184.993	267.1
185.376	165.46
185.758	-323.73
186.14	-214.72
186.522	-105.15
186.904	-69.43
187.287	-59.57
187.669	-28.79
188.051	-35.34
188.433	-25.24
188.815	-19.11
189.197	-15.44
189.579	-17.1
189.961	-10.43
190.342	-14.67
190.724	-5.85
191.106	-6.11
191.488	-3.65
191.869	-5.65
192.251	-10.79
192.633	-13.39
193.014	-21.57
193.396	-20.96
193.777	-13.78
194.159	-19.73
194.54	-26.37
194.922	-34.17
195.303	-38.47
195.684	-32.73
196.065	-24.03
196.447	-15.73
196.828	-17.11
197.209	-26.28
197.59	-16.22
197.971	-34.59
198.352	-25.37
198.733	-35.77
199.114	-34.62
199.495	-34.64
199.876	-39.7
200.257	-21.28
200.638	-29.93
201.018	-23.41
201.399	-34.15
201.78	-25.98
202.16	-31.38
202.541	-40.38
202.922	-53.53
203.302	-53.53
203.683	-75.26
204.063	-98.43
204.444	-112.31
204.824	-135.59
205.204	-129.17
205.585	-171.75
205.965	-168.94
206.345	-176.6
206.725	-164.32
207.106	-165.37
207.486	-161.91
207.866	-156.25
208.246	-161.91
208.626	-113.51
209.006	-100
209.386	-104.32
209.766	-115.58
210.145	-95.4
210.525	-81.47
210.905	-52.13
211.285	-59.96
211.664	-51.94
212.044	-42.97
212.424	-32.21
212.803	-18.24
213.183	-11.15
213.562	5.67
213.942	7.45
214.321	5.29
214.701	7.78
215.08	-4
215.459	-0.2
215.838	5.42
216.218	0.96
216.597	7.42
216.976	6.34
217.355	16.44
217.734	19.78
218.113	20.8
218.492	25.65
218.871	9.66
219.25	10.83
219.629	9.37
220.008	6.64
220.387	-0.92
220.766	-4.47
221.144	5.62
221.523	2.48
221.902	-7.41
222.28	-10.06
222.659	-5.76
223.037	9.31
223.416	10.58
223.794	3.86
224.173	5.4
224.551	-2.71
224.929	-3.12
225.308	-2.07
225.686	-8.03
226.064	-9.5
226.442	-11.31
226.821	-10.8
227.199	-7.82
227.577	-4.75
227.955	-1.91
228.333	2.55
228.711	4.13
229.089	5.33
229.467	2.36
229.845	2.6
230.222	6.09
230.6	4.32
230.978	3.25
231.356	6.2
231.733	6.76
232.111	5.58
232.488	6.27
232.866	5.61
233.243	2.86
233.621	3.07
233.998	3.18
234.376	2.63
234.753	5.04
235.13	4.04
235.508	4.34
235.885	4.03
236.262	2.68
236.639	2.11
237.016	-0.16
237.393	1.87
237.77	2.94
238.147	1.92
238.524	2.59
238.901	2.73
239.278	2.69
239.655	2.86
240.032	2.68
240.409	2.42
240.785	2.43
241.162	2.87
241.539	2.85
241.915	2.69
242.292	2.65
242.668	2.8
243.045	3.14
243.421	2.77
243.798	2.51
244.174	2.45
244.551	2.71
244.927	2.66
245.303	2.53
245.679	2.42
246.056	2.5
246.432	2.36
246.808	2.55
247.184	2.32
247.56	2.29
247.936	2.21
248.312	2.4
248.688	2.47
249.064	2.65
249.44	2.81
249.815	2.95
250.191	2.95
250.567	2.73
250.943	2.6
251.318	2.96
251.694	3.06
252.069	3.07
252.445	2.95
252.82	2.99
253.196	2.85
253.571	2.82
253.947	3.14
254.322	3.37
254.697	3.05
255.073	2.88
255.448	2.82
255.823	3.08
256.198	3.15
256.573	3.08
256.948	2.95
257.323	2.88
257.698	2.66
258.073	2.8
258.448	2.61
258.823	2.47
259.198	2.39
259.573	2.32
259.948	2.35
260.322	2.34
260.697	2.28
261.072	2.29
261.446	2.24
261.821	2.11
262.195	2.2
262.57	2.11
262.944	2.27
263.319	2.28
263.693	2.07
264.067	1.87
264.442	1.94
264.816	1.75
265.19	1.69
265.564	1.84
265.938	1.78
266.313	1.96
266.687	2.05
267.061	1.98
267.435	2.07
267.809	2.19
268.183	2.24
268.556	2.3
268.93	2.36
269.304	2.39
269.678	2.53
270.051	2.48
270.425	2.51
270.799	2.49
271.172	2.48
271.546	2.65
271.919	2.65
272.293	2.5
272.666	2.58
273.04	2.77
273.413	2.75
273.787	2.7
274.16	2.74
274.533	2.71
274.906	2.72
275.279	2.73
275.653	2.61
276.026	2.5
276.399	2.57
276.772	2.71
277.145	2.74
277.518	2.71
277.891	2.6
278.263	2.73
278.636	2.71
279.009	2.71
279.382	2.75
279.755	2.58
280.127	2.81
280.5	2.89
280.872	2.68
281.245	2.66
281.617	2.6
281.99	2.68
282.362	2.75
282.735	2.53
283.107	2.45
283.479	2.55
283.852	2.57
284.224	2.43
284.596	2.3
284.968	2.32
285.34	2.23
285.713	2.22
286.085	2.26
286.457	2.32
286.829	2.29
287.201	2.33
287.572	2.45
287.944	2.33
288.316	2.29
288.688	2.34
289.06	2.26
289.431	2.32
289.803	2.25
290.175	2.32
290.546	2.44
290.918	2.63
291.289	2.64
291.661	2.69
292.032	2.86
292.403	2.89
292.775	3.05
293.146	3.07
293.517	3.01
293.889	3.05
294.26	3.03
294.631	2.91
295.002	2.81
295.373	2.84
295.744	2.88
296.115	2.89
296.486	2.82
296.857	2.97
297.228	2.95
297.599	3.01
297.97	2.91
298.34	2.94
298.711	2.91
299.082	2.84
299.452	2.85
299.823	2.87
300.194	2.91
300.564	2.78
300.935	2.81
301.305	2.84
301.676	2.71
302.046	2.62
302.416	2.84
302.787	2.96
303.157	2.95
303.527	2.9
303.897	2.81
304.267	2.96
304.637	2.91
305.008	3.03
305.378	3.06
305.748	3.14
306.117	3.1
306.487	3.07
306.857	3.11
307.227	3.15
307.597	3.15
307.967	3.09
308.336	3.21
308.706	3.24
309.076	3.42
309.445	3.53
309.815	3.45
310.184	3.33
310.554	3.29
310.923	3.31
311.293	3.41
311.662	3.61
312.031	3.57
312.401	3.49
312.77	3.47
313.139	3.41
313.508	3.33
313.877	3.35
314.246	3.32
314.616	3.38
314.985	3.35
315.353	3.32
315.722	3.48
316.091	3.47
316.46	3.46
316.829	3.44
317.198	3.47
317.567	3.58
317.935	3.74
318.304	3.81
318.672	3.75
319.041	3.74
319.41	3.59
319.778	3.59
320.147	3.78
320.515	3.83
320.883	3.89
321.252	4
321.62	4
321.988	4.02
322.357	4.02
322.725	4.13
323.093	4.27
323.461	4.29
323.829	4.26
324.197	4.35
324.565	4.42
324.933	4.35
325.301	4.43
325.669	4.41
326.037	4.47
326.405	4.48
326.772	4.54
327.14	4.61
327.508	4.72
327.875	4.63
328.243	4.62
328.61	4.51
328.978	4.49
329.346	4.66
329.713	4.66
330.08	4.71
330.448	4.65
330.815	4.49
331.182	4.4
331.55	4.46
331.917	4.47
332.284	4.38
332.651	4.39
333.018	4.36
333.385	4.42
333.752	4.42
334.119	4.53
334.486	4.58
334.853	4.55
335.22	4.54
335.587	4.6
335.954	4.62
336.32	4.75
336.687	4.84
337.054	4.85
337.42	4.98
337.787	4.96
338.153	5.06
338.52	5.22
338.886	5.19
339.253	5.18
339.619	5.16
339.986	5.26
340.352	5.29
340.718	5.31
341.084	5.27
341.451	5.37
341.817	5.36
342.183	5.28
342.549	5.34
342.915	5.28
343.281	5.38
343.647	5.47
344.013	5.47
344.379	5.44
344.745	5.38
345.11	5.3
345.476	5.4
345.842	5.41
346.208	5.39
346.573	5.57
346.939	5.68
347.304	5.65
347.67	5.62
348.035	5.67
348.401	5.75
348.766	5.76
349.132	5.76
349.497	5.7
349.862	5.79
350.228	5.81
350.593	5.85
350.958	5.76
351.323	5.73
351.688	5.78
352.053	5.84
352.418	5.9
352.783	5.89
353.148	5.81
353.513	5.79
353.878	5.73
354.243	5.67
354.608	5.7
354.972	5.77
355.337	5.8
355.702	5.8
356.066	5.77
356.431	5.73
356.795	5.68
357.16	5.67
357.524	5.58
357.889	5.53
358.253	5.55
358.618	5.55
358.982	5.53
359.346	5.38
359.71	5.35
360.075	5.38
360.439	5.43
360.803	5.43
361.167	5.38
361.531	5.38
361.895	5.27
362.259	5.12
362.623	5.09
362.987	5.01
363.351	5.01
363.714	5.02
364.078	5.04
364.442	4.95
364.806	5.01
365.169	5.08
365.533	5.1
365.896	5.03
366.26	5.04
366.623	4.98
366.987	5.1
367.35	5.1
367.714	5.01
368.077	4.98
368.44	4.95
368.803	4.99
369.167	4.98
369.53	5.01
369.893	5.15
370.256	5.11
370.619	5.08
370.982	4.97
371.345	4.94
371.708	4.91
372.071	4.92
372.434	4.82
372.797	4.74
373.159	4.69
373.522	4.68
373.885	4.64
374.247	4.65
374.61	4.6
374.973	4.54
375.335	4.5
375.698	4.41
376.06	4.38
376.423	4.3
376.785	4.3
377.147	4.31
377.51	4.23
377.872	4.18
378.234	4.18
378.596	4.18
378.958	4.11
379.321	4.11
379.683	4.1
380.045	4.11
380.407	4.11
380.769	4.06
381.13	4.01
381.492	3.99
381.854	3.98
382.216	3.94
382.578	3.94
382.939	3.93
383.301	3.94
383.663	3.9
384.024	3.88
384.386	3.84
384.747	3.8
385.109	3.76
385.47	3.72
385.832	3.72
386.193	3.66
386.554	3.69
386.916	3.63
387.277	3.62
387.638	3.62
387.999	3.58
388.36	3.62
388.721	3.63
389.082	3.59
389.443	3.55
389.804	3.53
390.165	3.51
390.526	3.51
390.887	3.46
391.248	3.49
391.609	3.45
391.969	3.43
392.33	3.43
392.691	3.4
393.051	3.41
393.412	3.42
393.772	3.42
394.133	3.39
394.493	3.41
394.854	3.39
395.214	3.36
395.574	3.33
395.935	3.26
396.295	3.24
396.655	3.26
397.015	3.21
397.376	3.21
397.736	3.19
398.096	3.18
398.456	3.2
398.816	3.15
399.176	3.14
399.535	3.1
399.895	3.04
400.255	3
400.615	3
400.975	2.95
401.334	2.96
401.694	2.94
402.054	2.9
402.413	2.9
402.773	2.86
403.132	2.88
403.492	2.89
403.851	2.87
404.211	2.84
404.57	2.82
404.929	2.81
405.288	2.8
405.648	2.76
406.007	2.77
406.366	2.74
406.725	2.74
407.084	2.75
407.443	2.75
407.802	2.78
408.161	2.77
408.52	2.76
408.879	2.74
409.238	2.73
409.596	2.74
409.955	2.72
410.314	2.72
410.673	2.69
411.031	2.67
411.39	2.65
411.748	2.66
412.107	2.65
412.465	2.61
412.824	2.6
413.182	2.59
413.54	2.57
413.899	2.58
414.257	2.58
414.615	2.59
414.974	2.59
415.332	2.59
415.69	2.59
416.048	2.59
416.406	2.6
416.764	2.59
417.122	2.57
417.48	2.54
417.838	2.54
418.195	2.54
418.553	2.51
418.911	2.52
419.269	2.52
419.626	2.52
419.984	2.53
420.342	2.52
420.699	2.51
421.057	2.51
421.414	2.5
421.772	2.49
422.129	2.47
422.486	2.47
422.844	2.47
423.201	2.45
423.558	2.44
423.915	2.42
424.273	2.41
424.63	2.4
424.987	2.42
425.344	2.42
425.701	2.41
426.058	2.42
426.415	2.4
426.772	2.38
427.128	2.39
427.485	2.4
427.842	2.4
428.199	2.4
428.555	2.41
428.912	2.41
429.269	2.41
429.625	2.43
429.982	2.42
430.338	2.42
430.695	2.44
431.051	2.43
431.407	2.45
431.764	2.43
432.12	2.44
432.476	2.42
432.832	2.43
433.189	2.43
433.545	2.43
433.901	2.44
434.257	2.44
434.613	2.44
434.969	2.44
435.325	2.43
435.681	2.43
436.036	2.44
436.392	2.45
436.748	2.44
437.104	2.42
437.459	2.41
437.815	2.39
438.171	2.38
438.526	2.39
438.882	2.4
439.237	2.41
439.593	2.43
439.948	2.44
440.304	2.44
440.659	2.44
441.014	2.45
441.369	2.44
441.725	2.45
442.08	2.43
442.435	2.43
442.79	2.43
443.145	2.43
443.5	2.41
443.855	2.41
444.21	2.42
444.565	2.44
444.92	2.45
445.275	2.45
445.629	2.43
445.984	2.43
446.339	2.42
446.693	2.41
447.048	2.39
447.403	2.36
447.757	2.34
448.112	2.33
448.466	2.31
448.82	2.32
449.175	2.31
449.529	2.31
449.883	2.3
450.238	2.29
450.592	2.29
450.946	2.28
451.3	2.27
451.654	2.25
452.008	2.25
452.362	2.23
452.716	2.23
453.07	2.26
453.424	2.26
453.778	2.25
454.132	2.22
454.486	2.22
454.839	2.25
455.193	2.27
455.547	2.25
455.9	2.26
456.254	2.26
456.607	2.26
456.961	2.27
457.314	2.27
457.668	2.29
458.021	2.29
458.375	2.29
458.728	2.3
459.081	2.32
459.434	2.31
459.787	2.32
460.141	2.35
460.494	2.34
460.847	2.35
461.2	2.36
461.553	2.4
461.906	2.4
462.259	2.4
462.611	2.42
462.964	2.45
463.317	2.45
463.67	2.46
464.022	2.46
464.375	2.47
464.728	2.48
465.08	2.47
465.433	2.45
465.785	2.47
466.138	2.48
466.49	2.47
466.843	2.47
467.195	2.48
467.547	2.46
467.899	2.47
468.252	2.47
468.604	2.47
468.956	2.46
469.308	2.48
469.66	2.47
470.012	2.46
470.364	2.46
470.716	2.48
471.068	2.49
471.42	2.5
471.772	2.51
472.123	2.52
472.475	2.53
472.827	2.56
473.178	2.59
473.53	2.59
473.882	2.6
474.233	2.6
474.585	2.59
474.936	2.59
475.288	2.61
475.639	2.61
475.99	2.62
476.342	2.6
476.693	2.6
477.044	2.62
477.395	2.61
477.746	2.6
478.097	2.59
478.448	2.57
478.8	2.56
479.15	2.54
479.501	2.53
479.852	2.52
480.203	2.5
480.554	2.48
480.905	2.48
481.255	2.48
481.606	2.47
481.957	2.47
482.307	2.47
482.658	2.46
483.009	2.46
483.359	2.45
483.709	2.46
484.06	2.46
484.41	2.46
484.761	2.46
485.111	2.47
485.461	2.47
485.811	2.47
486.162	2.47
486.512	2.48
486.862	2.49
487.212	2.49
487.562	2.5
487.912	2.5
488.262	2.51
488.612	2.52
488.961	2.52
489.311	2.53
489.661	2.54
490.011	2.54
490.36	2.55
490.71	2.57
491.06	2.58
491.409	2.58
491.759	2.59
492.108	2.61
492.458	2.62
492.807	2.63
493.157	2.65
493.506	2.67
493.855	2.67
494.204	2.69
494.554	2.71
494.903	2.73
495.252	2.75
495.601	2.77
495.95	2.8
496.299	2.82
496.648	2.84
496.997	2.86
497.346	2.92
497.695	2.94
498.043	2.97
498.392	3
498.741	3.02
499.09	3.07
499.438	3.1
499.787	3.15
500.135	3.19
500.484	3.24
500.832	3.28
501.181	3.33
501.529	3.37
501.878	3.44
502.226	3.5
502.574	3.56
502.923	3.64
503.271	3.71
503.619	3.8
503.967	3.88
504.315	3.95
504.663	4.01
505.011	4.12
505.359	4.22
505.707	4.35
506.055	4.46
506.403	4.56
506.751	4.66
507.098	4.78
507.446	4.91
507.794	5.01
508.141	5.16
508.489	5.29
508.837	5.44
509.184	5.57
509.531	5.71
509.879	5.86
510.226	5.99
510.574	6.13
510.921	6.26
511.268	6.41
511.616	6.57
511.963	6.73
512.31	6.89
512.657	7.06
513.004	7.21
513.351	7.42
513.698	7.63
514.045	7.83
514.392	8.05
514.739	8.24
515.086	8.49
515.432	8.7
515.779	8.93
516.126	9.15
516.473	9.39
516.819	9.6
517.166	9.79
517.512	10.02
517.859	10.22
518.205	10.43
518.552	10.64
518.898	10.84
519.245	11.05
519.591	11.25
519.937	11.44
520.283	11.67
520.629	11.89
520.976	12.12
521.322	12.37
521.668	12.64
522.014	12.91
522.36	13.17
522.706	13.44
523.052	13.69
523.398	13.98
523.743	14.26
524.089	14.56
524.435	14.85
524.781	15.11
525.126	15.34
525.472	15.56
525.817	15.75
526.163	15.92
526.509	16.13
526.854	16.3
527.199	16.47
527.545	16.62
527.89	16.76
528.235	16.89
528.581	17.05
528.926	17.19
529.271	17.36
529.616	17.49
529.961	17.64
530.306	17.82
530.651	17.96
530.996	18.13
531.341	18.29
531.686	18.46
532.031	18.63
532.376	18.8
532.721	18.99
533.065	19.18
533.41	19.39
533.755	19.56
534.099	19.75
534.444	19.95
534.788	20.13
535.133	20.32
535.477	20.5
535.822	20.69
536.166	20.87
536.51	21.05
536.855	21.27
537.199	21.53
537.543	21.74
537.887	21.98
538.231	22.19
538.576	22.42
538.92	22.6
539.264	22.81
539.608	23.01
539.951	23.21
540.295	23.4
540.639	23.57
540.983	23.71
541.327	23.88
541.671	24.02
542.014	24.15
542.358	24.3
542.701	24.46
543.045	24.6
543.389	24.73
543.732	24.87
544.075	25
544.419	25.11
544.762	25.26
545.105	25.42
545.449	25.57
545.792	25.73
546.135	25.93
546.478	26.12
546.821	26.27
547.165	26.42
547.508	26.62
547.851	26.81
548.194	27
548.536	27.19
548.879	27.38
549.222	27.55
549.565	27.71
549.908	27.9
550.25	28.07
550.593	28.26
550.936	28.43
551.278	28.6
551.621	28.78
551.963	28.95
552.306	29.11
552.648	29.28
552.991	29.45
553.333	29.63
553.675	29.8
554.017	29.93
554.36	30.07
554.702	30.2
555.044	30.29
555.386	30.44
555.728	30.52
556.07	30.69
556.412	30.87
556.754	31.03
557.096	31.11
557.438	31.25
557.78	31.4
558.121	31.59
558.463	31.73
558.805	31.84
559.147	31.93
559.488	32.05
559.83	32.19
560.171	32.3
560.513	32.36
560.854	32.44
561.196	32.61
561.537	32.72
561.878	32.79
562.22	32.93
562.561	33.04
562.902	33.16
563.243	33.2
563.584	33.23
563.925	33.3
564.266	33.38
564.607	33.49
564.948	33.57
565.289	33.63
565.63	33.7
565.971	33.77
566.312	33.85
566.653	33.89
566.993	33.9
567.334	33.96
567.675	34.04
568.015	34.11
568.356	34.16
568.696	34.27
569.037	34.34
569.377	34.39
569.718	34.46
570.058	34.51
570.398	34.6
570.739	34.72
571.079	34.77
571.419	34.86
571.759	34.92
572.099	34.99
572.439	35.02
572.779	35.08
573.119	35.2
573.459	35.26
573.799	35.36
574.139	35.48
574.479	35.54
574.819	35.6
575.158	35.67
575.498	35.73
575.838	35.81
576.177	35.85
576.517	35.94
576.856	35.98
577.196	36.05
577.535	36.13
577.875	36.22
578.214	36.39
578.553	36.47
578.893	36.53
579.232	36.6
579.571	36.73
579.91	36.81
580.25	36.77
580.589	36.92
580.928	37.01
581.267	37.05
581.606	37.17
581.945	37.2
582.283	37.3
582.622	37.37
582.961	37.4
583.3	37.5
583.639	37.53
583.977	37.62
584.316	37.78
584.654	37.89
584.993	37.86
585.332	37.82
585.67	37.88
586.008	37.85
586.347	37.9
586.685	37.95
587.024	38.03
587.362	38.18
587.7	38.12
588.038	38.15
588.376	38.16
588.715	38.21
589.053	38.27
589.391	38.24
589.729	38.3
590.067	38.34
590.404	38.34
590.742	38.43
591.08	38.45
591.418	38.41
591.756	38.34
592.093	38.43
592.431	38.48
592.769	38.53
593.106	38.66
593.444	38.65
593.781	38.63
594.119	38.65
594.456	38.68
594.793	38.78
595.131	38.84
595.468	38.88
595.805	38.88
596.143	38.92
596.48	38.95
596.817	38.94
597.154	38.95
597.491	38.97
597.828	38.93
598.165	38.95
598.502	38.95
598.839	39.03
599.176	39.02
599.512	39.1
599.849	39.11
600.186	39.07
600.523	39.2
600.859	39.19
601.196	39.22
601.532	39.23
601.869	39.23
602.205	39.21
602.542	39.27
602.878	39.3
603.215	39.32
603.551	39.34
603.887	39.38
604.223	39.46
604.56	39.49
604.896	39.56
605.232	39.63
605.568	39.66
605.904	39.64
606.24	39.71
606.576	39.71
606.912	39.75
607.248	39.76
607.583	39.8
607.919	39.92
608.255	39.98
608.591	39.99
608.926	40
609.262	40.05
609.597	40.1
609.933	40.15
610.268	40.17
610.604	40.28
610.939	40.36
611.275	40.35
611.61	40.39
611.945	40.4
612.281	40.41
612.616	40.43
612.951	40.52
613.286	40.55
613.621	40.58
613.956	40.66
614.291	40.8
614.626	40.82
614.961	40.79
615.296	40.79
615.631	40.87
615.966	40.9
616.3	40.95
616.635	40.92
616.97	40.92
617.304	41
617.639	40.9
617.973	40.89
618.308	40.84
618.642	40.94
618.977	40.96
619.311	40.98
619.646	41.03
619.98	41.09
620.314	41.13
620.648	41.13
620.983	41.1
621.317	41.02
621.651	40.99
621.985	41.03
622.319	41.01
622.653	40.94
622.987	40.94
623.321	40.92
623.655	40.99
623.988	41.05
624.322	40.99
624.656	41.05
624.99	41.02
625.323	41.15
625.657	41.08
625.99	41.1
626.324	41.12
626.657	41.11
626.991	41.12
627.324	41.12
627.658	41.22
627.991	41.2
628.324	41.3
628.657	41.32
628.991	41.33
629.324	41.39
629.657	41.44
629.99	41.52
630.323	41.56
630.656	41.57
630.989	41.52
631.322	41.59
631.655	41.63
631.987	41.67
632.32	41.59
632.653	41.61
632.986	41.58
633.318	41.56
633.651	41.61
633.984	41.62
634.316	41.6
634.649	41.49
634.981	41.58
635.313	41.56
635.646	41.62
635.978	41.71
636.31	41.74
636.643	41.83
636.975	41.78
637.307	41.81
637.639	41.85
637.971	41.92
638.303	41.87
638.635	41.87
638.967	41.83
639.299	41.96
639.631	42.07
639.963	42.2
640.295	42.31
640.626	42.33
640.958	42.38
641.29	42.49
641.621	42.55
641.953	42.57
642.285	42.57
642.616	42.56
642.948	42.55
643.279	42.5
643.61	42.45
643.942	42.52
644.273	42.51
644.604	42.48
644.936	42.47
645.267	42.56
645.598	42.54
645.929	42.65
646.26	42.56
646.591	42.46
646.922	42.34
647.253	42.27
647.584	42.27
647.915	42.25
648.245	42.15
648.576	42.22
648.907	42.19
649.238	42.3
649.568	42.27
649.899	42.23
650.229	42.3
650.56	42.34
650.89	42.36
651.221	42.33
651.551	42.26
651.882	42.27
652.212	42.26
652.542	42.23
652.872	42.15
653.203	42.18
653.533	42.22
653.863	42.36
654.193	42.41
654.523	42.37
654.853	42.33
655.183	42.44
655.513	42.49
655.843	42.47
656.172	42.41
656.502	42.36
656.832	42.38
657.162	42.34
657.491	42.39
657.821	42.42
658.15	42.44
658.48	42.49
658.809	42.51
659.139	42.46
659.468	42.62
659.798	42.64
660.127	42.68
660.456	42.77
660.785	42.79
661.115	42.76
661.444	42.88
661.773	42.92
662.102	42.85
662.431	42.8
662.76	42.87
663.089	42.84
663.418	42.96
663.747	43.05
664.076	43.11
664.404	42.95
664.733	42.97
665.062	42.97
665.39	42.94
665.719	42.97
666.048	43.07
666.376	42.96
666.705	43.05
667.033	42.95
667.362	42.79
667.69	42.63
668.018	42.57
