Data from BU26842_Reflection_00001.txt Node
Date: Mon Nov 18 16:38:25 EST 2019
User: vgr7
Spectrometer: USB2G7710
Scans to average: 3
Trigger mode: 4
Integration Time (sec): 2.000000E-2
Electric dark correction enabled: true
Boxcar width: 10
XAxis mode: Wavelengths
Number of Pixels in Spectrum: 2048
>>>>>Begin Spectral Data<<<<<
177.721	-121.85
178.105	-71.56
178.488	-46.13
178.871	-32.34
179.254	-13.85
179.636	-68.94
180.019	-2.63
180.402	74.42
180.785	-5.46
181.168	-1.36
181.55	18.54
181.933	314.55
182.316	-555.17
182.698	-338.02
183.081	-44.62
183.463	11.31
183.846	-3.21
184.228	26.94
184.611	51.32
184.993	52.33
185.376	95.4
185.758	162.12
186.14	-305.86
186.522	-231.19
186.904	-209.64
187.287	686.21
187.669	21.17
188.051	38.19
188.433	9.09
188.815	-11.21
189.197	-26.5
189.579	-11.5
189.961	-15.3
190.342	-40.4
190.724	-52.32
191.106	-65.23
191.488	-59.68
191.869	-51.13
192.251	-49.31
192.633	-48.34
193.014	-32.8
193.396	-22.63
193.777	-22.69
194.159	-26.99
194.54	-30.21
194.922	-19.2
195.303	-16.07
195.684	-23.71
196.065	-27.85
196.447	-21.21
196.828	-18.83
197.209	-16.22
197.59	-33.55
197.971	-35.17
198.352	-21.93
198.733	-31.03
199.114	-16.6
199.495	-0.38
199.876	-9.5
200.257	-9.09
200.638	-22.41
201.018	-48.05
201.399	-46.66
201.78	-40.41
202.16	-49.13
202.541	-66.21
202.922	-120.24
203.302	-174.59
203.683	-212.37
204.063	-246.36
204.444	-225.81
204.824	-171.01
205.204	-139.2
205.585	-91.02
205.965	-84.35
206.345	-112.38
206.725	-94.44
207.106	-159.19
207.486	-237.08
207.866	-252.28
208.246	-217.41
208.626	-146.82
209.006	-91.91
209.386	-107.71
209.766	-110.25
210.145	-90.87
210.525	-57.43
210.905	-35.09
211.285	-17.11
211.664	-4.03
212.044	3.81
212.424	8
212.803	4.18
213.183	27.24
213.562	24.41
213.942	32.31
214.321	27.94
214.701	28.61
215.08	39.51
215.459	43.09
215.838	46.7
216.218	39.95
216.597	39.72
216.976	47.84
217.355	27.86
217.734	34.52
218.113	33.93
218.492	27.88
218.871	21.55
219.25	24.78
219.629	24.1
220.008	10.24
220.387	11.8
220.766	10.21
221.144	-1.54
221.523	-3.47
221.902	-10.08
222.28	-15.3
222.659	-16.51
223.037	-27.38
223.416	-23.11
223.794	-26.45
224.173	-17.93
224.551	-20.64
224.929	-31.83
225.308	-19.56
225.686	-17.18
226.064	-6.46
226.442	-4.03
226.821	-0.05
227.199	-0.98
227.577	-3.09
227.955	-1.94
228.333	-1.94
228.711	1.75
229.089	2.36
229.467	-0.2
229.845	-0.85
230.222	0.88
230.6	0.25
230.978	1.25
231.356	2.07
231.733	2.31
232.111	4.51
232.488	6.53
232.866	6.66
233.243	7.01
233.621	4.09
233.998	3.84
234.376	3
234.753	3.06
235.13	3.17
235.508	3.41
235.885	4.47
236.262	4.38
236.639	5.26
237.016	5.14
237.393	7.72
237.77	8.32
238.147	7.74
238.524	8.53
238.901	8.84
239.278	7.43
239.655	8.04
240.032	6.72
240.409	5.78
240.785	5.6
241.162	5.7
241.539	5.74
241.915	5.42
242.292	4.91
242.668	4.65
243.045	4.79
243.421	4.42
243.798	4.08
244.174	4.28
244.551	3.93
244.927	3.99
245.303	3.81
245.679	3.77
246.056	3.61
246.432	3.1
246.808	2.84
247.184	2.62
247.56	2.58
247.936	2.58
248.312	2.56
248.688	2.65
249.064	2.65
249.44	2.87
249.815	3.02
250.191	3.27
250.567	3.38
250.943	3.43
251.318	3.72
251.694	3.9
252.069	3.77
252.445	3.87
252.82	3.78
253.196	3.62
253.571	3.4
253.947	3.57
254.322	3.99
254.697	4.29
255.073	4.63
255.448	4.25
255.823	4.25
256.198	4.18
256.573	4
256.948	3.84
257.323	3.74
257.698	3.39
258.073	3.58
258.448	3.61
258.823	3.53
259.198	3.37
259.573	3.35
259.948	3.38
260.322	3.26
260.697	3.29
261.072	3.27
261.446	3.26
261.821	3.08
262.195	3.15
262.57	3.04
262.944	3.04
263.319	3.15
263.693	3.23
264.067	3.34
264.442	3.49
264.816	3.56
265.19	3.61
265.564	3.79
265.938	3.37
266.313	3.3
266.687	3.2
267.061	3.38
267.435	3.34
267.809	3.32
268.183	3.35
268.556	3.44
268.93	3.56
269.304	3.74
269.678	4.09
270.051	3.95
270.425	3.91
270.799	3.94
271.172	3.73
271.546	3.68
271.919	3.66
272.293	3.65
272.666	3.64
273.04	3.76
273.413	3.69
273.787	3.64
274.16	3.56
274.533	3.64
274.906	3.48
275.279	3.44
275.653	3.4
276.026	3.49
276.399	3.33
276.772	3.37
277.145	3.25
277.518	3.2
277.891	3.31
278.263	3.44
278.636	3.56
279.009	3.59
279.382	3.89
279.755	3.78
280.127	3.85
280.5	4
280.872	3.78
281.245	3.85
281.617	4.18
281.99	4.29
282.362	4.39
282.735	4.27
283.107	4.25
283.479	4.37
283.852	4.24
284.224	4.2
284.596	4.15
284.968	4.18
285.34	4.01
285.713	4.01
286.085	3.93
286.457	3.95
286.829	4.03
287.201	3.86
287.572	3.86
287.944	3.73
288.316	3.55
288.688	3.65
289.06	3.63
289.431	3.53
289.803	3.48
290.175	3.52
290.546	3.82
290.918	3.83
291.289	3.75
291.661	3.86
292.032	3.92
292.403	3.89
292.775	4.02
293.146	4.15
293.517	4.04
293.889	4.01
294.26	3.88
294.631	3.84
295.002	3.97
295.373	4.06
295.744	4.12
296.115	4.11
296.486	3.98
296.857	4
297.228	4.03
297.599	3.95
297.97	3.8
298.34	3.77
298.711	3.91
299.082	3.91
299.452	3.94
299.823	4.01
300.194	4.06
300.564	3.95
300.935	3.95
301.305	3.92
301.676	4.03
302.046	4.11
302.416	4.36
302.787	4.13
303.157	4.17
303.527	4.22
303.897	4.26
304.267	4.33
304.637	4.26
305.008	4.28
305.378	4.42
305.748	4.5
306.117	4.3
306.487	4.22
306.857	4.28
307.227	4.2
307.597	4.07
307.967	4.05
308.336	4.1
308.706	4.1
309.076	4.21
309.445	4.16
309.815	4.07
310.184	3.84
310.554	4.01
310.923	3.97
311.293	3.92
311.662	4.04
312.031	4
312.401	3.96
312.77	4.03
313.139	4.16
313.508	4.2
313.877	4.24
314.246	4.28
314.616	4.22
314.985	4.31
315.353	4.46
315.722	4.47
316.091	4.43
316.46	4.36
316.829	4.28
317.198	4.33
317.567	4.38
317.935	4.42
318.304	4.16
318.672	4.08
319.041	4.23
319.41	4.13
319.778	4.11
320.147	4.26
320.515	4.29
320.883	4.18
321.252	4.07
321.62	4.11
321.988	3.98
322.357	4.06
322.725	3.99
323.093	3.88
323.461	3.89
323.829	3.93
324.197	4.02
324.565	4.02
324.933	4
325.301	3.98
325.669	4
326.037	4.06
326.405	4.12
326.772	4.04
327.14	4.22
327.508	4.37
327.875	4.18
328.243	4.16
328.61	4.15
328.978	4.2
329.346	4.29
329.713	4.4
330.08	4.36
330.448	4.31
330.815	4.19
331.182	4.25
331.55	4.23
331.917	4.26
332.284	4.32
332.651	4.28
333.018	4.36
333.385	4.41
333.752	4.6
334.119	4.62
334.486	4.48
334.853	4.28
335.22	4.24
335.587	4.47
335.954	4.46
336.32	4.42
336.687	4.46
337.054	4.39
337.42	4.34
337.787	4.33
338.153	4.38
338.52	4.53
338.886	4.36
339.253	4.38
339.619	4.38
339.986	4.31
340.352	4.41
340.718	4.32
341.084	4.21
341.451	4.26
341.817	4.18
342.183	4.25
342.549	4.26
342.915	4.24
343.281	4.18
343.647	4.09
344.013	4.1
344.379	4.09
344.745	4.13
345.11	4.21
345.476	4.26
345.842	4.24
346.208	4.25
346.573	4.32
346.939	4.31
347.304	4.35
347.67	4.4
348.035	4.34
348.401	4.32
348.766	4.4
349.132	4.27
349.497	4.27
349.862	4.32
350.228	4.34
350.593	4.25
350.958	4.1
351.323	4.1
351.688	4.07
352.053	4.03
352.418	4.08
352.783	3.96
353.148	3.94
353.513	3.93
353.878	3.9
354.243	4.04
354.608	4.13
354.972	4.1
355.337	4.07
355.702	4.13
356.066	4.19
356.431	4.13
356.795	4.15
357.16	4.19
357.524	4.19
357.889	4.17
358.253	4.31
358.618	4.42
358.982	4.37
359.346	4.37
359.71	4.42
360.075	4.37
360.439	4.42
360.803	4.35
361.167	4.36
361.531	4.37
361.895	4.28
362.259	4.2
362.623	4.15
362.987	4.17
363.351	4.11
363.714	4.11
364.078	4.15
364.442	4.16
364.806	4.16
365.169	4.15
365.533	4.23
365.896	4.14
366.26	4.14
366.623	4.2
366.987	4.2
367.35	4.17
367.714	4.18
368.077	4.11
368.44	4.17
368.803	4.12
369.167	4.13
369.53	4.07
369.893	4.05
370.256	4.08
370.619	4.06
370.982	4.07
371.345	4.04
371.708	4
372.071	3.98
372.434	3.89
372.797	3.95
373.159	3.86
373.522	3.88
373.885	3.94
374.247	3.94
374.61	3.94
374.973	3.91
375.335	3.87
375.698	3.9
376.06	3.89
376.423	3.92
376.785	3.87
377.147	3.88
377.51	3.9
377.872	3.89
378.234	3.88
378.596	3.92
378.958	3.92
379.321	3.92
379.683	3.94
380.045	3.96
380.407	3.89
380.769	3.88
381.13	3.88
381.492	3.76
381.854	3.75
382.216	3.77
382.578	3.76
382.939	3.76
383.301	3.73
383.663	3.7
384.024	3.71
384.386	3.76
384.747	3.82
385.109	3.81
385.47	3.82
385.832	3.84
386.193	3.84
386.554	3.78
386.916	3.81
387.277	3.78
387.638	3.81
387.999	3.79
388.36	3.8
388.721	3.82
389.082	3.91
389.443	3.91
389.804	3.89
390.165	3.89
390.526	3.92
390.887	3.94
391.248	3.96
391.609	3.98
391.969	3.97
392.33	3.94
392.691	3.92
393.051	3.94
393.412	3.97
393.772	3.93
394.133	3.98
394.493	3.96
394.854	3.97
395.214	4
395.574	4.05
395.935	4.09
396.295	4.1
396.655	4.07
397.015	4.09
397.376	4.13
397.736	4.13
398.096	4.11
398.456	4.13
398.816	4.12
399.176	4.05
399.535	4.1
399.895	4.09
400.255	4.1
400.615	4.07
400.975	4.07
401.334	4.05
401.694	4.04
402.054	4.04
402.413	4.03
402.773	3.99
403.132	3.94
403.492	3.91
403.851	3.9
404.211	3.88
404.57	3.85
404.929	3.86
405.288	3.85
405.648	3.87
406.007	3.86
406.366	3.85
406.725	3.91
407.084	3.92
407.443	3.9
407.802	3.9
408.161	3.92
408.52	3.88
408.879	3.88
409.238	3.91
409.596	3.93
409.955	3.92
410.314	3.94
410.673	3.94
411.031	3.94
411.39	3.93
411.748	3.9
412.107	3.91
412.465	3.89
412.824	3.91
413.182	3.9
413.54	3.9
413.899	3.9
414.257	3.89
414.615	3.86
414.974	3.9
415.332	3.91
415.69	3.92
416.048	3.91
416.406	3.92
416.764	3.9
417.122	3.9
417.48	3.92
417.838	3.91
418.195	3.91
418.553	3.91
418.911	3.92
419.269	3.97
419.626	3.96
419.984	3.96
420.342	3.95
420.699	3.94
421.057	3.94
421.414	3.94
421.772	3.92
422.129	3.92
422.486	3.9
422.844	3.91
423.201	3.9
423.558	3.9
423.915	3.91
424.273	3.92
424.63	3.93
424.987	3.93
425.344	3.93
425.701	3.94
426.058	3.94
426.415	3.92
426.772	3.9
427.128	3.92
427.485	3.91
427.842	3.91
428.199	3.92
428.555	3.93
428.912	3.93
429.269	3.94
429.625	3.93
429.982	3.93
430.338	3.89
430.695	3.89
431.051	3.89
431.407	3.89
431.764	3.87
432.12	3.82
432.476	3.82
432.832	3.81
433.189	3.82
433.545	3.82
433.901	3.84
434.257	3.83
434.613	3.85
434.969	3.85
435.325	3.85
435.681	3.86
436.036	3.84
436.392	3.85
436.748	3.85
437.104	3.85
437.459	3.86
437.815	3.88
438.171	3.89
438.526	3.88
438.882	3.87
439.237	3.89
439.593	3.91
439.948	3.91
440.304	3.9
440.659	3.89
441.014	3.89
441.369	3.88
441.725	3.86
442.08	3.83
442.435	3.83
442.79	3.83
443.145	3.82
443.5	3.83
443.855	3.83
444.21	3.83
444.565	3.84
444.92	3.85
445.275	3.82
445.629	3.81
445.984	3.81
446.339	3.81
446.693	3.79
447.048	3.79
447.403	3.78
447.757	3.78
448.112	3.78
448.466	3.77
448.82	3.76
449.175	3.78
449.529	3.78
449.883	3.77
450.238	3.76
450.592	3.77
450.946	3.75
451.3	3.74
451.654	3.73
452.008	3.73
452.362	3.71
452.716	3.74
453.07	3.74
453.424	3.74
453.778	3.73
454.132	3.74
454.486	3.7
454.839	3.72
455.193	3.73
455.547	3.72
455.9	3.74
456.254	3.75
456.607	3.74
456.961	3.75
457.314	3.74
457.668	3.74
458.021	3.73
458.375	3.74
458.728	3.75
459.081	3.76
459.434	3.76
459.787	3.77
460.141	3.76
460.494	3.77
460.847	3.78
461.2	3.79
461.553	3.81
461.906	3.84
462.259	3.85
462.611	3.86
462.964	3.86
463.317	3.86
463.67	3.87
464.022	3.88
464.375	3.87
464.728	3.9
465.08	3.9
465.433	3.92
465.785	3.94
466.138	3.93
466.49	3.93
466.843	3.91
467.195	3.93
467.547	3.93
467.899	3.94
468.252	3.94
468.604	3.95
468.956	3.92
469.308	3.91
469.66	3.89
470.012	3.89
470.364	3.91
470.716	3.93
471.068	3.92
471.42	3.93
471.772	3.97
472.123	3.99
472.475	3.99
472.827	3.98
473.178	3.96
473.53	3.98
473.882	3.98
474.233	3.98
474.585	3.96
474.936	3.97
475.288	3.97
475.639	4
475.99	3.99
476.342	4
476.693	4.01
477.044	4.04
477.395	4.02
477.746	4.02
478.097	4
478.448	4.01
478.8	4.02
479.15	3.99
479.501	4
479.852	4
480.203	4.01
480.554	4.02
480.905	4.02
481.255	4.03
481.606	4.03
481.957	4.04
482.307	4.04
482.658	4.03
483.009	4.02
483.359	4.03
483.709	4.03
484.06	4.03
484.41	4.03
484.761	4.04
485.111	4.04
485.461	4.04
485.811	4.04
486.162	4.03
486.512	4.04
486.862	4.03
487.212	4.03
487.562	4.03
487.912	4.03
488.262	4.03
488.612	4.03
488.961	4.04
489.311	4.03
489.661	4.03
490.011	4.04
490.36	4.05
490.71	4.05
491.06	4.06
491.409	4.07
491.759	4.06
492.108	4.04
492.458	4.04
492.807	4.05
493.157	4.05
493.506	4.07
493.855	4.07
494.204	4.08
494.554	4.1
494.903	4.08
495.252	4.08
495.601	4.1
495.95	4.11
496.299	4.12
496.648	4.13
496.997	4.13
497.346	4.15
497.695	4.17
498.043	4.16
498.392	4.15
498.741	4.14
499.09	4.13
499.438	4.17
499.787	4.18
500.135	4.19
500.484	4.21
500.832	4.22
501.181	4.24
501.529	4.23
501.878	4.24
502.226	4.28
502.574	4.29
502.923	4.27
503.271	4.27
503.619	4.29
503.967	4.29
504.315	4.31
504.663	4.29
505.011	4.3
505.359	4.3
505.707	4.33
506.055	4.35
506.403	4.39
506.751	4.39
507.098	4.41
507.446	4.43
507.794	4.42
508.141	4.42
508.489	4.41
508.837	4.44
509.184	4.45
509.531	4.45
509.879	4.48
510.226	4.5
510.574	4.53
510.921	4.53
511.268	4.52
511.616	4.54
511.963	4.57
512.31	4.57
512.657	4.58
513.004	4.6
513.351	4.63
513.698	4.67
514.045	4.68
514.392	4.66
514.739	4.67
515.086	4.69
515.432	4.7
515.779	4.71
516.126	4.71
516.473	4.73
516.819	4.74
517.166	4.74
517.512	4.75
517.859	4.73
518.205	4.73
518.552	4.75
518.898	4.74
519.245	4.74
519.591	4.75
519.937	4.73
520.283	4.74
520.629	4.72
520.976	4.7
521.322	4.7
521.668	4.7
522.014	4.7
522.36	4.7
522.706	4.71
523.052	4.73
523.398	4.75
523.743	4.75
524.089	4.75
524.435	4.75
524.781	4.75
525.126	4.76
525.472	4.78
525.817	4.77
526.163	4.77
526.509	4.78
526.854	4.77
527.199	4.78
527.545	4.77
527.89	4.78
528.235	4.79
528.581	4.79
528.926	4.8
529.271	4.8
529.616	4.8
529.961	4.8
530.306	4.79
530.651	4.78
530.996	4.78
531.341	4.78
531.686	4.79
532.031	4.79
532.376	4.79
532.721	4.8
533.065	4.82
533.41	4.82
533.755	4.83
534.099	4.85
534.444	4.86
534.788	4.87
535.133	4.87
535.477	4.87
535.822	4.88
536.166	4.89
536.51	4.9
536.855	4.91
537.199	4.92
537.543	4.94
537.887	4.94
538.231	4.95
538.576	4.96
538.92	4.95
539.264	4.96
539.608	4.96
539.951	4.94
540.295	4.93
540.639	4.93
540.983	4.92
541.327	4.91
541.671	4.91
542.014	4.91
542.358	4.9
542.701	4.91
543.045	4.91
543.389	4.9
543.732	4.91
544.075	4.92
544.419	4.91
544.762	4.92
545.105	4.93
545.449	4.93
545.792	4.92
546.135	4.93
546.478	4.94
546.821	4.95
547.165	4.97
547.508	4.97
547.851	4.98
548.194	4.98
548.536	4.98
548.879	5.02
549.222	5.03
549.565	5.05
549.908	5.07
550.25	5.1
550.593	5.12
550.936	5.1
551.278	5.1
551.621	5.09
551.963	5.1
552.306	5.12
552.648	5.1
552.991	5.12
553.333	5.1
553.675	5.11
554.017	5.11
554.36	5.09
554.702	5.1
555.044	5.11
555.386	5.12
555.728	5.12
556.07	5.06
556.412	5.02
556.754	5.03
557.096	4.97
557.438	4.95
557.78	4.95
558.121	4.96
558.463	4.94
558.805	4.93
559.147	4.93
559.488	4.94
559.83	4.94
560.171	4.94
560.513	4.99
560.854	4.96
561.196	4.95
561.537	4.98
561.878	4.98
562.22	4.97
562.561	4.97
562.902	4.99
563.243	5.02
563.584	5.06
563.925	5.04
564.266	5.05
564.607	5.04
564.948	5.05
565.289	5.04
565.63	5.09
565.971	5.08
566.312	5.09
566.653	5.07
566.993	5.09
567.334	5.09
567.675	5.09
568.015	5.1
568.356	5.09
568.696	5.1
569.037	5.1
569.377	5.1
569.718	5.12
570.058	5.1
570.398	5.11
570.739	5.09
571.079	5.12
571.419	5.13
571.759	5.14
572.099	5.12
572.439	5.13
572.779	5.13
573.119	5.16
573.459	5.18
573.799	5.22
574.139	5.18
574.479	5.17
574.819	5.15
575.158	5.16
575.498	5.19
575.838	5.18
576.177	5.15
576.517	5.17
576.856	5.16
577.196	5.18
577.535	5.18
577.875	5.21
578.214	5.19
578.553	5.21
578.893	5.23
579.232	5.22
579.571	5.22
579.91	5.21
580.25	5.16
580.589	5.12
580.928	5.07
581.267	5.09
581.606	5.07
581.945	5.05
582.283	5.03
582.622	5.02
582.961	5.02
583.3	5.08
583.639	5.08
583.977	5.1
584.316	5.11
584.654	5.05
584.993	5.05
585.332	5.08
585.67	5.09
586.008	5.12
586.347	5.14
586.685	5.12
587.024	5.12
587.362	5.16
587.7	5.16
588.038	5.22
588.376	5.23
588.715	5.28
589.053	5.32
589.391	5.36
589.729	5.39
590.067	5.4
590.404	5.38
590.742	5.4
591.08	5.37
591.418	5.38
591.756	5.44
592.093	5.44
592.431	5.42
592.769	5.43
593.106	5.39
593.444	5.38
593.781	5.41
594.119	5.46
594.456	5.39
594.793	5.41
595.131	5.37
595.468	5.39
595.805	5.38
596.143	5.37
596.48	5.31
596.817	5.28
597.154	5.28
597.491	5.25
597.828	5.21
598.165	5.22
598.502	5.19
598.839	5.17
599.176	5.19
599.512	5.19
599.849	5.17
600.186	5.16
600.523	5.22
600.859	5.25
601.196	5.22
601.532	5.3
601.869	5.31
602.205	5.31
602.542	5.35
602.878	5.35
603.215	5.35
603.551	5.39
603.887	5.39
604.223	5.34
604.56	5.38
604.896	5.43
605.232	5.45
605.568	5.47
605.904	5.51
606.24	5.54
606.576	5.55
606.912	5.54
607.248	5.58
607.583	5.54
607.919	5.51
608.255	5.51
608.591	5.51
608.926	5.5
609.262	5.52
609.597	5.5
609.933	5.5
610.268	5.54
610.604	5.56
610.939	5.58
611.275	5.62
611.61	5.62
611.945	5.58
612.281	5.6
612.616	5.56
612.951	5.52
613.286	5.47
613.621	5.49
613.956	5.52
614.291	5.54
614.626	5.59
614.961	5.56
615.296	5.56
615.631	5.58
615.966	5.58
616.3	5.6
616.635	5.58
616.97	5.6
617.304	5.56
617.639	5.53
617.973	5.56
618.308	5.53
618.642	5.55
618.977	5.57
619.311	5.53
619.646	5.56
619.98	5.61
620.314	5.63
620.648	5.67
620.983	5.66
621.317	5.63
621.651	5.61
621.985	5.69
622.319	5.68
622.653	5.69
622.987	5.7
623.321	5.67
623.655	5.65
623.988	5.67
624.322	5.63
624.656	5.66
624.99	5.71
625.323	5.77
625.657	5.8
625.99	5.81
626.324	5.83
626.657	5.86
626.991	5.86
627.324	5.84
627.658	5.79
627.991	5.81
628.324	5.8
628.657	5.81
628.991	5.76
629.324	5.79
629.657	5.76
629.99	5.79
630.323	5.76
630.656	5.78
630.989	5.78
631.322	5.86
631.655	5.84
631.987	5.81
632.32	5.77
632.653	5.68
632.986	5.65
633.318	5.69
633.651	5.65
633.984	5.59
634.316	5.56
634.649	5.58
634.981	5.53
635.313	5.56
635.646	5.5
635.978	5.5
636.31	5.41
636.643	5.41
636.975	5.41
637.307	5.41
637.639	5.36
637.971	5.36
638.303	5.38
638.635	5.35
638.967	5.31
639.299	5.36
639.631	5.38
639.963	5.4
640.295	5.42
640.626	5.44
640.958	5.51
641.29	5.51
641.621	5.48
641.953	5.49
642.285	5.51
642.616	5.55
642.948	5.53
643.279	5.62
643.61	5.64
643.942	5.63
644.273	5.67
644.604	5.69
644.936	5.64
645.267	5.52
645.598	5.6
645.929	5.68
646.26	5.65
646.591	5.67
646.922	5.63
647.253	5.59
647.584	5.65
647.915	5.6
648.245	5.68
648.576	5.7
648.907	5.72
649.238	5.66
649.568	5.73
649.899	5.79
650.229	5.78
650.56	5.76
650.89	5.73
651.221	5.75
651.551	5.79
651.882	5.84
652.212	5.92
652.542	5.89
652.872	5.89
653.203	5.84
653.533	5.91
653.863	5.95
654.193	5.91
654.523	5.92
654.853	5.96
655.183	5.95
655.513	5.93
655.843	5.92
656.172	5.94
656.502	5.89
656.832	5.88
657.162	5.92
657.491	5.91
657.821	5.95
658.15	5.95
658.48	5.92
658.809	5.88
659.139	5.83
659.468	5.8
659.798	5.76
660.127	5.81
660.456	5.78
660.785	5.76
661.115	5.77
661.444	5.73
661.773	5.67
662.102	5.68
662.431	5.74
662.76	5.76
663.089	5.72
663.418	5.74
663.747	5.67
664.076	5.63
664.404	5.65
664.733	5.63
665.062	5.69
665.39	5.73
665.719	5.8
666.048	5.88
666.376	5.96
666.705	6
667.033	5.98
667.362	6.01
667.69	6.05
668.018	6.17
668.347	6.15
668.675	6.21
669.003	6.23
669.331	6.23
669.659	6.22
669.987	6.21
670.315	6.19
670.643	6.23
670.971	6.29
671.299	6.36
671.627	6.38
671.955	6.26
672.283	6.26
672.61	6.23
672.938	6.18
673.266	6.07
673.593	6.11
673.921	6.12
674.249	6.09
674.576	6.08
674.904	6.09
675.231	6.07
675.558	6.12
675.886	6.13
676.213	6.16
676.54	6.2
676.867	6.3
677.195	6.3
677.522	6.3
677.849	6.35
678.176	6.3
678.503	6.25
