Data from BU26946_Reflection_00015.txt Node
Date: Tue Nov 19 10:52:19 EST 2019
User: vgr7
Spectrometer: USB2G7710
Scans to average: 3
Trigger mode: 4
Integration Time (sec): 2.000000E-2
Electric dark correction enabled: true
Boxcar width: 10
XAxis mode: Wavelengths
Number of Pixels in Spectrum: 2048
>>>>>Begin Spectral Data<<<<<
177.721	-112.17
178.105	-291.89
178.488	-161.61
178.871	-236.84
179.254	342.86
179.636	-220.75
180.019	-376.74
180.402	221.43
180.785	-415.38
181.168	90.43
181.55	-24.28
181.933	-30.07
182.316	-88.39
182.698	-39.16
183.081	-74.01
183.463	-26.87
183.846	-14.91
184.228	-72.24
184.611	-365.03
184.993	-283.64
185.376	-995.74
185.758	166.79
186.14	92.31
186.522	96.04
186.904	73.55
187.287	83.12
187.669	83.25
188.051	203.02
188.433	138.79
188.815	72.42
189.197	67.52
189.579	35.6
189.961	4.78
190.342	1.17
190.724	-20.69
191.106	-11.99
191.488	1.26
191.869	2.58
192.251	-3.24
192.633	-4.43
193.014	-2.91
193.396	-3.06
193.777	9.57
194.159	8.15
194.54	2.37
194.922	7.54
195.303	-7.04
195.684	-41.92
196.065	-39.87
196.447	-37.86
196.828	-25.07
197.209	-11.53
197.59	3.7
197.971	15.37
198.352	18.34
198.733	41.5
199.114	22.25
199.495	11.7
199.876	20.27
200.257	8.15
200.638	17.86
201.018	1.55
201.399	-2.89
201.78	-22.75
202.16	-34.07
202.541	-55.69
202.922	-64.88
203.302	-67.53
203.683	-55.95
204.063	-35.91
204.444	-28.68
204.824	-33.42
205.204	-38.75
205.585	-49.85
205.965	-48.46
206.345	-48.65
206.725	-32.31
207.106	-32.55
207.486	-32.6
207.866	-37.83
208.246	-31.68
208.626	-39.58
209.006	-34.15
209.386	-29.12
209.766	-26.36
210.145	-12.96
210.525	-7.7
210.905	-4.68
211.285	2.31
211.664	9.77
212.044	7.13
212.424	3.88
212.803	-0.49
213.183	3.2
213.562	10.33
213.942	11.47
214.321	11.73
214.701	6.26
215.08	8.16
215.459	16.86
215.838	29.02
216.218	8.87
216.597	7.02
216.976	4.71
217.355	7.38
217.734	1.32
218.113	16.13
218.492	11.92
218.871	27.01
219.25	24.68
219.629	28.3
220.008	59.43
220.387	41.86
220.766	47.05
221.144	49.96
221.523	36.59
221.902	50.76
222.28	37
222.659	36.97
223.037	33.21
223.416	23.4
223.794	15.69
224.173	28.3
224.551	14.28
224.929	17.29
225.308	17.86
225.686	14.34
226.064	2.47
226.442	5.35
226.821	3.29
227.199	4.16
227.577	8.14
227.955	5.5
228.333	5.22
228.711	4.93
229.089	3.99
229.467	5.39
229.845	5.43
230.222	4.58
230.6	2.4
230.978	2.2
231.356	3.72
231.733	5.56
232.111	5.88
232.488	9.11
232.866	9.2
233.243	8.69
233.621	10.44
233.998	12.37
234.376	13.49
234.753	14.09
235.13	13.83
235.508	12.3
235.885	10.73
236.262	11.26
236.639	10.31
237.016	9.66
237.393	9.22
237.77	7.71
238.147	8.02
238.524	8.84
238.901	8.77
239.278	7.41
239.655	6.27
240.032	6.12
240.409	5.14
240.785	5.32
241.162	4.51
241.539	4.4
241.915	4.3
242.292	4.52
242.668	4.05
243.045	4.02
243.421	4.16
243.798	4.67
244.174	4.69
244.551	4.87
244.927	5
245.303	4.77
245.679	4.78
246.056	4.67
246.432	4.32
246.808	4.46
247.184	4.72
247.56	4.78
247.936	4.65
248.312	4.7
248.688	4.52
249.064	4.58
249.44	4.6
249.815	4.52
250.191	4.41
250.567	4.33
250.943	4.45
251.318	4.3
251.694	3.91
252.069	3.91
252.445	3.85
252.82	3.92
253.196	4.03
253.571	4.44
253.947	4.69
254.322	4.72
254.697	4.46
255.073	4.57
255.448	4.45
255.823	4.55
256.198	4.75
256.573	4.75
256.948	4.82
257.323	4.81
257.698	4.78
258.073	4.67
258.448	4.9
258.823	4.6
259.198	4.59
259.573	4.66
259.948	4.64
260.322	4.57
260.697	4.47
261.072	4.52
261.446	4.28
261.821	4.12
262.195	4.21
262.57	4.34
262.944	4.12
263.319	4.22
263.693	4.2
264.067	4.11
264.442	4.06
264.816	4.04
265.19	4
265.564	4.05
265.938	3.91
266.313	3.63
266.687	3.72
267.061	3.82
267.435	3.92
267.809	3.95
268.183	4.09
268.556	3.95
268.93	3.95
269.304	4.12
269.678	4.17
270.051	4.21
270.425	4.03
270.799	3.99
271.172	4.12
271.546	4.16
271.919	4.13
272.293	4.16
272.666	4.01
273.04	4.01
273.413	3.92
273.787	3.97
274.16	3.99
274.533	4.3
274.906	4.18
275.279	4.11
275.653	4.08
276.026	4.09
276.399	4.15
276.772	4.15
277.145	4.12
277.518	4.06
277.891	4.1
278.263	4.1
278.636	4.1
279.009	4
279.382	3.99
279.755	3.92
280.127	3.87
280.5	4.04
280.872	4.05
281.245	4.09
281.617	4.19
281.99	4.21
282.362	3.96
282.735	3.98
283.107	4.08
283.479	4.09
283.852	4.07
284.224	4.24
284.596	4.25
284.968	4.15
285.34	4.21
285.713	4.12
286.085	4.16
286.457	4.24
286.829	4.22
287.201	4.31
287.572	4.48
287.944	4.6
288.316	4.55
288.688	4.61
289.06	4.6
289.431	4.62
289.803	4.78
290.175	4.8
290.546	4.81
290.918	4.75
291.289	4.77
291.661	4.77
292.032	4.61
292.403	4.56
292.775	4.69
293.146	4.79
293.517	4.78
293.889	4.86
294.26	4.9
294.631	4.94
295.002	4.88
295.373	4.76
295.744	4.78
296.115	4.8
296.486	4.85
296.857	4.9
297.228	4.73
297.599	4.68
297.97	4.79
298.34	4.93
298.711	5.04
299.082	5.04
299.452	5.07
299.823	5.22
300.194	5.28
300.564	5.27
300.935	5.39
301.305	5.53
301.676	5.55
302.046	5.49
302.416	5.5
302.787	5.63
303.157	5.75
303.527	5.83
303.897	5.87
304.267	5.95
304.637	6.1
305.008	6.25
305.378	6.34
305.748	6.37
306.117	6.28
306.487	6.36
306.857	6.55
307.227	6.6
307.597	6.61
307.967	6.67
308.336	6.79
308.706	6.67
309.076	6.72
309.445	6.85
309.815	6.94
310.184	7.08
310.554	7.15
310.923	7.16
311.293	7.17
311.662	7.41
312.031	7.4
312.401	7.48
312.77	7.6
313.139	7.62
313.508	7.71
313.877	7.93
314.246	7.93
314.616	7.9
314.985	7.89
315.353	8.05
315.722	8.23
316.091	8.14
316.46	8.39
316.829	8.42
317.198	8.54
317.567	8.89
317.935	8.91
318.304	9.03
318.672	9.07
319.041	9.22
319.41	9.16
319.778	9.22
320.147	9.16
320.515	9.3
320.883	9.37
321.252	9.38
321.62	9.35
321.988	9.46
322.357	9.46
322.725	9.64
323.093	9.53
323.461	9.5
323.829	9.63
324.197	9.57
324.565	9.67
324.933	9.63
325.301	9.47
325.669	9.52
326.037	9.36
326.405	9.42
326.772	9.47
327.14	9.59
327.508	9.74
327.875	9.81
328.243	9.92
328.61	9.97
328.978	9.96
329.346	10.05
329.713	10.22
330.08	10.36
330.448	10.55
330.815	10.71
331.182	10.79
331.55	10.95
331.917	10.88
332.284	11.1
332.651	11.05
333.018	11.11
333.385	11.17
333.752	11.49
334.119	11.61
334.486	11.62
334.853	11.58
335.22	11.51
335.587	11.59
335.954	11.5
336.32	11.42
336.687	11.53
337.054	11.57
337.42	11.47
337.787	11.53
338.153	11.42
338.52	11.51
338.886	11.6
339.253	11.53
339.619	11.61
339.986	11.42
340.352	11.56
340.718	11.61
341.084	11.69
341.451	11.62
341.817	11.64
342.183	11.59
342.549	11.52
342.915	11.54
343.281	11.49
343.647	11.53
344.013	11.67
344.379	11.69
344.745	11.67
345.11	11.7
345.476	11.74
345.842	11.85
346.208	11.82
346.573	11.84
346.939	11.96
347.304	12.09
347.67	12.18
348.035	12.08
348.401	12.06
348.766	11.88
349.132	11.87
349.497	11.97
349.862	11.98
350.228	12.02
350.593	12.01
350.958	12.02
351.323	12.02
351.688	12.12
352.053	12.07
352.418	12
352.783	11.97
353.148	11.97
353.513	11.83
353.878	11.89
354.243	11.73
354.608	11.75
354.972	11.66
355.337	11.62
355.702	11.62
356.066	11.65
356.431	11.76
356.795	11.74
357.16	11.67
357.524	11.63
357.889	11.64
358.253	11.6
358.618	11.6
358.982	11.57
359.346	11.43
359.71	11.47
360.075	11.46
360.439	11.49
360.803	11.42
361.167	11.48
361.531	11.36
361.895	11.42
362.259	11.32
362.623	11.29
362.987	11.3
363.351	11.26
363.714	11.21
364.078	11.19
364.442	11.1
364.806	11.07
365.169	11.08
365.533	11.02
365.896	11.02
366.26	10.96
366.623	10.96
366.987	10.99
367.35	10.89
367.714	10.82
368.077	10.8
368.44	10.81
368.803	10.59
369.167	10.55
369.53	10.47
369.893	10.46
370.256	10.44
370.619	10.31
370.982	10.24
371.345	10.16
371.708	10.09
372.071	10.01
372.434	9.9
372.797	9.92
373.159	9.83
373.522	9.75
373.885	9.75
374.247	9.67
374.61	9.59
374.973	9.53
375.335	9.49
375.698	9.32
376.06	9.2
376.423	9.2
376.785	9.09
377.147	9.02
377.51	8.88
377.872	8.82
378.234	8.81
378.596	8.76
378.958	8.71
379.321	8.56
379.683	8.49
380.045	8.39
380.407	8.29
380.769	8.25
381.13	8.17
381.492	8.04
381.854	7.93
382.216	7.85
382.578	7.77
382.939	7.68
383.301	7.63
383.663	7.58
384.024	7.59
384.386	7.55
384.747	7.45
385.109	7.44
385.47	7.38
385.832	7.27
386.193	7.2
386.554	7.14
386.916	7.15
387.277	7.15
387.638	7.15
387.999	7.07
388.36	7.04
388.721	7.02
389.082	7.01
389.443	6.96
389.804	6.95
390.165	6.88
390.526	6.86
390.887	6.8
391.248	6.75
391.609	6.73
391.969	6.7
392.33	6.7
392.691	6.61
393.051	6.59
393.412	6.55
393.772	6.53
394.133	6.45
394.493	6.4
394.854	6.35
395.214	6.26
395.574	6.21
395.935	6.13
396.295	6.07
396.655	5.98
397.015	5.93
397.376	5.84
397.736	5.77
398.096	5.7
398.456	5.63
398.816	5.54
399.176	5.45
399.535	5.41
399.895	5.33
400.255	5.3
400.615	5.22
400.975	5.17
401.334	5.13
401.694	5.14
402.054	5.12
402.413	5.08
402.773	5.04
403.132	5.05
403.492	5.03
403.851	5
404.211	4.98
404.57	4.96
404.929	4.91
405.288	4.94
405.648	4.96
406.007	4.96
406.366	4.96
406.725	4.95
407.084	4.95
407.443	4.95
407.802	4.93
408.161	4.93
408.52	4.93
408.879	4.91
409.238	4.9
409.596	4.85
409.955	4.86
410.314	4.85
410.673	4.82
411.031	4.8
411.39	4.77
411.748	4.79
412.107	4.77
412.465	4.77
412.824	4.77
413.182	4.71
413.54	4.71
413.899	4.7
414.257	4.66
414.615	4.63
414.974	4.64
415.332	4.62
415.69	4.59
416.048	4.56
416.406	4.52
416.764	4.49
417.122	4.48
417.48	4.46
417.838	4.43
418.195	4.41
418.553	4.39
418.911	4.37
419.269	4.32
419.626	4.3
419.984	4.27
420.342	4.22
420.699	4.2
421.057	4.17
421.414	4.14
421.772	4.13
422.129	4.12
422.486	4.09
422.844	4.08
423.201	4.05
423.558	4.02
423.915	4.01
424.273	4
424.63	3.98
424.987	3.96
425.344	3.96
425.701	3.92
426.058	3.89
426.415	3.88
426.772	3.87
427.128	3.86
427.485	3.87
427.842	3.86
428.199	3.86
428.555	3.86
428.912	3.85
429.269	3.84
429.625	3.8
429.982	3.79
430.338	3.79
430.695	3.79
431.051	3.8
431.407	3.81
431.764	3.8
432.12	3.82
432.476	3.84
432.832	3.84
433.189	3.86
433.545	3.87
433.901	3.88
434.257	3.87
434.613	3.87
434.969	3.87
435.325	3.88
435.681	3.89
436.036	3.87
436.392	3.9
436.748	3.89
437.104	3.9
437.459	3.89
437.815	3.89
438.171	3.9
438.526	3.91
438.882	3.89
439.237	3.89
439.593	3.88
439.948	3.85
440.304	3.84
440.659	3.83
441.014	3.83
441.369	3.82
441.725	3.81
442.08	3.82
442.435	3.82
442.79	3.81
443.145	3.82
443.5	3.8
443.855	3.78
444.21	3.77
444.565	3.75
444.92	3.75
445.275	3.75
445.629	3.73
445.984	3.71
446.339	3.71
446.693	3.72
447.048	3.7
447.403	3.69
447.757	3.68
448.112	3.68
448.466	3.67
448.82	3.66
449.175	3.66
449.529	3.64
449.883	3.63
450.238	3.61
450.592	3.62
450.946	3.62
451.3	3.61
451.654	3.64
452.008	3.66
452.362	3.64
452.716	3.64
453.07	3.63
453.424	3.63
453.778	3.62
454.132	3.6
454.486	3.61
454.839	3.6
455.193	3.6
455.547	3.6
455.9	3.6
456.254	3.61
456.607	3.61
456.961	3.61
457.314	3.59
457.668	3.59
458.021	3.57
458.375	3.59
458.728	3.59
459.081	3.58
459.434	3.57
459.787	3.58
460.141	3.58
460.494	3.59
460.847	3.61
461.2	3.63
461.553	3.63
461.906	3.64
462.259	3.63
462.611	3.64
462.964	3.67
463.317	3.69
463.67	3.7
464.022	3.7
464.375	3.72
464.728	3.74
465.08	3.77
465.433	3.79
465.785	3.8
466.138	3.81
466.49	3.83
466.843	3.85
467.195	3.86
467.547	3.87
467.899	3.9
468.252	3.9
468.604	3.9
468.956	3.91
469.308	3.92
469.66	3.97
470.012	3.98
470.364	3.97
470.716	4
471.068	4.01
471.42	4.03
471.772	4.04
472.123	4.08
472.475	4.07
472.827	4.09
473.178	4.09
473.53	4.12
473.882	4.14
474.233	4.15
474.585	4.15
474.936	4.16
475.288	4.17
475.639	4.18
475.99	4.18
476.342	4.2
476.693	4.22
477.044	4.21
477.395	4.2
477.746	4.2
478.097	4.17
478.448	4.14
478.8	4.13
479.15	4.12
479.501	4.09
479.852	4.09
480.203	4.09
480.554	4.07
480.905	4.05
481.255	4.04
481.606	4.03
481.957	4.02
482.307	4.01
482.658	4.01
483.009	4.01
483.359	3.99
483.709	3.99
484.06	3.97
484.41	3.97
484.761	3.98
485.111	3.97
485.461	3.97
485.811	3.96
486.162	3.96
486.512	3.96
486.862	3.95
487.212	3.94
487.562	3.93
487.912	3.94
488.262	3.95
488.612	3.94
488.961	3.94
489.311	3.93
489.661	3.94
490.011	3.94
490.36	3.92
490.71	3.93
491.06	3.91
491.409	3.92
491.759	3.93
492.108	3.93
492.458	3.94
492.807	3.96
493.157	3.95
493.506	3.97
493.855	3.99
494.204	4.02
494.554	4.05
494.903	4.06
495.252	4.06
495.601	4.08
495.95	4.12
496.299	4.15
496.648	4.18
496.997	4.2
497.346	4.24
497.695	4.3
498.043	4.36
498.392	4.42
498.741	4.47
499.09	4.54
499.438	4.59
499.787	4.66
500.135	4.71
500.484	4.8
500.832	4.88
501.181	4.95
501.529	5.03
501.878	5.1
502.226	5.21
502.574	5.32
502.923	5.42
503.271	5.53
503.619	5.63
503.967	5.76
504.315	5.88
504.663	5.97
505.011	6.09
505.359	6.21
505.707	6.34
506.055	6.44
506.403	6.56
506.751	6.69
507.098	6.83
507.446	6.98
507.794	7.12
508.141	7.25
508.489	7.44
508.837	7.61
509.184	7.77
509.531	7.9
509.879	8.06
510.226	8.22
510.574	8.4
510.921	8.56
511.268	8.72
511.616	8.9
511.963	9.07
512.31	9.27
512.657	9.48
513.004	9.67
513.351	9.92
513.698	10.16
514.045	10.38
514.392	10.62
514.739	10.85
515.086	11.12
515.432	11.37
515.779	11.57
516.126	11.79
516.473	11.99
516.819	12.2
517.166	12.4
517.512	12.62
517.859	12.77
518.205	12.98
518.552	13.18
518.898	13.39
519.245	13.61
519.591	13.81
519.937	14
520.283	14.22
520.629	14.39
520.976	14.6
521.322	14.83
521.668	15.06
522.014	15.27
522.36	15.49
522.706	15.73
523.052	15.99
523.398	16.29
523.743	16.57
524.089	16.89
524.435	17.15
524.781	17.41
525.126	17.69
525.472	17.9
525.817	18.09
526.163	18.29
526.509	18.45
526.854	18.6
527.199	18.74
527.545	18.89
527.89	19.05
528.235	19.21
528.581	19.37
528.926	19.52
529.271	19.67
529.616	19.82
529.961	19.97
530.306	20.11
530.651	20.25
530.996	20.41
531.341	20.57
531.686	20.75
532.031	20.92
532.376	21.08
532.721	21.28
533.065	21.46
533.41	21.64
533.755	21.84
534.099	22.06
534.444	22.26
534.788	22.45
535.133	22.62
535.477	22.82
535.822	23
536.166	23.25
536.51	23.51
536.855	23.75
537.199	24.02
537.543	24.31
537.887	24.56
538.231	24.85
538.576	25.09
538.92	25.34
539.264	25.59
539.608	25.83
539.951	26.05
540.295	26.27
540.639	26.48
540.983	26.68
541.327	26.88
541.671	27.1
542.014	27.33
542.358	27.54
542.701	27.75
543.045	27.96
543.389	28.11
543.732	28.29
544.075	28.48
544.419	28.66
544.762	28.87
545.105	29.12
545.449	29.35
545.792	29.6
546.135	29.89
546.478	30.14
546.821	30.41
547.165	30.7
547.508	30.97
547.851	31.28
548.194	31.55
548.536	31.82
548.879	32.04
549.222	32.31
549.565	32.59
549.908	32.83
550.25	33.11
550.593	33.38
550.936	33.66
551.278	33.97
551.621	34.27
551.963	34.54
552.306	34.79
552.648	35.01
552.991	35.23
553.333	35.49
553.675	35.7
554.017	35.9
554.36	36.06
554.702	36.25
555.044	36.44
555.386	36.69
555.728	36.99
556.07	37.23
556.412	37.42
556.754	37.64
557.096	37.85
557.438	38.05
557.78	38.31
558.121	38.55
558.463	38.72
558.805	38.95
559.147	39.18
559.488	39.42
559.83	39.63
560.171	39.84
560.513	40.05
560.854	40.26
561.196	40.51
561.537	40.71
561.878	40.97
562.22	41.19
562.561	41.39
562.902	41.48
563.243	41.73
563.584	41.97
563.925	42.2
564.266	42.37
564.607	42.53
564.948	42.74
565.289	42.9
565.63	43.09
565.971	43.26
566.312	43.39
566.653	43.5
566.993	43.69
567.334	43.9
567.675	44.01
568.015	44.19
568.356	44.33
568.696	44.48
569.037	44.6
569.377	44.73
569.718	44.84
570.058	45.02
570.398	45.11
570.739	45.21
571.079	45.36
571.419	45.51
571.759	45.67
572.099	45.8
572.439	45.91
572.779	45.97
573.119	46.17
573.459	46.26
573.799	46.34
574.139	46.46
574.479	46.56
574.819	46.67
575.158	46.77
575.498	46.92
575.838	47.09
576.177	47.23
576.517	47.39
576.856	47.48
577.196	47.63
577.535	47.77
577.875	47.96
578.214	48.04
578.553	48.19
578.893	48.27
579.232	48.34
579.571	48.46
579.91	48.65
580.25	48.58
580.589	48.67
580.928	48.9
581.267	48.97
581.606	49.06
581.945	49.12
582.283	49.17
582.622	49.21
582.961	49.27
583.3	49.31
583.639	49.36
583.977	49.51
584.316	49.47
584.654	49.55
584.993	49.63
585.332	49.75
585.67	49.8
586.008	49.97
586.347	50.12
586.685	50.19
587.024	50.23
587.362	50.37
587.7	50.55
588.038	50.61
588.376	50.73
588.715	50.79
589.053	50.89
589.391	51.06
589.729	51.14
590.067	51.24
590.404	51.36
590.742	51.39
591.08	51.52
591.418	51.66
591.756	51.71
592.093	51.74
592.431	51.72
592.769	51.78
593.106	51.83
593.444	51.9
593.781	52
594.119	52.08
594.456	52.12
594.793	52.15
595.131	52.21
595.468	52.25
595.805	52.29
596.143	52.34
596.48	52.36
596.817	52.38
597.154	52.4
597.491	52.46
597.828	52.53
598.165	52.53
598.502	52.55
598.839	52.63
599.176	52.72
599.512	52.85
599.849	52.86
600.186	52.92
600.523	52.89
600.859	52.96
601.196	53.09
601.532	53.21
601.869	53.16
602.205	53.21
602.542	53.18
602.878	53.24
603.215	53.32
603.551	53.37
603.887	53.44
604.223	53.48
604.56	53.5
604.896	53.48
605.232	53.47
605.568	53.56
605.904	53.55
606.24	53.53
606.576	53.52
606.912	53.62
607.248	53.62
607.583	53.63
607.919	53.62
608.255	53.6
608.591	53.67
608.926	53.74
609.262	53.85
609.597	53.98
609.933	54.01
610.268	54.01
610.604	54
610.939	54.02
611.275	54.06
611.61	54.11
611.945	54.2
612.281	54.28
612.616	54.22
612.951	54.28
613.286	54.32
613.621	54.41
613.956	54.45
614.291	54.54
614.626	54.6
614.961	54.66
615.296	54.74
615.631	54.65
615.966	54.74
616.3	54.59
616.635	54.68
616.97	54.77
617.304	54.85
617.639	54.84
617.973	54.84
618.308	54.9
618.642	54.84
618.977	54.84
619.311	54.83
619.646	54.85
619.98	54.88
620.314	54.88
620.648	54.88
620.983	54.86
621.317	54.85
621.651	54.87
621.985	54.83
622.319	54.85
622.653	54.88
622.987	54.85
623.321	54.91
623.655	54.85
623.988	54.81
624.322	54.85
624.656	54.98
624.99	55.01
625.323	55.11
625.657	55.16
625.99	55.22
626.324	55.39
626.657	55.48
626.991	55.42
627.324	55.41
627.658	55.45
627.991	55.5
628.324	55.47
628.657	55.51
628.991	55.61
629.324	55.63
629.657	55.63
629.99	55.69
630.323	55.68
630.656	55.71
630.989	55.69
631.322	55.68
631.655	55.58
631.987	55.73
632.32	55.64
632.653	55.53
632.986	55.54
633.318	55.36
633.651	55.32
633.984	55.46
634.316	55.5
634.649	55.53
634.981	55.51
635.313	55.59
635.646	55.63
635.978	55.69
636.31	55.69
636.643	55.73
636.975	55.76
637.307	55.86
637.639	55.86
637.971	55.89
638.303	55.88
638.635	55.92
638.967	55.81
639.299	55.9
639.631	56.03
639.963	56.01
640.295	56.16
640.626	56.15
640.958	56.17
641.29	56.29
641.621	56.35
641.953	56.35
642.285	56.4
642.616	56.42
642.948	56.27
643.279	56.16
643.61	56.18
643.942	56.08
644.273	56.03
644.604	56.06
644.936	56.09
645.267	56.15
645.598	56.2
645.929	56.15
646.26	56.12
646.591	56.09
646.922	56.13
647.253	55.99
647.584	56
647.915	56.03
648.245	56.03
648.576	55.88
648.907	55.88
649.238	55.94
649.568	55.92
649.899	55.98
650.229	56.14
650.56	56.16
650.89	56.29
651.221	56.28
651.551	56.39
651.882	56.34
652.212	56.32
652.542	56.36
652.872	56.42
653.203	56.36
653.533	56.53
653.863	56.52
654.193	56.61
654.523	56.74
654.853	56.76
655.183	56.77
655.513	56.8
655.843	56.91
656.172	56.88
656.502	56.89
656.832	56.94
657.162	56.88
657.491	56.87
657.821	56.9
658.15	56.88
658.48	56.82
658.809	56.94
659.139	56.96
659.468	57.09
659.798	57.13
660.127	57.24
660.456	57.18
660.785	57.22
661.115	57.14
661.444	56.98
661.773	56.96
662.102	56.94
662.431	56.94
662.76	56.87
663.089	56.92
663.418	56.95
663.747	56.99
664.076	57.04
664.404	57.12
664.733	57.1
665.062	57.05
665.39	57.01
665.719	57
666.048	56.99
666.376	56.83
