Data from BU26849_Reflection_00002.txt Node
Date: Mon Nov 18 16:43:05 EST 2019
User: vgr7
Spectrometer: USB2G7710
Scans to average: 3
Trigger mode: 4
Integration Time (sec): 2.000000E-2
Electric dark correction enabled: true
Boxcar width: 10
XAxis mode: Wavelengths
Number of Pixels in Spectrum: 2048
>>>>>Begin Spectral Data<<<<<
177.721	-59.91
178.105	-58.13
178.488	-40.1
178.871	3.26
179.254	9.82
179.636	21.16
180.019	30.4
180.402	151.61
180.785	100
181.168	362.14
181.55	203
181.933	103.69
182.316	71.95
182.698	42.15
183.081	61.62
183.463	54.67
183.846	18.88
184.228	36.33
184.611	38.66
184.993	25.83
185.376	61.48
185.758	32.23
186.14	13.15
186.522	21.16
186.904	21.96
187.287	66.65
187.669	328.74
188.051	-750.39
188.433	-54.37
188.815	0.07
189.197	2.61
189.579	-10.31
189.961	-1.09
190.342	0.24
190.724	10.65
191.106	5.14
191.488	-10.53
191.869	-17.62
192.251	-23.79
192.633	-13.18
193.014	-25.47
193.396	-40.98
193.777	-35.51
194.159	-30.76
194.54	-55.64
194.922	-55.23
195.303	-25.87
195.684	-19.62
196.065	-21.27
196.447	-23.23
196.828	-24.11
197.209	-29.29
197.59	-27.55
197.971	-30.01
198.352	-37.95
198.733	-46.49
199.114	-36.89
199.495	-32.72
199.876	-40.43
200.257	-30.66
200.638	-32.34
201.018	-36.04
201.399	-25.74
201.78	-33.44
202.16	-38.04
202.541	-30.77
202.922	-39.61
203.302	-40.98
203.683	-53.81
204.063	-43.03
204.444	-47.89
204.824	-43.8
205.204	-33.9
205.585	-28.01
205.965	-20.59
206.345	-28.4
206.725	-39.47
207.106	-50.04
207.486	-55.62
207.866	-31.59
208.246	-47.56
208.626	-75.24
209.006	-41.75
209.386	-57.68
209.766	-29.15
210.145	-20.83
210.525	-29.47
210.905	-26.84
211.285	-22.83
211.664	-5.41
212.044	-32.46
212.424	-30.73
212.803	-40.47
213.183	-47.75
213.562	-67.01
213.942	-51.71
214.321	-32.99
214.701	-34.68
215.08	-31.28
215.459	-18.54
215.838	-23.44
216.218	-30.21
216.597	-12.65
216.976	-19.83
217.355	-13.21
217.734	-16.1
218.113	-15.61
218.492	-2.63
218.871	-2.69
219.25	-3.14
219.629	-16.1
220.008	-8.26
220.387	-10.13
220.766	-6.16
221.144	-19.61
221.523	-23.34
221.902	-31.17
222.28	-38.86
222.659	-23.89
223.037	-22.23
223.416	-28.79
223.794	-32.63
224.173	-27.89
224.551	-28.07
224.929	-33.45
225.308	-36.61
225.686	-29.27
226.064	-26.03
226.442	-30.95
226.821	-26.24
227.199	-30.89
227.577	-29.19
227.955	-23.91
228.333	-19.73
228.711	-20.44
229.089	-14.77
229.467	-15.76
229.845	-13.42
230.222	-11.54
230.6	-14.46
230.978	-14.74
231.356	-9.91
231.733	-8.3
232.111	-4.66
232.488	-4.42
232.866	-1.58
233.243	1.74
233.621	1.38
233.998	3.16
234.376	3.54
234.753	3.17
235.13	5.02
235.508	5.74
235.885	3.72
236.262	2.69
236.639	4.39
237.016	4.73
237.393	6.63
237.77	7.27
238.147	6.41
238.524	7.47
238.901	7.96
239.278	7.26
239.655	7.18
240.032	6.38
240.409	6.29
240.785	6.08
241.162	5
241.539	4.4
241.915	4.52
242.292	4.09
242.668	4.52
243.045	4.59
243.421	4.5
243.798	4.52
244.174	4.65
244.551	4.58
244.927	4.26
245.303	4.33
245.679	4.07
246.056	4.27
246.432	3.78
246.808	3.92
247.184	3.79
247.56	3.75
247.936	3.7
248.312	3.63
248.688	3.65
249.064	3.82
249.44	3.99
249.815	3.75
250.191	3.8
250.567	3.67
250.943	3.69
251.318	3.91
251.694	3.98
252.069	3.85
252.445	3.76
252.82	3.86
253.196	3.72
253.571	3.86
253.947	3.77
254.322	4.42
254.697	4.3
255.073	4.09
255.448	3.96
255.823	4.2
256.198	4.64
256.573	4.54
256.948	4.6
257.323	4.71
257.698	4.88
258.073	5
258.448	4.92
258.823	4.75
259.198	4.5
259.573	4.42
259.948	4.46
260.322	4.48
260.697	4.39
261.072	4.34
261.446	4.24
261.821	4.21
262.195	4.17
262.57	4.04
262.944	4
263.319	3.93
263.693	3.85
264.067	3.77
264.442	3.91
264.816	3.85
265.19	3.68
265.564	3.29
265.938	3.1
266.313	2.92
266.687	2.98
267.061	3.11
267.435	3.2
267.809	3.17
268.183	3.11
268.556	3.11
268.93	3.1
269.304	3.21
269.678	3.31
270.051	3.14
270.425	3.3
270.799	3.51
271.172	3.52
271.546	3.46
271.919	3.33
272.293	3.25
272.666	3.23
273.04	3.32
273.413	3.44
273.787	3.57
274.16	3.6
274.533	3.57
274.906	3.52
275.279	3.44
275.653	3.46
276.026	3.4
276.399	3.45
276.772	3.48
277.145	3.45
277.518	3.33
277.891	3.42
278.263	3.16
278.636	3.1
279.009	3.27
279.382	3.27
279.755	3.09
280.127	3.19
280.5	3.17
280.872	3.17
281.245	3.22
281.617	3.33
281.99	3.41
282.362	3.59
282.735	3.49
283.107	3.42
283.479	3.41
283.852	3.58
284.224	3.67
284.596	3.76
284.968	3.77
285.34	3.9
285.713	3.81
286.085	3.92
286.457	3.93
286.829	3.94
287.201	4
287.572	4.06
287.944	3.95
288.316	4.05
288.688	4.04
289.06	3.93
289.431	3.87
289.803	3.95
290.175	3.86
290.546	4.04
290.918	4.04
291.289	4.1
291.661	4.08
292.032	4.17
292.403	4.07
292.775	4.18
293.146	4.15
293.517	4.2
293.889	4.24
294.26	4.23
294.631	4.18
295.002	4.17
295.373	4.28
295.744	4.37
296.115	4.3
296.486	4.27
296.857	4.33
297.228	4.31
297.599	4.22
297.97	4.23
298.34	4.16
298.711	4.41
299.082	4.37
299.452	4.4
299.823	4.4
300.194	4.44
300.564	4.32
300.935	4.4
301.305	4.34
301.676	4.41
302.046	4.43
302.416	4.5
302.787	4.53
303.157	4.53
303.527	4.48
303.897	4.58
304.267	4.68
304.637	4.64
305.008	4.59
305.378	4.62
305.748	4.6
306.117	4.56
306.487	4.48
306.857	4.52
307.227	4.51
307.597	4.42
307.967	4.48
308.336	4.54
308.706	4.44
309.076	4.62
309.445	4.35
309.815	4.33
310.184	4.24
310.554	4.33
310.923	4.31
311.293	4.33
311.662	4.28
312.031	4.25
312.401	4.36
312.77	4.43
313.139	4.46
313.508	4.41
313.877	4.45
314.246	4.26
314.616	4.28
314.985	4.29
315.353	4.24
315.722	4.23
316.091	4.12
316.46	4.09
316.829	4.03
317.198	4.25
317.567	4.3
317.935	4.43
318.304	4.37
318.672	4.26
319.041	4.32
319.41	4.26
319.778	4.18
320.147	4.37
320.515	4.27
320.883	4.11
321.252	4.18
321.62	4.23
321.988	4.42
322.357	4.35
322.725	4.24
323.093	4.41
323.461	4.37
323.829	4.48
324.197	4.52
324.565	4.55
324.933	4.58
325.301	4.53
325.669	4.38
326.037	4.27
326.405	4.42
326.772	4.45
327.14	4.6
327.508	4.6
327.875	4.41
328.243	4.5
328.61	4.53
328.978	4.65
329.346	4.69
329.713	4.6
330.08	4.69
330.448	4.68
330.815	4.52
331.182	4.56
331.55	4.46
331.917	4.36
332.284	4.36
332.651	4.23
333.018	4.3
333.385	4.39
333.752	4.51
334.119	4.47
334.486	4.24
334.853	4.15
335.22	4.23
335.587	4.4
335.954	4.39
336.32	4.48
336.687	4.37
337.054	4.3
337.42	4.35
337.787	4.34
338.153	4.35
338.52	4.44
338.886	4.32
339.253	4.29
339.619	4.42
339.986	4.34
340.352	4.46
340.718	4.39
341.084	4.21
341.451	4.23
341.817	4.28
342.183	4.39
342.549	4.32
342.915	4.26
343.281	4.08
343.647	3.99
344.013	3.89
344.379	3.89
344.745	3.93
345.11	3.89
345.476	3.96
345.842	3.92
346.208	3.86
346.573	3.88
346.939	3.94
347.304	3.89
347.67	3.82
348.035	3.73
348.401	3.8
348.766	3.93
349.132	3.86
349.497	3.81
349.862	3.82
350.228	3.84
350.593	3.81
350.958	3.9
351.323	3.92
351.688	3.9
352.053	3.92
352.418	3.9
352.783	3.96
353.148	3.75
353.513	3.81
353.878	3.82
354.243	3.88
354.608	3.87
354.972	3.93
355.337	4
355.702	4.11
356.066	4.13
356.431	4.14
356.795	4.22
357.16	4.2
357.524	4.15
357.889	4.14
358.253	4.22
358.618	4.21
358.982	4.23
359.346	4.27
359.71	4.25
360.075	4.18
360.439	4.17
360.803	4.27
361.167	4.21
361.531	4.21
361.895	4.17
362.259	4.18
362.623	4.09
362.987	4.07
363.351	4.09
363.714	4.05
364.078	4
364.442	3.9
364.806	3.85
365.169	3.88
365.533	3.88
365.896	3.79
366.26	3.8
366.623	3.74
366.987	3.74
367.35	3.76
367.714	3.83
368.077	3.81
368.44	3.78
368.803	3.84
369.167	3.77
369.53	3.74
369.893	3.8
370.256	3.82
370.619	3.85
370.982	3.85
371.345	3.88
371.708	3.92
372.071	3.98
372.434	4.06
372.797	4.05
373.159	4.03
373.522	4.1
373.885	4.14
374.247	4.19
374.61	4.24
374.973	4.21
375.335	4.24
375.698	4.26
376.06	4.26
376.423	4.3
376.785	4.36
377.147	4.44
377.51	4.31
377.872	4.31
378.234	4.32
378.596	4.27
378.958	4.22
379.321	4.27
379.683	4.24
380.045	4.24
380.407	4.23
380.769	4.31
381.13	4.32
381.492	4.26
381.854	4.22
382.216	4.18
382.578	4.19
382.939	4.12
383.301	4.08
383.663	4.09
384.024	4.09
384.386	4.11
384.747	4.13
385.109	4.22
385.47	4.22
385.832	4.23
386.193	4.26
386.554	4.32
386.916	4.29
387.277	4.31
387.638	4.33
387.999	4.35
388.36	4.3
388.721	4.31
389.082	4.3
389.443	4.32
389.804	4.29
390.165	4.3
390.526	4.31
390.887	4.34
391.248	4.32
391.609	4.31
391.969	4.29
392.33	4.25
392.691	4.23
393.051	4.24
393.412	4.24
393.772	4.21
394.133	4.2
394.493	4.22
394.854	4.19
395.214	4.16
395.574	4.16
395.935	4.15
396.295	4.12
396.655	4.15
397.015	4.18
397.376	4.22
397.736	4.24
398.096	4.27
398.456	4.27
398.816	4.31
399.176	4.3
399.535	4.32
399.895	4.29
400.255	4.27
400.615	4.3
400.975	4.3
401.334	4.31
401.694	4.32
402.054	4.3
402.413	4.34
402.773	4.32
403.132	4.3
403.492	4.32
403.851	4.33
404.211	4.32
404.57	4.32
404.929	4.33
405.288	4.28
405.648	4.25
406.007	4.24
406.366	4.2
406.725	4.19
407.084	4.22
407.443	4.23
407.802	4.25
408.161	4.22
408.52	4.19
408.879	4.17
409.238	4.15
409.596	4.15
409.955	4.13
410.314	4.15
410.673	4.14
411.031	4.12
411.39	4.11
411.748	4.1
412.107	4.1
412.465	4.09
412.824	4.11
413.182	4.12
413.54	4.13
413.899	4.15
414.257	4.18
414.615	4.15
414.974	4.17
415.332	4.14
415.69	4.15
416.048	4.15
416.406	4.18
416.764	4.15
417.122	4.17
417.48	4.18
417.838	4.18
418.195	4.19
418.553	4.2
418.911	4.2
419.269	4.2
419.626	4.21
419.984	4.2
420.342	4.22
420.699	4.21
421.057	4.21
421.414	4.22
421.772	4.2
422.129	4.19
422.486	4.19
422.844	4.2
423.201	4.19
423.558	4.19
423.915	4.18
424.273	4.2
424.63	4.19
424.987	4.18
425.344	4.18
425.701	4.18
426.058	4.18
426.415	4.18
426.772	4.18
427.128	4.18
427.485	4.18
427.842	4.16
428.199	4.17
428.555	4.17
428.912	4.17
429.269	4.18
429.625	4.19
429.982	4.17
430.338	4.17
430.695	4.19
431.051	4.19
431.407	4.2
431.764	4.21
432.12	4.2
432.476	4.2
432.832	4.18
433.189	4.18
433.545	4.17
433.901	4.17
434.257	4.16
434.613	4.18
434.969	4.16
435.325	4.18
435.681	4.17
436.036	4.17
436.392	4.15
436.748	4.14
437.104	4.13
437.459	4.13
437.815	4.12
438.171	4.13
438.526	4.13
438.882	4.13
439.237	4.12
439.593	4.14
439.948	4.12
440.304	4.13
440.659	4.13
441.014	4.15
441.369	4.15
441.725	4.15
442.08	4.15
442.435	4.16
442.79	4.15
443.145	4.16
443.5	4.15
443.855	4.15
444.21	4.14
444.565	4.15
444.92	4.17
445.275	4.17
445.629	4.15
445.984	4.14
446.339	4.13
446.693	4.11
447.048	4.09
447.403	4.11
447.757	4.1
448.112	4.09
448.466	4.07
448.82	4.06
449.175	4.06
449.529	4.04
449.883	4.02
450.238	4.01
450.592	4
450.946	4.01
451.3	4.01
451.654	4.03
452.008	4.01
452.362	3.99
452.716	3.99
453.07	4.01
453.424	4.03
453.778	4.05
454.132	4.08
454.486	4.08
454.839	4.07
455.193	4.06
455.547	4.07
455.9	4.09
456.254	4.1
456.607	4.1
456.961	4.11
457.314	4.12
457.668	4.11
458.021	4.13
458.375	4.15
458.728	4.14
459.081	4.14
459.434	4.15
459.787	4.16
460.141	4.15
460.494	4.14
460.847	4.13
461.2	4.12
461.553	4.12
461.906	4.13
462.259	4.14
462.611	4.16
462.964	4.18
463.317	4.18
463.67	4.18
464.022	4.18
464.375	4.17
464.728	4.18
465.08	4.19
465.433	4.18
465.785	4.16
466.138	4.16
466.49	4.15
466.843	4.16
467.195	4.16
467.547	4.2
467.899	4.22
468.252	4.23
468.604	4.24
468.956	4.24
469.308	4.25
469.66	4.25
470.012	4.27
470.364	4.29
470.716	4.28
471.068	4.3
471.42	4.31
471.772	4.34
472.123	4.35
472.475	4.36
472.827	4.36
473.178	4.36
473.53	4.36
473.882	4.38
474.233	4.38
474.585	4.37
474.936	4.34
475.288	4.34
475.639	4.32
475.99	4.34
476.342	4.33
476.693	4.31
477.044	4.33
477.395	4.32
477.746	4.31
478.097	4.3
478.448	4.28
478.8	4.28
479.15	4.25
479.501	4.25
479.852	4.25
480.203	4.25
480.554	4.26
480.905	4.28
481.255	4.27
481.606	4.28
481.957	4.29
482.307	4.3
482.658	4.29
483.009	4.3
483.359	4.29
483.709	4.3
484.06	4.3
484.41	4.3
484.761	4.29
485.111	4.29
485.461	4.3
485.811	4.31
486.162	4.31
486.512	4.33
486.862	4.34
487.212	4.34
487.562	4.34
487.912	4.34
488.262	4.32
488.612	4.34
488.961	4.33
489.311	4.33
489.661	4.33
490.011	4.33
490.36	4.33
490.71	4.33
491.06	4.33
491.409	4.35
491.759	4.34
492.108	4.35
492.458	4.35
492.807	4.33
493.157	4.34
493.506	4.35
493.855	4.34
494.204	4.33
494.554	4.32
494.903	4.3
495.252	4.3
495.601	4.31
495.95	4.3
496.299	4.3
496.648	4.31
496.997	4.31
497.346	4.33
497.695	4.34
498.043	4.34
498.392	4.34
498.741	4.32
499.09	4.32
499.438	4.34
499.787	4.35
500.135	4.4
500.484	4.4
500.832	4.4
501.181	4.43
501.529	4.4
501.878	4.41
502.226	4.46
502.574	4.48
502.923	4.47
503.271	4.5
503.619	4.52
503.967	4.51
504.315	4.51
504.663	4.52
505.011	4.53
505.359	4.52
505.707	4.52
506.055	4.55
506.403	4.57
506.751	4.56
507.098	4.56
507.446	4.55
507.794	4.54
508.141	4.55
508.489	4.54
508.837	4.55
509.184	4.58
509.531	4.57
509.879	4.59
510.226	4.61
510.574	4.59
510.921	4.57
511.268	4.6
511.616	4.62
511.963	4.62
512.31	4.62
512.657	4.62
513.004	4.62
513.351	4.63
513.698	4.63
514.045	4.62
514.392	4.62
514.739	4.61
515.086	4.63
515.432	4.63
515.779	4.61
516.126	4.64
516.473	4.65
516.819	4.68
517.166	4.64
517.512	4.65
517.859	4.66
518.205	4.68
518.552	4.7
518.898	4.7
519.245	4.71
519.591	4.71
519.937	4.7
520.283	4.71
520.629	4.72
520.976	4.71
521.322	4.73
521.668	4.73
522.014	4.74
522.36	4.73
522.706	4.74
523.052	4.75
523.398	4.74
523.743	4.74
524.089	4.71
524.435	4.71
524.781	4.73
525.126	4.74
525.472	4.74
525.817	4.73
526.163	4.73
526.509	4.75
526.854	4.75
527.199	4.77
527.545	4.78
527.89	4.77
528.235	4.77
528.581	4.77
528.926	4.78
529.271	4.79
529.616	4.79
529.961	4.78
530.306	4.8
530.651	4.8
530.996	4.81
531.341	4.82
531.686	4.84
532.031	4.84
532.376	4.85
532.721	4.85
533.065	4.85
533.41	4.86
533.755	4.84
534.099	4.83
534.444	4.84
534.788	4.84
535.133	4.84
535.477	4.85
535.822	4.84
536.166	4.83
536.51	4.82
536.855	4.83
537.199	4.84
537.543	4.83
537.887	4.83
538.231	4.82
538.576	4.84
538.92	4.84
539.264	4.83
539.608	4.83
539.951	4.83
540.295	4.83
540.639	4.83
540.983	4.85
541.327	4.84
541.671	4.84
542.014	4.83
542.358	4.84
542.701	4.85
543.045	4.86
543.389	4.89
543.732	4.89
544.075	4.9
544.419	4.89
544.762	4.89
545.105	4.89
545.449	4.91
545.792	4.91
546.135	4.92
546.478	4.9
546.821	4.89
547.165	4.9
547.508	4.91
547.851	4.91
548.194	4.89
548.536	4.9
548.879	4.9
549.222	4.9
549.565	4.9
549.908	4.9
550.25	4.89
550.593	4.86
550.936	4.85
551.278	4.86
551.621	4.9
551.963	4.89
552.306	4.9
552.648	4.88
552.991	4.85
553.333	4.85
553.675	4.85
554.017	4.88
554.36	4.85
554.702	4.85
555.044	4.84
555.386	4.87
555.728	4.9
556.07	4.91
556.412	4.93
556.754	4.93
557.096	4.9
557.438	4.91
557.78	4.94
558.121	4.97
558.463	4.94
558.805	4.94
559.147	4.94
559.488	4.92
559.83	4.94
560.171	4.95
560.513	4.95
560.854	4.99
561.196	4.96
561.537	4.98
561.878	4.98
562.22	5
562.561	4.96
562.902	4.95
563.243	4.93
563.584	4.92
563.925	4.95
564.266	4.95
564.607	4.96
564.948	4.96
565.289	4.94
565.63	4.93
565.971	4.91
566.312	4.92
566.653	4.92
566.993	4.92
567.334	4.94
567.675	4.95
568.015	4.96
568.356	4.97
568.696	4.98
569.037	4.99
569.377	4.99
569.718	5.01
570.058	5.03
570.398	5.03
570.739	5.03
571.079	5.02
571.419	5.03
571.759	5.03
572.099	5.01
572.439	5.03
572.779	5.05
573.119	5.09
573.459	5.13
573.799	5.15
574.139	5.17
574.479	5.13
574.819	5.14
575.158	5.1
575.498	5.13
575.838	5.12
576.177	5.12
576.517	5.09
576.856	5.1
577.196	5.09
577.535	5.08
577.875	5.09
578.214	5.07
578.553	5.07
578.893	5.06
579.232	5.09
579.571	5.1
579.91	5.08
580.25	5.03
580.589	5.03
580.928	5.04
581.267	5.05
581.606	5.1
581.945	5.08
582.283	5.11
582.622	5.07
582.961	5.11
583.3	5.13
583.639	5.16
583.977	5.18
584.316	5.18
584.654	5.2
584.993	5.17
585.332	5.19
585.67	5.19
586.008	5.19
586.347	5.19
586.685	5.16
587.024	5.19
587.362	5.21
587.7	5.21
588.038	5.2
588.376	5.18
588.715	5.14
589.053	5.19
589.391	5.21
589.729	5.26
590.067	5.22
590.404	5.22
590.742	5.24
591.08	5.21
591.418	5.22
591.756	5.22
592.093	5.25
592.431	5.29
592.769	5.32
593.106	5.32
593.444	5.29
593.781	5.34
594.119	5.34
594.456	5.33
594.793	5.28
595.131	5.28
595.468	5.3
595.805	5.31
596.143	5.24
596.48	5.23
596.817	5.23
597.154	5.27
597.491	5.27
597.828	5.26
598.165	5.27
598.502	5.24
598.839	5.23
599.176	5.24
599.512	5.23
599.849	5.22
600.186	5.25
600.523	5.28
600.859	5.27
601.196	5.27
601.532	5.3
601.869	5.31
602.205	5.31
602.542	5.31
602.878	5.32
603.215	5.35
603.551	5.37
603.887	5.36
604.223	5.32
604.56	5.32
604.896	5.32
605.232	5.33
605.568	5.35
605.904	5.33
606.24	5.35
606.576	5.35
606.912	5.35
607.248	5.34
607.583	5.33
607.919	5.35
608.255	5.33
608.591	5.34
608.926	5.39
609.262	5.4
609.597	5.4
609.933	5.39
610.268	5.41
610.604	5.4
610.939	5.38
611.275	5.42
611.61	5.44
611.945	5.49
612.281	5.51
612.616	5.53
612.951	5.6
613.286	5.6
613.621	5.6
613.956	5.6
614.291	5.58
614.626	5.62
614.961	5.53
615.296	5.53
615.631	5.55
615.966	5.51
616.3	5.52
616.635	5.53
616.97	5.62
617.304	5.63
617.639	5.62
617.973	5.62
618.308	5.6
618.642	5.58
618.977	5.57
619.311	5.53
619.646	5.55
619.98	5.53
620.314	5.52
620.648	5.48
620.983	5.54
621.317	5.56
621.651	5.55
621.985	5.6
622.319	5.62
622.653	5.6
622.987	5.65
623.321	5.62
623.655	5.6
623.988	5.64
624.322	5.58
624.656	5.59
624.99	5.6
625.323	5.58
625.657	5.61
625.99	5.6
626.324	5.64
626.657	5.62
626.991	5.59
627.324	5.6
627.658	5.69
627.991	5.68
628.324	5.7
628.657	5.71
628.991	5.68
629.324	5.73
629.657	5.73
629.99	5.69
630.323	5.71
630.656	5.7
630.989	5.65
631.322	5.68
631.655	5.67
631.987	5.7
632.32	5.71
632.653	5.68
632.986	5.71
633.318	5.71
633.651	5.7
633.984	5.71
634.316	5.67
634.649	5.6
634.981	5.58
635.313	5.6
635.646	5.57
635.978	5.68
636.31	5.64
636.643	5.63
636.975	5.67
637.307	5.68
637.639	5.73
637.971	5.73
638.303	5.71
638.635	5.71
638.967	5.67
639.299	5.78
639.631	5.76
639.963	5.67
640.295	5.65
640.626	5.68
640.958	5.77
641.29	5.79
641.621	5.84
641.953	5.77
642.285	5.75
642.616	5.77
642.948	5.68
643.279	5.66
643.61	5.64
643.942	5.6
644.273	5.56
644.604	5.57
644.936	5.52
645.267	5.54
645.598	5.56
645.929	5.64
646.26	5.55
646.591	5.57
646.922	5.61
647.253	5.57
647.584	5.57
647.915	5.47
648.245	5.48
648.576	5.43
648.907	5.5
649.238	5.49
649.568	5.54
649.899	5.55
650.229	5.58
650.56	5.62
650.89	5.72
651.221	5.82
651.551	5.78
651.882	5.77
652.212	5.82
652.542	5.77
652.872	5.72
653.203	5.67
653.533	5.73
653.863	5.78
654.193	5.81
654.523	5.81
654.853	5.88
655.183	5.89
655.513	5.92
655.843	5.94
656.172	6.01
656.502	6.03
656.832	6.03
657.162	6.06
657.491	6.04
657.821	5.94
658.15	5.85
658.48	5.9
658.809	5.9
659.139	5.9
659.468	5.92
659.798	5.92
660.127	5.99
660.456	6.02
660.785	6
661.115	6.01
661.444	6.05
661.773	6.07
662.102	6.06
662.431	6.04
662.76	6.03
663.089	6.02
663.418	5.95
663.747	5.9
664.076	5.84
664.404	5.81
664.733	5.9
665.062	5.97
665.39	5.97
665.719	6.01
666.048	5.98
666.376	6.03
666.705	6.02
667.033	5.96
667.362	5.91
667.69	5.98
668.018	5.99
668.347	6.01
668.675	6.03
669.003	6.06
669.331	6.13
669.659	6.16
669.987	6.14
670.315	6.21
670.643	6.28
670.971	6.29
671.299	6.32
671.627	6.24
671.955	6.23
672.283	6.25
672.61	6.31
672.938	6.27
673.266	6.32
673.593	6.45
673.921	6.51
674.249	6.49
674.576	6.47
674.904	6.51
675.231	6.44
675.558	6.46
675.886	6.51
676.213	6.54
676.54	6.48
676.867	6.48
677.195	6.47
677.522	6.44
677.849	6.47
678.176	6.49
