Data from BU26946_Reflection_00002.txt Node
Date: Tue Nov 19 10:51:51 EST 2019
User: vgr7
Spectrometer: USB2G7710
Scans to average: 3
Trigger mode: 4
Integration Time (sec): 2.000000E-2
Electric dark correction enabled: true
Boxcar width: 10
XAxis mode: Wavelengths
Number of Pixels in Spectrum: 2048
>>>>>Begin Spectral Data<<<<<
177.721	605.93
178.105	613.51
178.488	250.15
178.871	673.68
179.254	-1685.71
179.636	1057.55
180.019	1832.56
180.402	150
180.785	-769.23
181.168	44.98
181.55	137.57
181.933	72.55
182.316	101.42
182.698	-2.69
183.081	115.42
183.463	-713.43
183.846	289.44
184.228	151.84
184.611	250.35
184.993	123.64
185.376	302.13
185.758	22.38
186.14	-86.15
186.522	-95.72
186.904	-55.48
187.287	-57.74
187.669	-35.41
188.051	-173.16
188.433	-154.58
188.815	-147.14
189.197	-117.29
189.579	-84.42
189.961	-91.37
190.342	-69.26
190.724	-81.59
191.106	-106.3
191.488	-91.99
191.869	-75.44
192.251	-64.73
192.633	-51.62
193.014	-55.48
193.396	-71.06
193.777	-61.35
194.159	-73.83
194.54	-72.27
194.922	-84.13
195.303	-93.84
195.684	-98.69
196.065	-66.35
196.447	-86.19
196.828	-73.34
197.209	-69.77
197.59	-79.23
197.971	-56.1
198.352	-83.83
198.733	-77.2
199.114	-29.15
199.495	-26.11
199.876	-26.56
200.257	-24.34
200.638	-44.53
201.018	-32.02
201.399	-34.55
201.78	-47.61
202.16	-46.06
202.541	-48.45
202.922	-27.27
203.302	-27.2
203.683	-16.08
204.063	-18.45
204.444	-8.88
204.824	-12.66
205.204	-9.73
205.585	-7.22
205.965	-28.27
206.345	-22.51
206.725	-14.1
207.106	-17.93
207.486	-19.72
207.866	-13.06
208.246	-16.27
208.626	-22.06
209.006	-25.13
209.386	-20.79
209.766	-16.17
210.145	-6.51
210.525	-5.42
210.905	-13.63
211.285	-8.66
211.664	-5.97
212.044	-12.29
212.424	-12.56
212.803	-19.42
213.183	-22.7
213.562	-18.54
213.942	-6.66
214.321	-9.43
214.701	-21.45
215.08	-42.38
215.459	-31.49
215.838	-58.76
216.218	-58.76
216.597	-35.74
216.976	-46.98
217.355	-55.36
217.734	-89.94
218.113	-103.68
218.492	-104.04
218.871	-102.89
219.25	-113.34
219.629	-203.66
220.008	-210.33
220.387	-182.33
220.766	-118.67
221.144	-127.5
221.523	-150.24
221.902	-246.05
222.28	-133.04
222.659	-71.42
223.037	-29.76
223.416	-52.37
223.794	-29.38
224.173	-37.21
224.551	-34.29
224.929	-42.71
225.308	-33.32
225.686	-21.75
226.064	-13.18
226.442	-17.84
226.821	-16.6
227.199	-12.71
227.577	-6.88
227.955	-4.93
228.333	-8.11
228.711	-11.08
229.089	-8.61
229.467	-8.18
229.845	-7.57
230.222	-7.47
230.6	-8.94
230.978	-8.19
231.356	-7.6
231.733	-7.79
232.111	-4.94
232.488	-5.21
232.866	-3.03
233.243	-2.05
233.621	-2.67
233.998	-3.95
234.376	-3.08
234.753	-2.49
235.13	-2.62
235.508	-2.34
235.885	-2.37
236.262	-1.7
236.639	-0.76
237.016	-1.23
237.393	-0.15
237.77	1.03
238.147	0.14
238.524	1.21
238.901	0.8
239.278	1.33
239.655	1.29
240.032	1.12
240.409	1.01
240.785	1
241.162	1.21
241.539	1.41
241.915	1.54
242.292	1.94
242.668	1.8
243.045	1.95
243.421	1.68
243.798	2
244.174	2.24
244.551	2.35
244.927	2.33
245.303	2.06
245.679	1.95
246.056	2.16
246.432	2.1
246.808	1.99
247.184	1.74
247.56	1.66
247.936	1.85
248.312	1.89
248.688	2.03
249.064	1.93
249.44	1.71
249.815	1.72
250.191	1.57
250.567	1.92
250.943	1.88
251.318	1.87
251.694	1.58
252.069	1.58
252.445	1.3
252.82	1.44
253.196	1.23
253.571	1.32
253.947	1.17
254.322	1.13
254.697	1.04
255.073	1.49
255.448	1.78
255.823	1.95
256.198	1.98
256.573	2.17
256.948	2.21
257.323	2.5
257.698	2.64
258.073	2.59
258.448	2.3
258.823	2.22
259.198	2.33
259.573	2.5
259.948	2.4
260.322	2.55
260.697	2.75
261.072	2.93
261.446	2.96
261.821	2.96
262.195	2.91
262.57	3.16
262.944	3.04
263.319	3
263.693	2.82
264.067	2.75
264.442	2.68
264.816	2.73
265.19	2.81
265.564	2.71
265.938	2.91
266.313	2.97
266.687	3.07
267.061	2.81
267.435	2.79
267.809	2.73
268.183	2.59
268.556	2.34
268.93	2.24
269.304	2.32
269.678	2.4
270.051	2.6
270.425	2.57
270.799	2.45
271.172	2.47
271.546	2.56
271.919	2.64
272.293	2.74
272.666	2.65
273.04	2.56
273.413	2.41
273.787	2.38
274.16	2.35
274.533	2.4
274.906	2.54
275.279	2.38
275.653	2.5
276.026	2.68
276.399	2.66
276.772	2.73
277.145	2.6
277.518	2.55
277.891	2.27
278.263	2.22
278.636	2.56
279.009	2.49
279.382	2.45
279.755	2.47
280.127	2.52
280.5	2.47
280.872	2.51
281.245	2.69
281.617	2.64
281.99	2.61
282.362	2.61
282.735	2.64
283.107	2.63
283.479	2.67
283.852	2.49
284.224	2.57
284.596	2.59
284.968	2.46
285.34	2.53
285.713	2.7
286.085	2.69
286.457	2.61
286.829	2.71
287.201	2.7
287.572	2.67
287.944	2.64
288.316	2.71
288.688	2.67
289.06	2.81
289.431	2.93
289.803	3.08
290.175	3.11
290.546	2.98
290.918	3.13
291.289	3.01
291.661	3.13
292.032	2.97
292.403	2.91
292.775	3.1
293.146	3.12
293.517	3.08
293.889	2.99
294.26	2.97
294.631	2.94
295.002	3.06
295.373	3.09
295.744	3.01
296.115	3.06
296.486	3.09
296.857	3.04
297.228	2.91
297.599	2.83
297.97	2.86
298.34	2.96
298.711	3.02
299.082	3.11
299.452	2.97
299.823	3.12
300.194	3.15
300.564	3.02
300.935	2.97
301.305	3.03
301.676	3.02
302.046	3
302.416	2.99
302.787	2.92
303.157	2.87
303.527	2.92
303.897	2.93
304.267	2.99
304.637	2.89
305.008	2.92
305.378	2.87
305.748	2.92
306.117	3
306.487	2.97
306.857	3.04
307.227	3.37
307.597	3.39
307.967	3.49
308.336	3.6
308.706	3.65
309.076	3.71
309.445	3.84
309.815	3.78
310.184	3.76
310.554	3.82
310.923	3.86
311.293	3.79
311.662	3.81
312.031	3.79
312.401	3.8
312.77	3.74
313.139	3.81
313.508	3.68
313.877	3.69
314.246	3.63
314.616	3.57
314.985	3.28
315.353	3.21
315.722	3.23
316.091	3.22
316.46	3.1
316.829	3.1
317.198	3.16
317.567	3.25
317.935	3.16
318.304	3.12
318.672	3.04
319.041	3.06
319.41	3.04
319.778	3.08
320.147	3.05
320.515	3.11
320.883	3.21
321.252	3.31
321.62	3.33
321.988	3.31
322.357	3.23
322.725	3.38
323.093	3.43
323.461	3.24
323.829	3.17
324.197	3.25
324.565	3.14
324.933	3.01
325.301	2.98
325.669	3.05
326.037	3.01
326.405	3.04
326.772	3.07
327.14	3
327.508	2.92
327.875	2.93
328.243	2.78
328.61	2.61
328.978	2.49
329.346	2.45
329.713	2.45
330.08	2.57
330.448	2.52
330.815	2.49
331.182	2.66
331.55	2.68
331.917	2.69
332.284	2.85
332.651	2.96
333.018	2.98
333.385	3.01
333.752	3.11
334.119	3.21
334.486	3.2
334.853	3.12
335.22	3.19
335.587	3.19
335.954	3.25
336.32	3.34
336.687	3.44
337.054	3.34
337.42	3.29
337.787	3.17
338.153	3.25
338.52	3.24
338.886	3.19
339.253	3.2
339.619	3.2
339.986	3.15
340.352	3.14
340.718	3.27
341.084	3.23
341.451	3.15
341.817	3.16
342.183	3.16
342.549	3.35
342.915	3.26
343.281	3.31
343.647	3.37
344.013	3.32
344.379	3.31
344.745	3.44
345.11	3.42
345.476	3.56
345.842	3.48
346.208	3.45
346.573	3.43
346.939	3.45
347.304	3.42
347.67	3.35
348.035	3.33
348.401	3.31
348.766	3.3
349.132	3.27
349.497	3.21
349.862	3.19
350.228	3.16
350.593	3.11
350.958	3.1
351.323	3.1
351.688	3.19
352.053	3.19
352.418	3.18
352.783	3.14
353.148	3.1
353.513	3.14
353.878	3.2
354.243	3.2
354.608	3.3
354.972	3.34
355.337	3.39
355.702	3.41
356.066	3.4
356.431	3.41
356.795	3.46
357.16	3.49
357.524	3.49
357.889	3.41
358.253	3.48
358.618	3.49
358.982	3.51
359.346	3.47
359.71	3.47
360.075	3.46
360.439	3.55
360.803	3.55
361.167	3.45
361.531	3.51
361.895	3.44
362.259	3.35
362.623	3.31
362.987	3.34
363.351	3.28
363.714	3.28
364.078	3.32
364.442	3.3
364.806	3.3
365.169	3.32
365.533	3.33
365.896	3.33
366.26	3.29
366.623	3.3
366.987	3.34
367.35	3.35
367.714	3.3
368.077	3.31
368.44	3.31
368.803	3.39
369.167	3.27
369.53	3.33
369.893	3.32
370.256	3.33
370.619	3.28
370.982	3.32
371.345	3.27
371.708	3.3
372.071	3.29
372.434	3.3
372.797	3.28
373.159	3.3
373.522	3.24
373.885	3.27
374.247	3.21
374.61	3.18
374.973	3.23
375.335	3.27
375.698	3.26
376.06	3.23
376.423	3.18
376.785	3.24
377.147	3.21
377.51	3.24
377.872	3.23
378.234	3.25
378.596	3.3
378.958	3.31
379.321	3.24
379.683	3.25
380.045	3.21
380.407	3.21
380.769	3.26
381.13	3.28
381.492	3.23
381.854	3.27
382.216	3.34
382.578	3.28
382.939	3.31
383.301	3.28
383.663	3.28
384.024	3.32
384.386	3.32
384.747	3.39
385.109	3.38
385.47	3.36
385.832	3.33
386.193	3.27
386.554	3.24
386.916	3.28
387.277	3.26
387.638	3.29
387.999	3.31
388.36	3.26
388.721	3.31
389.082	3.37
389.443	3.35
389.804	3.33
390.165	3.34
390.526	3.33
390.887	3.31
391.248	3.32
391.609	3.33
391.969	3.32
392.33	3.29
392.691	3.31
393.051	3.35
393.412	3.35
393.772	3.38
394.133	3.38
394.493	3.36
394.854	3.39
395.214	3.41
395.574	3.4
395.935	3.38
396.295	3.39
396.655	3.39
397.015	3.41
397.376	3.44
397.736	3.43
398.096	3.42
398.456	3.43
398.816	3.44
399.176	3.42
399.535	3.43
399.895	3.43
400.255	3.44
400.615	3.43
400.975	3.45
401.334	3.43
401.694	3.48
402.054	3.5
402.413	3.49
402.773	3.47
403.132	3.47
403.492	3.48
403.851	3.46
404.211	3.44
404.57	3.44
404.929	3.41
405.288	3.43
405.648	3.4
406.007	3.41
406.366	3.4
406.725	3.4
407.084	3.4
407.443	3.41
407.802	3.4
408.161	3.4
408.52	3.43
408.879	3.44
409.238	3.43
409.596	3.43
409.955	3.42
410.314	3.42
410.673	3.41
411.031	3.42
411.39	3.42
411.748	3.47
412.107	3.44
412.465	3.44
412.824	3.43
413.182	3.46
413.54	3.46
413.899	3.48
414.257	3.46
414.615	3.47
414.974	3.45
415.332	3.46
415.69	3.46
416.048	3.43
416.406	3.42
416.764	3.42
417.122	3.4
417.48	3.41
417.838	3.4
418.195	3.41
418.553	3.42
418.911	3.42
419.269	3.41
419.626	3.44
419.984	3.44
420.342	3.45
420.699	3.44
421.057	3.43
421.414	3.43
421.772	3.45
422.129	3.45
422.486	3.47
422.844	3.46
423.201	3.45
423.558	3.45
423.915	3.46
424.273	3.46
424.63	3.47
424.987	3.48
425.344	3.48
425.701	3.48
426.058	3.47
426.415	3.47
426.772	3.47
427.128	3.45
427.485	3.45
427.842	3.44
428.199	3.44
428.555	3.44
428.912	3.43
429.269	3.42
429.625	3.41
429.982	3.4
430.338	3.4
430.695	3.41
431.051	3.41
431.407	3.42
431.764	3.4
432.12	3.41
432.476	3.39
432.832	3.4
433.189	3.4
433.545	3.41
433.901	3.42
434.257	3.43
434.613	3.44
434.969	3.43
435.325	3.41
435.681	3.41
436.036	3.44
436.392	3.44
436.748	3.44
437.104	3.43
437.459	3.42
437.815	3.43
438.171	3.43
438.526	3.42
438.882	3.41
439.237	3.42
439.593	3.42
439.948	3.44
440.304	3.43
440.659	3.44
441.014	3.43
441.369	3.44
441.725	3.45
442.08	3.45
442.435	3.45
442.79	3.46
443.145	3.46
443.5	3.46
443.855	3.46
444.21	3.45
444.565	3.47
444.92	3.47
445.275	3.48
445.629	3.47
445.984	3.48
446.339	3.47
446.693	3.48
447.048	3.47
447.403	3.45
447.757	3.45
448.112	3.45
448.466	3.46
448.82	3.45
449.175	3.43
449.529	3.43
449.883	3.42
450.238	3.42
450.592	3.41
450.946	3.4
451.3	3.4
451.654	3.39
452.008	3.39
452.362	3.38
452.716	3.37
453.07	3.36
453.424	3.35
453.778	3.35
454.132	3.33
454.486	3.34
454.839	3.34
455.193	3.36
455.547	3.36
455.9	3.36
456.254	3.36
456.607	3.36
456.961	3.35
457.314	3.36
457.668	3.35
458.021	3.36
458.375	3.36
458.728	3.36
459.081	3.36
459.434	3.36
459.787	3.38
460.141	3.39
460.494	3.41
460.847	3.42
461.2	3.42
461.553	3.45
461.906	3.44
462.259	3.45
462.611	3.46
462.964	3.46
463.317	3.46
463.67	3.47
464.022	3.48
464.375	3.48
464.728	3.49
465.08	3.51
465.433	3.5
465.785	3.52
466.138	3.53
466.49	3.55
466.843	3.58
467.195	3.57
467.547	3.57
467.899	3.55
468.252	3.6
468.604	3.61
468.956	3.6
469.308	3.58
469.66	3.6
470.012	3.6
470.364	3.59
470.716	3.61
471.068	3.61
471.42	3.61
471.772	3.62
472.123	3.62
472.475	3.61
472.827	3.64
473.178	3.63
473.53	3.62
473.882	3.6
474.233	3.57
474.585	3.57
474.936	3.58
475.288	3.59
475.639	3.58
475.99	3.55
476.342	3.55
476.693	3.58
477.044	3.56
477.395	3.56
477.746	3.55
478.097	3.56
478.448	3.55
478.8	3.56
479.15	3.58
479.501	3.59
479.852	3.61
480.203	3.61
480.554	3.62
480.905	3.64
481.255	3.66
481.606	3.67
481.957	3.67
482.307	3.67
482.658	3.68
483.009	3.67
483.359	3.68
483.709	3.68
484.06	3.67
484.41	3.7
484.761	3.71
485.111	3.72
485.461	3.71
485.811	3.73
486.162	3.72
486.512	3.72
486.862	3.73
487.212	3.72
487.562	3.71
487.912	3.71
488.262	3.71
488.612	3.71
488.961	3.72
489.311	3.72
489.661	3.73
490.011	3.72
490.36	3.73
490.71	3.73
491.06	3.73
491.409	3.73
491.759	3.7
492.108	3.69
492.458	3.69
492.807	3.69
493.157	3.68
493.506	3.68
493.855	3.67
494.204	3.66
494.554	3.66
494.903	3.67
495.252	3.67
495.601	3.67
495.95	3.67
496.299	3.66
496.648	3.67
496.997	3.67
497.346	3.67
497.695	3.66
498.043	3.67
498.392	3.7
498.741	3.7
499.09	3.72
499.438	3.74
499.787	3.72
500.135	3.72
500.484	3.74
500.832	3.76
501.181	3.78
501.529	3.82
501.878	3.81
502.226	3.82
502.574	3.81
502.923	3.83
503.271	3.84
503.619	3.85
503.967	3.84
504.315	3.83
504.663	3.84
505.011	3.83
505.359	3.84
505.707	3.84
506.055	3.83
506.403	3.83
506.751	3.82
507.098	3.86
507.446	3.87
507.794	3.87
508.141	3.88
508.489	3.88
508.837	3.86
509.184	3.88
509.531	3.88
509.879	3.88
510.226	3.87
510.574	3.88
510.921	3.87
511.268	3.87
511.616	3.88
511.963	3.89
512.31	3.92
512.657	3.93
513.004	3.93
513.351	3.96
513.698	3.98
514.045	3.98
514.392	3.98
514.739	3.97
515.086	3.98
515.432	3.98
515.779	3.95
516.126	4
516.473	3.98
516.819	3.99
517.166	4.01
517.512	4
517.859	4
518.205	3.99
518.552	4.01
518.898	4.03
519.245	4.04
519.591	4.04
519.937	4.04
520.283	4.05
520.629	4.03
520.976	4.03
521.322	4.02
521.668	4.02
522.014	4.04
522.36	4.04
522.706	4.05
523.052	4.07
523.398	4.05
523.743	4.06
524.089	4.08
524.435	4.07
524.781	4.09
525.126	4.09
525.472	4.1
525.817	4.1
526.163	4.1
526.509	4.1
526.854	4.11
527.199	4.13
527.545	4.11
527.89	4.11
528.235	4.12
528.581	4.12
528.926	4.11
529.271	4.1
529.616	4.11
529.961	4.12
530.306	4.11
530.651	4.12
530.996	4.12
531.341	4.13
531.686	4.13
532.031	4.13
532.376	4.13
532.721	4.13
533.065	4.14
533.41	4.13
533.755	4.13
534.099	4.11
534.444	4.11
534.788	4.11
535.133	4.13
535.477	4.14
535.822	4.14
536.166	4.15
536.51	4.16
536.855	4.17
537.199	4.16
537.543	4.18
537.887	4.19
538.231	4.21
538.576	4.2
538.92	4.2
539.264	4.2
539.608	4.21
539.951	4.21
540.295	4.22
540.639	4.22
540.983	4.24
541.327	4.25
541.671	4.24
542.014	4.25
542.358	4.25
542.701	4.25
543.045	4.26
543.389	4.26
543.732	4.26
544.075	4.26
544.419	4.28
544.762	4.27
545.105	4.27
545.449	4.27
545.792	4.27
546.135	4.29
546.478	4.31
546.821	4.31
547.165	4.3
547.508	4.3
547.851	4.29
548.194	4.27
548.536	4.25
548.879	4.25
549.222	4.25
549.565	4.21
549.908	4.21
550.25	4.2
550.593	4.21
550.936	4.24
551.278	4.23
551.621	4.22
551.963	4.23
552.306	4.2
552.648	4.19
552.991	4.17
553.333	4.15
553.675	4.16
554.017	4.15
554.36	4.17
554.702	4.14
555.044	4.15
555.386	4.17
555.728	4.18
556.07	4.17
556.412	4.17
556.754	4.16
557.096	4.16
557.438	4.15
557.78	4.13
558.121	4.11
558.463	4.09
558.805	4.07
559.147	4.07
559.488	4.06
559.83	4.05
560.171	4.06
560.513	4.08
560.854	4.04
561.196	4.06
561.537	4.08
561.878	4.12
562.22	4.16
562.561	4.14
562.902	4.16
563.243	4.19
563.584	4.21
563.925	4.29
564.266	4.29
564.607	4.3
564.948	4.31
565.289	4.31
565.63	4.31
565.971	4.36
566.312	4.36
566.653	4.38
566.993	4.38
567.334	4.4
567.675	4.38
568.015	4.39
568.356	4.39
568.696	4.37
569.037	4.36
569.377	4.35
569.718	4.36
570.058	4.36
570.398	4.36
570.739	4.34
571.079	4.29
571.419	4.29
571.759	4.32
572.099	4.33
572.439	4.33
572.779	4.34
573.119	4.31
573.459	4.3
573.799	4.29
574.139	4.3
574.479	4.3
574.819	4.3
575.158	4.31
575.498	4.32
575.838	4.32
576.177	4.31
576.517	4.29
576.856	4.31
577.196	4.32
577.535	4.28
577.875	4.31
578.214	4.31
578.553	4.3
578.893	4.26
579.232	4.27
579.571	4.28
579.91	4.25
580.25	4.28
580.589	4.29
580.928	4.32
581.267	4.3
581.606	4.29
581.945	4.33
582.283	4.36
582.622	4.33
582.961	4.29
583.3	4.3
583.639	4.28
583.977	4.28
584.316	4.3
584.654	4.3
584.993	4.29
585.332	4.29
585.67	4.34
586.008	4.37
586.347	4.39
586.685	4.37
587.024	4.37
587.362	4.38
587.7	4.42
588.038	4.46
588.376	4.47
588.715	4.54
589.053	4.51
589.391	4.5
589.729	4.54
590.067	4.58
590.404	4.57
590.742	4.6
591.08	4.63
591.418	4.59
591.756	4.59
592.093	4.59
592.431	4.59
592.769	4.55
593.106	4.53
593.444	4.5
593.781	4.49
594.119	4.54
594.456	4.54
594.793	4.52
595.131	4.53
595.468	4.57
595.805	4.54
596.143	4.54
596.48	4.55
596.817	4.55
597.154	4.54
597.491	4.58
597.828	4.57
598.165	4.52
598.502	4.51
598.839	4.51
599.176	4.52
599.512	4.53
599.849	4.56
600.186	4.57
600.523	4.56
600.859	4.57
601.196	4.53
601.532	4.52
601.869	4.49
602.205	4.44
602.542	4.39
602.878	4.38
603.215	4.4
603.551	4.37
603.887	4.35
604.223	4.34
604.56	4.33
604.896	4.38
605.232	4.39
605.568	4.42
605.904	4.43
606.24	4.42
606.576	4.43
606.912	4.43
607.248	4.46
607.583	4.49
607.919	4.47
608.255	4.49
608.591	4.5
608.926	4.5
609.262	4.52
609.597	4.56
609.933	4.54
610.268	4.55
610.604	4.57
610.939	4.57
611.275	4.57
611.61	4.53
611.945	4.46
612.281	4.49
612.616	4.52
612.951	4.55
613.286	4.58
613.621	4.59
613.956	4.61
614.291	4.56
614.626	4.56
614.961	4.61
615.296	4.63
615.631	4.62
615.966	4.67
616.3	4.66
616.635	4.63
616.97	4.64
617.304	4.64
617.639	4.64
617.973	4.65
618.308	4.7
618.642	4.68
618.977	4.72
619.311	4.73
619.646	4.67
619.98	4.64
620.314	4.64
620.648	4.59
620.983	4.58
621.317	4.61
621.651	4.58
621.985	4.55
622.319	4.55
622.653	4.54
622.987	4.52
623.321	4.54
623.655	4.57
623.988	4.57
624.322	4.59
624.656	4.6
624.99	4.6
625.323	4.59
625.657	4.64
625.99	4.62
626.324	4.64
626.657	4.7
626.991	4.69
627.324	4.66
627.658	4.7
627.991	4.68
628.324	4.67
628.657	4.71
628.991	4.73
629.324	4.74
629.657	4.72
629.99	4.73
630.323	4.74
630.656	4.72
630.989	4.7
631.322	4.63
631.655	4.59
631.987	4.61
632.32	4.56
632.653	4.51
632.986	4.52
633.318	4.49
633.651	4.45
633.984	4.49
634.316	4.49
634.649	4.48
634.981	4.49
635.313	4.47
635.646	4.48
635.978	4.48
636.31	4.46
636.643	4.46
636.975	4.44
637.307	4.39
637.639	4.39
637.971	4.4
638.303	4.41
638.635	4.39
638.967	4.4
639.299	4.41
639.631	4.42
639.963	4.48
640.295	4.46
640.626	4.43
640.958	4.43
641.29	4.46
641.621	4.44
641.953	4.43
642.285	4.46
642.616	4.41
642.948	4.4
643.279	4.37
643.61	4.41
643.942	4.44
644.273	4.49
644.604	4.51
644.936	4.57
645.267	4.58
645.598	4.64
645.929	4.57
646.26	4.6
646.591	4.7
646.922	4.62
647.253	4.59
647.584	4.65
647.915	4.6
648.245	4.58
648.576	4.62
648.907	4.63
649.238	4.69
649.568	4.75
649.899	4.76
650.229	4.79
650.56	4.84
650.89	4.8
651.221	4.74
651.551	4.72
651.882	4.72
652.212	4.73
652.542	4.75
652.872	4.78
653.203	4.79
653.533	4.81
653.863	4.83
654.193	4.85
654.523	4.82
654.853	4.91
655.183	4.97
655.513	4.97
655.843	4.97
656.172	4.91
656.502	4.84
656.832	4.81
657.162	4.82
657.491	4.79
657.821	4.81
658.15	4.88
658.48	4.84
658.809	4.86
659.139	4.86
659.468	4.85
659.798	4.87
660.127	4.85
660.456	4.74
660.785	4.76
661.115	4.77
661.444	4.81
661.773	4.79
662.102	4.74
662.431	4.81
662.76	4.82
663.089	4.85
663.418	4.91
663.747	4.91
664.076	4.9
664.404	4.94
664.733	4.93
665.062	4.98
665.39	5.02
665.719	4.98
666.048	5.01
666.376	4.97
666.705	4.99
667.033	4.96
667.362	5.02
667.69	4.95
668.018	4.96
668.347	4.86
668.675	4.85
669.003	4.85
669.331	4.7
669.659	4.64
669.987	4.65
670.315	4.67
670.643	4.75
670.971	4.77
671.299	4.73
671.627	4.77
671.955	4.68
672.283	4.64
672.61	4.62
672.938	4.62
673.266	4.67
673.593	4.68
673.921	4.76
674.249	4.77
674.576	4.86
674.904	4.83
675.231	4.97
675.558	5
675.886	4.98
676.213	5.04
676.54	5.07
