Data from BU26851_Reflection_00014.txt Node
Date: Mon Nov 18 16:48:34 EST 2019
User: vgr7
Spectrometer: USB2G7710
Scans to average: 3
Trigger mode: 4
Integration Time (sec): 2.000000E-2
Electric dark correction enabled: true
Boxcar width: 10
XAxis mode: Wavelengths
Number of Pixels in Spectrum: 2048
>>>>>Begin Spectral Data<<<<<
177.721	-440.96
178.105	802.7
178.488	-2836.71
178.871	178.51
179.254	472.88
179.636	41.06
180.019	167.8
180.402	55.56
180.785	37.36
181.168	157.84
181.55	673.43
181.933	155.61
182.316	200.5
182.698	112.71
183.081	219.69
183.463	-1178.35
183.846	-564.54
184.228	-5061.29
184.611	435.48
184.993	-645.76
185.376	-3.79
185.758	17.57
186.14	292.47
186.522	93.57
186.904	-2086.05
187.287	865.55
187.669	-811.24
188.051	1124.63
188.433	-1734.59
188.815	-184.43
189.197	-195.48
189.579	-135.53
189.961	-103.33
190.342	-75.39
190.724	-56.32
191.106	-106.33
191.488	-377.73
191.869	560.18
192.251	-287.54
192.633	10827.27
193.014	-1159.84
193.396	-177.07
193.777	-419.64
194.159	-381.36
194.54	-387.12
194.922	-2797.96
195.303	-269.91
195.684	-585.08
196.065	8.79
196.447	10.54
196.828	-93.91
197.209	-54.7
197.59	1065.52
197.971	590.32
198.352	-225.73
198.733	-154.86
199.114	-92.15
199.495	-96.59
199.876	-35.98
200.257	33.38
200.638	41.92
201.018	15.28
201.399	22.6
201.78	13.8
202.16	-7.54
202.541	-11.7
202.922	-32.91
203.302	-44.06
203.683	-64.8
204.063	-86.71
204.444	-76.11
204.824	-30.7
205.204	-45.34
205.585	-9.07
205.965	4.48
206.345	-65.25
206.725	-314.46
207.106	-953.25
207.486	888.18
207.866	887.46
208.246	448.46
208.626	405.52
209.006	1480.65
209.386	1321.62
209.766	4816.98
210.145	496.18
210.525	925.17
210.905	-260.11
211.285	-172.57
211.664	43.42
212.044	-6.27
212.424	12.27
212.803	10.64
213.183	42.12
213.562	34.47
213.942	43.37
214.321	53.32
214.701	45.31
215.08	38.27
215.459	40.67
215.838	59.97
216.218	36.5
216.597	36.08
216.976	23.88
217.355	24.45
217.734	13.04
218.113	8.08
218.492	-0.57
218.871	-1.96
219.25	-8.08
219.629	-24.89
220.008	-21.85
220.387	-22.44
220.766	-36.32
221.144	-59.76
221.523	-83.94
221.902	-103.05
222.28	-89.6
222.659	-100.71
223.037	-73.27
223.416	-77.06
223.794	-69.09
224.173	-58.58
224.551	-42.66
224.929	-38.65
225.308	-31.25
225.686	-19.41
226.064	-21.74
226.442	-24.93
226.821	-19.19
227.199	-18.06
227.577	-13.81
227.955	-11.35
228.333	-16.33
228.711	-10.97
229.089	-8.51
229.467	-9.12
229.845	-8.07
230.222	-6.06
230.6	-4.37
230.978	-4.66
231.356	-3.09
231.733	-2.01
232.111	0.99
232.488	0.61
232.866	-1.93
233.243	-0.39
233.621	-1.27
233.998	1.25
234.376	1.04
234.753	-1.21
235.13	-0.61
235.508	-0.95
235.885	-1.11
236.262	-1.31
236.639	-2.34
237.016	-0.66
237.393	1.33
237.77	1.9
238.147	1.28
238.524	1.86
238.901	1.91
239.278	2.68
239.655	3.54
240.032	2.99
240.409	3.03
240.785	3.08
241.162	2.55
241.539	2.82
241.915	2.76
242.292	2.41
242.668	3.07
243.045	3.17
243.421	2.86
243.798	2.77
244.174	3.07
244.551	3.51
244.927	3.28
245.303	3.32
245.679	3.18
246.056	3.19
246.432	3.09
246.808	3.25
247.184	2.98
247.56	2.61
247.936	2.7
248.312	2.87
248.688	3.24
249.064	3.36
249.44	3.17
249.815	3.12
250.191	3.5
250.567	3.49
250.943	3.24
251.318	3.4
251.694	3.33
252.069	3.2
252.445	2.82
252.82	2.56
253.196	2.6
253.571	2.46
253.947	2.58
254.322	2.69
254.697	2.44
255.073	2.46
255.448	2.47
255.823	2.39
256.198	2.11
256.573	1.96
256.948	2.12
257.323	2.33
257.698	2.45
258.073	2.44
258.448	2.32
258.823	2.59
259.198	2.56
259.573	2.53
259.948	2.53
260.322	2.67
260.697	2.66
261.072	2.48
261.446	2.55
261.821	2.59
262.195	2.69
262.57	2.84
262.944	2.8
263.319	2.83
263.693	2.87
264.067	2.84
264.442	2.94
264.816	2.98
265.19	2.91
265.564	2.69
265.938	2.66
266.313	2.6
266.687	2.3
267.061	2.59
267.435	2.77
267.809	2.91
268.183	2.91
268.556	3.16
268.93	3.3
269.304	3.29
269.678	3.35
270.051	3.29
270.425	3.29
270.799	3.31
271.172	3.28
271.546	3.26
271.919	3.2
272.293	3.13
272.666	3.13
273.04	3.16
273.413	3.19
273.787	3.08
274.16	3.21
274.533	3.34
274.906	3.23
275.279	3.28
275.653	3.27
276.026	3.14
276.399	2.8
276.772	2.82
277.145	2.89
277.518	2.94
277.891	2.77
278.263	2.7
278.636	2.52
279.009	2.66
279.382	2.82
279.755	2.71
280.127	2.72
280.5	2.8
280.872	2.95
281.245	3.04
281.617	3.23
281.99	3.31
282.362	3.33
282.735	3.08
283.107	3.04
283.479	3.07
283.852	3.08
284.224	3.29
284.596	3.11
284.968	3.06
285.34	2.97
285.713	3.17
286.085	3.16
286.457	3.3
286.829	3.29
287.201	3.34
287.572	3.46
287.944	3.35
288.316	3.23
288.688	3.17
289.06	3.23
289.431	3.14
289.803	3.18
290.175	3.25
290.546	3.48
290.918	3.47
291.289	3.47
291.661	3.7
292.032	3.71
292.403	3.81
292.775	3.96
293.146	3.93
293.517	3.9
293.889	4.02
294.26	4.08
294.631	4.05
295.002	4
295.373	4.16
295.744	4.39
296.115	4.48
296.486	4.31
296.857	4.24
297.228	4.37
297.599	4.31
297.97	4.25
298.34	4.22
298.711	4.37
299.082	4.46
299.452	4.48
299.823	4.56
300.194	4.59
300.564	4.58
300.935	4.71
301.305	4.77
301.676	4.84
302.046	4.96
302.416	5.15
302.787	5.21
303.157	5.18
303.527	5.1
303.897	5.05
304.267	5.45
304.637	5.67
305.008	5.72
305.378	5.96
305.748	6.13
306.117	6.06
306.487	6.06
306.857	6.06
307.227	5.99
307.597	6.03
307.967	6.28
308.336	6.33
308.706	6.27
309.076	6.33
309.445	6.29
309.815	6.26
310.184	6.26
310.554	6.35
310.923	6.47
311.293	6.53
311.662	6.62
312.031	6.59
312.401	6.58
312.77	6.66
313.139	6.58
313.508	6.56
313.877	6.84
314.246	6.91
314.616	6.73
314.985	6.77
315.353	6.68
315.722	6.64
316.091	6.64
316.46	6.73
316.829	6.72
317.198	6.7
317.567	6.79
317.935	6.69
318.304	6.75
318.672	6.51
319.041	6.55
319.41	6.58
319.778	6.59
320.147	6.61
320.515	6.64
320.883	6.7
321.252	6.76
321.62	6.72
321.988	6.64
322.357	7.07
322.725	7.13
323.093	7.33
323.461	7.39
323.829	7.39
324.197	7.55
324.565	7.7
324.933	7.91
325.301	7.97
325.669	8.23
326.037	8.19
326.405	8.31
326.772	8.41
327.14	8.55
327.508	8.6
327.875	8.53
328.243	8.67
328.61	8.63
328.978	8.78
329.346	8.8
329.713	8.84
330.08	8.75
330.448	8.76
330.815	8.67
331.182	8.71
331.55	8.85
331.917	8.76
332.284	8.74
332.651	8.8
333.018	8.79
333.385	8.79
333.752	8.81
334.119	8.88
334.486	8.76
334.853	8.77
335.22	8.77
335.587	8.92
335.954	8.87
336.32	8.85
336.687	8.82
337.054	8.87
337.42	8.97
337.787	9.02
338.153	9.1
338.52	9.22
338.886	9.14
339.253	8.98
339.619	9.06
339.986	9.19
340.352	9.12
340.718	9.16
341.084	9.12
341.451	9.27
341.817	9.43
342.183	9.5
342.549	9.51
342.915	9.71
343.281	9.77
343.647	9.83
344.013	9.92
344.379	10.05
344.745	10.06
345.11	10.07
345.476	10.07
345.842	10
346.208	9.94
346.573	10.06
346.939	10.15
347.304	10.1
347.67	10.01
348.035	9.99
348.401	10.01
348.766	9.99
349.132	9.98
349.497	9.89
349.862	10.01
350.228	10.01
350.593	9.84
350.958	9.8
351.323	9.74
351.688	9.63
352.053	9.61
352.418	9.59
352.783	9.62
353.148	9.55
353.513	9.65
353.878	9.82
354.243	9.71
354.608	9.79
354.972	9.94
355.337	9.96
355.702	10.04
356.066	10.08
356.431	10.1
356.795	10.05
357.16	10.03
357.524	9.98
357.889	10
358.253	10.05
358.618	10.13
358.982	10.15
359.346	10.27
359.71	10.26
360.075	10.22
360.439	10.11
360.803	10.17
361.167	10.14
361.531	10.05
361.895	10.08
362.259	10.07
362.623	10
362.987	10
363.351	9.96
363.714	9.95
364.078	9.94
364.442	9.91
364.806	9.88
365.169	9.86
365.533	9.82
365.896	9.82
366.26	9.72
366.623	9.66
366.987	9.66
367.35	9.59
367.714	9.58
368.077	9.62
368.44	9.63
368.803	9.55
369.167	9.49
369.53	9.47
369.893	9.49
370.256	9.47
370.619	9.3
370.982	9.28
371.345	9.19
371.708	9.19
372.071	9.13
372.434	9.14
372.797	9.06
373.159	8.96
373.522	8.85
373.885	8.83
374.247	8.79
374.61	8.67
374.973	8.61
375.335	8.59
375.698	8.55
376.06	8.45
376.423	8.44
376.785	8.38
377.147	8.33
377.51	8.2
377.872	8.16
378.234	8.25
378.596	8.18
378.958	8.13
379.321	8.03
379.683	8
380.045	7.96
380.407	7.97
380.769	7.91
381.13	7.9
381.492	7.84
381.854	7.74
382.216	7.66
382.578	7.64
382.939	7.59
383.301	7.59
383.663	7.56
384.024	7.55
384.386	7.58
384.747	7.55
385.109	7.54
385.47	7.52
385.832	7.4
386.193	7.32
386.554	7.3
386.916	7.2
387.277	7.18
387.638	7.16
387.999	7.04
388.36	7.07
388.721	7.06
389.082	7.06
389.443	7.03
389.804	7
390.165	6.94
390.526	6.95
390.887	6.87
391.248	6.82
391.609	6.78
391.969	6.72
392.33	6.68
392.691	6.6
393.051	6.51
393.412	6.48
393.772	6.43
394.133	6.39
394.493	6.42
394.854	6.34
395.214	6.29
395.574	6.29
395.935	6.22
396.295	6.18
396.655	6.09
397.015	6.03
397.376	5.99
397.736	5.94
398.096	5.85
398.456	5.84
398.816	5.81
399.176	5.7
399.535	5.67
399.895	5.61
400.255	5.58
400.615	5.55
400.975	5.52
401.334	5.52
401.694	5.5
402.054	5.44
402.413	5.42
402.773	5.36
403.132	5.29
403.492	5.27
403.851	5.21
404.211	5.21
404.57	5.19
404.929	5.17
405.288	5.16
405.648	5.12
406.007	5.04
406.366	4.97
406.725	5.01
407.084	4.98
407.443	4.94
407.802	4.95
408.161	4.95
408.52	4.93
408.879	4.92
409.238	4.88
409.596	4.85
409.955	4.84
410.314	4.84
410.673	4.81
411.031	4.79
411.39	4.78
411.748	4.76
412.107	4.75
412.465	4.76
412.824	4.72
413.182	4.7
413.54	4.74
413.899	4.76
414.257	4.73
414.615	4.73
414.974	4.74
415.332	4.69
415.69	4.66
416.048	4.64
416.406	4.59
416.764	4.55
417.122	4.54
417.48	4.53
417.838	4.5
418.195	4.5
418.553	4.47
418.911	4.46
419.269	4.44
419.626	4.42
419.984	4.38
420.342	4.36
420.699	4.32
421.057	4.3
421.414	4.28
421.772	4.26
422.129	4.24
422.486	4.21
422.844	4.21
423.201	4.19
423.558	4.16
423.915	4.16
424.273	4.16
424.63	4.14
424.987	4.1
425.344	4.09
425.701	4.08
426.058	4.08
426.415	4.05
426.772	4.03
427.128	4.03
427.485	4.04
427.842	4.01
428.199	4.04
428.555	4.02
428.912	4.01
429.269	4.01
429.625	3.97
429.982	3.97
430.338	3.93
430.695	3.95
431.051	3.95
431.407	3.93
431.764	3.92
432.12	3.9
432.476	3.91
432.832	3.91
433.189	3.91
433.545	3.9
433.901	3.91
434.257	3.88
434.613	3.86
434.969	3.85
435.325	3.86
435.681	3.85
436.036	3.84
436.392	3.84
436.748	3.83
437.104	3.85
437.459	3.84
437.815	3.87
438.171	3.85
438.526	3.86
438.882	3.87
439.237	3.87
439.593	3.89
439.948	3.87
440.304	3.85
440.659	3.84
441.014	3.85
441.369	3.84
441.725	3.85
442.08	3.84
442.435	3.84
442.79	3.84
443.145	3.83
443.5	3.85
443.855	3.84
444.21	3.85
444.565	3.83
444.92	3.84
445.275	3.81
445.629	3.81
445.984	3.79
446.339	3.78
446.693	3.76
447.048	3.76
447.403	3.75
447.757	3.75
448.112	3.73
448.466	3.71
448.82	3.69
449.175	3.7
449.529	3.72
449.883	3.7
450.238	3.69
450.592	3.69
450.946	3.67
451.3	3.65
451.654	3.63
452.008	3.63
452.362	3.59
452.716	3.61
453.07	3.6
453.424	3.61
453.778	3.6
454.132	3.59
454.486	3.59
454.839	3.61
455.193	3.6
455.547	3.6
455.9	3.6
456.254	3.6
456.607	3.57
456.961	3.54
457.314	3.56
457.668	3.55
458.021	3.54
458.375	3.55
458.728	3.55
459.081	3.55
459.434	3.53
459.787	3.55
460.141	3.53
460.494	3.54
460.847	3.54
461.2	3.54
461.553	3.55
461.906	3.54
462.259	3.54
462.611	3.56
462.964	3.56
463.317	3.58
463.67	3.6
464.022	3.63
464.375	3.65
464.728	3.66
465.08	3.67
465.433	3.67
465.785	3.67
466.138	3.69
466.49	3.71
466.843	3.73
467.195	3.74
467.547	3.78
467.899	3.8
468.252	3.81
468.604	3.84
468.956	3.86
469.308	3.88
469.66	3.88
470.012	3.89
470.364	3.91
470.716	3.91
471.068	3.92
471.42	3.91
471.772	3.95
472.123	3.96
472.475	3.99
472.827	4.02
473.178	4.05
473.53	4.06
473.882	4.07
474.233	4.09
474.585	4.1
474.936	4.09
475.288	4.09
475.639	4.1
475.99	4.1
476.342	4.1
476.693	4.09
477.044	4.1
477.395	4.1
477.746	4.08
478.097	4.07
478.448	4.07
478.8	4.07
479.15	4.01
479.501	4.03
479.852	4
480.203	4
480.554	3.99
480.905	3.99
481.255	3.99
481.606	3.99
481.957	3.99
482.307	3.99
482.658	3.99
483.009	3.99
483.359	3.99
483.709	3.99
484.06	3.98
484.41	3.98
484.761	3.98
485.111	3.98
485.461	3.99
485.811	3.99
486.162	3.98
486.512	3.99
486.862	3.98
487.212	3.99
487.562	3.98
487.912	3.98
488.262	3.98
488.612	3.98
488.961	3.98
489.311	3.98
489.661	3.99
490.011	3.98
490.36	3.97
490.71	3.97
491.06	3.98
491.409	3.98
491.759	3.99
492.108	3.99
492.458	4
492.807	4
493.157	4.04
493.506	4.06
493.855	4.08
494.204	4.1
494.554	4.11
494.903	4.15
495.252	4.17
495.601	4.21
495.95	4.24
496.299	4.29
496.648	4.32
496.997	4.35
497.346	4.4
497.695	4.46
498.043	4.49
498.392	4.52
498.741	4.57
499.09	4.61
499.438	4.67
499.787	4.73
500.135	4.79
500.484	4.83
500.832	4.9
501.181	4.95
501.529	4.99
501.878	5.07
502.226	5.12
502.574	5.2
502.923	5.24
503.271	5.3
503.619	5.34
503.967	5.41
504.315	5.48
504.663	5.55
505.011	5.61
505.359	5.71
505.707	5.78
506.055	5.88
506.403	5.98
506.751	6.04
507.098	6.12
507.446	6.2
507.794	6.27
508.141	6.34
508.489	6.42
508.837	6.54
509.184	6.63
509.531	6.72
509.879	6.82
510.226	6.93
510.574	7.02
510.921	7.1
511.268	7.2
511.616	7.32
511.963	7.46
512.31	7.57
512.657	7.67
513.004	7.79
513.351	7.89
513.698	8.01
514.045	8.12
514.392	8.25
514.739	8.37
515.086	8.52
515.432	8.67
515.779	8.8
516.126	8.91
516.473	9.05
516.819	9.16
517.166	9.25
517.512	9.34
517.859	9.46
518.205	9.57
518.552	9.66
518.898	9.78
519.245	9.85
519.591	9.96
519.937	10.08
520.283	10.21
520.629	10.36
520.976	10.48
521.322	10.62
521.668	10.75
522.014	10.92
522.36	11.07
522.706	11.23
523.052	11.4
523.398	11.61
523.743	11.79
524.089	11.98
524.435	12.15
524.781	12.32
525.126	12.47
525.472	12.61
525.817	12.76
526.163	12.85
526.509	12.97
526.854	13.1
527.199	13.18
527.545	13.29
527.89	13.38
528.235	13.49
528.581	13.61
528.926	13.72
529.271	13.82
529.616	13.91
529.961	14.02
530.306	14.12
530.651	14.22
530.996	14.33
531.341	14.45
531.686	14.59
532.031	14.72
532.376	14.86
532.721	15.02
533.065	15.13
533.41	15.29
533.755	15.44
534.099	15.58
534.444	15.73
534.788	15.89
535.133	16.04
535.477	16.19
535.822	16.35
536.166	16.52
536.51	16.71
536.855	16.9
537.199	17.09
537.543	17.28
537.887	17.49
538.231	17.72
538.576	17.95
538.92	18.17
539.264	18.39
539.608	18.58
539.951	18.76
540.295	18.95
540.639	19.14
540.983	19.3
541.327	19.48
541.671	19.67
542.014	19.82
542.358	19.99
542.701	20.16
543.045	20.32
543.389	20.49
543.732	20.66
544.075	20.85
544.419	21.03
544.762	21.24
545.105	21.45
545.449	21.65
545.792	21.83
546.135	22.04
546.478	22.28
546.821	22.5
547.165	22.76
547.508	23.04
547.851	23.29
548.194	23.58
548.536	23.87
548.879	24.14
549.222	24.41
549.565	24.68
549.908	24.99
550.25	25.24
550.593	25.52
550.936	25.78
551.278	26.05
551.621	26.33
551.963	26.59
552.306	26.82
552.648	27.09
552.991	27.37
553.333	27.59
553.675	27.85
554.017	28.12
554.36	28.39
554.702	28.63
555.044	28.87
555.386	29.1
555.728	29.33
556.07	29.56
556.412	29.85
556.754	30.14
557.096	30.39
557.438	30.65
557.78	30.94
558.121	31.22
558.463	31.49
558.805	31.8
559.147	32.07
559.488	32.35
559.83	32.56
560.171	32.78
560.513	33.06
560.854	33.31
561.196	33.57
561.537	33.84
561.878	34.07
562.22	34.3
562.561	34.55
562.902	34.7
563.243	34.95
563.584	35.15
563.925	35.33
564.266	35.5
564.607	35.74
564.948	35.91
565.289	36.16
565.63	36.37
565.971	36.57
566.312	36.79
566.653	36.95
566.993	37.12
567.334	37.31
567.675	37.47
568.015	37.62
568.356	37.8
568.696	37.93
569.037	38.18
569.377	38.41
569.718	38.57
570.058	38.77
570.398	38.97
570.739	39.14
571.079	39.35
571.419	39.52
571.759	39.69
572.099	39.86
572.439	40.01
572.779	40.16
573.119	40.31
573.459	40.47
573.799	40.65
574.139	40.86
574.479	41.1
574.819	41.28
575.158	41.43
575.498	41.57
575.838	41.72
576.177	41.79
576.517	41.87
576.856	42.04
577.196	42.25
577.535	42.39
577.875	42.51
578.214	42.66
578.553	42.87
578.893	43.01
579.232	43.15
579.571	43.3
579.91	43.42
580.25	43.58
580.589	43.71
580.928	43.83
581.267	44
581.606	44.05
581.945	44.16
582.283	44.28
582.622	44.47
582.961	44.64
583.3	44.76
583.639	44.95
583.977	45.11
584.316	45.17
584.654	45.3
584.993	45.46
585.332	45.55
585.67	45.65
586.008	45.83
586.347	45.91
586.685	45.99
587.024	46.13
587.362	46.16
587.7	46.22
588.038	46.35
588.376	46.45
588.715	46.54
589.053	46.72
589.391	46.92
589.729	46.96
590.067	47.01
590.404	47.17
590.742	47.27
591.08	47.4
591.418	47.5
591.756	47.54
592.093	47.6
592.431	47.7
592.769	47.8
593.106	47.84
593.444	47.95
593.781	47.97
594.119	48.05
594.456	48.12
594.793	48.19
595.131	48.27
595.468	48.29
595.805	48.43
596.143	48.42
596.48	48.43
596.817	48.49
597.154	48.56
597.491	48.62
597.828	48.65
598.165	48.62
598.502	48.67
598.839	48.72
599.176	48.78
599.512	48.86
599.849	48.83
600.186	48.86
600.523	48.93
600.859	49.08
601.196	49.14
601.532	49.21
601.869	49.31
602.205	49.39
602.542	49.43
602.878	49.47
603.215	49.49
603.551	49.56
603.887	49.63
604.223	49.72
604.56	49.75
604.896	49.76
605.232	49.87
605.568	49.95
605.904	49.99
606.24	50.08
606.576	50.15
606.912	50.31
607.248	50.4
607.583	50.44
607.919	50.46
608.255	50.47
608.591	50.58
608.926	50.62
609.262	50.65
609.597	50.72
609.933	50.75
610.268	50.87
610.604	50.83
610.939	50.89
611.275	50.85
611.61	50.92
611.945	50.98
612.281	50.98
612.616	51.04
612.951	51.13
613.286	51.16
613.621	51.15
613.956	51.15
614.291	51.16
614.626	51.19
614.961	51.28
615.296	51.35
615.631	51.3
615.966	51.31
616.3	51.35
616.635	51.47
616.97	51.47
617.304	51.52
617.639	51.67
617.973	51.63
618.308	51.77
618.642	51.75
618.977	51.78
619.311	51.75
619.646	51.81
619.98	51.86
620.314	51.89
620.648	51.9
620.983	51.84
621.317	51.9
621.651	51.98
621.985	52.04
622.319	52.07
622.653	52.04
622.987	52.1
623.321	52.12
623.655	52
623.988	51.97
624.322	51.97
624.656	51.97
624.99	51.97
625.323	51.96
625.657	51.99
625.99	52.02
626.324	52.05
626.657	52.04
626.991	52.07
627.324	52.08
627.658	52.15
627.991	52.21
628.324	52.24
628.657	52.21
628.991	52.25
629.324	52.29
629.657	52.39
629.99	52.36
630.323	52.35
630.656	52.4
630.989	52.52
631.322	52.54
631.655	52.5
631.987	52.59
632.32	52.62
632.653	52.67
632.986	52.74
633.318	52.76
633.651	52.76
633.984	52.86
634.316	52.88
634.649	52.98
634.981	53.06
635.313	53.01
635.646	53.11
635.978	53.06
636.31	53.03
636.643	53.09
636.975	53.14
637.307	53.23
637.639	53.29
637.971	53.28
638.303	53.3
638.635	53.34
638.967	53.44
639.299	53.57
639.631	53.54
639.963	53.53
640.295	53.54
640.626	53.5
640.958	53.4
641.29	53.53
641.621	53.42
641.953	53.39
642.285	53.41
642.616	53.38
642.948	53.35
643.279	53.32
643.61	53.32
643.942	53.37
644.273	53.35
644.604	53.31
644.936	53.32
645.267	53.33
645.598	53.38
645.929	53.29
646.26	53.2
646.591	53.22
646.922	53.18
647.253	53.26
647.584	53.35
647.915	53.26
648.245	53.23
648.576	53.21
648.907	53.24
649.238	53.46
649.568	53.52
649.899	53.6
650.229	53.75
650.56	53.77
650.89	53.83
651.221	53.87
651.551	53.97
651.882	53.99
652.212	53.99
652.542	53.91
652.872	53.92
653.203	53.96
653.533	54.04
653.863	54.13
654.193	54.14
654.523	54.18
654.853	54.37
655.183	54.43
655.513	54.51
655.843	54.54
656.172	54.51
656.502	54.54
656.832	54.59
657.162	54.6
657.491	54.58
657.821	54.5
658.15	54.62
658.48	54.63
658.809	54.59
659.139	54.66
659.468	54.76
659.798	54.69
660.127	54.77
660.456	54.81
660.785	54.82
661.115	54.85
661.444	54.84
661.773	54.74
662.102	54.71
662.431	54.8
662.76	54.71
663.089	54.66
663.418	54.63
663.747	54.64
664.076	54.65
664.404	54.82
664.733	55.01
665.062	54.94
665.39	54.84
665.719	54.87
