Data from BU26938_Reflection_00007.txt Node
Date: Tue Nov 19 10:42:20 EST 2019
User: vgr7
Spectrometer: USB2G7710
Scans to average: 3
Trigger mode: 4
Integration Time (sec): 2.000000E-2
Electric dark correction enabled: true
Boxcar width: 10
XAxis mode: Wavelengths
Number of Pixels in Spectrum: 2048
>>>>>Begin Spectral Data<<<<<
177.721	91.43
178.105	-400
178.488	-27.82
178.871	2750
179.254	132.26
179.636	213.64
180.019	229.69
180.402	-90.48
180.785	405.26
181.168	46.56
181.55	-224.68
181.933	-203.66
182.316	-731.17
182.698	1390.32
183.081	-154.75
183.463	474.23
183.846	2034.43
184.228	1175.95
184.611	2565.12
184.993	1558.82
185.376	20385.71
185.758	-433.12
186.14	-473.77
186.522	-331.67
186.904	-658.14
187.287	-242.24
187.669	-194.96
188.051	-183.07
188.433	-411.57
188.815	-426.18
189.197	-317.41
189.579	-327.06
189.961	-673.4
190.342	-147.91
190.724	-355.98
191.106	-444.47
191.488	-168.23
191.869	-79.98
192.251	-86.45
192.633	-108.83
193.014	-90.51
193.396	-82.34
193.777	-78.28
194.159	-75.29
194.54	-84.49
194.922	-80.84
195.303	-83.86
195.684	-102.87
196.065	-126.1
196.447	-94.78
196.828	-88.14
197.209	-80.13
197.59	-74.61
197.971	-76.51
198.352	-83.63
198.733	-70.11
199.114	-88.51
199.495	-101.22
199.876	-93.93
200.257	-82.03
200.638	-52.77
201.018	-53.31
201.399	-44.9
201.78	-40.54
202.16	-52.77
202.541	-43.85
202.922	-35.74
203.302	-39.58
203.683	-31.43
204.063	-23.24
204.444	-23.62
204.824	-16.62
205.204	-7.03
205.585	-19.47
205.965	15.46
206.345	36.65
206.725	60.93
207.106	39.46
207.486	31.02
207.866	33.87
208.246	50.27
208.626	58.5
209.006	32.1
209.386	7.17
209.766	-7.18
210.145	17.1
210.525	29.11
210.905	26.89
211.285	5.56
211.664	8.54
212.044	72.9
212.424	43.08
212.803	46.05
213.183	64.33
213.562	73.46
213.942	40.01
214.321	46.53
214.701	17.53
215.08	29.8
215.459	46.65
215.838	32.89
216.218	20.22
216.597	10.78
216.976	24.12
217.355	24.25
217.734	14.12
218.113	12.22
218.492	15.75
218.871	2.86
219.25	21.63
219.629	23.28
220.008	4.25
220.387	12.39
220.766	23.5
221.144	10.64
221.523	10.3
221.902	23.97
222.28	24.65
222.659	42.81
223.037	39.29
223.416	29.5
223.794	33.09
224.173	31.1
224.551	29.35
224.929	35.03
225.308	25.12
225.686	25.5
226.064	21.44
226.442	20.26
226.821	17.7
227.199	15.09
227.577	17.89
227.955	21.13
228.333	17.46
228.711	16.3
229.089	15.56
229.467	12.05
229.845	10.89
230.222	8.97
230.6	5.13
230.978	6.89
231.356	7.55
231.733	7.39
232.111	6.76
232.488	5.22
232.866	6.78
233.243	9.8
233.621	10.75
233.998	10.6
234.376	11.21
234.753	11.96
235.13	11
235.508	8.89
235.885	4.93
236.262	2.5
236.639	0.51
237.016	0.54
237.393	2.04
237.77	2.2
238.147	2.52
238.524	3.25
238.901	2.55
239.278	2.06
239.655	1.79
240.032	1.94
240.409	2.48
240.785	2.38
241.162	2.2
241.539	2.47
241.915	2.49
242.292	2.48
242.668	3.11
243.045	2.93
243.421	3.24
243.798	3.64
244.174	3.99
244.551	4.05
244.927	4.07
245.303	3.64
245.679	3.37
246.056	3.48
246.432	3.59
246.808	3.71
247.184	3.98
247.56	4.03
247.936	4.07
248.312	4.06
248.688	3.98
249.064	4.07
249.44	4
249.815	4.26
250.191	3.97
250.567	3.84
250.943	4.02
251.318	3.74
251.694	3.77
252.069	4.1
252.445	4.45
252.82	4.68
253.196	4.82
253.571	5.18
253.947	5.09
254.322	4.92
254.697	4.88
255.073	4.6
255.448	4.65
255.823	4.6
256.198	4.47
256.573	4.59
256.948	4.5
257.323	4.6
257.698	4.45
258.073	4.62
258.448	4.43
258.823	4.39
259.198	4.6
259.573	4.36
259.948	4.19
260.322	4.08
260.697	3.96
261.072	4.16
261.446	4.03
261.821	3.95
262.195	3.99
262.57	3.93
262.944	3.98
263.319	3.89
263.693	3.7
264.067	3.79
264.442	3.75
264.816	3.69
265.19	3.59
265.564	3.33
265.938	3.24
266.313	3.26
266.687	3.17
267.061	2.89
267.435	3.17
267.809	2.97
268.183	2.66
268.556	2.68
268.93	2.62
269.304	2.63
269.678	2.7
270.051	2.57
270.425	2.65
270.799	2.69
271.172	2.74
271.546	2.99
271.919	2.94
272.293	3.04
272.666	3.14
273.04	3.08
273.413	3.3
273.787	3.29
274.16	3.4
274.533	3.54
274.906	3.71
275.279	3.66
275.653	3.84
276.026	4.18
276.399	4.13
276.772	4.37
277.145	4.47
277.518	4.43
277.891	4.59
278.263	4.63
278.636	4.69
279.009	4.84
279.382	4.54
279.755	4.58
280.127	4.35
280.5	4.27
280.872	4.25
281.245	4.17
281.617	4.26
281.99	4.2
282.362	4.06
282.735	4.05
283.107	3.96
283.479	3.98
283.852	3.9
284.224	3.88
284.596	3.65
284.968	3.67
285.34	3.78
285.713	3.78
286.085	3.75
286.457	3.63
286.829	3.43
287.201	3.73
287.572	3.76
287.944	3.91
288.316	3.96
288.688	4.2
289.06	4.19
289.431	4.26
289.803	4.46
290.175	4.53
290.546	4.42
290.918	4.44
291.289	4.37
291.661	4.44
292.032	4.52
292.403	4.44
292.775	4.63
293.146	4.74
293.517	4.67
293.889	4.63
294.26	4.69
294.631	4.82
295.002	4.8
295.373	4.77
295.744	4.74
296.115	4.64
296.486	4.55
296.857	4.58
297.228	4.47
297.599	4.37
297.97	4.47
298.34	4.66
298.711	4.79
299.082	4.86
299.452	4.86
299.823	4.81
300.194	5.03
300.564	4.86
300.935	4.73
301.305	4.74
301.676	4.8
302.046	4.95
302.416	4.96
302.787	4.92
303.157	5.05
303.527	5.12
303.897	5.25
304.267	5.28
304.637	5.48
305.008	5.64
305.378	5.73
305.748	5.71
306.117	5.68
306.487	5.74
306.857	5.86
307.227	5.99
307.597	6.19
307.967	6.13
308.336	6.19
308.706	6.3
309.076	6.46
309.445	6.63
309.815	6.68
310.184	6.62
310.554	6.71
310.923	6.69
311.293	6.73
311.662	6.77
312.031	6.71
312.401	6.6
312.77	6.62
313.139	6.62
313.508	6.6
313.877	6.64
314.246	6.72
314.616	6.76
314.985	6.71
315.353	6.7
315.722	6.89
316.091	6.88
316.46	6.96
316.829	7.01
317.198	7.01
317.567	7.06
317.935	7.32
318.304	7.35
318.672	7.43
319.041	7.48
319.41	7.6
319.778	7.75
320.147	7.78
320.515	7.86
320.883	7.92
321.252	7.96
321.62	8.12
321.988	8.24
322.357	8.16
322.725	8.22
323.093	8.18
323.461	8.13
323.829	8.27
324.197	8.14
324.565	8.19
324.933	8.07
325.301	8
325.669	7.89
326.037	7.85
326.405	7.82
326.772	7.76
327.14	7.69
327.508	7.58
327.875	7.66
328.243	7.72
328.61	7.75
328.978	7.85
329.346	7.79
329.713	7.63
330.08	7.78
330.448	7.87
330.815	7.99
331.182	7.94
331.55	7.98
331.917	8.12
332.284	8.13
332.651	8.23
333.018	8.24
333.385	8.35
333.752	8.36
334.119	8.37
334.486	8.38
334.853	8.46
335.22	8.59
335.587	8.58
335.954	8.54
336.32	8.51
336.687	8.44
337.054	8.44
337.42	8.47
337.787	8.45
338.153	8.46
338.52	8.59
338.886	8.68
339.253	8.59
339.619	8.63
339.986	8.6
340.352	8.55
340.718	8.66
341.084	8.6
341.451	8.72
341.817	8.89
342.183	8.87
342.549	8.93
342.915	8.9
343.281	9.03
343.647	9.1
344.013	9.18
344.379	9.2
344.745	9.33
345.11	9.41
345.476	9.38
345.842	9.42
346.208	9.38
346.573	9.38
346.939	9.5
347.304	9.44
347.67	9.42
348.035	9.52
348.401	9.49
348.766	9.53
349.132	9.44
349.497	9.4
349.862	9.5
350.228	9.39
350.593	9.45
350.958	9.41
351.323	9.42
351.688	9.4
352.053	9.47
352.418	9.36
352.783	9.3
353.148	9.3
353.513	9.15
353.878	9.08
354.243	8.99
354.608	9.01
354.972	9.03
355.337	9.16
355.702	9.17
356.066	9.09
356.431	9.16
356.795	9.25
357.16	9.22
357.524	9.24
357.889	9.26
358.253	9.31
358.618	9.31
358.982	9.23
359.346	9.25
359.71	9.25
360.075	9.26
360.439	9.24
360.803	9.31
361.167	9.4
361.531	9.39
361.895	9.47
362.259	9.44
362.623	9.41
362.987	9.3
363.351	9.28
363.714	9.4
364.078	9.29
364.442	9.24
364.806	9.24
365.169	9.19
365.533	9.17
365.896	9.08
366.26	9.07
366.623	9.04
366.987	8.99
367.35	8.93
367.714	8.9
368.077	8.93
368.44	8.85
368.803	8.82
369.167	8.79
369.53	8.71
369.893	8.69
370.256	8.72
370.619	8.67
370.982	8.61
371.345	8.53
371.708	8.58
372.071	8.5
372.434	8.42
372.797	8.37
373.159	8.35
373.522	8.33
373.885	8.28
374.247	8.23
374.61	8.26
374.973	8.26
375.335	8.21
375.698	8.16
376.06	8.12
376.423	8.09
376.785	8.08
377.147	8.07
377.51	8.02
377.872	7.97
378.234	8.02
378.596	8.04
378.958	7.99
379.321	7.89
379.683	7.92
380.045	7.89
380.407	7.9
380.769	7.88
381.13	7.84
381.492	7.82
381.854	7.89
382.216	7.86
382.578	7.82
382.939	7.78
383.301	7.75
383.663	7.66
384.024	7.58
384.386	7.53
384.747	7.48
385.109	7.4
385.47	7.4
385.832	7.28
386.193	7.27
386.554	7.25
386.916	7.26
387.277	7.15
387.638	7.15
387.999	7.16
388.36	7.13
388.721	7.09
389.082	7.08
389.443	6.99
389.804	6.96
390.165	6.91
390.526	6.88
390.887	6.82
391.248	6.82
391.609	6.84
391.969	6.78
392.33	6.75
392.691	6.73
393.051	6.67
393.412	6.7
393.772	6.65
394.133	6.63
394.493	6.62
394.854	6.6
395.214	6.57
395.574	6.49
395.935	6.48
396.295	6.47
396.655	6.42
397.015	6.39
397.376	6.36
397.736	6.33
398.096	6.3
398.456	6.3
398.816	6.28
399.176	6.21
399.535	6.19
399.895	6.2
400.255	6.22
400.615	6.21
400.975	6.19
401.334	6.13
401.694	6.1
402.054	6.07
402.413	6.06
402.773	6.02
403.132	5.97
403.492	5.94
403.851	5.92
404.211	5.89
404.57	5.89
404.929	5.84
405.288	5.82
405.648	5.79
406.007	5.79
406.366	5.74
406.725	5.72
407.084	5.74
407.443	5.69
407.802	5.66
408.161	5.6
408.52	5.57
408.879	5.59
409.238	5.59
409.596	5.57
409.955	5.56
410.314	5.54
410.673	5.55
411.031	5.54
411.39	5.51
411.748	5.51
412.107	5.46
412.465	5.47
412.824	5.44
413.182	5.44
413.54	5.4
413.899	5.39
414.257	5.43
414.615	5.4
414.974	5.37
415.332	5.35
415.69	5.33
416.048	5.32
416.406	5.28
416.764	5.24
417.122	5.2
417.48	5.19
417.838	5.15
418.195	5.13
418.553	5.09
418.911	5.07
419.269	5.06
419.626	5.05
419.984	5.01
420.342	5
420.699	4.97
421.057	4.95
421.414	4.93
421.772	4.9
422.129	4.88
422.486	4.87
422.844	4.85
423.201	4.83
423.558	4.81
423.915	4.79
424.273	4.79
424.63	4.79
424.987	4.77
425.344	4.77
425.701	4.74
426.058	4.75
426.415	4.73
426.772	4.71
427.128	4.69
427.485	4.68
427.842	4.66
428.199	4.65
428.555	4.65
428.912	4.63
429.269	4.61
429.625	4.58
429.982	4.59
430.338	4.58
430.695	4.57
431.051	4.56
431.407	4.54
431.764	4.51
432.12	4.52
432.476	4.51
432.832	4.49
433.189	4.47
433.545	4.47
433.901	4.47
434.257	4.47
434.613	4.47
434.969	4.49
435.325	4.5
435.681	4.51
436.036	4.49
436.392	4.5
436.748	4.52
437.104	4.53
437.459	4.53
437.815	4.52
438.171	4.52
438.526	4.53
438.882	4.55
439.237	4.57
439.593	4.57
439.948	4.57
440.304	4.58
440.659	4.6
441.014	4.59
441.369	4.58
441.725	4.56
442.08	4.56
442.435	4.55
442.79	4.55
443.145	4.54
443.5	4.54
443.855	4.54
444.21	4.54
444.565	4.54
444.92	4.54
445.275	4.54
445.629	4.53
445.984	4.51
446.339	4.49
446.693	4.48
447.048	4.45
447.403	4.43
447.757	4.42
448.112	4.42
448.466	4.42
448.82	4.42
449.175	4.42
449.529	4.41
449.883	4.39
450.238	4.37
450.592	4.37
450.946	4.36
451.3	4.32
451.654	4.28
452.008	4.25
452.362	4.22
452.716	4.22
453.07	4.24
453.424	4.24
453.778	4.23
454.132	4.22
454.486	4.23
454.839	4.23
455.193	4.23
455.547	4.22
455.9	4.21
456.254	4.2
456.607	4.21
456.961	4.22
457.314	4.22
457.668	4.22
458.021	4.22
458.375	4.22
458.728	4.23
459.081	4.26
459.434	4.26
459.787	4.27
460.141	4.26
460.494	4.26
460.847	4.26
461.2	4.28
461.553	4.27
461.906	4.28
462.259	4.29
462.611	4.31
462.964	4.31
463.317	4.34
463.67	4.34
464.022	4.36
464.375	4.33
464.728	4.36
465.08	4.36
465.433	4.39
465.785	4.42
466.138	4.44
466.49	4.45
466.843	4.48
467.195	4.5
467.547	4.51
467.899	4.51
468.252	4.53
468.604	4.53
468.956	4.58
469.308	4.59
469.66	4.61
470.012	4.62
470.364	4.65
470.716	4.65
471.068	4.68
471.42	4.7
471.772	4.74
472.123	4.75
472.475	4.79
472.827	4.78
473.178	4.77
473.53	4.83
473.882	4.85
474.233	4.83
474.585	4.84
474.936	4.86
475.288	4.86
475.639	4.87
475.99	4.88
476.342	4.89
476.693	4.9
477.044	4.89
477.395	4.89
477.746	4.89
478.097	4.89
478.448	4.87
478.8	4.87
479.15	4.87
479.501	4.85
479.852	4.83
480.203	4.83
480.554	4.82
480.905	4.81
481.255	4.8
481.606	4.82
481.957	4.82
482.307	4.83
482.658	4.83
483.009	4.82
483.359	4.82
483.709	4.81
484.06	4.81
484.41	4.81
484.761	4.8
485.111	4.8
485.461	4.8
485.811	4.8
486.162	4.79
486.512	4.78
486.862	4.78
487.212	4.77
487.562	4.78
487.912	4.78
488.262	4.77
488.612	4.77
488.961	4.75
489.311	4.75
489.661	4.74
490.011	4.72
490.36	4.73
490.71	4.73
491.06	4.73
491.409	4.72
491.759	4.73
492.108	4.72
492.458	4.72
492.807	4.73
493.157	4.73
493.506	4.77
493.855	4.78
494.204	4.78
494.554	4.81
494.903	4.83
495.252	4.86
495.601	4.89
495.95	4.9
496.299	4.92
496.648	4.94
496.997	4.96
497.346	5.02
497.695	5.05
498.043	5.1
498.392	5.14
498.741	5.2
499.09	5.23
499.438	5.32
499.787	5.38
500.135	5.42
500.484	5.48
500.832	5.52
501.181	5.6
501.529	5.69
501.878	5.75
502.226	5.83
502.574	5.86
502.923	5.93
503.271	6.03
503.619	6.12
503.967	6.19
504.315	6.3
504.663	6.38
505.011	6.48
505.359	6.56
505.707	6.64
506.055	6.73
506.403	6.82
506.751	6.89
507.098	6.96
507.446	7.06
507.794	7.16
508.141	7.26
508.489	7.36
508.837	7.44
509.184	7.56
509.531	7.65
509.879	7.79
510.226	7.88
510.574	7.99
510.921	8.11
511.268	8.24
511.616	8.36
511.963	8.48
512.31	8.62
512.657	8.76
513.004	8.9
513.351	9.05
513.698	9.22
514.045	9.41
514.392	9.6
514.739	9.79
515.086	9.97
515.432	10.18
515.779	10.34
516.126	10.55
516.473	10.73
516.819	10.93
517.166	11.11
517.512	11.28
517.859	11.46
518.205	11.62
518.552	11.77
518.898	11.91
519.245	12.07
519.591	12.21
519.937	12.41
520.283	12.57
520.629	12.78
520.976	12.97
521.322	13.17
521.668	13.4
522.014	13.61
522.36	13.84
522.706	14.04
523.052	14.31
523.398	14.58
523.743	14.84
524.089	15.09
524.435	15.33
524.781	15.56
525.126	15.75
525.472	15.96
525.817	16.17
526.163	16.35
526.509	16.5
526.854	16.67
527.199	16.78
527.545	16.95
527.89	17.06
528.235	17.22
528.581	17.36
528.926	17.5
529.271	17.65
529.616	17.78
529.961	17.94
530.306	18.07
530.651	18.18
530.996	18.32
531.341	18.48
531.686	18.66
532.031	18.83
532.376	19.02
532.721	19.19
533.065	19.36
533.41	19.56
533.755	19.78
534.099	19.95
534.444	20.14
534.788	20.31
535.133	20.52
535.477	20.69
535.822	20.87
536.166	21.06
536.51	21.28
536.855	21.48
537.199	21.65
537.543	21.88
537.887	22.15
538.231	22.4
538.576	22.61
538.92	22.83
539.264	23.03
539.608	23.21
539.951	23.41
540.295	23.57
540.639	23.73
540.983	23.89
541.327	24.08
541.671	24.25
542.014	24.42
542.358	24.58
542.701	24.73
543.045	24.89
543.389	25.05
543.732	25.16
544.075	25.34
544.419	25.53
544.762	25.74
545.105	25.9
545.449	26.08
545.792	26.28
546.135	26.51
546.478	26.7
546.821	26.95
547.165	27.17
547.508	27.43
547.851	27.67
548.194	27.88
548.536	28.08
548.879	28.31
549.222	28.53
549.565	28.78
549.908	29.01
550.25	29.25
550.593	29.53
550.936	29.81
551.278	30.06
551.621	30.35
551.963	30.56
552.306	30.83
552.648	31.04
552.991	31.27
553.333	31.39
553.675	31.69
554.017	31.89
554.36	32.12
554.702	32.32
555.044	32.55
555.386	32.79
555.728	33.06
556.07	33.3
556.412	33.52
556.754	33.72
557.096	33.96
557.438	34.16
557.78	34.32
558.121	34.51
558.463	34.69
558.805	34.88
559.147	35.1
559.488	35.25
559.83	35.45
560.171	35.68
560.513	35.93
560.854	36.05
561.196	36.26
561.537	36.46
561.878	36.67
562.22	36.86
562.561	37.04
562.902	37.23
563.243	37.4
563.584	37.61
563.925	37.76
564.266	37.87
564.607	38.03
564.948	38.23
565.289	38.4
565.63	38.53
565.971	38.68
566.312	38.83
566.653	39
566.993	39.2
567.334	39.33
567.675	39.47
568.015	39.62
568.356	39.78
568.696	39.94
569.037	40.07
569.377	40.19
569.718	40.35
570.058	40.48
570.398	40.59
570.739	40.75
571.079	40.89
571.419	41.06
571.759	41.2
572.099	41.31
572.439	41.44
572.779	41.62
573.119	41.75
573.459	41.9
573.799	42.02
574.139	42.15
574.479	42.25
574.819	42.4
575.158	42.52
575.498	42.65
575.838	42.78
576.177	42.92
576.517	43.03
576.856	43.16
577.196	43.25
577.535	43.4
577.875	43.53
578.214	43.61
578.553	43.76
578.893	43.86
579.232	43.97
579.571	44.14
579.91	44.25
580.25	44.37
580.589	44.41
580.928	44.48
581.267	44.55
581.606	44.62
581.945	44.76
582.283	44.86
582.622	44.95
582.961	45.02
583.3	45.14
583.639	45.23
583.977	45.29
584.316	45.41
584.654	45.5
584.993	45.51
585.332	45.63
585.67	45.71
586.008	45.76
586.347	45.78
586.685	45.86
587.024	45.95
587.362	46.04
587.7	46.18
588.038	46.31
588.376	46.37
588.715	46.52
589.053	46.6
589.391	46.73
589.729	46.82
590.067	46.83
590.404	46.84
590.742	46.93
591.08	47.06
591.418	47.13
591.756	47.19
592.093	47.31
592.431	47.39
592.769	47.41
593.106	47.52
593.444	47.67
593.781	47.65
594.119	47.72
594.456	47.76
594.793	47.78
595.131	47.82
595.468	47.94
595.805	47.99
596.143	47.98
596.48	48.05
596.817	48.03
597.154	48.12
597.491	48.25
597.828	48.29
598.165	48.29
598.502	48.35
598.839	48.38
599.176	48.48
599.512	48.51
599.849	48.63
600.186	48.79
600.523	48.83
600.859	48.94
601.196	48.89
601.532	48.97
601.869	49.07
602.205	49.12
602.542	49.11
602.878	49.14
603.215	49.22
603.551	49.23
603.887	49.37
604.223	49.38
604.56	49.44
604.896	49.53
605.232	49.57
605.568	49.62
605.904	49.66
606.24	49.69
606.576	49.73
606.912	49.79
607.248	49.78
607.583	49.88
607.919	49.91
608.255	50.02
608.591	50.05
608.926	50.14
609.262	50.14
609.597	50.19
609.933	50.28
610.268	50.3
610.604	50.36
610.939	50.28
611.275	50.35
611.61	50.23
611.945	50.2
612.281	50.27
612.616	50.33
612.951	50.45
613.286	50.47
613.621	50.64
613.956	50.68
614.291	50.64
614.626	50.6
614.961	50.65
615.296	50.77
615.631	50.87
615.966	50.76
616.3	50.8
616.635	50.81
616.97	50.78
617.304	50.84
617.639	50.75
617.973	50.85
618.308	50.82
618.642	50.95
618.977	51.02
619.311	51.02
619.646	51.06
619.98	51.01
620.314	50.96
620.648	50.82
620.983	50.86
621.317	50.94
621.651	50.9
621.985	50.93
622.319	50.92
622.653	50.89
622.987	51.03
623.321	51.15
623.655	51.28
623.988	51.37
624.322	51.34
624.656	51.46
624.99	51.49
625.323	51.66
625.657	51.74
625.99	51.84
626.324	51.94
626.657	51.81
626.991	51.86
627.324	51.93
627.658	52.03
627.991	52.03
628.324	52.08
628.657	52.23
628.991	52.22
629.324	52.17
629.657	52.12
629.99	52.14
630.323	52.17
630.656	52.19
630.989	52.08
631.322	52.12
631.655	52.23
631.987	52.31
632.32	52.21
632.653	52.18
632.986	52.16
633.318	52.1
633.651	52.24
633.984	52.29
634.316	52.3
634.649	52.42
634.981	52.41
635.313	52.45
635.646	52.46
635.978	52.51
636.31	52.56
636.643	52.66
636.975	52.73
637.307	52.7
637.639	52.71
637.971	52.79
638.303	52.86
638.635	52.79
638.967	52.71
639.299	52.77
639.631	52.77
639.963	52.65
640.295	52.66
640.626	52.71
640.958	52.75
641.29	52.79
641.621	52.72
641.953	52.69
642.285	52.64
642.616	52.63
642.948	52.66
643.279	52.64
643.61	52.67
643.942	52.72
644.273	52.79
644.604	52.67
644.936	52.79
645.267	52.79
645.598	52.79
645.929	52.82
646.26	52.8
646.591	52.86
646.922	52.98
647.253	53.02
647.584	52.95
647.915	52.99
648.245	52.98
648.576	52.97
648.907	53.08
649.238	53.1
649.568	53.03
649.899	53.03
650.229	53.19
650.56	53.18
650.89	53.12
651.221	53.1
651.551	53.24
651.882	53.19
652.212	53.22
652.542	53.23
652.872	53.28
653.203	53.28
653.533	53.26
653.863	53.24
654.193	53.28
654.523	53.28
654.853	53.28
655.183	53.33
655.513	53.44
655.843	53.45
656.172	53.57
656.502	53.64
656.832	53.67
657.162	53.67
657.491	53.69
657.821	53.64
658.15	53.59
658.48	53.58
658.809	53.61
659.139	53.54
659.468	53.53
659.798	53.7
660.127	53.71
660.456	53.71
660.785	53.68
661.115	53.64
661.444	53.77
661.773	53.77
662.102	53.77
662.431	53.74
662.76	53.73
663.089	53.75
663.418	53.76
663.747	53.92
664.076	53.81
664.404	53.87
664.733	53.98
665.062	54.02
665.39	54.07
665.719	54.11
666.048	54.16
666.376	54.24
666.705	54.12
667.033	54.22
